05/08/2022	20:09:51	Ver.	4.1	UNKNOWN
Optical Delay	600.015094	Delta X		0.078125	Sweeps	1	Scan Rate	0/0
Coordinates	Axis 1	NaN	Axis 2	NaN	Axis 3	NaN	Axis 4	NaN	Axis 5	NaN	Axis 6	0.000000
TX Power	0.000000	RX Power	0.000000

600.015	0.0137328
600.093	0.0136919
600.171	0.0136384
600.249	0.0134467
600.328	0.0136545
600.406	0.0137634
600.484	0.0137103
600.562	0.0136531
600.640	0.0137108
600.718	0.0134391
600.796	0.0136924
600.874	0.0136703
600.953	0.0134903
601.031	0.0136521
601.109	0.0136508
601.187	0.0136566
601.265	0.0135697
601.343	0.0137037
601.421	0.0135271
601.499	0.0137125
601.578	0.0137244
601.656	0.0136699
601.734	0.0136931
601.812	0.0136943
601.890	0.0137386
601.968	0.0137386
602.046	0.0136978
602.124	0.0135882
602.203	0.0137957
602.281	0.0137800
602.359	0.0137383
602.437	0.0137766
602.515	0.0138103
602.593	0.0137572
602.671	0.0137187
602.749	0.0137618
602.828	0.0138199
602.906	0.0136458
602.984	0.0137940
603.062	0.0136939
603.140	0.0137041
603.218	0.0137206
603.296	0.0137149
603.374	0.0137385
603.453	0.0138391
603.531	0.0136692
603.609	0.0137901
603.687	0.0138134
603.765	0.0137282
603.843	0.0138086
603.921	0.0137567
603.999	0.0137751
604.078	0.0139153
604.156	0.0136912
604.234	0.0137193
604.312	0.0137860
604.390	0.0137457
604.468	0.0136108
604.546	0.0137126
604.624	0.0136626
604.703	0.0137811
604.781	0.0137577
604.859	0.0138929
604.937	0.0138648
605.015	0.0138869
605.093	0.0137186
605.171	0.0136830
605.249	0.0137515
605.328	0.0137723
605.406	0.0138180
605.484	0.0137979
605.562	0.0137996
605.640	0.0137057
605.718	0.0139040
605.796	0.0139216
605.874	0.0138766
605.953	0.0138638
606.031	0.0137716
606.109	0.0138916
606.187	0.0138374
606.265	0.0136902
606.343	0.0138503
606.421	0.0137646
606.499	0.0137841
606.578	0.0139616
606.656	0.0138360
606.734	0.0138738
606.812	0.0138686
606.890	0.0137601
606.968	0.0137546
607.046	0.0138214
607.124	0.0137790
607.203	0.0138072
607.281	0.0137778
607.359	0.0137792
607.437	0.0136008
607.515	0.0137905
607.593	0.0138338
607.671	0.0137686
607.749	0.0136610
607.828	0.0139100
607.906	0.0136822
607.984	0.0137763
608.062	0.0138736
608.140	0.0138118
608.218	0.0137165
608.296	0.0137640
608.374	0.0137183
608.453	0.0137561
608.531	0.0136788
608.609	0.0137772
608.687	0.0137103
608.765	0.0137071
608.843	0.0137349
608.921	0.0136832
608.999	0.0138100
609.078	0.0137208
609.156	0.0138286
609.234	0.0137641
609.312	0.0136535
609.390	0.0137305
609.468	0.0136573
609.546	0.0137207
609.624	0.0137458
609.703	0.0136671
609.781	0.0137496
609.859	0.0135886
609.937	0.0135976
610.015	0.0137186
610.093	0.0137187
610.171	0.0136816
610.249	0.0136683
610.328	0.0137158
610.406	0.0136845
610.484	0.0137360
610.562	0.0136275
610.640	0.0136700
610.718	0.0136718
610.796	0.0136710
610.874	0.0136795
610.953	0.0135845
611.031	0.0137016
611.109	0.0137094
611.187	0.0137703
611.265	0.0137141
611.343	0.0136488
611.421	0.0137000
611.499	0.0136514
611.578	0.0135569
611.656	0.0135991
611.734	0.0138679
611.812	0.0136453
611.890	0.0137468
611.968	0.0136236
612.046	0.0137421
612.124	0.0137057
612.203	0.0137345
612.281	0.0137818
612.359	0.0137580
612.437	0.0137258
612.515	0.0136205
612.593	0.0136338
612.671	0.0136494
612.749	0.0136741
612.828	0.0137967
612.906	0.0137061
612.984	0.0136613
613.062	0.0139088
613.140	0.0136497
613.218	0.0137740
613.296	0.0137149
613.374	0.0136945
613.453	0.0138308
613.531	0.0136768
613.609	0.0137904
613.687	0.0137629
613.765	0.0137167
613.843	0.0136304
613.921	0.0137946
613.999	0.0137312
614.078	0.0136708
614.156	0.0137845
614.234	0.0137396
614.312	0.0138235
614.390	0.0137997
614.468	0.0138261
614.546	0.0137738
614.624	0.0136986
614.703	0.0137445
614.781	0.0137203
614.859	0.0135526
614.937	0.0137622
615.015	0.0138360
615.093	0.0137823
615.171	0.0136974
615.249	0.0136237
615.328	0.0136594
615.406	0.0136588
615.484	0.0136361
615.562	0.0136882
615.640	0.0137127
615.718	0.0137215
615.796	0.0136948
615.874	0.0136764
615.953	0.0137146
616.031	0.0136526
616.109	0.0137926
616.187	0.0137734
616.265	0.0136742
616.343	0.0136435
616.421	0.0136357
616.499	0.0136809
616.578	0.0137683
616.656	0.0138680
616.734	0.0137534
616.812	0.0137378
616.890	0.0136594
616.968	0.0136420
617.046	0.0137151
617.124	0.0134868
617.203	0.0136687
617.281	0.0136838
617.359	0.0136623
617.437	0.0136296
617.515	0.0136469
617.593	0.0136610
617.671	0.0136718
617.749	0.0136755
617.828	0.0137964
617.906	0.0136026
617.984	0.0137329
618.062	0.0136615
618.140	0.0137479
618.218	0.0136964
618.296	0.0137371
618.374	0.0137701
618.453	0.0137186
618.531	0.0136876
618.609	0.0136418
618.687	0.0137818
618.765	0.0136045
618.843	0.0137345
618.921	0.0136286
618.999	0.0136562
619.078	0.0136559
619.156	0.0137544
619.234	0.0137263
619.312	0.0136591
619.390	0.0137518
619.468	0.0137115
619.546	0.0137217
619.624	0.0138219
619.703	0.0137774
619.781	0.0137807
619.859	0.0137265
619.937	0.0137577
620.015	0.0137653
620.093	0.0137493
620.171	0.0137814
620.249	0.0139222
620.328	0.0137553
620.406	0.0137199
620.484	0.0137111
620.562	0.0136557
620.640	0.0137421
620.718	0.0138654
620.796	0.0138289
620.874	0.0136589
620.953	0.0137693
621.031	0.0137682
621.109	0.0138327
621.187	0.0137459
621.265	0.0136869
621.343	0.0135989
621.421	0.0137778
621.499	0.0137682
621.578	0.0136781
621.656	0.0137397
621.734	0.0137848
621.812	0.0137931
621.890	0.0137157
621.968	0.0137170
622.046	0.0138660
622.124	0.0138913
622.203	0.0137909
622.281	0.0137887
622.359	0.0137462
622.437	0.0138297
622.515	0.0137824
622.593	0.0138806
622.671	0.0137726
622.749	0.0137557
622.828	0.0138470
622.906	0.0139289
622.984	0.0138451
623.062	0.0138291
623.140	0.0139209
623.218	0.0137972
623.296	0.0137686
623.374	0.0138046
623.453	0.0137517
623.531	0.0138100
623.609	0.0138082
623.687	0.0137730
623.765	0.0137975
623.843	0.0139501
623.921	0.0138007
623.999	0.0136129
624.078	0.0136966
624.156	0.0138363
624.234	0.0139568
624.312	0.0137119
624.390	0.0137603
624.468	0.0138425
624.546	0.0138686
624.624	0.0138200
624.703	0.0136180
624.781	0.0136338
624.859	0.0137646
624.937	0.0138337
625.015	0.0139352
625.093	0.0137180
625.171	0.0138300
625.249	0.0139085
625.328	0.0137228
625.406	0.0137487
625.484	0.0138683
625.562	0.0138474
625.640	0.0137712
625.718	0.0137124
625.796	0.0138278
625.874	0.0137866
625.953	0.0137225
626.031	0.0137993
626.109	0.0138003
626.187	0.0139465
626.265	0.0138477
626.343	0.0138794
626.421	0.0138227
626.499	0.0138128
626.578	0.0138519
626.656	0.0137839
626.734	0.0137679
626.812	0.0138109
626.890	0.0138063
626.968	0.0136827
627.046	0.0136459
627.124	0.0137838
627.203	0.0137708
627.281	0.0139085
627.359	0.0136929
627.437	0.0137575
627.515	0.0137926
627.593	0.0138415
627.671	0.0137788
627.749	0.0137399
627.828	0.0137950
627.906	0.0136366
627.984	0.0137520
628.062	0.0138614
628.140	0.0136819
628.218	0.0137450
628.296	0.0136842
628.374	0.0138471
628.453	0.0137218
628.531	0.0138142
628.609	0.0138235
628.687	0.0137496
628.765	0.0139542
628.843	0.0139124
628.921	0.0137930
628.999	0.0138648
629.078	0.0138298
629.156	0.0137875
629.234	0.0138757
629.312	0.0138258
629.390	0.0137352
629.468	0.0136858
629.546	0.0137445
629.624	0.0137080
629.703	0.0138113
629.781	0.0139234
629.859	0.0136277
629.937	0.0137746
630.015	0.0137510
630.093	0.0138539
630.171	0.0138409
630.249	0.0136230
630.328	0.0136265
630.406	0.0136832
630.484	0.0137298
630.562	0.0137154
630.640	0.0137463
630.718	0.0138992
630.796	0.0138148
630.874	0.0136976
630.953	0.0136044
631.031	0.0136901
631.109	0.0135963
631.187	0.0137394
631.265	0.0136884
631.343	0.0136118
631.421	0.0136649
631.499	0.0136773
631.578	0.0137057
631.656	0.0136729
631.734	0.0137196
631.812	0.0137077
631.890	0.0138013
631.968	0.0138300
632.046	0.0137413
632.124	0.0137450
632.203	0.0137286
632.281	0.0136923
632.359	0.0135564
632.437	0.0136260
632.515	0.0137978
632.593	0.0137134
632.671	0.0137389
632.749	0.0139396
632.828	0.0137778
632.906	0.0137593
632.984	0.0137920
633.062	0.0138390
633.140	0.0137610
633.218	0.0136610
633.296	0.0136980
633.374	0.0136537
633.453	0.0137257
633.531	0.0137546
633.609	0.0138086
633.687	0.0137611
633.765	0.0136163
633.843	0.0136460
633.921	0.0137365
633.999	0.0137330
634.078	0.0137830
634.156	0.0138647
634.234	0.0138156
634.312	0.0137149
634.390	0.0136778
634.468	0.0137280
634.546	0.0137375
634.624	0.0137395
634.703	0.0138322
634.781	0.0136862
634.859	0.0136556
634.937	0.0138749
635.015	0.0137312
635.093	0.0138457
635.171	0.0137146
635.249	0.0137022
635.328	0.0138358
635.406	0.0138417
635.484	0.0137601
635.562	0.0136473
635.640	0.0136263
635.718	0.0137200
635.796	0.0136715
635.874	0.0137526
635.953	0.0137448
636.031	0.0138068
636.109	0.0138446
636.187	0.0138350
636.265	0.0137682
636.343	0.0137029
636.421	0.0137766
636.499	0.0139365
636.578	0.0138382
636.656	0.0137368
636.734	0.0137919
636.812	0.0138531
636.890	0.0137853
636.968	0.0138158
637.046	0.0137735
637.124	0.0137984
637.203	0.0137702
637.281	0.0136979
637.359	0.0137495
637.437	0.0136233
637.515	0.0136611
637.593	0.0137488
637.671	0.0136752
637.749	0.0137154
637.828	0.0136613
637.906	0.0136839
637.984	0.0138982
638.062	0.0137230
638.140	0.0136375
638.218	0.0138247
638.296	0.0137234
638.374	0.0137060
638.453	0.0137643
638.531	0.0138201
638.609	0.0138168
638.687	0.0136906
638.765	0.0137600
638.843	0.0138530
638.921	0.0138409
638.999	0.0139566
639.078	0.0138686
639.156	0.0139021
639.234	0.0138930
639.312	0.0137664
639.390	0.0138262
639.468	0.0138126
639.546	0.0139391
639.624	0.0138536
639.703	0.0138882
639.781	0.0139384
639.859	0.0139526
639.937	0.0138516
640.015	0.0138271
640.093	0.0138660
640.171	0.0138545
640.249	0.0137552
640.328	0.0137639
640.406	0.0138494
640.484	0.0139366
640.562	0.0138068
640.640	0.0138677
640.718	0.0137309
640.796	0.0137114
640.874	0.0137859
640.953	0.0137263
641.031	0.0139230
641.109	0.0136268
641.187	0.0136983
641.265	0.0137627
641.343	0.0135226
641.421	0.0137054
641.499	0.0138074
641.578	0.0137798
641.656	0.0135970
641.734	0.0136878
641.812	0.0137175
641.890	0.0138647
641.968	0.0137849
642.046	0.0138683
642.124	0.0138049
642.203	0.0137838
642.281	0.0138448
642.359	0.0138779
642.437	0.0137538
642.515	0.0138464
642.593	0.0136829
642.671	0.0136823
642.749	0.0136336
642.828	0.0137650
642.906	0.0138253
642.984	0.0137666
643.062	0.0138309
643.140	0.0137733
643.218	0.0137081
643.296	0.0138387
643.374	0.0138921
643.453	0.0139212
643.531	0.0137616
643.609	0.0137650
643.687	0.0138035
643.765	0.0137875
643.843	0.0137915
643.921	0.0137879
643.999	0.0137663
644.078	0.0138786
644.156	0.0138845
644.234	0.0137476
644.312	0.0137871
644.390	0.0136836
644.468	0.0137443
644.546	0.0137962
644.624	0.0136099
644.703	0.0138631
644.781	0.0135986
644.859	0.0137124
644.937	0.0136764
645.015	0.0136368
645.093	0.0136102
645.171	0.0138018
645.249	0.0135767
645.328	0.0135558
645.406	0.0137681
645.484	0.0137991
645.562	0.0137653
645.640	0.0137596
645.718	0.0137239
645.796	0.0137959
645.874	0.0138293
645.953	0.0139129
646.031	0.0137929
646.109	0.0139267
646.187	0.0138744
646.265	0.0137061
646.343	0.0138212
646.421	0.0138095
646.499	0.0137085
646.578	0.0136633
646.656	0.0137937
646.734	0.0137145
646.812	0.0136258
646.890	0.0136576
646.968	0.0136783
647.046	0.0136346
647.124	0.0136027
647.203	0.0136703
647.281	0.0136637
647.359	0.0136541
647.437	0.0136381
647.515	0.0136768
647.593	0.0138838
647.671	0.0139557
647.749	0.0139606
647.828	0.0138159
647.906	0.0138644
647.984	0.0139497
648.062	0.0141352
648.140	0.0139922
648.218	0.0137572
648.296	0.0138548
648.374	0.0139262
648.453	0.0139579
648.531	0.0138738
648.609	0.0138793
648.687	0.0138724
648.765	0.0136507
648.843	0.0139212
648.921	0.0137601
648.999	0.0137221
649.078	0.0137734
649.156	0.0137067
649.234	0.0136862
649.312	0.0137104
649.390	0.0136910
649.468	0.0136953
649.546	0.0136946
649.624	0.0136571
649.703	0.0137751
649.781	0.0138658
649.859	0.0137737
649.937	0.0137875
650.015	0.0138134
650.093	0.0137545
650.171	0.0139441
650.249	0.0138431
650.328	0.0138759
650.406	0.0140350
650.484	0.0140102
650.562	0.0140655
650.640	0.0138853
650.718	0.0139584
650.796	0.0138295
650.874	0.0138830
650.953	0.0137536
651.031	0.0136266
651.109	0.0136968
651.187	0.0135436
651.265	0.0134556
651.343	0.0134081
651.421	0.0133490
651.499	0.0131374
651.578	0.0133564
651.656	0.0134043
651.734	0.0134048
651.812	0.0135559
651.890	0.0135113
651.968	0.0136552
652.046	0.0138912
652.124	0.0140030
652.203	0.0139875
652.281	0.0141763
652.359	0.0142327
652.437	0.0143005
652.515	0.0143395
652.593	0.0145394
652.671	0.0144435
652.749	0.0141495
652.828	0.0143214
652.906	0.0141438
652.984	0.0140447
653.062	0.0140002
653.140	0.0137312
653.218	0.0136212
653.296	0.0136385
653.374	0.0133454
653.453	0.0133209
653.531	0.0132562
653.609	0.0131210
653.687	0.0129646
653.765	0.0130179
653.843	0.0130228
653.921	0.0130284
653.999	0.0130049
654.078	0.0130873
654.156	0.0131281
654.234	0.0128996
654.312	0.0131097
654.390	0.0132581
654.468	0.0134132
654.546	0.0133707
654.624	0.0136511
654.703	0.0137691
654.781	0.0138113
654.859	0.0140540
654.937	0.0141983
655.015	0.0142268
655.093	0.0142478
655.171	0.0142822
655.249	0.0144799
655.328	0.0145451
655.406	0.0144654
655.484	0.0146278
655.562	0.0145527
655.640	0.0146004
655.718	0.0145318
655.796	0.0147023
655.874	0.0147179
655.953	0.0146323
656.031	0.0147123
656.109	0.0147404
656.187	0.0146471
656.265	0.0146011
656.343	0.0143943
656.421	0.0142658
656.499	0.0142030
656.578	0.0139388
656.656	0.0136796
656.734	0.0133491
656.812	0.0130788
656.890	0.0129121
656.968	0.0126741
657.046	0.0123928
657.124	0.0122778
657.203	0.0120115
657.281	0.0118617
657.359	0.0117105
657.437	0.0117052
657.515	0.0117824
657.593	0.0116676
657.671	0.0118356
657.749	0.0119677
657.828	0.0121981
657.906	0.0123998
657.984	0.0124541
658.062	0.0126855
658.140	0.0130470
658.218	0.0134444
658.296	0.0135361
658.374	0.0137576
658.453	0.0140283
658.531	0.0143915
658.609	0.0147046
658.687	0.0150005
658.765	0.0151328
658.843	0.0154946
658.921	0.0156250
658.999	0.0157450
659.078	0.0159258
659.156	0.0159817
659.234	0.0162086
659.312	0.0162587
659.390	0.0163283
659.468	0.0160238
659.546	0.0161192
659.624	0.0161022
659.703	0.0160156
659.781	0.0156403
659.859	0.0154929
659.937	0.0150331
660.015	0.0147175
660.093	0.0144925
660.171	0.0140737
660.249	0.0136530
660.328	0.0130286
660.406	0.0126727
660.484	0.0123108
660.562	0.0119402
660.640	0.0116001
660.718	0.0113116
660.796	0.0109049
660.874	0.0106728
660.953	0.0105878
661.031	0.0104302
661.109	0.0102121
661.187	0.0103751
661.265	0.0103586
661.343	0.0103650
661.421	0.0105767
661.499	0.0108904
661.578	0.0109663
661.656	0.0114446
661.734	0.0117635
661.812	0.0120377
661.890	0.0125983
661.968	0.0132682
662.046	0.0136584
662.124	0.0140301
662.203	0.0146356
662.281	0.0152206
662.359	0.0156873
662.437	0.0160769
662.515	0.0165106
662.593	0.0167897
662.671	0.0171255
662.749	0.0173827
662.828	0.0174056
662.906	0.0175202
662.984	0.0174731
663.062	0.0173021
663.140	0.0172356
663.218	0.0169073
663.296	0.0167929
663.374	0.0162560
663.453	0.0160616
663.531	0.0158301
663.609	0.0153662
663.687	0.0150653
663.765	0.0146342
663.843	0.0142477
663.921	0.0138602
663.999	0.0133659
664.078	0.0130054
664.156	0.0127718
664.234	0.0123894
664.312	0.0119688
664.390	0.0117651
664.468	0.0115285
664.546	0.0113137
664.624	0.0110426
664.703	0.0108315
664.781	0.0107287
664.859	0.0108153
664.937	0.0106843
665.015	0.0106267
665.093	0.0107179
665.171	0.0109743
665.249	0.0110471
665.328	0.0112283
665.406	0.0112915
665.484	0.0114687
665.562	0.0117807
665.640	0.0119094
665.718	0.0122729
665.796	0.0125191
665.874	0.0127130
665.953	0.0130274
666.031	0.0134235
666.109	0.0137824
666.187	0.0138454
666.265	0.0142928
666.343	0.0145735
666.421	0.0149011
666.499	0.0151569
666.578	0.0153439
666.656	0.0156466
666.734	0.0159590
666.812	0.0161916
666.890	0.0163400
666.968	0.0164719
667.046	0.0167527
667.124	0.0167797
667.203	0.0168702
667.281	0.0170188
667.359	0.0169856
667.437	0.0167587
667.515	0.0167368
667.593	0.0166214
667.671	0.0162746
667.749	0.0159251
667.828	0.0157726
667.906	0.0154119
667.984	0.0150277
668.062	0.0145238
668.140	0.0141072
668.218	0.0136157
668.296	0.0133466
668.374	0.0129883
668.453	0.0126072
668.531	0.0120967
668.609	0.0119317
668.687	0.0118338
668.765	0.0115059
668.843	0.0111903
668.921	0.0110503
668.999	0.0110048
669.078	0.0110364
669.156	0.0110194
669.234	0.0109683
669.312	0.0107993
669.390	0.0109362
669.468	0.0111507
669.546	0.0112173
669.624	0.0114814
669.703	0.0115699
669.781	0.0117265
669.859	0.0120654
669.937	0.0121812
670.015	0.0125082
670.093	0.0128004
670.171	0.0128983
670.249	0.0132871
670.328	0.0136757
670.406	0.0140681
670.484	0.0142221
670.562	0.0143970
670.640	0.0146706
670.718	0.0148946
670.796	0.0152979
670.874	0.0152713
670.953	0.0152686
671.031	0.0152983
671.109	0.0154297
671.187	0.0153915
671.265	0.0156293
671.343	0.0154393
671.421	0.0153687
671.499	0.0153222
671.578	0.0153593
671.656	0.0151125
671.734	0.0151154
671.812	0.0150762
671.890	0.0151050
671.968	0.0149443
672.046	0.0148402
672.124	0.0148125
672.203	0.0148815
672.281	0.0147280
672.359	0.0145805
672.437	0.0145160
672.515	0.0146028
672.593	0.0144250
672.671	0.0144425
672.749	0.0143041
672.828	0.0142683
672.906	0.0141650
672.984	0.0140755
673.062	0.0138608
673.140	0.0136253
673.218	0.0136583
673.296	0.0134897
673.374	0.0132926
673.453	0.0133057
673.531	0.0132224
673.609	0.0130605
673.687	0.0129064
673.765	0.0126407
673.843	0.0125589
673.921	0.0123774
673.999	0.0123232
674.078	0.0122356
674.156	0.0120190
674.234	0.0119283
674.312	0.0117583
674.390	0.0117039
674.468	0.0116888
674.546	0.0118549
674.624	0.0118955
674.703	0.0119711
674.781	0.0120061
674.859	0.0122497
674.937	0.0125033
675.015	0.0128545
675.093	0.0130941
675.171	0.0133794
675.249	0.0137234
675.328	0.0139424
675.406	0.0139838
675.484	0.0141225
675.562	0.0142722
675.640	0.0144621
675.718	0.0144360
675.796	0.0144188
675.874	0.0145418
675.953	0.0142926
676.031	0.0143745
676.109	0.0145627
676.187	0.0145420
676.265	0.0144453
676.343	0.0144933
676.421	0.0145097
676.499	0.0145988
676.578	0.0147256
676.656	0.0149033
676.734	0.0147750
676.812	0.0149122
676.890	0.0149705
676.968	0.0150530
677.046	0.0151269
677.124	0.0153333
677.203	0.0153448
677.281	0.0152565
677.359	0.0152573
677.437	0.0152636
677.515	0.0152946
677.593	0.0151831
677.671	0.0150465
677.749	0.0148223
677.828	0.0145847
677.906	0.0144494
677.984	0.0139507
678.062	0.0137476
678.140	0.0132882
678.218	0.0130769
678.296	0.0127757
678.374	0.0126150
678.453	0.0123515
678.531	0.0123536
678.609	0.0123036
678.687	0.0123508
678.765	0.0123421
678.843	0.0123714
678.921	0.0123869
678.999	0.0124700
679.078	0.0125532
679.156	0.0125101
679.234	0.0124931
679.312	0.0126694
679.390	0.0125905
679.468	0.0125819
679.546	0.0125285
679.624	0.0126633
679.703	0.0127408
679.781	0.0128533
679.859	0.0128777
679.937	0.0131532
680.015	0.0133908
680.093	0.0133857
680.171	0.0136895
680.249	0.0138223
680.328	0.0139329
680.406	0.0141609
680.484	0.0140911
680.562	0.0140426
680.640	0.0142169
680.718	0.0141472
680.796	0.0143199
680.874	0.0142281
680.953	0.0141314
681.031	0.0142371
681.109	0.0143376
681.187	0.0144130
681.265	0.0143071
681.343	0.0141730
681.421	0.0140518
681.499	0.0139108
681.578	0.0139417
681.656	0.0139127
681.734	0.0139865
681.812	0.0138914
681.890	0.0137277
681.968	0.0139337
682.046	0.0138684
682.124	0.0137965
682.203	0.0139314
682.281	0.0140897
682.359	0.0141187
682.437	0.0142229
682.515	0.0142882
682.593	0.0144736
682.671	0.0143967
682.749	0.0145161
682.828	0.0147225
682.906	0.0148182
682.984	0.0148760
683.062	0.0149893
683.140	0.0148630
683.218	0.0149001
683.296	0.0149122
683.374	0.0149886
683.453	0.0148640
683.531	0.0148119
683.609	0.0147298
683.687	0.0146111
683.765	0.0145639
683.843	0.0144628
683.921	0.0140459
683.999	0.0139536
684.078	0.0136662
684.156	0.0134267
684.234	0.0132556
684.312	0.0129316
684.390	0.0125436
684.468	0.0123232
684.546	0.0120315
684.624	0.0118389
684.703	0.0116303
684.781	0.0115110
684.859	0.0114827
684.937	0.0112746
685.015	0.0113615
685.093	0.0113548
685.171	0.0114339
685.249	0.0114717
685.328	0.0117573
685.406	0.0118097
685.484	0.0118579
685.562	0.0120312
685.640	0.0121201
685.718	0.0123296
685.796	0.0126398
685.874	0.0129793
685.953	0.0131078
686.031	0.0135796
686.109	0.0138954
686.187	0.0140479
686.265	0.0144521
686.343	0.0148697
686.421	0.0151236
686.499	0.0153271
686.578	0.0155962
686.656	0.0158029
686.734	0.0160075
686.812	0.0158922
686.890	0.0158898
686.968	0.0160165
687.046	0.0160184
687.124	0.0159293
687.203	0.0156735
687.281	0.0155901
687.359	0.0153615
687.437	0.0152878
687.515	0.0150846
687.593	0.0149525
687.671	0.0146507
687.749	0.0143285
687.828	0.0142514
687.906	0.0138499
687.984	0.0136456
688.062	0.0133275
688.140	0.0132256
688.218	0.0131272
688.296	0.0128595
688.374	0.0127394
688.453	0.0127023
688.531	0.0127192
688.609	0.0127985
688.687	0.0126542
688.765	0.0127832
688.843	0.0127924
688.921	0.0127899
688.999	0.0129693
689.078	0.0131309
689.156	0.0131719
689.234	0.0132994
689.312	0.0133467
689.390	0.0135778
689.468	0.0137679
689.546	0.0137540
689.624	0.0139027
689.703	0.0139458
689.781	0.0138369
689.859	0.0138551
689.937	0.0138027
690.015	0.0134577
690.093	0.0135645
690.171	0.0131857
690.249	0.0130444
690.328	0.0128298
690.406	0.0126395
690.484	0.0125948
690.562	0.0124009
690.640	0.0122926
690.718	0.0122418
690.796	0.0121238
690.874	0.0120117
690.953	0.0120000
691.031	0.0121837
691.109	0.0121772
691.187	0.0124453
691.265	0.0127677
691.343	0.0129278
691.421	0.0131772
691.499	0.0135690
691.578	0.0138617
691.656	0.0141534
691.734	0.0143678
691.812	0.0147093
691.890	0.0148608
691.968	0.0152264
692.046	0.0154617
692.124	0.0156709
692.203	0.0157750
692.281	0.0157172
692.359	0.0158897
692.437	0.0159016
692.515	0.0158887
692.593	0.0158636
692.671	0.0155228
692.749	0.0155930
692.828	0.0153614
692.906	0.0150957
692.984	0.0149006
693.062	0.0147173
693.140	0.0144444
693.218	0.0141652
693.296	0.0139527
693.374	0.0137601
693.453	0.0134916
693.531	0.0132208
693.609	0.0131947
693.687	0.0127433
693.765	0.0125620
693.843	0.0125361
693.921	0.0124305
693.999	0.0122195
694.078	0.0120912
694.156	0.0121574
694.234	0.0120544
694.312	0.0117587
694.390	0.0119746
694.468	0.0120850
694.546	0.0119244
694.624	0.0121123
694.703	0.0121635
694.781	0.0121539
694.859	0.0123436
694.937	0.0123678
695.015	0.0125401
695.093	0.0127294
695.171	0.0128073
695.249	0.0129474
695.328	0.0133086
695.406	0.0134714
695.484	0.0138303
695.562	0.0140028
695.640	0.0141192
695.718	0.0143751
695.796	0.0144054
695.874	0.0147056
695.953	0.0147769
696.031	0.0148892
696.109	0.0149921
696.187	0.0148626
696.265	0.0147501
696.343	0.0148112
696.421	0.0147607
696.499	0.0147214
696.578	0.0146444
696.656	0.0145734
696.734	0.0144592
696.812	0.0145914
696.890	0.0146726
696.968	0.0146613
697.046	0.0147622
697.124	0.0146597
697.203	0.0147446
697.281	0.0146955
697.359	0.0148104
697.437	0.0148146
697.515	0.0145420
697.593	0.0142824
697.671	0.0140516
697.749	0.0138116
697.828	0.0136592
697.906	0.0134838
697.984	0.0132516
698.062	0.0132055
698.140	0.0131120
698.218	0.0129021
698.296	0.0128356
698.374	0.0127015
698.453	0.0128774
698.531	0.0128959
698.609	0.0128588
698.687	0.0129736
698.765	0.0130428
698.843	0.0130246
698.921	0.0129771
698.999	0.0130447
699.078	0.0130109
699.156	0.0131476
699.234	0.0132283
699.312	0.0130106
699.390	0.0130025
699.468	0.0129658
699.546	0.0131043
699.624	0.0131747
699.703	0.0129327
699.781	0.0129463
699.859	0.0129492
699.937	0.0129084
700.015	0.0130392
700.093	0.0130692
700.171	0.0131454
700.249	0.0132841
700.328	0.0133405
700.406	0.0134720
700.484	0.0136241
700.562	0.0138733
700.640	0.0140484
700.718	0.0144342
700.796	0.0145019
700.874	0.0148197
700.953	0.0151028
701.031	0.0152095
701.109	0.0152614
701.187	0.0154527
701.265	0.0156099
701.343	0.0157472
701.421	0.0157906
701.499	0.0157338
701.578	0.0157744
701.656	0.0156685
701.734	0.0155305
701.812	0.0155421
701.890	0.0154168
701.968	0.0152522
702.046	0.0150343
702.124	0.0148856
702.203	0.0146123
702.281	0.0142236
702.359	0.0140668
702.437	0.0137801
702.515	0.0133434
702.593	0.0130727
702.671	0.0129294
702.749	0.0127337
702.828	0.0123762
702.906	0.0122423
702.984	0.0122441
703.062	0.0121207
703.140	0.0121787
703.218	0.0123315
703.296	0.0122866
703.374	0.0123361
703.453	0.0125081
703.531	0.0123933
703.609	0.0126002
703.687	0.0127918
703.765	0.0126917
703.843	0.0128413
703.921	0.0128445
703.999	0.0128797
704.078	0.0130477
704.156	0.0131557
704.234	0.0134024
704.312	0.0136652
704.390	0.0136197
704.468	0.0137213
704.546	0.0138586
704.624	0.0141236
704.703	0.0142677
704.781	0.0143460
704.859	0.0145878
704.937	0.0145580
705.015	0.0148142
705.093	0.0147061
705.171	0.0148363
705.249	0.0148712
705.328	0.0147820
705.406	0.0147962
705.484	0.0147388
705.562	0.0144071
705.640	0.0143593
705.718	0.0143562
705.796	0.0142506
705.874	0.0141389
705.953	0.0141349
706.031	0.0139433
706.109	0.0137312
706.187	0.0137192
706.265	0.0135397
706.343	0.0133128
706.421	0.0133843
706.499	0.0133080
706.578	0.0133165
706.656	0.0133235
706.734	0.0133940
706.812	0.0135495
706.890	0.0135973
706.968	0.0137318
707.046	0.0137857
707.124	0.0139225
707.203	0.0140234
707.281	0.0140479
707.359	0.0141223
707.437	0.0141431
707.515	0.0141052
707.593	0.0141518
707.671	0.0140925
707.749	0.0139451
707.828	0.0139268
707.906	0.0139597
707.984	0.0139311
708.062	0.0138479
708.140	0.0137828
708.218	0.0135821
708.296	0.0134726
708.374	0.0134722
708.453	0.0134229
708.531	0.0132412
708.609	0.0132783
708.687	0.0130464
708.765	0.0130788
708.843	0.0129972
708.921	0.0130096
708.999	0.0130180
709.078	0.0129924
709.156	0.0128473
709.234	0.0129375
709.312	0.0129612
709.390	0.0130158
709.468	0.0131029
709.546	0.0131140
709.624	0.0131342
709.703	0.0132169
709.781	0.0133896
709.859	0.0133523
709.937	0.0134555
710.015	0.0135624
710.093	0.0135643
710.171	0.0136967
710.249	0.0137461
710.328	0.0138773
710.406	0.0139645
710.484	0.0139544
710.562	0.0141563
710.640	0.0142429
710.718	0.0142221
710.796	0.0141972
710.874	0.0142854
710.953	0.0141509
711.031	0.0140474
711.109	0.0141427
711.187	0.0140873
711.265	0.0139027
711.343	0.0137520
711.421	0.0136558
711.499	0.0137381
711.578	0.0137276
711.656	0.0137303
711.734	0.0134946
711.812	0.0136297
711.890	0.0136296
711.968	0.0135655
712.046	0.0134826
712.124	0.0135696
712.203	0.0136736
712.281	0.0137083
712.359	0.0137394
712.437	0.0137621
712.515	0.0137531
712.593	0.0138516
712.671	0.0138713
712.749	0.0138620
712.828	0.0139408
712.906	0.0140694
712.984	0.0139897
713.062	0.0138177
713.140	0.0139521
713.218	0.0138507
713.296	0.0135960
713.374	0.0136124
713.453	0.0134318
713.531	0.0133519
713.609	0.0134343
713.687	0.0133819
713.765	0.0134197
713.843	0.0133070
713.921	0.0133064
713.999	0.0133109
714.078	0.0132073
714.156	0.0132458
714.234	0.0131297
714.312	0.0134193
714.390	0.0135307
714.468	0.0137244
714.546	0.0138178
714.624	0.0138799
714.703	0.0140410
714.781	0.0142343
714.859	0.0143725
714.937	0.0143752
715.015	0.0143771
715.093	0.0145286
715.171	0.0146735
715.249	0.0144398
715.328	0.0142886
715.406	0.0143283
715.484	0.0141856
715.562	0.0140476
715.640	0.0137866
715.718	0.0137445
715.796	0.0136748
715.874	0.0133667
715.953	0.0132689
716.031	0.0133459
716.109	0.0132401
716.187	0.0130982
716.265	0.0130581
716.343	0.0130979
716.421	0.0130900
716.499	0.0132192
716.578	0.0133190
716.656	0.0132709
716.734	0.0133736
716.812	0.0134257
716.890	0.0135283
716.968	0.0136217
717.046	0.0136424
717.124	0.0136509
717.203	0.0137035
717.281	0.0138055
717.359	0.0136136
717.437	0.0136275
717.515	0.0136481
717.593	0.0135717
717.671	0.0136188
717.749	0.0135188
717.828	0.0135653
717.906	0.0134472
717.984	0.0136035
718.062	0.0136811
718.140	0.0136971
718.218	0.0137275
718.296	0.0139360
718.374	0.0140389
718.453	0.0141260
718.531	0.0143466
718.609	0.0144373
718.687	0.0146566
718.765	0.0145795
718.843	0.0147756
718.921	0.0145266
718.999	0.0145752
719.078	0.0144569
719.156	0.0143362
719.234	0.0142358
719.312	0.0140971
719.390	0.0139640
719.468	0.0138705
719.546	0.0138308
719.624	0.0135873
719.703	0.0135950
719.781	0.0132010
719.859	0.0131805
719.937	0.0132870
720.015	0.0133963
720.093	0.0131017
720.171	0.0131113
720.249	0.0133833
720.328	0.0134137
720.406	0.0134391
720.484	0.0134222
720.562	0.0137312
720.640	0.0137948
720.718	0.0137308
720.796	0.0139760
720.874	0.0140759
720.953	0.0141229
721.031	0.0141098
721.109	0.0140611
721.187	0.0139273
721.265	0.0138220
721.343	0.0138200
721.421	0.0140295
721.499	0.0139566
721.578	0.0138032
721.656	0.0138160
721.734	0.0138795
721.812	0.0139657
721.890	0.0138651
721.968	0.0139792
722.046	0.0140914
722.124	0.0141392
722.203	0.0142223
722.281	0.0141895
722.359	0.0143166
722.437	0.0143994
722.515	0.0144172
722.593	0.0142870
722.671	0.0142225
722.749	0.0140852
722.828	0.0139701
722.906	0.0137592
722.984	0.0137529
723.062	0.0135586
723.140	0.0133618
723.218	0.0131699
723.296	0.0131970
723.374	0.0130886
723.453	0.0131270
723.531	0.0131204
723.609	0.0129976
723.687	0.0130417
723.765	0.0131465
723.843	0.0131902
723.921	0.0132799
723.999	0.0133276
724.078	0.0133586
724.156	0.0134029
724.234	0.0134244
724.312	0.0135850
724.390	0.0136299
724.468	0.0135750
724.546	0.0136634
724.624	0.0137749
724.703	0.0136213
724.781	0.0137601
724.859	0.0138029
724.937	0.0138972
725.015	0.0139700
725.093	0.0138909
725.171	0.0141169
725.249	0.0140852
725.328	0.0143124
725.406	0.0142760
725.484	0.0144749
725.562	0.0146606
725.640	0.0146909
725.718	0.0146027
725.796	0.0147934
725.874	0.0148642
725.953	0.0148561
726.031	0.0147536
726.109	0.0145147
726.187	0.0144897
726.265	0.0144605
726.343	0.0142106
726.421	0.0141473
726.499	0.0139197
726.578	0.0138373
726.656	0.0137036
726.734	0.0135648
726.812	0.0135662
726.890	0.0136010
726.968	0.0134676
727.046	0.0134132
727.124	0.0135283
727.203	0.0135140
727.281	0.0136253
727.359	0.0136630
727.437	0.0137011
727.515	0.0138152
727.593	0.0138382
727.671	0.0139378
727.749	0.0138328
727.828	0.0137546
727.906	0.0138353
727.984	0.0139333
728.062	0.0138828
728.140	0.0139046
728.218	0.0138567
728.296	0.0136998
728.374	0.0136961
728.453	0.0137029
728.531	0.0136558
728.609	0.0134304
728.687	0.0135007
728.765	0.0134177
728.843	0.0133929
728.921	0.0134412
728.999	0.0133268
729.078	0.0133107
729.156	0.0132314
729.234	0.0131973
729.312	0.0134833
729.390	0.0133049
729.468	0.0134639
729.546	0.0134497
729.624	0.0135280
729.703	0.0135384
729.781	0.0136884
729.859	0.0137422
729.937	0.0139198
730.015	0.0139162
730.093	0.0139679
730.171	0.0138756
730.249	0.0139145
730.328	0.0139305
730.406	0.0138354
730.484	0.0138630
730.562	0.0138185
730.640	0.0138002
730.718	0.0139001
730.796	0.0137836
730.874	0.0137598
730.953	0.0137585
731.031	0.0138119
731.109	0.0137045
731.187	0.0138313
731.265	0.0139182
731.343	0.0140095
731.421	0.0140443
731.499	0.0141527
731.578	0.0139704
731.656	0.0138683
731.734	0.0139860
731.812	0.0140730
731.890	0.0139750
731.968	0.0138783
732.046	0.0138697
732.124	0.0138204
732.203	0.0138261
732.281	0.0138249
732.359	0.0136412
732.437	0.0136888
732.515	0.0136320
732.593	0.0136500
732.671	0.0137368
732.749	0.0136837
732.828	0.0136369
732.906	0.0137049
732.984	0.0136408
733.062	0.0135616
733.140	0.0135681
733.218	0.0135791
733.296	0.0135925
733.374	0.0135411
733.453	0.0134740
733.531	0.0134139
733.609	0.0133147
733.687	0.0135056
733.765	0.0134252
733.843	0.0132924
733.921	0.0133451
733.999	0.0133094
734.078	0.0134449
734.156	0.0135091
734.234	0.0135388
734.312	0.0135518
734.390	0.0135938
734.468	0.0136568
734.546	0.0137254
734.624	0.0137057
734.703	0.0137629
734.781	0.0139030
734.859	0.0138340
734.937	0.0137459
735.015	0.0136963
735.093	0.0138970
735.171	0.0137108
735.249	0.0137457
735.328	0.0137994
735.406	0.0138257
735.484	0.0138092
735.562	0.0136889
735.640	0.0137367
735.718	0.0137511
735.796	0.0137080
735.874	0.0136684
735.953	0.0137030
736.031	0.0134885
736.109	0.0135212
736.187	0.0135586
736.265	0.0136079
736.343	0.0135578
736.421	0.0135789
736.499	0.0137384
736.578	0.0135934
736.656	0.0136571
736.734	0.0136662
736.812	0.0138351
736.890	0.0138685
736.968	0.0138853
737.046	0.0140011
737.124	0.0140578
737.203	0.0141159
737.281	0.0141570
737.359	0.0142279
737.437	0.0141280
737.515	0.0140079
737.593	0.0141262
737.671	0.0141439
737.749	0.0140607
737.828	0.0138170
737.906	0.0138454
737.984	0.0137128
738.062	0.0137347
738.140	0.0135299
738.218	0.0135328
738.296	0.0135014
738.374	0.0135190
738.453	0.0136523
738.531	0.0135441
738.609	0.0135651
738.687	0.0134860
738.765	0.0134908
738.843	0.0136275
738.921	0.0136507
738.999	0.0136369
739.078	0.0138051
739.156	0.0137470
739.234	0.0138592
739.312	0.0139142
739.390	0.0138916
739.468	0.0137661
739.546	0.0136578
739.624	0.0136352
739.703	0.0135320
739.781	0.0134473
739.859	0.0134845
739.937	0.0133693
740.015	0.0133701
740.093	0.0131620
740.171	0.0133546
740.249	0.0132842
740.328	0.0134268
740.406	0.0133475
740.484	0.0133945
740.562	0.0135509
740.640	0.0135702
740.718	0.0137109
740.796	0.0137473
740.874	0.0138622
740.953	0.0138651
741.031	0.0141551
741.109	0.0140665
741.187	0.0141039
741.265	0.0141206
741.343	0.0141395
741.421	0.0141345
741.499	0.0141711
741.578	0.0142102
741.656	0.0141296
741.734	0.0142682
741.812	0.0141443
741.890	0.0142785
741.968	0.0141906
742.046	0.0139375
742.124	0.0139244
742.203	0.0140192
742.281	0.0140601
742.359	0.0140057
742.437	0.0138525
742.515	0.0139767
742.593	0.0138176
742.671	0.0136317
742.749	0.0137659
742.828	0.0137834
742.906	0.0137399
742.984	0.0136302
743.062	0.0135375
743.140	0.0135962
743.218	0.0135609
743.296	0.0136757
743.374	0.0134902
743.453	0.0135402
743.531	0.0136071
743.609	0.0134373
743.687	0.0135403
743.765	0.0135535
743.843	0.0136513
743.921	0.0135595
743.999	0.0135981
744.078	0.0136636
744.156	0.0137005
744.234	0.0136501
744.312	0.0137024
744.390	0.0137473
744.468	0.0137903
744.546	0.0138898
744.624	0.0139111
744.703	0.0138871
744.781	0.0140105
744.859	0.0139608
744.937	0.0140973
745.015	0.0141501
745.093	0.0139649
745.171	0.0139406
745.249	0.0138609
745.328	0.0138633
745.406	0.0140173
745.484	0.0138386
745.562	0.0137405
745.640	0.0136604
745.718	0.0137507
745.796	0.0137381
745.874	0.0136876
745.953	0.0136945
746.031	0.0136813
746.109	0.0138570
746.187	0.0138264
746.265	0.0139185
746.343	0.0139871
746.421	0.0140842
746.499	0.0140326
746.578	0.0139384
746.656	0.0138518
746.734	0.0140971
746.812	0.0139735
746.890	0.0140611
746.968	0.0139929
747.046	0.0138718
747.124	0.0138558
747.203	0.0137131
747.281	0.0136508
747.359	0.0137037
747.437	0.0135703
747.515	0.0136458
747.593	0.0137880
747.671	0.0137342
747.749	0.0136600
747.828	0.0137792
747.906	0.0138790
747.984	0.0139526
748.062	0.0140086
748.140	0.0139896
748.218	0.0139446
748.296	0.0141091
748.374	0.0141965
748.453	0.0142107
748.531	0.0142278
748.609	0.0142854
748.687	0.0141557
748.765	0.0142329
748.843	0.0141644
748.921	0.0140234
748.999	0.0138011
749.078	0.0137576
749.156	0.0137438
749.234	0.0137076
749.312	0.0136710
749.390	0.0136430
749.468	0.0134490
749.546	0.0134998
749.624	0.0135592
749.703	0.0134671
749.781	0.0133723
749.859	0.0133097
749.937	0.0133881
750.015	0.0133498
750.093	0.0132727
750.171	0.0135181
750.249	0.0134899
750.328	0.0134814
750.406	0.0137754
750.484	0.0137543
750.562	0.0136682
750.640	0.0138232
750.718	0.0138691
750.796	0.0138095
750.874	0.0138605
750.953	0.0138762
751.031	0.0136967
751.109	0.0136938
751.187	0.0137714
751.265	0.0137997
751.343	0.0135315
751.421	0.0137727
751.499	0.0136510
751.578	0.0136086
751.656	0.0135326
751.734	0.0136011
751.812	0.0135227
751.890	0.0136478
751.968	0.0136166
752.046	0.0136895
752.124	0.0138512
752.203	0.0135603
752.281	0.0137728
752.359	0.0139713
752.437	0.0139210
752.515	0.0140027
752.593	0.0141952
752.671	0.0138806
752.749	0.0140466
752.828	0.0141644
752.906	0.0140383
752.984	0.0140408
753.062	0.0139747
753.140	0.0138478
753.218	0.0139252
753.296	0.0138952
753.374	0.0138962
753.453	0.0136521
753.531	0.0135561
753.609	0.0134790
753.687	0.0134599
753.765	0.0134507
753.843	0.0133312
753.921	0.0132141
753.999	0.0132043
754.078	0.0133360
754.156	0.0132179
754.234	0.0131538
754.312	0.0133270
754.390	0.0133463
754.468	0.0132487
754.546	0.0133976
754.624	0.0134713
754.703	0.0135138
754.781	0.0133662
754.859	0.0134503
754.937	0.0136864
755.015	0.0135806
755.093	0.0137050
755.171	0.0137008
755.249	0.0138213
755.328	0.0138609
755.406	0.0137993
755.484	0.0138676
755.562	0.0139559
755.640	0.0139133
755.718	0.0139043
755.796	0.0139388
755.874	0.0140565
755.953	0.0140279
756.031	0.0139989
756.109	0.0139143
756.187	0.0140061
756.265	0.0139384
756.343	0.0139124
756.421	0.0138605
756.499	0.0138602
756.578	0.0138644
756.656	0.0138988
756.734	0.0137785
756.812	0.0137273
756.890	0.0136213
756.968	0.0137414
757.046	0.0135769
757.124	0.0134990
757.203	0.0134568
757.281	0.0133392
757.359	0.0133742
757.437	0.0132744
757.515	0.0132064
757.593	0.0132313
757.671	0.0132368
757.749	0.0131162
757.828	0.0132610
757.906	0.0132531
757.984	0.0132495
758.062	0.0132978
758.140	0.0131650
758.218	0.0132763
758.296	0.0134058
758.374	0.0133316
758.453	0.0132747
758.531	0.0133810
758.609	0.0135087
758.687	0.0133385
758.765	0.0134286
758.843	0.0134428
758.921	0.0135048
758.999	0.0136755
759.078	0.0137087
759.156	0.0138606
759.234	0.0138692
759.312	0.0138084
759.390	0.0138293
759.468	0.0139662
759.546	0.0142649
759.624	0.0141043
759.703	0.0141716
759.781	0.0142419
759.859	0.0142503
759.937	0.0142063
760.015	0.0142212
760.093	0.0141859
760.171	0.0140417
760.249	0.0142271
760.328	0.0140251
760.406	0.0139287
760.484	0.0137875
760.562	0.0139341
760.640	0.0137336
760.718	0.0137656
760.796	0.0137111
760.874	0.0135583
760.953	0.0136964
761.031	0.0136490
761.109	0.0136349
761.187	0.0136263
761.265	0.0134762
761.343	0.0136261
761.421	0.0135159
761.499	0.0135148
761.578	0.0135714
761.656	0.0135963
761.734	0.0135258
761.812	0.0135773
761.890	0.0134914
761.968	0.0135188
762.046	0.0136239
762.124	0.0137276
762.203	0.0138161
762.281	0.0137876
762.359	0.0136357
762.437	0.0137054
762.515	0.0137553
762.593	0.0137281
762.671	0.0136785
762.749	0.0136414
762.828	0.0138763
762.906	0.0138124
762.984	0.0136953
763.062	0.0135797
763.140	0.0136657
763.218	0.0137617
763.296	0.0137141
763.374	0.0137811
763.453	0.0137731
763.531	0.0137808
763.609	0.0138049
763.687	0.0138354
763.765	0.0141145
763.843	0.0140754
763.921	0.0140676
763.999	0.0141175
764.078	0.0141637
764.156	0.0140570
764.234	0.0141859
764.312	0.0141272
764.390	0.0139976
764.468	0.0140195
764.546	0.0139505
764.624	0.0139137
764.703	0.0137831
764.781	0.0136594
764.859	0.0136925
764.937	0.0137404
765.015	0.0136228
765.093	0.0136123
765.171	0.0136913
765.249	0.0136909
765.328	0.0135458
765.406	0.0135888
765.484	0.0134155
765.562	0.0133490
765.640	0.0135787
765.718	0.0134563
765.796	0.0134808
765.874	0.0132541
765.953	0.0132728
766.031	0.0134570
766.109	0.0135262
766.187	0.0134767
766.265	0.0137379
766.343	0.0136855
766.421	0.0135843
766.499	0.0135406
766.578	0.0135796
766.656	0.0138496
766.734	0.0138132
766.812	0.0137933
766.890	0.0137677
766.968	0.0138740
767.046	0.0140198
767.124	0.0139694
767.203	0.0139853
767.281	0.0139143
767.359	0.0139261
767.437	0.0138794
767.515	0.0140376
767.593	0.0140495
767.671	0.0140777
767.749	0.0140634
767.828	0.0139220
767.906	0.0140324
767.984	0.0140670
768.062	0.0140081
768.140	0.0138624
768.218	0.0139739
768.296	0.0141508
768.374	0.0139689
768.453	0.0140458
768.531	0.0141792
768.609	0.0141206
768.687	0.0140254
768.765	0.0140446
768.843	0.0140427
768.921	0.0139611
768.999	0.0139838
769.078	0.0140138
769.156	0.0139744
769.234	0.0140120
769.312	0.0139379
769.390	0.0140291
769.468	0.0137799
769.546	0.0140340
769.624	0.0138990
769.703	0.0138453
769.781	0.0138868
769.859	0.0139252
769.937	0.0139593
770.015	0.0138115
770.093	0.0137835
770.171	0.0138190
770.249	0.0138268
770.328	0.0137926
770.406	0.0136417
770.484	0.0136008
770.562	0.0137085
770.640	0.0138448
770.718	0.0137739
770.796	0.0135858
770.874	0.0137218
770.953	0.0137445
771.031	0.0136795
771.109	0.0136373
771.187	0.0137021
771.265	0.0135990
771.343	0.0136236
771.421	0.0136450
771.499	0.0135350
771.578	0.0136924
771.656	0.0136861
771.734	0.0136757
771.812	0.0137787
771.890	0.0136869
771.968	0.0135146
772.046	0.0136203
772.124	0.0136037
772.203	0.0135330
772.281	0.0134943
772.359	0.0135238
772.437	0.0134641
772.515	0.0136520
772.593	0.0136665
772.671	0.0135873
772.749	0.0137985
772.828	0.0139019
772.906	0.0138382
772.984	0.0138372
773.062	0.0138492
773.140	0.0139462
773.218	0.0138818
773.296	0.0138463
773.374	0.0139381
773.453	0.0139639
773.531	0.0138981
773.609	0.0139917
773.687	0.0138092
773.765	0.0138489
773.843	0.0139450
773.921	0.0138329
773.999	0.0139026
774.078	0.0137457
774.156	0.0137615
774.234	0.0138498
774.312	0.0137701
774.390	0.0138142
774.468	0.0137003
774.546	0.0136851
774.624	0.0137804
774.703	0.0137988
774.781	0.0137517
774.859	0.0137904
774.937	0.0137280
775.015	0.0139526
775.093	0.0136739
775.171	0.0137611
775.249	0.0138381
775.328	0.0138543
775.406	0.0138906
775.484	0.0137542
775.562	0.0138103
775.640	0.0137261
775.718	0.0138167
775.796	0.0137341
775.874	0.0136008
775.953	0.0136059
776.031	0.0135423
776.109	0.0134603
776.187	0.0136095
776.265	0.0133821
776.343	0.0134968
776.421	0.0135632
776.499	0.0135592
776.578	0.0135593
776.656	0.0136823
776.734	0.0136703
776.812	0.0134930
776.890	0.0136409
776.968	0.0136575
777.046	0.0135387
777.124	0.0137012
777.203	0.0136522
777.281	0.0136812
777.359	0.0136846
777.437	0.0136406
777.515	0.0135885
777.593	0.0136810
777.671	0.0137097
777.749	0.0135606
777.828	0.0134039
777.906	0.0134333
777.984	0.0135416
778.062	0.0134905
778.140	0.0134634
778.218	0.0134200
778.296	0.0135139
778.374	0.0136138
778.453	0.0134341
778.531	0.0134977
778.609	0.0134291
778.687	0.0134724
778.765	0.0135705
778.843	0.0135861
778.921	0.0135679
778.999	0.0134145
779.078	0.0134856
779.156	0.0134264
779.234	0.0133775
779.312	0.0135320
779.390	0.0135311
779.468	0.0134096
779.546	0.0135186
779.624	0.0135571
779.703	0.0136443
779.781	0.0137128
779.859	0.0137711
779.937	0.0139262
780.015	0.0138105
780.093	0.0137852
780.171	0.0140181
780.249	0.0141307
780.328	0.0140791
780.406	0.0142245
780.484	0.0141839
780.562	0.0141645
780.640	0.0141782
780.718	0.0142347
780.796	0.0141486
780.874	0.0139929
780.953	0.0139846
781.031	0.0137315
781.109	0.0138229
781.187	0.0137916
781.265	0.0137157
781.343	0.0136481
781.421	0.0136703
781.499	0.0136213
781.578	0.0135058
781.656	0.0135242
781.734	0.0135424
781.812	0.0135173
781.890	0.0132931
781.968	0.0133998
782.046	0.0134143
782.124	0.0134106
782.203	0.0133730
782.281	0.0134939
782.359	0.0132937
782.437	0.0134177
782.515	0.0134478
782.593	0.0135536
782.671	0.0134750
782.749	0.0135083
782.828	0.0134996
782.906	0.0136892
782.984	0.0139452
783.062	0.0135841
783.140	0.0136230
783.218	0.0136449
783.296	0.0137864
783.374	0.0137601
783.453	0.0137247
783.531	0.0137991
783.609	0.0136412
783.687	0.0137985
783.765	0.0137956
783.843	0.0136867
783.921	0.0137613
783.999	0.0137986
784.078	0.0137533
784.156	0.0137705
784.234	0.0138513
784.312	0.0137569
784.390	0.0137162
784.468	0.0139256
784.546	0.0137188
784.624	0.0137334
784.703	0.0139245
784.781	0.0137356
784.859	0.0136949
784.937	0.0137965
785.015	0.0137023
785.093	0.0138681
785.171	0.0138370
785.249	0.0137851
785.328	0.0139350
785.406	0.0139177
785.484	0.0138164
785.562	0.0137558
785.640	0.0136848
785.718	0.0136775
785.796	0.0135192
785.874	0.0136548
785.953	0.0136938
786.031	0.0136441
786.109	0.0137208
786.187	0.0136747
786.265	0.0137032
786.343	0.0136371
786.421	0.0136999
786.499	0.0135393
786.578	0.0136829
786.656	0.0134946
786.734	0.0134731
786.812	0.0136235
786.890	0.0134796
786.968	0.0135890
787.046	0.0135921
787.124	0.0135015
787.203	0.0134869
787.281	0.0134241
787.359	0.0136531
787.437	0.0134602
787.515	0.0136337
787.593	0.0136020
787.671	0.0135450
787.749	0.0136542
787.828	0.0134958
787.906	0.0137737
787.984	0.0137647
788.062	0.0138058
788.140	0.0137549
788.218	0.0139089
788.296	0.0136940
788.374	0.0137687
788.453	0.0136364
788.531	0.0137820
788.609	0.0138730
788.687	0.0138480
788.765	0.0139476
788.843	0.0138084
788.921	0.0139699
788.999	0.0140195
789.078	0.0139996
789.156	0.0140614
789.234	0.0142265
789.312	0.0141833
789.390	0.0141135
789.468	0.0142463
789.546	0.0143663
789.624	0.0143220
789.703	0.0143324
789.781	0.0143456
789.859	0.0144392
789.937	0.0142308
790.015	0.0141836
790.093	0.0142973
790.171	0.0143005
790.249	0.0141105
790.328	0.0139904
790.406	0.0139563
790.484	0.0138051
790.562	0.0136513
790.640	0.0136096
790.718	0.0135245
790.796	0.0134064
790.874	0.0133954
790.953	0.0132478
791.031	0.0132708
791.109	0.0131948
791.187	0.0133030
791.265	0.0130810
791.343	0.0130959
791.421	0.0132825
791.499	0.0131849
791.578	0.0132902
791.656	0.0133643
791.734	0.0132777
791.812	0.0134372
791.890	0.0135502
791.968	0.0134532
792.046	0.0135569
792.124	0.0136243
792.203	0.0138003
792.281	0.0137444
792.359	0.0137248
792.437	0.0136829
792.515	0.0138096
792.593	0.0139514
792.671	0.0138670
792.749	0.0138914
792.828	0.0139094
792.906	0.0140096
792.984	0.0139712
793.062	0.0139275
793.140	0.0138958
793.218	0.0136980
793.296	0.0138038
793.374	0.0137527
793.453	0.0137679
793.531	0.0138097
793.609	0.0138201
793.687	0.0138014
793.765	0.0138818
793.843	0.0139455
793.921	0.0139539
793.999	0.0138250
794.078	0.0138494
794.156	0.0140005
794.234	0.0140400
794.312	0.0139865
794.390	0.0139017
794.468	0.0139390
794.546	0.0139312
794.624	0.0140068
794.703	0.0139411
794.781	0.0140755
794.859	0.0140246
794.937	0.0138859
795.015	0.0138762
795.093	0.0138691
795.171	0.0139115
795.249	0.0139911
795.328	0.0138631
795.406	0.0136695
795.484	0.0139021
795.562	0.0138000
795.640	0.0138510
795.718	0.0139552
795.796	0.0138641
795.874	0.0137902
795.953	0.0138552
796.031	0.0138029
796.109	0.0138979
796.187	0.0137084
796.265	0.0137775
796.343	0.0138612
796.421	0.0140402
796.499	0.0140060
796.578	0.0138070
796.656	0.0137173
796.734	0.0139528
796.812	0.0138529
796.890	0.0138403
796.968	0.0138200
797.046	0.0139478
797.124	0.0138290
797.203	0.0139156
797.281	0.0139046
797.359	0.0138518
797.437	0.0138221
797.515	0.0139138
797.593	0.0138810
797.671	0.0138818
797.749	0.0138340
797.828	0.0137889
797.906	0.0138119
797.984	0.0138469
798.062	0.0139083
798.140	0.0138823
798.218	0.0138908
798.296	0.0139880
798.374	0.0138415
798.453	0.0139231
798.531	0.0138219
798.609	0.0137571
798.687	0.0138390
798.765	0.0138163
798.843	0.0138251
798.921	0.0137816
798.999	0.0135812
799.078	0.0135425
799.156	0.0135638
799.234	0.0135661
799.312	0.0135090
799.390	0.0133765
799.468	0.0134119
799.546	0.0135905
799.624	0.0134742
799.703	0.0135527
799.781	0.0134838
799.859	0.0136625
799.937	0.0136027
800.015	0.0137103
800.093	0.0137255
800.171	0.0137703
800.249	0.0139310
800.328	0.0138245
800.406	0.0137930
800.484	0.0138778
800.562	0.0140363
800.640	0.0139329
800.718	0.0139600
800.796	0.0139439
800.874	0.0138136
800.953	0.0139995
801.031	0.0138690
801.109	0.0137880
801.187	0.0139317
801.265	0.0138951
801.343	0.0138091
801.421	0.0140608
801.499	0.0140892
801.578	0.0139320
801.656	0.0138180
801.734	0.0138657
801.812	0.0138994
801.890	0.0138136
801.968	0.0137995
802.046	0.0137083
802.124	0.0137859
802.203	0.0137546
802.281	0.0136799
802.359	0.0138287
802.437	0.0136401
802.515	0.0135966
802.593	0.0136298
802.671	0.0137533
802.749	0.0135726
802.828	0.0136015
802.906	0.0137088
802.984	0.0137012
803.062	0.0137380
803.140	0.0136978
803.218	0.0136485
803.296	0.0137019
803.374	0.0135245
803.453	0.0135114
803.531	0.0136380
803.609	0.0138118
803.687	0.0136883
803.765	0.0135992
803.843	0.0136389
803.921	0.0137943
803.999	0.0136613
804.078	0.0136680
804.156	0.0138072
804.234	0.0139582
804.312	0.0138116
804.390	0.0137753
804.468	0.0137885
804.546	0.0138261
804.624	0.0138316
804.703	0.0136772
804.781	0.0138966
804.859	0.0139046
804.937	0.0137167
805.015	0.0137453
805.093	0.0136667
805.171	0.0139076
805.249	0.0139250
805.328	0.0137743
805.406	0.0138490
805.484	0.0138241
805.562	0.0138161
805.640	0.0139173
805.718	0.0137672
805.796	0.0138216
805.874	0.0137391
805.953	0.0136694
806.031	0.0137022
806.109	0.0136869
806.187	0.0135407
806.265	0.0135982
806.343	0.0134535
806.421	0.0134155
806.499	0.0135213
806.578	0.0135087
806.656	0.0133581
806.734	0.0134303
806.812	0.0134048
806.890	0.0134869
806.968	0.0135782
807.046	0.0133601
807.124	0.0133011
807.203	0.0135502
807.281	0.0135291
807.359	0.0135647
807.437	0.0135245
807.515	0.0135017
807.593	0.0134827
807.671	0.0135268
807.749	0.0135899
807.828	0.0135271
807.906	0.0136413
807.984	0.0136543
808.062	0.0137710
808.140	0.0137217
808.218	0.0135830
808.296	0.0137324
808.374	0.0137977
808.453	0.0137936
808.531	0.0137894
808.609	0.0138737
808.687	0.0137707
808.765	0.0139635
808.843	0.0138573
808.921	0.0139027
808.999	0.0138991
809.078	0.0138325
809.156	0.0139040
809.234	0.0139117
809.312	0.0137572
809.390	0.0136451
809.468	0.0137452
809.546	0.0138838
809.624	0.0136665
809.703	0.0137939
809.781	0.0136877
809.859	0.0136002
809.937	0.0137695
810.015	0.0138097
810.093	0.0136855
810.171	0.0136938
810.249	0.0137386
810.328	0.0136331
810.406	0.0135482
810.484	0.0138360
810.562	0.0139778
810.640	0.0137770
810.718	0.0138179
810.796	0.0137982
810.874	0.0137099
810.953	0.0136803
811.031	0.0137651
811.109	0.0138200
811.187	0.0137267
811.265	0.0136938
811.343	0.0137064
811.421	0.0136201
811.499	0.0136697
811.578	0.0136965
811.656	0.0136857
811.734	0.0136806
811.812	0.0137255
811.890	0.0137093
811.968	0.0135336
812.046	0.0135375
812.124	0.0136874
812.203	0.0135968
812.281	0.0137126
812.359	0.0135830
812.437	0.0136687
812.515	0.0137285
812.593	0.0135987
812.671	0.0137483
812.749	0.0138336
812.828	0.0138493
812.906	0.0138210
812.984	0.0138861
813.062	0.0137870
813.140	0.0138924
813.218	0.0138773
813.296	0.0139314
813.374	0.0137901
813.453	0.0136078
813.531	0.0136572
813.609	0.0135796
813.687	0.0137571
813.765	0.0135883
813.843	0.0136330
813.921	0.0136625
813.999	0.0137015
814.078	0.0135403
814.156	0.0135462
814.234	0.0135200
814.312	0.0135926
814.390	0.0135000
814.468	0.0135757
814.546	0.0134866
814.624	0.0136539
814.703	0.0136805
814.781	0.0136859
814.859	0.0136984
814.937	0.0137281
815.015	0.0138718
815.093	0.0138606
815.171	0.0137462
815.249	0.0138561
815.328	0.0138609
815.406	0.0139307
815.484	0.0140085
815.562	0.0139745
815.640	0.0140237
815.718	0.0140940
815.796	0.0138992
815.874	0.0140804
815.953	0.0139958
816.031	0.0140702
816.109	0.0141095
816.187	0.0139983
816.265	0.0140154
816.343	0.0139606
816.421	0.0138604
816.499	0.0138837
816.578	0.0140007
816.656	0.0138307
816.734	0.0137437
816.812	0.0137170
816.890	0.0135013
816.968	0.0137895
817.046	0.0137057
817.124	0.0137168
817.203	0.0136532
817.281	0.0136256
817.359	0.0136862
817.437	0.0136447
817.515	0.0136560
817.593	0.0136349
817.671	0.0137666
817.749	0.0137376
817.828	0.0137671
817.906	0.0138323
817.984	0.0138676
818.062	0.0138785
818.140	0.0137733
818.218	0.0137935
818.296	0.0138341
818.374	0.0137390
818.453	0.0136873
818.531	0.0137592
818.609	0.0137338
818.687	0.0137544
818.765	0.0138634
818.843	0.0135852
818.921	0.0136341
818.999	0.0136057
819.078	0.0135976
819.156	0.0135680
819.234	0.0135031
819.312	0.0135941
819.390	0.0134663
819.468	0.0136290
819.546	0.0136636
819.624	0.0136344
819.703	0.0137080
819.781	0.0137412
819.859	0.0137624
819.937	0.0137889
820.015	0.0137611
820.093	0.0138233
820.171	0.0138649
820.249	0.0139535
820.328	0.0139127
820.406	0.0139108
820.484	0.0138246
820.562	0.0139906
820.640	0.0141441
820.718	0.0140199
820.796	0.0140893
820.874	0.0140499
820.953	0.0141039
821.031	0.0141526
821.109	0.0140032
821.187	0.0139880
821.265	0.0139373
821.343	0.0139536
821.421	0.0138441
821.499	0.0139526
821.578	0.0138807
821.656	0.0138683
821.734	0.0138644
821.812	0.0138417
821.890	0.0137695
821.968	0.0137800
822.046	0.0139503
822.124	0.0138725
822.203	0.0138410
822.281	0.0138248
822.359	0.0137670
822.437	0.0137624
822.515	0.0137263
822.593	0.0137734
822.671	0.0139027
822.749	0.0138168
822.828	0.0135648
822.906	0.0136528
822.984	0.0137229
823.062	0.0137265
823.140	0.0138063
823.218	0.0138070
823.296	0.0138535
823.374	0.0137835
823.453	0.0137452
823.531	0.0138392
823.609	0.0137615
823.687	0.0138642
823.765	0.0139285
823.843	0.0139296
823.921	0.0139185
823.999	0.0140337
824.078	0.0140919
824.156	0.0140322
824.234	0.0139533
824.312	0.0139378
824.390	0.0140476
824.468	0.0139113
824.546	0.0138721
824.624	0.0139978
824.703	0.0138965
824.781	0.0136266
824.859	0.0137274
824.937	0.0137419
825.015	0.0137190
825.093	0.0136282
825.171	0.0137972
825.249	0.0136568
825.328	0.0137793
825.406	0.0136816
825.484	0.0136453
825.562	0.0136083
825.640	0.0137395
825.718	0.0135157
825.796	0.0136306
825.874	0.0136026
825.953	0.0136639
826.031	0.0136485
826.109	0.0138547
826.187	0.0137105
826.265	0.0136339
826.343	0.0136237
826.421	0.0137714
826.499	0.0139316
826.578	0.0136837
826.656	0.0137204
826.734	0.0137728
826.812	0.0138065
826.890	0.0137401
826.968	0.0137584
827.046	0.0137037
827.124	0.0137955
827.203	0.0138360
827.281	0.0139656
827.359	0.0139329
827.437	0.0137441
827.515	0.0137781
827.593	0.0137474
827.671	0.0136572
827.749	0.0137288
827.828	0.0138055
827.906	0.0138196
827.984	0.0137667
828.062	0.0139183
828.140	0.0137660
828.218	0.0137901
828.296	0.0136556
828.374	0.0136700
828.453	0.0137711
828.531	0.0138465
828.609	0.0138454
828.687	0.0137254
828.765	0.0137987
828.843	0.0139352
828.921	0.0138714
828.999	0.0139124
829.078	0.0138925
829.156	0.0139232
829.234	0.0139405
829.312	0.0138418
829.390	0.0139358
829.468	0.0138977
829.546	0.0138716
829.624	0.0138940
829.703	0.0137738
829.781	0.0136815
829.859	0.0138986
829.937	0.0137751
830.015	0.0137750
830.093	0.0137092
830.171	0.0137805
830.249	0.0137749
830.328	0.0137127
830.406	0.0137627
830.484	0.0135945
830.562	0.0135155
830.640	0.0137050
830.718	0.0135786
830.796	0.0135187
830.874	0.0135662
830.953	0.0137005
831.031	0.0135728
831.109	0.0135100
831.187	0.0136343
831.265	0.0136880
831.343	0.0136971
831.421	0.0135545
831.499	0.0136131
831.578	0.0136097
831.656	0.0133913
831.734	0.0135725
831.812	0.0135858
831.890	0.0135921
831.968	0.0136307
832.046	0.0135246
832.124	0.0136744
832.203	0.0135677
832.281	0.0135814
832.359	0.0136944
832.437	0.0135973
832.515	0.0134701
832.593	0.0135647
832.671	0.0137167
832.749	0.0136669
832.828	0.0136758
832.906	0.0135126
832.984	0.0135390
833.062	0.0136161
833.140	0.0136002
833.218	0.0136362
833.296	0.0135860
833.374	0.0136479
833.453	0.0137922
833.531	0.0138171
833.609	0.0137556
833.687	0.0136737
833.765	0.0136734
833.843	0.0136033
833.921	0.0137044
833.999	0.0137741
834.078	0.0137508
834.156	0.0137469
834.234	0.0135548
834.312	0.0137966
834.390	0.0136155
834.468	0.0137115
834.546	0.0136649
834.624	0.0135709
834.703	0.0136353
834.781	0.0135433
834.859	0.0135130
834.937	0.0134944
835.015	0.0135763
835.093	0.0134475
835.171	0.0135287
835.249	0.0136205
835.328	0.0135191
835.406	0.0135629
835.484	0.0135208
835.562	0.0134963
835.640	0.0135653
835.718	0.0136915
835.796	0.0137312
835.874	0.0137097
835.953	0.0134715
836.031	0.0137066
836.109	0.0135651
836.187	0.0135195
836.265	0.0137160
836.343	0.0136513
836.421	0.0135726
836.499	0.0135912
836.578	0.0135890
836.656	0.0133999
836.734	0.0135585
836.812	0.0134757
836.890	0.0135401
836.968	0.0134183
837.046	0.0135255
837.124	0.0135213
837.203	0.0134269
837.281	0.0135514
837.359	0.0135194
837.437	0.0134334
837.515	0.0135813
837.593	0.0135050
837.671	0.0136369
837.749	0.0136684
837.828	0.0135451
837.906	0.0138108
837.984	0.0137957
838.062	0.0137227
838.140	0.0136343
838.218	0.0138794
838.296	0.0138815
838.374	0.0137868
838.453	0.0139188
838.531	0.0140044
838.609	0.0139557
838.687	0.0138979
838.765	0.0138319
838.843	0.0137306
838.921	0.0137730
838.999	0.0137267
839.078	0.0139133
839.156	0.0137551
839.234	0.0136090
839.312	0.0137837
839.390	0.0138095
839.468	0.0138087
839.546	0.0138087
839.624	0.0136446
839.703	0.0136173
839.781	0.0135180
839.859	0.0136147
839.937	0.0138699
840.015	0.0137275
840.093	0.0136652
840.171	0.0136217
840.249	0.0136806
840.328	0.0136465
840.406	0.0136382
840.484	0.0135914
840.562	0.0136736
840.640	0.0136708
840.718	0.0135916
840.796	0.0137064
840.874	0.0136764
840.953	0.0137052
841.031	0.0136272
841.109	0.0137952
841.187	0.0137858
841.265	0.0136639
841.343	0.0136893
841.421	0.0136893
841.499	0.0136503
841.578	0.0136005
841.656	0.0136675
841.734	0.0136291
841.812	0.0137392
841.890	0.0137285
841.968	0.0137112
842.046	0.0137478
842.124	0.0136037
842.203	0.0135889
842.281	0.0137032
842.359	0.0136813
842.437	0.0136909
842.515	0.0136991
842.593	0.0137598
842.671	0.0138006
842.749	0.0137984
842.828	0.0138622
842.906	0.0137989
842.984	0.0137666
843.062	0.0137231
843.140	0.0139453
843.218	0.0140867
843.296	0.0138804
843.374	0.0138574
843.453	0.0138432
843.531	0.0138583
843.609	0.0138155
843.687	0.0137696
843.765	0.0139236
843.843	0.0136990
843.921	0.0138488
843.999	0.0140340
844.078	0.0138569
844.156	0.0138064
844.234	0.0139855
844.312	0.0139269
844.390	0.0138297
844.468	0.0138025
844.546	0.0138968
844.624	0.0138817
844.703	0.0138487
844.781	0.0138439
844.859	0.0140427
844.937	0.0138962
845.015	0.0136674
845.093	0.0138366
845.171	0.0138942
845.249	0.0139024
845.328	0.0138799
845.406	0.0138705
845.484	0.0139617
845.562	0.0138241
845.640	0.0138464
845.718	0.0138058
845.796	0.0138936
845.874	0.0138223
845.953	0.0139959
846.031	0.0139249
846.109	0.0139001
846.187	0.0139295
846.265	0.0138653
846.343	0.0139748
846.421	0.0140096
846.499	0.0139273
846.578	0.0139397
846.656	0.0138602
846.734	0.0137451
846.812	0.0138277
846.890	0.0139752
846.968	0.0139448
847.046	0.0139320
847.124	0.0139136
847.203	0.0138102
847.281	0.0137698
847.359	0.0137908
847.437	0.0138662
847.515	0.0138224
847.593	0.0138643
847.671	0.0137727
847.749	0.0138171
847.828	0.0137965
847.906	0.0137901
847.984	0.0136920
848.062	0.0138686
848.140	0.0139108
848.218	0.0138506
848.296	0.0137872
848.374	0.0137515
848.453	0.0137141
848.531	0.0137378
848.609	0.0136887
848.687	0.0137453
848.765	0.0138253
848.843	0.0137576
848.921	0.0137630
848.999	0.0138198
849.078	0.0137040
849.156	0.0137964
849.234	0.0137311
849.312	0.0137672
849.390	0.0137531
849.468	0.0137093
849.546	0.0137083
849.624	0.0138486
849.703	0.0137206
849.781	0.0136242
849.859	0.0139009
849.937	0.0139536
850.015	0.0137307
850.093	0.0137405
850.171	0.0138670
850.249	0.0139413
850.328	0.0140777
850.406	0.0139960
850.484	0.0139179
850.562	0.0138495
850.640	0.0139429
850.718	0.0138189
850.796	0.0138337
850.874	0.0139095
850.953	0.0138768
851.031	0.0139247
851.109	0.0139567
851.187	0.0138193
851.265	0.0138466
851.343	0.0139310
851.421	0.0139768
851.499	0.0139169
851.578	0.0138062
851.656	0.0137144
851.734	0.0138779
851.812	0.0138676
851.890	0.0137437
851.968	0.0137504
852.046	0.0136194
852.124	0.0135906
852.203	0.0134675
852.281	0.0136162
852.359	0.0135288
852.437	0.0135222
852.515	0.0135119
852.593	0.0134219
852.671	0.0134558
852.749	0.0134412
852.828	0.0134454
852.906	0.0134984
852.984	0.0133616
853.062	0.0134917
853.140	0.0135470
853.218	0.0135633
853.296	0.0134241
853.374	0.0136073
853.453	0.0137273
853.531	0.0137764
853.609	0.0137585
853.687	0.0137550
853.765	0.0139306
853.843	0.0138258
853.921	0.0141111
853.999	0.0139272
854.078	0.0140859
854.156	0.0139948
854.234	0.0140108
854.312	0.0141118
854.390	0.0140488
854.468	0.0141206
854.546	0.0139734
854.624	0.0140857
854.703	0.0141148
854.781	0.0139839
854.859	0.0139389
854.937	0.0139678
855.015	0.0137659
855.093	0.0137375
855.171	0.0137131
855.249	0.0136450
855.328	0.0135110
855.406	0.0136483
855.484	0.0135601
855.562	0.0134447
855.640	0.0133715
855.718	0.0135300
855.796	0.0134198
855.874	0.0134496
855.953	0.0134234
856.031	0.0133125
856.109	0.0133260
856.187	0.0134933
856.265	0.0134207
856.343	0.0133398
856.421	0.0134361
856.499	0.0134209
856.578	0.0134244
856.656	0.0134534
856.734	0.0134591
856.812	0.0135152
856.890	0.0135714
856.968	0.0135406
857.046	0.0133531
857.124	0.0133260
857.203	0.0135520
857.281	0.0136818
857.359	0.0134639
857.437	0.0135276
857.515	0.0134914
857.593	0.0135539
857.671	0.0136578
857.749	0.0135363
857.828	0.0137723
857.906	0.0138281
857.984	0.0138033
858.062	0.0138313
858.140	0.0138717
858.218	0.0138465
858.296	0.0137934
858.374	0.0138929
858.453	0.0139587
858.531	0.0140270
858.609	0.0139969
858.687	0.0140131
858.765	0.0140185
858.843	0.0139483
858.921	0.0139584
858.999	0.0138748
859.078	0.0139718
859.156	0.0139453
859.234	0.0138564
859.312	0.0138843
859.390	0.0137711
859.468	0.0137045
859.546	0.0137611
859.624	0.0136519
859.703	0.0136137
859.781	0.0135258
859.859	0.0134795
859.937	0.0135902
860.015	0.0134330
860.093	0.0133008
860.171	0.0133529
860.249	0.0133273
860.328	0.0134203
860.406	0.0134547
860.484	0.0134350
860.562	0.0134472
860.640	0.0133038
860.718	0.0132587
860.796	0.0133367
860.874	0.0134203
860.953	0.0135415
861.031	0.0134427
861.109	0.0135012
861.187	0.0135891
861.265	0.0135608
861.343	0.0135483
861.421	0.0136817
861.499	0.0136211
861.578	0.0136394
861.656	0.0137933
861.734	0.0137022
861.812	0.0136429
861.890	0.0137486
861.968	0.0137640
862.046	0.0138091
862.124	0.0138242
862.203	0.0137776
862.281	0.0137389
862.359	0.0139419
862.437	0.0138441
862.515	0.0137560
862.593	0.0140118
862.671	0.0139068
862.749	0.0137552
862.828	0.0138789
862.906	0.0139041
862.984	0.0137837
863.062	0.0137341
863.140	0.0138126
863.218	0.0138428
863.296	0.0137105
863.374	0.0137755
863.453	0.0138354
863.531	0.0138167
863.609	0.0138925
863.687	0.0138618
863.765	0.0138809
863.843	0.0137379
863.921	0.0137926
863.999	0.0139133
864.078	0.0138848
864.156	0.0136501
864.234	0.0138039
864.312	0.0137924
864.390	0.0137073
864.468	0.0138016
864.546	0.0137669
864.624	0.0137784
864.703	0.0137438
864.781	0.0137577
864.859	0.0137301
864.937	0.0136781
865.015	0.0137164
865.093	0.0136736
865.171	0.0137191
865.249	0.0138026
865.328	0.0136744
865.406	0.0134708
865.484	0.0135108
865.562	0.0135770
865.640	0.0138543
865.718	0.0136055
865.796	0.0135467
865.874	0.0135196
865.953	0.0136752
866.031	0.0134109
866.109	0.0135652
866.187	0.0136258
866.265	0.0134963
866.343	0.0135935
866.421	0.0135786
866.499	0.0135351
866.578	0.0137238
866.656	0.0137112
866.734	0.0136943
866.812	0.0138500
866.890	0.0138763
866.968	0.0138445
867.046	0.0137891
867.124	0.0139074
867.203	0.0138825
867.281	0.0139600
867.359	0.0140705
867.437	0.0139858
867.515	0.0138663
867.593	0.0140318
867.671	0.0139480
867.749	0.0138227
867.828	0.0139085
867.906	0.0137802
867.984	0.0138910
868.062	0.0137942
868.140	0.0138196
868.218	0.0136092
868.296	0.0137511
868.374	0.0137465
868.453	0.0137331
868.531	0.0139226
868.609	0.0137508
868.687	0.0136628
868.765	0.0136797
868.843	0.0136484
868.921	0.0136310
868.999	0.0137598
869.078	0.0138344
869.156	0.0137345
869.234	0.0137497
869.312	0.0138684
869.390	0.0137331
869.468	0.0137554
869.546	0.0138726
869.624	0.0137120
869.703	0.0136380
869.781	0.0137525
869.859	0.0136928
869.937	0.0137534
870.015	0.0136592
870.093	0.0136405
870.171	0.0136426
870.249	0.0135856
870.328	0.0135696
870.406	0.0135480
870.484	0.0135567
870.562	0.0136436
870.640	0.0135851
870.718	0.0136732
870.796	0.0137078
870.874	0.0136237
870.953	0.0138134
871.031	0.0136708
871.109	0.0137158
871.187	0.0138102
871.265	0.0139053
871.343	0.0138110
871.421	0.0138347
871.499	0.0139677
871.578	0.0137656
871.656	0.0138574
871.734	0.0138245
871.812	0.0139665
871.890	0.0140331
871.968	0.0139548
872.046	0.0139608
872.124	0.0141294
872.203	0.0138897
872.281	0.0139012
872.359	0.0139448
872.437	0.0139592
872.515	0.0137699
872.593	0.0137541
872.671	0.0137096
872.749	0.0137933
872.828	0.0137366
872.906	0.0135656
872.984	0.0136720
873.062	0.0136776
873.140	0.0137038
873.218	0.0135226
873.296	0.0135185
873.374	0.0136414
873.453	0.0135541
873.531	0.0135738
873.609	0.0136296
873.687	0.0136263
873.765	0.0136651
873.843	0.0135812
873.921	0.0136153
873.999	0.0137148
874.078	0.0136628
874.156	0.0137385
874.234	0.0138760
874.312	0.0139083
874.390	0.0139594
874.468	0.0140205
874.546	0.0139404
874.624	0.0138007
874.703	0.0138861
874.781	0.0140211
874.859	0.0139523
874.937	0.0139372
875.015	0.0140065
875.093	0.0140995
875.171	0.0139653
875.249	0.0138311
875.328	0.0138832
875.406	0.0138873
875.484	0.0138567
875.562	0.0139171
875.640	0.0138364
875.718	0.0137393
875.796	0.0138000
875.874	0.0138267
875.953	0.0136016
876.031	0.0136876
876.109	0.0137375
876.187	0.0136010
876.265	0.0135023
876.343	0.0135526
876.421	0.0136617
876.499	0.0135810
876.578	0.0134411
876.656	0.0135407
876.734	0.0136022
876.812	0.0134858
876.890	0.0133707
876.968	0.0135027
877.046	0.0135365
877.124	0.0135983
877.203	0.0136308
877.281	0.0136005
877.359	0.0135550
877.437	0.0136657
877.515	0.0135699
877.593	0.0136378
877.671	0.0138837
877.749	0.0139264
877.828	0.0139365
877.906	0.0138865
877.984	0.0139445
878.062	0.0139307
878.140	0.0141112
878.218	0.0139011
878.296	0.0139603
878.374	0.0139082
878.453	0.0138609
878.531	0.0139659
878.609	0.0139691
878.687	0.0139050
878.765	0.0139321
878.843	0.0138491
878.921	0.0137444
878.999	0.0138930
879.078	0.0138354
879.156	0.0138915
879.234	0.0139015
879.312	0.0138348
879.390	0.0138976
879.468	0.0137183
879.546	0.0137752
879.624	0.0137131
879.703	0.0138089
879.781	0.0137522
879.859	0.0137966
879.937	0.0136374
880.015	0.0136654
880.093	0.0136275
880.171	0.0137195
880.249	0.0135911
880.328	0.0137492
880.406	0.0136850
880.484	0.0136842
880.562	0.0136906
880.640	0.0138328
880.718	0.0137509
880.796	0.0135825
880.874	0.0136025
880.953	0.0136101
881.031	0.0136843
881.109	0.0136180
881.187	0.0136263
881.265	0.0135435
881.343	0.0136653
881.421	0.0135062
881.499	0.0136816
881.578	0.0135510
881.656	0.0135409
881.734	0.0134811
881.812	0.0135982
881.890	0.0135159
881.968	0.0135516
882.046	0.0136843
882.124	0.0135964
882.203	0.0134714
882.281	0.0134265
882.359	0.0136601
882.437	0.0135546
882.515	0.0135372
882.593	0.0135252
882.671	0.0135763
882.749	0.0136468
882.828	0.0135505
882.906	0.0135141
882.984	0.0137715
883.062	0.0138128
883.140	0.0137869
883.218	0.0137163
883.296	0.0138689
883.374	0.0138708
883.453	0.0137593
883.531	0.0139695
883.609	0.0139735
883.687	0.0139197
883.765	0.0138810
883.843	0.0139302
883.921	0.0138386
883.999	0.0139108
884.078	0.0139119
884.156	0.0140609
884.234	0.0139320
884.312	0.0138187
884.390	0.0138966
884.468	0.0137398
884.546	0.0137532
884.624	0.0139672
884.703	0.0138317
884.781	0.0138092
884.859	0.0137910
884.937	0.0137875
885.015	0.0138431
885.093	0.0137830
885.171	0.0137524
885.249	0.0136383
885.328	0.0137711
885.406	0.0138302
885.484	0.0138410
885.562	0.0138012
885.640	0.0136881
885.718	0.0137615
885.796	0.0136993
885.874	0.0136538
885.953	0.0135315
886.031	0.0135429
886.109	0.0134313
886.187	0.0136456
886.265	0.0135530
886.343	0.0135825
886.421	0.0136378
886.499	0.0136358
886.578	0.0136924
886.656	0.0135305
886.734	0.0136911
886.812	0.0138416
886.890	0.0136316
886.968	0.0136404
887.046	0.0137949
887.124	0.0137535
887.203	0.0136704
887.281	0.0137754
887.359	0.0137126
887.437	0.0136566
887.515	0.0138332
887.593	0.0138123
887.671	0.0137811
887.749	0.0137708
887.828	0.0138064
887.906	0.0137794
887.984	0.0138145
888.062	0.0137970
888.140	0.0139051
888.218	0.0139162
888.296	0.0138915
888.374	0.0137856
888.453	0.0138903
888.531	0.0138848
888.609	0.0138646
888.687	0.0139494
888.765	0.0139017
888.843	0.0140029
888.921	0.0138483
888.999	0.0139259
889.078	0.0140707
889.156	0.0140893
889.234	0.0139014
889.312	0.0138845
889.390	0.0138451
889.468	0.0139336
889.546	0.0136954
889.624	0.0137212
889.703	0.0137708
889.781	0.0136652
889.859	0.0134969
889.937	0.0136987
890.015	0.0136115
890.093	0.0137328
890.171	0.0137221
890.249	0.0135801
890.328	0.0137594
890.406	0.0137448
890.484	0.0135789
890.562	0.0135671
890.640	0.0137019
890.718	0.0137021
890.796	0.0137748
890.874	0.0136536
890.953	0.0136632
891.031	0.0137418
891.109	0.0137420
891.187	0.0137193
891.265	0.0137681
891.343	0.0136691
891.421	0.0136567
891.499	0.0136420
891.578	0.0136908
891.656	0.0137643
891.734	0.0138074
891.812	0.0135603
891.890	0.0136063
891.968	0.0137229
892.046	0.0136003
892.124	0.0137696
892.203	0.0137335
892.281	0.0137945
892.359	0.0137469
892.437	0.0137670
892.515	0.0136541
892.593	0.0136137
892.671	0.0137630
892.749	0.0138082
892.828	0.0136205
892.906	0.0136215
892.984	0.0135110
893.062	0.0136720
893.140	0.0136803
893.218	0.0136589
893.296	0.0135995
893.374	0.0135696
893.453	0.0135109
893.531	0.0135536
893.609	0.0137757
893.687	0.0138656
893.765	0.0137213
893.843	0.0137334
893.921	0.0137025
893.999	0.0136532
894.078	0.0135617
894.156	0.0136741
894.234	0.0135744
894.312	0.0135773
894.390	0.0136278
894.468	0.0136839
894.546	0.0135011
894.624	0.0134668
894.703	0.0135538
894.781	0.0136148
894.859	0.0135860
894.937	0.0137168
895.015	0.0136507
895.093	0.0134853
895.171	0.0136755
895.249	0.0134438
895.328	0.0136812
895.406	0.0136841
895.484	0.0135923
895.562	0.0136124
895.640	0.0136488
895.718	0.0136761
895.796	0.0136368
895.874	0.0138369
895.953	0.0137498
896.031	0.0136998
896.109	0.0137119
896.187	0.0138055
896.265	0.0138910
896.343	0.0138001
896.421	0.0137002
896.499	0.0138284
896.578	0.0139373
896.656	0.0138859
896.734	0.0138017
896.812	0.0138802
896.890	0.0137996
896.968	0.0138326
897.046	0.0138612
897.124	0.0137179
897.203	0.0138977
897.281	0.0139285
897.359	0.0137798
897.437	0.0137445
897.515	0.0136613
897.593	0.0137607
897.671	0.0137909
897.749	0.0137476
897.828	0.0138194
897.906	0.0137152
897.984	0.0137299
898.062	0.0138744
898.140	0.0136779
898.218	0.0137616
898.296	0.0136429
898.374	0.0136214
898.453	0.0135946
898.531	0.0135474
898.609	0.0136720
898.687	0.0138297
898.765	0.0136450
898.843	0.0136940
898.921	0.0137048
898.999	0.0138965
899.078	0.0137644
899.156	0.0137897
899.234	0.0137026
899.312	0.0136844
899.390	0.0138404
899.468	0.0137747
899.546	0.0137797
899.624	0.0138131
899.703	0.0139411
899.781	0.0136595
899.859	0.0137596
899.937	0.0138340
900.015	0.0137954
900.093	0.0138048
900.171	0.0138034
900.249	0.0138532
900.328	0.0137756
900.406	0.0138731
900.484	0.0138071
900.562	0.0137778
900.640	0.0137714
900.718	0.0138531
900.796	0.0139040
900.874	0.0138754
900.953	0.0138303
901.031	0.0138077
901.109	0.0138419
901.187	0.0139439
901.265	0.0139948
901.343	0.0138084
901.421	0.0140052
901.499	0.0139345
901.578	0.0138837
901.656	0.0138765
901.734	0.0139329
901.812	0.0139310
901.890	0.0138774
901.968	0.0137488
902.046	0.0139550
902.124	0.0139268
902.203	0.0137451
902.281	0.0138408
902.359	0.0139630
902.437	0.0138157
902.515	0.0138319
902.593	0.0138130
902.671	0.0139117
902.749	0.0137700
902.828	0.0137704
902.906	0.0138302
902.984	0.0138451
903.062	0.0137581
903.140	0.0137922
903.218	0.0136864
903.296	0.0136137
903.374	0.0137385
903.453	0.0136935
903.531	0.0136995
903.609	0.0137477
903.687	0.0137765
903.765	0.0135932
903.843	0.0136449
903.921	0.0135751
903.999	0.0135638
904.078	0.0136102
904.156	0.0134879
904.234	0.0136635
904.312	0.0135463
904.390	0.0136071
904.468	0.0136143
904.546	0.0136577
904.624	0.0135262
904.703	0.0136220
904.781	0.0136383
904.859	0.0136352
904.937	0.0136635
905.015	0.0136067
905.093	0.0138737
905.171	0.0137191
905.249	0.0138073
905.328	0.0137897
905.406	0.0137722
905.484	0.0138135
905.562	0.0138214
905.640	0.0137657
905.718	0.0139169
905.796	0.0139452
905.874	0.0138095
905.953	0.0138781
906.031	0.0140260
906.109	0.0139617
906.187	0.0140257
906.265	0.0141037
906.343	0.0140875
906.421	0.0140115
906.499	0.0139934
906.578	0.0141206
906.656	0.0139981
906.734	0.0141124
906.812	0.0141381
906.890	0.0140088
906.968	0.0139845
907.046	0.0141827
907.124	0.0139443
907.203	0.0139944
907.281	0.0138401
907.359	0.0138333
907.437	0.0137667
907.515	0.0137415
907.593	0.0137429
907.671	0.0137270
907.749	0.0137743
907.828	0.0136129
907.906	0.0136880
907.984	0.0135907
908.062	0.0136037
908.140	0.0136771
908.218	0.0135793
908.296	0.0137923
908.374	0.0135925
908.453	0.0136780
908.531	0.0137401
908.609	0.0136295
908.687	0.0137381
908.765	0.0137616
908.843	0.0137389
908.921	0.0138851
908.999	0.0136037
909.078	0.0136552
909.156	0.0137703
909.234	0.0138566
909.312	0.0137337
909.390	0.0138683
909.468	0.0138448
909.546	0.0137165
909.624	0.0138864
909.703	0.0138740
909.781	0.0138330
909.859	0.0139423
909.937	0.0138571
910.015	0.0137977
910.093	0.0137756
910.171	0.0138641
910.249	0.0138914
910.328	0.0139806
910.406	0.0137697
910.484	0.0139555
910.562	0.0139020
910.640	0.0138213
910.718	0.0137790
910.796	0.0136975
910.874	0.0137693
910.953	0.0137154
911.031	0.0137748
911.109	0.0136607
911.187	0.0136456
911.265	0.0135764
911.343	0.0135904
911.421	0.0136278
911.499	0.0134675
911.578	0.0135287
911.656	0.0137019
911.734	0.0136679
911.812	0.0136433
911.890	0.0136519
911.968	0.0135857
912.046	0.0136667
912.124	0.0137811
912.203	0.0136278
912.281	0.0137109
912.359	0.0136300
912.437	0.0137924
912.515	0.0136237
912.593	0.0135181
912.671	0.0136671
912.749	0.0137535
912.828	0.0137183
912.906	0.0137255
912.984	0.0136077
913.062	0.0136552
913.140	0.0136442
913.218	0.0137267
913.296	0.0137782
913.374	0.0136539
913.453	0.0136572
913.531	0.0137670
913.609	0.0137251
913.687	0.0138304
913.765	0.0137691
913.843	0.0137782
913.921	0.0138261
913.999	0.0138015
914.078	0.0137819
914.156	0.0138207
914.234	0.0138447
914.312	0.0138396
914.390	0.0137122
914.468	0.0137675
914.546	0.0137341
914.624	0.0137408
914.703	0.0138998
914.781	0.0137703
914.859	0.0137893
914.937	0.0138421
915.015	0.0138509
915.093	0.0139897
915.171	0.0139066
915.249	0.0138197
915.328	0.0138687
915.406	0.0138223
915.484	0.0139687
915.562	0.0139234
915.640	0.0139297
915.718	0.0139446
915.796	0.0140636
915.874	0.0139780
915.953	0.0138651
916.031	0.0139965
916.109	0.0138132
916.187	0.0137299
916.265	0.0137547
916.343	0.0137988
916.421	0.0137662
916.499	0.0136818
916.578	0.0136118
916.656	0.0137923
916.734	0.0137418
916.812	0.0136236
916.890	0.0136486
916.968	0.0137354
917.046	0.0136938
917.124	0.0137085
917.203	0.0136836
917.281	0.0136327
917.359	0.0137169
917.437	0.0137148
917.515	0.0137934
917.593	0.0137141
917.671	0.0137699
917.749	0.0137257
917.828	0.0136180
917.906	0.0136321
917.984	0.0136146
918.062	0.0136922
918.140	0.0136887
918.218	0.0137715
918.296	0.0138055
918.374	0.0136452
918.453	0.0136841
918.531	0.0136340
918.609	0.0136488
918.687	0.0137422
918.765	0.0137397
918.843	0.0137260
918.921	0.0136230
918.999	0.0136726
919.078	0.0137544
919.156	0.0137775
919.234	0.0136744
919.312	0.0138511
919.390	0.0137669
919.468	0.0137260
919.546	0.0137290
919.624	0.0137742
919.703	0.0138914
919.781	0.0138339
919.859	0.0138092
919.937	0.0138979
