05/08/2022	20:10:46	Ver.	4.1	UNKNOWN
Optical Delay	600.015094	Delta X		0.078125	Sweeps	1	Scan Rate	0/0
Coordinates	Axis 1	NaN	Axis 2	NaN	Axis 3	NaN	Axis 4	NaN	Axis 5	NaN	Axis 6	0.000000
TX Power	0.000000	RX Power	0.000000

600.015	0.0133904
600.093	0.0134199
600.171	0.0134555
600.249	0.0134100
600.328	0.0134700
600.406	0.0134565
600.484	0.0134209
600.562	0.0133677
600.640	0.0133416
600.718	0.0135563
600.796	0.0134550
600.874	0.0134853
600.953	0.0134568
601.031	0.0133922
601.109	0.0134585
601.187	0.0135046
601.265	0.0134316
601.343	0.0133807
601.421	0.0133546
601.499	0.0133257
601.578	0.0133944
601.656	0.0133057
601.734	0.0133656
601.812	0.0134145
601.890	0.0134097
601.968	0.0134271
602.046	0.0132942
602.124	0.0132449
602.203	0.0134206
602.281	0.0134138
602.359	0.0134037
602.437	0.0134443
602.515	0.0133390
602.593	0.0133408
602.671	0.0133880
602.749	0.0133772
602.828	0.0133818
602.906	0.0133586
602.984	0.0132996
603.062	0.0134248
603.140	0.0133964
603.218	0.0133235
603.296	0.0133691
603.374	0.0133485
603.453	0.0133603
603.531	0.0134921
603.609	0.0133952
603.687	0.0133092
603.765	0.0132768
603.843	0.0133244
603.921	0.0134308
603.999	0.0134853
604.078	0.0134077
604.156	0.0135041
604.234	0.0135892
604.312	0.0134283
604.390	0.0134467
604.468	0.0135247
604.546	0.0133120
604.624	0.0133111
604.703	0.0133240
604.781	0.0134208
604.859	0.0134289
604.937	0.0133485
605.015	0.0132838
605.093	0.0134354
605.171	0.0134518
605.249	0.0134280
605.328	0.0134054
605.406	0.0133070
605.484	0.0134678
605.562	0.0134107
605.640	0.0134784
605.718	0.0134077
605.796	0.0133389
605.874	0.0135080
605.953	0.0133376
606.031	0.0133687
606.109	0.0134734
606.187	0.0134087
606.265	0.0133294
606.343	0.0133960
606.421	0.0134804
606.499	0.0133205
606.578	0.0133344
606.656	0.0134721
606.734	0.0134533
606.812	0.0136554
606.890	0.0135440
606.968	0.0133979
607.046	0.0135194
607.124	0.0136368
607.203	0.0135088
607.281	0.0132838
607.359	0.0134545
607.437	0.0133801
607.515	0.0134882
607.593	0.0135393
607.671	0.0134806
607.749	0.0133021
607.828	0.0134089
607.906	0.0133486
607.984	0.0135430
608.062	0.0134854
608.140	0.0134258
608.218	0.0134277
608.296	0.0134893
608.374	0.0134786
608.453	0.0134714
608.531	0.0133434
608.609	0.0134946
608.687	0.0136382
608.765	0.0134534
608.843	0.0135360
608.921	0.0133424
608.999	0.0134948
609.078	0.0135265
609.156	0.0134608
609.234	0.0134708
609.312	0.0133215
609.390	0.0134686
609.468	0.0134163
609.546	0.0135265
609.624	0.0136279
609.703	0.0134017
609.781	0.0134387
609.859	0.0134550
609.937	0.0133928
610.015	0.0134826
610.093	0.0134500
610.171	0.0133311
610.249	0.0134654
610.328	0.0135277
610.406	0.0135432
610.484	0.0134203
610.562	0.0134457
610.640	0.0134894
610.718	0.0134922
610.796	0.0134101
610.874	0.0134240
610.953	0.0134056
611.031	0.0135608
611.109	0.0134380
611.187	0.0132146
611.265	0.0133376
611.343	0.0133645
611.421	0.0134275
611.499	0.0133820
611.578	0.0133995
611.656	0.0133660
611.734	0.0132522
611.812	0.0133071
611.890	0.0133861
611.968	0.0132545
612.046	0.0134143
612.124	0.0134332
612.203	0.0133797
612.281	0.0133769
612.359	0.0134843
612.437	0.0134284
612.515	0.0133804
612.593	0.0133541
612.671	0.0134329
612.749	0.0133919
612.828	0.0134120
612.906	0.0133853
612.984	0.0134068
613.062	0.0134523
613.140	0.0133801
613.218	0.0134009
613.296	0.0132331
613.374	0.0133458
613.453	0.0134027
613.531	0.0133887
613.609	0.0132849
613.687	0.0133862
613.765	0.0134269
613.843	0.0134309
613.921	0.0132713
613.999	0.0134006
614.078	0.0133624
614.156	0.0133939
614.234	0.0132837
614.312	0.0134438
614.390	0.0134763
614.468	0.0134329
614.546	0.0134029
614.624	0.0134534
614.703	0.0133458
614.781	0.0133698
614.859	0.0133781
614.937	0.0134631
615.015	0.0134509
615.093	0.0133790
615.171	0.0134009
615.249	0.0133887
615.328	0.0135195
615.406	0.0133128
615.484	0.0133406
615.562	0.0134621
615.640	0.0135214
615.718	0.0133447
615.796	0.0134809
615.874	0.0133851
615.953	0.0132876
616.031	0.0133669
616.109	0.0134917
616.187	0.0134258
616.265	0.0133936
616.343	0.0133635
616.421	0.0133222
616.499	0.0134119
616.578	0.0133858
616.656	0.0134396
616.734	0.0135151
616.812	0.0133289
616.890	0.0134274
616.968	0.0133982
617.046	0.0134574
617.124	0.0133702
617.203	0.0135122
617.281	0.0133819
617.359	0.0133347
617.437	0.0134703
617.515	0.0135255
617.593	0.0135102
617.671	0.0132827
617.749	0.0134238
617.828	0.0134129
617.906	0.0133430
617.984	0.0134074
618.062	0.0134588
618.140	0.0135647
618.218	0.0135047
618.296	0.0134633
618.374	0.0134400
618.453	0.0133285
618.531	0.0134835
618.609	0.0134843
618.687	0.0133984
618.765	0.0133749
618.843	0.0134428
618.921	0.0133937
618.999	0.0134017
619.078	0.0134671
619.156	0.0134353
619.234	0.0133282
619.312	0.0133624
619.390	0.0133362
619.468	0.0134813
619.546	0.0133665
619.624	0.0134375
619.703	0.0132691
619.781	0.0133494
619.859	0.0133125
619.937	0.0133456
620.015	0.0134798
620.093	0.0134328
620.171	0.0134512
620.249	0.0134296
620.328	0.0134959
620.406	0.0134673
620.484	0.0133925
620.562	0.0134393
620.640	0.0134309
620.718	0.0134997
620.796	0.0133638
620.874	0.0133954
620.953	0.0134631
621.031	0.0135706
621.109	0.0134135
621.187	0.0135741
621.265	0.0135355
621.343	0.0133128
621.421	0.0134076
621.499	0.0134096
621.578	0.0133440
621.656	0.0135044
621.734	0.0134540
621.812	0.0133029
621.890	0.0134769
621.968	0.0134904
622.046	0.0132997
622.124	0.0134949
622.203	0.0133905
622.281	0.0133979
622.359	0.0135130
622.437	0.0134280
622.515	0.0134210
622.593	0.0133987
622.671	0.0135299
622.749	0.0134348
622.828	0.0135172
622.906	0.0136415
622.984	0.0133274
623.062	0.0134537
623.140	0.0134257
623.218	0.0135570
623.296	0.0134796
623.374	0.0134871
623.453	0.0136041
623.531	0.0136291
623.609	0.0134277
623.687	0.0134877
623.765	0.0134930
623.843	0.0135749
623.921	0.0134538
623.999	0.0136214
624.078	0.0135674
624.156	0.0134767
624.234	0.0134412
624.312	0.0134617
624.390	0.0135239
624.468	0.0136046
624.546	0.0135320
624.624	0.0133992
624.703	0.0135058
624.781	0.0135318
624.859	0.0136438
624.937	0.0134204
625.015	0.0134895
625.093	0.0135093
625.171	0.0134000
625.249	0.0134116
625.328	0.0134142
625.406	0.0133339
625.484	0.0133929
625.562	0.0134808
625.640	0.0134576
625.718	0.0135418
625.796	0.0136011
625.874	0.0133853
625.953	0.0134811
626.031	0.0134332
626.109	0.0135798
626.187	0.0134543
626.265	0.0134404
626.343	0.0135130
626.421	0.0136095
626.499	0.0135168
626.578	0.0133932
626.656	0.0134441
626.734	0.0135291
626.812	0.0133981
626.890	0.0133558
626.968	0.0134190
627.046	0.0134873
627.124	0.0134103
627.203	0.0135372
627.281	0.0133709
627.359	0.0134231
627.437	0.0133876
627.515	0.0135525
627.593	0.0132671
627.671	0.0134369
627.749	0.0135085
627.828	0.0135722
627.906	0.0133564
627.984	0.0135563
628.062	0.0135160
628.140	0.0133685
628.218	0.0136108
628.296	0.0135247
628.374	0.0134728
628.453	0.0133739
628.531	0.0135376
628.609	0.0135673
628.687	0.0134818
628.765	0.0134005
628.843	0.0134452
628.921	0.0134792
628.999	0.0134095
629.078	0.0134409
629.156	0.0135429
629.234	0.0135294
629.312	0.0134706
629.390	0.0133741
629.468	0.0134214
629.546	0.0135685
629.624	0.0135798
629.703	0.0134759
629.781	0.0135003
629.859	0.0134807
629.937	0.0134194
630.015	0.0134480
630.093	0.0134381
630.171	0.0133904
630.249	0.0134219
630.328	0.0133807
630.406	0.0135155
630.484	0.0134344
630.562	0.0135048
630.640	0.0133391
630.718	0.0134449
630.796	0.0134472
630.874	0.0134971
630.953	0.0134465
631.031	0.0133575
631.109	0.0134238
631.187	0.0134508
631.265	0.0133566
631.343	0.0133038
631.421	0.0133398
631.499	0.0133839
631.578	0.0133903
631.656	0.0133479
631.734	0.0132777
631.812	0.0134026
631.890	0.0134783
631.968	0.0135070
632.046	0.0133699
632.124	0.0133981
632.203	0.0133530
632.281	0.0133238
632.359	0.0134608
632.437	0.0134574
632.515	0.0134681
632.593	0.0134543
632.671	0.0134353
632.749	0.0133990
632.828	0.0133705
632.906	0.0132071
632.984	0.0134013
633.062	0.0135277
633.140	0.0135047
633.218	0.0133488
633.296	0.0134547
633.374	0.0133816
633.453	0.0134379
633.531	0.0133558
633.609	0.0135116
633.687	0.0133409
633.765	0.0134350
633.843	0.0133980
633.921	0.0133054
633.999	0.0134206
634.078	0.0133652
634.156	0.0133958
634.234	0.0134276
634.312	0.0134282
634.390	0.0133199
634.468	0.0134328
634.546	0.0132683
634.624	0.0133632
634.703	0.0134756
634.781	0.0133072
634.859	0.0133240
634.937	0.0133724
635.015	0.0133573
635.093	0.0133073
635.171	0.0133493
635.249	0.0133817
635.328	0.0134803
635.406	0.0134237
635.484	0.0133932
635.562	0.0133153
635.640	0.0134048
635.718	0.0133823
635.796	0.0134193
635.874	0.0133848
635.953	0.0132809
636.031	0.0135693
636.109	0.0133759
636.187	0.0132040
636.265	0.0134509
636.343	0.0132883
636.421	0.0133253
636.499	0.0133061
636.578	0.0134340
636.656	0.0134371
636.734	0.0134659
636.812	0.0133971
636.890	0.0134264
636.968	0.0134610
637.046	0.0133221
637.124	0.0133152
637.203	0.0134827
637.281	0.0133286
637.359	0.0133200
637.437	0.0133808
637.515	0.0133464
637.593	0.0134208
637.671	0.0135027
637.749	0.0135185
637.828	0.0134320
637.906	0.0134010
637.984	0.0134237
638.062	0.0134084
638.140	0.0134865
638.218	0.0133829
638.296	0.0133076
638.374	0.0133184
638.453	0.0133875
638.531	0.0134010
638.609	0.0133973
638.687	0.0134003
638.765	0.0133494
638.843	0.0133341
638.921	0.0133431
638.999	0.0134978
639.078	0.0133483
639.156	0.0132648
639.234	0.0133990
639.312	0.0134566
639.390	0.0134164
639.468	0.0134731
639.546	0.0136131
639.624	0.0134788
639.703	0.0134972
639.781	0.0133349
639.859	0.0132880
639.937	0.0134456
640.015	0.0134319
640.093	0.0134269
640.171	0.0134188
640.249	0.0135562
640.328	0.0134459
640.406	0.0134378
640.484	0.0133622
640.562	0.0134554
640.640	0.0135088
640.718	0.0133909
640.796	0.0133535
640.874	0.0133842
640.953	0.0134848
641.031	0.0135398
641.109	0.0134187
641.187	0.0136184
641.265	0.0134345
641.343	0.0134321
641.421	0.0134922
641.499	0.0133923
641.578	0.0133681
641.656	0.0134280
641.734	0.0132958
641.812	0.0133283
641.890	0.0133911
641.968	0.0133903
642.046	0.0134976
642.124	0.0133701
642.203	0.0132719
642.281	0.0133451
642.359	0.0134630
642.437	0.0135664
642.515	0.0134969
642.593	0.0136198
642.671	0.0134525
642.749	0.0135035
642.828	0.0133447
642.906	0.0135510
642.984	0.0135315
643.062	0.0134288
643.140	0.0135114
643.218	0.0134924
643.296	0.0133765
643.374	0.0134334
643.453	0.0133987
643.531	0.0134119
643.609	0.0133558
643.687	0.0134347
643.765	0.0134856
643.843	0.0134342
643.921	0.0134424
643.999	0.0134657
644.078	0.0135471
644.156	0.0135646
644.234	0.0135126
644.312	0.0135088
644.390	0.0136627
644.468	0.0135973
644.546	0.0134484
644.624	0.0135409
644.703	0.0137558
644.781	0.0135358
644.859	0.0135169
644.937	0.0135965
645.015	0.0135921
645.093	0.0134184
645.171	0.0133857
645.249	0.0133994
645.328	0.0134357
645.406	0.0132846
645.484	0.0133136
645.562	0.0132395
645.640	0.0132554
645.718	0.0133177
645.796	0.0135157
645.874	0.0135383
645.953	0.0135529
646.031	0.0135978
646.109	0.0136449
646.187	0.0135201
646.265	0.0135127
646.343	0.0135701
646.421	0.0137891
646.499	0.0136962
646.578	0.0137885
646.656	0.0136362
646.734	0.0135623
646.812	0.0137031
646.890	0.0136001
646.968	0.0135310
647.046	0.0136512
647.124	0.0135538
647.203	0.0135458
647.281	0.0134270
647.359	0.0134155
647.437	0.0135296
647.515	0.0134912
647.593	0.0132856
647.671	0.0134146
647.749	0.0134467
647.828	0.0131771
647.906	0.0132970
647.984	0.0132882
648.062	0.0133719
648.140	0.0134695
648.218	0.0134208
648.296	0.0133572
648.374	0.0133978
648.453	0.0135947
648.531	0.0135426
648.609	0.0134813
648.687	0.0134887
648.765	0.0135633
648.843	0.0136378
648.921	0.0136818
648.999	0.0137610
649.078	0.0137118
649.156	0.0137979
649.234	0.0136548
649.312	0.0135765
649.390	0.0136022
649.468	0.0135960
649.546	0.0135130
649.624	0.0132998
649.703	0.0132091
649.781	0.0132516
649.859	0.0132581
649.937	0.0130341
650.015	0.0129202
650.093	0.0130390
650.171	0.0129293
650.249	0.0129599
650.328	0.0130500
650.406	0.0131223
650.484	0.0132337
650.562	0.0133046
650.640	0.0133408
650.718	0.0134618
650.796	0.0137367
650.874	0.0137624
650.953	0.0138077
651.031	0.0138876
651.109	0.0139931
651.187	0.0141695
651.265	0.0139284
651.343	0.0140086
651.421	0.0138917
651.499	0.0137068
651.578	0.0137597
651.656	0.0135908
651.734	0.0135659
651.812	0.0133415
651.890	0.0131626
651.968	0.0131184
652.046	0.0128812
652.124	0.0129033
652.203	0.0128736
652.281	0.0127664
652.359	0.0127217
652.437	0.0128345
652.515	0.0127637
652.593	0.0126044
652.671	0.0128378
652.749	0.0128461
652.828	0.0129166
652.906	0.0127405
652.984	0.0128508
653.062	0.0129831
653.140	0.0131149
653.218	0.0132236
653.296	0.0132990
653.374	0.0134695
653.453	0.0135055
653.531	0.0135648
653.609	0.0136581
653.687	0.0138932
653.765	0.0139005
653.843	0.0139931
653.921	0.0140540
653.999	0.0141796
654.078	0.0142852
654.156	0.0142027
654.234	0.0144045
654.312	0.0143121
654.390	0.0143035
654.468	0.0142833
654.546	0.0143499
654.624	0.0142848
654.703	0.0142426
654.781	0.0141023
654.859	0.0139835
654.937	0.0138502
655.015	0.0136464
655.093	0.0134409
655.171	0.0133984
655.249	0.0130619
655.328	0.0129289
655.406	0.0126916
655.484	0.0126572
655.562	0.0124794
655.640	0.0122001
655.718	0.0120307
655.796	0.0117854
655.874	0.0116803
655.953	0.0117506
656.031	0.0116190
656.109	0.0115350
656.187	0.0116824
656.265	0.0118208
656.343	0.0119932
656.421	0.0120863
656.499	0.0123011
656.578	0.0126317
656.656	0.0128897
656.734	0.0132083
656.812	0.0135322
656.890	0.0136279
656.968	0.0138257
657.046	0.0141060
657.124	0.0144695
657.203	0.0145997
657.281	0.0147586
657.359	0.0150115
657.437	0.0150479
657.515	0.0150744
657.593	0.0151903
657.671	0.0152409
657.749	0.0153447
657.828	0.0154039
657.906	0.0153439
657.984	0.0151963
658.062	0.0152933
658.140	0.0151995
658.218	0.0151238
658.296	0.0149370
658.374	0.0146600
658.453	0.0145180
658.531	0.0144151
658.609	0.0142653
658.687	0.0139797
658.765	0.0135017
658.843	0.0132063
658.921	0.0130581
658.999	0.0127418
659.078	0.0123970
659.156	0.0120496
659.234	0.0117223
659.312	0.0115134
659.390	0.0113366
659.468	0.0111504
659.546	0.0109421
659.624	0.0108317
659.703	0.0107463
659.781	0.0109161
659.859	0.0107219
659.937	0.0107735
660.015	0.0110277
660.093	0.0111621
660.171	0.0112051
660.249	0.0113224
660.328	0.0115058
660.406	0.0116405
660.484	0.0120066
660.562	0.0123855
660.640	0.0128687
660.718	0.0132521
660.796	0.0136942
660.874	0.0140255
660.953	0.0145419
661.031	0.0152914
661.109	0.0156499
661.187	0.0158842
661.265	0.0162896
661.343	0.0167034
661.421	0.0168475
661.499	0.0170855
661.578	0.0170351
661.656	0.0170436
661.734	0.0169446
661.812	0.0167538
661.890	0.0165022
661.968	0.0162945
662.046	0.0159427
662.124	0.0156000
662.203	0.0152112
662.281	0.0147997
662.359	0.0142288
662.437	0.0139158
662.515	0.0134498
662.593	0.0130884
662.671	0.0125220
662.749	0.0121249
662.828	0.0119383
662.906	0.0114753
662.984	0.0113536
663.062	0.0110597
663.140	0.0109415
663.218	0.0109420
663.296	0.0108142
663.374	0.0106658
663.453	0.0107758
663.531	0.0108513
663.609	0.0109428
663.687	0.0109068
663.765	0.0111264
663.843	0.0111627
663.921	0.0113388
663.999	0.0113553
664.078	0.0114601
664.156	0.0117117
664.234	0.0114964
664.312	0.0118172
664.390	0.0120275
664.468	0.0123406
664.546	0.0125416
664.624	0.0129089
664.703	0.0130801
664.781	0.0135331
664.859	0.0136903
664.937	0.0140800
665.015	0.0143834
665.093	0.0146976
665.171	0.0150800
665.249	0.0152717
665.328	0.0154327
665.406	0.0157690
665.484	0.0158817
665.562	0.0160120
665.640	0.0160397
665.718	0.0160818
665.796	0.0161139
665.874	0.0161622
665.953	0.0162000
666.031	0.0162604
666.109	0.0159223
666.187	0.0158061
666.265	0.0157059
666.343	0.0154146
666.421	0.0150951
666.499	0.0148609
666.578	0.0145752
666.656	0.0141496
666.734	0.0139983
666.812	0.0136883
666.890	0.0134578
666.968	0.0130297
667.046	0.0128326
667.124	0.0125892
667.203	0.0124551
667.281	0.0123511
667.359	0.0120694
667.437	0.0120307
667.515	0.0117738
667.593	0.0117080
667.671	0.0116932
667.749	0.0113915
667.828	0.0113000
667.906	0.0111762
667.984	0.0112212
668.062	0.0111965
668.140	0.0111166
668.218	0.0111823
668.296	0.0113463
668.374	0.0111316
668.453	0.0114159
668.531	0.0115323
668.609	0.0115370
668.687	0.0118841
668.765	0.0120293
668.843	0.0121882
668.921	0.0123616
668.999	0.0124840
669.078	0.0125928
669.156	0.0128640
669.234	0.0132263
669.312	0.0133408
669.390	0.0134025
669.468	0.0137181
669.546	0.0138991
669.624	0.0141442
669.703	0.0144886
669.781	0.0145563
669.859	0.0148822
669.937	0.0150064
670.015	0.0153327
670.093	0.0155666
670.171	0.0156339
670.249	0.0158712
670.328	0.0158958
670.406	0.0160493
670.484	0.0160651
670.562	0.0162493
670.640	0.0158734
670.718	0.0157888
670.796	0.0158109
670.874	0.0155658
670.953	0.0151639
671.031	0.0149542
671.109	0.0148558
671.187	0.0145463
671.265	0.0141043
671.343	0.0138084
671.421	0.0136641
671.499	0.0134557
671.578	0.0130566
671.656	0.0129134
671.734	0.0129135
671.812	0.0127688
671.890	0.0125270
671.968	0.0123751
672.046	0.0123108
672.124	0.0121648
672.203	0.0120768
672.281	0.0120865
672.359	0.0118499
672.437	0.0118671
672.515	0.0116711
672.593	0.0114439
672.671	0.0113287
672.749	0.0112666
672.828	0.0111456
672.906	0.0110464
672.984	0.0108923
673.062	0.0109494
673.140	0.0109407
673.218	0.0109599
673.296	0.0110580
673.374	0.0111521
673.453	0.0113351
673.531	0.0117336
673.609	0.0120423
673.687	0.0123026
673.765	0.0127460
673.843	0.0129379
673.921	0.0134968
673.999	0.0138542
674.078	0.0139594
674.156	0.0144057
674.234	0.0144863
674.312	0.0146317
674.390	0.0147401
674.468	0.0147840
674.546	0.0147800
674.624	0.0147659
674.703	0.0149523
674.781	0.0148853
674.859	0.0146638
674.937	0.0145706
675.015	0.0144977
675.093	0.0146597
675.171	0.0144782
675.249	0.0144766
675.328	0.0143866
675.406	0.0144968
675.484	0.0145486
675.562	0.0144478
675.640	0.0146655
675.718	0.0146124
675.796	0.0147244
675.874	0.0147270
675.953	0.0147790
676.031	0.0147871
676.109	0.0145719
676.187	0.0144985
676.265	0.0145105
676.343	0.0142594
676.421	0.0142091
676.499	0.0140136
676.578	0.0137253
676.656	0.0136939
676.734	0.0131441
676.812	0.0131563
676.890	0.0129627
676.968	0.0127090
677.046	0.0125795
677.124	0.0123289
677.203	0.0121002
677.281	0.0122674
677.359	0.0119260
677.437	0.0118668
677.515	0.0117781
677.593	0.0116605
677.671	0.0115205
677.749	0.0113146
677.828	0.0113268
677.906	0.0112145
677.984	0.0110258
678.062	0.0109995
678.140	0.0111156
678.218	0.0109899
678.296	0.0110049
678.374	0.0112664
678.453	0.0114394
678.531	0.0116240
678.609	0.0119451
678.687	0.0123094
678.765	0.0126579
678.843	0.0130427
678.921	0.0135357
678.999	0.0140296
679.078	0.0144758
679.156	0.0149105
679.234	0.0151720
679.312	0.0155228
679.390	0.0159400
679.468	0.0160596
679.546	0.0161511
679.624	0.0162254
679.703	0.0161449
679.781	0.0160339
679.859	0.0157535
679.937	0.0155209
680.015	0.0151530
680.093	0.0149134
680.171	0.0145077
680.249	0.0140550
680.328	0.0136852
680.406	0.0134341
680.484	0.0132438
680.562	0.0129885
680.640	0.0126986
680.718	0.0125143
680.796	0.0124258
680.874	0.0123113
680.953	0.0121463
681.031	0.0122856
681.109	0.0125735
681.187	0.0125683
681.265	0.0127290
681.343	0.0127139
681.421	0.0128908
681.499	0.0130223
681.578	0.0131179
681.656	0.0131633
681.734	0.0133318
681.812	0.0133638
681.890	0.0134673
681.968	0.0135606
682.046	0.0135770
682.124	0.0137914
682.203	0.0140316
682.281	0.0141708
682.359	0.0141217
682.437	0.0140887
682.515	0.0143208
682.593	0.0142616
682.671	0.0142776
682.749	0.0143661
682.828	0.0144714
682.906	0.0144330
682.984	0.0144247
683.062	0.0145675
683.140	0.0143398
683.218	0.0142362
683.296	0.0141207
683.374	0.0139014
683.453	0.0136787
683.531	0.0133736
683.609	0.0131184
683.687	0.0128339
683.765	0.0125379
683.843	0.0122160
683.921	0.0120470
683.999	0.0117023
684.078	0.0116860
684.156	0.0114718
684.234	0.0115766
684.312	0.0115476
684.390	0.0116090
684.468	0.0116220
684.546	0.0118266
684.624	0.0121986
684.703	0.0123080
684.781	0.0124467
684.859	0.0125555
684.937	0.0127170
685.015	0.0129759
685.093	0.0129749
685.171	0.0131165
685.249	0.0131904
685.328	0.0133871
685.406	0.0134724
685.484	0.0135848
685.562	0.0136932
685.640	0.0138503
685.718	0.0139510
685.796	0.0140949
685.874	0.0141605
685.953	0.0143275
686.031	0.0144548
686.109	0.0146104
686.187	0.0146259
686.265	0.0146673
686.343	0.0147263
686.421	0.0147867
686.499	0.0148447
686.578	0.0148910
686.656	0.0149264
686.734	0.0151087
686.812	0.0150368
686.890	0.0149836
686.968	0.0149818
687.046	0.0149234
687.124	0.0149677
687.203	0.0148154
687.281	0.0148335
687.359	0.0149019
687.437	0.0147109
687.515	0.0145918
687.593	0.0143870
687.671	0.0141382
687.749	0.0142100
687.828	0.0140828
687.906	0.0137843
687.984	0.0135409
688.062	0.0133127
688.140	0.0130508
688.218	0.0127227
688.296	0.0125183
688.374	0.0123598
688.453	0.0122040
688.531	0.0120739
688.609	0.0118775
688.687	0.0116631
688.765	0.0114938
688.843	0.0113496
688.921	0.0113657
688.999	0.0111903
689.078	0.0111588
689.156	0.0110493
689.234	0.0112105
689.312	0.0112718
689.390	0.0112357
689.468	0.0114526
689.546	0.0115143
689.624	0.0117539
689.703	0.0119346
689.781	0.0121396
689.859	0.0124028
689.937	0.0125285
690.015	0.0128918
690.093	0.0128905
690.171	0.0133653
690.249	0.0134668
690.328	0.0137183
690.406	0.0139491
690.484	0.0139752
690.562	0.0140816
690.640	0.0143733
690.718	0.0145341
690.796	0.0146268
690.874	0.0147249
690.953	0.0148442
691.031	0.0151085
691.109	0.0152830
691.187	0.0152567
691.265	0.0154871
691.343	0.0154913
691.421	0.0156002
691.499	0.0156404
691.578	0.0156868
691.656	0.0155776
691.734	0.0154282
691.812	0.0153457
691.890	0.0151642
691.968	0.0150039
692.046	0.0147244
692.124	0.0145641
692.203	0.0143682
692.281	0.0140831
692.359	0.0136594
692.437	0.0135838
692.515	0.0135027
692.593	0.0132207
692.671	0.0129962
692.749	0.0127612
692.828	0.0125394
692.906	0.0124902
692.984	0.0122677
693.062	0.0121143
693.140	0.0120561
693.218	0.0117220
693.296	0.0115144
693.374	0.0117376
693.453	0.0117460
693.531	0.0117190
693.609	0.0117329
693.687	0.0118319
693.765	0.0121622
693.843	0.0124033
693.921	0.0123820
693.999	0.0126442
694.078	0.0129234
694.156	0.0131818
694.234	0.0132925
694.312	0.0134237
694.390	0.0135219
694.468	0.0135461
694.546	0.0135190
694.624	0.0137135
694.703	0.0133241
694.781	0.0132122
694.859	0.0130691
694.937	0.0130083
695.015	0.0128329
695.093	0.0126315
695.171	0.0124709
695.249	0.0123997
695.328	0.0120570
695.406	0.0122038
695.484	0.0121916
695.562	0.0124160
695.640	0.0123495
695.718	0.0126245
695.796	0.0129564
695.874	0.0130257
695.953	0.0134615
696.031	0.0137949
696.109	0.0139202
696.187	0.0142831
696.265	0.0143114
696.343	0.0145811
696.421	0.0147456
696.499	0.0148698
696.578	0.0150820
696.656	0.0150514
696.734	0.0150571
696.812	0.0151718
696.890	0.0153368
696.968	0.0151154
697.046	0.0153241
697.124	0.0153185
697.203	0.0152368
697.281	0.0151463
697.359	0.0148563
697.437	0.0148760
697.515	0.0147661
697.593	0.0146863
697.671	0.0144736
697.749	0.0140519
697.828	0.0137192
697.906	0.0136417
697.984	0.0131593
698.062	0.0128871
698.140	0.0126145
698.218	0.0124820
698.296	0.0120392
698.374	0.0116343
698.453	0.0117553
698.531	0.0115388
698.609	0.0114362
698.687	0.0115039
698.765	0.0115732
698.843	0.0115382
698.921	0.0116237
698.999	0.0115745
699.078	0.0116700
699.156	0.0117476
699.234	0.0117677
699.312	0.0119813
699.390	0.0120913
699.468	0.0121647
699.546	0.0122587
699.624	0.0124796
699.703	0.0125811
699.781	0.0127940
699.859	0.0130771
699.937	0.0131565
700.015	0.0134052
700.093	0.0136256
700.171	0.0139693
700.249	0.0139938
700.328	0.0141270
700.406	0.0143457
700.484	0.0145012
700.562	0.0145255
700.640	0.0148775
700.718	0.0149782
700.796	0.0149010
700.874	0.0149553
700.953	0.0150388
701.031	0.0148108
701.109	0.0148361
701.187	0.0147271
701.265	0.0145774
701.343	0.0142950
701.421	0.0142895
701.499	0.0141222
701.578	0.0139458
701.656	0.0138247
701.734	0.0137070
701.812	0.0135913
701.890	0.0133092
701.968	0.0132684
702.046	0.0132139
702.124	0.0130588
702.203	0.0129142
702.281	0.0128320
702.359	0.0127952
702.437	0.0126546
702.515	0.0126214
702.593	0.0127663
702.671	0.0127397
702.749	0.0127287
702.828	0.0129108
702.906	0.0129666
702.984	0.0129596
703.062	0.0131882
703.140	0.0132053
703.218	0.0133707
703.296	0.0135199
703.374	0.0137715
703.453	0.0136906
703.531	0.0137248
703.609	0.0137505
703.687	0.0136243
703.765	0.0136693
703.843	0.0135104
703.921	0.0134778
703.999	0.0131448
704.078	0.0130959
704.156	0.0132054
704.234	0.0130235
704.312	0.0130601
704.390	0.0130720
704.468	0.0129913
704.546	0.0130653
704.624	0.0131499
704.703	0.0131700
704.781	0.0131970
704.859	0.0133549
704.937	0.0132416
705.015	0.0132169
705.093	0.0132950
705.171	0.0133031
705.249	0.0130826
705.328	0.0131316
705.406	0.0132036
705.484	0.0130318
705.562	0.0131149
705.640	0.0131039
705.718	0.0131089
705.796	0.0131843
705.874	0.0133392
705.953	0.0134563
706.031	0.0135979
706.109	0.0138731
706.187	0.0140089
706.265	0.0139951
706.343	0.0143379
706.421	0.0142719
706.499	0.0144468
706.578	0.0144569
706.656	0.0144069
706.734	0.0145405
706.812	0.0143900
706.890	0.0144096
706.968	0.0143652
707.046	0.0140758
707.124	0.0141425
707.203	0.0139623
707.281	0.0138734
707.359	0.0136204
707.437	0.0135301
707.515	0.0135566
707.593	0.0133031
707.671	0.0132217
707.749	0.0131264
707.828	0.0132143
707.906	0.0132030
707.984	0.0131082
708.062	0.0131226
708.140	0.0132639
708.218	0.0131275
708.296	0.0132010
708.374	0.0132138
708.453	0.0130270
708.531	0.0129775
708.609	0.0130612
708.687	0.0130813
708.765	0.0128757
708.843	0.0129208
708.921	0.0128674
708.999	0.0127762
709.078	0.0127894
709.156	0.0128954
709.234	0.0129536
709.312	0.0129342
709.390	0.0130217
709.468	0.0131281
709.546	0.0130215
709.624	0.0132396
709.703	0.0133133
709.781	0.0132924
709.859	0.0134304
709.937	0.0135758
710.015	0.0135975
710.093	0.0136330
710.171	0.0137301
710.249	0.0139185
710.328	0.0140320
710.406	0.0140584
710.484	0.0140595
710.562	0.0140985
710.640	0.0139914
710.718	0.0136935
710.796	0.0138409
710.874	0.0138299
710.953	0.0138330
711.031	0.0137041
711.109	0.0135836
711.187	0.0134574
711.265	0.0133207
711.343	0.0133272
711.421	0.0133839
711.499	0.0134351
711.578	0.0132996
711.656	0.0135062
711.734	0.0135894
711.812	0.0136757
711.890	0.0136578
711.968	0.0136734
712.046	0.0136241
712.124	0.0138868
712.203	0.0138418
712.281	0.0138265
712.359	0.0138409
712.437	0.0137654
712.515	0.0139284
712.593	0.0138425
712.671	0.0136674
712.749	0.0137518
712.828	0.0136417
712.906	0.0138001
712.984	0.0137863
713.062	0.0136086
713.140	0.0137200
713.218	0.0136836
713.296	0.0136354
713.374	0.0134614
713.453	0.0134796
713.531	0.0135581
713.609	0.0133820
713.687	0.0132943
713.765	0.0131544
713.843	0.0130831
713.921	0.0130956
713.999	0.0129709
714.078	0.0130427
714.156	0.0129646
714.234	0.0128719
714.312	0.0129038
714.390	0.0129019
714.468	0.0127475
714.546	0.0128264
714.624	0.0129070
714.703	0.0129169
714.781	0.0128254
714.859	0.0129597
714.937	0.0130799
715.015	0.0133320
715.093	0.0132431
715.171	0.0133756
715.249	0.0133328
715.328	0.0136138
715.406	0.0134722
715.484	0.0136945
715.562	0.0138312
715.640	0.0137327
715.718	0.0136916
715.796	0.0137598
715.874	0.0137283
715.953	0.0137558
716.031	0.0137334
716.109	0.0136510
716.187	0.0135467
716.265	0.0134175
716.343	0.0135308
716.421	0.0135267
716.499	0.0134031
716.578	0.0133082
716.656	0.0133781
716.734	0.0133382
716.812	0.0133342
716.890	0.0134343
716.968	0.0133754
717.046	0.0135386
717.124	0.0134967
717.203	0.0133740
717.281	0.0133936
717.359	0.0134995
717.437	0.0133233
717.515	0.0135266
717.593	0.0135117
717.671	0.0133572
717.749	0.0132928
717.828	0.0133467
717.906	0.0134193
717.984	0.0132226
718.062	0.0133492
718.140	0.0133185
718.218	0.0131487
718.296	0.0130901
718.374	0.0130825
718.453	0.0131751
718.531	0.0131422
718.609	0.0130960
718.687	0.0132255
718.765	0.0130704
718.843	0.0132271
718.921	0.0132475
718.999	0.0132365
719.078	0.0132249
719.156	0.0133592
719.234	0.0134940
719.312	0.0136411
719.390	0.0136326
719.468	0.0138239
719.546	0.0138087
719.624	0.0138801
719.703	0.0139744
719.781	0.0139557
719.859	0.0139330
719.937	0.0140115
720.015	0.0140575
720.093	0.0138513
720.171	0.0139333
720.249	0.0138638
720.328	0.0136750
720.406	0.0135415
720.484	0.0134824
720.562	0.0134787
720.640	0.0133849
720.718	0.0131907
720.796	0.0131294
720.874	0.0131337
720.953	0.0129799
721.031	0.0130782
721.109	0.0129170
721.187	0.0128308
721.265	0.0128932
721.343	0.0129036
721.421	0.0129675
721.499	0.0129283
721.578	0.0129620
721.656	0.0130206
721.734	0.0131125
721.812	0.0132341
721.890	0.0132867
721.968	0.0131697
722.046	0.0132977
722.124	0.0133816
722.203	0.0135723
722.281	0.0136124
722.359	0.0134212
722.437	0.0135126
722.515	0.0135196
722.593	0.0135154
722.671	0.0135120
722.749	0.0135091
722.828	0.0132871
722.906	0.0132853
722.984	0.0131626
723.062	0.0133215
723.140	0.0131899
723.218	0.0131171
723.296	0.0130959
723.374	0.0129738
723.453	0.0132209
723.531	0.0131770
723.609	0.0131569
723.687	0.0134352
723.765	0.0133100
723.843	0.0135533
723.921	0.0135748
723.999	0.0135448
724.078	0.0137385
724.156	0.0137502
724.234	0.0138475
724.312	0.0139546
724.390	0.0139323
724.468	0.0138176
724.546	0.0135982
724.624	0.0138102
724.703	0.0137260
724.781	0.0138486
724.859	0.0138494
724.937	0.0136434
725.015	0.0136482
725.093	0.0137423
725.171	0.0137051
725.249	0.0134715
725.328	0.0136758
725.406	0.0137642
725.484	0.0135726
725.562	0.0136036
725.640	0.0136481
725.718	0.0136546
725.796	0.0136388
725.874	0.0137135
725.953	0.0138416
726.031	0.0136147
726.109	0.0136946
726.187	0.0137122
726.265	0.0135870
726.343	0.0138676
726.421	0.0135986
726.499	0.0136045
726.578	0.0135612
726.656	0.0134631
726.734	0.0133431
726.812	0.0132998
726.890	0.0131525
726.968	0.0131435
727.046	0.0130532
727.124	0.0130100
727.203	0.0130324
727.281	0.0129605
727.359	0.0129008
727.437	0.0129280
727.515	0.0130882
727.593	0.0131197
727.671	0.0131266
727.749	0.0133505
727.828	0.0133459
727.906	0.0133021
727.984	0.0134620
728.062	0.0134655
728.140	0.0135297
728.218	0.0133782
728.296	0.0133466
728.374	0.0132929
728.453	0.0133574
728.531	0.0133540
728.609	0.0131477
728.687	0.0130667
728.765	0.0130537
728.843	0.0131496
728.921	0.0132433
728.999	0.0130865
729.078	0.0131802
729.156	0.0133601
729.234	0.0134499
729.312	0.0135654
729.390	0.0134802
729.468	0.0137326
729.546	0.0137923
729.624	0.0137366
729.703	0.0137537
729.781	0.0137784
729.859	0.0141117
729.937	0.0141198
730.015	0.0139619
730.093	0.0139638
730.171	0.0139524
730.249	0.0140977
730.328	0.0138935
730.406	0.0138641
730.484	0.0138116
730.562	0.0138185
730.640	0.0138038
730.718	0.0136755
730.796	0.0137833
730.874	0.0136353
730.953	0.0137193
731.031	0.0136681
731.109	0.0137576
731.187	0.0137083
731.265	0.0135464
731.343	0.0137621
731.421	0.0137219
731.499	0.0136953
731.578	0.0135387
731.656	0.0135345
731.734	0.0133387
731.812	0.0134750
731.890	0.0133634
731.968	0.0132344
732.046	0.0131439
732.124	0.0131798
732.203	0.0130762
732.281	0.0131685
732.359	0.0131599
732.437	0.0131737
732.515	0.0132078
732.593	0.0131716
732.671	0.0131512
732.749	0.0133431
732.828	0.0134117
732.906	0.0133981
732.984	0.0135294
733.062	0.0137695
733.140	0.0137569
733.218	0.0138528
733.296	0.0138927
733.374	0.0136732
733.453	0.0136847
733.531	0.0138596
733.609	0.0139835
733.687	0.0138682
733.765	0.0139091
733.843	0.0138216
733.921	0.0137979
733.999	0.0135914
734.078	0.0136247
734.156	0.0135409
734.234	0.0134986
734.312	0.0134847
734.390	0.0135149
734.468	0.0135147
734.546	0.0133064
734.624	0.0133197
734.703	0.0132896
734.781	0.0133154
734.859	0.0131965
734.937	0.0132649
735.015	0.0132564
735.093	0.0131264
735.171	0.0131279
735.249	0.0133525
735.328	0.0132588
735.406	0.0132520
735.484	0.0132380
735.562	0.0132067
735.640	0.0132310
735.718	0.0133356
735.796	0.0132214
735.874	0.0133508
735.953	0.0132146
736.031	0.0133588
736.109	0.0133205
736.187	0.0133945
736.265	0.0132306
736.343	0.0132436
736.421	0.0133253
736.499	0.0134178
736.578	0.0134837
736.656	0.0133031
736.734	0.0131841
736.812	0.0132629
736.890	0.0133633
736.968	0.0133540
737.046	0.0134972
737.124	0.0135251
737.203	0.0135641
737.281	0.0134642
737.359	0.0137046
737.437	0.0136876
737.515	0.0136067
737.593	0.0136839
737.671	0.0137821
737.749	0.0137579
737.828	0.0138033
737.906	0.0138057
737.984	0.0136880
738.062	0.0138020
738.140	0.0137625
738.218	0.0135918
738.296	0.0135339
738.374	0.0133909
738.453	0.0134329
738.531	0.0133134
738.609	0.0132128
738.687	0.0131111
738.765	0.0131463
738.843	0.0128732
738.921	0.0130030
738.999	0.0130823
739.078	0.0130534
739.156	0.0130874
739.234	0.0131235
739.312	0.0131339
739.390	0.0131816
739.468	0.0130370
739.546	0.0130892
739.624	0.0131655
739.703	0.0131367
739.781	0.0131113
739.859	0.0132536
739.937	0.0133186
740.015	0.0133244
740.093	0.0132847
740.171	0.0134409
740.249	0.0133173
740.328	0.0133241
740.406	0.0136240
740.484	0.0135170
740.562	0.0134208
740.640	0.0136223
740.718	0.0134457
740.796	0.0135838
740.874	0.0135665
740.953	0.0136708
741.031	0.0138235
741.109	0.0135772
741.187	0.0135220
741.265	0.0135117
741.343	0.0135488
741.421	0.0135632
741.499	0.0134286
741.578	0.0134172
741.656	0.0133276
741.734	0.0132020
741.812	0.0133630
741.890	0.0132697
741.968	0.0130923
742.046	0.0130914
742.124	0.0131080
742.203	0.0131654
742.281	0.0130598
742.359	0.0129714
742.437	0.0129945
742.515	0.0131075
742.593	0.0132545
742.671	0.0132438
742.749	0.0133343
742.828	0.0132417
742.906	0.0134589
742.984	0.0134762
743.062	0.0135435
743.140	0.0136668
743.218	0.0136361
743.296	0.0135452
743.374	0.0136579
743.453	0.0135516
743.531	0.0135403
743.609	0.0136882
743.687	0.0135553
743.765	0.0135144
743.843	0.0134048
743.921	0.0135850
743.999	0.0134499
744.078	0.0134345
744.156	0.0135886
744.234	0.0136098
744.312	0.0134767
744.390	0.0135095
744.468	0.0136012
744.546	0.0136228
744.624	0.0135010
744.703	0.0136133
744.781	0.0136337
744.859	0.0137585
744.937	0.0137695
745.015	0.0135352
745.093	0.0137068
745.171	0.0138785
745.249	0.0136840
745.328	0.0136426
745.406	0.0135844
745.484	0.0136705
745.562	0.0135505
745.640	0.0135057
745.718	0.0133820
745.796	0.0133414
745.874	0.0134193
745.953	0.0133166
746.031	0.0132286
746.109	0.0131913
746.187	0.0131497
746.265	0.0133443
746.343	0.0131570
746.421	0.0130811
746.499	0.0132729
746.578	0.0132648
746.656	0.0132896
746.734	0.0133743
746.812	0.0134357
746.890	0.0135551
746.968	0.0136924
747.046	0.0135838
747.124	0.0135952
747.203	0.0136278
747.281	0.0136450
747.359	0.0136464
747.437	0.0136556
747.515	0.0135983
747.593	0.0135696
747.671	0.0135602
747.749	0.0133977
747.828	0.0133230
747.906	0.0133295
747.984	0.0133330
748.062	0.0133752
748.140	0.0134615
748.218	0.0132301
748.296	0.0131512
748.374	0.0132518
748.453	0.0132925
748.531	0.0132994
748.609	0.0133611
748.687	0.0131936
748.765	0.0133724
748.843	0.0133705
748.921	0.0132648
748.999	0.0131853
749.078	0.0133570
749.156	0.0133601
749.234	0.0134521
749.312	0.0132977
749.390	0.0133845
749.468	0.0133353
749.546	0.0135199
749.624	0.0134643
749.703	0.0134408
749.781	0.0135545
749.859	0.0134516
749.937	0.0136355
750.015	0.0135346
750.093	0.0136602
750.171	0.0138114
750.249	0.0138273
750.328	0.0136499
750.406	0.0137844
750.484	0.0137952
750.562	0.0138642
750.640	0.0140118
750.718	0.0139571
750.796	0.0139478
750.874	0.0138308
750.953	0.0139178
751.031	0.0138993
751.109	0.0138008
751.187	0.0136183
751.265	0.0136841
751.343	0.0138593
751.421	0.0137603
751.499	0.0136480
751.578	0.0134901
751.656	0.0135533
751.734	0.0135825
751.812	0.0133714
751.890	0.0134337
751.968	0.0133972
752.046	0.0133589
752.124	0.0132986
752.203	0.0133058
752.281	0.0132624
752.359	0.0132274
752.437	0.0130583
752.515	0.0129868
752.593	0.0130331
752.671	0.0131145
752.749	0.0131295
752.828	0.0130301
752.906	0.0130134
752.984	0.0131058
753.062	0.0131963
753.140	0.0132719
753.218	0.0132417
753.296	0.0133230
753.374	0.0133982
753.453	0.0134965
753.531	0.0133952
753.609	0.0135813
753.687	0.0134327
753.765	0.0136559
753.843	0.0137606
753.921	0.0138909
753.999	0.0138392
754.078	0.0139348
754.156	0.0140095
754.234	0.0139334
754.312	0.0140904
754.390	0.0139515
754.468	0.0139346
754.546	0.0139822
754.624	0.0139084
754.703	0.0138533
754.781	0.0137684
754.859	0.0138575
754.937	0.0138186
755.015	0.0137567
755.093	0.0136048
755.171	0.0136462
755.249	0.0135692
755.328	0.0135624
755.406	0.0136005
755.484	0.0134769
755.562	0.0136046
755.640	0.0136167
755.718	0.0134805
755.796	0.0135472
755.874	0.0134675
755.953	0.0135088
756.031	0.0133148
756.109	0.0134326
756.187	0.0133759
756.265	0.0132507
756.343	0.0132820
756.421	0.0133538
756.499	0.0134202
756.578	0.0133089
756.656	0.0132070
756.734	0.0132379
756.812	0.0131915
756.890	0.0133198
756.968	0.0133939
757.046	0.0132370
757.124	0.0130618
757.203	0.0132075
757.281	0.0133547
757.359	0.0133562
757.437	0.0133512
757.515	0.0133960
757.593	0.0134280
757.671	0.0134602
757.749	0.0136543
757.828	0.0135974
757.906	0.0135405
757.984	0.0136591
758.062	0.0138178
758.140	0.0138259
758.218	0.0138431
758.296	0.0137084
758.374	0.0138680
758.453	0.0139534
758.531	0.0138195
758.609	0.0139489
758.687	0.0137628
758.765	0.0137827
758.843	0.0137216
758.921	0.0136345
758.999	0.0136733
759.078	0.0135853
759.156	0.0134570
759.234	0.0133765
759.312	0.0133387
759.390	0.0132991
759.468	0.0134492
759.546	0.0133899
759.624	0.0130589
759.703	0.0131832
759.781	0.0132762
759.859	0.0131116
759.937	0.0132150
760.015	0.0131940
760.093	0.0131802
760.171	0.0133674
760.249	0.0131069
760.328	0.0130916
760.406	0.0130920
760.484	0.0130835
760.562	0.0130921
760.640	0.0130568
760.718	0.0129671
760.796	0.0129227
760.874	0.0130981
760.953	0.0131416
761.031	0.0132024
761.109	0.0131741
761.187	0.0132584
761.265	0.0133457
761.343	0.0133673
761.421	0.0133744
761.499	0.0135056
761.578	0.0134924
761.656	0.0134810
761.734	0.0133898
761.812	0.0134599
761.890	0.0135369
761.968	0.0132935
762.046	0.0132735
762.124	0.0133245
762.203	0.0133774
762.281	0.0133741
762.359	0.0133795
762.437	0.0133305
762.515	0.0134769
762.593	0.0133397
762.671	0.0134009
762.749	0.0135111
762.828	0.0134712
762.906	0.0134064
762.984	0.0134882
763.062	0.0135788
763.140	0.0134444
763.218	0.0135702
763.296	0.0134332
763.374	0.0134212
763.453	0.0133875
763.531	0.0133544
763.609	0.0133696
763.687	0.0133163
763.765	0.0132586
763.843	0.0133236
763.921	0.0133664
763.999	0.0131585
764.078	0.0131734
764.156	0.0132674
764.234	0.0132286
764.312	0.0132958
764.390	0.0131387
764.468	0.0130639
764.546	0.0131454
764.624	0.0131760
764.703	0.0130683
764.781	0.0131219
764.859	0.0130968
764.937	0.0131576
765.015	0.0132932
765.093	0.0131339
765.171	0.0131551
765.249	0.0130371
765.328	0.0131213
765.406	0.0131332
765.484	0.0131247
765.562	0.0131688
765.640	0.0133453
765.718	0.0133182
765.796	0.0131966
765.874	0.0133067
765.953	0.0133583
766.031	0.0131399
766.109	0.0132197
766.187	0.0132726
766.265	0.0134003
766.343	0.0133915
766.421	0.0135825
766.499	0.0134048
766.578	0.0134308
766.656	0.0134097
766.734	0.0134885
766.812	0.0136837
766.890	0.0136328
766.968	0.0135382
767.046	0.0135772
767.124	0.0135594
767.203	0.0135641
767.281	0.0135458
767.359	0.0136289
767.437	0.0138693
767.515	0.0136506
767.593	0.0136092
767.671	0.0137486
767.749	0.0137761
767.828	0.0137492
767.906	0.0136903
767.984	0.0136446
768.062	0.0135793
768.140	0.0135646
768.218	0.0135372
768.296	0.0135902
768.374	0.0135105
768.453	0.0133952
768.531	0.0132958
768.609	0.0133627
768.687	0.0132644
768.765	0.0132574
768.843	0.0132534
768.921	0.0132653
768.999	0.0131983
769.078	0.0132227
769.156	0.0132861
769.234	0.0131659
769.312	0.0130435
769.390	0.0130164
769.468	0.0131065
769.546	0.0131304
769.624	0.0131944
769.703	0.0132912
769.781	0.0132535
769.859	0.0132607
769.937	0.0132452
770.015	0.0132052
770.093	0.0132884
770.171	0.0133383
770.249	0.0134139
770.328	0.0134265
770.406	0.0133580
770.484	0.0132479
770.562	0.0134637
770.640	0.0134724
770.718	0.0133935
770.796	0.0134215
770.874	0.0134000
770.953	0.0132729
771.031	0.0134437
771.109	0.0134151
771.187	0.0133907
771.265	0.0135429
771.343	0.0135193
771.421	0.0134322
771.499	0.0135753
771.578	0.0134698
771.656	0.0135645
771.734	0.0134344
771.812	0.0135906
771.890	0.0136404
771.968	0.0134960
772.046	0.0135703
772.124	0.0134956
772.203	0.0136418
772.281	0.0136758
772.359	0.0136176
772.437	0.0136932
772.515	0.0136729
772.593	0.0137037
772.671	0.0137637
772.749	0.0138437
772.828	0.0137159
772.906	0.0136322
772.984	0.0136241
773.062	0.0137500
773.140	0.0137368
773.218	0.0137199
773.296	0.0136359
773.374	0.0135046
773.453	0.0135916
773.531	0.0135159
773.609	0.0134252
773.687	0.0134211
773.765	0.0133082
773.843	0.0133538
773.921	0.0133059
773.999	0.0133823
774.078	0.0134342
774.156	0.0134200
774.234	0.0134972
774.312	0.0134998
774.390	0.0133917
774.468	0.0134482
774.546	0.0134988
774.624	0.0135585
774.703	0.0133883
774.781	0.0134385
774.859	0.0135943
774.937	0.0134227
775.015	0.0136790
775.093	0.0135944
775.171	0.0135275
775.249	0.0136503
775.328	0.0135636
775.406	0.0135843
775.484	0.0136016
775.562	0.0136110
775.640	0.0135313
775.718	0.0136299
775.796	0.0135265
775.874	0.0133710
775.953	0.0134599
776.031	0.0135047
776.109	0.0134273
776.187	0.0133633
776.265	0.0133508
776.343	0.0134561
776.421	0.0132882
776.499	0.0134537
776.578	0.0134610
776.656	0.0135120
776.734	0.0135386
776.812	0.0132803
776.890	0.0133752
776.968	0.0133436
777.046	0.0132674
777.124	0.0133905
777.203	0.0133041
777.281	0.0133152
777.359	0.0133331
777.437	0.0133276
777.515	0.0132023
777.593	0.0132846
777.671	0.0130437
777.749	0.0133843
777.828	0.0133965
777.906	0.0133569
777.984	0.0132858
778.062	0.0132648
778.140	0.0131547
778.218	0.0132847
778.296	0.0132359
778.374	0.0135690
778.453	0.0134870
778.531	0.0132944
778.609	0.0133493
778.687	0.0135932
778.765	0.0135883
778.843	0.0135686
778.921	0.0136002
778.999	0.0135851
779.078	0.0137789
779.156	0.0138562
779.234	0.0137345
779.312	0.0137643
779.390	0.0137209
779.468	0.0138215
779.546	0.0139690
779.624	0.0138619
779.703	0.0137575
779.781	0.0137895
779.859	0.0138812
779.937	0.0137085
780.015	0.0136412
780.093	0.0137048
780.171	0.0134543
780.249	0.0136335
780.328	0.0135920
780.406	0.0134244
780.484	0.0132767
780.562	0.0133704
780.640	0.0133353
780.718	0.0132846
780.796	0.0132713
780.874	0.0133790
780.953	0.0131395
781.031	0.0133836
781.109	0.0132511
781.187	0.0133201
781.265	0.0134175
781.343	0.0132508
781.421	0.0133103
781.499	0.0131528
781.578	0.0133498
781.656	0.0133707
781.734	0.0133884
781.812	0.0131390
781.890	0.0133054
781.968	0.0134003
782.046	0.0135307
782.124	0.0135192
782.203	0.0135435
782.281	0.0134414
782.359	0.0135408
782.437	0.0135239
782.515	0.0135925
782.593	0.0136031
782.671	0.0134950
782.749	0.0136195
782.828	0.0136593
782.906	0.0137073
782.984	0.0136422
783.062	0.0137838
783.140	0.0135125
783.218	0.0136222
783.296	0.0135831
783.374	0.0136047
783.453	0.0136265
783.531	0.0136922
783.609	0.0137557
783.687	0.0134973
783.765	0.0135367
783.843	0.0136417
783.921	0.0135714
783.999	0.0137402
784.078	0.0135831
784.156	0.0135561
784.234	0.0135540
784.312	0.0135979
784.390	0.0135861
784.468	0.0133513
784.546	0.0135044
784.624	0.0133250
784.703	0.0133985
784.781	0.0133482
784.859	0.0132388
784.937	0.0132079
785.015	0.0132150
785.093	0.0131985
785.171	0.0132584
785.249	0.0133096
785.328	0.0131953
785.406	0.0131909
785.484	0.0130558
785.562	0.0130838
785.640	0.0131728
785.718	0.0131532
785.796	0.0130473
785.874	0.0129918
785.953	0.0130091
786.031	0.0130980
786.109	0.0131538
786.187	0.0131696
786.265	0.0131715
786.343	0.0131772
786.421	0.0133528
786.499	0.0135140
786.578	0.0134868
786.656	0.0133154
786.734	0.0135033
786.812	0.0134216
786.890	0.0135372
786.968	0.0137287
787.046	0.0134915
787.124	0.0136070
787.203	0.0136341
787.281	0.0135644
787.359	0.0136716
787.437	0.0136190
787.515	0.0135947
787.593	0.0135096
787.671	0.0136203
787.749	0.0136248
787.828	0.0135641
787.906	0.0136671
787.984	0.0136915
788.062	0.0136816
788.140	0.0135934
788.218	0.0138317
788.296	0.0138459
788.374	0.0137669
788.453	0.0136556
788.531	0.0136583
788.609	0.0137603
788.687	0.0137142
788.765	0.0136451
788.843	0.0137826
788.921	0.0137219
788.999	0.0135962
789.078	0.0136471
789.156	0.0137595
789.234	0.0135867
789.312	0.0134158
789.390	0.0135656
789.468	0.0135184
789.546	0.0132590
789.624	0.0132451
789.703	0.0133524
789.781	0.0132636
789.859	0.0132402
789.937	0.0130685
790.015	0.0131880
790.093	0.0129971
790.171	0.0130916
790.249	0.0130202
790.328	0.0129346
790.406	0.0129284
790.484	0.0130565
790.562	0.0129028
790.640	0.0131551
790.718	0.0131902
790.796	0.0131611
790.874	0.0132542
790.953	0.0131923
791.031	0.0132883
791.109	0.0132555
791.187	0.0131733
791.265	0.0132106
791.343	0.0133284
791.421	0.0134000
791.499	0.0132908
791.578	0.0133792
791.656	0.0132714
791.734	0.0133277
791.812	0.0134291
791.890	0.0134576
791.968	0.0133508
792.046	0.0132821
792.124	0.0133028
792.203	0.0134270
792.281	0.0133655
792.359	0.0133524
792.437	0.0133884
792.515	0.0133222
792.593	0.0133534
792.671	0.0132768
792.749	0.0132561
792.828	0.0132983
792.906	0.0132964
792.984	0.0132796
793.062	0.0133274
793.140	0.0131729
793.218	0.0134203
793.296	0.0134334
793.374	0.0135081
793.453	0.0133920
793.531	0.0135331
793.609	0.0137112
793.687	0.0133334
793.765	0.0134566
793.843	0.0135418
793.921	0.0134322
793.999	0.0135347
794.078	0.0135096
794.156	0.0135520
794.234	0.0135081
794.312	0.0134425
794.390	0.0135132
794.468	0.0136460
794.546	0.0135901
794.624	0.0134704
794.703	0.0134701
794.781	0.0135158
794.859	0.0134542
794.937	0.0135960
795.015	0.0133230
795.093	0.0133763
795.171	0.0133605
795.249	0.0133582
795.328	0.0131484
795.406	0.0131633
795.484	0.0133046
795.562	0.0130287
795.640	0.0132175
795.718	0.0130916
795.796	0.0130356
795.874	0.0132079
795.953	0.0132304
796.031	0.0132155
796.109	0.0131161
796.187	0.0131947
796.265	0.0131960
796.343	0.0133045
796.421	0.0133333
796.499	0.0133640
796.578	0.0132688
796.656	0.0134521
796.734	0.0133411
796.812	0.0133994
796.890	0.0135482
796.968	0.0135003
797.046	0.0135093
797.124	0.0134989
797.203	0.0135568
797.281	0.0133985
797.359	0.0135136
797.437	0.0133407
797.515	0.0134339
797.593	0.0134993
797.671	0.0133119
797.749	0.0132926
797.828	0.0132337
797.906	0.0133172
797.984	0.0133139
798.062	0.0132691
798.140	0.0133668
798.218	0.0132572
798.296	0.0131792
798.374	0.0133875
798.453	0.0133777
798.531	0.0133150
798.609	0.0133860
798.687	0.0133289
798.765	0.0132593
798.843	0.0133961
798.921	0.0134032
798.999	0.0134623
799.078	0.0135612
799.156	0.0132978
799.234	0.0135013
799.312	0.0135963
799.390	0.0134837
799.468	0.0136079
799.546	0.0134539
799.624	0.0134485
799.703	0.0138496
799.781	0.0136281
799.859	0.0136606
799.937	0.0136641
800.015	0.0136587
800.093	0.0138620
800.171	0.0138090
800.249	0.0138113
800.328	0.0136646
800.406	0.0138537
800.484	0.0137306
800.562	0.0137510
800.640	0.0136030
800.718	0.0136398
800.796	0.0137873
800.874	0.0136168
800.953	0.0135136
801.031	0.0136734
801.109	0.0135751
801.187	0.0134229
801.265	0.0135654
801.343	0.0134450
801.421	0.0135515
801.499	0.0134857
801.578	0.0134440
801.656	0.0134134
801.734	0.0133611
801.812	0.0133636
801.890	0.0133928
801.968	0.0133194
802.046	0.0133187
802.124	0.0132681
802.203	0.0133753
802.281	0.0134666
802.359	0.0133810
802.437	0.0132650
802.515	0.0134278
802.593	0.0133684
802.671	0.0131088
802.749	0.0132303
802.828	0.0133693
802.906	0.0134408
802.984	0.0133518
803.062	0.0133173
803.140	0.0134155
803.218	0.0133531
803.296	0.0135477
803.374	0.0133787
803.453	0.0135448
803.531	0.0135938
803.609	0.0135887
803.687	0.0136310
803.765	0.0137493
803.843	0.0137383
803.921	0.0137918
803.999	0.0136633
804.078	0.0137983
804.156	0.0138111
804.234	0.0137722
804.312	0.0136047
804.390	0.0136736
804.468	0.0136779
804.546	0.0135922
804.624	0.0136340
804.703	0.0135440
804.781	0.0135476
804.859	0.0135116
804.937	0.0134166
805.015	0.0134826
805.093	0.0134641
805.171	0.0134364
805.249	0.0134502
805.328	0.0133423
805.406	0.0132493
805.484	0.0133385
805.562	0.0132680
805.640	0.0134600
805.718	0.0134131
805.796	0.0133001
805.874	0.0132942
805.953	0.0133376
806.031	0.0132477
806.109	0.0134265
806.187	0.0134077
806.265	0.0132883
806.343	0.0133157
806.421	0.0133023
806.499	0.0134421
806.578	0.0134752
806.656	0.0134103
806.734	0.0133772
806.812	0.0134055
806.890	0.0135459
806.968	0.0135220
807.046	0.0136457
807.124	0.0134700
807.203	0.0135291
807.281	0.0136443
807.359	0.0136836
807.437	0.0137785
807.515	0.0138508
807.593	0.0137795
807.671	0.0136589
807.749	0.0137595
807.828	0.0138605
807.906	0.0137362
807.984	0.0136765
808.062	0.0137645
808.140	0.0138605
808.218	0.0136797
808.296	0.0136736
808.374	0.0137436
808.453	0.0136487
808.531	0.0135478
808.609	0.0136679
808.687	0.0136179
808.765	0.0136065
808.843	0.0135802
808.921	0.0136092
808.999	0.0135415
809.078	0.0134337
809.156	0.0134932
809.234	0.0133149
809.312	0.0134573
809.390	0.0133735
809.468	0.0133743
809.546	0.0133582
809.624	0.0132913
809.703	0.0133176
809.781	0.0133944
809.859	0.0133401
809.937	0.0133466
810.015	0.0133661
810.093	0.0133403
810.171	0.0132906
810.249	0.0132897
810.328	0.0133710
810.406	0.0134653
810.484	0.0134135
810.562	0.0132391
810.640	0.0133568
810.718	0.0133346
810.796	0.0133582
810.874	0.0131964
810.953	0.0132741
811.031	0.0133947
811.109	0.0134153
811.187	0.0132780
811.265	0.0134067
811.343	0.0132873
811.421	0.0133250
811.499	0.0133598
811.578	0.0134439
811.656	0.0134122
811.734	0.0133695
811.812	0.0133855
811.890	0.0135121
811.968	0.0135560
812.046	0.0132629
812.124	0.0134119
812.203	0.0135301
812.281	0.0135483
812.359	0.0135793
812.437	0.0134299
812.515	0.0133762
812.593	0.0135187
812.671	0.0134575
812.749	0.0134326
812.828	0.0134686
812.906	0.0135433
812.984	0.0134509
813.062	0.0134694
813.140	0.0134575
813.218	0.0133821
813.296	0.0134835
813.374	0.0135591
813.453	0.0135837
813.531	0.0135966
813.609	0.0136529
813.687	0.0135498
813.765	0.0135687
813.843	0.0136015
813.921	0.0136330
813.999	0.0135375
814.078	0.0134609
814.156	0.0136266
814.234	0.0136772
814.312	0.0136639
814.390	0.0136817
814.468	0.0134808
814.546	0.0134902
814.624	0.0136900
814.703	0.0134874
814.781	0.0134705
814.859	0.0134753
814.937	0.0135549
815.015	0.0135376
815.093	0.0135350
815.171	0.0133974
815.249	0.0135564
815.328	0.0135397
815.406	0.0133569
815.484	0.0133511
815.562	0.0133650
815.640	0.0133697
815.718	0.0134361
815.796	0.0133638
815.874	0.0131916
815.953	0.0132957
816.031	0.0132528
816.109	0.0133121
816.187	0.0132716
816.265	0.0134834
816.343	0.0133431
816.421	0.0133761
816.499	0.0134133
816.578	0.0135423
816.656	0.0134577
816.734	0.0134351
816.812	0.0135203
816.890	0.0135489
816.968	0.0135481
817.046	0.0133824
817.124	0.0133755
817.203	0.0133847
817.281	0.0134718
817.359	0.0134129
817.437	0.0132946
817.515	0.0132275
817.593	0.0131653
817.671	0.0133167
817.749	0.0132980
817.828	0.0131219
817.906	0.0130174
817.984	0.0130288
818.062	0.0130850
818.140	0.0130762
818.218	0.0131046
818.296	0.0131704
818.374	0.0131851
818.453	0.0131992
818.531	0.0131247
818.609	0.0132057
818.687	0.0133111
818.765	0.0133982
818.843	0.0134480
818.921	0.0135333
818.999	0.0133366
819.078	0.0134365
819.156	0.0134711
819.234	0.0136015
819.312	0.0135919
819.390	0.0134693
819.468	0.0135535
819.546	0.0135423
819.624	0.0135711
819.703	0.0135432
819.781	0.0134916
819.859	0.0134489
819.937	0.0134054
820.015	0.0133836
820.093	0.0133701
820.171	0.0132348
820.249	0.0131425
820.328	0.0131498
820.406	0.0130840
820.484	0.0131480
820.562	0.0131638
820.640	0.0131337
820.718	0.0132555
820.796	0.0131035
820.874	0.0129980
820.953	0.0130770
821.031	0.0130959
821.109	0.0131020
821.187	0.0130579
821.265	0.0130223
821.343	0.0130399
821.421	0.0131100
821.499	0.0131464
821.578	0.0131467
821.656	0.0130633
821.734	0.0131670
821.812	0.0131715
821.890	0.0132819
821.968	0.0134566
822.046	0.0133914
822.124	0.0133475
822.203	0.0133216
822.281	0.0134264
822.359	0.0136174
822.437	0.0135237
822.515	0.0135863
822.593	0.0134977
822.671	0.0133185
822.749	0.0134759
822.828	0.0135828
822.906	0.0135965
822.984	0.0136367
823.062	0.0135118
823.140	0.0134122
823.218	0.0135957
823.296	0.0135898
823.374	0.0134750
823.453	0.0134631
823.531	0.0133508
823.609	0.0134557
823.687	0.0133628
823.765	0.0134754
823.843	0.0134109
823.921	0.0133440
823.999	0.0131931
824.078	0.0132281
824.156	0.0133338
824.234	0.0132934
824.312	0.0131416
824.390	0.0132178
824.468	0.0132319
824.546	0.0131413
824.624	0.0132055
824.703	0.0131750
824.781	0.0132172
824.859	0.0132353
824.937	0.0131411
825.015	0.0131161
825.093	0.0133106
825.171	0.0132085
825.249	0.0131576
825.328	0.0131410
825.406	0.0131377
825.484	0.0132836
825.562	0.0133710
825.640	0.0132156
825.718	0.0132302
825.796	0.0132812
825.874	0.0133394
825.953	0.0132888
826.031	0.0132936
826.109	0.0132533
826.187	0.0133023
826.265	0.0132217
826.343	0.0132431
826.421	0.0132397
826.499	0.0131312
826.578	0.0133688
826.656	0.0132393
826.734	0.0133455
826.812	0.0134093
826.890	0.0134549
826.968	0.0132799
827.046	0.0133087
827.124	0.0134205
827.203	0.0133562
827.281	0.0134627
827.359	0.0136465
827.437	0.0134870
827.515	0.0136719
827.593	0.0134402
827.671	0.0134674
827.749	0.0136412
827.828	0.0136642
827.906	0.0135401
827.984	0.0135928
828.062	0.0137180
828.140	0.0136473
828.218	0.0135408
828.296	0.0135635
828.374	0.0135635
828.453	0.0135603
828.531	0.0136372
828.609	0.0136249
828.687	0.0136156
828.765	0.0135439
828.843	0.0134828
828.921	0.0135381
828.999	0.0135639
829.078	0.0135396
829.156	0.0135152
829.234	0.0135152
829.312	0.0134397
829.390	0.0135869
829.468	0.0135397
829.546	0.0134826
829.624	0.0134690
829.703	0.0133797
829.781	0.0135284
829.859	0.0134168
829.937	0.0134338
830.015	0.0134833
830.093	0.0133991
830.171	0.0134261
830.249	0.0133530
830.328	0.0135170
830.406	0.0135785
830.484	0.0136520
830.562	0.0135657
830.640	0.0135212
830.718	0.0135004
830.796	0.0135638
830.874	0.0136682
830.953	0.0136166
831.031	0.0134677
831.109	0.0134415
831.187	0.0136143
831.265	0.0134715
831.343	0.0134563
831.421	0.0134720
831.499	0.0136017
831.578	0.0134551
831.656	0.0134144
831.734	0.0135268
831.812	0.0133260
831.890	0.0136340
831.968	0.0135252
832.046	0.0135151
832.124	0.0133007
832.203	0.0134831
832.281	0.0134425
832.359	0.0135728
832.437	0.0134112
832.515	0.0133075
832.593	0.0133662
832.671	0.0134837
832.749	0.0135525
832.828	0.0135217
832.906	0.0135531
832.984	0.0134160
833.062	0.0134130
833.140	0.0134118
833.218	0.0134118
833.296	0.0134437
833.374	0.0135245
833.453	0.0134319
833.531	0.0134441
833.609	0.0133940
833.687	0.0133234
833.765	0.0134528
833.843	0.0134193
833.921	0.0136724
833.999	0.0134859
834.078	0.0135274
834.156	0.0134830
834.234	0.0135841
834.312	0.0135513
834.390	0.0136094
834.468	0.0136759
834.546	0.0135760
834.624	0.0135267
834.703	0.0134488
834.781	0.0134546
834.859	0.0137433
834.937	0.0134557
835.015	0.0135201
835.093	0.0134733
835.171	0.0135015
835.249	0.0133604
835.328	0.0135426
835.406	0.0133318
835.484	0.0134244
835.562	0.0134119
835.640	0.0132939
835.718	0.0133714
835.796	0.0133029
835.874	0.0133765
835.953	0.0133678
836.031	0.0134045
836.109	0.0132169
836.187	0.0134285
836.265	0.0132787
836.343	0.0133443
836.421	0.0133773
836.499	0.0134571
836.578	0.0134103
836.656	0.0133319
836.734	0.0133803
836.812	0.0135137
836.890	0.0133740
836.968	0.0134315
837.046	0.0135501
837.124	0.0134153
837.203	0.0132867
837.281	0.0133710
837.359	0.0133715
837.437	0.0134469
837.515	0.0133062
837.593	0.0133501
837.671	0.0133987
837.749	0.0133205
837.828	0.0134959
837.906	0.0133421
837.984	0.0132896
838.062	0.0136227
838.140	0.0134510
838.218	0.0134364
838.296	0.0133820
838.374	0.0133907
838.453	0.0134870
838.531	0.0134480
838.609	0.0133433
838.687	0.0133706
838.765	0.0133767
838.843	0.0133714
838.921	0.0135255
838.999	0.0135282
839.078	0.0133659
839.156	0.0135944
839.234	0.0134503
839.312	0.0134701
839.390	0.0135019
839.468	0.0135323
839.546	0.0133633
839.624	0.0134056
839.703	0.0135180
839.781	0.0133016
839.859	0.0133114
839.937	0.0133628
840.015	0.0134346
840.093	0.0133459
840.171	0.0131950
840.249	0.0133277
840.328	0.0133581
840.406	0.0132854
840.484	0.0132183
840.562	0.0131757
840.640	0.0131422
840.718	0.0131829
840.796	0.0131477
840.874	0.0132239
840.953	0.0132523
841.031	0.0132187
841.109	0.0133011
841.187	0.0132426
841.265	0.0132671
841.343	0.0132783
841.421	0.0133459
841.499	0.0133384
841.578	0.0134080
841.656	0.0133791
841.734	0.0133615
841.812	0.0134389
841.890	0.0132932
841.968	0.0132951
842.046	0.0133982
842.124	0.0131831
842.203	0.0132710
842.281	0.0133566
842.359	0.0131940
842.437	0.0133006
842.515	0.0132103
842.593	0.0132090
842.671	0.0131709
842.749	0.0132252
842.828	0.0131910
842.906	0.0131913
842.984	0.0130906
843.062	0.0133366
843.140	0.0132716
843.218	0.0132236
843.296	0.0130846
843.374	0.0131933
843.453	0.0132439
843.531	0.0132627
843.609	0.0132795
843.687	0.0132700
843.765	0.0131168
843.843	0.0131154
843.921	0.0132681
843.999	0.0132782
844.078	0.0132336
844.156	0.0132349
844.234	0.0132308
844.312	0.0133494
844.390	0.0134399
844.468	0.0133003
844.546	0.0132993
844.624	0.0133275
844.703	0.0135086
844.781	0.0133878
844.859	0.0134280
844.937	0.0134431
845.015	0.0136204
845.093	0.0134350
845.171	0.0133983
845.249	0.0133633
845.328	0.0134082
845.406	0.0133720
845.484	0.0134646
845.562	0.0134778
845.640	0.0132954
845.718	0.0134387
845.796	0.0134187
845.874	0.0135899
845.953	0.0134834
846.031	0.0133312
846.109	0.0134447
846.187	0.0132340
846.265	0.0132341
846.343	0.0132694
846.421	0.0133315
846.499	0.0132568
846.578	0.0131194
846.656	0.0131248
846.734	0.0132094
846.812	0.0131195
846.890	0.0132603
846.968	0.0132187
847.046	0.0130854
847.124	0.0132395
847.203	0.0132825
847.281	0.0131326
847.359	0.0130315
847.437	0.0131607
847.515	0.0131055
847.593	0.0132928
847.671	0.0132661
847.749	0.0131251
847.828	0.0132581
847.906	0.0131705
847.984	0.0131226
848.062	0.0131618
848.140	0.0131757
848.218	0.0131982
848.296	0.0131610
848.374	0.0132458
848.453	0.0133260
848.531	0.0133936
848.609	0.0134277
848.687	0.0133937
848.765	0.0135117
848.843	0.0136469
848.921	0.0135476
848.999	0.0134840
849.078	0.0135715
849.156	0.0135764
849.234	0.0136413
849.312	0.0135033
849.390	0.0134206
849.468	0.0135196
849.546	0.0135356
849.624	0.0135588
849.703	0.0135506
849.781	0.0134372
849.859	0.0135587
849.937	0.0135179
850.015	0.0134030
850.093	0.0132635
850.171	0.0134619
850.249	0.0133520
850.328	0.0133783
850.406	0.0133036
850.484	0.0133366
850.562	0.0132828
850.640	0.0131602
850.718	0.0131779
850.796	0.0131643
850.874	0.0130393
850.953	0.0131486
851.031	0.0131986
851.109	0.0129678
851.187	0.0129812
851.265	0.0129261
851.343	0.0129837
851.421	0.0130087
851.499	0.0131125
851.578	0.0129388
851.656	0.0130786
851.734	0.0131139
851.812	0.0132891
851.890	0.0131332
851.968	0.0133173
852.046	0.0133380
852.124	0.0133352
852.203	0.0135442
852.281	0.0136360
852.359	0.0135992
852.437	0.0136072
852.515	0.0136441
852.593	0.0137733
852.671	0.0138635
852.749	0.0138723
852.828	0.0138764
852.906	0.0139326
852.984	0.0138357
853.062	0.0139253
853.140	0.0138732
853.218	0.0138234
853.296	0.0138481
853.374	0.0137775
853.453	0.0136479
853.531	0.0137554
853.609	0.0136609
853.687	0.0134953
853.765	0.0135737
853.843	0.0134637
853.921	0.0133923
853.999	0.0132402
854.078	0.0132423
854.156	0.0132050
854.234	0.0130828
854.312	0.0131548
854.390	0.0129023
854.468	0.0130384
854.546	0.0130281
854.624	0.0130866
854.703	0.0129630
854.781	0.0129758
854.859	0.0130806
854.937	0.0129971
855.015	0.0131189
855.093	0.0131750
855.171	0.0130116
855.249	0.0131311
855.328	0.0130902
855.406	0.0132820
855.484	0.0131709
855.562	0.0134002
855.640	0.0133757
855.718	0.0133702
855.796	0.0134718
855.874	0.0134723
855.953	0.0132948
856.031	0.0134677
856.109	0.0134209
856.187	0.0134272
856.265	0.0134566
856.343	0.0136276
856.421	0.0136258
856.499	0.0136887
856.578	0.0135994
856.656	0.0135995
856.734	0.0135983
856.812	0.0135975
856.890	0.0137196
856.968	0.0136070
857.046	0.0136292
857.124	0.0137140
857.203	0.0135718
857.281	0.0137817
857.359	0.0136974
857.437	0.0137254
857.515	0.0136781
857.593	0.0138438
857.671	0.0136484
857.749	0.0136697
857.828	0.0136464
857.906	0.0135562
857.984	0.0135780
858.062	0.0135564
858.140	0.0135814
858.218	0.0133825
858.296	0.0133221
858.374	0.0133623
858.453	0.0134948
858.531	0.0133156
858.609	0.0132694
858.687	0.0132870
858.765	0.0132809
858.843	0.0131790
858.921	0.0131898
858.999	0.0132076
859.078	0.0130724
859.156	0.0132253
859.234	0.0132097
859.312	0.0132001
859.390	0.0131312
859.468	0.0131651
859.546	0.0131241
859.624	0.0133849
859.703	0.0132344
859.781	0.0132227
859.859	0.0134210
859.937	0.0133602
860.015	0.0134748
860.093	0.0134641
860.171	0.0134521
860.249	0.0137108
860.328	0.0136327
860.406	0.0135468
860.484	0.0133889
860.562	0.0135807
860.640	0.0134958
860.718	0.0135657
860.796	0.0136794
860.874	0.0134574
860.953	0.0134765
861.031	0.0133800
861.109	0.0135123
861.187	0.0134228
861.265	0.0134240
861.343	0.0132185
861.421	0.0133555
861.499	0.0134435
861.578	0.0135129
861.656	0.0133272
861.734	0.0132870
861.812	0.0133186
861.890	0.0133705
861.968	0.0134772
862.046	0.0134837
862.124	0.0135342
862.203	0.0135606
862.281	0.0135989
862.359	0.0135414
862.437	0.0136392
862.515	0.0135103
862.593	0.0135294
862.671	0.0135505
862.749	0.0134459
862.828	0.0134769
862.906	0.0134382
862.984	0.0133624
863.062	0.0133419
863.140	0.0131978
863.218	0.0133701
863.296	0.0133694
863.374	0.0133611
863.453	0.0133357
863.531	0.0131074
863.609	0.0132285
863.687	0.0135233
863.765	0.0132970
863.843	0.0131976
863.921	0.0131414
863.999	0.0133768
864.078	0.0134286
864.156	0.0133628
864.234	0.0133828
864.312	0.0133692
864.390	0.0132330
864.468	0.0132879
864.546	0.0134530
864.624	0.0132454
864.703	0.0132518
864.781	0.0133336
864.859	0.0132679
864.937	0.0132475
865.015	0.0133053
865.093	0.0133245
865.171	0.0132117
865.249	0.0132525
865.328	0.0133183
865.406	0.0132217
865.484	0.0132943
865.562	0.0134033
865.640	0.0135035
865.718	0.0134032
865.796	0.0133354
865.874	0.0136098
865.953	0.0135818
866.031	0.0135170
866.109	0.0136285
866.187	0.0135921
866.265	0.0135653
866.343	0.0134573
866.421	0.0135593
866.499	0.0134807
866.578	0.0134724
866.656	0.0134863
866.734	0.0134689
866.812	0.0134686
866.890	0.0134544
866.968	0.0134386
867.046	0.0132928
867.124	0.0134615
867.203	0.0135251
867.281	0.0133948
867.359	0.0134142
867.437	0.0135429
867.515	0.0134122
867.593	0.0134712
867.671	0.0134193
867.749	0.0135110
867.828	0.0133949
867.906	0.0133548
867.984	0.0134138
868.062	0.0133520
868.140	0.0132885
868.218	0.0132639
868.296	0.0133050
868.374	0.0132748
868.453	0.0132986
868.531	0.0132774
868.609	0.0131831
868.687	0.0133328
868.765	0.0131155
868.843	0.0131730
868.921	0.0133031
868.999	0.0132939
869.078	0.0132634
869.156	0.0133757
869.234	0.0132722
869.312	0.0131481
869.390	0.0131821
869.468	0.0133015
869.546	0.0133116
869.624	0.0133191
869.703	0.0132766
869.781	0.0133216
869.859	0.0133527
869.937	0.0133160
870.015	0.0133587
870.093	0.0133953
870.171	0.0135223
870.249	0.0133982
870.328	0.0134253
870.406	0.0135483
870.484	0.0135095
870.562	0.0134568
870.640	0.0135393
870.718	0.0136687
870.796	0.0136431
870.874	0.0135754
870.953	0.0136996
871.031	0.0138325
871.109	0.0137293
871.187	0.0136844
871.265	0.0137466
871.343	0.0136649
871.421	0.0135965
871.499	0.0137157
871.578	0.0135978
871.656	0.0135223
871.734	0.0135706
871.812	0.0134544
871.890	0.0133820
871.968	0.0134420
872.046	0.0134094
872.124	0.0132668
872.203	0.0132832
872.281	0.0134289
872.359	0.0133443
872.437	0.0131165
872.515	0.0132690
872.593	0.0133556
872.671	0.0133696
872.749	0.0133062
872.828	0.0132140
872.906	0.0133965
872.984	0.0134138
873.062	0.0132885
873.140	0.0134978
873.218	0.0135090
873.296	0.0135567
873.374	0.0135361
873.453	0.0135059
873.531	0.0134764
873.609	0.0136551
873.687	0.0134967
873.765	0.0135592
873.843	0.0135714
873.921	0.0135274
873.999	0.0135665
874.078	0.0135487
874.156	0.0133414
874.234	0.0134548
874.312	0.0135468
874.390	0.0134209
874.468	0.0132912
874.546	0.0134030
874.624	0.0134760
874.703	0.0133778
874.781	0.0133522
874.859	0.0134048
874.937	0.0132014
875.015	0.0133265
875.093	0.0135825
875.171	0.0133562
875.249	0.0133397
875.328	0.0132426
875.406	0.0132993
875.484	0.0132500
875.562	0.0133375
875.640	0.0131889
875.718	0.0132252
875.796	0.0132291
875.874	0.0131721
875.953	0.0130197
876.031	0.0132484
876.109	0.0131289
876.187	0.0131634
876.265	0.0132667
876.343	0.0131805
876.421	0.0132727
876.499	0.0132702
876.578	0.0131657
876.656	0.0133456
876.734	0.0133043
876.812	0.0133961
876.890	0.0133607
876.968	0.0132561
877.046	0.0133010
877.124	0.0134053
877.203	0.0133257
877.281	0.0133642
877.359	0.0132746
877.437	0.0134484
877.515	0.0133247
877.593	0.0134358
877.671	0.0134419
877.749	0.0134242
877.828	0.0134391
877.906	0.0134129
877.984	0.0135699
878.062	0.0135252
878.140	0.0135072
878.218	0.0136001
878.296	0.0135106
878.374	0.0136129
878.453	0.0134801
878.531	0.0137383
878.609	0.0137044
878.687	0.0136166
878.765	0.0135316
878.843	0.0136581
878.921	0.0135711
878.999	0.0135213
879.078	0.0135035
879.156	0.0134858
879.234	0.0134236
879.312	0.0134589
879.390	0.0135149
879.468	0.0132603
879.546	0.0131966
879.624	0.0134212
879.703	0.0133220
879.781	0.0131957
879.859	0.0131444
879.937	0.0131606
880.015	0.0132987
880.093	0.0131687
880.171	0.0130218
880.249	0.0130184
880.328	0.0131808
880.406	0.0130748
880.484	0.0130544
880.562	0.0131839
880.640	0.0131148
880.718	0.0130459
880.796	0.0132169
880.874	0.0131792
880.953	0.0131715
881.031	0.0131750
881.109	0.0132114
881.187	0.0131651
881.265	0.0132568
881.343	0.0133238
881.421	0.0132563
881.499	0.0132493
881.578	0.0134525
881.656	0.0135125
881.734	0.0134270
881.812	0.0133158
881.890	0.0133994
881.968	0.0134854
882.046	0.0133779
882.124	0.0134325
882.203	0.0134937
882.281	0.0136604
882.359	0.0137293
882.437	0.0135155
882.515	0.0134340
882.593	0.0135409
882.671	0.0136372
882.749	0.0136341
882.828	0.0135929
882.906	0.0136973
882.984	0.0137638
883.062	0.0137487
883.140	0.0137151
883.218	0.0136584
883.296	0.0137682
883.374	0.0135806
883.453	0.0135378
883.531	0.0136045
883.609	0.0135798
883.687	0.0135001
883.765	0.0134616
883.843	0.0135817
883.921	0.0135925
883.999	0.0135603
884.078	0.0135075
884.156	0.0134688
884.234	0.0135558
884.312	0.0133988
884.390	0.0134251
884.468	0.0134105
884.546	0.0133302
884.624	0.0133643
884.703	0.0134091
884.781	0.0134072
884.859	0.0133179
884.937	0.0134666
885.015	0.0133121
885.093	0.0132645
885.171	0.0132735
885.249	0.0133252
885.328	0.0132506
885.406	0.0133976
885.484	0.0134583
885.562	0.0134843
885.640	0.0135184
885.718	0.0134695
885.796	0.0134422
885.874	0.0133271
885.953	0.0135520
886.031	0.0135774
886.109	0.0134834
886.187	0.0136182
886.265	0.0136165
886.343	0.0135348
886.421	0.0135096
886.499	0.0135373
886.578	0.0135840
886.656	0.0136609
886.734	0.0134196
886.812	0.0133379
886.890	0.0133368
886.968	0.0133211
887.046	0.0133613
887.124	0.0133674
887.203	0.0132959
887.281	0.0133427
887.359	0.0134595
887.437	0.0134721
887.515	0.0133018
887.593	0.0134422
887.671	0.0134908
887.749	0.0135540
887.828	0.0136201
887.906	0.0133340
887.984	0.0134606
888.062	0.0136311
888.140	0.0135937
888.218	0.0134151
888.296	0.0135163
888.374	0.0136585
888.453	0.0135484
888.531	0.0135262
888.609	0.0135204
888.687	0.0135818
888.765	0.0135689
888.843	0.0136362
888.921	0.0135634
888.999	0.0134907
889.078	0.0134206
889.156	0.0134713
889.234	0.0134431
889.312	0.0134596
889.390	0.0133248
889.468	0.0133163
889.546	0.0134696
889.624	0.0132527
889.703	0.0132656
889.781	0.0133338
889.859	0.0132731
889.937	0.0132867
890.015	0.0131359
890.093	0.0132294
890.171	0.0131657
890.249	0.0132526
890.328	0.0132279
890.406	0.0129812
890.484	0.0130606
890.562	0.0131824
890.640	0.0131349
890.718	0.0133336
890.796	0.0132905
890.874	0.0131812
890.953	0.0132425
891.031	0.0132540
891.109	0.0133203
891.187	0.0133743
891.265	0.0133490
891.343	0.0133433
891.421	0.0135195
891.499	0.0134310
891.578	0.0134715
891.656	0.0136301
891.734	0.0136478
891.812	0.0135950
891.890	0.0136464
891.968	0.0136697
892.046	0.0137173
892.124	0.0136829
892.203	0.0138173
892.281	0.0137458
892.359	0.0136440
892.437	0.0137712
892.515	0.0137597
892.593	0.0137971
892.671	0.0136351
892.749	0.0136786
892.828	0.0137923
892.906	0.0134990
892.984	0.0135739
893.062	0.0135387
893.140	0.0135212
893.218	0.0135248
893.296	0.0134514
893.374	0.0134053
893.453	0.0134299
893.531	0.0135608
893.609	0.0134560
893.687	0.0133852
893.765	0.0135032
893.843	0.0134270
893.921	0.0134133
893.999	0.0132970
894.078	0.0134045
894.156	0.0133054
894.234	0.0133909
894.312	0.0133018
894.390	0.0133478
894.468	0.0133047
894.546	0.0132424
894.624	0.0133874
894.703	0.0132928
894.781	0.0133889
894.859	0.0134501
894.937	0.0133994
895.015	0.0132822
895.093	0.0133673
895.171	0.0134464
895.249	0.0134531
895.328	0.0134286
895.406	0.0134445
895.484	0.0135049
895.562	0.0136389
895.640	0.0134976
895.718	0.0134734
895.796	0.0136334
895.874	0.0134869
895.953	0.0135220
896.031	0.0135371
896.109	0.0134653
896.187	0.0134155
896.265	0.0135201
896.343	0.0134628
896.421	0.0134424
896.499	0.0133759
896.578	0.0134533
896.656	0.0133542
896.734	0.0134504
896.812	0.0133524
896.890	0.0134293
896.968	0.0133398
897.046	0.0131889
897.124	0.0133318
897.203	0.0131784
897.281	0.0132320
897.359	0.0131367
897.437	0.0133328
897.515	0.0131947
897.593	0.0133376
897.671	0.0133459
897.749	0.0134189
897.828	0.0133493
897.906	0.0134228
897.984	0.0133338
898.062	0.0133418
898.140	0.0134441
898.218	0.0134035
898.296	0.0135133
898.374	0.0134418
898.453	0.0136024
898.531	0.0136395
898.609	0.0135822
898.687	0.0135355
898.765	0.0135656
898.843	0.0133601
898.921	0.0134148
898.999	0.0135251
899.078	0.0134632
899.156	0.0134360
899.234	0.0134225
899.312	0.0132509
899.390	0.0133897
899.468	0.0133868
899.546	0.0133339
899.624	0.0134851
899.703	0.0134444
899.781	0.0135020
899.859	0.0134882
899.937	0.0134960
900.015	0.0134792
900.093	0.0133795
900.171	0.0134491
900.249	0.0135224
900.328	0.0135062
900.406	0.0134937
900.484	0.0135339
900.562	0.0134840
900.640	0.0134411
900.718	0.0135170
900.796	0.0135713
900.874	0.0134015
900.953	0.0135429
901.031	0.0136024
901.109	0.0136739
901.187	0.0136148
901.265	0.0136166
901.343	0.0134355
901.421	0.0135397
901.499	0.0134824
901.578	0.0135876
901.656	0.0134080
901.734	0.0135117
901.812	0.0135029
901.890	0.0134684
901.968	0.0133367
902.046	0.0133468
902.124	0.0133121
902.203	0.0134641
902.281	0.0132720
902.359	0.0133524
902.437	0.0132219
902.515	0.0131734
902.593	0.0133024
902.671	0.0132623
902.749	0.0132202
902.828	0.0130985
902.906	0.0132443
902.984	0.0131068
903.062	0.0132894
903.140	0.0132436
903.218	0.0130562
903.296	0.0131562
903.374	0.0132243
903.453	0.0132169
903.531	0.0132155
903.609	0.0133478
903.687	0.0133403
903.765	0.0133705
903.843	0.0134312
903.921	0.0133728
903.999	0.0132492
904.078	0.0134457
904.156	0.0136292
904.234	0.0134402
904.312	0.0134329
904.390	0.0135558
904.468	0.0136196
904.546	0.0136627
904.624	0.0135827
904.703	0.0135786
904.781	0.0137035
904.859	0.0134852
904.937	0.0136436
905.015	0.0137193
905.093	0.0137171
905.171	0.0136194
905.249	0.0136983
905.328	0.0136835
905.406	0.0135237
905.484	0.0135979
905.562	0.0136005
905.640	0.0136115
905.718	0.0134277
905.796	0.0134138
905.874	0.0135135
905.953	0.0134851
906.031	0.0133852
906.109	0.0133906
906.187	0.0133291
906.265	0.0133927
906.343	0.0133504
906.421	0.0132670
906.499	0.0133550
906.578	0.0133200
906.656	0.0133771
906.734	0.0133092
906.812	0.0134296
906.890	0.0132581
906.968	0.0131480
907.046	0.0130309
907.124	0.0132140
907.203	0.0132957
907.281	0.0132249
907.359	0.0133687
907.437	0.0133424
907.515	0.0131776
907.593	0.0132761
907.671	0.0133643
907.749	0.0133546
907.828	0.0134439
907.906	0.0135463
907.984	0.0132574
908.062	0.0134204
908.140	0.0135067
908.218	0.0135319
908.296	0.0134150
908.374	0.0134595
908.453	0.0135566
908.531	0.0136335
908.609	0.0136387
908.687	0.0136610
908.765	0.0136764
908.843	0.0136716
908.921	0.0135026
908.999	0.0136076
909.078	0.0135736
909.156	0.0135104
909.234	0.0134950
909.312	0.0135652
909.390	0.0135160
909.468	0.0136327
909.546	0.0134231
909.624	0.0134666
909.703	0.0135719
909.781	0.0134543
909.859	0.0133208
909.937	0.0134469
910.015	0.0133623
910.093	0.0133204
910.171	0.0134052
910.249	0.0134324
910.328	0.0133481
910.406	0.0133441
910.484	0.0133900
910.562	0.0133964
910.640	0.0133932
910.718	0.0132117
910.796	0.0133137
910.874	0.0134028
910.953	0.0133080
911.031	0.0134041
911.109	0.0135184
911.187	0.0132586
911.265	0.0133247
911.343	0.0134196
911.421	0.0132987
911.499	0.0132970
911.578	0.0133080
911.656	0.0132574
911.734	0.0133952
911.812	0.0132773
911.890	0.0131156
911.968	0.0132505
912.046	0.0133917
912.124	0.0133986
912.203	0.0131706
912.281	0.0131633
912.359	0.0132215
912.437	0.0133502
912.515	0.0131376
912.593	0.0132032
912.671	0.0131850
912.749	0.0131593
912.828	0.0132912
912.906	0.0133950
912.984	0.0131202
913.062	0.0131454
913.140	0.0132854
913.218	0.0134007
913.296	0.0133369
913.374	0.0134963
913.453	0.0133891
913.531	0.0134426
913.609	0.0135709
913.687	0.0134052
913.765	0.0135067
913.843	0.0135701
913.921	0.0134327
913.999	0.0134676
914.078	0.0135300
914.156	0.0135574
914.234	0.0135480
914.312	0.0134808
914.390	0.0134737
914.468	0.0134718
914.546	0.0135699
914.624	0.0134557
914.703	0.0134736
914.781	0.0133843
914.859	0.0132259
914.937	0.0133657
915.015	0.0132694
915.093	0.0134069
915.171	0.0133249
915.249	0.0131875
915.328	0.0134793
915.406	0.0131667
915.484	0.0133184
915.562	0.0133437
915.640	0.0133271
915.718	0.0132264
915.796	0.0133279
915.874	0.0133130
915.953	0.0131901
916.031	0.0132259
916.109	0.0132430
916.187	0.0134564
916.265	0.0133926
916.343	0.0133259
916.421	0.0132832
916.499	0.0132878
916.578	0.0133976
916.656	0.0133515
916.734	0.0135192
916.812	0.0133183
916.890	0.0135184
916.968	0.0134861
917.046	0.0135909
917.124	0.0134295
917.203	0.0134873
917.281	0.0135082
917.359	0.0134417
917.437	0.0134336
917.515	0.0135604
917.593	0.0135424
917.671	0.0133927
917.749	0.0134159
917.828	0.0133537
917.906	0.0135722
917.984	0.0135500
918.062	0.0133867
918.140	0.0135071
918.218	0.0133282
918.296	0.0135037
918.374	0.0134271
918.453	0.0133496
918.531	0.0134774
918.609	0.0133701
918.687	0.0133807
918.765	0.0134123
918.843	0.0134002
918.921	0.0133508
918.999	0.0133001
919.078	0.0134026
919.156	0.0132551
919.234	0.0132722
919.312	0.0133858
919.390	0.0134394
919.468	0.0133273
919.546	0.0134228
919.624	0.0134228
919.703	0.0133369
919.781	0.0132623
919.859	0.0134573
919.937	0.0132425
