05/08/2022	20:11:06	Ver.	4.1	UNKNOWN
Optical Delay	600.015094	Delta X		0.078125	Sweeps	1	Scan Rate	0/0
Coordinates	Axis 1	NaN	Axis 2	NaN	Axis 3	NaN	Axis 4	NaN	Axis 5	NaN	Axis 6	0.000000
TX Power	0.000000	RX Power	0.000000

600.015	0.0135615
600.093	0.0135397
600.171	0.0135066
600.249	0.0135294
600.328	0.0135837
600.406	0.0136783
600.484	0.0135538
600.562	0.0136151
600.640	0.0135378
600.718	0.0135513
600.796	0.0136018
600.874	0.0135897
600.953	0.0135373
601.031	0.0136395
601.109	0.0136662
601.187	0.0135247
601.265	0.0135919
601.343	0.0135529
601.421	0.0134657
601.499	0.0136280
601.578	0.0135907
601.656	0.0134229
601.734	0.0135430
601.812	0.0136180
601.890	0.0135072
601.968	0.0134560
602.046	0.0135708
602.124	0.0135443
602.203	0.0135004
602.281	0.0135811
602.359	0.0137046
602.437	0.0135640
602.515	0.0136084
602.593	0.0135569
602.671	0.0136553
602.749	0.0136198
602.828	0.0135742
602.906	0.0136222
602.984	0.0135734
603.062	0.0136269
603.140	0.0136346
603.218	0.0135448
603.296	0.0136761
603.374	0.0135229
603.453	0.0136922
603.531	0.0136303
603.609	0.0134611
603.687	0.0137190
603.765	0.0136459
603.843	0.0134715
603.921	0.0135426
603.999	0.0135940
604.078	0.0135829
604.156	0.0135754
604.234	0.0135737
604.312	0.0136337
604.390	0.0135487
604.468	0.0135976
604.546	0.0135415
604.624	0.0135559
604.703	0.0135282
604.781	0.0135860
604.859	0.0136886
604.937	0.0135838
605.015	0.0136259
605.093	0.0135181
605.171	0.0135884
605.249	0.0136514
605.328	0.0134950
605.406	0.0134486
605.484	0.0135436
605.562	0.0135909
605.640	0.0137074
605.718	0.0136553
605.796	0.0137035
605.874	0.0136279
605.953	0.0136368
606.031	0.0135065
606.109	0.0134677
606.187	0.0134807
606.265	0.0135971
606.343	0.0136174
606.421	0.0136063
606.499	0.0134895
606.578	0.0134913
606.656	0.0136076
606.734	0.0135020
606.812	0.0134757
606.890	0.0135487
606.968	0.0135605
607.046	0.0135561
607.124	0.0135040
607.203	0.0134386
607.281	0.0136337
607.359	0.0136121
607.437	0.0134255
607.515	0.0136442
607.593	0.0134409
607.671	0.0133982
607.749	0.0136200
607.828	0.0136118
607.906	0.0135217
607.984	0.0134859
608.062	0.0135047
608.140	0.0134760
608.218	0.0134841
608.296	0.0135207
608.374	0.0136835
608.453	0.0135669
608.531	0.0135806
608.609	0.0134942
608.687	0.0136565
608.765	0.0135412
608.843	0.0134782
608.921	0.0135040
608.999	0.0135961
609.078	0.0135217
609.156	0.0134694
609.234	0.0134352
609.312	0.0135313
609.390	0.0134653
609.468	0.0133918
609.546	0.0135157
609.624	0.0136329
609.703	0.0135925
609.781	0.0134789
609.859	0.0134222
609.937	0.0135008
610.015	0.0135958
610.093	0.0134460
610.171	0.0135299
610.249	0.0136510
610.328	0.0134024
610.406	0.0133897
610.484	0.0133838
610.562	0.0136108
610.640	0.0136218
610.718	0.0136098
610.796	0.0134991
610.874	0.0134663
610.953	0.0135628
611.031	0.0136069
611.109	0.0135117
611.187	0.0134318
611.265	0.0135387
611.343	0.0136045
611.421	0.0135629
611.499	0.0135342
611.578	0.0135537
611.656	0.0134492
611.734	0.0135567
611.812	0.0135999
611.890	0.0135056
611.968	0.0136295
612.046	0.0135077
612.124	0.0135638
612.203	0.0135108
612.281	0.0135818
612.359	0.0135777
612.437	0.0135228
612.515	0.0136385
612.593	0.0136431
612.671	0.0135545
612.749	0.0136742
612.828	0.0135538
612.906	0.0135443
612.984	0.0135924
613.062	0.0134995
613.140	0.0133704
613.218	0.0136240
613.296	0.0135712
613.374	0.0135442
613.453	0.0134919
613.531	0.0134731
613.609	0.0136290
613.687	0.0136369
613.765	0.0135502
613.843	0.0135226
613.921	0.0135532
613.999	0.0135447
614.078	0.0135845
614.156	0.0135617
614.234	0.0135630
614.312	0.0135910
614.390	0.0135606
614.468	0.0135480
614.546	0.0135555
614.624	0.0136402
614.703	0.0135277
614.781	0.0134637
614.859	0.0135897
614.937	0.0134410
615.015	0.0135816
615.093	0.0134825
615.171	0.0135051
615.249	0.0135315
615.328	0.0135874
615.406	0.0137347
615.484	0.0135519
615.562	0.0135030
615.640	0.0134433
615.718	0.0134772
615.796	0.0135059
615.874	0.0136495
615.953	0.0134800
616.031	0.0135917
616.109	0.0134718
616.187	0.0135867
616.265	0.0135899
616.343	0.0136470
616.421	0.0136295
616.499	0.0134689
616.578	0.0137305
616.656	0.0136287
616.734	0.0136781
616.812	0.0135768
616.890	0.0135522
616.968	0.0136642
617.046	0.0136444
617.124	0.0134853
617.203	0.0135680
617.281	0.0135372
617.359	0.0136811
617.437	0.0136871
617.515	0.0137186
617.593	0.0134333
617.671	0.0135138
617.749	0.0135867
617.828	0.0136219
617.906	0.0136440
617.984	0.0136465
618.062	0.0135640
618.140	0.0136054
618.218	0.0136019
618.296	0.0137336
618.374	0.0136118
618.453	0.0135992
618.531	0.0136070
618.609	0.0136346
618.687	0.0136177
618.765	0.0137252
618.843	0.0135937
618.921	0.0137005
618.999	0.0135266
619.078	0.0134708
619.156	0.0135651
619.234	0.0135502
619.312	0.0138472
619.390	0.0136249
619.468	0.0136288
619.546	0.0136491
619.624	0.0135605
619.703	0.0136257
619.781	0.0136336
619.859	0.0136549
619.937	0.0136308
620.015	0.0135429
620.093	0.0135079
620.171	0.0135473
620.249	0.0136073
620.328	0.0135813
620.406	0.0137170
620.484	0.0135869
620.562	0.0135403
620.640	0.0136051
620.718	0.0136851
620.796	0.0135807
620.874	0.0135855
620.953	0.0135139
621.031	0.0136092
621.109	0.0135073
621.187	0.0135835
621.265	0.0134768
621.343	0.0135140
621.421	0.0135264
621.499	0.0135960
621.578	0.0136174
621.656	0.0134489
621.734	0.0136648
621.812	0.0136433
621.890	0.0135068
621.968	0.0135551
622.046	0.0135292
622.124	0.0135862
622.203	0.0135239
622.281	0.0135513
622.359	0.0136319
622.437	0.0136828
622.515	0.0136242
622.593	0.0135279
622.671	0.0135815
622.749	0.0136897
622.828	0.0136308
622.906	0.0135215
622.984	0.0135932
623.062	0.0136977
623.140	0.0136066
623.218	0.0135755
623.296	0.0134877
623.374	0.0135501
623.453	0.0135948
623.531	0.0136105
623.609	0.0134525
623.687	0.0135873
623.765	0.0135317
623.843	0.0137023
623.921	0.0136385
623.999	0.0136731
624.078	0.0135313
624.156	0.0135334
624.234	0.0135075
624.312	0.0135373
624.390	0.0136005
624.468	0.0135561
624.546	0.0136282
624.624	0.0135966
624.703	0.0134680
624.781	0.0134308
624.859	0.0135146
624.937	0.0136909
625.015	0.0136594
625.093	0.0135004
625.171	0.0135169
625.249	0.0135912
625.328	0.0136622
625.406	0.0134537
625.484	0.0137080
625.562	0.0135139
625.640	0.0134586
625.718	0.0135355
625.796	0.0134760
625.874	0.0135738
625.953	0.0134779
626.031	0.0134724
626.109	0.0135126
626.187	0.0135823
626.265	0.0136398
626.343	0.0135007
626.421	0.0136050
626.499	0.0135638
626.578	0.0135233
626.656	0.0135486
626.734	0.0134321
626.812	0.0135606
626.890	0.0136066
626.968	0.0134871
627.046	0.0136712
627.124	0.0134684
627.203	0.0133927
627.281	0.0135054
627.359	0.0134348
627.437	0.0135267
627.515	0.0136728
627.593	0.0135351
627.671	0.0134814
627.749	0.0134825
627.828	0.0134545
627.906	0.0133891
627.984	0.0134529
628.062	0.0135844
628.140	0.0135569
628.218	0.0135580
628.296	0.0133140
628.374	0.0135471
628.453	0.0137311
628.531	0.0137128
628.609	0.0135722
628.687	0.0135976
628.765	0.0134022
628.843	0.0136133
628.921	0.0134786
628.999	0.0135124
629.078	0.0136178
629.156	0.0134976
629.234	0.0135671
629.312	0.0136186
629.390	0.0135593
629.468	0.0136002
629.546	0.0135397
629.624	0.0134884
629.703	0.0135686
629.781	0.0135635
629.859	0.0134476
629.937	0.0134747
630.015	0.0134296
630.093	0.0135234
630.171	0.0134465
630.249	0.0134996
630.328	0.0135265
630.406	0.0136472
630.484	0.0135828
630.562	0.0135270
630.640	0.0135146
630.718	0.0135165
630.796	0.0134198
630.874	0.0133850
630.953	0.0134064
631.031	0.0135281
631.109	0.0134122
631.187	0.0135977
631.265	0.0135082
631.343	0.0134799
631.421	0.0134990
631.499	0.0135248
631.578	0.0135388
631.656	0.0135546
631.734	0.0134146
631.812	0.0134425
631.890	0.0135349
631.968	0.0134303
632.046	0.0135680
632.124	0.0136462
632.203	0.0135609
632.281	0.0132886
632.359	0.0134706
632.437	0.0135208
632.515	0.0133753
632.593	0.0136102
632.671	0.0136446
632.749	0.0134884
632.828	0.0134864
632.906	0.0134618
632.984	0.0133613
633.062	0.0134706
633.140	0.0135006
633.218	0.0135625
633.296	0.0135242
633.374	0.0135516
633.453	0.0135979
633.531	0.0135384
633.609	0.0135342
633.687	0.0134386
633.765	0.0133466
633.843	0.0133027
633.921	0.0134422
633.999	0.0135141
634.078	0.0135811
634.156	0.0133660
634.234	0.0135608
634.312	0.0135508
634.390	0.0134475
634.468	0.0136924
634.546	0.0135035
634.624	0.0134297
634.703	0.0134273
634.781	0.0135677
634.859	0.0135442
634.937	0.0135407
635.015	0.0135535
635.093	0.0134324
635.171	0.0135237
635.249	0.0134756
635.328	0.0134658
635.406	0.0133148
635.484	0.0136013
635.562	0.0135746
635.640	0.0134603
635.718	0.0134850
635.796	0.0134322
635.874	0.0134141
635.953	0.0135799
636.031	0.0134952
636.109	0.0135976
636.187	0.0135965
636.265	0.0135606
636.343	0.0136374
636.421	0.0135860
636.499	0.0135269
636.578	0.0137244
636.656	0.0135168
636.734	0.0135011
636.812	0.0135103
636.890	0.0133746
636.968	0.0134453
637.046	0.0135451
637.124	0.0135883
637.203	0.0134544
637.281	0.0134860
637.359	0.0135686
637.437	0.0135369
637.515	0.0135499
637.593	0.0135501
637.671	0.0135137
637.749	0.0136568
637.828	0.0134553
637.906	0.0134481
637.984	0.0135692
638.062	0.0135201
638.140	0.0136625
638.218	0.0135059
638.296	0.0135467
638.374	0.0134450
638.453	0.0136298
638.531	0.0135739
638.609	0.0135136
638.687	0.0134741
638.765	0.0135861
638.843	0.0135268
638.921	0.0135204
638.999	0.0136656
639.078	0.0135764
639.156	0.0135741
639.234	0.0136433
639.312	0.0136245
639.390	0.0135219
639.468	0.0134565
639.546	0.0136787
639.624	0.0136176
639.703	0.0134827
639.781	0.0136491
639.859	0.0135921
639.937	0.0137067
640.015	0.0136471
640.093	0.0136600
640.171	0.0136333
640.249	0.0136640
640.328	0.0135390
640.406	0.0133575
640.484	0.0136131
640.562	0.0136311
640.640	0.0136585
640.718	0.0137638
640.796	0.0137164
640.874	0.0136002
640.953	0.0134866
641.031	0.0136826
641.109	0.0136544
641.187	0.0135238
641.265	0.0135052
641.343	0.0137070
641.421	0.0135569
641.499	0.0135897
641.578	0.0136734
641.656	0.0136697
641.734	0.0136623
641.812	0.0135693
641.890	0.0136488
641.968	0.0136131
642.046	0.0136974
642.124	0.0135648
642.203	0.0136656
642.281	0.0136389
642.359	0.0136104
642.437	0.0136813
642.515	0.0134644
642.593	0.0135245
642.671	0.0136443
642.749	0.0136539
642.828	0.0136090
642.906	0.0136326
642.984	0.0136063
643.062	0.0135835
643.140	0.0136076
643.218	0.0135850
643.296	0.0135081
643.374	0.0135849
643.453	0.0134531
643.531	0.0135256
643.609	0.0136806
643.687	0.0137363
643.765	0.0137031
643.843	0.0136808
643.921	0.0136710
643.999	0.0135868
644.078	0.0136772
644.156	0.0136523
644.234	0.0137510
644.312	0.0137208
644.390	0.0136789
644.468	0.0135383
644.546	0.0136304
644.624	0.0135851
644.703	0.0136967
644.781	0.0134969
644.859	0.0134344
644.937	0.0133368
645.015	0.0133755
645.093	0.0134454
645.171	0.0134953
645.249	0.0133935
645.328	0.0135099
645.406	0.0135798
645.484	0.0136032
645.562	0.0135249
645.640	0.0137180
645.718	0.0138013
645.796	0.0136330
645.874	0.0137418
645.953	0.0137049
646.031	0.0136755
646.109	0.0138406
646.187	0.0137819
646.265	0.0137708
646.343	0.0136134
646.421	0.0137263
646.499	0.0137379
646.578	0.0137102
646.656	0.0136385
646.734	0.0137424
646.812	0.0135600
646.890	0.0134413
646.968	0.0134888
647.046	0.0135016
647.124	0.0133289
647.203	0.0134650
647.281	0.0133905
647.359	0.0133766
647.437	0.0134908
647.515	0.0133266
647.593	0.0133936
647.671	0.0134129
647.749	0.0134908
647.828	0.0134283
647.906	0.0134480
647.984	0.0135136
648.062	0.0135649
648.140	0.0137070
648.218	0.0136548
648.296	0.0137021
648.374	0.0136465
648.453	0.0137266
648.531	0.0137391
648.609	0.0137294
648.687	0.0137379
648.765	0.0138155
648.843	0.0136883
648.921	0.0136956
648.999	0.0135728
649.078	0.0135414
649.156	0.0134020
649.234	0.0133580
649.312	0.0133380
649.390	0.0131222
649.468	0.0131591
649.546	0.0130921
649.624	0.0130796
649.703	0.0131667
649.781	0.0130472
649.859	0.0131891
649.937	0.0133132
650.015	0.0133823
650.093	0.0133540
650.171	0.0135926
650.249	0.0136582
650.328	0.0137956
650.406	0.0141056
650.484	0.0140320
650.562	0.0141177
650.640	0.0139632
650.718	0.0141534
650.796	0.0140415
650.874	0.0138864
650.953	0.0139672
651.031	0.0138487
651.109	0.0137421
651.187	0.0137628
651.265	0.0134559
651.343	0.0134246
651.421	0.0132612
651.499	0.0131097
651.578	0.0129671
651.656	0.0129839
651.734	0.0130165
651.812	0.0128742
651.890	0.0128382
651.968	0.0129983
652.046	0.0129803
652.124	0.0129144
652.203	0.0130368
652.281	0.0129389
652.359	0.0129826
652.437	0.0129913
652.515	0.0131519
652.593	0.0133468
652.671	0.0133337
652.749	0.0133954
652.828	0.0134873
652.906	0.0135429
652.984	0.0136887
653.062	0.0137612
653.140	0.0139735
653.218	0.0141806
653.296	0.0141624
653.374	0.0143097
653.453	0.0143249
653.531	0.0144191
653.609	0.0144689
653.687	0.0145719
653.765	0.0145194
653.843	0.0145317
653.921	0.0145492
653.999	0.0145697
654.078	0.0144498
654.156	0.0144769
654.234	0.0142649
654.312	0.0141802
654.390	0.0140424
654.468	0.0138609
654.546	0.0136414
654.624	0.0135273
654.703	0.0133348
654.781	0.0130837
654.859	0.0128720
654.937	0.0127301
655.015	0.0126456
655.093	0.0124013
655.171	0.0122292
655.249	0.0120850
655.328	0.0120057
655.406	0.0118513
655.484	0.0116979
655.562	0.0118047
655.640	0.0118128
655.718	0.0119470
655.796	0.0122336
655.874	0.0122755
655.953	0.0123683
656.031	0.0126962
656.109	0.0129374
656.187	0.0132924
656.265	0.0134943
656.343	0.0137460
656.421	0.0140076
656.499	0.0141535
656.578	0.0143741
656.656	0.0145831
656.734	0.0148672
656.812	0.0149423
656.890	0.0149661
656.968	0.0151464
657.046	0.0151634
657.124	0.0153518
657.203	0.0151665
657.281	0.0152705
657.359	0.0153577
657.437	0.0151028
657.515	0.0150637
657.593	0.0150735
657.671	0.0150159
657.749	0.0148003
657.828	0.0146998
657.906	0.0144746
657.984	0.0143130
658.062	0.0141329
658.140	0.0140412
658.218	0.0137935
658.296	0.0135329
658.374	0.0132913
658.453	0.0129651
658.531	0.0127414
658.609	0.0124332
658.687	0.0119714
658.765	0.0118873
658.843	0.0116756
658.921	0.0113748
658.999	0.0112283
659.078	0.0112218
659.156	0.0111153
659.234	0.0112864
659.312	0.0111214
659.390	0.0111118
659.468	0.0112088
659.546	0.0113623
659.624	0.0113391
659.703	0.0115205
659.781	0.0117867
659.859	0.0119296
659.937	0.0120843
660.015	0.0124173
660.093	0.0127690
660.171	0.0131363
660.249	0.0136082
660.328	0.0139014
660.406	0.0144057
660.484	0.0150366
660.562	0.0153389
660.640	0.0157986
660.718	0.0161212
660.796	0.0163918
660.874	0.0167499
660.953	0.0169330
661.031	0.0170563
661.109	0.0169808
661.187	0.0170372
661.265	0.0169958
661.343	0.0167955
661.421	0.0165720
661.499	0.0163721
661.578	0.0160390
661.656	0.0157121
661.734	0.0152914
661.812	0.0148903
661.890	0.0144415
661.968	0.0138966
662.046	0.0135400
662.124	0.0132080
662.203	0.0127348
662.281	0.0122689
662.359	0.0120079
662.437	0.0117664
662.515	0.0112946
662.593	0.0111703
662.671	0.0109900
662.749	0.0109260
662.828	0.0108659
662.906	0.0109157
662.984	0.0109615
663.062	0.0110020
663.140	0.0111382
663.218	0.0111610
663.296	0.0113099
663.374	0.0114570
663.453	0.0116619
663.531	0.0117317
663.609	0.0119128
663.687	0.0118798
663.765	0.0120509
663.843	0.0121455
663.921	0.0123160
663.999	0.0124070
664.078	0.0127472
664.156	0.0130007
664.234	0.0132297
664.312	0.0136469
664.390	0.0138832
664.468	0.0141321
664.546	0.0144808
664.624	0.0148348
664.703	0.0152703
664.781	0.0154925
664.859	0.0157011
664.937	0.0159832
665.015	0.0160626
665.093	0.0161520
665.171	0.0162695
665.249	0.0163669
665.328	0.0161745
665.406	0.0163220
665.484	0.0160941
665.562	0.0160736
665.640	0.0157195
665.718	0.0156732
665.796	0.0153837
665.874	0.0153975
665.953	0.0150597
666.031	0.0146908
666.109	0.0147028
666.187	0.0142445
666.265	0.0136949
666.343	0.0136930
666.421	0.0133930
666.499	0.0129533
666.578	0.0128970
666.656	0.0126401
666.734	0.0123406
666.812	0.0123884
666.890	0.0122616
666.968	0.0121202
667.046	0.0120357
667.124	0.0117759
667.203	0.0117281
667.281	0.0116670
667.359	0.0115524
667.437	0.0114143
667.515	0.0116993
667.593	0.0115725
667.671	0.0113532
667.749	0.0114903
667.828	0.0114761
667.906	0.0114733
667.984	0.0116734
668.062	0.0117316
668.140	0.0118305
668.218	0.0119565
668.296	0.0120692
668.374	0.0122529
668.453	0.0122922
668.531	0.0125093
668.609	0.0127975
668.687	0.0129028
668.765	0.0131792
668.843	0.0132782
668.921	0.0134686
668.999	0.0135459
669.078	0.0138651
669.156	0.0138193
669.234	0.0141713
669.312	0.0144594
669.390	0.0146255
669.468	0.0149651
669.546	0.0152180
669.624	0.0154365
669.703	0.0155891
669.781	0.0158698
669.859	0.0161083
669.937	0.0161263
670.015	0.0164160
670.093	0.0165598
670.171	0.0162877
670.249	0.0163423
670.328	0.0161744
670.406	0.0159460
670.484	0.0157005
670.562	0.0157025
670.640	0.0152519
670.718	0.0148386
670.796	0.0146039
670.874	0.0143813
670.953	0.0139453
671.031	0.0136079
671.109	0.0133098
671.187	0.0131581
671.265	0.0127385
671.343	0.0126987
671.421	0.0125396
671.499	0.0122861
671.578	0.0122419
671.656	0.0121668
671.734	0.0120931
671.812	0.0120584
671.890	0.0119111
671.968	0.0117824
672.046	0.0116649
672.124	0.0116103
672.203	0.0115314
672.281	0.0112600
672.359	0.0112404
672.437	0.0110926
672.515	0.0109566
672.593	0.0109222
672.671	0.0110219
672.749	0.0108528
672.828	0.0110659
672.906	0.0111132
672.984	0.0113191
673.062	0.0116456
673.140	0.0119250
673.218	0.0122937
673.296	0.0125478
673.374	0.0131466
673.453	0.0136553
673.531	0.0138194
673.609	0.0142733
673.687	0.0147183
673.765	0.0148596
673.843	0.0151593
673.921	0.0153095
673.999	0.0151328
674.078	0.0152546
674.156	0.0153050
674.234	0.0151988
674.312	0.0150470
674.390	0.0150903
674.468	0.0151165
674.546	0.0150101
674.624	0.0149140
674.703	0.0148237
674.781	0.0148600
674.859	0.0148177
674.937	0.0146992
675.015	0.0147651
675.093	0.0146938
675.171	0.0147754
675.249	0.0147247
675.328	0.0147129
675.406	0.0147008
675.484	0.0147192
675.562	0.0147208
675.640	0.0145464
675.718	0.0143964
675.796	0.0143593
675.874	0.0142351
675.953	0.0139960
676.031	0.0139337
676.109	0.0136668
676.187	0.0134759
676.265	0.0133114
676.343	0.0131578
676.421	0.0130373
676.499	0.0128463
676.578	0.0126901
676.656	0.0126360
676.734	0.0125463
676.812	0.0123901
676.890	0.0122825
676.968	0.0121596
677.046	0.0121576
677.124	0.0119754
677.203	0.0119523
677.281	0.0117884
677.359	0.0115906
677.437	0.0115051
677.515	0.0114104
677.593	0.0113076
677.671	0.0113235
677.749	0.0114364
677.828	0.0113177
677.906	0.0115334
677.984	0.0118586
678.062	0.0118678
678.140	0.0121298
678.218	0.0124479
678.296	0.0127136
678.374	0.0130787
678.453	0.0135661
678.531	0.0139882
678.609	0.0144846
678.687	0.0148946
678.765	0.0151482
678.843	0.0154203
678.921	0.0159461
678.999	0.0162154
679.078	0.0164187
679.156	0.0164796
679.234	0.0164223
679.312	0.0162968
679.390	0.0161525
679.468	0.0160397
679.546	0.0156292
679.624	0.0155304
679.703	0.0152209
679.781	0.0146262
679.859	0.0143898
679.937	0.0140729
680.015	0.0137179
680.093	0.0134894
680.171	0.0132652
680.249	0.0129539
680.328	0.0127795
680.406	0.0127801
680.484	0.0128061
680.562	0.0128242
680.640	0.0126472
680.718	0.0126250
680.796	0.0126598
680.874	0.0127219
680.953	0.0126534
681.031	0.0126928
681.109	0.0128480
681.187	0.0128094
681.265	0.0128976
681.343	0.0129613
681.421	0.0130424
681.499	0.0131940
681.578	0.0134062
681.656	0.0135184
681.734	0.0137115
681.812	0.0138222
681.890	0.0139491
681.968	0.0142263
682.046	0.0141885
682.124	0.0144211
682.203	0.0144481
682.281	0.0146061
682.359	0.0144712
682.437	0.0143719
682.515	0.0143130
682.593	0.0142770
682.671	0.0142145
682.749	0.0141953
682.828	0.0141282
682.906	0.0138663
682.984	0.0137903
683.062	0.0136459
683.140	0.0135237
683.218	0.0131647
683.296	0.0131452
683.374	0.0130218
683.453	0.0128868
683.531	0.0128382
683.609	0.0125446
683.687	0.0125169
683.765	0.0124689
683.843	0.0123985
683.921	0.0122696
683.999	0.0123517
684.078	0.0123013
684.156	0.0124694
684.234	0.0125635
684.312	0.0124869
684.390	0.0125547
684.468	0.0128186
684.546	0.0127417
684.624	0.0129476
684.703	0.0131044
684.781	0.0130767
684.859	0.0131113
684.937	0.0131931
685.015	0.0134527
685.093	0.0135733
685.171	0.0135699
685.249	0.0136538
685.328	0.0137512
685.406	0.0139612
685.484	0.0140372
685.562	0.0140977
685.640	0.0141312
685.718	0.0142427
685.796	0.0142584
685.874	0.0144607
685.953	0.0145162
686.031	0.0145828
686.109	0.0147843
686.187	0.0147536
686.265	0.0148640
686.343	0.0150970
686.421	0.0150325
686.499	0.0151041
686.578	0.0151347
686.656	0.0152406
686.734	0.0151511
686.812	0.0152457
686.890	0.0150683
686.968	0.0149677
687.046	0.0149825
687.124	0.0148527
687.203	0.0148274
687.281	0.0146951
687.359	0.0144861
687.437	0.0143883
687.515	0.0141695
687.593	0.0140833
687.671	0.0138472
687.749	0.0135836
687.828	0.0131420
687.906	0.0129679
687.984	0.0126701
688.062	0.0122768
688.140	0.0120049
688.218	0.0118136
688.296	0.0115687
688.374	0.0111857
688.453	0.0111342
688.531	0.0109693
688.609	0.0109881
688.687	0.0109538
688.765	0.0110070
688.843	0.0109314
688.921	0.0109274
688.999	0.0110240
689.078	0.0111986
689.156	0.0112623
689.234	0.0115205
689.312	0.0115746
689.390	0.0118087
689.468	0.0119968
689.546	0.0123193
689.624	0.0125967
689.703	0.0128004
689.781	0.0130824
689.859	0.0133382
689.937	0.0137012
690.015	0.0138863
690.093	0.0141871
690.171	0.0145385
690.249	0.0146076
690.328	0.0149572
690.406	0.0152074
690.484	0.0152731
690.562	0.0155252
690.640	0.0155080
690.718	0.0156875
690.796	0.0157515
690.874	0.0156418
690.953	0.0157363
691.031	0.0157986
691.109	0.0157788
691.187	0.0158004
691.265	0.0157658
691.343	0.0155920
691.421	0.0154885
691.499	0.0152708
691.578	0.0151711
691.656	0.0148901
691.734	0.0146852
691.812	0.0144473
691.890	0.0142403
691.968	0.0139483
692.046	0.0137984
692.124	0.0134997
692.203	0.0133298
692.281	0.0132117
692.359	0.0129688
692.437	0.0129028
692.515	0.0129486
692.593	0.0125831
692.671	0.0124891
692.749	0.0126038
692.828	0.0122505
692.906	0.0121921
692.984	0.0121043
693.062	0.0117805
693.140	0.0119054
693.218	0.0117456
693.296	0.0119452
693.374	0.0118914
693.453	0.0119941
693.531	0.0121918
693.609	0.0124269
693.687	0.0126498
693.765	0.0129453
693.843	0.0131767
693.921	0.0133968
693.999	0.0134483
694.078	0.0136417
694.156	0.0137180
694.234	0.0138047
694.312	0.0136260
694.390	0.0134859
694.468	0.0134528
694.546	0.0133418
694.624	0.0131828
694.703	0.0127927
694.781	0.0126846
694.859	0.0125503
694.937	0.0124413
695.015	0.0123218
695.093	0.0124461
695.171	0.0123929
695.249	0.0123862
695.328	0.0125372
695.406	0.0126995
695.484	0.0132237
695.562	0.0133623
695.640	0.0135984
695.718	0.0138308
695.796	0.0140955
695.874	0.0142903
695.953	0.0147479
696.031	0.0148829
696.109	0.0151145
696.187	0.0152300
696.265	0.0151879
696.343	0.0152759
696.421	0.0154669
696.499	0.0155155
696.578	0.0156342
696.656	0.0155205
696.734	0.0155804
696.812	0.0155146
696.890	0.0155661
696.968	0.0155428
697.046	0.0154164
697.124	0.0151566
697.203	0.0150993
697.281	0.0149282
697.359	0.0148208
697.437	0.0143279
697.515	0.0140392
697.593	0.0138110
697.671	0.0134012
697.749	0.0132585
697.828	0.0128433
697.906	0.0126453
697.984	0.0123275
698.062	0.0120087
698.140	0.0116285
698.218	0.0114674
698.296	0.0113121
698.374	0.0111844
698.453	0.0111971
698.531	0.0112933
698.609	0.0112759
698.687	0.0113243
698.765	0.0115041
698.843	0.0117426
698.921	0.0119888
698.999	0.0122146
699.078	0.0123670
699.156	0.0125764
699.234	0.0127100
699.312	0.0128675
699.390	0.0132556
699.468	0.0133094
699.546	0.0133907
699.624	0.0136147
699.703	0.0136022
699.781	0.0137032
699.859	0.0140425
699.937	0.0142161
700.015	0.0141447
700.093	0.0143135
700.171	0.0144460
700.249	0.0144915
700.328	0.0145683
700.406	0.0146138
700.484	0.0144692
700.562	0.0146693
700.640	0.0145430
700.718	0.0145941
700.796	0.0147472
700.874	0.0145594
700.953	0.0145088
701.031	0.0145913
701.109	0.0145033
701.187	0.0144369
701.265	0.0144074
701.343	0.0142824
701.421	0.0141476
701.499	0.0137767
701.578	0.0137547
701.656	0.0135423
701.734	0.0134751
701.812	0.0134303
701.890	0.0133131
701.968	0.0131886
702.046	0.0130785
702.124	0.0130547
702.203	0.0130186
702.281	0.0131971
702.359	0.0131223
702.437	0.0131178
702.515	0.0133582
702.593	0.0135901
702.671	0.0135424
702.749	0.0136716
702.828	0.0138052
702.906	0.0138383
702.984	0.0139486
703.062	0.0140585
703.140	0.0140015
703.218	0.0139922
703.296	0.0138747
703.374	0.0137936
703.453	0.0138048
703.531	0.0136296
703.609	0.0133555
703.687	0.0132624
703.765	0.0131757
703.843	0.0129388
703.921	0.0127762
703.999	0.0129160
704.078	0.0127896
704.156	0.0127667
704.234	0.0127904
704.312	0.0125515
704.390	0.0127090
704.468	0.0127129
704.546	0.0129122
704.624	0.0128028
704.703	0.0129101
704.781	0.0129617
704.859	0.0129589
704.937	0.0131432
705.015	0.0132969
705.093	0.0133319
705.171	0.0132259
705.249	0.0133816
705.328	0.0136613
705.406	0.0137691
705.484	0.0137952
705.562	0.0140330
705.640	0.0142260
705.718	0.0144096
705.796	0.0145037
705.874	0.0147254
705.953	0.0146609
706.031	0.0148404
706.109	0.0149497
706.187	0.0150000
706.265	0.0149456
706.343	0.0148438
706.421	0.0146877
706.499	0.0147086
706.578	0.0145332
706.656	0.0143665
706.734	0.0142949
706.812	0.0141934
706.890	0.0140022
706.968	0.0138799
707.046	0.0137175
707.124	0.0134944
707.203	0.0135253
707.281	0.0134187
707.359	0.0132843
707.437	0.0130469
707.515	0.0130284
707.593	0.0131949
707.671	0.0131293
707.749	0.0131303
707.828	0.0131911
707.906	0.0133597
707.984	0.0131950
708.062	0.0132490
708.140	0.0132539
708.218	0.0133485
708.296	0.0133526
708.374	0.0134069
708.453	0.0135376
708.531	0.0135043
708.609	0.0134275
708.687	0.0135051
708.765	0.0134222
708.843	0.0133250
708.921	0.0133353
708.999	0.0133916
709.078	0.0132648
709.156	0.0132590
709.234	0.0133356
709.312	0.0132763
709.390	0.0131672
709.468	0.0131894
709.546	0.0132190
709.624	0.0133809
709.703	0.0133712
709.781	0.0134808
709.859	0.0134122
709.937	0.0134305
710.015	0.0135825
710.093	0.0135292
710.171	0.0135713
710.249	0.0136507
710.328	0.0136965
710.406	0.0136658
710.484	0.0137073
710.562	0.0134516
710.640	0.0134301
710.718	0.0133636
710.796	0.0133765
710.874	0.0133134
710.953	0.0132722
711.031	0.0131991
711.109	0.0132320
711.187	0.0132744
711.265	0.0133208
711.343	0.0132694
711.421	0.0134483
711.499	0.0135900
711.578	0.0136369
711.656	0.0137540
711.734	0.0138328
711.812	0.0142692
711.890	0.0143593
711.968	0.0143436
712.046	0.0142844
712.124	0.0144627
712.203	0.0143604
712.281	0.0143116
712.359	0.0142623
712.437	0.0142244
712.515	0.0141914
712.593	0.0141013
712.671	0.0140803
712.749	0.0138898
712.828	0.0138013
712.906	0.0137825
712.984	0.0137238
713.062	0.0137936
713.140	0.0135785
713.218	0.0134036
713.296	0.0134650
713.374	0.0133441
713.453	0.0131490
713.531	0.0131233
713.609	0.0129545
713.687	0.0128431
713.765	0.0127909
713.843	0.0126233
713.921	0.0127269
713.999	0.0125719
714.078	0.0124840
714.156	0.0127243
714.234	0.0126482
714.312	0.0127180
714.390	0.0125961
714.468	0.0128618
714.546	0.0129018
714.624	0.0128609
714.703	0.0131763
714.781	0.0131536
714.859	0.0132368
714.937	0.0134584
715.015	0.0134415
715.093	0.0134997
715.171	0.0136965
715.249	0.0138253
715.328	0.0137318
715.406	0.0140472
715.484	0.0139383
715.562	0.0138632
715.640	0.0138825
715.718	0.0139610
715.796	0.0137914
715.874	0.0137969
715.953	0.0137621
716.031	0.0136609
716.109	0.0137038
716.187	0.0136038
716.265	0.0135961
716.343	0.0136099
716.421	0.0135331
716.499	0.0134534
716.578	0.0134134
716.656	0.0136086
716.734	0.0136281
716.812	0.0134614
716.890	0.0136414
716.968	0.0134481
717.046	0.0136780
717.124	0.0135995
717.203	0.0136145
717.281	0.0135623
717.359	0.0137021
717.437	0.0136697
717.515	0.0135313
717.593	0.0136616
717.671	0.0136222
717.749	0.0136377
717.828	0.0136626
717.906	0.0134305
717.984	0.0133173
718.062	0.0133501
718.140	0.0133083
718.218	0.0132118
718.296	0.0132872
718.374	0.0130338
718.453	0.0131130
718.531	0.0131808
718.609	0.0131433
718.687	0.0133711
718.765	0.0133069
718.843	0.0133958
718.921	0.0136667
718.999	0.0136942
719.078	0.0138106
719.156	0.0139843
719.234	0.0140070
719.312	0.0141976
719.390	0.0142605
719.468	0.0141911
719.546	0.0141839
719.624	0.0142144
719.703	0.0141428
719.781	0.0139942
719.859	0.0139753
719.937	0.0138226
720.015	0.0138333
720.093	0.0136385
720.171	0.0134995
720.249	0.0134072
720.328	0.0133851
720.406	0.0130906
720.484	0.0130209
720.562	0.0130710
720.640	0.0130542
720.718	0.0130136
720.796	0.0130157
720.874	0.0130361
720.953	0.0131992
721.031	0.0131765
721.109	0.0132879
721.187	0.0133067
721.265	0.0132929
721.343	0.0133755
721.421	0.0133654
721.499	0.0132926
721.578	0.0132850
721.656	0.0134607
721.734	0.0134628
721.812	0.0136378
721.890	0.0135912
721.968	0.0133712
722.046	0.0136919
722.124	0.0136938
722.203	0.0135894
722.281	0.0137209
722.359	0.0135256
722.437	0.0136847
722.515	0.0134825
722.593	0.0135003
722.671	0.0136386
722.749	0.0135782
722.828	0.0134843
722.906	0.0135814
722.984	0.0134164
723.062	0.0133621
723.140	0.0134450
723.218	0.0133717
723.296	0.0134869
723.374	0.0134641
723.453	0.0135252
723.531	0.0134679
723.609	0.0134451
723.687	0.0135769
723.765	0.0137706
723.843	0.0135949
723.921	0.0135870
723.999	0.0137463
724.078	0.0138200
724.156	0.0136461
724.234	0.0138060
724.312	0.0138009
724.390	0.0137474
724.468	0.0138365
724.546	0.0137499
724.624	0.0135756
724.703	0.0135523
724.781	0.0137547
724.859	0.0138628
724.937	0.0136924
725.015	0.0137394
725.093	0.0137509
725.171	0.0138137
725.249	0.0138203
725.328	0.0138631
725.406	0.0138503
725.484	0.0138245
725.562	0.0137280
725.640	0.0137283
725.718	0.0138228
725.796	0.0137974
725.874	0.0138409
725.953	0.0137458
726.031	0.0138667
726.109	0.0137761
726.187	0.0136264
726.265	0.0137391
726.343	0.0136739
726.421	0.0136499
726.499	0.0136206
726.578	0.0134389
726.656	0.0132569
726.734	0.0132521
726.812	0.0133092
726.890	0.0131628
726.968	0.0130718
727.046	0.0130956
727.124	0.0129604
727.203	0.0129257
727.281	0.0129992
727.359	0.0132177
727.437	0.0132331
727.515	0.0132188
727.593	0.0132610
727.671	0.0134328
727.749	0.0135013
727.828	0.0138255
727.906	0.0137663
727.984	0.0136686
728.062	0.0137656
728.140	0.0138371
728.218	0.0138749
728.296	0.0137517
728.374	0.0137556
728.453	0.0136715
728.531	0.0136966
728.609	0.0136452
728.687	0.0134252
728.765	0.0133475
728.843	0.0133722
728.921	0.0134899
728.999	0.0135439
729.078	0.0135705
729.156	0.0135810
729.234	0.0135886
729.312	0.0137463
729.390	0.0137119
729.468	0.0137200
729.546	0.0138321
729.624	0.0138473
729.703	0.0139075
729.781	0.0138356
729.859	0.0139820
729.937	0.0139114
730.015	0.0137572
730.093	0.0138663
730.171	0.0138059
730.249	0.0138466
730.328	0.0138235
730.406	0.0137262
730.484	0.0137762
730.562	0.0135426
730.640	0.0134020
730.718	0.0137279
730.796	0.0136572
730.874	0.0136177
730.953	0.0136857
731.031	0.0136694
731.109	0.0136365
731.187	0.0135715
731.265	0.0135802
731.343	0.0135075
731.421	0.0133772
731.499	0.0134845
731.578	0.0133515
731.656	0.0132823
731.734	0.0132607
731.812	0.0131059
731.890	0.0131956
731.968	0.0131305
732.046	0.0131320
732.124	0.0132118
732.203	0.0131683
732.281	0.0130737
732.359	0.0132697
732.437	0.0135146
732.515	0.0132594
732.593	0.0133988
732.671	0.0133991
732.749	0.0136139
732.828	0.0136748
732.906	0.0136514
732.984	0.0136818
733.062	0.0136840
733.140	0.0137647
733.218	0.0137409
733.296	0.0137899
733.374	0.0137726
733.453	0.0137876
733.531	0.0136913
733.609	0.0138578
733.687	0.0136927
733.765	0.0135745
733.843	0.0135301
733.921	0.0135348
733.999	0.0135195
734.078	0.0135152
734.156	0.0132327
734.234	0.0132578
734.312	0.0132713
734.390	0.0132194
734.468	0.0131133
734.546	0.0130947
734.624	0.0131252
734.703	0.0130659
734.781	0.0131068
734.859	0.0130279
734.937	0.0130222
735.015	0.0130492
735.093	0.0131345
735.171	0.0132150
735.249	0.0131626
735.328	0.0131422
735.406	0.0132256
735.484	0.0133192
735.562	0.0135344
735.640	0.0133778
735.718	0.0132423
735.796	0.0134747
735.874	0.0134200
735.953	0.0135205
736.031	0.0136018
736.109	0.0135221
736.187	0.0135060
736.265	0.0133984
736.343	0.0135696
736.421	0.0135121
736.499	0.0133902
736.578	0.0135432
736.656	0.0135227
736.734	0.0134564
736.812	0.0134250
736.890	0.0136272
736.968	0.0135525
737.046	0.0137557
737.124	0.0139457
737.203	0.0136491
737.281	0.0138465
737.359	0.0138728
737.437	0.0137975
737.515	0.0137708
737.593	0.0138354
737.671	0.0138070
737.749	0.0138328
737.828	0.0137255
737.906	0.0136527
737.984	0.0135777
738.062	0.0135845
738.140	0.0135239
738.218	0.0134064
738.296	0.0133406
738.374	0.0133427
738.453	0.0135186
738.531	0.0133230
738.609	0.0132329
738.687	0.0132903
738.765	0.0133452
738.843	0.0132736
738.921	0.0132427
738.999	0.0132269
739.078	0.0134307
739.156	0.0134711
739.234	0.0133857
739.312	0.0135217
739.390	0.0135697
739.468	0.0135051
739.546	0.0136207
739.624	0.0135804
739.703	0.0134907
739.781	0.0134158
739.859	0.0136188
739.937	0.0136846
740.015	0.0135206
740.093	0.0135480
740.171	0.0134985
740.249	0.0136459
740.328	0.0135412
740.406	0.0135921
740.484	0.0137233
740.562	0.0135417
740.640	0.0136119
740.718	0.0135957
740.796	0.0136809
740.874	0.0136030
740.953	0.0134332
741.031	0.0135612
741.109	0.0136525
741.187	0.0136523
741.265	0.0134708
741.343	0.0135139
741.421	0.0135393
741.499	0.0134346
741.578	0.0134179
741.656	0.0133960
741.734	0.0133067
741.812	0.0132623
741.890	0.0132094
741.968	0.0130482
742.046	0.0131464
742.124	0.0132418
742.203	0.0134008
742.281	0.0134496
742.359	0.0133814
742.437	0.0133454
742.515	0.0134279
742.593	0.0134661
742.671	0.0136166
742.749	0.0136559
742.828	0.0135339
742.906	0.0135844
742.984	0.0135462
743.062	0.0136739
743.140	0.0137286
743.218	0.0136860
743.296	0.0137569
743.374	0.0137128
743.453	0.0135899
743.531	0.0135738
743.609	0.0137681
743.687	0.0136265
743.765	0.0135989
743.843	0.0137034
743.921	0.0135814
743.999	0.0136704
744.078	0.0136346
744.156	0.0136844
744.234	0.0137203
744.312	0.0136079
744.390	0.0136849
744.468	0.0137579
744.546	0.0137278
744.624	0.0138363
744.703	0.0137833
744.781	0.0137344
744.859	0.0137541
744.937	0.0137502
745.015	0.0136794
745.093	0.0136671
745.171	0.0136869
745.249	0.0136324
745.328	0.0136707
745.406	0.0136987
745.484	0.0136189
745.562	0.0136381
745.640	0.0134687
745.718	0.0134607
745.796	0.0135108
745.874	0.0134923
745.953	0.0134299
746.031	0.0135383
746.109	0.0135488
746.187	0.0135184
746.265	0.0135892
746.343	0.0136651
746.421	0.0135525
746.499	0.0135950
746.578	0.0136294
746.656	0.0134189
746.734	0.0136716
746.812	0.0136803
746.890	0.0135728
746.968	0.0136676
747.046	0.0136958
747.124	0.0136848
747.203	0.0136246
747.281	0.0136514
747.359	0.0134303
747.437	0.0134637
747.515	0.0133849
747.593	0.0134042
747.671	0.0133932
747.749	0.0132407
747.828	0.0131786
747.906	0.0132459
747.984	0.0132750
748.062	0.0132542
748.140	0.0132872
748.218	0.0131624
748.296	0.0132798
748.374	0.0132858
748.453	0.0133875
748.531	0.0134683
748.609	0.0135537
748.687	0.0136237
748.765	0.0136081
748.843	0.0135936
748.921	0.0136622
748.999	0.0137150
749.078	0.0137163
749.156	0.0136946
749.234	0.0137914
749.312	0.0137659
749.390	0.0138069
749.468	0.0139187
749.546	0.0137734
749.624	0.0137964
749.703	0.0138537
749.781	0.0138866
749.859	0.0137889
749.937	0.0139818
750.015	0.0139693
750.093	0.0141135
750.171	0.0140068
750.249	0.0140983
750.328	0.0140615
750.406	0.0139396
750.484	0.0141487
750.562	0.0140877
750.640	0.0140951
750.718	0.0141587
750.796	0.0141649
750.874	0.0141318
750.953	0.0140070
751.031	0.0140782
751.109	0.0139962
751.187	0.0138425
751.265	0.0136159
751.343	0.0136871
751.421	0.0136962
751.499	0.0134511
751.578	0.0133178
751.656	0.0132466
751.734	0.0132256
751.812	0.0132271
751.890	0.0130724
751.968	0.0131605
752.046	0.0131755
752.124	0.0130828
752.203	0.0129887
752.281	0.0130787
752.359	0.0130916
752.437	0.0130392
752.515	0.0132081
752.593	0.0131052
752.671	0.0132382
752.749	0.0131788
752.828	0.0132472
752.906	0.0133530
752.984	0.0133524
753.062	0.0133562
753.140	0.0135690
753.218	0.0136214
753.296	0.0138179
753.374	0.0136604
753.453	0.0137943
753.531	0.0137843
753.609	0.0140695
753.687	0.0137738
753.765	0.0140009
753.843	0.0140289
753.921	0.0140611
753.999	0.0139724
754.078	0.0139860
754.156	0.0140463
754.234	0.0139989
754.312	0.0139371
754.390	0.0139239
754.468	0.0138959
754.546	0.0137346
754.624	0.0136317
754.703	0.0136621
754.781	0.0134874
754.859	0.0134307
754.937	0.0133150
755.015	0.0135041
755.093	0.0132758
755.171	0.0131544
755.249	0.0131665
755.328	0.0130196
755.406	0.0133225
755.484	0.0132825
755.562	0.0131683
755.640	0.0132755
755.718	0.0131616
755.796	0.0132405
755.874	0.0132927
755.953	0.0130872
756.031	0.0132071
756.109	0.0131218
756.187	0.0131639
756.265	0.0133524
756.343	0.0132523
756.421	0.0132801
756.499	0.0133586
756.578	0.0133225
756.656	0.0132599
756.734	0.0132732
756.812	0.0133506
756.890	0.0135686
756.968	0.0135403
757.046	0.0134060
757.124	0.0134458
757.203	0.0135551
757.281	0.0134108
757.359	0.0136004
757.437	0.0136327
757.515	0.0138219
757.593	0.0138071
757.671	0.0136259
757.749	0.0137101
757.828	0.0137716
757.906	0.0137947
757.984	0.0138773
758.062	0.0137321
758.140	0.0136710
758.218	0.0138402
758.296	0.0137587
758.374	0.0136723
758.453	0.0136391
758.531	0.0135493
758.609	0.0136066
758.687	0.0133959
758.765	0.0134520
758.843	0.0133100
758.921	0.0132716
758.999	0.0132821
759.078	0.0132509
759.156	0.0130839
759.234	0.0130148
759.312	0.0130658
759.390	0.0131268
759.468	0.0131021
759.546	0.0131773
759.624	0.0131696
759.703	0.0130629
759.781	0.0131927
759.859	0.0132103
759.937	0.0132156
760.015	0.0131635
760.093	0.0134052
760.171	0.0134235
760.249	0.0133172
760.328	0.0134667
760.406	0.0134187
760.484	0.0132862
760.562	0.0134051
760.640	0.0133016
760.718	0.0131978
760.796	0.0132141
760.874	0.0132723
760.953	0.0134203
761.031	0.0135559
761.109	0.0134758
761.187	0.0133520
761.265	0.0135105
761.343	0.0135841
761.421	0.0136243
761.499	0.0134723
761.578	0.0135761
761.656	0.0136590
761.734	0.0136523
761.812	0.0135745
761.890	0.0135887
761.968	0.0135211
762.046	0.0136446
762.124	0.0135228
762.203	0.0135973
762.281	0.0136386
762.359	0.0135789
762.437	0.0135041
762.515	0.0136207
762.593	0.0136652
762.671	0.0137508
762.749	0.0135603
762.828	0.0135984
762.906	0.0137379
762.984	0.0136874
763.062	0.0135368
763.140	0.0135753
763.218	0.0134903
763.296	0.0134058
763.374	0.0134933
763.453	0.0134929
763.531	0.0134059
763.609	0.0134554
763.687	0.0134380
763.765	0.0134910
763.843	0.0133430
763.921	0.0133909
763.999	0.0132661
764.078	0.0133059
764.156	0.0133864
764.234	0.0133952
764.312	0.0133197
764.390	0.0134550
764.468	0.0133360
764.546	0.0132614
764.624	0.0133169
764.703	0.0131991
764.781	0.0131316
764.859	0.0133738
764.937	0.0131654
765.015	0.0133157
765.093	0.0133723
765.171	0.0133512
765.249	0.0132374
765.328	0.0134491
765.406	0.0134107
765.484	0.0134686
765.562	0.0134225
765.640	0.0133704
765.718	0.0133535
765.796	0.0134724
765.874	0.0135050
765.953	0.0135833
766.031	0.0134653
766.109	0.0135231
766.187	0.0135397
766.265	0.0134929
766.343	0.0136260
766.421	0.0137266
766.499	0.0136195
766.578	0.0136510
766.656	0.0137239
766.734	0.0137164
766.812	0.0137719
766.890	0.0137247
766.968	0.0136756
767.046	0.0138145
767.124	0.0138840
767.203	0.0139756
767.281	0.0137946
767.359	0.0138657
767.437	0.0139468
767.515	0.0138573
767.593	0.0139301
767.671	0.0138030
767.749	0.0138152
767.828	0.0137587
767.906	0.0136909
767.984	0.0136341
768.062	0.0136315
768.140	0.0135901
768.218	0.0136567
768.296	0.0135484
768.374	0.0135042
768.453	0.0135090
768.531	0.0133704
768.609	0.0134877
768.687	0.0136605
768.765	0.0135950
768.843	0.0135173
768.921	0.0134765
768.999	0.0134922
769.078	0.0134542
769.156	0.0134589
769.234	0.0135931
769.312	0.0135773
769.390	0.0135695
769.468	0.0134666
769.546	0.0134486
769.624	0.0134986
769.703	0.0134975
769.781	0.0134719
769.859	0.0134983
769.937	0.0136263
770.015	0.0134082
770.093	0.0135265
770.171	0.0135954
770.249	0.0136058
770.328	0.0136750
770.406	0.0135577
770.484	0.0136205
770.562	0.0136111
770.640	0.0135809
770.718	0.0136242
770.796	0.0137260
770.874	0.0136662
770.953	0.0136692
771.031	0.0137519
771.109	0.0136024
771.187	0.0138081
771.265	0.0137870
771.343	0.0137074
771.421	0.0137598
771.499	0.0137402
771.578	0.0139333
771.656	0.0138047
771.734	0.0137534
771.812	0.0138364
771.890	0.0138427
771.968	0.0137413
772.046	0.0138263
772.124	0.0135582
772.203	0.0136689
772.281	0.0138036
772.359	0.0138567
772.437	0.0137337
772.515	0.0136298
772.593	0.0135582
772.671	0.0136720
772.749	0.0136208
772.828	0.0135371
772.906	0.0135231
772.984	0.0136078
773.062	0.0136742
773.140	0.0134205
773.218	0.0134946
773.296	0.0135986
773.374	0.0135507
773.453	0.0135291
773.531	0.0134148
773.609	0.0134702
773.687	0.0135639
773.765	0.0134446
773.843	0.0133871
773.921	0.0134129
773.999	0.0134559
774.078	0.0134714
774.156	0.0135762
774.234	0.0135580
774.312	0.0135855
774.390	0.0135317
774.468	0.0135824
774.546	0.0136153
774.624	0.0135582
774.703	0.0135489
774.781	0.0138068
774.859	0.0137873
774.937	0.0138762
775.015	0.0139167
775.093	0.0138334
775.171	0.0137405
775.249	0.0138139
775.328	0.0138237
775.406	0.0137567
775.484	0.0137387
775.562	0.0136890
775.640	0.0136999
775.718	0.0134516
775.796	0.0136286
775.874	0.0134776
775.953	0.0134229
776.031	0.0133745
776.109	0.0135317
776.187	0.0134515
776.265	0.0133653
776.343	0.0135128
776.421	0.0134845
776.499	0.0135091
776.578	0.0134224
776.656	0.0134818
776.734	0.0134578
776.812	0.0133678
776.890	0.0134157
776.968	0.0135112
777.046	0.0135676
777.124	0.0134831
777.203	0.0134779
777.281	0.0135883
777.359	0.0135571
777.437	0.0134451
777.515	0.0134767
777.593	0.0134347
777.671	0.0135175
777.749	0.0135424
777.828	0.0133967
777.906	0.0135504
777.984	0.0136267
778.062	0.0135315
778.140	0.0135860
778.218	0.0136884
778.296	0.0137434
778.374	0.0138470
778.453	0.0137938
778.531	0.0138104
778.609	0.0138251
778.687	0.0137670
778.765	0.0138193
778.843	0.0137757
778.921	0.0138407
778.999	0.0139769
779.078	0.0140879
779.156	0.0138464
779.234	0.0138311
779.312	0.0138773
779.390	0.0138152
779.468	0.0139189
779.546	0.0138804
779.624	0.0138499
779.703	0.0136816
779.781	0.0136671
779.859	0.0134368
779.937	0.0135772
780.015	0.0135026
780.093	0.0136343
780.171	0.0134597
780.249	0.0133606
780.328	0.0133110
780.406	0.0132623
780.484	0.0134718
780.562	0.0133865
780.640	0.0134798
780.718	0.0133686
780.796	0.0133790
780.874	0.0133739
780.953	0.0135586
781.031	0.0133783
781.109	0.0133353
781.187	0.0133580
781.265	0.0133217
781.343	0.0135492
781.421	0.0134362
781.499	0.0135016
781.578	0.0135542
781.656	0.0135994
781.734	0.0135280
781.812	0.0135813
781.890	0.0135764
781.968	0.0135315
782.046	0.0137049
782.124	0.0137106
782.203	0.0137074
782.281	0.0136333
782.359	0.0137319
782.437	0.0137354
782.515	0.0135612
782.593	0.0136746
782.671	0.0137223
782.749	0.0137103
782.828	0.0137222
782.906	0.0136292
782.984	0.0137428
783.062	0.0137212
783.140	0.0138200
783.218	0.0137007
783.296	0.0139084
783.374	0.0138966
783.453	0.0139906
783.531	0.0138598
783.609	0.0136713
783.687	0.0139072
783.765	0.0137499
783.843	0.0138733
783.921	0.0137353
783.999	0.0136852
784.078	0.0137083
784.156	0.0135486
784.234	0.0136035
784.312	0.0136015
784.390	0.0134138
784.468	0.0134675
784.546	0.0134380
784.624	0.0132870
784.703	0.0131957
784.781	0.0132938
784.859	0.0132388
784.937	0.0131272
785.015	0.0132042
785.093	0.0133348
785.171	0.0130540
785.249	0.0131797
785.328	0.0131985
785.406	0.0130544
785.484	0.0130042
785.562	0.0132105
785.640	0.0130328
785.718	0.0130485
785.796	0.0131262
785.874	0.0130401
785.953	0.0131771
786.031	0.0131599
786.109	0.0132471
786.187	0.0135474
786.265	0.0134485
786.343	0.0133897
786.421	0.0134144
786.499	0.0136813
786.578	0.0136233
786.656	0.0136800
786.734	0.0135920
786.812	0.0137537
786.890	0.0138271
786.968	0.0138671
787.046	0.0138293
787.124	0.0139259
787.203	0.0138812
787.281	0.0138963
787.359	0.0139035
787.437	0.0138520
787.515	0.0137457
787.593	0.0138646
787.671	0.0137765
787.749	0.0137286
787.828	0.0137993
787.906	0.0137971
787.984	0.0137281
788.062	0.0137764
788.140	0.0136851
788.218	0.0137199
788.296	0.0135710
788.374	0.0136404
788.453	0.0134855
788.531	0.0137095
788.609	0.0135380
788.687	0.0135645
788.765	0.0136006
788.843	0.0134713
788.921	0.0134830
788.999	0.0134547
789.078	0.0133923
789.156	0.0132831
789.234	0.0133674
789.312	0.0133579
789.390	0.0132291
789.468	0.0132266
789.546	0.0133772
789.624	0.0131050
789.703	0.0131558
789.781	0.0130879
789.859	0.0131326
789.937	0.0130681
790.015	0.0131420
790.093	0.0129332
790.171	0.0130946
790.249	0.0129328
790.328	0.0130801
790.406	0.0132816
790.484	0.0133520
790.562	0.0132307
790.640	0.0132737
790.718	0.0133064
790.796	0.0133288
790.874	0.0132705
790.953	0.0133652
791.031	0.0133743
791.109	0.0135690
791.187	0.0133424
791.265	0.0134715
791.343	0.0134593
791.421	0.0133704
791.499	0.0134605
791.578	0.0134135
791.656	0.0134672
791.734	0.0135236
791.812	0.0135289
791.890	0.0134237
791.968	0.0135198
792.046	0.0135725
792.124	0.0134804
792.203	0.0135156
792.281	0.0135515
792.359	0.0136026
792.437	0.0134647
792.515	0.0134389
792.593	0.0135937
792.671	0.0135933
792.749	0.0136033
792.828	0.0136761
792.906	0.0135979
792.984	0.0138399
793.062	0.0137578
793.140	0.0137505
793.218	0.0138241
793.296	0.0137773
793.374	0.0137205
793.453	0.0139261
793.531	0.0138937
793.609	0.0138636
793.687	0.0138283
793.765	0.0137541
793.843	0.0137891
793.921	0.0136548
793.999	0.0138631
794.078	0.0138017
794.156	0.0137433
794.234	0.0136998
794.312	0.0138095
794.390	0.0135836
794.468	0.0136407
794.546	0.0137103
794.624	0.0135336
794.703	0.0136301
794.781	0.0134397
794.859	0.0135773
794.937	0.0135706
795.015	0.0136170
795.093	0.0134348
795.171	0.0134315
795.249	0.0133768
795.328	0.0133054
795.406	0.0134753
795.484	0.0133334
795.562	0.0132666
795.640	0.0133720
795.718	0.0132507
795.796	0.0132650
795.874	0.0132708
795.953	0.0133549
796.031	0.0133266
796.109	0.0133479
796.187	0.0134084
796.265	0.0135158
796.343	0.0135067
796.421	0.0135579
796.499	0.0136243
796.578	0.0137315
796.656	0.0135919
796.734	0.0137418
796.812	0.0137498
796.890	0.0137045
796.968	0.0137192
797.046	0.0137108
797.124	0.0135844
797.203	0.0136060
797.281	0.0135729
797.359	0.0135725
797.437	0.0135806
797.515	0.0135452
797.593	0.0134494
797.671	0.0135477
797.749	0.0134472
797.828	0.0134811
797.906	0.0133542
797.984	0.0134305
798.062	0.0135305
798.140	0.0137266
798.218	0.0135024
798.296	0.0134854
798.374	0.0135734
798.453	0.0136099
798.531	0.0136432
798.609	0.0135911
798.687	0.0136858
798.765	0.0137149
798.843	0.0136967
798.921	0.0137145
798.999	0.0137101
799.078	0.0136916
799.156	0.0137672
799.234	0.0137859
799.312	0.0138245
799.390	0.0137434
799.468	0.0138229
799.546	0.0138766
799.624	0.0138420
799.703	0.0138878
799.781	0.0138482
799.859	0.0139027
799.937	0.0138478
800.015	0.0138997
800.093	0.0138976
800.171	0.0139677
800.249	0.0137963
800.328	0.0139273
800.406	0.0137238
800.484	0.0137688
800.562	0.0137558
800.640	0.0139032
800.718	0.0137780
800.796	0.0138493
800.874	0.0137366
800.953	0.0136524
801.031	0.0135575
801.109	0.0134130
801.187	0.0135789
801.265	0.0134056
801.343	0.0133974
801.421	0.0134559
801.499	0.0133156
801.578	0.0134528
801.656	0.0134170
801.734	0.0134876
801.812	0.0133758
801.890	0.0136007
801.968	0.0135361
802.046	0.0135197
802.124	0.0134947
802.203	0.0136544
802.281	0.0135932
802.359	0.0135611
802.437	0.0136512
802.515	0.0136808
802.593	0.0136304
802.671	0.0135902
802.749	0.0136021
802.828	0.0136062
802.906	0.0137029
802.984	0.0137634
803.062	0.0136974
803.140	0.0136480
803.218	0.0137603
803.296	0.0137921
803.374	0.0138363
803.453	0.0138861
803.531	0.0138885
803.609	0.0137605
803.687	0.0139283
803.765	0.0139830
803.843	0.0138233
803.921	0.0138988
803.999	0.0139108
804.078	0.0138464
804.156	0.0138726
804.234	0.0136112
804.312	0.0137691
804.390	0.0138474
804.468	0.0135587
804.546	0.0136590
804.624	0.0135069
804.703	0.0135490
804.781	0.0135592
804.859	0.0134289
804.937	0.0133824
805.015	0.0133868
805.093	0.0133105
805.171	0.0134560
805.249	0.0134745
805.328	0.0134541
805.406	0.0134851
805.484	0.0134647
805.562	0.0135440
805.640	0.0135108
805.718	0.0134723
805.796	0.0135122
805.874	0.0134375
805.953	0.0133587
806.031	0.0135159
806.109	0.0134515
806.187	0.0133842
806.265	0.0133361
806.343	0.0134328
806.421	0.0133571
806.499	0.0134927
806.578	0.0135166
806.656	0.0133401
806.734	0.0133951
806.812	0.0135021
806.890	0.0135928
806.968	0.0134501
807.046	0.0136109
807.124	0.0136659
807.203	0.0135865
807.281	0.0137617
807.359	0.0137218
807.437	0.0138182
807.515	0.0137408
807.593	0.0138867
807.671	0.0138073
807.749	0.0137802
807.828	0.0137862
807.906	0.0136842
807.984	0.0139386
808.062	0.0137617
808.140	0.0137493
808.218	0.0137517
808.296	0.0137131
808.374	0.0137228
808.453	0.0136768
808.531	0.0137180
808.609	0.0136813
808.687	0.0136860
808.765	0.0136521
808.843	0.0136603
808.921	0.0135811
808.999	0.0134891
809.078	0.0135432
809.156	0.0136871
809.234	0.0136073
809.312	0.0135397
809.390	0.0134373
809.468	0.0135179
809.546	0.0134697
809.624	0.0134458
809.703	0.0134825
809.781	0.0134894
809.859	0.0134084
809.937	0.0133159
810.015	0.0133794
810.093	0.0135047
810.171	0.0135289
810.249	0.0135770
810.328	0.0137307
810.406	0.0134689
810.484	0.0134181
810.562	0.0135000
810.640	0.0135435
810.718	0.0136327
810.796	0.0136337
810.874	0.0134726
810.953	0.0137274
811.031	0.0136356
811.109	0.0136776
811.187	0.0135409
811.265	0.0136324
811.343	0.0136630
811.421	0.0134800
811.499	0.0133445
811.578	0.0136359
811.656	0.0135393
811.734	0.0135382
811.812	0.0134664
811.890	0.0134556
811.968	0.0134746
812.046	0.0135399
812.124	0.0135247
812.203	0.0134971
812.281	0.0134917
812.359	0.0133209
812.437	0.0133089
812.515	0.0134646
812.593	0.0134032
812.671	0.0134502
812.749	0.0135269
812.828	0.0135089
812.906	0.0134808
812.984	0.0133472
813.062	0.0135062
813.140	0.0133960
813.218	0.0134572
813.296	0.0136034
813.374	0.0135204
813.453	0.0134661
813.531	0.0134424
813.609	0.0133869
813.687	0.0134368
813.765	0.0135175
813.843	0.0134367
813.921	0.0132761
813.999	0.0135574
814.078	0.0135071
814.156	0.0134037
814.234	0.0132713
814.312	0.0134322
814.390	0.0134860
814.468	0.0134560
814.546	0.0134647
814.624	0.0133423
814.703	0.0134128
814.781	0.0132716
814.859	0.0133611
814.937	0.0133486
815.015	0.0134165
815.093	0.0134284
815.171	0.0134013
815.249	0.0133100
815.328	0.0133189
815.406	0.0133997
815.484	0.0133778
815.562	0.0131949
815.640	0.0133762
815.718	0.0135009
815.796	0.0135147
815.874	0.0132674
815.953	0.0135148
816.031	0.0132485
816.109	0.0133952
816.187	0.0133990
816.265	0.0133622
816.343	0.0133239
816.421	0.0133491
816.499	0.0134183
816.578	0.0135674
816.656	0.0133392
816.734	0.0133569
816.812	0.0132520
816.890	0.0132333
816.968	0.0134134
817.046	0.0133490
817.124	0.0131532
817.203	0.0132132
817.281	0.0132914
817.359	0.0132783
817.437	0.0132586
817.515	0.0132687
817.593	0.0132484
817.671	0.0132492
817.749	0.0133200
817.828	0.0133788
817.906	0.0132442
817.984	0.0132355
818.062	0.0134053
818.140	0.0134657
818.218	0.0133758
818.296	0.0134673
818.374	0.0134355
818.453	0.0135446
818.531	0.0135944
818.609	0.0136513
818.687	0.0137384
818.765	0.0135982
818.843	0.0135329
818.921	0.0135831
818.999	0.0136552
819.078	0.0136290
819.156	0.0136739
819.234	0.0137739
819.312	0.0137685
819.390	0.0137477
819.468	0.0137547
819.546	0.0137733
819.624	0.0136607
819.703	0.0136073
819.781	0.0134606
819.859	0.0135060
819.937	0.0133827
820.015	0.0133856
820.093	0.0134532
820.171	0.0132478
820.249	0.0133766
820.328	0.0132899
820.406	0.0133865
820.484	0.0133630
820.562	0.0134365
820.640	0.0132622
820.718	0.0131588
820.796	0.0131251
820.874	0.0132055
820.953	0.0131992
821.031	0.0134209
821.109	0.0133473
821.187	0.0132250
821.265	0.0132116
821.343	0.0133221
821.421	0.0133240
821.499	0.0134995
821.578	0.0135239
821.656	0.0134637
821.734	0.0133652
821.812	0.0134421
821.890	0.0135349
821.968	0.0135882
822.046	0.0136147
822.124	0.0137051
822.203	0.0136256
822.281	0.0137119
822.359	0.0136776
822.437	0.0136324
822.515	0.0136210
822.593	0.0137546
822.671	0.0137795
822.749	0.0137710
822.828	0.0137040
822.906	0.0137171
822.984	0.0136476
823.062	0.0138037
823.140	0.0135271
823.218	0.0135190
823.296	0.0134776
823.374	0.0135706
823.453	0.0135734
823.531	0.0135163
823.609	0.0137251
823.687	0.0136333
823.765	0.0134650
823.843	0.0135596
823.921	0.0136233
823.999	0.0135146
824.078	0.0134933
824.156	0.0135610
824.234	0.0135952
824.312	0.0135738
824.390	0.0135731
824.468	0.0136002
824.546	0.0134109
824.624	0.0134691
824.703	0.0135155
824.781	0.0134755
824.859	0.0136248
824.937	0.0134312
825.015	0.0135593
825.093	0.0135127
825.171	0.0134705
825.249	0.0135060
825.328	0.0136231
825.406	0.0135751
825.484	0.0136334
825.562	0.0135600
825.640	0.0135835
825.718	0.0135071
825.796	0.0135848
825.874	0.0134887
825.953	0.0136461
826.031	0.0135865
826.109	0.0137603
826.187	0.0136105
826.265	0.0134858
826.343	0.0135713
826.421	0.0134889
826.499	0.0135362
826.578	0.0136314
826.656	0.0136326
826.734	0.0137523
826.812	0.0136043
826.890	0.0136538
826.968	0.0137302
827.046	0.0137092
827.124	0.0137032
827.203	0.0137644
827.281	0.0136973
827.359	0.0137129
827.437	0.0138802
827.515	0.0138321
827.593	0.0138011
827.671	0.0137265
827.749	0.0137457
827.828	0.0137325
827.906	0.0136892
827.984	0.0136366
828.062	0.0135480
828.140	0.0136421
828.218	0.0135130
828.296	0.0135263
828.374	0.0136642
828.453	0.0136946
828.531	0.0137762
828.609	0.0137836
828.687	0.0136435
828.765	0.0134554
828.843	0.0136456
828.921	0.0136279
828.999	0.0135257
829.078	0.0133374
829.156	0.0136086
829.234	0.0135769
829.312	0.0134100
829.390	0.0135620
829.468	0.0136463
829.546	0.0135075
829.624	0.0135326
829.703	0.0136360
829.781	0.0135339
829.859	0.0135398
829.937	0.0135486
830.015	0.0137153
830.093	0.0135747
830.171	0.0136023
830.249	0.0136514
830.328	0.0136604
830.406	0.0135212
830.484	0.0136436
830.562	0.0136601
830.640	0.0135024
830.718	0.0135774
830.796	0.0136686
830.874	0.0136956
830.953	0.0137009
831.031	0.0135362
831.109	0.0136472
831.187	0.0135441
831.265	0.0136645
831.343	0.0134237
831.421	0.0134479
831.499	0.0135714
831.578	0.0136678
831.656	0.0136463
831.734	0.0136472
831.812	0.0136363
831.890	0.0136471
831.968	0.0136212
832.046	0.0134370
832.124	0.0136690
832.203	0.0135600
832.281	0.0135940
832.359	0.0137050
832.437	0.0136697
832.515	0.0135622
832.593	0.0136196
832.671	0.0135804
832.749	0.0135921
832.828	0.0136523
832.906	0.0135482
832.984	0.0134638
833.062	0.0135448
833.140	0.0134869
833.218	0.0135454
833.296	0.0135348
833.374	0.0134501
833.453	0.0136186
833.531	0.0135311
833.609	0.0135122
833.687	0.0134937
833.765	0.0135384
833.843	0.0136084
833.921	0.0135893
833.999	0.0135379
834.078	0.0136469
834.156	0.0134451
834.234	0.0135717
834.312	0.0135932
834.390	0.0134715
834.468	0.0135708
834.546	0.0135069
834.624	0.0134528
834.703	0.0136362
834.781	0.0134834
834.859	0.0135650
834.937	0.0134854
835.015	0.0135556
835.093	0.0134329
835.171	0.0134168
835.249	0.0134783
835.328	0.0135280
835.406	0.0134243
835.484	0.0133089
835.562	0.0133306
835.640	0.0133605
835.718	0.0134241
835.796	0.0134697
835.874	0.0133874
835.953	0.0132816
836.031	0.0134415
836.109	0.0133003
836.187	0.0134096
836.265	0.0135522
836.343	0.0135809
836.421	0.0134396
836.499	0.0134717
836.578	0.0135206
836.656	0.0134921
836.734	0.0136320
836.812	0.0135317
836.890	0.0133856
836.968	0.0134289
837.046	0.0134580
837.124	0.0134689
837.203	0.0135227
837.281	0.0135521
837.359	0.0133305
837.437	0.0134975
837.515	0.0134436
837.593	0.0132968
837.671	0.0134582
837.749	0.0133976
837.828	0.0134838
837.906	0.0134305
837.984	0.0135501
838.062	0.0135023
838.140	0.0132843
838.218	0.0134534
838.296	0.0135806
838.374	0.0135073
838.453	0.0135118
838.531	0.0134811
838.609	0.0134373
838.687	0.0135484
838.765	0.0134528
838.843	0.0135487
838.921	0.0135210
838.999	0.0133945
839.078	0.0135493
839.156	0.0135812
839.234	0.0134615
839.312	0.0133971
839.390	0.0135068
839.468	0.0134231
839.546	0.0134261
839.624	0.0134386
839.703	0.0135811
839.781	0.0134924
839.859	0.0135251
839.937	0.0136098
840.015	0.0135123
840.093	0.0134508
840.171	0.0135020
840.249	0.0134703
840.328	0.0134963
840.406	0.0135631
840.484	0.0136096
840.562	0.0134496
840.640	0.0136015
840.718	0.0134540
840.796	0.0135485
840.874	0.0134028
840.953	0.0135325
841.031	0.0134093
841.109	0.0136087
841.187	0.0134753
841.265	0.0135604
841.343	0.0134373
841.421	0.0133815
841.499	0.0134307
841.578	0.0135452
841.656	0.0135164
841.734	0.0133612
841.812	0.0133473
841.890	0.0133115
841.968	0.0132986
842.046	0.0133723
842.124	0.0131346
842.203	0.0131707
842.281	0.0133257
842.359	0.0133180
842.437	0.0133167
842.515	0.0132661
842.593	0.0135665
842.671	0.0132220
842.749	0.0132703
842.828	0.0133497
842.906	0.0134173
842.984	0.0134432
843.062	0.0134161
843.140	0.0134689
843.218	0.0135707
843.296	0.0135092
843.374	0.0134402
843.453	0.0134839
843.531	0.0135478
843.609	0.0135326
843.687	0.0135565
843.765	0.0134273
843.843	0.0134739
843.921	0.0134833
843.999	0.0135808
844.078	0.0135214
844.156	0.0135201
844.234	0.0136873
844.312	0.0136277
844.390	0.0135829
844.468	0.0136578
844.546	0.0138511
844.624	0.0137090
844.703	0.0136034
844.781	0.0136931
844.859	0.0135254
844.937	0.0136118
845.015	0.0137676
845.093	0.0137614
845.171	0.0134825
845.249	0.0137878
845.328	0.0136133
845.406	0.0135096
845.484	0.0135813
845.562	0.0136198
845.640	0.0134556
845.718	0.0134351
845.796	0.0134705
845.874	0.0134846
845.953	0.0133864
846.031	0.0134223
846.109	0.0133162
846.187	0.0134400
846.265	0.0132527
846.343	0.0132252
846.421	0.0134290
846.499	0.0134048
846.578	0.0132192
846.656	0.0132203
846.734	0.0132693
846.812	0.0132400
846.890	0.0133028
846.968	0.0134421
847.046	0.0134069
847.124	0.0131532
847.203	0.0133504
847.281	0.0134264
847.359	0.0135059
847.437	0.0133586
847.515	0.0134417
847.593	0.0133899
847.671	0.0135180
847.749	0.0135338
847.828	0.0136868
847.906	0.0137016
847.984	0.0135505
848.062	0.0135637
848.140	0.0136431
848.218	0.0137556
848.296	0.0137695
848.374	0.0136700
848.453	0.0138469
848.531	0.0137518
848.609	0.0138706
848.687	0.0138468
848.765	0.0138316
848.843	0.0139092
848.921	0.0138507
848.999	0.0138493
849.078	0.0137769
849.156	0.0137572
849.234	0.0138371
849.312	0.0137714
849.390	0.0137551
849.468	0.0138504
849.546	0.0136823
849.624	0.0136290
849.703	0.0136605
849.781	0.0135902
849.859	0.0135152
849.937	0.0135394
850.015	0.0134836
850.093	0.0134434
850.171	0.0134287
850.249	0.0135545
850.328	0.0133868
850.406	0.0132581
850.484	0.0133100
850.562	0.0132539
850.640	0.0132958
850.718	0.0131837
850.796	0.0133266
850.874	0.0132354
850.953	0.0132687
851.031	0.0131326
851.109	0.0133580
851.187	0.0133945
851.265	0.0134445
851.343	0.0133991
851.421	0.0134635
851.499	0.0135248
851.578	0.0133900
851.656	0.0135588
851.734	0.0135562
851.812	0.0136108
851.890	0.0137498
851.968	0.0137790
852.046	0.0138100
852.124	0.0139748
852.203	0.0139809
852.281	0.0139324
852.359	0.0139384
852.437	0.0140731
852.515	0.0140176
852.593	0.0139791
852.671	0.0140598
852.749	0.0141414
852.828	0.0139274
852.906	0.0139572
852.984	0.0138747
853.062	0.0139214
853.140	0.0138012
853.218	0.0137798
853.296	0.0137190
853.374	0.0136353
853.453	0.0137024
853.531	0.0134809
853.609	0.0135311
853.687	0.0134378
853.765	0.0133678
853.843	0.0132178
853.921	0.0131596
853.999	0.0132671
854.078	0.0129930
854.156	0.0131837
854.234	0.0131471
854.312	0.0131558
854.390	0.0131497
854.468	0.0132191
854.546	0.0132219
854.624	0.0131904
854.703	0.0132613
854.781	0.0132867
854.859	0.0132897
854.937	0.0133417
855.015	0.0132966
855.093	0.0134393
855.171	0.0135608
855.249	0.0135205
855.328	0.0136395
855.406	0.0136051
855.484	0.0136899
855.562	0.0137085
855.640	0.0137691
855.718	0.0137745
855.796	0.0135832
855.874	0.0135223
855.953	0.0138058
856.031	0.0137885
856.109	0.0136967
856.187	0.0137278
856.265	0.0138342
856.343	0.0138683
856.421	0.0138380
856.499	0.0139297
856.578	0.0139095
856.656	0.0139405
856.734	0.0140570
856.812	0.0140101
856.890	0.0139225
856.968	0.0139030
857.046	0.0138029
857.124	0.0138340
857.203	0.0135897
857.281	0.0137531
857.359	0.0137076
857.437	0.0137592
857.515	0.0138113
857.593	0.0136655
857.671	0.0136920
857.749	0.0135745
857.828	0.0135622
857.906	0.0135891
857.984	0.0134447
858.062	0.0136449
858.140	0.0133459
858.218	0.0134074
858.296	0.0133364
858.374	0.0134376
858.453	0.0133501
858.531	0.0133944
858.609	0.0132430
858.687	0.0132762
858.765	0.0132915
858.843	0.0133337
858.921	0.0131837
858.999	0.0132648
859.078	0.0133401
859.156	0.0133871
859.234	0.0133882
859.312	0.0134327
859.390	0.0134209
859.468	0.0133986
859.546	0.0135689
859.624	0.0134421
859.703	0.0133416
859.781	0.0135519
859.859	0.0136079
859.937	0.0137169
860.015	0.0136197
860.093	0.0136116
860.171	0.0137133
860.249	0.0136801
860.328	0.0136009
860.406	0.0135961
860.484	0.0135930
860.562	0.0136182
860.640	0.0135529
860.718	0.0135956
860.796	0.0136310
860.874	0.0136154
860.953	0.0136244
861.031	0.0135206
861.109	0.0135450
861.187	0.0136127
861.265	0.0136147
861.343	0.0136021
861.421	0.0136240
861.499	0.0137370
861.578	0.0137907
861.656	0.0135789
861.734	0.0137096
861.812	0.0136765
861.890	0.0137173
861.968	0.0135021
862.046	0.0136288
862.124	0.0136536
862.203	0.0135501
862.281	0.0135439
862.359	0.0135704
862.437	0.0134607
862.515	0.0134908
862.593	0.0134169
862.671	0.0133302
862.749	0.0133698
862.828	0.0134054
862.906	0.0134144
862.984	0.0133551
863.062	0.0132738
863.140	0.0134345
863.218	0.0133698
863.296	0.0133791
863.374	0.0132073
863.453	0.0134259
863.531	0.0134925
863.609	0.0134959
863.687	0.0135935
863.765	0.0134799
863.843	0.0135158
863.921	0.0135299
863.999	0.0134521
864.078	0.0134499
864.156	0.0135764
864.234	0.0135770
864.312	0.0134115
864.390	0.0135285
864.468	0.0133942
864.546	0.0134776
864.624	0.0135092
864.703	0.0135004
864.781	0.0133681
864.859	0.0135577
864.937	0.0135677
865.015	0.0134075
865.093	0.0134444
865.171	0.0137354
865.249	0.0137012
865.328	0.0135726
865.406	0.0136925
865.484	0.0137296
865.562	0.0136424
865.640	0.0138430
865.718	0.0138849
865.796	0.0137475
865.874	0.0138010
865.953	0.0139278
866.031	0.0138648
866.109	0.0137002
866.187	0.0136826
866.265	0.0136639
866.343	0.0137740
866.421	0.0136269
866.499	0.0137052
866.578	0.0137605
866.656	0.0136498
866.734	0.0137218
866.812	0.0137247
866.890	0.0135818
866.968	0.0136179
867.046	0.0137133
867.124	0.0136431
867.203	0.0135674
867.281	0.0136860
867.359	0.0137399
867.437	0.0135392
867.515	0.0135420
867.593	0.0136501
867.671	0.0135650
867.749	0.0134925
867.828	0.0134600
867.906	0.0134956
867.984	0.0134595
868.062	0.0135188
868.140	0.0135089
868.218	0.0135290
868.296	0.0134302
868.374	0.0134117
868.453	0.0135073
868.531	0.0133858
868.609	0.0136078
868.687	0.0135351
868.765	0.0136563
868.843	0.0135518
868.921	0.0135312
868.999	0.0135381
869.078	0.0135331
869.156	0.0135458
869.234	0.0135838
869.312	0.0135468
869.390	0.0135640
869.468	0.0135728
869.546	0.0137157
869.624	0.0136153
869.703	0.0134930
869.781	0.0136517
869.859	0.0135215
869.937	0.0135637
870.015	0.0137689
870.093	0.0136260
870.171	0.0135533
870.249	0.0136404
870.328	0.0137197
870.406	0.0134948
870.484	0.0136777
870.562	0.0138099
870.640	0.0137376
870.718	0.0135672
870.796	0.0137541
870.874	0.0138201
870.953	0.0136790
871.031	0.0137504
871.109	0.0137113
871.187	0.0136624
871.265	0.0135644
871.343	0.0134965
871.421	0.0136748
871.499	0.0135621
871.578	0.0134196
871.656	0.0134109
871.734	0.0134380
871.812	0.0132146
871.890	0.0133347
871.968	0.0133960
872.046	0.0133665
872.124	0.0134075
872.203	0.0133767
872.281	0.0132977
872.359	0.0133328
872.437	0.0134867
872.515	0.0133531
872.593	0.0134853
872.671	0.0133756
872.749	0.0133949
872.828	0.0134106
872.906	0.0135390
872.984	0.0136120
873.062	0.0136326
873.140	0.0136615
873.218	0.0135484
873.296	0.0134303
873.374	0.0133812
873.453	0.0134980
873.531	0.0136553
873.609	0.0137242
873.687	0.0134932
873.765	0.0135923
873.843	0.0135803
873.921	0.0136869
873.999	0.0135164
874.078	0.0135836
874.156	0.0134303
874.234	0.0135444
874.312	0.0136407
874.390	0.0135717
874.468	0.0135405
874.546	0.0135217
874.624	0.0135614
874.703	0.0135305
874.781	0.0135081
874.859	0.0134541
874.937	0.0134805
875.015	0.0135100
875.093	0.0134202
875.171	0.0133517
875.249	0.0133656
875.328	0.0134093
875.406	0.0133546
875.484	0.0132914
875.562	0.0133485
875.640	0.0134292
875.718	0.0134147
875.796	0.0134164
875.874	0.0134560
875.953	0.0134265
876.031	0.0133776
876.109	0.0135117
876.187	0.0134505
876.265	0.0133995
876.343	0.0133751
876.421	0.0133029
876.499	0.0133882
876.578	0.0133913
876.656	0.0134209
876.734	0.0135143
876.812	0.0134316
876.890	0.0135614
876.968	0.0136509
877.046	0.0135415
877.124	0.0134373
877.203	0.0134706
877.281	0.0135970
877.359	0.0136514
877.437	0.0136301
877.515	0.0135182
877.593	0.0136135
877.671	0.0137017
877.749	0.0136173
877.828	0.0137690
877.906	0.0137411
877.984	0.0137423
878.062	0.0136238
878.140	0.0136794
878.218	0.0136990
878.296	0.0136478
878.374	0.0136121
878.453	0.0136818
878.531	0.0135832
878.609	0.0136848
878.687	0.0138068
878.765	0.0137096
878.843	0.0136417
878.921	0.0135878
878.999	0.0137171
879.078	0.0136974
879.156	0.0136367
879.234	0.0136277
879.312	0.0135400
879.390	0.0136578
879.468	0.0135646
879.546	0.0134791
879.624	0.0134434
879.703	0.0134281
879.781	0.0134124
879.859	0.0133757
879.937	0.0133437
880.015	0.0133653
880.093	0.0134460
880.171	0.0133383
880.249	0.0133525
880.328	0.0133828
880.406	0.0134027
880.484	0.0134124
880.562	0.0134695
880.640	0.0134367
880.718	0.0136044
880.796	0.0134965
880.874	0.0135902
880.953	0.0135001
881.031	0.0136375
881.109	0.0136143
881.187	0.0135606
881.265	0.0136042
881.343	0.0136627
881.421	0.0136083
881.499	0.0135516
881.578	0.0136827
881.656	0.0136787
881.734	0.0136575
881.812	0.0138155
881.890	0.0137562
881.968	0.0138412
882.046	0.0137332
882.124	0.0138456
882.203	0.0139050
882.281	0.0139273
882.359	0.0137666
882.437	0.0137649
882.515	0.0139086
882.593	0.0139172
882.671	0.0138206
882.749	0.0137062
882.828	0.0137477
882.906	0.0137814
882.984	0.0137164
883.062	0.0137336
883.140	0.0139053
883.218	0.0137441
883.296	0.0137179
883.374	0.0136249
883.453	0.0137330
883.531	0.0137808
883.609	0.0134599
883.687	0.0135999
883.765	0.0137196
883.843	0.0135574
883.921	0.0134938
883.999	0.0134682
884.078	0.0133857
884.156	0.0134370
884.234	0.0134157
884.312	0.0134284
884.390	0.0132714
884.468	0.0133022
884.546	0.0133640
884.624	0.0134107
884.703	0.0132726
884.781	0.0133241
884.859	0.0132977
884.937	0.0133374
885.015	0.0134217
885.093	0.0132960
885.171	0.0133286
885.249	0.0133488
885.328	0.0136331
885.406	0.0134264
885.484	0.0133483
885.562	0.0134974
885.640	0.0137669
885.718	0.0136883
885.796	0.0135709
885.874	0.0135690
885.953	0.0136345
886.031	0.0137088
886.109	0.0136514
886.187	0.0134983
886.265	0.0135394
886.343	0.0134255
886.421	0.0135889
886.499	0.0136509
886.578	0.0135787
886.656	0.0136823
886.734	0.0134230
886.812	0.0134873
886.890	0.0135887
886.968	0.0135755
887.046	0.0136063
887.124	0.0136259
887.203	0.0136430
887.281	0.0136679
887.359	0.0136246
887.437	0.0137084
887.515	0.0136710
887.593	0.0137873
887.671	0.0138223
887.749	0.0139178
887.828	0.0137199
887.906	0.0137807
887.984	0.0137656
888.062	0.0138232
888.140	0.0138579
888.218	0.0138634
888.296	0.0137678
888.374	0.0138474
888.453	0.0139369
888.531	0.0137885
888.609	0.0136538
888.687	0.0137761
888.765	0.0137888
888.843	0.0136664
888.921	0.0135622
888.999	0.0138090
889.078	0.0137357
889.156	0.0135509
889.234	0.0134531
889.312	0.0136605
889.390	0.0135291
889.468	0.0135815
889.546	0.0136646
889.624	0.0135667
889.703	0.0135271
889.781	0.0134749
889.859	0.0135257
889.937	0.0134368
890.015	0.0133958
890.093	0.0132934
890.171	0.0134571
890.249	0.0133778
890.328	0.0133381
890.406	0.0133897
890.484	0.0133796
890.562	0.0135225
890.640	0.0133829
890.718	0.0134016
890.796	0.0133466
890.874	0.0135490
890.953	0.0134838
891.031	0.0135398
891.109	0.0136877
891.187	0.0135387
891.265	0.0134644
891.343	0.0136442
891.421	0.0136425
891.499	0.0136200
891.578	0.0136324
891.656	0.0137055
891.734	0.0136813
891.812	0.0136839
891.890	0.0138422
891.968	0.0135970
892.046	0.0137076
892.124	0.0136153
892.203	0.0137220
892.281	0.0136246
892.359	0.0135936
892.437	0.0135630
892.515	0.0135600
892.593	0.0135500
892.671	0.0135219
892.749	0.0134776
892.828	0.0136311
892.906	0.0134377
892.984	0.0135287
893.062	0.0134371
893.140	0.0133380
893.218	0.0134406
893.296	0.0134329
893.374	0.0134174
893.453	0.0134001
893.531	0.0134444
893.609	0.0133589
893.687	0.0133672
893.765	0.0133950
893.843	0.0133784
893.921	0.0135595
893.999	0.0134772
894.078	0.0135074
894.156	0.0134415
894.234	0.0135098
894.312	0.0134380
894.390	0.0133857
894.468	0.0134888
894.546	0.0134740
894.624	0.0135445
894.703	0.0135062
894.781	0.0135893
894.859	0.0136859
894.937	0.0136281
895.015	0.0136407
895.093	0.0136502
895.171	0.0137284
895.249	0.0137572
895.328	0.0136381
895.406	0.0136811
895.484	0.0137040
895.562	0.0136308
895.640	0.0137055
895.718	0.0138232
895.796	0.0137365
895.874	0.0136171
895.953	0.0135309
896.031	0.0135648
896.109	0.0135587
896.187	0.0135062
896.265	0.0133836
896.343	0.0135236
896.421	0.0136731
896.499	0.0133817
896.578	0.0135123
896.656	0.0135408
896.734	0.0135294
896.812	0.0135253
896.890	0.0134856
896.968	0.0134372
897.046	0.0135613
897.124	0.0136117
897.203	0.0135162
897.281	0.0133371
897.359	0.0134618
897.437	0.0135549
897.515	0.0134682
897.593	0.0135210
897.671	0.0138085
897.749	0.0135258
897.828	0.0135351
897.906	0.0136620
897.984	0.0136211
898.062	0.0136807
898.140	0.0136991
898.218	0.0136323
898.296	0.0135408
898.374	0.0136286
898.453	0.0136129
898.531	0.0135897
898.609	0.0134647
898.687	0.0135547
898.765	0.0135142
898.843	0.0134136
898.921	0.0135773
898.999	0.0133800
899.078	0.0134441
899.156	0.0135605
899.234	0.0134546
899.312	0.0135024
899.390	0.0134842
899.468	0.0136118
899.546	0.0134138
899.624	0.0136677
899.703	0.0136468
899.781	0.0136003
899.859	0.0134941
899.937	0.0134579
900.015	0.0134864
900.093	0.0135508
900.171	0.0133947
900.249	0.0135594
900.328	0.0134303
900.406	0.0135358
900.484	0.0134833
900.562	0.0135129
900.640	0.0136317
900.718	0.0135967
900.796	0.0134365
900.874	0.0134283
900.953	0.0134686
901.031	0.0135266
901.109	0.0133601
901.187	0.0135413
901.265	0.0134993
901.343	0.0134785
901.421	0.0133621
901.499	0.0133315
901.578	0.0135986
901.656	0.0134908
901.734	0.0135273
901.812	0.0135948
901.890	0.0134158
901.968	0.0135152
902.046	0.0134297
902.124	0.0134215
902.203	0.0134305
902.281	0.0132672
902.359	0.0133805
902.437	0.0133469
902.515	0.0133276
902.593	0.0134463
902.671	0.0132696
902.749	0.0135062
902.828	0.0133705
902.906	0.0135088
902.984	0.0135689
903.062	0.0134388
903.140	0.0135298
903.218	0.0135183
903.296	0.0135788
903.374	0.0135749
903.453	0.0137277
903.531	0.0137623
903.609	0.0136156
903.687	0.0137543
903.765	0.0137545
903.843	0.0138255
903.921	0.0138429
903.999	0.0139219
904.078	0.0138232
904.156	0.0138802
904.234	0.0138430
904.312	0.0137907
904.390	0.0138258
904.468	0.0137991
904.546	0.0138615
904.624	0.0137959
904.703	0.0136680
904.781	0.0137896
904.859	0.0136430
904.937	0.0136032
905.015	0.0138518
905.093	0.0137371
905.171	0.0135875
905.249	0.0134025
905.328	0.0135238
905.406	0.0135616
905.484	0.0134559
905.562	0.0135530
905.640	0.0134231
905.718	0.0134682
905.796	0.0133888
905.874	0.0133485
905.953	0.0133350
906.031	0.0131828
906.109	0.0133322
906.187	0.0133044
906.265	0.0132710
906.343	0.0131729
906.421	0.0132376
906.499	0.0131277
906.578	0.0133498
906.656	0.0132952
906.734	0.0132754
906.812	0.0132704
906.890	0.0132653
906.968	0.0133223
907.046	0.0133427
907.124	0.0132574
907.203	0.0133492
907.281	0.0132693
907.359	0.0133889
907.437	0.0134200
907.515	0.0134649
907.593	0.0134258
907.671	0.0135077
907.749	0.0135602
907.828	0.0136613
907.906	0.0136108
907.984	0.0136659
908.062	0.0135040
908.140	0.0138553
908.218	0.0137126
908.296	0.0135559
908.374	0.0136448
908.453	0.0136541
908.531	0.0137627
908.609	0.0137284
908.687	0.0136494
908.765	0.0137461
908.843	0.0138665
908.921	0.0136919
908.999	0.0137420
909.078	0.0138383
909.156	0.0136776
909.234	0.0138211
909.312	0.0137752
909.390	0.0138221
909.468	0.0137049
909.546	0.0136103
909.624	0.0137949
909.703	0.0136631
909.781	0.0137542
909.859	0.0136658
909.937	0.0135521
910.015	0.0135188
910.093	0.0136062
910.171	0.0137486
910.249	0.0136463
910.328	0.0134738
910.406	0.0136219
910.484	0.0134740
910.562	0.0136177
910.640	0.0135580
910.718	0.0134241
910.796	0.0135661
910.874	0.0133846
910.953	0.0135049
911.031	0.0135502
911.109	0.0135122
911.187	0.0136582
911.265	0.0136140
911.343	0.0133943
911.421	0.0134351
911.499	0.0134372
911.578	0.0133615
911.656	0.0134783
911.734	0.0134564
911.812	0.0134898
911.890	0.0134981
911.968	0.0134019
912.046	0.0134138
912.124	0.0135519
912.203	0.0133558
912.281	0.0133733
912.359	0.0134663
912.437	0.0134158
912.515	0.0135461
912.593	0.0133759
912.671	0.0134017
912.749	0.0133208
912.828	0.0134975
912.906	0.0135623
912.984	0.0135385
913.062	0.0134329
913.140	0.0135944
913.218	0.0136936
913.296	0.0135949
913.374	0.0135915
913.453	0.0135792
913.531	0.0135985
913.609	0.0136984
913.687	0.0136577
913.765	0.0136790
913.843	0.0137706
913.921	0.0135924
913.999	0.0137981
914.078	0.0137143
914.156	0.0135629
914.234	0.0136311
914.312	0.0136817
914.390	0.0136746
914.468	0.0135069
914.546	0.0135601
914.624	0.0137355
914.703	0.0134450
914.781	0.0134932
914.859	0.0136146
914.937	0.0135863
915.015	0.0134637
915.093	0.0134833
915.171	0.0133617
915.249	0.0133357
915.328	0.0132970
915.406	0.0134696
915.484	0.0134780
915.562	0.0135711
915.640	0.0134943
915.718	0.0135143
915.796	0.0136190
915.874	0.0136620
915.953	0.0135260
916.031	0.0136452
916.109	0.0135683
916.187	0.0135744
916.265	0.0135864
916.343	0.0135545
916.421	0.0135802
916.499	0.0135552
916.578	0.0136599
916.656	0.0136379
916.734	0.0136706
916.812	0.0136774
916.890	0.0136427
916.968	0.0135814
917.046	0.0136217
917.124	0.0136687
917.203	0.0134013
917.281	0.0135551
917.359	0.0135313
917.437	0.0134759
917.515	0.0135577
917.593	0.0135033
917.671	0.0134991
917.749	0.0134951
917.828	0.0135551
917.906	0.0134819
917.984	0.0134575
918.062	0.0135944
918.140	0.0133878
918.218	0.0134064
918.296	0.0135404
918.374	0.0135053
918.453	0.0133973
918.531	0.0134050
918.609	0.0133835
918.687	0.0133408
918.765	0.0132687
918.843	0.0133242
918.921	0.0134721
918.999	0.0133286
919.078	0.0132924
919.156	0.0133257
919.234	0.0134668
919.312	0.0133747
919.390	0.0134333
919.468	0.0134098
919.546	0.0134567
919.624	0.0135132
919.703	0.0135033
919.781	0.0135918
919.859	0.0136421
919.937	0.0135526
