05/08/2022	20:11:21	Ver.	4.1	UNKNOWN
Optical Delay	600.015094	Delta X		0.078125	Sweeps	1	Scan Rate	0/0
Coordinates	Axis 1	NaN	Axis 2	NaN	Axis 3	NaN	Axis 4	NaN	Axis 5	NaN	Axis 6	0.000000
TX Power	0.000000	RX Power	0.000000

600.015	0.0141151
600.093	0.0142553
600.171	0.0140428
600.249	0.0140766
600.328	0.0141993
600.406	0.0142082
600.484	0.0141136
600.562	0.0140828
600.640	0.0141795
600.718	0.0141457
600.796	0.0142466
600.874	0.0141462
600.953	0.0141125
601.031	0.0141483
601.109	0.0141608
601.187	0.0139836
601.265	0.0140639
601.343	0.0141715
601.421	0.0141602
601.499	0.0141228
601.578	0.0140313
601.656	0.0141972
601.734	0.0141353
601.812	0.0141061
601.890	0.0141955
601.968	0.0142468
602.046	0.0141116
602.124	0.0140472
602.203	0.0139915
602.281	0.0142513
602.359	0.0143211
602.437	0.0140997
602.515	0.0141190
602.593	0.0140907
602.671	0.0141582
602.749	0.0142011
602.828	0.0140961
602.906	0.0141216
602.984	0.0141022
603.062	0.0141080
603.140	0.0140842
603.218	0.0140738
603.296	0.0140119
603.374	0.0140669
603.453	0.0140925
603.531	0.0140822
603.609	0.0140592
603.687	0.0140569
603.765	0.0141312
603.843	0.0140984
603.921	0.0141420
603.999	0.0141298
604.078	0.0140779
604.156	0.0140993
604.234	0.0140812
604.312	0.0141882
604.390	0.0141185
604.468	0.0140751
604.546	0.0140490
604.624	0.0139517
604.703	0.0141206
604.781	0.0140755
604.859	0.0140831
604.937	0.0140616
605.015	0.0140808
605.093	0.0140495
605.171	0.0140620
605.249	0.0140874
605.328	0.0140485
605.406	0.0140522
605.484	0.0141951
605.562	0.0140446
605.640	0.0142407
605.718	0.0141106
605.796	0.0141579
605.874	0.0140306
605.953	0.0140969
606.031	0.0139577
606.109	0.0140857
606.187	0.0141763
606.265	0.0140640
606.343	0.0140659
606.421	0.0140752
606.499	0.0140473
606.578	0.0142062
606.656	0.0141153
606.734	0.0140907
606.812	0.0141996
606.890	0.0140836
606.968	0.0140452
607.046	0.0141846
607.124	0.0140045
607.203	0.0141460
607.281	0.0142781
607.359	0.0140823
607.437	0.0142538
607.515	0.0141279
607.593	0.0141569
607.671	0.0141243
607.749	0.0140808
607.828	0.0140784
607.906	0.0141577
607.984	0.0140288
608.062	0.0139817
608.140	0.0139974
608.218	0.0142114
608.296	0.0141552
608.374	0.0141399
608.453	0.0139877
608.531	0.0141410
608.609	0.0140824
608.687	0.0140028
608.765	0.0141497
608.843	0.0141940
608.921	0.0141194
608.999	0.0141040
609.078	0.0141781
609.156	0.0140724
609.234	0.0141158
609.312	0.0141453
609.390	0.0139327
609.468	0.0140520
609.546	0.0142392
609.624	0.0141523
609.703	0.0140923
609.781	0.0141079
609.859	0.0140520
609.937	0.0140611
610.015	0.0142197
610.093	0.0140795
610.171	0.0140944
610.249	0.0143185
610.328	0.0140973
610.406	0.0141293
610.484	0.0140971
610.562	0.0141883
610.640	0.0142012
610.718	0.0141898
610.796	0.0140736
610.874	0.0139669
610.953	0.0141389
611.031	0.0141891
611.109	0.0141711
611.187	0.0141558
611.265	0.0140652
611.343	0.0140096
611.421	0.0141115
611.499	0.0140652
611.578	0.0140585
611.656	0.0142180
611.734	0.0141073
611.812	0.0140973
611.890	0.0140393
611.968	0.0142391
612.046	0.0141925
612.124	0.0140114
612.203	0.0140266
612.281	0.0140258
612.359	0.0141153
612.437	0.0141446
612.515	0.0141321
612.593	0.0141414
612.671	0.0140865
612.749	0.0142630
612.828	0.0141547
612.906	0.0140867
612.984	0.0141481
613.062	0.0142373
613.140	0.0140895
613.218	0.0141063
613.296	0.0141785
613.374	0.0141423
613.453	0.0140601
613.531	0.0140929
613.609	0.0140824
613.687	0.0140161
613.765	0.0140672
613.843	0.0140586
613.921	0.0141335
613.999	0.0143001
614.078	0.0142145
614.156	0.0140504
614.234	0.0141738
614.312	0.0141524
614.390	0.0142842
614.468	0.0141332
614.546	0.0142443
614.624	0.0142418
614.703	0.0141599
614.781	0.0143153
614.859	0.0143852
614.937	0.0141882
615.015	0.0142731
615.093	0.0142820
615.171	0.0142510
615.249	0.0141712
615.328	0.0141587
615.406	0.0142216
615.484	0.0142080
615.562	0.0140819
615.640	0.0141549
615.718	0.0142261
615.796	0.0141359
615.874	0.0141289
615.953	0.0141607
616.031	0.0143873
616.109	0.0140950
616.187	0.0140953
616.265	0.0142804
616.343	0.0142173
616.421	0.0142531
616.499	0.0142835
616.578	0.0142356
616.656	0.0141354
616.734	0.0140900
616.812	0.0141669
616.890	0.0141376
616.968	0.0141706
617.046	0.0141660
617.124	0.0143313
617.203	0.0142290
617.281	0.0141502
617.359	0.0141730
617.437	0.0141494
617.515	0.0142957
617.593	0.0141770
617.671	0.0142194
617.749	0.0141549
617.828	0.0143171
617.906	0.0141649
617.984	0.0142767
618.062	0.0142277
618.140	0.0141304
618.218	0.0142849
618.296	0.0140179
618.374	0.0141626
618.453	0.0142117
618.531	0.0142220
618.609	0.0141790
618.687	0.0141858
618.765	0.0141974
618.843	0.0143554
618.921	0.0141629
618.999	0.0141763
619.078	0.0140421
619.156	0.0140648
619.234	0.0142703
619.312	0.0142245
619.390	0.0142252
619.468	0.0140530
619.546	0.0141438
619.624	0.0142861
619.703	0.0140816
619.781	0.0141603
619.859	0.0141308
619.937	0.0142371
620.015	0.0141895
620.093	0.0142784
620.171	0.0140526
620.249	0.0141643
620.328	0.0141042
620.406	0.0141991
620.484	0.0143023
620.562	0.0142572
620.640	0.0141579
620.718	0.0142294
620.796	0.0142564
620.874	0.0142015
620.953	0.0141522
621.031	0.0141663
621.109	0.0140336
621.187	0.0141698
621.265	0.0142731
621.343	0.0140522
621.421	0.0142047
621.499	0.0142487
621.578	0.0140582
621.656	0.0142105
621.734	0.0140872
621.812	0.0141161
621.890	0.0141222
621.968	0.0141938
622.046	0.0142661
622.124	0.0140759
622.203	0.0141194
622.281	0.0140725
622.359	0.0141952
622.437	0.0141248
622.515	0.0141196
622.593	0.0141424
622.671	0.0140501
622.749	0.0139987
622.828	0.0140779
622.906	0.0140308
622.984	0.0140179
623.062	0.0140749
623.140	0.0140421
623.218	0.0140566
623.296	0.0141521
623.374	0.0141936
623.453	0.0140842
623.531	0.0140433
623.609	0.0139932
623.687	0.0140557
623.765	0.0141062
623.843	0.0140456
623.921	0.0140835
623.999	0.0141539
624.078	0.0140562
624.156	0.0140247
624.234	0.0140952
624.312	0.0140771
624.390	0.0140919
624.468	0.0140653
624.546	0.0140599
624.624	0.0141423
624.703	0.0140596
624.781	0.0140732
624.859	0.0140102
624.937	0.0141377
625.015	0.0140118
625.093	0.0139748
625.171	0.0140630
625.249	0.0140388
625.328	0.0139975
625.406	0.0139935
625.484	0.0140222
625.562	0.0141658
625.640	0.0141435
625.718	0.0142150
625.796	0.0141101
625.874	0.0140822
625.953	0.0140202
626.031	0.0139956
626.109	0.0140681
626.187	0.0141579
626.265	0.0141548
626.343	0.0140569
626.421	0.0141138
626.499	0.0140042
626.578	0.0141806
626.656	0.0140406
626.734	0.0139847
626.812	0.0141710
626.890	0.0141760
626.968	0.0141848
627.046	0.0140580
627.124	0.0140017
627.203	0.0141978
627.281	0.0141208
627.359	0.0140212
627.437	0.0139344
627.515	0.0141383
627.593	0.0140723
627.671	0.0140907
627.749	0.0140854
627.828	0.0138986
627.906	0.0140450
627.984	0.0140646
628.062	0.0140245
628.140	0.0141238
628.218	0.0140246
628.296	0.0140473
628.374	0.0140956
628.453	0.0140250
628.531	0.0141197
628.609	0.0139626
628.687	0.0140861
628.765	0.0141520
628.843	0.0141022
628.921	0.0142075
628.999	0.0139928
629.078	0.0140128
629.156	0.0140784
629.234	0.0140432
629.312	0.0139361
629.390	0.0141412
629.468	0.0139597
629.546	0.0139701
629.624	0.0140836
629.703	0.0139578
629.781	0.0141136
629.859	0.0139663
629.937	0.0140034
630.015	0.0139731
630.093	0.0140173
630.171	0.0140237
630.249	0.0140609
630.328	0.0140272
630.406	0.0140864
630.484	0.0140330
630.562	0.0140086
630.640	0.0141026
630.718	0.0140709
630.796	0.0140378
630.874	0.0139754
630.953	0.0142532
631.031	0.0140469
631.109	0.0141517
631.187	0.0141486
631.265	0.0141493
631.343	0.0140206
631.421	0.0140847
631.499	0.0141421
631.578	0.0141383
631.656	0.0140306
631.734	0.0141499
631.812	0.0141183
631.890	0.0140011
631.968	0.0142455
632.046	0.0142452
632.124	0.0140329
632.203	0.0140318
632.281	0.0140308
632.359	0.0141958
632.437	0.0141034
632.515	0.0141067
632.593	0.0140742
632.671	0.0141444
632.749	0.0142014
632.828	0.0142390
632.906	0.0141438
632.984	0.0140932
633.062	0.0140494
633.140	0.0140926
633.218	0.0142229
633.296	0.0140395
633.374	0.0140615
633.453	0.0140363
633.531	0.0141524
633.609	0.0140862
633.687	0.0140889
633.765	0.0142417
633.843	0.0141175
633.921	0.0141332
633.999	0.0141917
634.078	0.0139682
634.156	0.0140337
634.234	0.0141117
634.312	0.0141587
634.390	0.0141223
634.468	0.0141456
634.546	0.0141368
634.624	0.0140985
634.703	0.0140701
634.781	0.0141512
634.859	0.0142744
634.937	0.0142818
635.015	0.0141797
635.093	0.0142130
635.171	0.0140887
635.249	0.0141644
635.328	0.0142729
635.406	0.0140371
635.484	0.0142628
635.562	0.0142500
635.640	0.0142554
635.718	0.0143376
635.796	0.0141801
635.874	0.0141895
635.953	0.0141380
636.031	0.0141057
636.109	0.0140301
636.187	0.0142495
636.265	0.0142706
636.343	0.0141109
636.421	0.0142284
636.499	0.0142873
636.578	0.0141933
636.656	0.0141220
636.734	0.0140343
636.812	0.0142316
636.890	0.0141123
636.968	0.0142252
637.046	0.0142783
637.124	0.0141988
637.203	0.0140892
637.281	0.0140119
637.359	0.0140192
637.437	0.0142046
637.515	0.0142052
637.593	0.0141901
637.671	0.0141246
637.749	0.0140985
637.828	0.0142368
637.906	0.0142204
637.984	0.0141669
638.062	0.0140724
638.140	0.0140955
638.218	0.0141646
638.296	0.0141910
638.374	0.0140274
638.453	0.0141369
638.531	0.0140541
638.609	0.0141396
638.687	0.0142003
638.765	0.0140532
638.843	0.0142280
638.921	0.0142759
638.999	0.0141465
639.078	0.0141121
639.156	0.0142317
639.234	0.0140828
639.312	0.0140990
639.390	0.0140792
639.468	0.0141299
639.546	0.0139594
639.624	0.0140872
639.703	0.0142187
639.781	0.0141316
639.859	0.0142339
639.937	0.0140139
640.015	0.0141531
640.093	0.0140258
640.171	0.0141240
640.249	0.0141692
640.328	0.0140746
640.406	0.0140755
640.484	0.0141208
640.562	0.0140787
640.640	0.0140856
640.718	0.0141263
640.796	0.0140910
640.874	0.0142184
640.953	0.0140858
641.031	0.0139729
641.109	0.0141096
641.187	0.0140202
641.265	0.0140445
641.343	0.0141419
641.421	0.0140691
641.499	0.0140292
641.578	0.0141937
641.656	0.0142371
641.734	0.0140818
641.812	0.0140594
641.890	0.0141791
641.968	0.0141845
642.046	0.0141888
642.124	0.0140723
642.203	0.0141941
642.281	0.0141093
642.359	0.0142300
642.437	0.0141483
642.515	0.0141977
642.593	0.0140511
642.671	0.0140804
642.749	0.0140565
642.828	0.0140865
642.906	0.0141607
642.984	0.0141364
643.062	0.0140332
643.140	0.0142023
643.218	0.0142384
643.296	0.0141613
643.374	0.0141740
643.453	0.0142290
643.531	0.0141348
643.609	0.0142429
643.687	0.0143044
643.765	0.0141864
643.843	0.0141878
643.921	0.0141034
643.999	0.0140455
644.078	0.0140869
644.156	0.0141079
644.234	0.0141502
644.312	0.0140339
644.390	0.0139571
644.468	0.0140168
644.546	0.0137992
644.624	0.0140041
644.703	0.0138986
644.781	0.0138061
644.859	0.0139279
644.937	0.0139334
645.015	0.0140251
645.093	0.0139253
645.171	0.0141965
645.249	0.0141464
645.328	0.0142799
645.406	0.0141093
645.484	0.0142142
645.562	0.0142480
645.640	0.0142445
645.718	0.0143111
645.796	0.0142184
645.874	0.0143337
645.953	0.0142036
646.031	0.0142091
646.109	0.0141994
646.187	0.0140697
646.265	0.0141366
646.343	0.0141256
646.421	0.0141084
646.499	0.0140810
646.578	0.0141036
646.656	0.0140987
646.734	0.0139925
646.812	0.0138845
646.890	0.0137818
646.968	0.0137602
647.046	0.0139057
647.124	0.0139231
647.203	0.0139825
647.281	0.0139539
647.359	0.0140942
647.437	0.0138377
647.515	0.0140079
647.593	0.0140902
647.671	0.0141903
647.749	0.0141705
647.828	0.0143382
647.906	0.0142915
647.984	0.0143014
648.062	0.0142698
648.140	0.0143006
648.218	0.0143761
648.296	0.0144473
648.374	0.0144412
648.453	0.0143543
648.531	0.0141828
648.609	0.0141976
648.687	0.0142181
648.765	0.0141187
648.843	0.0140125
648.921	0.0140485
648.999	0.0140163
649.078	0.0138526
649.156	0.0137362
649.234	0.0138102
649.312	0.0136627
649.390	0.0135643
649.468	0.0135894
649.546	0.0138387
649.624	0.0138525
649.703	0.0138116
649.781	0.0139472
649.859	0.0139378
649.937	0.0140944
650.015	0.0142995
650.093	0.0143948
650.171	0.0145792
650.249	0.0144123
650.328	0.0145772
650.406	0.0146370
650.484	0.0145817
650.562	0.0145911
650.640	0.0145614
650.718	0.0144600
650.796	0.0144167
650.874	0.0143177
650.953	0.0141175
651.031	0.0140752
651.109	0.0139032
651.187	0.0139524
651.265	0.0138744
651.343	0.0136031
651.421	0.0135155
651.499	0.0135398
651.578	0.0135848
651.656	0.0135313
651.734	0.0134269
651.812	0.0134966
651.890	0.0136247
651.968	0.0135515
652.046	0.0135484
652.124	0.0134829
652.203	0.0136594
652.281	0.0136810
652.359	0.0138581
652.437	0.0137286
652.515	0.0139239
652.593	0.0140216
652.671	0.0142041
652.749	0.0142698
652.828	0.0142954
652.906	0.0145016
652.984	0.0145493
653.062	0.0146979
653.140	0.0148016
653.218	0.0148711
653.296	0.0150588
653.374	0.0149353
653.453	0.0150544
653.531	0.0151075
653.609	0.0151651
653.687	0.0151831
653.765	0.0151414
653.843	0.0150792
653.921	0.0148112
653.999	0.0147588
654.078	0.0145094
654.156	0.0145468
654.234	0.0141673
654.312	0.0139494
654.390	0.0138055
654.468	0.0136462
654.546	0.0134055
654.624	0.0132545
654.703	0.0131326
654.781	0.0127872
654.859	0.0128115
654.937	0.0126062
655.015	0.0125599
655.093	0.0123779
655.171	0.0123129
655.249	0.0124146
655.328	0.0124440
655.406	0.0124269
655.484	0.0125251
655.562	0.0127679
655.640	0.0129559
655.718	0.0131499
655.796	0.0134003
655.874	0.0137083
655.953	0.0139639
656.031	0.0142118
656.109	0.0145279
656.187	0.0148211
656.265	0.0149306
656.343	0.0153310
656.421	0.0153932
656.499	0.0154794
656.578	0.0155449
656.656	0.0156964
656.734	0.0156581
656.812	0.0157825
656.890	0.0157457
656.968	0.0157533
657.046	0.0157489
657.124	0.0156150
657.203	0.0155025
657.281	0.0153333
657.359	0.0154816
657.437	0.0154578
657.515	0.0151549
657.593	0.0150397
657.671	0.0148615
657.749	0.0147903
657.828	0.0145059
657.906	0.0143888
657.984	0.0141911
658.062	0.0140638
658.140	0.0136819
658.218	0.0135796
658.296	0.0132787
658.374	0.0130354
658.453	0.0128914
658.531	0.0126353
658.609	0.0124251
658.687	0.0122656
658.765	0.0120822
658.843	0.0119427
658.921	0.0120124
658.999	0.0118964
659.078	0.0118475
659.156	0.0119306
659.234	0.0120016
659.312	0.0121149
659.390	0.0121949
659.468	0.0122062
659.546	0.0124181
659.624	0.0126928
659.703	0.0129249
659.781	0.0131626
659.859	0.0134824
659.937	0.0139898
660.015	0.0142378
660.093	0.0144620
660.171	0.0149136
660.249	0.0153265
660.328	0.0156932
660.406	0.0158513
660.484	0.0164023
660.562	0.0166255
660.640	0.0168865
660.718	0.0170676
660.796	0.0172530
660.874	0.0172591
660.953	0.0171503
661.031	0.0173080
661.109	0.0170959
661.187	0.0168845
661.265	0.0166406
661.343	0.0164271
661.421	0.0159946
661.499	0.0156084
661.578	0.0152689
661.656	0.0148783
661.734	0.0146121
661.812	0.0142790
661.890	0.0136920
661.968	0.0132670
662.046	0.0128690
662.124	0.0124439
662.203	0.0122327
662.281	0.0119526
662.359	0.0118369
662.437	0.0115604
662.515	0.0114709
662.593	0.0114548
662.671	0.0113310
662.749	0.0113327
662.828	0.0115308
662.906	0.0115821
662.984	0.0116458
663.062	0.0118800
663.140	0.0118452
663.218	0.0120458
663.296	0.0122122
663.374	0.0124886
663.453	0.0126437
663.531	0.0125952
663.609	0.0128481
663.687	0.0129464
663.765	0.0130859
663.843	0.0133096
663.921	0.0134572
663.999	0.0138437
664.078	0.0141251
664.156	0.0144852
664.234	0.0146476
664.312	0.0151575
664.390	0.0154160
664.468	0.0157178
664.546	0.0159989
664.624	0.0161929
664.703	0.0164296
664.781	0.0167100
664.859	0.0168239
664.937	0.0169740
665.015	0.0168671
665.093	0.0166873
665.171	0.0167349
665.249	0.0165302
665.328	0.0163570
665.406	0.0161572
665.484	0.0158821
665.562	0.0158302
665.640	0.0156950
665.718	0.0153646
665.796	0.0150414
665.874	0.0148772
665.953	0.0146330
666.031	0.0142824
666.109	0.0140850
666.187	0.0139016
666.265	0.0135429
666.343	0.0133824
666.421	0.0131873
666.499	0.0129953
666.578	0.0128021
666.656	0.0126910
666.734	0.0125674
666.812	0.0124613
666.890	0.0122189
666.968	0.0122240
667.046	0.0123146
667.124	0.0121906
667.203	0.0122417
667.281	0.0121463
667.359	0.0122497
667.437	0.0122111
667.515	0.0121935
667.593	0.0122326
667.671	0.0123253
667.749	0.0123980
667.828	0.0123774
667.906	0.0124587
667.984	0.0124374
668.062	0.0125494
668.140	0.0128619
668.218	0.0129630
668.296	0.0130771
668.374	0.0132449
668.453	0.0134268
668.531	0.0135571
668.609	0.0136520
668.687	0.0137550
668.765	0.0141202
668.843	0.0141637
668.921	0.0144503
668.999	0.0145215
669.078	0.0146471
669.156	0.0149602
669.234	0.0152754
669.312	0.0152837
669.390	0.0154739
669.468	0.0157757
669.546	0.0162103
669.624	0.0163899
669.703	0.0165653
669.781	0.0168121
669.859	0.0168715
669.937	0.0169384
670.015	0.0169959
670.093	0.0170152
670.171	0.0168901
670.249	0.0167052
670.328	0.0165024
670.406	0.0162160
670.484	0.0159125
670.562	0.0155514
670.640	0.0151717
670.718	0.0149673
670.796	0.0145091
670.874	0.0142286
670.953	0.0136410
671.031	0.0135225
671.109	0.0131438
671.187	0.0130730
671.265	0.0129612
671.343	0.0126874
671.421	0.0124067
671.499	0.0123753
671.578	0.0124600
671.656	0.0124303
671.734	0.0122232
671.812	0.0121293
671.890	0.0118086
671.968	0.0120754
672.046	0.0119000
672.124	0.0116721
672.203	0.0116901
672.281	0.0116906
672.359	0.0116267
672.437	0.0115335
672.515	0.0116463
672.593	0.0117033
672.671	0.0116685
672.749	0.0118784
672.828	0.0122083
672.906	0.0124946
672.984	0.0126797
673.062	0.0131071
673.140	0.0134951
673.218	0.0140565
673.296	0.0143913
673.374	0.0146956
673.453	0.0152493
673.531	0.0156387
673.609	0.0159505
673.687	0.0160946
673.765	0.0163435
673.843	0.0164909
673.921	0.0164376
673.999	0.0165078
674.078	0.0163977
674.156	0.0162421
674.234	0.0161775
674.312	0.0161510
674.390	0.0160815
674.468	0.0159073
674.546	0.0157926
674.624	0.0157197
674.703	0.0157287
674.781	0.0158594
674.859	0.0156197
674.937	0.0156280
675.015	0.0155914
675.093	0.0153431
675.171	0.0154585
675.249	0.0154286
675.328	0.0150723
675.406	0.0148898
675.484	0.0147275
675.562	0.0146158
675.640	0.0143932
675.718	0.0140624
675.796	0.0139641
675.874	0.0138656
675.953	0.0136839
676.031	0.0136581
676.109	0.0135347
676.187	0.0134142
676.265	0.0131116
676.343	0.0132117
676.421	0.0131726
676.499	0.0130960
676.578	0.0130403
676.656	0.0129854
676.734	0.0127667
676.812	0.0126691
676.890	0.0125203
676.968	0.0124519
677.046	0.0124149
677.124	0.0125224
677.203	0.0124289
677.281	0.0121723
677.359	0.0120037
677.437	0.0120131
677.515	0.0119535
677.593	0.0120045
677.671	0.0120379
677.749	0.0121465
677.828	0.0124502
677.906	0.0125900
677.984	0.0130399
678.062	0.0133265
678.140	0.0135565
678.218	0.0141859
678.296	0.0143714
678.374	0.0148891
678.453	0.0152394
678.531	0.0155676
678.609	0.0158731
678.687	0.0161047
678.765	0.0163922
678.843	0.0164392
678.921	0.0166788
678.999	0.0165331
679.078	0.0165680
679.156	0.0166059
679.234	0.0166865
679.312	0.0163083
679.390	0.0160170
679.468	0.0158257
679.546	0.0154977
679.624	0.0152225
679.703	0.0151709
679.781	0.0147771
679.859	0.0144514
679.937	0.0144042
680.015	0.0140887
680.093	0.0140167
680.171	0.0138571
680.249	0.0137754
680.328	0.0137849
680.406	0.0136983
680.484	0.0135426
680.562	0.0133702
680.640	0.0132871
680.718	0.0133429
680.796	0.0133456
680.874	0.0131771
680.953	0.0129660
681.031	0.0130272
681.109	0.0131768
681.187	0.0130702
681.265	0.0130455
681.343	0.0131951
681.421	0.0131877
681.499	0.0134484
681.578	0.0137254
681.656	0.0137805
681.734	0.0140218
681.812	0.0143435
681.890	0.0144549
681.968	0.0146746
682.046	0.0146653
682.124	0.0147675
682.203	0.0148984
682.281	0.0148394
682.359	0.0148419
682.437	0.0147150
682.515	0.0146426
682.593	0.0146352
682.671	0.0143681
682.749	0.0141735
682.828	0.0141312
682.906	0.0140261
682.984	0.0138342
683.062	0.0136025
683.140	0.0136067
683.218	0.0135556
683.296	0.0135771
683.374	0.0136539
683.453	0.0136168
683.531	0.0135626
683.609	0.0133808
683.687	0.0134440
683.765	0.0134893
683.843	0.0136648
683.921	0.0135710
683.999	0.0135029
684.078	0.0135872
684.156	0.0134696
684.234	0.0134773
684.312	0.0133513
684.390	0.0133264
684.468	0.0131653
684.546	0.0132170
684.624	0.0132637
684.703	0.0134075
684.781	0.0133556
684.859	0.0134433
684.937	0.0135488
685.015	0.0136938
685.093	0.0137637
685.171	0.0139827
685.249	0.0142336
685.328	0.0140752
685.406	0.0143426
685.484	0.0144548
685.562	0.0143992
685.640	0.0145494
685.718	0.0146481
685.796	0.0147845
685.874	0.0149150
685.953	0.0149286
686.031	0.0149277
686.109	0.0151318
686.187	0.0152064
686.265	0.0153281
686.343	0.0153301
686.421	0.0154356
686.499	0.0154754
686.578	0.0153445
686.656	0.0156609
686.734	0.0156902
686.812	0.0154986
686.890	0.0155970
686.968	0.0156270
687.046	0.0155395
687.124	0.0155486
687.203	0.0154537
687.281	0.0154705
687.359	0.0153301
687.437	0.0150477
687.515	0.0146944
687.593	0.0143907
687.671	0.0141398
687.749	0.0139966
687.828	0.0136537
687.906	0.0132722
687.984	0.0128719
688.062	0.0126819
688.140	0.0124209
688.218	0.0120357
688.296	0.0119372
688.374	0.0117496
688.453	0.0115352
688.531	0.0113330
688.609	0.0112241
688.687	0.0112976
688.765	0.0114510
688.843	0.0114155
688.921	0.0113865
688.999	0.0116687
689.078	0.0118531
689.156	0.0121806
689.234	0.0121273
689.312	0.0124688
689.390	0.0127895
689.468	0.0129183
689.546	0.0132572
689.624	0.0135581
689.703	0.0137528
689.781	0.0140766
689.859	0.0141743
689.937	0.0143869
690.015	0.0148522
690.093	0.0151714
690.171	0.0154018
690.249	0.0156728
690.328	0.0159139
690.406	0.0160945
690.484	0.0163664
690.562	0.0165045
690.640	0.0164445
690.718	0.0164749
690.796	0.0166373
690.874	0.0165588
690.953	0.0166302
691.031	0.0163917
691.109	0.0163171
691.187	0.0162297
691.265	0.0162410
691.343	0.0159755
691.421	0.0156807
691.499	0.0155032
691.578	0.0153874
691.656	0.0150932
691.734	0.0149263
691.812	0.0147966
691.890	0.0144926
691.968	0.0143405
692.046	0.0143121
692.124	0.0141525
692.203	0.0138146
692.281	0.0135579
692.359	0.0133899
692.437	0.0133240
692.515	0.0131965
692.593	0.0129698
692.671	0.0129204
692.749	0.0127149
692.828	0.0125846
692.906	0.0125928
692.984	0.0124271
693.062	0.0123897
693.140	0.0124851
693.218	0.0124426
693.296	0.0123965
693.374	0.0124883
693.453	0.0126148
693.531	0.0127850
693.609	0.0129704
693.687	0.0129787
693.765	0.0132857
693.843	0.0134734
693.921	0.0135907
693.999	0.0137550
694.078	0.0138121
694.156	0.0140311
694.234	0.0141520
694.312	0.0142269
694.390	0.0139830
694.468	0.0140716
694.546	0.0139152
694.624	0.0138504
694.703	0.0139000
694.781	0.0137104
694.859	0.0134422
694.937	0.0135091
695.015	0.0133616
695.093	0.0134367
695.171	0.0133444
695.249	0.0134428
695.328	0.0136723
695.406	0.0138551
695.484	0.0140649
695.562	0.0142203
695.640	0.0143821
695.718	0.0146594
695.796	0.0149299
695.874	0.0150993
695.953	0.0154885
696.031	0.0155152
696.109	0.0156914
696.187	0.0158215
696.265	0.0160361
696.343	0.0161602
696.421	0.0161661
696.499	0.0162614
696.578	0.0161472
696.656	0.0162033
696.734	0.0161276
696.812	0.0161805
696.890	0.0158681
696.968	0.0158710
697.046	0.0157397
697.124	0.0155693
697.203	0.0154515
697.281	0.0152058
697.359	0.0148331
697.437	0.0146174
697.515	0.0143142
697.593	0.0141832
697.671	0.0140180
697.749	0.0136024
697.828	0.0131695
697.906	0.0129098
697.984	0.0126687
698.062	0.0125658
698.140	0.0121365
698.218	0.0122885
698.296	0.0118105
698.374	0.0117919
698.453	0.0116959
698.531	0.0116409
698.609	0.0118512
698.687	0.0119081
698.765	0.0120269
698.843	0.0122038
698.921	0.0123987
698.999	0.0128917
699.078	0.0131427
699.156	0.0133980
699.234	0.0137210
699.312	0.0140128
699.390	0.0143761
699.468	0.0145511
699.546	0.0146329
699.624	0.0147151
699.703	0.0148774
699.781	0.0148492
699.859	0.0147379
699.937	0.0146598
700.015	0.0145713
700.093	0.0145094
700.171	0.0143952
700.249	0.0144285
700.328	0.0144119
700.406	0.0143768
700.484	0.0144551
700.562	0.0144305
700.640	0.0144868
700.718	0.0145541
700.796	0.0146527
700.874	0.0148254
700.953	0.0149505
701.031	0.0151234
701.109	0.0151082
701.187	0.0151637
701.265	0.0153611
701.343	0.0152311
701.421	0.0151305
701.499	0.0151131
701.578	0.0149805
701.656	0.0148586
701.734	0.0147861
701.812	0.0144843
701.890	0.0144324
701.968	0.0143082
702.046	0.0140938
702.124	0.0142854
702.203	0.0142917
702.281	0.0143627
702.359	0.0143306
702.437	0.0145699
702.515	0.0145399
702.593	0.0147870
702.671	0.0147334
702.749	0.0149670
702.828	0.0148888
702.906	0.0148875
702.984	0.0149204
703.062	0.0148010
703.140	0.0146728
703.218	0.0143788
703.296	0.0143720
703.374	0.0139765
703.453	0.0138354
703.531	0.0137238
703.609	0.0135696
703.687	0.0133568
703.765	0.0132790
703.843	0.0131866
703.921	0.0130962
703.999	0.0128244
704.078	0.0129249
704.156	0.0130676
704.234	0.0129933
704.312	0.0129501
704.390	0.0129931
704.468	0.0129641
704.546	0.0129678
704.624	0.0130402
704.703	0.0131535
704.781	0.0131714
704.859	0.0133981
704.937	0.0135035
705.015	0.0136637
705.093	0.0137689
705.171	0.0140173
705.249	0.0141499
705.328	0.0143669
705.406	0.0146000
705.484	0.0145962
705.562	0.0147832
705.640	0.0149429
705.718	0.0151493
705.796	0.0153851
705.874	0.0154223
705.953	0.0153500
706.031	0.0154879
706.109	0.0154107
706.187	0.0153508
706.265	0.0154414
706.343	0.0154740
706.421	0.0152604
706.499	0.0150222
706.578	0.0149236
706.656	0.0147766
706.734	0.0146613
706.812	0.0144747
706.890	0.0141714
706.968	0.0141428
707.046	0.0139874
707.124	0.0138702
707.203	0.0137416
707.281	0.0136027
707.359	0.0137730
707.437	0.0136493
707.515	0.0134670
707.593	0.0135043
707.671	0.0134875
707.749	0.0136394
707.828	0.0137631
707.906	0.0138052
707.984	0.0139454
708.062	0.0139439
708.140	0.0138832
708.218	0.0139974
708.296	0.0140997
708.374	0.0141821
708.453	0.0141030
708.531	0.0143286
708.609	0.0141610
708.687	0.0141705
708.765	0.0140431
708.843	0.0141138
708.921	0.0139700
708.999	0.0138566
709.078	0.0138090
709.156	0.0138139
709.234	0.0138988
709.312	0.0137009
709.390	0.0137222
709.468	0.0138258
709.546	0.0138870
709.624	0.0137156
709.703	0.0137369
709.781	0.0137975
709.859	0.0138193
709.937	0.0138531
710.015	0.0139838
710.093	0.0138976
710.171	0.0138444
710.249	0.0137032
710.328	0.0137007
710.406	0.0137083
710.484	0.0135278
710.562	0.0134902
710.640	0.0135758
710.718	0.0135494
710.796	0.0135477
710.874	0.0134427
710.953	0.0134076
711.031	0.0135778
711.109	0.0134946
711.187	0.0136327
711.265	0.0137850
711.343	0.0138673
711.421	0.0139892
711.499	0.0144608
711.578	0.0145544
711.656	0.0147800
711.734	0.0149045
711.812	0.0150852
711.890	0.0152996
711.968	0.0152644
712.046	0.0153591
712.124	0.0152808
712.203	0.0154263
712.281	0.0153600
712.359	0.0152615
712.437	0.0152660
712.515	0.0151172
712.593	0.0150125
712.671	0.0150234
712.749	0.0147444
712.828	0.0146349
712.906	0.0145887
712.984	0.0144735
713.062	0.0142994
713.140	0.0141217
713.218	0.0140265
713.296	0.0138168
713.374	0.0137543
713.453	0.0135853
713.531	0.0135278
713.609	0.0134010
713.687	0.0133063
713.765	0.0130575
713.843	0.0131620
713.921	0.0132208
713.999	0.0129049
714.078	0.0130283
714.156	0.0131062
714.234	0.0130604
714.312	0.0130351
714.390	0.0131720
714.468	0.0133392
714.546	0.0133688
714.624	0.0134090
714.703	0.0136284
714.781	0.0137486
714.859	0.0138073
714.937	0.0140006
715.015	0.0140699
715.093	0.0143452
715.171	0.0143253
715.249	0.0143724
715.328	0.0143823
715.406	0.0146966
715.484	0.0146558
715.562	0.0146941
715.640	0.0146185
715.718	0.0146825
715.796	0.0147099
715.874	0.0146927
715.953	0.0146788
716.031	0.0146446
716.109	0.0144604
716.187	0.0146710
716.265	0.0144616
716.343	0.0143348
716.421	0.0144620
716.499	0.0142430
716.578	0.0143042
716.656	0.0142426
716.734	0.0141751
716.812	0.0140475
716.890	0.0140060
716.968	0.0140525
717.046	0.0140764
717.124	0.0138345
717.203	0.0138934
717.281	0.0139994
717.359	0.0140041
717.437	0.0137309
717.515	0.0140467
717.593	0.0141111
717.671	0.0140214
717.749	0.0140780
717.828	0.0140226
717.906	0.0140741
717.984	0.0141342
718.062	0.0142297
718.140	0.0141351
718.218	0.0140957
718.296	0.0140697
718.374	0.0141645
718.453	0.0140820
718.531	0.0138860
718.609	0.0138942
718.687	0.0140966
718.765	0.0141182
718.843	0.0140402
718.921	0.0141599
718.999	0.0142702
719.078	0.0142736
719.156	0.0143928
719.234	0.0144298
719.312	0.0144532
719.390	0.0145093
719.468	0.0146938
719.546	0.0146790
719.624	0.0147015
719.703	0.0146871
719.781	0.0144335
719.859	0.0143601
719.937	0.0143995
720.015	0.0143881
720.093	0.0141171
720.171	0.0139281
720.249	0.0138964
720.328	0.0138808
720.406	0.0137679
720.484	0.0135332
720.562	0.0135488
720.640	0.0136226
720.718	0.0134864
720.796	0.0136774
720.874	0.0135287
720.953	0.0136583
721.031	0.0138283
721.109	0.0139099
721.187	0.0138890
721.265	0.0140591
721.343	0.0141404
721.421	0.0142166
721.499	0.0143105
721.578	0.0143419
721.656	0.0143934
721.734	0.0142800
721.812	0.0142838
721.890	0.0141467
721.968	0.0141999
722.046	0.0142183
722.124	0.0141893
722.203	0.0140049
722.281	0.0141794
722.359	0.0141750
722.437	0.0140292
722.515	0.0142283
722.593	0.0141566
722.671	0.0140511
722.749	0.0142527
722.828	0.0140972
722.906	0.0142596
722.984	0.0142741
723.062	0.0143434
723.140	0.0143708
723.218	0.0141715
723.296	0.0144103
723.374	0.0143816
723.453	0.0143872
723.531	0.0143504
723.609	0.0142616
723.687	0.0141852
723.765	0.0141959
723.843	0.0141235
723.921	0.0139908
723.999	0.0139820
724.078	0.0140002
724.156	0.0139737
724.234	0.0139534
724.312	0.0138435
724.390	0.0139335
724.468	0.0140208
724.546	0.0141880
724.624	0.0141045
724.703	0.0143256
724.781	0.0143111
724.859	0.0142392
724.937	0.0143941
725.015	0.0144293
725.093	0.0144503
725.171	0.0145650
725.249	0.0145039
725.328	0.0144924
725.406	0.0145347
725.484	0.0145277
725.562	0.0144683
725.640	0.0144131
725.718	0.0144486
725.796	0.0143060
725.874	0.0145153
725.953	0.0143307
726.031	0.0142647
726.109	0.0141663
726.187	0.0141346
726.265	0.0140485
726.343	0.0140390
726.421	0.0141251
726.499	0.0139577
726.578	0.0139774
726.656	0.0139321
726.734	0.0138433
726.812	0.0136726
726.890	0.0137619
726.968	0.0136855
727.046	0.0135915
727.124	0.0136578
727.203	0.0134744
727.281	0.0135677
727.359	0.0135019
727.437	0.0136904
727.515	0.0136274
727.593	0.0137481
727.671	0.0137792
727.749	0.0137579
727.828	0.0139301
727.906	0.0141270
727.984	0.0142544
728.062	0.0143297
728.140	0.0141402
728.218	0.0142650
728.296	0.0144585
728.374	0.0142459
728.453	0.0143388
728.531	0.0142228
728.609	0.0141058
728.687	0.0140305
728.765	0.0141608
728.843	0.0140793
728.921	0.0139671
728.999	0.0139384
729.078	0.0138958
729.156	0.0138041
729.234	0.0138506
729.312	0.0140600
729.390	0.0139962
729.468	0.0139945
729.546	0.0141109
729.624	0.0140347
729.703	0.0142093
729.781	0.0141051
729.859	0.0141945
729.937	0.0143021
730.015	0.0140871
730.093	0.0142023
730.171	0.0143494
730.249	0.0142921
730.328	0.0141315
730.406	0.0141759
730.484	0.0142930
730.562	0.0141080
730.640	0.0142399
730.718	0.0142436
730.796	0.0141533
730.874	0.0140163
730.953	0.0141260
731.031	0.0141065
731.109	0.0140963
731.187	0.0141144
731.265	0.0139970
731.343	0.0142283
731.421	0.0141359
731.499	0.0141937
731.578	0.0140066
731.656	0.0140145
731.734	0.0140808
731.812	0.0140519
731.890	0.0139471
731.968	0.0140852
732.046	0.0139738
732.124	0.0139557
732.203	0.0140932
732.281	0.0139376
732.359	0.0139381
732.437	0.0140369
732.515	0.0141533
732.593	0.0139490
732.671	0.0140173
732.749	0.0140477
732.828	0.0140962
732.906	0.0140620
732.984	0.0140298
733.062	0.0140649
733.140	0.0141547
733.218	0.0140939
733.296	0.0141214
733.374	0.0141771
733.453	0.0140891
733.531	0.0141212
733.609	0.0140990
733.687	0.0142048
733.765	0.0140569
733.843	0.0140401
733.921	0.0140098
733.999	0.0140402
734.078	0.0141008
734.156	0.0141029
734.234	0.0141317
734.312	0.0138913
734.390	0.0137705
734.468	0.0139238
734.546	0.0138802
734.624	0.0138036
734.703	0.0138310
734.781	0.0138203
734.859	0.0138057
734.937	0.0136726
735.015	0.0137762
735.093	0.0136845
735.171	0.0137760
735.249	0.0138928
735.328	0.0138223
735.406	0.0137983
735.484	0.0139761
735.562	0.0139191
735.640	0.0138454
735.718	0.0140925
735.796	0.0140793
735.874	0.0140533
735.953	0.0142113
736.031	0.0141877
736.109	0.0141258
736.187	0.0141183
736.265	0.0143164
736.343	0.0141891
736.421	0.0142378
736.499	0.0143320
736.578	0.0142873
736.656	0.0142970
736.734	0.0141663
736.812	0.0142944
736.890	0.0143021
736.968	0.0142008
737.046	0.0143290
737.124	0.0144511
737.203	0.0143359
737.281	0.0143211
737.359	0.0142932
737.437	0.0144012
737.515	0.0141859
737.593	0.0141931
737.671	0.0143138
737.749	0.0143235
737.828	0.0143324
737.906	0.0142223
737.984	0.0143106
738.062	0.0142587
738.140	0.0140436
738.218	0.0141074
738.296	0.0141009
738.374	0.0140150
738.453	0.0139667
738.531	0.0140914
738.609	0.0139902
738.687	0.0139471
738.765	0.0139413
738.843	0.0140213
738.921	0.0139929
738.999	0.0141422
739.078	0.0141040
739.156	0.0139488
739.234	0.0140236
739.312	0.0140401
739.390	0.0141188
739.468	0.0141332
739.546	0.0141371
739.624	0.0142282
739.703	0.0142047
739.781	0.0141557
739.859	0.0141954
739.937	0.0142842
740.015	0.0142211
740.093	0.0142037
740.171	0.0142686
740.249	0.0142051
740.328	0.0142063
740.406	0.0141412
740.484	0.0141986
740.562	0.0140262
740.640	0.0139726
740.718	0.0141136
740.796	0.0141313
740.874	0.0137855
740.953	0.0140057
741.031	0.0140794
741.109	0.0139404
741.187	0.0139795
741.265	0.0142336
741.343	0.0140188
741.421	0.0139866
741.499	0.0141829
741.578	0.0141660
741.656	0.0140549
741.734	0.0139624
741.812	0.0140064
741.890	0.0140927
741.968	0.0140213
742.046	0.0140639
742.124	0.0140725
742.203	0.0140499
742.281	0.0139647
742.359	0.0140749
742.437	0.0141723
742.515	0.0140302
742.593	0.0141637
742.671	0.0141358
742.749	0.0141685
742.828	0.0142287
742.906	0.0142146
742.984	0.0142353
743.062	0.0141761
743.140	0.0142930
743.218	0.0143365
743.296	0.0143741
743.374	0.0143594
743.453	0.0143687
743.531	0.0143507
743.609	0.0144291
743.687	0.0144403
743.765	0.0143854
743.843	0.0143810
743.921	0.0142917
743.999	0.0143867
744.078	0.0143445
744.156	0.0143574
744.234	0.0142771
744.312	0.0142950
744.390	0.0144834
744.468	0.0143513
744.546	0.0142972
744.624	0.0144238
744.703	0.0143541
744.781	0.0142801
744.859	0.0144179
744.937	0.0143906
745.015	0.0142525
745.093	0.0144237
745.171	0.0143779
745.249	0.0142847
745.328	0.0142056
745.406	0.0142149
745.484	0.0144485
745.562	0.0142797
745.640	0.0142641
745.718	0.0142715
745.796	0.0141721
745.874	0.0141079
745.953	0.0141576
746.031	0.0142383
746.109	0.0141818
746.187	0.0140230
746.265	0.0138953
746.343	0.0142029
746.421	0.0140105
746.499	0.0140095
746.578	0.0141173
746.656	0.0141572
746.734	0.0141989
746.812	0.0141251
746.890	0.0141640
746.968	0.0141626
747.046	0.0141837
747.124	0.0140396
747.203	0.0142676
747.281	0.0140619
747.359	0.0140253
747.437	0.0140788
747.515	0.0138790
747.593	0.0138417
747.671	0.0140119
747.749	0.0138523
747.828	0.0137441
747.906	0.0137722
747.984	0.0136961
748.062	0.0138278
748.140	0.0138304
748.218	0.0138341
748.296	0.0138033
748.374	0.0140083
748.453	0.0138512
748.531	0.0140979
748.609	0.0143501
748.687	0.0140638
748.765	0.0141932
748.843	0.0142562
748.921	0.0142352
748.999	0.0144788
749.078	0.0143749
749.156	0.0144476
749.234	0.0143470
749.312	0.0144252
749.390	0.0143987
749.468	0.0142908
749.546	0.0143296
749.624	0.0144436
749.703	0.0144644
749.781	0.0143953
749.859	0.0144160
749.937	0.0144436
750.015	0.0142754
750.093	0.0144083
750.171	0.0143259
750.249	0.0143045
750.328	0.0143134
750.406	0.0142527
750.484	0.0144095
750.562	0.0143804
750.640	0.0142925
750.718	0.0144134
750.796	0.0144623
750.874	0.0144508
750.953	0.0144118
751.031	0.0142001
751.109	0.0141969
751.187	0.0141589
751.265	0.0141064
751.343	0.0140003
751.421	0.0138131
751.499	0.0139377
751.578	0.0138899
751.656	0.0136983
751.734	0.0134919
751.812	0.0136855
751.890	0.0135253
751.968	0.0135673
752.046	0.0136372
752.124	0.0136893
752.203	0.0135743
752.281	0.0135310
752.359	0.0136449
752.437	0.0136977
752.515	0.0137222
752.593	0.0136541
752.671	0.0138139
752.749	0.0138165
752.828	0.0139243
752.906	0.0138172
752.984	0.0140991
753.062	0.0140878
753.140	0.0141045
753.218	0.0140374
753.296	0.0141793
753.374	0.0143628
753.453	0.0143366
753.531	0.0142132
753.609	0.0143215
753.687	0.0143330
753.765	0.0143683
753.843	0.0143198
753.921	0.0142375
753.999	0.0141595
754.078	0.0141022
754.156	0.0143159
754.234	0.0141896
754.312	0.0142640
754.390	0.0141055
754.468	0.0139730
754.546	0.0141031
754.624	0.0140408
754.703	0.0138287
754.781	0.0138861
754.859	0.0139598
754.937	0.0139727
755.015	0.0139185
755.093	0.0138473
755.171	0.0137418
755.249	0.0137945
755.328	0.0138455
755.406	0.0136390
755.484	0.0138737
755.562	0.0138567
755.640	0.0136067
755.718	0.0136749
755.796	0.0137396
755.874	0.0137273
755.953	0.0138017
756.031	0.0139904
756.109	0.0138724
756.187	0.0139767
756.265	0.0137894
756.343	0.0141135
756.421	0.0140668
756.499	0.0138692
756.578	0.0140752
756.656	0.0139481
756.734	0.0140503
756.812	0.0141306
756.890	0.0142238
756.968	0.0140499
757.046	0.0140944
757.124	0.0142640
757.203	0.0142350
757.281	0.0142437
757.359	0.0141132
757.437	0.0142925
757.515	0.0143626
757.593	0.0142361
757.671	0.0144017
757.749	0.0144446
757.828	0.0144186
757.906	0.0142942
757.984	0.0143953
758.062	0.0142815
758.140	0.0143069
758.218	0.0142194
758.296	0.0141814
758.374	0.0141735
758.453	0.0141264
758.531	0.0141653
758.609	0.0139911
758.687	0.0137907
758.765	0.0138866
758.843	0.0138293
758.921	0.0139292
758.999	0.0136570
759.078	0.0134861
759.156	0.0135663
759.234	0.0134470
759.312	0.0135431
759.390	0.0136095
759.468	0.0136474
759.546	0.0136385
759.624	0.0136859
759.703	0.0136398
759.781	0.0139635
759.859	0.0139080
759.937	0.0138914
760.015	0.0140217
760.093	0.0138894
760.171	0.0141344
760.249	0.0140828
760.328	0.0140182
760.406	0.0141196
760.484	0.0141078
760.562	0.0141641
760.640	0.0140188
760.718	0.0140281
760.796	0.0139325
760.874	0.0139931
760.953	0.0140247
761.031	0.0140450
761.109	0.0141256
761.187	0.0140832
761.265	0.0140335
761.343	0.0141951
761.421	0.0142153
761.499	0.0141655
761.578	0.0141011
761.656	0.0143488
761.734	0.0142270
761.812	0.0142414
761.890	0.0142516
761.968	0.0142617
762.046	0.0142969
762.124	0.0141624
762.203	0.0141674
762.281	0.0142613
762.359	0.0142532
762.437	0.0141122
762.515	0.0143224
762.593	0.0142660
762.671	0.0142077
762.749	0.0143518
762.828	0.0141839
762.906	0.0142331
762.984	0.0142808
763.062	0.0143468
763.140	0.0142712
763.218	0.0142641
763.296	0.0143324
763.374	0.0141766
763.453	0.0142879
763.531	0.0143574
763.609	0.0143669
763.687	0.0142625
763.765	0.0142072
763.843	0.0142384
763.921	0.0140301
763.999	0.0141676
764.078	0.0141178
764.156	0.0142658
764.234	0.0141326
764.312	0.0140908
764.390	0.0142747
764.468	0.0141467
764.546	0.0140130
764.624	0.0139091
764.703	0.0142632
764.781	0.0140670
764.859	0.0140813
764.937	0.0139787
765.015	0.0139034
765.093	0.0137762
765.171	0.0138089
765.249	0.0137325
765.328	0.0138083
765.406	0.0139266
765.484	0.0139767
765.562	0.0139708
765.640	0.0139300
765.718	0.0140139
765.796	0.0141132
765.874	0.0140850
765.953	0.0142442
766.031	0.0141706
766.109	0.0142867
766.187	0.0143560
766.265	0.0144070
766.343	0.0143384
766.421	0.0143115
766.499	0.0144540
766.578	0.0145202
766.656	0.0145747
766.734	0.0144075
766.812	0.0143431
766.890	0.0144221
766.968	0.0143547
767.046	0.0144188
767.124	0.0143105
767.203	0.0143910
767.281	0.0143597
767.359	0.0144302
767.437	0.0144344
767.515	0.0142845
767.593	0.0142837
767.671	0.0144302
767.749	0.0142226
767.828	0.0142474
767.906	0.0143246
767.984	0.0143964
768.062	0.0142390
768.140	0.0142142
768.218	0.0141334
768.296	0.0140276
768.374	0.0139405
768.453	0.0139886
768.531	0.0139404
768.609	0.0140605
768.687	0.0139043
768.765	0.0139413
768.843	0.0139906
768.921	0.0138939
768.999	0.0140885
769.078	0.0141129
769.156	0.0140656
769.234	0.0140966
769.312	0.0139610
769.390	0.0139066
769.468	0.0139993
769.546	0.0140163
769.624	0.0139983
769.703	0.0140071
769.781	0.0139894
769.859	0.0140444
769.937	0.0140430
770.015	0.0138872
770.093	0.0141037
770.171	0.0140599
770.249	0.0138376
770.328	0.0141660
770.406	0.0141586
770.484	0.0141322
770.562	0.0142023
770.640	0.0141716
770.718	0.0142597
770.796	0.0142130
770.874	0.0143671
770.953	0.0142510
771.031	0.0144415
771.109	0.0143531
771.187	0.0143493
771.265	0.0143520
771.343	0.0144269
771.421	0.0145028
771.499	0.0144422
771.578	0.0143993
771.656	0.0144111
771.734	0.0144949
771.812	0.0143852
771.890	0.0145740
771.968	0.0144971
772.046	0.0145113
772.124	0.0143925
772.203	0.0144330
772.281	0.0142950
772.359	0.0142816
772.437	0.0141415
772.515	0.0141489
772.593	0.0141773
772.671	0.0141078
772.749	0.0141763
772.828	0.0141351
772.906	0.0139833
772.984	0.0139849
773.062	0.0139104
773.140	0.0139374
773.218	0.0139126
773.296	0.0140626
773.374	0.0139675
773.453	0.0140308
773.531	0.0139082
773.609	0.0141803
773.687	0.0141293
773.765	0.0139625
773.843	0.0140645
773.921	0.0141370
773.999	0.0141375
774.078	0.0141640
774.156	0.0142608
774.234	0.0140559
774.312	0.0140694
774.390	0.0141814
774.468	0.0142372
774.546	0.0143378
774.624	0.0141902
774.703	0.0143271
774.781	0.0142830
774.859	0.0143970
774.937	0.0143770
775.015	0.0143967
775.093	0.0145287
775.171	0.0145051
775.249	0.0143231
775.328	0.0143980
775.406	0.0144051
775.484	0.0143275
775.562	0.0144511
775.640	0.0142386
775.718	0.0143392
775.796	0.0143040
775.874	0.0141128
775.953	0.0141022
776.031	0.0139973
776.109	0.0140005
776.187	0.0141023
776.265	0.0139523
776.343	0.0140017
776.421	0.0139091
776.499	0.0139540
776.578	0.0138098
776.656	0.0140778
776.734	0.0141666
776.812	0.0140407
776.890	0.0141212
776.968	0.0140293
777.046	0.0140237
777.124	0.0141293
777.203	0.0141853
777.281	0.0141034
777.359	0.0140918
777.437	0.0140733
777.515	0.0141206
777.593	0.0142140
777.671	0.0141586
777.749	0.0141429
777.828	0.0141483
777.906	0.0142059
777.984	0.0142580
778.062	0.0138989
778.140	0.0140205
778.218	0.0142143
778.296	0.0142485
778.374	0.0142035
778.453	0.0141547
778.531	0.0143256
778.609	0.0143153
778.687	0.0141704
778.765	0.0143210
778.843	0.0142945
778.921	0.0142189
778.999	0.0142913
779.078	0.0142587
779.156	0.0141978
779.234	0.0142946
779.312	0.0141819
779.390	0.0141280
779.468	0.0141459
779.546	0.0142010
779.624	0.0142059
779.703	0.0141741
779.781	0.0142075
779.859	0.0139883
779.937	0.0138750
780.015	0.0139323
780.093	0.0139690
780.171	0.0140361
780.249	0.0140310
780.328	0.0140204
780.406	0.0139739
780.484	0.0139419
780.562	0.0139928
780.640	0.0140292
780.718	0.0141247
780.796	0.0141564
780.874	0.0139914
780.953	0.0142857
781.031	0.0140228
781.109	0.0140147
781.187	0.0141509
781.265	0.0141353
781.343	0.0140263
781.421	0.0140618
781.499	0.0140077
781.578	0.0141069
781.656	0.0141026
781.734	0.0140615
781.812	0.0140050
781.890	0.0140050
781.968	0.0141471
782.046	0.0142668
782.124	0.0140616
782.203	0.0141963
782.281	0.0141777
782.359	0.0142873
782.437	0.0143041
782.515	0.0141841
782.593	0.0142787
782.671	0.0141535
782.749	0.0141893
782.828	0.0142848
782.906	0.0142738
782.984	0.0143873
783.062	0.0143693
783.140	0.0142567
783.218	0.0143198
783.296	0.0144262
783.374	0.0143029
783.453	0.0143797
783.531	0.0143876
783.609	0.0143517
783.687	0.0144479
783.765	0.0141008
783.843	0.0142784
783.921	0.0142225
783.999	0.0139604
784.078	0.0140681
784.156	0.0139574
784.234	0.0138738
784.312	0.0139851
784.390	0.0137621
784.468	0.0136413
784.546	0.0138006
784.624	0.0138802
784.703	0.0136823
784.781	0.0137286
784.859	0.0136644
784.937	0.0136201
785.015	0.0136325
785.093	0.0136555
785.171	0.0137058
785.249	0.0135981
785.328	0.0135300
785.406	0.0136391
785.484	0.0135239
785.562	0.0135691
785.640	0.0134419
785.718	0.0135054
785.796	0.0136910
785.874	0.0135758
785.953	0.0136404
786.031	0.0136285
786.109	0.0138477
786.187	0.0139353
786.265	0.0138744
786.343	0.0138527
786.421	0.0140329
786.499	0.0141779
786.578	0.0142094
786.656	0.0142794
786.734	0.0142847
786.812	0.0142896
786.890	0.0143965
786.968	0.0144080
787.046	0.0144767
787.124	0.0145736
787.203	0.0145961
787.281	0.0145877
787.359	0.0144286
787.437	0.0145451
787.515	0.0146231
787.593	0.0145049
787.671	0.0145407
787.749	0.0145200
787.828	0.0144713
787.906	0.0143977
787.984	0.0143440
788.062	0.0142397
788.140	0.0142331
788.218	0.0142877
788.296	0.0141392
788.374	0.0142366
788.453	0.0141988
788.531	0.0142889
788.609	0.0141235
788.687	0.0140523
788.765	0.0140703
788.843	0.0141654
788.921	0.0140308
788.999	0.0140117
789.078	0.0138844
789.156	0.0140025
789.234	0.0139198
789.312	0.0139089
789.390	0.0138698
789.468	0.0138020
789.546	0.0137400
789.624	0.0137774
789.703	0.0138368
789.781	0.0138424
789.859	0.0139474
789.937	0.0138979
790.015	0.0137256
790.093	0.0138115
790.171	0.0138083
790.249	0.0138589
790.328	0.0140198
790.406	0.0139261
790.484	0.0139481
790.562	0.0138984
790.640	0.0139237
790.718	0.0138535
790.796	0.0140838
790.874	0.0140130
790.953	0.0140932
791.031	0.0140291
791.109	0.0139246
791.187	0.0141228
791.265	0.0141119
791.343	0.0140926
791.421	0.0141219
791.499	0.0140880
791.578	0.0142315
791.656	0.0142326
791.734	0.0144778
791.812	0.0141911
791.890	0.0142009
791.968	0.0142767
792.046	0.0143519
792.124	0.0143717
792.203	0.0141603
792.281	0.0141791
792.359	0.0143212
792.437	0.0141997
792.515	0.0141991
792.593	0.0142299
792.671	0.0143089
792.749	0.0142322
792.828	0.0141902
792.906	0.0143726
792.984	0.0142386
793.062	0.0142389
793.140	0.0142709
793.218	0.0143938
793.296	0.0143444
793.374	0.0144393
793.453	0.0143634
793.531	0.0143642
793.609	0.0143411
793.687	0.0145840
793.765	0.0144417
793.843	0.0143924
793.921	0.0145078
793.999	0.0144122
794.078	0.0143771
794.156	0.0142920
794.234	0.0141756
794.312	0.0142267
794.390	0.0142972
794.468	0.0143408
794.546	0.0140902
794.624	0.0141116
794.703	0.0141136
794.781	0.0141305
794.859	0.0141877
794.937	0.0141319
795.015	0.0141303
795.093	0.0140640
795.171	0.0139581
795.249	0.0140521
795.328	0.0140687
795.406	0.0139542
795.484	0.0139579
795.562	0.0137807
795.640	0.0139582
795.718	0.0139645
795.796	0.0140300
795.874	0.0140440
795.953	0.0139951
796.031	0.0139758
796.109	0.0139825
796.187	0.0140903
796.265	0.0140136
796.343	0.0142425
796.421	0.0141189
796.499	0.0142224
796.578	0.0142720
796.656	0.0141247
796.734	0.0142521
796.812	0.0142413
796.890	0.0142627
796.968	0.0142869
797.046	0.0143456
797.124	0.0144509
797.203	0.0143418
797.281	0.0142083
797.359	0.0143038
797.437	0.0140794
797.515	0.0141278
797.593	0.0141389
797.671	0.0141997
797.749	0.0140966
797.828	0.0142066
797.906	0.0140753
797.984	0.0141939
798.062	0.0142670
798.140	0.0141747
798.218	0.0142490
798.296	0.0143351
798.374	0.0143115
798.453	0.0143593
798.531	0.0144665
798.609	0.0144844
798.687	0.0143252
798.765	0.0145106
798.843	0.0144732
798.921	0.0144382
798.999	0.0144101
799.078	0.0144535
799.156	0.0145989
799.234	0.0145061
799.312	0.0145142
799.390	0.0144450
799.468	0.0144599
799.546	0.0145850
799.624	0.0144662
799.703	0.0143385
799.781	0.0144634
799.859	0.0144774
799.937	0.0142802
800.015	0.0143668
800.093	0.0143998
800.171	0.0143025
800.249	0.0141629
800.328	0.0142568
800.406	0.0141183
800.484	0.0141443
800.562	0.0141508
800.640	0.0144084
800.718	0.0143042
800.796	0.0141158
800.874	0.0141068
800.953	0.0141860
801.031	0.0140487
801.109	0.0139671
801.187	0.0139622
801.265	0.0140220
801.343	0.0138271
801.421	0.0139943
801.499	0.0138666
801.578	0.0139240
801.656	0.0139874
801.734	0.0138206
801.812	0.0139703
801.890	0.0140197
801.968	0.0139593
802.046	0.0138992
802.124	0.0140617
802.203	0.0139735
802.281	0.0140480
802.359	0.0139031
802.437	0.0141801
802.515	0.0140799
802.593	0.0140697
802.671	0.0140225
802.749	0.0139358
802.828	0.0140955
802.906	0.0141277
802.984	0.0140907
803.062	0.0141178
803.140	0.0141222
803.218	0.0142832
803.296	0.0140903
803.374	0.0142271
803.453	0.0143555
803.531	0.0142188
803.609	0.0142081
803.687	0.0143490
803.765	0.0144927
803.843	0.0144212
803.921	0.0142550
803.999	0.0143786
804.078	0.0143138
804.156	0.0143251
804.234	0.0143054
804.312	0.0143562
804.390	0.0143333
804.468	0.0142532
804.546	0.0142260
804.624	0.0140952
804.703	0.0141855
804.781	0.0141333
804.859	0.0140912
804.937	0.0140762
805.015	0.0138960
805.093	0.0140717
805.171	0.0140153
805.249	0.0140896
805.328	0.0139634
805.406	0.0139046
805.484	0.0141389
805.562	0.0140415
805.640	0.0141640
805.718	0.0140520
805.796	0.0141350
805.874	0.0142032
805.953	0.0141753
806.031	0.0140778
806.109	0.0140527
806.187	0.0140623
806.265	0.0140736
806.343	0.0141906
806.421	0.0141608
806.499	0.0141238
806.578	0.0141537
806.656	0.0141281
806.734	0.0141766
806.812	0.0141106
806.890	0.0140801
806.968	0.0142160
807.046	0.0141573
807.124	0.0141471
807.203	0.0142440
807.281	0.0142670
807.359	0.0141702
807.437	0.0141789
807.515	0.0142040
807.593	0.0141776
807.671	0.0143710
807.749	0.0143402
807.828	0.0142665
807.906	0.0142373
807.984	0.0142324
808.062	0.0144830
808.140	0.0143802
808.218	0.0140652
808.296	0.0141218
808.374	0.0141756
808.453	0.0142699
808.531	0.0138353
808.609	0.0139342
808.687	0.0141961
808.765	0.0140048
808.843	0.0138863
808.921	0.0140682
808.999	0.0139314
809.078	0.0140435
809.156	0.0140235
809.234	0.0139587
809.312	0.0141229
809.390	0.0140858
809.468	0.0139910
809.546	0.0140933
809.624	0.0140260
809.703	0.0138027
809.781	0.0138386
809.859	0.0139985
809.937	0.0138749
810.015	0.0138610
810.093	0.0138606
810.171	0.0139344
810.249	0.0139162
810.328	0.0137405
810.406	0.0138405
810.484	0.0139484
810.562	0.0138953
810.640	0.0139170
810.718	0.0140072
810.796	0.0140652
810.874	0.0140193
810.953	0.0138765
811.031	0.0139603
811.109	0.0139636
811.187	0.0139287
811.265	0.0139183
811.343	0.0139011
811.421	0.0138387
811.499	0.0138619
811.578	0.0139877
811.656	0.0139191
811.734	0.0140019
811.812	0.0138568
811.890	0.0139069
811.968	0.0139999
812.046	0.0139307
812.124	0.0140168
812.203	0.0140179
812.281	0.0139632
812.359	0.0139967
812.437	0.0140377
812.515	0.0141833
812.593	0.0140700
812.671	0.0141578
812.749	0.0142291
812.828	0.0141154
812.906	0.0142540
812.984	0.0142313
813.062	0.0143555
813.140	0.0142093
813.218	0.0143081
813.296	0.0141945
813.374	0.0140843
813.453	0.0141422
813.531	0.0140791
813.609	0.0142002
813.687	0.0139817
813.765	0.0139635
813.843	0.0139328
813.921	0.0139967
813.999	0.0138528
814.078	0.0141051
814.156	0.0140237
814.234	0.0139525
814.312	0.0139509
814.390	0.0138771
814.468	0.0138985
814.546	0.0139892
814.624	0.0138923
814.703	0.0140488
814.781	0.0140755
814.859	0.0140188
814.937	0.0139291
815.015	0.0139378
815.093	0.0140542
815.171	0.0140167
815.249	0.0141560
815.328	0.0140421
815.406	0.0141808
815.484	0.0140552
815.562	0.0141066
815.640	0.0143019
815.718	0.0141875
815.796	0.0141425
815.874	0.0142094
815.953	0.0142369
816.031	0.0141319
816.109	0.0141077
816.187	0.0142234
816.265	0.0140541
816.343	0.0140540
816.421	0.0140639
816.499	0.0139644
816.578	0.0140854
816.656	0.0138901
816.734	0.0141013
816.812	0.0139139
816.890	0.0140354
816.968	0.0139287
817.046	0.0138543
817.124	0.0138396
817.203	0.0138516
817.281	0.0139954
817.359	0.0138595
817.437	0.0138830
817.515	0.0138548
817.593	0.0139690
817.671	0.0139164
817.749	0.0138923
817.828	0.0140291
817.906	0.0140942
817.984	0.0140365
818.062	0.0142128
818.140	0.0141953
818.218	0.0142764
818.296	0.0141729
818.374	0.0142590
818.453	0.0143785
818.531	0.0141595
818.609	0.0142938
818.687	0.0144605
818.765	0.0143349
818.843	0.0143178
818.921	0.0144075
818.999	0.0144493
819.078	0.0144714
819.156	0.0144371
819.234	0.0143011
819.312	0.0143027
819.390	0.0142027
819.468	0.0143263
819.546	0.0142256
819.624	0.0141178
819.703	0.0141407
819.781	0.0142179
819.859	0.0143225
819.937	0.0141720
820.015	0.0140933
820.093	0.0141611
820.171	0.0142167
820.249	0.0141734
820.328	0.0140883
820.406	0.0141152
820.484	0.0140961
820.562	0.0140695
820.640	0.0140815
820.718	0.0141195
820.796	0.0138623
820.874	0.0139467
820.953	0.0140803
821.031	0.0140051
821.109	0.0140681
821.187	0.0140797
821.265	0.0141444
821.343	0.0139246
821.421	0.0141855
821.499	0.0142346
821.578	0.0141916
821.656	0.0142144
821.734	0.0141983
821.812	0.0144923
821.890	0.0143903
821.968	0.0142712
822.046	0.0143247
822.124	0.0144167
822.203	0.0144836
822.281	0.0145197
822.359	0.0145080
822.437	0.0144549
822.515	0.0145294
822.593	0.0143758
822.671	0.0144106
822.749	0.0142823
822.828	0.0142733
822.906	0.0144640
822.984	0.0143160
823.062	0.0142412
823.140	0.0141820
823.218	0.0143316
823.296	0.0140759
823.374	0.0140411
823.453	0.0140968
823.531	0.0140981
823.609	0.0140842
823.687	0.0139655
823.765	0.0140579
823.843	0.0141916
823.921	0.0140311
823.999	0.0141256
824.078	0.0141183
824.156	0.0141694
824.234	0.0142300
824.312	0.0140762
824.390	0.0141839
824.468	0.0141604
824.546	0.0142197
824.624	0.0141097
824.703	0.0140289
824.781	0.0140378
824.859	0.0140520
824.937	0.0141587
825.015	0.0140599
825.093	0.0141170
825.171	0.0141540
825.249	0.0141956
825.328	0.0141158
825.406	0.0142261
825.484	0.0140365
825.562	0.0140173
825.640	0.0140965
825.718	0.0140707
825.796	0.0142351
825.874	0.0141656
825.953	0.0142085
826.031	0.0140295
826.109	0.0142064
826.187	0.0140912
826.265	0.0142407
826.343	0.0141573
826.421	0.0141238
826.499	0.0141315
826.578	0.0142133
826.656	0.0141853
826.734	0.0141427
826.812	0.0142536
826.890	0.0142910
826.968	0.0142256
827.046	0.0143270
827.124	0.0142789
827.203	0.0142957
827.281	0.0143321
827.359	0.0142857
827.437	0.0143152
827.515	0.0142097
827.593	0.0142459
827.671	0.0143917
827.749	0.0143066
827.828	0.0142714
827.906	0.0142405
827.984	0.0142278
828.062	0.0140299
828.140	0.0140624
828.218	0.0140707
828.296	0.0142117
828.374	0.0141378
828.453	0.0142425
828.531	0.0143011
828.609	0.0143311
828.687	0.0143140
828.765	0.0142335
828.843	0.0141483
828.921	0.0141006
828.999	0.0142682
829.078	0.0140893
829.156	0.0141365
829.234	0.0140295
829.312	0.0140318
829.390	0.0140432
829.468	0.0139664
829.546	0.0140213
829.624	0.0140084
829.703	0.0140166
829.781	0.0141886
829.859	0.0140478
829.937	0.0141946
830.015	0.0140326
830.093	0.0141125
830.171	0.0141412
830.249	0.0140389
830.328	0.0141226
830.406	0.0140779
830.484	0.0141076
830.562	0.0141806
830.640	0.0141701
830.718	0.0140958
830.796	0.0140663
830.874	0.0141444
830.953	0.0140198
831.031	0.0138561
831.109	0.0140074
831.187	0.0139156
831.265	0.0140063
831.343	0.0140977
831.421	0.0140046
831.499	0.0139986
831.578	0.0139594
831.656	0.0140519
831.734	0.0141289
831.812	0.0142261
831.890	0.0141553
831.968	0.0140764
832.046	0.0141378
832.124	0.0139191
832.203	0.0140413
832.281	0.0141183
832.359	0.0141721
832.437	0.0140009
832.515	0.0140350
832.593	0.0141179
832.671	0.0141827
832.749	0.0140185
832.828	0.0140956
832.906	0.0139635
832.984	0.0140376
833.062	0.0141160
833.140	0.0140720
833.218	0.0141190
833.296	0.0140215
833.374	0.0142035
833.453	0.0140504
833.531	0.0141664
833.609	0.0141557
833.687	0.0140308
833.765	0.0141247
833.843	0.0140400
833.921	0.0140395
833.999	0.0140070
834.078	0.0140473
834.156	0.0140787
834.234	0.0139515
834.312	0.0140611
834.390	0.0140868
834.468	0.0140639
834.546	0.0140575
834.624	0.0140208
834.703	0.0140609
834.781	0.0141026
834.859	0.0141201
834.937	0.0140900
835.015	0.0142189
835.093	0.0139268
835.171	0.0139268
835.249	0.0141588
835.328	0.0139568
835.406	0.0138776
835.484	0.0139792
835.562	0.0139919
835.640	0.0138972
835.718	0.0138914
835.796	0.0139735
835.874	0.0140189
835.953	0.0141143
836.031	0.0140655
836.109	0.0141174
836.187	0.0140752
836.265	0.0141987
836.343	0.0140218
836.421	0.0141403
836.499	0.0140121
836.578	0.0139455
836.656	0.0138740
836.734	0.0139575
836.812	0.0139768
836.890	0.0140417
836.968	0.0140987
837.046	0.0139740
837.124	0.0140778
837.203	0.0139255
837.281	0.0140218
837.359	0.0139973
837.437	0.0140314
837.515	0.0140421
837.593	0.0140405
837.671	0.0139708
837.749	0.0139645
837.828	0.0140587
837.906	0.0139989
837.984	0.0139499
838.062	0.0139905
838.140	0.0141881
838.218	0.0139831
838.296	0.0139503
838.374	0.0142034
838.453	0.0140359
838.531	0.0140830
838.609	0.0140476
838.687	0.0140701
838.765	0.0141239
838.843	0.0140375
838.921	0.0140116
838.999	0.0141145
839.078	0.0141077
839.156	0.0140771
839.234	0.0139873
839.312	0.0140749
839.390	0.0140805
839.468	0.0141079
839.546	0.0140222
839.624	0.0141663
839.703	0.0142464
839.781	0.0142587
839.859	0.0140331
839.937	0.0140260
840.015	0.0141451
840.093	0.0141624
840.171	0.0140420
840.249	0.0141206
840.328	0.0141550
840.406	0.0140065
840.484	0.0142207
840.562	0.0142036
840.640	0.0140910
840.718	0.0141957
840.796	0.0141365
840.874	0.0139632
840.953	0.0140050
841.031	0.0140585
841.109	0.0139243
841.187	0.0140487
841.265	0.0142033
841.343	0.0141020
841.421	0.0141729
841.499	0.0141158
841.578	0.0140231
841.656	0.0139458
841.734	0.0140477
841.812	0.0139973
841.890	0.0140302
841.968	0.0140096
842.046	0.0139716
842.124	0.0139871
842.203	0.0140150
842.281	0.0140427
842.359	0.0140449
842.437	0.0140509
842.515	0.0139748
842.593	0.0140343
842.671	0.0138756
842.749	0.0139849
842.828	0.0140192
842.906	0.0139159
842.984	0.0140429
843.062	0.0139851
843.140	0.0140460
843.218	0.0139550
843.296	0.0141434
843.374	0.0140920
843.453	0.0142191
843.531	0.0141777
843.609	0.0142010
843.687	0.0141049
843.765	0.0140871
843.843	0.0141331
843.921	0.0140799
843.999	0.0141589
844.078	0.0142654
844.156	0.0141769
844.234	0.0142158
844.312	0.0141360
844.390	0.0143045
844.468	0.0143754
844.546	0.0142500
844.624	0.0143520
844.703	0.0142178
844.781	0.0144278
844.859	0.0142225
844.937	0.0141978
845.015	0.0141944
845.093	0.0142931
845.171	0.0142057
845.249	0.0143716
845.328	0.0143936
845.406	0.0141541
845.484	0.0141126
845.562	0.0142247
845.640	0.0142386
845.718	0.0141595
845.796	0.0140685
845.874	0.0139896
845.953	0.0139481
846.031	0.0141338
846.109	0.0139318
846.187	0.0140607
846.265	0.0139973
846.343	0.0140243
846.421	0.0137856
846.499	0.0139388
846.578	0.0139623
846.656	0.0138876
846.734	0.0139489
846.812	0.0139678
846.890	0.0138901
846.968	0.0140802
847.046	0.0140318
847.124	0.0139610
847.203	0.0140648
847.281	0.0139482
847.359	0.0140108
847.437	0.0141175
847.515	0.0140987
847.593	0.0140649
847.671	0.0141103
847.749	0.0140802
847.828	0.0142525
847.906	0.0140928
847.984	0.0142284
848.062	0.0142365
848.140	0.0142515
848.218	0.0141228
848.296	0.0144545
848.374	0.0143432
848.453	0.0143501
848.531	0.0143690
848.609	0.0143090
848.687	0.0143964
848.765	0.0143739
848.843	0.0144035
848.921	0.0142127
848.999	0.0142715
849.078	0.0143407
849.156	0.0142266
849.234	0.0141680
849.312	0.0142022
849.390	0.0141783
849.468	0.0142941
849.546	0.0142070
849.624	0.0141412
849.703	0.0141647
849.781	0.0141454
849.859	0.0139272
849.937	0.0140478
850.015	0.0140244
850.093	0.0139272
850.171	0.0139294
850.249	0.0139545
850.328	0.0138867
850.406	0.0138248
850.484	0.0139415
850.562	0.0138654
850.640	0.0138681
850.718	0.0139992
850.796	0.0138733
850.874	0.0139828
850.953	0.0138683
851.031	0.0138977
851.109	0.0140031
851.187	0.0139810
851.265	0.0141716
851.343	0.0141719
851.421	0.0140913
851.499	0.0140416
851.578	0.0141177
851.656	0.0141827
851.734	0.0142389
851.812	0.0142816
851.890	0.0142233
851.968	0.0142754
852.046	0.0143745
852.124	0.0144083
852.203	0.0144853
852.281	0.0145046
852.359	0.0145097
852.437	0.0144274
852.515	0.0145028
852.593	0.0145328
852.671	0.0145206
852.749	0.0145097
852.828	0.0144519
852.906	0.0144772
852.984	0.0144005
853.062	0.0142940
853.140	0.0141374
853.218	0.0142393
853.296	0.0141406
853.374	0.0140816
853.453	0.0139391
853.531	0.0138977
853.609	0.0138811
853.687	0.0138933
853.765	0.0137384
853.843	0.0137331
853.921	0.0136750
853.999	0.0136591
854.078	0.0137517
854.156	0.0137561
854.234	0.0136822
854.312	0.0135833
854.390	0.0137187
854.468	0.0137151
854.546	0.0137750
854.624	0.0137515
854.703	0.0137859
854.781	0.0137597
854.859	0.0139410
854.937	0.0139657
855.015	0.0140215
855.093	0.0140756
855.171	0.0140458
855.249	0.0140654
855.328	0.0140719
855.406	0.0142157
855.484	0.0141241
855.562	0.0141637
855.640	0.0142053
855.718	0.0142135
855.796	0.0142558
855.874	0.0142319
855.953	0.0142912
856.031	0.0142884
856.109	0.0142223
856.187	0.0142993
856.265	0.0144422
856.343	0.0143748
856.421	0.0144825
856.499	0.0143591
856.578	0.0143747
856.656	0.0144415
856.734	0.0145267
856.812	0.0144577
856.890	0.0142760
856.968	0.0143153
857.046	0.0142671
857.124	0.0142617
857.203	0.0142872
857.281	0.0142685
857.359	0.0140468
857.437	0.0140018
857.515	0.0142219
857.593	0.0139745
857.671	0.0139202
857.749	0.0140582
857.828	0.0138789
857.906	0.0139571
857.984	0.0140908
858.062	0.0139104
858.140	0.0138898
858.218	0.0137872
858.296	0.0139484
858.374	0.0138462
858.453	0.0138454
858.531	0.0137866
858.609	0.0138238
858.687	0.0138910
858.765	0.0137911
858.843	0.0139027
858.921	0.0139479
858.999	0.0138954
859.078	0.0138144
859.156	0.0138326
859.234	0.0138325
859.312	0.0140097
859.390	0.0140862
859.468	0.0140171
859.546	0.0140028
859.624	0.0141859
859.703	0.0141663
859.781	0.0141177
859.859	0.0141608
859.937	0.0142109
860.015	0.0141570
860.093	0.0142224
860.171	0.0142710
860.249	0.0143413
860.328	0.0143039
860.406	0.0140601
860.484	0.0142487
860.562	0.0144077
860.640	0.0142374
860.718	0.0141203
860.796	0.0142335
860.874	0.0143503
860.953	0.0143723
861.031	0.0142798
861.109	0.0141693
861.187	0.0142580
861.265	0.0142342
861.343	0.0141483
861.421	0.0142575
861.499	0.0143161
861.578	0.0143304
861.656	0.0141537
861.734	0.0142247
861.812	0.0142412
861.890	0.0143151
861.968	0.0142221
862.046	0.0144148
862.124	0.0142854
862.203	0.0142794
862.281	0.0143071
862.359	0.0141870
862.437	0.0142010
862.515	0.0142068
862.593	0.0141106
862.671	0.0139944
862.749	0.0140020
862.828	0.0139356
862.906	0.0141104
862.984	0.0139966
863.062	0.0140625
863.140	0.0139648
863.218	0.0140603
863.296	0.0138512
863.374	0.0141183
863.453	0.0141512
863.531	0.0140933
863.609	0.0139715
863.687	0.0141439
863.765	0.0140161
863.843	0.0140293
863.921	0.0142175
863.999	0.0142880
864.078	0.0140517
864.156	0.0141910
864.234	0.0141388
864.312	0.0139867
864.390	0.0140354
864.468	0.0141041
864.546	0.0141036
864.624	0.0139619
864.703	0.0141335
864.781	0.0142047
864.859	0.0141319
864.937	0.0142871
865.015	0.0142000
865.093	0.0141690
865.171	0.0140681
865.249	0.0141057
865.328	0.0141861
865.406	0.0141605
865.484	0.0142886
865.562	0.0143130
865.640	0.0143388
865.718	0.0143018
865.796	0.0143155
865.874	0.0142327
865.953	0.0142805
866.031	0.0143051
866.109	0.0142035
866.187	0.0142144
866.265	0.0143005
866.343	0.0141865
866.421	0.0141019
866.499	0.0140783
866.578	0.0140757
866.656	0.0141158
866.734	0.0141322
866.812	0.0141759
866.890	0.0141884
866.968	0.0142184
867.046	0.0139901
867.124	0.0140984
867.203	0.0140554
867.281	0.0139121
867.359	0.0139620
867.437	0.0139382
867.515	0.0140245
867.593	0.0140316
867.671	0.0139371
867.749	0.0139793
867.828	0.0138606
867.906	0.0139583
867.984	0.0138176
868.062	0.0138953
868.140	0.0138206
868.218	0.0140537
868.296	0.0138779
868.374	0.0139628
868.453	0.0140488
868.531	0.0139823
868.609	0.0139758
868.687	0.0139881
868.765	0.0141117
868.843	0.0141486
868.921	0.0139183
868.999	0.0140217
869.078	0.0141042
869.156	0.0141148
869.234	0.0141199
869.312	0.0142860
869.390	0.0142805
869.468	0.0142345
869.546	0.0140575
869.624	0.0141338
869.703	0.0140157
869.781	0.0141401
869.859	0.0142639
869.937	0.0141580
870.015	0.0143128
870.093	0.0143384
870.171	0.0141371
870.249	0.0142188
870.328	0.0143743
870.406	0.0142421
870.484	0.0143668
870.562	0.0142747
870.640	0.0142132
870.718	0.0142025
870.796	0.0141872
870.874	0.0142344
870.953	0.0140630
871.031	0.0140427
871.109	0.0141006
871.187	0.0140865
871.265	0.0140148
871.343	0.0139645
871.421	0.0141225
871.499	0.0140683
871.578	0.0139799
871.656	0.0139068
871.734	0.0140345
871.812	0.0139414
871.890	0.0140014
871.968	0.0139933
872.046	0.0140053
872.124	0.0141634
872.203	0.0140742
872.281	0.0141373
872.359	0.0141272
872.437	0.0140931
872.515	0.0140601
872.593	0.0141447
872.671	0.0141378
872.749	0.0141512
872.828	0.0140600
872.906	0.0141531
872.984	0.0141291
873.062	0.0141676
873.140	0.0141688
873.218	0.0142039
873.296	0.0140993
873.374	0.0141646
873.453	0.0140858
873.531	0.0142316
873.609	0.0141277
873.687	0.0140777
873.765	0.0140962
873.843	0.0140815
873.921	0.0141831
873.999	0.0140742
874.078	0.0140842
874.156	0.0140627
874.234	0.0141071
874.312	0.0140618
874.390	0.0140087
874.468	0.0141382
874.546	0.0139894
874.624	0.0141138
874.703	0.0138916
874.781	0.0139341
874.859	0.0140682
874.937	0.0140869
875.015	0.0141455
875.093	0.0140674
875.171	0.0140092
875.249	0.0139853
875.328	0.0141713
875.406	0.0142530
875.484	0.0141251
875.562	0.0142381
875.640	0.0143484
875.718	0.0143031
875.796	0.0144058
875.874	0.0143190
875.953	0.0141402
876.031	0.0142336
876.109	0.0142652
876.187	0.0142310
876.265	0.0141961
876.343	0.0142481
876.421	0.0143432
876.499	0.0142453
876.578	0.0142177
876.656	0.0141998
876.734	0.0143075
876.812	0.0141693
876.890	0.0143308
876.968	0.0143259
877.046	0.0142040
877.124	0.0142011
877.203	0.0143075
877.281	0.0144216
877.359	0.0142986
877.437	0.0142868
877.515	0.0143510
877.593	0.0143411
877.671	0.0143201
877.749	0.0144527
877.828	0.0143916
877.906	0.0144009
877.984	0.0145172
878.062	0.0145585
878.140	0.0144198
878.218	0.0143703
878.296	0.0143140
878.374	0.0143042
878.453	0.0144253
878.531	0.0143587
878.609	0.0142299
878.687	0.0143188
878.765	0.0142231
878.843	0.0142197
878.921	0.0143218
878.999	0.0143105
879.078	0.0141505
879.156	0.0141201
879.234	0.0141879
879.312	0.0141367
879.390	0.0141104
879.468	0.0139559
879.546	0.0139697
879.624	0.0139847
879.703	0.0139974
879.781	0.0139201
879.859	0.0138932
879.937	0.0137991
880.015	0.0137701
880.093	0.0139239
880.171	0.0137704
880.249	0.0138922
880.328	0.0138622
880.406	0.0139644
880.484	0.0137895
880.562	0.0139607
880.640	0.0139512
880.718	0.0140421
880.796	0.0139607
880.874	0.0139902
880.953	0.0140603
881.031	0.0141341
881.109	0.0141613
881.187	0.0142533
881.265	0.0142181
881.343	0.0141560
881.421	0.0140990
881.499	0.0141738
881.578	0.0142133
881.656	0.0142197
881.734	0.0141759
881.812	0.0142643
881.890	0.0142558
881.968	0.0144176
882.046	0.0145259
882.124	0.0143193
882.203	0.0142773
882.281	0.0143707
882.359	0.0143400
882.437	0.0143964
882.515	0.0143208
882.593	0.0143121
882.671	0.0145921
882.749	0.0144727
882.828	0.0144225
882.906	0.0144320
882.984	0.0142867
883.062	0.0142332
883.140	0.0142544
883.218	0.0142976
883.296	0.0142280
883.374	0.0141340
883.453	0.0142117
883.531	0.0141803
883.609	0.0142199
883.687	0.0142618
883.765	0.0142182
883.843	0.0141861
883.921	0.0142088
883.999	0.0141705
884.078	0.0141076
884.156	0.0141429
884.234	0.0141054
884.312	0.0141704
884.390	0.0140368
884.468	0.0140945
884.546	0.0142015
884.624	0.0140185
884.703	0.0140173
884.781	0.0139425
884.859	0.0139300
884.937	0.0140714
885.015	0.0140047
885.093	0.0141829
885.171	0.0141564
885.249	0.0140524
885.328	0.0140453
885.406	0.0141825
885.484	0.0142593
885.562	0.0141110
885.640	0.0141122
885.718	0.0142440
885.796	0.0142342
885.874	0.0142443
885.953	0.0142490
886.031	0.0140336
886.109	0.0140961
886.187	0.0142319
886.265	0.0141588
886.343	0.0141764
886.421	0.0142585
886.499	0.0143449
886.578	0.0140467
886.656	0.0140826
886.734	0.0140064
886.812	0.0140540
886.890	0.0142509
886.968	0.0141415
887.046	0.0141066
887.124	0.0142009
887.203	0.0142312
887.281	0.0141845
887.359	0.0141903
887.437	0.0141395
887.515	0.0141628
887.593	0.0142725
887.671	0.0142155
887.749	0.0142106
887.828	0.0143156
887.906	0.0141600
887.984	0.0142335
888.062	0.0142885
888.140	0.0143011
888.218	0.0143280
888.296	0.0142738
888.374	0.0143259
888.453	0.0143813
888.531	0.0142554
888.609	0.0141239
888.687	0.0141546
888.765	0.0142367
888.843	0.0142348
888.921	0.0141523
888.999	0.0139972
889.078	0.0141730
889.156	0.0141467
889.234	0.0140958
889.312	0.0141232
889.390	0.0141052
889.468	0.0140083
889.546	0.0140544
889.624	0.0140649
889.703	0.0140247
889.781	0.0138835
889.859	0.0139089
889.937	0.0139705
890.015	0.0138433
890.093	0.0139732
890.171	0.0139030
890.249	0.0138549
890.328	0.0138718
890.406	0.0139751
890.484	0.0140515
890.562	0.0139523
890.640	0.0138079
890.718	0.0141099
890.796	0.0141208
890.874	0.0140626
890.953	0.0142439
891.031	0.0141713
891.109	0.0143478
891.187	0.0141826
891.265	0.0141994
891.343	0.0142072
891.421	0.0143522
891.499	0.0143320
891.578	0.0142432
891.656	0.0143250
891.734	0.0143004
891.812	0.0142194
891.890	0.0143865
891.968	0.0144251
892.046	0.0142973
892.124	0.0142925
892.203	0.0142327
892.281	0.0141738
892.359	0.0142319
892.437	0.0142191
892.515	0.0142365
892.593	0.0142243
892.671	0.0141103
892.749	0.0143206
892.828	0.0142988
892.906	0.0141549
892.984	0.0141063
893.062	0.0141277
893.140	0.0141617
893.218	0.0141214
893.296	0.0140654
893.374	0.0141290
893.453	0.0140928
893.531	0.0140365
893.609	0.0141457
893.687	0.0140339
893.765	0.0139087
893.843	0.0139838
893.921	0.0139485
893.999	0.0140504
894.078	0.0140107
894.156	0.0141199
894.234	0.0141584
894.312	0.0140842
894.390	0.0141545
894.468	0.0141987
894.546	0.0140800
894.624	0.0142096
894.703	0.0141151
894.781	0.0139984
894.859	0.0141096
894.937	0.0140857
895.015	0.0141910
895.093	0.0141311
895.171	0.0139344
895.249	0.0141864
895.328	0.0140041
895.406	0.0139719
895.484	0.0139908
895.562	0.0139922
895.640	0.0141013
895.718	0.0139976
895.796	0.0140796
895.874	0.0140173
895.953	0.0140921
896.031	0.0139940
896.109	0.0140479
896.187	0.0138282
896.265	0.0139558
896.343	0.0141415
896.421	0.0141366
896.499	0.0140812
896.578	0.0140443
896.656	0.0139779
896.734	0.0140232
896.812	0.0142049
896.890	0.0141091
896.968	0.0140692
897.046	0.0141644
897.124	0.0140970
897.203	0.0140760
897.281	0.0140460
897.359	0.0142186
897.437	0.0141306
897.515	0.0141468
897.593	0.0141233
897.671	0.0140831
897.749	0.0140231
897.828	0.0141334
897.906	0.0142770
897.984	0.0140970
898.062	0.0141669
898.140	0.0142358
898.218	0.0142712
898.296	0.0140997
898.374	0.0141792
898.453	0.0141916
898.531	0.0140632
898.609	0.0140028
898.687	0.0140952
898.765	0.0142171
898.843	0.0142224
898.921	0.0141308
898.999	0.0141456
899.078	0.0142693
899.156	0.0140205
899.234	0.0140920
899.312	0.0140778
899.390	0.0141877
899.468	0.0141736
899.546	0.0140822
899.624	0.0140396
899.703	0.0141017
899.781	0.0141939
899.859	0.0142275
899.937	0.0142110
900.015	0.0140697
900.093	0.0140703
900.171	0.0141247
900.249	0.0139671
900.328	0.0141565
900.406	0.0140664
900.484	0.0140385
900.562	0.0140385
900.640	0.0140550
900.718	0.0140183
900.796	0.0139953
900.874	0.0138772
900.953	0.0139587
901.031	0.0140067
901.109	0.0140662
901.187	0.0139900
901.265	0.0140374
901.343	0.0139692
901.421	0.0139290
901.499	0.0140742
901.578	0.0139557
901.656	0.0140338
901.734	0.0139259
901.812	0.0139895
901.890	0.0139019
901.968	0.0138113
902.046	0.0139664
902.124	0.0140470
902.203	0.0139511
902.281	0.0137260
902.359	0.0139316
902.437	0.0139554
902.515	0.0138151
902.593	0.0138557
902.671	0.0139669
902.749	0.0138975
902.828	0.0140321
902.906	0.0140418
902.984	0.0141560
903.062	0.0140283
903.140	0.0141738
903.218	0.0141525
903.296	0.0140910
903.374	0.0141476
903.453	0.0141438
903.531	0.0143157
903.609	0.0143407
903.687	0.0143846
903.765	0.0143426
903.843	0.0145585
903.921	0.0144805
903.999	0.0144650
904.078	0.0143606
904.156	0.0142654
904.234	0.0143896
904.312	0.0145158
904.390	0.0143420
904.468	0.0142477
904.546	0.0142773
904.624	0.0143301
904.703	0.0142692
904.781	0.0142464
904.859	0.0143224
904.937	0.0141308
905.015	0.0141645
905.093	0.0142799
905.171	0.0139989
905.249	0.0140643
905.328	0.0141099
905.406	0.0139787
905.484	0.0139686
905.562	0.0139780
905.640	0.0140113
905.718	0.0138418
905.796	0.0139279
905.874	0.0139709
905.953	0.0139182
906.031	0.0141086
906.109	0.0139620
906.187	0.0138514
906.265	0.0139365
906.343	0.0138845
906.421	0.0139706
906.499	0.0138313
906.578	0.0137795
906.656	0.0139541
906.734	0.0140055
906.812	0.0138494
906.890	0.0138934
906.968	0.0138457
907.046	0.0139203
907.124	0.0139835
907.203	0.0139060
907.281	0.0139283
907.359	0.0140877
907.437	0.0141104
907.515	0.0139648
907.593	0.0141811
907.671	0.0140640
907.749	0.0142898
907.828	0.0142372
907.906	0.0142220
907.984	0.0143777
908.062	0.0142757
908.140	0.0142461
908.218	0.0141827
908.296	0.0141800
908.374	0.0141467
908.453	0.0142059
908.531	0.0144939
908.609	0.0143960
908.687	0.0141477
908.765	0.0143012
908.843	0.0144505
908.921	0.0141763
908.999	0.0141642
909.078	0.0141382
909.156	0.0142616
909.234	0.0142776
909.312	0.0142509
909.390	0.0143137
909.468	0.0142315
909.546	0.0142192
909.624	0.0143542
909.703	0.0143205
909.781	0.0143252
909.859	0.0142320
909.937	0.0142036
910.015	0.0142995
910.093	0.0142323
910.171	0.0141209
910.249	0.0142355
910.328	0.0140456
910.406	0.0142442
910.484	0.0141263
910.562	0.0140637
910.640	0.0141678
910.718	0.0141575
910.796	0.0141101
910.874	0.0141768
910.953	0.0142734
911.031	0.0141467
911.109	0.0141045
911.187	0.0141882
911.265	0.0140472
911.343	0.0140038
911.421	0.0140741
911.499	0.0140523
911.578	0.0139746
911.656	0.0140029
911.734	0.0139842
911.812	0.0140631
911.890	0.0139694
911.968	0.0139101
912.046	0.0140224
912.124	0.0139405
912.203	0.0140582
912.281	0.0139767
912.359	0.0139558
912.437	0.0141534
912.515	0.0141116
912.593	0.0140405
912.671	0.0140871
912.749	0.0141249
912.828	0.0142136
912.906	0.0140910
912.984	0.0140132
913.062	0.0141591
913.140	0.0140305
913.218	0.0142484
913.296	0.0142061
913.374	0.0140878
913.453	0.0140787
913.531	0.0141350
913.609	0.0140614
913.687	0.0140932
913.765	0.0141364
913.843	0.0140178
913.921	0.0141440
913.999	0.0141691
914.078	0.0141587
914.156	0.0140703
914.234	0.0139740
914.312	0.0141179
914.390	0.0140624
914.468	0.0140176
914.546	0.0142178
914.624	0.0141500
914.703	0.0140848
914.781	0.0139620
914.859	0.0139352
914.937	0.0140916
915.015	0.0139895
915.093	0.0139977
915.171	0.0139401
915.249	0.0140271
915.328	0.0139522
915.406	0.0139005
915.484	0.0139816
915.562	0.0140933
915.640	0.0140383
915.718	0.0141093
915.796	0.0140652
915.874	0.0140391
915.953	0.0140566
916.031	0.0140085
916.109	0.0139812
916.187	0.0140605
916.265	0.0141090
916.343	0.0140192
916.421	0.0142155
916.499	0.0140234
916.578	0.0142219
916.656	0.0142303
916.734	0.0142203
916.812	0.0140421
916.890	0.0141490
916.968	0.0140194
917.046	0.0141950
917.124	0.0140851
917.203	0.0141740
917.281	0.0141790
917.359	0.0140617
917.437	0.0141855
917.515	0.0140465
917.593	0.0140669
917.671	0.0140325
917.749	0.0140652
917.828	0.0141456
917.906	0.0140892
917.984	0.0139757
918.062	0.0140002
918.140	0.0141407
918.218	0.0140877
918.296	0.0139486
918.374	0.0140060
918.453	0.0141216
918.531	0.0142510
918.609	0.0140816
918.687	0.0139776
918.765	0.0141084
918.843	0.0140371
918.921	0.0140935
918.999	0.0140486
919.078	0.0139627
919.156	0.0141171
919.234	0.0140839
919.312	0.0140279
919.390	0.0141105
919.468	0.0142149
919.546	0.0140984
919.624	0.0140842
919.703	0.0141950
919.781	0.0141611
919.859	0.0140676
919.937	0.0141836
