05/08/2022	20:11:36	Ver.	4.1	UNKNOWN
Optical Delay	600.015094	Delta X		0.078125	Sweeps	1	Scan Rate	0/0
Coordinates	Axis 1	NaN	Axis 2	NaN	Axis 3	NaN	Axis 4	NaN	Axis 5	NaN	Axis 6	0.000000
TX Power	0.000000	RX Power	0.000000

600.015	0.0139027
600.093	0.0138264
600.171	0.0138677
600.249	0.0139886
600.328	0.0139352
600.406	0.0139622
600.484	0.0138583
600.562	0.0138935
600.640	0.0139728
600.718	0.0138576
600.796	0.0139314
600.874	0.0139529
600.953	0.0139713
601.031	0.0137595
601.109	0.0138426
601.187	0.0139119
601.265	0.0139119
601.343	0.0138599
601.421	0.0138800
601.499	0.0139408
601.578	0.0138892
601.656	0.0138840
601.734	0.0138866
601.812	0.0140018
601.890	0.0139445
601.968	0.0138879
602.046	0.0138773
602.124	0.0139980
602.203	0.0139676
602.281	0.0139716
602.359	0.0139936
602.437	0.0138536
602.515	0.0138209
602.593	0.0139587
602.671	0.0139438
602.749	0.0138615
602.828	0.0138369
602.906	0.0139374
602.984	0.0138446
603.062	0.0139114
603.140	0.0139780
603.218	0.0140183
603.296	0.0139455
603.374	0.0138075
603.453	0.0140097
603.531	0.0138918
603.609	0.0138368
603.687	0.0138674
603.765	0.0140277
603.843	0.0138305
603.921	0.0139533
603.999	0.0139998
604.078	0.0138563
604.156	0.0139551
604.234	0.0140302
604.312	0.0140751
604.390	0.0139520
604.468	0.0138528
604.546	0.0139518
604.624	0.0139364
604.703	0.0137534
604.781	0.0138651
604.859	0.0138593
604.937	0.0139526
605.015	0.0139589
605.093	0.0139400
605.171	0.0139461
605.249	0.0138930
605.328	0.0138438
605.406	0.0139493
605.484	0.0138197
605.562	0.0138862
605.640	0.0140244
605.718	0.0140195
605.796	0.0139385
605.874	0.0138268
605.953	0.0139454
606.031	0.0140084
606.109	0.0138361
606.187	0.0139291
606.265	0.0139315
606.343	0.0138598
606.421	0.0139400
606.499	0.0139254
606.578	0.0138757
606.656	0.0139026
606.734	0.0138514
606.812	0.0139735
606.890	0.0139976
606.968	0.0141268
607.046	0.0139085
607.124	0.0139066
607.203	0.0141268
607.281	0.0139020
607.359	0.0138784
607.437	0.0140020
607.515	0.0138986
607.593	0.0139540
607.671	0.0139102
607.749	0.0138307
607.828	0.0139718
607.906	0.0140079
607.984	0.0139489
608.062	0.0138898
608.140	0.0139451
608.218	0.0139376
608.296	0.0140578
608.374	0.0139086
608.453	0.0139638
608.531	0.0139309
608.609	0.0138999
608.687	0.0139069
608.765	0.0140590
608.843	0.0139278
608.921	0.0138353
608.999	0.0141064
609.078	0.0140257
609.156	0.0139814
609.234	0.0139178
609.312	0.0138898
609.390	0.0138138
609.468	0.0138943
609.546	0.0137712
609.624	0.0139633
609.703	0.0139369
609.781	0.0139911
609.859	0.0139306
609.937	0.0139581
610.015	0.0138632
610.093	0.0140016
610.171	0.0138223
610.249	0.0138350
610.328	0.0138121
610.406	0.0139871
610.484	0.0140857
610.562	0.0139282
610.640	0.0139153
610.718	0.0140218
610.796	0.0139823
610.874	0.0140139
610.953	0.0139977
611.031	0.0140259
611.109	0.0139923
611.187	0.0138429
611.265	0.0140460
611.343	0.0139445
611.421	0.0140076
611.499	0.0139983
611.578	0.0140186
611.656	0.0141147
611.734	0.0139408
611.812	0.0140141
611.890	0.0139794
611.968	0.0140702
612.046	0.0140282
612.124	0.0139373
612.203	0.0141041
612.281	0.0140373
612.359	0.0139400
612.437	0.0138490
612.515	0.0139423
612.593	0.0139568
612.671	0.0139381
612.749	0.0140195
612.828	0.0141025
612.906	0.0139207
612.984	0.0139213
613.062	0.0139105
613.140	0.0140065
613.218	0.0140419
613.296	0.0141106
613.374	0.0139165
613.453	0.0140645
613.531	0.0139398
613.609	0.0138977
613.687	0.0139896
613.765	0.0140169
613.843	0.0139374
613.921	0.0139487
613.999	0.0140371
614.078	0.0141055
614.156	0.0138687
614.234	0.0140812
614.312	0.0140581
614.390	0.0139805
614.468	0.0139238
614.546	0.0139169
614.624	0.0139399
614.703	0.0139125
614.781	0.0138480
614.859	0.0139906
614.937	0.0139224
615.015	0.0139825
615.093	0.0139851
615.171	0.0138911
615.249	0.0138847
615.328	0.0140331
615.406	0.0139468
615.484	0.0139969
615.562	0.0139542
615.640	0.0137984
615.718	0.0137937
615.796	0.0138185
615.874	0.0140063
615.953	0.0138846
616.031	0.0139678
616.109	0.0141047
616.187	0.0138977
616.265	0.0138914
616.343	0.0139224
616.421	0.0139128
616.499	0.0138342
616.578	0.0140010
616.656	0.0139224
616.734	0.0138581
616.812	0.0139848
616.890	0.0139206
616.968	0.0138713
617.046	0.0138644
617.124	0.0140226
617.203	0.0138990
617.281	0.0140638
617.359	0.0139263
617.437	0.0137881
617.515	0.0138414
617.593	0.0140000
617.671	0.0138707
617.749	0.0138747
617.828	0.0139069
617.906	0.0139206
617.984	0.0138884
618.062	0.0138728
618.140	0.0139093
618.218	0.0139314
618.296	0.0140170
618.374	0.0138392
618.453	0.0138012
618.531	0.0140003
618.609	0.0139585
618.687	0.0139629
618.765	0.0138743
618.843	0.0140506
618.921	0.0138243
618.999	0.0137792
619.078	0.0139203
619.156	0.0138586
619.234	0.0139352
619.312	0.0138584
619.390	0.0140034
619.468	0.0140087
619.546	0.0139443
619.624	0.0138746
619.703	0.0138166
619.781	0.0137528
619.859	0.0138512
619.937	0.0139478
620.015	0.0138150
620.093	0.0140189
620.171	0.0138963
620.249	0.0138898
620.328	0.0137594
620.406	0.0138347
620.484	0.0138967
620.562	0.0138632
620.640	0.0139129
620.718	0.0139420
620.796	0.0138376
620.874	0.0138480
620.953	0.0138332
621.031	0.0138564
621.109	0.0137675
621.187	0.0137701
621.265	0.0138449
621.343	0.0138823
621.421	0.0138656
621.499	0.0138551
621.578	0.0139198
621.656	0.0138154
621.734	0.0139031
621.812	0.0138062
621.890	0.0139185
621.968	0.0138512
622.046	0.0138286
622.124	0.0138528
622.203	0.0138047
622.281	0.0139458
622.359	0.0140193
622.437	0.0138876
622.515	0.0138605
622.593	0.0137790
622.671	0.0138940
622.749	0.0138511
622.828	0.0138124
622.906	0.0137639
622.984	0.0137797
623.062	0.0139073
623.140	0.0139181
623.218	0.0138894
623.296	0.0138183
623.374	0.0138837
623.453	0.0138866
623.531	0.0137415
623.609	0.0139465
623.687	0.0138459
623.765	0.0137920
623.843	0.0137835
623.921	0.0137714
623.999	0.0139648
624.078	0.0139102
624.156	0.0137421
624.234	0.0138136
624.312	0.0137664
624.390	0.0139333
624.468	0.0139021
624.546	0.0139489
624.624	0.0139754
624.703	0.0138900
624.781	0.0138622
624.859	0.0138571
624.937	0.0138721
625.015	0.0140390
625.093	0.0139806
625.171	0.0139333
625.249	0.0137743
625.328	0.0138121
625.406	0.0138519
625.484	0.0138181
625.562	0.0139266
625.640	0.0139011
625.718	0.0138953
625.796	0.0138589
625.874	0.0138047
625.953	0.0137269
626.031	0.0140283
626.109	0.0138402
626.187	0.0136816
626.265	0.0139029
626.343	0.0139907
626.421	0.0139863
626.499	0.0141611
626.578	0.0138614
626.656	0.0138774
626.734	0.0139468
626.812	0.0139529
626.890	0.0138902
626.968	0.0138154
627.046	0.0140352
627.124	0.0138324
627.203	0.0137598
627.281	0.0139690
627.359	0.0139139
627.437	0.0140035
627.515	0.0138756
627.593	0.0138482
627.671	0.0138802
627.749	0.0139822
627.828	0.0140028
627.906	0.0140194
627.984	0.0139363
628.062	0.0139047
628.140	0.0140644
628.218	0.0139481
628.296	0.0139992
628.374	0.0139742
628.453	0.0139829
628.531	0.0140443
628.609	0.0140453
628.687	0.0140119
628.765	0.0139863
628.843	0.0139436
628.921	0.0140615
628.999	0.0139526
629.078	0.0139343
629.156	0.0139048
629.234	0.0139930
629.312	0.0140073
629.390	0.0140059
629.468	0.0139538
629.546	0.0139123
629.624	0.0140292
629.703	0.0140130
629.781	0.0140608
629.859	0.0138556
629.937	0.0138504
630.015	0.0139758
630.093	0.0138766
630.171	0.0139539
630.249	0.0141055
630.328	0.0139629
630.406	0.0138293
630.484	0.0138915
630.562	0.0138876
630.640	0.0139664
630.718	0.0140239
630.796	0.0139845
630.874	0.0138168
630.953	0.0138696
631.031	0.0139725
631.109	0.0139960
631.187	0.0139954
631.265	0.0139781
631.343	0.0139413
631.421	0.0140480
631.499	0.0139289
631.578	0.0138848
631.656	0.0139839
631.734	0.0139106
631.812	0.0139481
631.890	0.0139982
631.968	0.0140452
632.046	0.0139587
632.124	0.0139742
632.203	0.0140322
632.281	0.0138837
632.359	0.0140753
632.437	0.0139982
632.515	0.0138438
632.593	0.0138450
632.671	0.0139137
632.749	0.0139404
632.828	0.0139514
632.906	0.0140013
632.984	0.0139343
633.062	0.0140057
633.140	0.0139964
633.218	0.0139832
633.296	0.0137692
633.374	0.0138732
633.453	0.0139208
633.531	0.0139250
633.609	0.0139695
633.687	0.0140200
633.765	0.0139404
633.843	0.0138561
633.921	0.0140329
633.999	0.0138861
634.078	0.0139799
634.156	0.0138152
634.234	0.0139567
634.312	0.0139361
634.390	0.0140024
634.468	0.0139045
634.546	0.0138911
634.624	0.0140451
634.703	0.0139878
634.781	0.0138712
634.859	0.0139772
634.937	0.0138236
635.015	0.0138992
635.093	0.0140292
635.171	0.0138694
635.249	0.0139017
635.328	0.0139211
635.406	0.0139612
635.484	0.0139226
635.562	0.0136974
635.640	0.0139760
635.718	0.0139641
635.796	0.0138805
635.874	0.0138292
635.953	0.0137836
636.031	0.0139998
636.109	0.0139178
636.187	0.0139082
636.265	0.0140576
636.343	0.0139622
636.421	0.0140236
636.499	0.0139583
636.578	0.0138868
636.656	0.0140762
636.734	0.0139217
636.812	0.0138615
636.890	0.0139548
636.968	0.0139510
637.046	0.0138895
637.124	0.0138786
637.203	0.0139863
637.281	0.0138657
637.359	0.0138496
637.437	0.0140295
637.515	0.0139899
637.593	0.0139192
637.671	0.0139164
637.749	0.0139404
637.828	0.0140073
637.906	0.0138809
637.984	0.0139157
638.062	0.0140720
638.140	0.0139159
638.218	0.0139120
638.296	0.0138888
638.374	0.0138617
638.453	0.0138861
638.531	0.0139069
638.609	0.0139719
638.687	0.0140945
638.765	0.0138994
638.843	0.0138605
638.921	0.0138980
638.999	0.0140145
639.078	0.0139929
639.156	0.0138689
639.234	0.0139854
639.312	0.0138826
639.390	0.0139761
639.468	0.0139714
639.546	0.0137637
639.624	0.0138509
639.703	0.0138441
639.781	0.0138557
639.859	0.0139384
639.937	0.0138493
640.015	0.0138676
640.093	0.0139967
640.171	0.0139400
640.249	0.0139716
640.328	0.0138889
640.406	0.0138316
640.484	0.0140374
640.562	0.0139538
640.640	0.0138729
640.718	0.0139381
640.796	0.0138325
640.874	0.0140421
640.953	0.0139443
641.031	0.0138435
641.109	0.0138465
641.187	0.0139542
641.265	0.0139026
641.343	0.0137882
641.421	0.0138332
641.499	0.0139425
641.578	0.0138654
641.656	0.0138475
641.734	0.0137432
641.812	0.0139790
641.890	0.0138932
641.968	0.0139134
642.046	0.0139219
642.124	0.0140011
642.203	0.0139476
642.281	0.0139059
642.359	0.0139787
642.437	0.0139644
642.515	0.0139443
642.593	0.0139301
642.671	0.0141196
642.749	0.0139288
642.828	0.0139399
642.906	0.0141499
642.984	0.0138660
643.062	0.0139846
643.140	0.0137792
643.218	0.0139335
643.296	0.0139239
643.374	0.0137380
643.453	0.0137022
643.531	0.0137923
643.609	0.0138929
643.687	0.0137135
643.765	0.0136946
643.843	0.0136905
643.921	0.0138313
643.999	0.0138888
644.078	0.0137730
644.156	0.0136961
644.234	0.0139848
644.312	0.0139800
644.390	0.0139993
644.468	0.0139159
644.546	0.0139995
644.624	0.0141195
644.703	0.0139774
644.781	0.0140563
644.859	0.0140071
644.937	0.0140235
645.015	0.0139400
645.093	0.0138788
645.171	0.0139069
645.249	0.0139081
645.328	0.0140134
645.406	0.0139246
645.484	0.0138571
645.562	0.0138410
645.640	0.0137320
645.718	0.0136736
645.796	0.0137563
645.874	0.0136462
645.953	0.0136168
646.031	0.0136548
646.109	0.0136069
646.187	0.0136900
646.265	0.0135709
646.343	0.0137333
646.421	0.0137878
646.499	0.0138623
646.578	0.0138134
646.656	0.0139908
646.734	0.0138985
646.812	0.0139688
646.890	0.0140228
646.968	0.0140852
647.046	0.0139954
647.124	0.0140639
647.203	0.0143181
647.281	0.0142490
647.359	0.0142453
647.437	0.0142638
647.515	0.0140678
647.593	0.0140286
647.671	0.0139149
647.749	0.0138914
647.828	0.0137441
647.906	0.0139394
647.984	0.0135868
648.062	0.0136367
648.140	0.0137045
648.218	0.0135747
648.296	0.0134707
648.374	0.0134618
648.453	0.0134708
648.531	0.0135171
648.609	0.0135708
648.687	0.0134581
648.765	0.0136414
648.843	0.0137503
648.921	0.0139094
648.999	0.0139942
649.078	0.0141447
649.156	0.0141929
649.234	0.0142976
649.312	0.0142905
649.390	0.0143201
649.468	0.0143651
649.546	0.0143082
649.624	0.0141128
649.703	0.0141217
649.781	0.0141451
649.859	0.0140943
649.937	0.0139065
650.015	0.0138143
650.093	0.0138159
650.171	0.0138476
650.249	0.0138252
650.328	0.0135557
650.406	0.0133697
650.484	0.0133026
650.562	0.0135230
650.640	0.0135014
650.718	0.0134409
650.796	0.0133305
650.874	0.0133113
650.953	0.0133712
651.031	0.0134454
651.109	0.0133936
651.187	0.0134295
651.265	0.0136158
651.343	0.0136669
651.421	0.0137086
651.499	0.0138709
651.578	0.0138417
651.656	0.0139237
651.734	0.0141639
651.812	0.0140545
651.890	0.0143220
651.968	0.0144188
652.046	0.0145496
652.124	0.0145790
652.203	0.0146124
652.281	0.0147964
652.359	0.0147532
652.437	0.0148918
652.515	0.0149538
652.593	0.0150584
652.671	0.0149128
652.749	0.0148029
652.828	0.0148104
652.906	0.0146329
652.984	0.0144649
653.062	0.0144772
653.140	0.0142783
653.218	0.0139373
653.296	0.0137446
653.374	0.0135310
653.453	0.0134150
653.531	0.0131824
653.609	0.0130100
653.687	0.0130007
653.765	0.0126324
653.843	0.0125554
653.921	0.0126111
653.999	0.0126151
654.078	0.0123787
654.156	0.0124063
654.234	0.0123489
654.312	0.0125858
654.390	0.0126252
654.468	0.0126182
654.546	0.0127892
654.624	0.0131346
654.703	0.0133204
654.781	0.0134898
654.859	0.0137598
654.937	0.0142487
655.015	0.0144196
655.093	0.0145524
655.171	0.0148341
655.249	0.0150443
655.328	0.0151083
655.406	0.0154839
655.484	0.0153490
655.562	0.0153565
655.640	0.0154431
655.718	0.0155890
655.796	0.0155033
655.874	0.0153938
655.953	0.0154821
656.031	0.0153507
656.109	0.0152662
656.187	0.0151599
656.265	0.0149590
656.343	0.0148286
656.421	0.0146190
656.499	0.0145565
656.578	0.0144147
656.656	0.0144372
656.734	0.0140296
656.812	0.0139948
656.890	0.0138525
656.968	0.0136541
657.046	0.0135799
657.124	0.0134116
657.203	0.0132269
657.281	0.0131039
657.359	0.0130666
657.437	0.0127364
657.515	0.0126047
657.593	0.0124742
657.671	0.0122633
657.749	0.0123329
657.828	0.0121429
657.906	0.0120215
657.984	0.0120763
658.062	0.0118945
658.140	0.0120126
658.218	0.0120497
658.296	0.0121977
658.374	0.0122791
658.453	0.0124541
658.531	0.0126021
658.609	0.0128934
658.687	0.0130349
658.765	0.0132087
658.843	0.0135165
658.921	0.0138059
658.999	0.0141382
659.078	0.0144712
659.156	0.0147462
659.234	0.0150366
659.312	0.0152164
659.390	0.0156368
659.468	0.0158278
659.546	0.0159950
659.624	0.0162441
659.703	0.0163304
659.781	0.0163773
659.859	0.0164875
659.937	0.0165044
660.015	0.0164159
660.093	0.0163413
660.171	0.0162254
660.249	0.0161532
660.328	0.0159348
660.406	0.0156678
660.484	0.0153827
660.562	0.0149955
660.640	0.0147646
660.718	0.0143712
660.796	0.0141087
660.874	0.0137516
660.953	0.0133713
661.031	0.0131147
661.109	0.0127942
661.187	0.0125491
661.265	0.0121946
661.343	0.0120079
661.421	0.0117365
661.499	0.0117702
661.578	0.0116225
661.656	0.0115322
661.734	0.0114998
661.812	0.0114670
661.890	0.0113810
661.968	0.0114700
662.046	0.0116423
662.124	0.0117448
662.203	0.0118092
662.281	0.0119545
662.359	0.0119920
662.437	0.0123059
662.515	0.0126025
662.593	0.0126501
662.671	0.0127087
662.749	0.0129774
662.828	0.0132254
662.906	0.0135872
662.984	0.0137629
663.062	0.0139896
663.140	0.0141492
663.218	0.0145966
663.296	0.0149481
663.374	0.0151731
663.453	0.0155207
663.531	0.0158621
663.609	0.0160818
663.687	0.0161908
663.765	0.0166154
663.843	0.0165351
663.921	0.0166069
663.999	0.0168432
664.078	0.0167916
664.156	0.0165476
664.234	0.0164518
664.312	0.0163563
664.390	0.0160566
664.468	0.0158461
664.546	0.0156640
664.624	0.0152684
664.703	0.0149197
664.781	0.0146716
664.859	0.0145158
664.937	0.0141880
665.015	0.0138525
665.093	0.0136121
665.171	0.0134716
665.249	0.0132899
665.328	0.0131401
665.406	0.0130067
665.484	0.0128049
665.562	0.0127561
665.640	0.0126307
665.718	0.0124704
665.796	0.0125131
665.874	0.0123999
665.953	0.0123922
666.031	0.0122713
666.109	0.0123156
666.187	0.0122897
666.265	0.0123576
666.343	0.0123019
666.421	0.0123329
666.499	0.0124860
666.578	0.0124940
666.656	0.0125626
666.734	0.0126039
666.812	0.0126242
666.890	0.0126093
666.968	0.0127443
667.046	0.0128674
667.124	0.0130084
667.203	0.0129440
667.281	0.0130539
667.359	0.0132378
667.437	0.0133464
667.515	0.0134576
667.593	0.0137138
667.671	0.0137310
667.749	0.0139075
667.828	0.0142089
667.906	0.0142590
667.984	0.0143459
668.062	0.0145561
668.140	0.0147836
668.218	0.0149261
668.296	0.0150745
668.374	0.0151993
668.453	0.0154745
668.531	0.0155660
668.609	0.0157410
668.687	0.0160552
668.765	0.0162789
668.843	0.0164765
668.921	0.0164680
668.999	0.0166951
669.078	0.0168625
669.156	0.0167467
669.234	0.0167827
669.312	0.0166415
669.390	0.0164632
669.468	0.0162305
669.546	0.0159164
669.624	0.0155640
669.703	0.0154301
669.781	0.0150490
669.859	0.0147108
669.937	0.0144185
670.015	0.0140417
670.093	0.0136663
670.171	0.0133378
670.249	0.0131091
670.328	0.0129378
670.406	0.0126524
670.484	0.0124646
670.562	0.0120679
670.640	0.0120097
670.718	0.0119660
670.796	0.0116648
670.874	0.0115109
670.953	0.0113116
671.031	0.0113392
671.109	0.0111877
671.187	0.0110303
671.265	0.0111388
671.343	0.0111100
671.421	0.0109975
671.499	0.0112798
671.578	0.0113836
671.656	0.0114797
671.734	0.0116157
671.812	0.0119714
671.890	0.0121555
671.968	0.0124147
672.046	0.0128178
672.124	0.0130450
672.203	0.0134353
672.281	0.0137816
672.359	0.0140761
672.437	0.0145438
672.515	0.0148483
672.593	0.0151324
672.671	0.0153986
672.749	0.0156824
672.828	0.0160732
672.906	0.0160662
672.984	0.0163793
673.062	0.0166402
673.140	0.0166769
673.218	0.0166510
673.296	0.0166458
673.374	0.0165838
673.453	0.0166965
673.531	0.0163881
673.609	0.0163959
673.687	0.0160611
673.765	0.0160207
673.843	0.0159202
673.921	0.0158382
673.999	0.0154072
674.078	0.0152667
674.156	0.0151958
674.234	0.0148484
674.312	0.0147371
674.390	0.0142992
674.468	0.0141702
674.546	0.0139459
674.624	0.0136668
674.703	0.0133974
674.781	0.0131322
674.859	0.0130971
674.937	0.0128122
675.015	0.0126083
675.093	0.0124633
675.171	0.0124001
675.249	0.0124483
675.328	0.0123270
675.406	0.0123308
675.484	0.0124561
675.562	0.0124660
675.640	0.0124129
675.718	0.0125278
675.796	0.0124220
675.874	0.0124169
675.953	0.0124002
676.031	0.0124038
676.109	0.0123154
676.187	0.0122809
676.265	0.0121962
676.343	0.0120805
676.421	0.0122166
676.499	0.0120294
676.578	0.0120971
676.656	0.0121519
676.734	0.0123149
676.812	0.0124392
676.890	0.0125877
676.968	0.0127765
677.046	0.0130320
677.124	0.0133957
677.203	0.0137643
677.281	0.0141710
677.359	0.0145539
677.437	0.0149125
677.515	0.0151573
677.593	0.0154345
677.671	0.0157805
677.749	0.0158612
677.828	0.0160104
677.906	0.0161019
677.984	0.0161071
678.062	0.0160890
678.140	0.0160760
678.218	0.0156139
678.296	0.0156048
678.374	0.0153609
678.453	0.0153905
678.531	0.0150037
678.609	0.0147823
678.687	0.0145576
678.765	0.0143709
678.843	0.0143009
678.921	0.0141690
678.999	0.0142259
679.078	0.0140709
679.156	0.0140678
679.234	0.0138692
679.312	0.0139714
679.390	0.0139951
679.468	0.0137596
679.546	0.0138218
679.624	0.0137722
679.703	0.0134715
679.781	0.0134533
679.859	0.0134483
679.937	0.0133352
680.015	0.0133611
680.093	0.0130434
680.171	0.0130404
680.249	0.0130635
680.328	0.0131161
680.406	0.0129871
680.484	0.0129986
680.562	0.0130625
680.640	0.0130830
680.718	0.0130885
680.796	0.0131870
680.874	0.0132346
680.953	0.0135037
681.031	0.0136639
681.109	0.0137537
681.187	0.0137138
681.265	0.0139954
681.343	0.0140828
681.421	0.0141134
681.499	0.0140794
681.578	0.0142234
681.656	0.0139565
681.734	0.0138960
681.812	0.0138017
681.890	0.0138184
681.968	0.0138071
682.046	0.0136988
682.124	0.0136066
682.203	0.0135570
682.281	0.0134841
682.359	0.0134437
682.437	0.0136000
682.515	0.0136219
682.593	0.0137302
682.671	0.0138166
682.749	0.0139935
682.828	0.0140771
682.906	0.0141501
682.984	0.0141856
683.062	0.0142644
683.140	0.0142316
683.218	0.0143534
683.296	0.0142567
683.374	0.0141266
683.453	0.0140430
683.531	0.0139791
683.609	0.0137728
683.687	0.0135981
683.765	0.0135290
683.843	0.0135113
683.921	0.0134841
683.999	0.0132623
684.078	0.0132432
684.156	0.0132856
684.234	0.0134114
684.312	0.0134222
684.390	0.0134586
684.468	0.0135936
684.546	0.0138261
684.624	0.0139531
684.703	0.0141657
684.781	0.0143562
684.859	0.0144904
684.937	0.0146280
685.015	0.0146409
685.093	0.0147265
685.171	0.0149459
685.249	0.0149901
685.328	0.0148685
685.406	0.0147881
685.484	0.0148109
685.562	0.0148656
685.640	0.0148103
685.718	0.0148652
685.796	0.0146249
685.874	0.0146947
685.953	0.0148860
686.031	0.0147898
686.109	0.0149119
686.187	0.0149187
686.265	0.0149450
686.343	0.0148862
686.421	0.0149963
686.499	0.0148827
686.578	0.0148301
686.656	0.0147164
686.734	0.0144514
686.812	0.0142706
686.890	0.0139452
686.968	0.0137516
687.046	0.0133704
687.124	0.0132189
687.203	0.0129901
687.281	0.0126419
687.359	0.0124811
687.437	0.0123150
687.515	0.0121289
687.593	0.0121053
687.671	0.0118283
687.749	0.0119054
687.828	0.0119405
687.906	0.0118246
687.984	0.0118278
688.062	0.0119464
688.140	0.0120061
688.218	0.0122017
688.296	0.0122115
688.374	0.0123808
688.453	0.0123324
688.531	0.0126865
688.609	0.0129377
688.687	0.0129720
688.765	0.0132530
688.843	0.0134361
688.921	0.0136552
688.999	0.0138026
689.078	0.0140161
689.156	0.0142160
689.234	0.0145566
689.312	0.0147735
689.390	0.0148676
689.468	0.0149982
689.546	0.0152650
689.624	0.0155151
689.703	0.0155708
689.781	0.0157387
689.859	0.0160397
689.937	0.0160392
690.015	0.0160328
690.093	0.0160679
690.171	0.0161762
690.249	0.0160567
690.328	0.0160133
690.406	0.0159750
690.484	0.0159781
690.562	0.0158531
690.640	0.0156450
690.718	0.0156604
690.796	0.0153999
690.874	0.0151707
690.953	0.0150404
691.031	0.0148905
691.109	0.0148339
691.187	0.0147081
691.265	0.0143789
691.343	0.0141311
691.421	0.0138082
691.499	0.0137866
691.578	0.0135781
691.656	0.0133359
691.734	0.0131921
691.812	0.0129998
691.890	0.0129478
691.968	0.0127136
692.046	0.0125352
692.124	0.0124216
692.203	0.0123759
692.281	0.0123050
692.359	0.0122102
692.437	0.0121628
692.515	0.0122171
692.593	0.0123119
692.671	0.0121909
692.749	0.0124069
692.828	0.0123125
692.906	0.0123901
692.984	0.0126497
693.062	0.0125359
693.140	0.0128659
693.218	0.0128671
693.296	0.0129444
693.374	0.0130700
693.453	0.0133524
693.531	0.0131549
693.609	0.0133907
693.687	0.0135435
693.765	0.0136591
693.843	0.0140005
693.921	0.0139356
693.999	0.0140942
694.078	0.0141302
694.156	0.0142104
694.234	0.0141815
694.312	0.0143524
694.390	0.0142558
694.468	0.0144339
694.546	0.0142963
694.624	0.0143690
694.703	0.0143583
694.781	0.0144035
694.859	0.0144573
694.937	0.0146891
695.015	0.0146719
695.093	0.0149544
695.171	0.0149716
695.249	0.0151361
695.328	0.0152246
695.406	0.0153785
695.484	0.0156146
695.562	0.0156052
695.640	0.0158168
695.718	0.0157765
695.796	0.0157185
695.874	0.0157249
695.953	0.0157462
696.031	0.0155811
696.109	0.0154964
696.187	0.0155349
696.265	0.0153149
696.343	0.0150747
696.421	0.0148346
696.499	0.0146343
696.578	0.0146057
696.656	0.0142136
696.734	0.0141311
696.812	0.0140267
696.890	0.0137479
696.968	0.0135681
697.046	0.0133699
697.124	0.0131174
697.203	0.0130315
697.281	0.0128216
697.359	0.0125487
697.437	0.0123626
697.515	0.0123235
697.593	0.0120640
697.671	0.0119811
697.749	0.0119769
697.828	0.0119064
697.906	0.0120023
697.984	0.0118962
698.062	0.0121825
698.140	0.0123243
698.218	0.0127035
698.296	0.0129040
698.374	0.0130897
698.453	0.0134396
698.531	0.0137291
698.609	0.0139912
698.687	0.0141607
698.765	0.0145659
698.843	0.0144701
698.921	0.0147919
698.999	0.0147186
699.078	0.0146312
699.156	0.0143958
699.234	0.0145398
699.312	0.0143729
699.390	0.0140226
699.468	0.0138348
699.546	0.0137463
699.624	0.0134631
699.703	0.0135526
699.781	0.0135189
699.859	0.0134512
699.937	0.0133780
700.015	0.0135469
700.093	0.0136280
700.171	0.0139432
700.249	0.0140723
700.328	0.0141866
700.406	0.0143966
700.484	0.0146244
700.562	0.0147272
700.640	0.0147702
700.718	0.0148771
700.796	0.0149689
700.874	0.0150237
700.953	0.0149042
701.031	0.0149116
701.109	0.0150669
701.187	0.0149172
701.265	0.0149883
701.343	0.0150058
701.421	0.0149635
701.499	0.0150964
701.578	0.0150641
701.656	0.0150973
701.734	0.0149355
701.812	0.0149689
701.890	0.0149373
701.968	0.0149203
702.046	0.0148280
702.124	0.0146039
702.203	0.0145512
702.281	0.0143429
702.359	0.0140918
702.437	0.0139474
702.515	0.0135989
702.593	0.0135117
702.671	0.0133072
702.749	0.0129253
702.828	0.0127760
702.906	0.0125080
702.984	0.0124377
703.062	0.0122674
703.140	0.0120447
703.218	0.0120461
703.296	0.0119197
703.374	0.0119617
703.453	0.0120937
703.531	0.0121399
703.609	0.0122429
703.687	0.0122030
703.765	0.0123304
703.843	0.0125119
703.921	0.0127814
703.999	0.0129183
704.078	0.0131935
704.156	0.0132812
704.234	0.0135516
704.312	0.0137832
704.390	0.0139923
704.468	0.0140640
704.546	0.0142508
704.624	0.0142876
704.703	0.0145427
704.781	0.0145682
704.859	0.0147323
704.937	0.0148120
705.015	0.0149119
705.093	0.0150981
705.171	0.0151698
705.249	0.0150260
705.328	0.0152232
705.406	0.0153008
705.484	0.0150705
705.562	0.0150316
705.640	0.0148981
705.718	0.0148782
705.796	0.0146953
705.874	0.0144335
705.953	0.0144475
706.031	0.0142368
706.109	0.0142255
706.187	0.0140157
706.265	0.0138983
706.343	0.0137965
706.421	0.0136890
706.499	0.0135395
706.578	0.0134949
706.656	0.0134921
706.734	0.0134504
706.812	0.0134367
706.890	0.0134296
706.968	0.0135343
707.046	0.0136668
707.124	0.0136725
707.203	0.0138081
707.281	0.0138631
707.359	0.0139683
707.437	0.0139845
707.515	0.0140948
707.593	0.0141414
707.671	0.0141437
707.749	0.0142262
707.828	0.0143316
707.906	0.0142388
707.984	0.0143066
708.062	0.0143204
708.140	0.0142506
708.218	0.0140569
708.296	0.0140342
708.374	0.0139007
708.453	0.0137333
708.531	0.0136037
708.609	0.0137527
708.687	0.0135928
708.765	0.0134888
708.843	0.0134755
708.921	0.0134541
708.999	0.0134981
709.078	0.0133839
709.156	0.0135523
709.234	0.0133967
709.312	0.0134967
709.390	0.0135291
709.468	0.0134747
709.546	0.0135017
709.624	0.0134510
709.703	0.0134809
709.781	0.0133384
709.859	0.0132020
709.937	0.0131223
710.015	0.0130427
710.093	0.0131203
710.171	0.0132271
710.249	0.0129446
710.328	0.0129086
710.406	0.0132588
710.484	0.0135226
710.562	0.0135573
710.640	0.0136379
710.718	0.0138335
710.796	0.0140260
710.874	0.0144186
710.953	0.0145763
711.031	0.0147427
711.109	0.0149043
711.187	0.0151120
711.265	0.0151031
711.343	0.0152032
711.421	0.0152931
711.499	0.0152696
711.578	0.0152405
711.656	0.0152921
711.734	0.0151778
711.812	0.0152270
711.890	0.0150478
711.968	0.0149526
712.046	0.0148109
712.124	0.0147026
712.203	0.0145992
712.281	0.0144086
712.359	0.0142151
712.437	0.0139993
712.515	0.0140166
712.593	0.0138795
712.671	0.0135713
712.749	0.0135412
712.828	0.0134986
712.906	0.0133283
712.984	0.0133517
713.062	0.0132114
713.140	0.0133165
713.218	0.0132977
713.296	0.0132590
713.374	0.0130745
713.453	0.0131312
713.531	0.0131386
713.609	0.0131542
713.687	0.0131650
713.765	0.0133184
713.843	0.0131736
713.921	0.0134189
713.999	0.0134840
714.078	0.0134743
714.156	0.0133595
714.234	0.0135557
714.312	0.0136285
714.390	0.0136403
714.468	0.0135826
714.546	0.0137583
714.624	0.0137069
714.703	0.0138711
714.781	0.0139853
714.859	0.0139068
714.937	0.0140643
715.015	0.0140396
715.093	0.0142426
715.171	0.0141940
715.249	0.0142441
715.328	0.0143291
715.406	0.0144409
715.484	0.0143420
715.562	0.0142688
715.640	0.0143320
715.718	0.0143038
715.796	0.0141472
715.874	0.0142478
715.953	0.0140829
716.031	0.0142840
716.109	0.0141100
716.187	0.0139977
716.265	0.0141051
716.343	0.0138403
716.421	0.0138534
716.499	0.0139750
716.578	0.0137482
716.656	0.0138382
716.734	0.0138016
716.812	0.0140101
716.890	0.0137891
716.968	0.0137990
717.046	0.0139188
717.124	0.0140589
717.203	0.0140872
717.281	0.0140878
717.359	0.0142622
717.437	0.0141574
717.515	0.0143124
717.593	0.0143807
717.671	0.0144199
717.749	0.0143029
717.828	0.0143113
717.906	0.0143649
717.984	0.0143041
718.062	0.0141836
718.140	0.0141859
718.218	0.0142743
718.296	0.0140761
718.374	0.0140162
718.453	0.0140664
718.531	0.0138555
718.609	0.0139770
718.687	0.0140012
718.765	0.0139214
718.843	0.0138644
718.921	0.0139156
718.999	0.0139005
719.078	0.0137022
719.156	0.0136222
719.234	0.0137624
719.312	0.0137957
719.390	0.0136812
719.468	0.0134824
719.546	0.0135464
719.624	0.0135230
719.703	0.0133648
719.781	0.0133495
719.859	0.0131909
719.937	0.0132883
720.015	0.0133175
720.093	0.0132890
720.171	0.0135110
720.249	0.0135002
720.328	0.0136011
720.406	0.0135994
720.484	0.0137042
720.562	0.0137811
720.640	0.0139799
720.718	0.0140762
720.796	0.0141377
720.874	0.0142117
720.953	0.0142479
721.031	0.0142720
721.109	0.0142142
721.187	0.0142162
721.265	0.0141113
721.343	0.0140918
721.421	0.0140338
721.499	0.0140142
721.578	0.0139137
721.656	0.0140253
721.734	0.0139291
721.812	0.0138175
721.890	0.0137044
721.968	0.0137516
722.046	0.0137902
722.124	0.0137744
722.203	0.0138032
722.281	0.0139451
722.359	0.0139061
722.437	0.0138069
722.515	0.0139095
722.593	0.0139814
722.671	0.0139440
722.749	0.0139986
722.828	0.0141135
722.906	0.0141525
722.984	0.0140696
723.062	0.0140338
723.140	0.0139558
723.218	0.0139247
723.296	0.0138559
723.374	0.0139847
723.453	0.0137863
723.531	0.0138749
723.609	0.0138462
723.687	0.0137008
723.765	0.0138527
723.843	0.0138293
723.921	0.0137883
723.999	0.0137135
724.078	0.0138740
724.156	0.0138461
724.234	0.0140954
724.312	0.0141481
724.390	0.0141845
724.468	0.0144339
724.546	0.0144252
724.624	0.0144123
724.703	0.0144413
724.781	0.0144674
724.859	0.0143409
724.937	0.0143511
725.015	0.0140530
725.093	0.0141225
725.171	0.0141747
725.249	0.0140151
725.328	0.0138422
725.406	0.0136861
725.484	0.0136558
725.562	0.0135381
725.640	0.0132699
725.718	0.0131994
725.796	0.0132938
725.874	0.0132311
725.953	0.0130379
726.031	0.0131687
726.109	0.0131913
726.187	0.0132415
726.265	0.0132413
726.343	0.0132404
726.421	0.0133008
726.499	0.0134530
726.578	0.0135065
726.656	0.0136213
726.734	0.0135446
726.812	0.0137329
726.890	0.0139223
726.968	0.0137160
727.046	0.0138908
727.124	0.0142027
727.203	0.0140112
727.281	0.0139344
727.359	0.0140482
727.437	0.0140173
727.515	0.0141216
727.593	0.0141122
727.671	0.0141258
727.749	0.0141032
727.828	0.0140689
727.906	0.0140944
727.984	0.0142107
728.062	0.0142675
728.140	0.0139691
728.218	0.0138902
728.296	0.0140224
728.374	0.0140474
728.453	0.0140133
728.531	0.0139980
728.609	0.0139651
728.687	0.0138828
728.765	0.0138622
728.843	0.0137814
728.921	0.0139854
728.999	0.0138991
729.078	0.0138845
729.156	0.0138078
729.234	0.0138784
729.312	0.0138368
729.390	0.0137740
729.468	0.0138647
729.546	0.0140237
729.624	0.0139137
729.703	0.0138441
729.781	0.0138913
729.859	0.0139574
729.937	0.0140264
730.015	0.0138982
730.093	0.0140774
730.171	0.0140349
730.249	0.0140112
730.328	0.0137783
730.406	0.0138586
730.484	0.0138406
730.562	0.0139771
730.640	0.0140277
730.718	0.0138892
730.796	0.0139050
730.874	0.0139338
730.953	0.0139210
731.031	0.0140484
731.109	0.0139713
731.187	0.0139655
731.265	0.0140168
731.343	0.0140945
731.421	0.0139871
731.499	0.0139261
731.578	0.0139527
731.656	0.0140688
731.734	0.0140607
731.812	0.0139519
731.890	0.0140289
731.968	0.0139720
732.046	0.0140479
732.124	0.0139780
732.203	0.0139525
732.281	0.0138683
732.359	0.0137389
732.437	0.0137357
732.515	0.0138345
732.593	0.0136765
732.671	0.0135497
732.749	0.0136146
732.828	0.0135697
732.906	0.0136750
732.984	0.0136906
733.062	0.0136221
733.140	0.0136680
733.218	0.0137125
733.296	0.0137620
733.374	0.0136844
733.453	0.0136970
733.531	0.0138475
733.609	0.0139384
733.687	0.0138846
733.765	0.0139194
733.843	0.0138232
733.921	0.0139820
733.999	0.0139488
734.078	0.0139204
734.156	0.0138060
734.234	0.0138182
734.312	0.0138213
734.390	0.0138572
734.468	0.0138144
734.546	0.0135943
734.624	0.0137652
734.703	0.0137211
734.781	0.0137399
734.859	0.0138256
734.937	0.0136933
735.015	0.0138513
735.093	0.0138741
735.171	0.0138810
735.249	0.0138804
735.328	0.0138893
735.406	0.0139570
735.484	0.0139726
735.562	0.0141335
735.640	0.0142121
735.718	0.0142448
735.796	0.0141616
735.874	0.0140855
735.953	0.0142356
736.031	0.0141826
736.109	0.0140633
736.187	0.0140354
736.265	0.0141711
736.343	0.0141876
736.421	0.0141134
736.499	0.0140723
736.578	0.0140878
736.656	0.0140870
736.734	0.0139957
736.812	0.0139713
736.890	0.0140187
736.968	0.0140175
737.046	0.0139423
737.124	0.0139037
737.203	0.0139538
737.281	0.0139024
737.359	0.0139330
737.437	0.0138872
737.515	0.0141178
737.593	0.0138421
737.671	0.0140263
737.749	0.0141303
737.828	0.0138888
737.906	0.0140110
737.984	0.0141217
738.062	0.0141240
738.140	0.0140232
738.218	0.0139780
738.296	0.0141077
738.374	0.0139268
738.453	0.0139214
738.531	0.0140352
738.609	0.0138821
738.687	0.0138495
738.765	0.0138959
738.843	0.0139053
738.921	0.0138944
738.999	0.0138645
739.078	0.0138151
739.156	0.0137591
739.234	0.0139126
739.312	0.0139218
739.390	0.0139480
739.468	0.0139894
739.546	0.0139662
739.624	0.0140784
739.703	0.0139794
739.781	0.0139181
739.859	0.0138615
739.937	0.0137939
740.015	0.0138031
740.093	0.0137508
740.171	0.0137831
740.249	0.0137398
740.328	0.0137740
740.406	0.0137277
740.484	0.0137176
740.562	0.0136411
740.640	0.0136811
740.718	0.0137049
740.796	0.0136499
740.874	0.0139288
740.953	0.0136794
741.031	0.0137980
741.109	0.0140276
741.187	0.0139941
741.265	0.0139827
741.343	0.0140328
741.421	0.0140438
741.499	0.0140778
741.578	0.0140379
741.656	0.0140010
741.734	0.0140017
741.812	0.0140674
741.890	0.0139935
741.968	0.0139655
742.046	0.0139361
742.124	0.0139833
742.203	0.0139517
742.281	0.0139684
742.359	0.0141243
742.437	0.0139620
742.515	0.0141018
742.593	0.0141084
742.671	0.0140471
742.749	0.0140691
742.828	0.0140577
742.906	0.0141068
742.984	0.0139772
743.062	0.0141094
743.140	0.0140301
743.218	0.0140417
743.296	0.0139349
743.374	0.0140019
743.453	0.0140701
743.531	0.0138587
743.609	0.0138986
743.687	0.0140363
743.765	0.0138255
743.843	0.0137041
743.921	0.0137206
743.999	0.0138457
744.078	0.0138661
744.156	0.0137408
744.234	0.0137690
744.312	0.0137878
744.390	0.0137901
744.468	0.0138396
744.546	0.0139255
744.624	0.0139131
744.703	0.0138052
744.781	0.0139097
744.859	0.0139599
744.937	0.0139985
745.015	0.0140520
745.093	0.0139334
745.171	0.0140143
745.249	0.0138924
745.328	0.0138573
745.406	0.0138629
745.484	0.0138815
745.562	0.0137737
745.640	0.0136772
745.718	0.0137825
745.796	0.0137440
745.874	0.0135929
745.953	0.0135710
746.031	0.0136207
746.109	0.0136434
746.187	0.0135789
746.265	0.0134228
746.343	0.0134967
746.421	0.0134103
746.499	0.0136456
746.578	0.0137794
746.656	0.0135735
746.734	0.0136749
746.812	0.0136911
746.890	0.0135912
746.968	0.0137171
747.046	0.0136521
747.124	0.0134736
747.203	0.0136136
747.281	0.0134064
747.359	0.0135101
747.437	0.0134619
747.515	0.0134339
747.593	0.0136427
747.671	0.0135088
747.749	0.0135634
747.828	0.0137935
747.906	0.0137342
747.984	0.0137270
748.062	0.0138797
748.140	0.0139218
748.218	0.0138770
748.296	0.0139945
748.374	0.0140282
748.453	0.0140220
748.531	0.0140958
748.609	0.0141653
748.687	0.0142198
748.765	0.0142027
748.843	0.0141997
748.921	0.0142326
748.999	0.0143721
749.078	0.0142387
749.156	0.0140455
749.234	0.0141341
749.312	0.0140832
749.390	0.0142198
749.468	0.0141825
749.546	0.0141364
749.624	0.0140730
749.703	0.0140523
749.781	0.0140894
749.859	0.0140441
749.937	0.0139049
750.015	0.0139972
750.093	0.0137946
750.171	0.0139390
750.249	0.0137904
750.328	0.0138152
750.406	0.0136438
750.484	0.0133782
750.562	0.0135356
750.640	0.0135419
750.718	0.0133557
750.796	0.0133454
750.874	0.0135143
750.953	0.0134010
751.031	0.0135939
751.109	0.0134345
751.187	0.0134312
751.265	0.0134196
751.343	0.0136099
751.421	0.0134890
751.499	0.0134660
751.578	0.0134674
751.656	0.0134522
751.734	0.0135464
751.812	0.0135055
751.890	0.0138342
751.968	0.0136470
752.046	0.0137781
752.124	0.0135884
752.203	0.0139913
752.281	0.0139840
752.359	0.0139695
752.437	0.0141519
752.515	0.0141298
752.593	0.0141398
752.671	0.0142486
752.749	0.0140591
752.828	0.0141177
752.906	0.0139876
752.984	0.0141378
753.062	0.0140399
753.140	0.0139313
753.218	0.0139680
753.296	0.0139700
753.374	0.0138815
753.453	0.0138042
753.531	0.0138038
753.609	0.0136060
753.687	0.0136720
753.765	0.0138771
753.843	0.0136669
753.921	0.0135398
753.999	0.0136670
754.078	0.0136674
754.156	0.0136072
754.234	0.0136532
754.312	0.0135513
754.390	0.0136488
754.468	0.0136942
754.546	0.0135741
754.624	0.0137441
754.703	0.0137232
754.781	0.0136713
754.859	0.0138186
754.937	0.0137512
755.015	0.0137637
755.093	0.0139394
755.171	0.0138180
755.249	0.0139383
755.328	0.0138912
755.406	0.0139098
755.484	0.0139262
755.562	0.0139398
755.640	0.0139592
755.718	0.0139549
755.796	0.0140921
755.874	0.0141034
755.953	0.0141461
756.031	0.0140028
756.109	0.0140524
756.187	0.0141698
756.265	0.0141669
756.343	0.0140984
756.421	0.0141799
756.499	0.0141576
756.578	0.0142094
756.656	0.0141373
756.734	0.0141158
756.812	0.0142954
756.890	0.0141787
756.968	0.0141338
757.046	0.0142799
757.124	0.0140405
757.203	0.0141367
757.281	0.0141951
757.359	0.0141630
757.437	0.0141769
757.515	0.0141235
757.593	0.0138541
757.671	0.0139399
757.749	0.0140093
757.828	0.0138752
757.906	0.0139941
757.984	0.0138029
758.062	0.0138192
758.140	0.0137537
758.218	0.0136641
758.296	0.0136359
758.374	0.0136791
758.453	0.0136089
758.531	0.0136443
758.609	0.0135378
758.687	0.0135161
758.765	0.0135300
758.843	0.0136067
758.921	0.0136530
758.999	0.0136198
759.078	0.0135598
759.156	0.0137038
759.234	0.0136466
759.312	0.0138464
759.390	0.0137604
759.468	0.0139061
759.546	0.0138863
759.624	0.0139621
759.703	0.0139129
759.781	0.0140514
759.859	0.0139549
759.937	0.0139993
760.015	0.0139229
760.093	0.0139352
760.171	0.0139385
760.249	0.0140030
760.328	0.0141313
760.406	0.0140163
760.484	0.0140174
760.562	0.0140471
760.640	0.0141491
760.718	0.0140234
760.796	0.0140287
760.874	0.0140437
760.953	0.0141311
761.031	0.0141663
761.109	0.0141196
761.187	0.0140637
761.265	0.0141219
761.343	0.0142416
761.421	0.0142248
761.499	0.0142113
761.578	0.0141389
761.656	0.0141083
761.734	0.0140551
761.812	0.0139909
761.890	0.0139960
761.968	0.0140201
762.046	0.0139709
762.124	0.0139995
762.203	0.0139030
762.281	0.0138844
762.359	0.0138423
762.437	0.0138934
762.515	0.0136010
762.593	0.0139842
762.671	0.0139114
762.749	0.0139779
762.828	0.0139600
762.906	0.0140576
762.984	0.0140725
763.062	0.0139465
763.140	0.0140253
763.218	0.0139350
763.296	0.0139658
763.374	0.0139806
763.453	0.0141205
763.531	0.0140049
763.609	0.0139201
763.687	0.0141145
763.765	0.0140948
763.843	0.0138080
763.921	0.0139136
763.999	0.0138401
764.078	0.0137206
764.156	0.0138329
764.234	0.0138108
764.312	0.0137351
764.390	0.0136662
764.468	0.0136509
764.546	0.0137129
764.624	0.0135033
764.703	0.0137150
764.781	0.0137805
764.859	0.0136832
764.937	0.0135351
765.015	0.0137453
765.093	0.0139383
765.171	0.0139497
765.249	0.0139950
765.328	0.0139452
765.406	0.0139520
765.484	0.0140202
765.562	0.0141739
765.640	0.0141625
765.718	0.0143024
765.796	0.0143324
765.874	0.0142411
765.953	0.0143200
766.031	0.0143102
766.109	0.0143585
766.187	0.0144695
766.265	0.0144199
766.343	0.0143748
766.421	0.0141925
766.499	0.0142673
766.578	0.0141174
766.656	0.0140598
766.734	0.0142650
766.812	0.0141628
766.890	0.0140894
766.968	0.0141545
767.046	0.0140102
767.124	0.0140329
767.203	0.0139460
767.281	0.0139298
767.359	0.0138268
767.437	0.0138100
767.515	0.0138850
767.593	0.0138131
767.671	0.0138477
767.749	0.0137397
767.828	0.0136702
767.906	0.0136807
767.984	0.0136678
768.062	0.0136479
768.140	0.0136263
768.218	0.0136237
768.296	0.0136723
768.374	0.0135469
768.453	0.0135909
768.531	0.0136317
768.609	0.0135874
768.687	0.0135361
768.765	0.0135666
768.843	0.0137582
768.921	0.0138123
768.999	0.0137866
769.078	0.0137944
769.156	0.0139215
769.234	0.0140103
769.312	0.0139330
769.390	0.0140212
769.468	0.0140366
769.546	0.0140880
769.624	0.0140962
769.703	0.0140869
769.781	0.0142850
769.859	0.0141370
769.937	0.0140025
770.015	0.0141203
770.093	0.0142671
770.171	0.0142760
770.249	0.0143230
770.328	0.0141326
770.406	0.0142070
770.484	0.0141148
770.562	0.0142421
770.640	0.0143748
770.718	0.0142461
770.796	0.0139894
770.874	0.0139779
770.953	0.0141609
771.031	0.0140598
771.109	0.0139048
771.187	0.0140488
771.265	0.0140479
771.343	0.0140261
771.421	0.0139995
771.499	0.0139043
771.578	0.0139847
771.656	0.0139738
771.734	0.0139907
771.812	0.0139491
771.890	0.0138091
771.968	0.0137698
772.046	0.0136970
772.124	0.0137231
772.203	0.0138482
772.281	0.0136719
772.359	0.0135810
772.437	0.0137508
772.515	0.0135728
772.593	0.0136752
772.671	0.0135562
772.749	0.0135653
772.828	0.0136750
772.906	0.0136768
772.984	0.0137366
773.062	0.0136480
773.140	0.0137679
773.218	0.0137050
773.296	0.0138455
773.374	0.0138784
773.453	0.0139535
773.531	0.0138150
773.609	0.0138483
773.687	0.0139417
773.765	0.0139037
773.843	0.0140780
773.921	0.0140396
773.999	0.0140864
774.078	0.0139020
774.156	0.0139663
774.234	0.0140536
774.312	0.0141476
774.390	0.0140348
774.468	0.0140073
774.546	0.0139702
774.624	0.0140363
774.703	0.0141582
774.781	0.0140497
774.859	0.0140742
774.937	0.0139963
775.015	0.0140598
775.093	0.0139526
775.171	0.0139165
775.249	0.0139145
775.328	0.0139262
775.406	0.0139980
775.484	0.0138505
775.562	0.0137291
775.640	0.0139063
775.718	0.0137747
775.796	0.0137542
775.874	0.0138194
775.953	0.0138367
776.031	0.0138205
776.109	0.0137360
776.187	0.0137688
776.265	0.0137553
776.343	0.0138402
776.421	0.0139162
776.499	0.0139440
776.578	0.0139185
776.656	0.0138543
776.734	0.0138322
776.812	0.0138703
776.890	0.0139281
776.968	0.0140028
777.046	0.0139349
777.124	0.0138136
777.203	0.0139424
777.281	0.0138866
777.359	0.0140872
777.437	0.0139704
777.515	0.0139605
777.593	0.0139613
777.671	0.0139194
777.749	0.0140105
777.828	0.0139146
777.906	0.0138906
777.984	0.0138657
778.062	0.0138345
778.140	0.0137599
778.218	0.0137592
778.296	0.0138268
778.374	0.0136275
778.453	0.0136432
778.531	0.0137691
778.609	0.0135768
778.687	0.0136160
778.765	0.0137933
778.843	0.0136334
778.921	0.0136665
778.999	0.0137393
779.078	0.0137392
779.156	0.0135612
779.234	0.0135442
779.312	0.0135546
779.390	0.0135871
779.468	0.0137903
779.546	0.0136776
779.624	0.0137720
779.703	0.0136839
779.781	0.0136786
779.859	0.0137695
779.937	0.0137993
780.015	0.0138380
780.093	0.0138789
780.171	0.0138929
780.249	0.0140847
780.328	0.0139098
780.406	0.0139725
780.484	0.0141605
780.562	0.0138726
780.640	0.0141341
780.718	0.0139915
780.796	0.0140487
780.874	0.0139121
780.953	0.0138660
781.031	0.0141006
781.109	0.0140363
781.187	0.0139967
781.265	0.0138802
781.343	0.0138333
781.421	0.0138523
781.499	0.0140094
781.578	0.0139349
781.656	0.0137408
781.734	0.0138737
781.812	0.0137467
781.890	0.0137980
781.968	0.0140146
782.046	0.0138333
782.124	0.0137117
782.203	0.0138441
782.281	0.0139233
782.359	0.0138570
782.437	0.0139505
782.515	0.0139907
782.593	0.0140025
782.671	0.0139579
782.749	0.0140764
782.828	0.0140973
782.906	0.0141260
782.984	0.0142270
783.062	0.0143985
783.140	0.0140678
783.218	0.0142284
783.296	0.0141419
783.374	0.0141387
783.453	0.0139512
783.531	0.0140874
783.609	0.0139086
783.687	0.0138646
783.765	0.0138599
783.843	0.0139314
783.921	0.0136890
783.999	0.0137010
784.078	0.0136621
784.156	0.0136137
784.234	0.0135497
784.312	0.0136414
784.390	0.0135890
784.468	0.0136357
784.546	0.0137077
784.624	0.0135831
784.703	0.0135914
784.781	0.0136250
784.859	0.0135613
784.937	0.0135664
785.015	0.0134695
785.093	0.0134589
785.171	0.0136295
785.249	0.0136086
785.328	0.0135992
785.406	0.0136967
785.484	0.0137917
785.562	0.0136406
785.640	0.0138575
785.718	0.0139201
785.796	0.0139842
785.874	0.0140582
785.953	0.0141418
786.031	0.0142749
786.109	0.0143666
786.187	0.0143191
786.265	0.0145055
786.343	0.0143613
786.421	0.0143951
786.499	0.0143755
786.578	0.0143609
786.656	0.0143827
786.734	0.0144618
786.812	0.0144136
786.890	0.0144158
786.968	0.0143706
787.046	0.0142676
787.124	0.0142905
787.203	0.0142022
787.281	0.0141393
787.359	0.0141800
787.437	0.0140979
787.515	0.0141492
787.593	0.0141584
787.671	0.0140407
787.749	0.0139706
787.828	0.0139743
787.906	0.0139294
787.984	0.0139065
788.062	0.0138397
788.140	0.0138902
788.218	0.0138853
788.296	0.0137690
788.374	0.0136692
788.453	0.0137906
788.531	0.0137385
788.609	0.0135543
788.687	0.0137708
788.765	0.0137332
788.843	0.0135683
788.921	0.0136991
788.999	0.0136189
789.078	0.0136619
789.156	0.0136758
789.234	0.0136287
789.312	0.0136788
789.390	0.0138088
789.468	0.0137359
789.546	0.0136597
789.624	0.0137225
789.703	0.0138230
789.781	0.0139153
789.859	0.0138393
789.937	0.0138426
790.015	0.0137630
790.093	0.0138590
790.171	0.0138740
790.249	0.0138158
790.328	0.0139435
790.406	0.0140401
790.484	0.0139568
790.562	0.0139156
790.640	0.0138892
790.718	0.0140366
790.796	0.0140494
790.874	0.0142168
790.953	0.0140519
791.031	0.0141209
791.109	0.0140204
791.187	0.0141232
791.265	0.0139204
791.343	0.0140294
791.421	0.0141566
791.499	0.0141483
791.578	0.0141038
791.656	0.0140649
791.734	0.0141603
791.812	0.0140200
791.890	0.0140353
791.968	0.0140348
792.046	0.0141894
792.124	0.0142445
792.203	0.0141546
792.281	0.0139701
792.359	0.0142442
792.437	0.0142923
792.515	0.0142604
792.593	0.0143272
792.671	0.0142174
792.749	0.0142398
792.828	0.0143578
792.906	0.0142575
792.984	0.0143154
793.062	0.0141298
793.140	0.0142427
793.218	0.0140421
793.296	0.0140683
793.374	0.0140449
793.453	0.0140326
793.531	0.0139590
793.609	0.0138998
793.687	0.0139338
793.765	0.0139685
793.843	0.0139381
793.921	0.0138695
793.999	0.0139583
794.078	0.0138193
794.156	0.0139569
794.234	0.0138850
794.312	0.0140250
794.390	0.0138379
794.468	0.0139404
794.546	0.0138284
794.624	0.0138741
794.703	0.0137914
794.781	0.0138079
794.859	0.0137238
794.937	0.0137741
795.015	0.0136367
795.093	0.0138274
795.171	0.0140106
795.249	0.0138566
795.328	0.0138660
795.406	0.0138358
795.484	0.0138596
795.562	0.0138190
795.640	0.0138754
795.718	0.0138976
795.796	0.0138115
795.874	0.0139236
795.953	0.0139423
796.031	0.0140185
796.109	0.0139808
796.187	0.0140002
796.265	0.0139761
796.343	0.0139314
796.421	0.0138858
796.499	0.0139048
796.578	0.0139527
796.656	0.0139518
796.734	0.0138964
796.812	0.0137745
796.890	0.0139995
796.968	0.0139222
797.046	0.0138452
797.124	0.0138440
797.203	0.0138422
797.281	0.0138355
797.359	0.0138081
797.437	0.0139692
797.515	0.0140195
797.593	0.0140088
797.671	0.0141760
797.749	0.0140179
797.828	0.0141382
797.906	0.0140644
797.984	0.0141251
798.062	0.0141456
798.140	0.0141360
798.218	0.0141485
798.296	0.0141157
798.374	0.0143241
798.453	0.0141194
798.531	0.0141290
798.609	0.0142696
798.687	0.0141898
798.765	0.0140099
798.843	0.0140495
798.921	0.0141004
798.999	0.0139997
799.078	0.0140682
799.156	0.0139637
799.234	0.0139787
799.312	0.0139420
799.390	0.0140725
799.468	0.0137215
799.546	0.0139884
799.624	0.0139119
799.703	0.0139664
799.781	0.0139478
799.859	0.0137050
799.937	0.0136441
800.015	0.0137984
800.093	0.0138527
800.171	0.0136993
800.249	0.0137965
800.328	0.0137769
800.406	0.0135309
800.484	0.0138215
800.562	0.0136373
800.640	0.0137094
800.718	0.0136980
800.796	0.0138280
800.874	0.0136315
800.953	0.0136267
801.031	0.0136677
801.109	0.0136952
801.187	0.0135869
801.265	0.0136371
801.343	0.0136540
801.421	0.0137634
801.499	0.0136859
801.578	0.0137221
801.656	0.0137641
801.734	0.0136692
801.812	0.0137381
801.890	0.0138918
801.968	0.0136896
802.046	0.0138747
802.124	0.0138113
802.203	0.0137737
802.281	0.0138651
802.359	0.0138594
802.437	0.0136925
802.515	0.0138788
802.593	0.0138908
802.671	0.0138049
802.749	0.0138046
802.828	0.0138160
802.906	0.0139050
802.984	0.0138831
803.062	0.0139661
803.140	0.0139190
803.218	0.0137882
803.296	0.0138725
803.374	0.0140139
803.453	0.0138756
803.531	0.0138221
803.609	0.0138869
803.687	0.0138465
803.765	0.0139326
803.843	0.0138849
803.921	0.0138576
803.999	0.0136457
804.078	0.0138793
804.156	0.0137994
804.234	0.0138853
804.312	0.0137363
804.390	0.0137706
804.468	0.0138008
804.546	0.0137296
804.624	0.0136440
804.703	0.0136901
804.781	0.0137352
804.859	0.0136997
804.937	0.0134599
805.015	0.0135744
805.093	0.0136607
805.171	0.0136950
805.249	0.0135355
805.328	0.0135802
805.406	0.0135381
805.484	0.0135747
805.562	0.0137498
805.640	0.0137727
805.718	0.0138412
805.796	0.0138853
805.874	0.0137398
805.953	0.0137426
806.031	0.0137888
806.109	0.0139299
806.187	0.0138876
806.265	0.0139903
806.343	0.0139662
806.421	0.0139423
806.499	0.0139874
806.578	0.0139179
806.656	0.0140507
806.734	0.0139321
806.812	0.0138826
806.890	0.0140899
806.968	0.0139204
807.046	0.0139603
807.124	0.0138519
807.203	0.0140347
807.281	0.0140026
807.359	0.0139587
807.437	0.0138020
807.515	0.0138389
807.593	0.0137885
807.671	0.0138660
807.749	0.0137377
807.828	0.0136526
807.906	0.0137456
807.984	0.0137617
808.062	0.0139054
808.140	0.0138726
808.218	0.0136739
808.296	0.0136038
808.374	0.0139063
808.453	0.0138146
808.531	0.0137080
808.609	0.0137080
808.687	0.0138309
808.765	0.0138178
808.843	0.0137309
808.921	0.0138995
808.999	0.0137598
809.078	0.0137451
809.156	0.0137182
809.234	0.0137540
809.312	0.0138197
809.390	0.0138155
809.468	0.0139396
809.546	0.0137944
809.624	0.0136796
809.703	0.0138297
809.781	0.0138376
809.859	0.0137276
809.937	0.0138949
810.015	0.0138318
810.093	0.0138650
810.171	0.0137633
810.249	0.0137236
810.328	0.0138085
810.406	0.0137410
810.484	0.0138153
810.562	0.0138779
810.640	0.0136852
810.718	0.0138078
810.796	0.0136663
810.874	0.0139088
810.953	0.0138219
811.031	0.0138609
811.109	0.0138055
811.187	0.0138818
811.265	0.0138866
811.343	0.0138951
811.421	0.0139158
811.499	0.0140433
811.578	0.0139467
811.656	0.0140842
811.734	0.0140317
811.812	0.0139734
811.890	0.0140768
811.968	0.0141339
812.046	0.0140707
812.124	0.0140411
812.203	0.0141147
812.281	0.0141194
812.359	0.0140962
812.437	0.0141496
812.515	0.0139497
812.593	0.0140395
812.671	0.0139680
812.749	0.0140522
812.828	0.0138386
812.906	0.0139505
812.984	0.0138895
813.062	0.0138296
813.140	0.0137178
813.218	0.0138512
813.296	0.0139111
813.374	0.0135527
813.453	0.0136269
813.531	0.0138320
813.609	0.0136987
813.687	0.0137199
813.765	0.0138707
813.843	0.0138023
813.921	0.0139433
813.999	0.0138484
814.078	0.0137985
814.156	0.0139121
814.234	0.0139066
814.312	0.0139988
814.390	0.0140920
814.468	0.0140670
814.546	0.0140926
814.624	0.0141305
814.703	0.0140517
814.781	0.0141155
814.859	0.0141999
814.937	0.0142191
815.015	0.0141913
815.093	0.0141579
815.171	0.0141481
815.249	0.0141839
815.328	0.0141347
815.406	0.0141042
815.484	0.0140396
815.562	0.0141167
815.640	0.0140752
815.718	0.0139191
815.796	0.0138978
815.874	0.0140928
815.953	0.0139795
816.031	0.0136351
816.109	0.0137767
816.187	0.0136696
816.265	0.0137488
816.343	0.0136316
816.421	0.0137253
816.499	0.0138587
816.578	0.0138004
816.656	0.0138429
816.734	0.0138924
816.812	0.0139359
816.890	0.0137419
816.968	0.0138334
817.046	0.0140498
817.124	0.0139610
817.203	0.0138300
817.281	0.0140065
817.359	0.0140096
817.437	0.0138912
817.515	0.0140849
817.593	0.0139952
817.671	0.0140866
817.749	0.0141782
817.828	0.0141441
817.906	0.0142166
817.984	0.0140600
818.062	0.0139822
818.140	0.0140648
818.218	0.0140782
818.296	0.0140346
818.374	0.0140161
818.453	0.0140125
818.531	0.0140161
818.609	0.0140294
818.687	0.0139253
818.765	0.0138491
818.843	0.0138767
818.921	0.0140351
818.999	0.0139395
819.078	0.0138128
819.156	0.0138826
819.234	0.0137459
819.312	0.0140012
819.390	0.0140726
819.468	0.0138842
819.546	0.0137894
819.624	0.0139167
819.703	0.0139040
819.781	0.0136996
819.859	0.0137701
819.937	0.0136708
820.015	0.0138912
820.093	0.0137421
820.171	0.0137408
820.249	0.0138407
820.328	0.0138285
820.406	0.0137360
820.484	0.0139168
820.562	0.0138016
820.640	0.0138951
820.718	0.0139295
820.796	0.0138878
820.874	0.0139466
820.953	0.0140166
821.031	0.0141030
821.109	0.0139633
821.187	0.0138818
821.265	0.0139932
821.343	0.0139431
821.421	0.0140138
821.499	0.0139541
821.578	0.0138969
821.656	0.0137293
821.734	0.0139707
821.812	0.0140430
821.890	0.0140591
821.968	0.0140070
822.046	0.0139178
822.124	0.0139274
822.203	0.0138801
822.281	0.0138426
822.359	0.0137552
822.437	0.0140541
822.515	0.0139027
822.593	0.0138449
822.671	0.0138933
822.749	0.0138388
822.828	0.0137676
822.906	0.0136217
822.984	0.0137046
823.062	0.0138019
823.140	0.0136673
823.218	0.0136720
823.296	0.0137852
823.374	0.0137434
823.453	0.0136520
823.531	0.0137226
823.609	0.0137505
823.687	0.0137665
823.765	0.0137124
823.843	0.0137280
823.921	0.0137492
823.999	0.0138176
824.078	0.0138266
824.156	0.0137090
824.234	0.0138348
824.312	0.0136499
824.390	0.0137756
824.468	0.0136845
824.546	0.0137805
824.624	0.0138293
824.703	0.0138296
824.781	0.0137473
824.859	0.0138206
824.937	0.0137418
825.015	0.0136403
825.093	0.0138914
825.171	0.0137897
825.249	0.0139317
825.328	0.0138253
825.406	0.0137978
825.484	0.0139877
825.562	0.0138809
825.640	0.0139216
825.718	0.0138966
825.796	0.0139765
825.874	0.0139074
825.953	0.0139217
826.031	0.0139273
826.109	0.0137903
826.187	0.0139420
826.265	0.0139830
826.343	0.0138390
826.421	0.0139140
826.499	0.0139709
826.578	0.0137442
826.656	0.0137639
826.734	0.0139820
826.812	0.0139115
826.890	0.0138679
826.968	0.0138374
827.046	0.0137479
827.124	0.0140250
827.203	0.0139655
827.281	0.0138087
827.359	0.0139935
827.437	0.0138984
827.515	0.0138534
827.593	0.0138303
827.671	0.0139085
827.749	0.0138587
827.828	0.0137331
827.906	0.0139270
827.984	0.0140325
828.062	0.0138601
828.140	0.0139527
828.218	0.0140131
828.296	0.0138607
828.374	0.0137994
828.453	0.0137706
828.531	0.0137297
828.609	0.0137263
828.687	0.0137354
828.765	0.0137554
828.843	0.0137740
828.921	0.0136951
828.999	0.0136838
829.078	0.0137150
829.156	0.0136977
829.234	0.0138493
829.312	0.0136449
829.390	0.0136537
829.468	0.0136720
829.546	0.0137843
829.624	0.0136943
829.703	0.0137440
829.781	0.0137992
829.859	0.0137568
829.937	0.0137486
830.015	0.0137887
830.093	0.0136986
830.171	0.0136623
830.249	0.0137329
830.328	0.0137696
830.406	0.0136342
830.484	0.0135564
830.562	0.0138577
830.640	0.0137270
830.718	0.0136926
830.796	0.0136644
830.874	0.0137965
830.953	0.0137222
831.031	0.0138769
831.109	0.0138140
831.187	0.0137762
831.265	0.0138699
831.343	0.0138628
831.421	0.0137327
831.499	0.0138248
831.578	0.0139735
831.656	0.0137880
831.734	0.0139468
831.812	0.0138887
831.890	0.0138973
831.968	0.0139142
832.046	0.0139611
832.124	0.0139701
832.203	0.0139434
832.281	0.0140289
832.359	0.0139796
832.437	0.0139349
832.515	0.0138999
832.593	0.0139368
832.671	0.0139951
832.749	0.0139909
832.828	0.0138467
832.906	0.0140848
832.984	0.0138206
833.062	0.0138863
833.140	0.0137209
833.218	0.0138182
833.296	0.0137920
833.374	0.0137879
833.453	0.0137513
833.531	0.0138256
833.609	0.0138837
833.687	0.0137373
833.765	0.0139527
833.843	0.0137556
833.921	0.0138363
833.999	0.0139584
834.078	0.0138472
834.156	0.0138039
834.234	0.0139562
834.312	0.0139558
834.390	0.0140021
834.468	0.0138303
834.546	0.0140247
834.624	0.0140273
834.703	0.0139143
834.781	0.0139108
834.859	0.0140490
834.937	0.0139807
835.015	0.0140686
835.093	0.0140667
835.171	0.0139007
835.249	0.0139285
835.328	0.0139118
835.406	0.0139767
835.484	0.0139037
835.562	0.0140063
835.640	0.0139601
835.718	0.0139276
835.796	0.0140917
835.874	0.0139869
835.953	0.0139872
836.031	0.0138601
836.109	0.0139233
836.187	0.0139702
836.265	0.0139284
836.343	0.0138042
836.421	0.0137679
836.499	0.0138528
836.578	0.0137321
836.656	0.0137460
836.734	0.0137135
836.812	0.0137793
836.890	0.0137104
836.968	0.0136410
837.046	0.0138155
837.124	0.0138000
837.203	0.0137666
837.281	0.0138708
837.359	0.0139846
837.437	0.0139508
837.515	0.0138515
837.593	0.0138412
837.671	0.0140704
837.749	0.0137741
837.828	0.0138823
837.906	0.0139481
837.984	0.0139218
838.062	0.0140007
838.140	0.0140102
838.218	0.0139886
838.296	0.0139841
838.374	0.0139114
838.453	0.0139620
838.531	0.0140063
838.609	0.0138465
838.687	0.0138274
838.765	0.0138699
838.843	0.0139474
838.921	0.0139160
838.999	0.0139057
839.078	0.0139098
839.156	0.0138953
839.234	0.0141460
839.312	0.0141354
839.390	0.0139446
839.468	0.0140763
839.546	0.0142619
839.624	0.0141012
839.703	0.0140727
839.781	0.0141541
839.859	0.0139214
839.937	0.0141134
840.015	0.0141650
840.093	0.0138863
840.171	0.0140077
840.249	0.0138229
840.328	0.0138860
840.406	0.0138747
840.484	0.0137856
840.562	0.0138424
840.640	0.0139632
840.718	0.0137491
840.796	0.0137707
840.874	0.0138294
840.953	0.0137937
841.031	0.0138671
841.109	0.0138780
841.187	0.0138149
841.265	0.0138991
841.343	0.0139091
841.421	0.0138741
841.499	0.0137482
841.578	0.0137050
841.656	0.0137490
841.734	0.0138630
841.812	0.0136068
841.890	0.0137418
841.968	0.0137369
842.046	0.0136679
842.124	0.0137210
842.203	0.0137003
842.281	0.0138471
842.359	0.0137901
842.437	0.0137175
842.515	0.0138722
842.593	0.0138895
842.671	0.0139859
842.749	0.0139804
842.828	0.0139042
842.906	0.0141020
842.984	0.0139951
843.062	0.0139730
843.140	0.0140144
843.218	0.0141023
843.296	0.0140569
843.374	0.0142104
843.453	0.0141308
843.531	0.0141015
843.609	0.0142171
843.687	0.0141460
843.765	0.0141270
843.843	0.0141052
843.921	0.0142458
843.999	0.0140847
844.078	0.0140598
844.156	0.0141669
844.234	0.0139722
844.312	0.0140740
844.390	0.0139338
844.468	0.0140038
844.546	0.0140114
844.624	0.0139898
844.703	0.0139696
844.781	0.0139867
844.859	0.0138934
844.937	0.0137664
845.015	0.0138897
845.093	0.0138300
845.171	0.0139265
845.249	0.0138642
845.328	0.0138535
845.406	0.0138251
845.484	0.0137649
845.562	0.0137679
845.640	0.0138508
845.718	0.0138808
845.796	0.0138013
845.874	0.0137612
845.953	0.0138395
846.031	0.0138325
846.109	0.0137586
846.187	0.0137690
846.265	0.0138100
846.343	0.0137666
846.421	0.0137940
846.499	0.0138985
846.578	0.0138163
846.656	0.0138615
846.734	0.0136725
846.812	0.0137785
846.890	0.0137978
846.968	0.0138492
847.046	0.0138931
847.124	0.0139761
847.203	0.0139724
847.281	0.0139649
847.359	0.0139586
847.437	0.0138578
847.515	0.0140060
847.593	0.0140160
847.671	0.0139774
847.749	0.0140250
847.828	0.0139684
847.906	0.0138270
847.984	0.0139336
848.062	0.0138952
848.140	0.0140153
848.218	0.0138543
848.296	0.0140044
848.374	0.0138730
848.453	0.0137777
848.531	0.0138284
848.609	0.0139731
848.687	0.0138686
848.765	0.0138802
848.843	0.0138898
848.921	0.0138429
848.999	0.0138106
849.078	0.0139040
849.156	0.0137029
849.234	0.0137045
849.312	0.0136530
849.390	0.0137185
849.468	0.0137521
849.546	0.0136729
849.624	0.0136557
849.703	0.0136456
849.781	0.0136559
849.859	0.0135932
849.937	0.0136349
850.015	0.0136817
850.093	0.0137165
850.171	0.0137411
850.249	0.0137569
850.328	0.0138157
850.406	0.0137931
850.484	0.0139449
850.562	0.0140096
850.640	0.0138785
850.718	0.0139088
850.796	0.0140572
850.874	0.0142289
850.953	0.0141689
851.031	0.0141730
851.109	0.0142279
851.187	0.0143031
851.265	0.0141245
851.343	0.0142982
851.421	0.0143140
851.499	0.0141837
851.578	0.0142138
851.656	0.0142350
851.734	0.0143363
851.812	0.0141770
851.890	0.0140243
851.968	0.0141506
852.046	0.0141768
852.124	0.0139822
852.203	0.0139532
852.281	0.0139975
852.359	0.0139986
852.437	0.0139482
852.515	0.0139095
852.593	0.0138094
852.671	0.0137285
852.749	0.0137492
852.828	0.0135667
852.906	0.0136766
852.984	0.0134771
853.062	0.0135970
853.140	0.0136128
853.218	0.0135799
853.296	0.0135613
853.374	0.0134388
853.453	0.0134782
853.531	0.0137304
853.609	0.0136535
853.687	0.0135593
853.765	0.0137093
853.843	0.0137268
853.921	0.0136399
853.999	0.0138226
854.078	0.0138432
854.156	0.0138404
854.234	0.0139281
854.312	0.0139405
854.390	0.0139113
854.468	0.0140987
854.546	0.0139486
854.624	0.0140054
854.703	0.0140485
854.781	0.0140159
854.859	0.0140173
854.937	0.0141132
855.015	0.0141064
855.093	0.0139637
855.171	0.0141644
855.249	0.0141680
855.328	0.0142877
855.406	0.0141866
855.484	0.0142126
855.562	0.0142709
855.640	0.0144107
855.718	0.0143224
855.796	0.0142623
855.874	0.0142154
855.953	0.0140864
856.031	0.0141718
856.109	0.0140250
856.187	0.0140582
856.265	0.0141677
856.343	0.0141738
856.421	0.0140520
856.499	0.0139371
856.578	0.0140386
856.656	0.0139323
856.734	0.0138956
856.812	0.0138397
856.890	0.0138137
856.968	0.0137872
857.046	0.0139403
857.124	0.0137691
857.203	0.0137125
857.281	0.0137437
857.359	0.0136966
857.437	0.0139012
857.515	0.0138447
857.593	0.0137572
857.671	0.0137122
857.749	0.0136974
857.828	0.0137631
857.906	0.0136795
857.984	0.0137859
858.062	0.0137574
858.140	0.0136787
858.218	0.0137209
858.296	0.0137645
858.374	0.0138203
858.453	0.0138336
858.531	0.0137587
858.609	0.0138371
858.687	0.0139249
858.765	0.0138026
858.843	0.0139176
858.921	0.0139456
858.999	0.0138255
859.078	0.0139005
859.156	0.0138837
859.234	0.0138007
859.312	0.0139371
859.390	0.0139855
859.468	0.0139275
859.546	0.0139725
859.624	0.0141106
859.703	0.0140128
859.781	0.0139690
859.859	0.0141190
859.937	0.0139719
860.015	0.0140199
860.093	0.0139754
860.171	0.0140054
860.249	0.0139813
860.328	0.0140753
860.406	0.0139979
860.484	0.0140381
860.562	0.0140700
860.640	0.0139994
860.718	0.0140703
860.796	0.0138264
860.874	0.0138896
860.953	0.0140252
861.031	0.0139662
861.109	0.0139011
861.187	0.0138946
861.265	0.0139815
861.343	0.0138374
861.421	0.0138986
861.499	0.0138213
861.578	0.0138637
861.656	0.0139183
861.734	0.0139158
861.812	0.0137292
861.890	0.0138316
861.968	0.0137164
862.046	0.0137754
862.124	0.0136993
862.203	0.0137061
862.281	0.0137443
862.359	0.0136876
862.437	0.0137689
862.515	0.0137984
862.593	0.0136850
862.671	0.0138065
862.749	0.0136343
862.828	0.0136632
862.906	0.0136333
862.984	0.0136927
863.062	0.0136636
863.140	0.0136592
863.218	0.0138147
863.296	0.0138734
863.374	0.0138037
863.453	0.0137410
863.531	0.0137545
863.609	0.0139355
863.687	0.0138188
863.765	0.0138613
863.843	0.0138525
863.921	0.0139002
863.999	0.0139127
864.078	0.0139648
864.156	0.0140038
864.234	0.0139310
864.312	0.0140344
864.390	0.0139301
864.468	0.0141319
864.546	0.0140857
864.624	0.0141830
864.703	0.0141003
864.781	0.0140427
864.859	0.0142101
864.937	0.0141425
865.015	0.0140950
865.093	0.0140959
865.171	0.0140137
865.249	0.0139887
865.328	0.0139619
865.406	0.0138680
865.484	0.0140554
865.562	0.0140305
865.640	0.0141035
865.718	0.0139478
865.796	0.0139133
865.874	0.0140717
865.953	0.0137998
866.031	0.0137384
866.109	0.0138979
866.187	0.0139191
866.265	0.0138130
866.343	0.0138492
866.421	0.0137550
866.499	0.0137970
866.578	0.0135954
866.656	0.0136523
866.734	0.0137609
866.812	0.0136199
866.890	0.0137482
866.968	0.0136676
867.046	0.0134552
867.124	0.0136513
867.203	0.0136758
867.281	0.0136698
867.359	0.0137083
867.437	0.0138171
867.515	0.0137651
867.593	0.0137960
867.671	0.0137946
867.749	0.0139633
867.828	0.0139264
867.906	0.0139115
867.984	0.0139831
868.062	0.0139231
868.140	0.0138991
868.218	0.0138967
868.296	0.0139513
868.374	0.0138245
868.453	0.0140083
868.531	0.0139853
868.609	0.0141248
868.687	0.0141376
868.765	0.0139699
868.843	0.0138607
868.921	0.0139762
868.999	0.0140608
869.078	0.0139793
869.156	0.0140974
869.234	0.0141502
869.312	0.0140266
869.390	0.0139891
869.468	0.0140418
869.546	0.0140465
869.624	0.0139040
869.703	0.0139487
869.781	0.0139330
869.859	0.0139675
869.937	0.0141264
870.015	0.0139709
870.093	0.0137701
870.171	0.0138461
870.249	0.0138148
870.328	0.0138679
870.406	0.0137968
870.484	0.0139865
870.562	0.0139720
870.640	0.0138792
870.718	0.0138354
870.796	0.0140245
870.874	0.0139296
870.953	0.0140016
871.031	0.0139626
871.109	0.0139567
871.187	0.0140855
871.265	0.0140003
871.343	0.0140446
871.421	0.0140460
871.499	0.0139535
871.578	0.0139823
871.656	0.0140860
871.734	0.0141750
871.812	0.0140774
871.890	0.0139946
871.968	0.0139850
872.046	0.0140683
872.124	0.0140121
872.203	0.0138798
872.281	0.0138932
872.359	0.0139280
872.437	0.0139915
872.515	0.0138876
872.593	0.0137898
872.671	0.0138934
872.749	0.0138323
872.828	0.0137759
872.906	0.0138412
872.984	0.0138089
873.062	0.0138933
873.140	0.0138988
873.218	0.0138257
873.296	0.0138345
873.374	0.0138490
873.453	0.0138486
873.531	0.0138737
873.609	0.0138268
873.687	0.0136932
873.765	0.0139246
873.843	0.0138648
873.921	0.0137614
873.999	0.0138357
874.078	0.0137543
874.156	0.0137724
874.234	0.0138459
874.312	0.0139143
874.390	0.0138904
874.468	0.0139326
874.546	0.0139436
874.624	0.0139326
874.703	0.0139187
874.781	0.0140424
874.859	0.0141084
874.937	0.0141347
875.015	0.0139951
875.093	0.0140150
875.171	0.0139470
875.249	0.0139700
875.328	0.0140762
875.406	0.0138250
875.484	0.0139017
875.562	0.0138313
875.640	0.0138927
875.718	0.0138219
875.796	0.0138315
875.874	0.0139529
875.953	0.0137909
876.031	0.0138435
876.109	0.0138366
876.187	0.0139149
876.265	0.0138906
876.343	0.0140083
876.421	0.0139706
876.499	0.0140249
876.578	0.0139489
876.656	0.0138933
876.734	0.0140570
876.812	0.0140252
876.890	0.0140888
876.968	0.0140179
877.046	0.0140036
877.124	0.0139908
877.203	0.0140688
877.281	0.0140752
877.359	0.0141565
877.437	0.0140309
877.515	0.0140022
877.593	0.0141449
877.671	0.0139628
877.749	0.0140849
877.828	0.0141105
877.906	0.0140934
877.984	0.0139022
878.062	0.0139017
878.140	0.0139090
878.218	0.0139869
878.296	0.0139414
878.374	0.0140253
878.453	0.0139890
878.531	0.0138946
878.609	0.0138586
878.687	0.0139562
878.765	0.0138796
878.843	0.0138451
878.921	0.0138808
878.999	0.0138347
879.078	0.0138332
879.156	0.0137025
879.234	0.0137283
879.312	0.0139040
879.390	0.0138604
879.468	0.0138051
879.546	0.0137159
879.624	0.0137151
879.703	0.0136353
879.781	0.0136817
879.859	0.0137052
879.937	0.0138316
880.015	0.0139461
880.093	0.0137847
880.171	0.0137960
880.249	0.0138303
880.328	0.0139271
880.406	0.0138425
880.484	0.0138345
880.562	0.0138360
880.640	0.0139922
880.718	0.0138723
880.796	0.0138792
880.874	0.0139379
880.953	0.0139787
881.031	0.0139056
881.109	0.0140768
881.187	0.0141775
881.265	0.0138546
881.343	0.0139332
881.421	0.0140848
881.499	0.0140634
881.578	0.0140969
881.656	0.0141159
881.734	0.0139940
881.812	0.0139971
881.890	0.0139575
881.968	0.0140635
882.046	0.0140973
882.124	0.0140524
882.203	0.0139779
882.281	0.0139999
882.359	0.0141068
882.437	0.0141282
882.515	0.0139489
882.593	0.0140461
882.671	0.0138776
882.749	0.0139005
882.828	0.0138589
882.906	0.0138590
882.984	0.0139358
883.062	0.0139931
883.140	0.0138707
883.218	0.0139349
883.296	0.0138886
883.374	0.0139076
883.453	0.0138057
883.531	0.0138190
883.609	0.0138325
883.687	0.0137684
883.765	0.0136285
883.843	0.0138474
883.921	0.0136709
883.999	0.0135916
884.078	0.0136010
884.156	0.0136330
884.234	0.0137522
884.312	0.0137463
884.390	0.0136825
884.468	0.0137058
884.546	0.0137201
884.624	0.0135922
884.703	0.0137368
884.781	0.0137780
884.859	0.0137557
884.937	0.0138022
885.015	0.0139445
885.093	0.0138496
885.171	0.0137437
885.249	0.0139292
885.328	0.0140143
885.406	0.0140000
885.484	0.0138551
885.562	0.0139671
885.640	0.0141229
885.718	0.0139973
885.796	0.0140775
885.874	0.0141087
885.953	0.0139784
886.031	0.0142178
886.109	0.0141438
886.187	0.0140703
886.265	0.0140926
886.343	0.0141773
886.421	0.0140960
886.499	0.0140593
886.578	0.0141331
886.656	0.0141019
886.734	0.0140128
886.812	0.0140453
886.890	0.0140442
886.968	0.0141198
887.046	0.0141135
887.124	0.0138973
887.203	0.0141503
887.281	0.0142020
887.359	0.0140982
887.437	0.0140633
887.515	0.0139896
887.593	0.0140022
887.671	0.0139254
887.749	0.0138564
887.828	0.0137914
887.906	0.0138550
887.984	0.0138694
888.062	0.0138652
888.140	0.0137572
888.218	0.0137291
888.296	0.0136368
888.374	0.0138227
888.453	0.0137810
888.531	0.0137708
888.609	0.0137415
888.687	0.0137248
888.765	0.0137285
888.843	0.0137501
888.921	0.0135905
888.999	0.0136337
889.078	0.0136293
889.156	0.0137685
889.234	0.0136274
889.312	0.0136682
889.390	0.0135797
889.468	0.0136244
889.546	0.0136643
889.624	0.0137792
889.703	0.0135735
889.781	0.0137173
889.859	0.0138759
889.937	0.0139491
890.015	0.0137599
890.093	0.0139448
890.171	0.0139318
890.249	0.0140504
890.328	0.0139668
890.406	0.0140845
890.484	0.0140512
890.562	0.0141604
890.640	0.0141417
890.718	0.0141364
890.796	0.0141552
890.874	0.0140586
890.953	0.0141370
891.031	0.0139432
891.109	0.0140112
891.187	0.0138964
891.265	0.0138781
891.343	0.0137866
891.421	0.0138309
891.499	0.0138109
891.578	0.0138359
891.656	0.0137403
891.734	0.0137423
891.812	0.0138356
891.890	0.0136641
891.968	0.0137860
892.046	0.0137442
892.124	0.0136939
892.203	0.0136799
892.281	0.0137614
892.359	0.0138425
892.437	0.0137522
892.515	0.0136627
892.593	0.0137534
892.671	0.0137429
892.749	0.0137755
892.828	0.0138119
892.906	0.0137967
892.984	0.0136923
893.062	0.0138174
893.140	0.0137667
893.218	0.0138686
893.296	0.0138888
893.374	0.0138779
893.453	0.0138714
893.531	0.0139566
893.609	0.0139845
893.687	0.0138463
893.765	0.0138645
893.843	0.0140616
893.921	0.0139140
893.999	0.0139687
894.078	0.0140225
894.156	0.0138856
894.234	0.0138432
894.312	0.0138642
894.390	0.0138447
894.468	0.0137509
894.546	0.0136944
894.624	0.0137291
894.703	0.0137135
894.781	0.0136343
894.859	0.0137177
894.937	0.0138227
895.015	0.0138317
895.093	0.0136531
895.171	0.0136416
895.249	0.0138187
895.328	0.0138506
895.406	0.0137526
895.484	0.0138821
895.562	0.0138742
895.640	0.0138802
895.718	0.0138467
895.796	0.0137584
895.874	0.0139200
895.953	0.0139056
896.031	0.0139384
896.109	0.0140217
896.187	0.0138680
896.265	0.0139417
896.343	0.0141045
896.421	0.0140494
896.499	0.0139969
896.578	0.0140545
896.656	0.0140877
896.734	0.0140316
896.812	0.0140575
896.890	0.0140620
896.968	0.0139023
897.046	0.0139396
897.124	0.0140582
897.203	0.0139472
897.281	0.0140617
897.359	0.0140292
897.437	0.0141497
897.515	0.0141209
897.593	0.0139681
897.671	0.0139882
897.749	0.0139635
897.828	0.0139407
897.906	0.0140027
897.984	0.0140561
898.062	0.0139429
898.140	0.0139643
898.218	0.0139469
898.296	0.0140850
898.374	0.0139288
898.453	0.0138997
898.531	0.0140108
898.609	0.0139288
898.687	0.0139780
898.765	0.0139633
898.843	0.0138731
898.921	0.0139516
898.999	0.0140960
899.078	0.0140041
899.156	0.0140385
899.234	0.0140333
899.312	0.0139727
899.390	0.0138918
899.468	0.0139660
899.546	0.0139213
899.624	0.0140155
899.703	0.0139840
899.781	0.0137664
899.859	0.0139632
899.937	0.0138891
900.015	0.0137760
900.093	0.0137766
900.171	0.0136835
900.249	0.0137930
900.328	0.0137796
900.406	0.0138074
900.484	0.0137955
900.562	0.0137300
900.640	0.0136904
900.718	0.0136796
900.796	0.0136935
900.874	0.0137546
900.953	0.0136485
901.031	0.0136805
901.109	0.0138939
901.187	0.0137253
901.265	0.0136169
901.343	0.0137368
901.421	0.0136397
901.499	0.0137634
901.578	0.0137486
901.656	0.0136474
901.734	0.0137645
901.812	0.0139296
901.890	0.0138938
901.968	0.0138721
902.046	0.0138663
902.124	0.0138017
902.203	0.0138474
902.281	0.0140002
902.359	0.0140511
902.437	0.0140409
902.515	0.0141312
902.593	0.0141218
902.671	0.0141126
902.749	0.0142529
902.828	0.0142904
902.906	0.0141896
902.984	0.0142550
903.062	0.0141687
903.140	0.0142789
903.218	0.0142622
903.296	0.0142398
903.374	0.0143439
903.453	0.0143260
903.531	0.0142763
903.609	0.0142212
903.687	0.0143372
903.765	0.0142131
903.843	0.0140327
903.921	0.0142108
903.999	0.0141306
904.078	0.0139613
904.156	0.0140147
904.234	0.0139148
904.312	0.0137900
904.390	0.0139265
904.468	0.0138835
904.546	0.0138712
904.624	0.0137310
904.703	0.0136599
904.781	0.0135564
904.859	0.0136337
904.937	0.0136388
905.015	0.0135937
905.093	0.0136373
905.171	0.0136628
905.249	0.0136427
905.328	0.0135736
905.406	0.0135052
905.484	0.0136481
905.562	0.0135683
905.640	0.0136660
905.718	0.0136092
905.796	0.0136121
905.874	0.0137885
905.953	0.0137519
906.031	0.0136193
906.109	0.0137885
906.187	0.0137966
906.265	0.0138649
906.343	0.0138031
906.421	0.0138019
906.499	0.0138882
906.578	0.0138552
906.656	0.0139811
906.734	0.0138938
906.812	0.0139832
906.890	0.0139989
906.968	0.0138758
907.046	0.0138142
907.124	0.0138165
907.203	0.0140686
907.281	0.0139563
907.359	0.0140149
907.437	0.0139034
907.515	0.0138686
907.593	0.0138762
907.671	0.0139373
907.749	0.0140145
907.828	0.0139303
907.906	0.0138876
907.984	0.0138892
908.062	0.0138068
908.140	0.0138763
908.218	0.0139650
908.296	0.0137869
908.374	0.0140533
908.453	0.0139417
908.531	0.0138531
908.609	0.0138715
908.687	0.0139793
908.765	0.0140152
908.843	0.0140733
908.921	0.0140763
908.999	0.0139856
909.078	0.0139345
909.156	0.0140915
909.234	0.0140152
909.312	0.0140485
909.390	0.0138627
909.468	0.0138081
909.546	0.0138638
909.624	0.0138783
909.703	0.0138245
909.781	0.0137032
909.859	0.0139366
909.937	0.0138213
910.015	0.0136275
910.093	0.0136274
910.171	0.0139053
910.249	0.0137826
910.328	0.0137215
910.406	0.0137011
910.484	0.0134978
910.562	0.0136655
910.640	0.0136610
910.718	0.0137114
910.796	0.0136540
910.874	0.0136812
910.953	0.0136953
911.031	0.0136233
911.109	0.0136320
911.187	0.0137784
911.265	0.0137201
911.343	0.0137762
911.421	0.0137547
911.499	0.0137909
911.578	0.0137999
911.656	0.0136977
911.734	0.0138913
911.812	0.0137404
911.890	0.0137844
911.968	0.0138625
912.046	0.0138696
912.124	0.0138668
912.203	0.0139167
912.281	0.0141016
912.359	0.0138390
912.437	0.0138891
912.515	0.0138846
912.593	0.0139177
912.671	0.0139394
912.749	0.0140486
912.828	0.0140662
912.906	0.0140974
912.984	0.0141451
913.062	0.0140920
913.140	0.0139509
913.218	0.0139072
913.296	0.0139365
913.374	0.0139761
913.453	0.0140100
913.531	0.0139692
913.609	0.0138723
913.687	0.0139772
913.765	0.0138696
913.843	0.0138148
913.921	0.0139339
913.999	0.0139899
914.078	0.0139673
914.156	0.0139072
914.234	0.0138776
914.312	0.0138869
914.390	0.0138525
914.468	0.0139475
914.546	0.0139899
914.624	0.0139327
914.703	0.0138425
914.781	0.0138326
914.859	0.0137958
914.937	0.0138152
915.015	0.0137466
915.093	0.0137537
915.171	0.0138670
915.249	0.0138991
915.328	0.0136249
915.406	0.0138000
915.484	0.0139265
915.562	0.0138641
915.640	0.0137476
915.718	0.0138394
915.796	0.0140023
915.874	0.0139860
915.953	0.0139235
916.031	0.0139927
916.109	0.0137972
916.187	0.0138465
916.265	0.0139503
916.343	0.0140218
916.421	0.0138174
916.499	0.0139767
916.578	0.0139020
916.656	0.0138747
916.734	0.0140640
916.812	0.0139620
916.890	0.0140155
916.968	0.0138849
917.046	0.0139980
917.124	0.0138030
917.203	0.0139352
917.281	0.0138911
917.359	0.0139045
917.437	0.0138708
917.515	0.0138687
917.593	0.0139450
917.671	0.0138728
917.749	0.0138225
917.828	0.0137364
917.906	0.0138058
917.984	0.0139809
918.062	0.0138738
918.140	0.0139279
918.218	0.0139738
918.296	0.0138522
918.374	0.0138426
918.453	0.0137943
918.531	0.0139219
918.609	0.0137582
918.687	0.0138538
918.765	0.0137730
918.843	0.0138857
918.921	0.0139230
918.999	0.0137185
919.078	0.0138188
919.156	0.0138291
919.234	0.0138366
919.312	0.0137655
919.390	0.0139872
919.468	0.0138467
919.546	0.0138240
919.624	0.0137971
919.703	0.0139842
919.781	0.0138650
919.859	0.0136954
919.937	0.0138268
