05/08/2022	20:13:21	Ver.	4.1	UNKNOWN
Optical Delay	600.015094	Delta X		0.078125	Sweeps	1	Scan Rate	0/0
Coordinates	Axis 1	NaN	Axis 2	NaN	Axis 3	NaN	Axis 4	NaN	Axis 5	NaN	Axis 6	0.000000
TX Power	0.000000	RX Power	0.000000

600.015	0.0140488
600.093	0.0139551
600.171	0.0140366
600.249	0.0141358
600.328	0.0140244
600.406	0.0140935
600.484	0.0141100
600.562	0.0139702
600.640	0.0139896
600.718	0.0141961
600.796	0.0140433
600.874	0.0139846
600.953	0.0140913
601.031	0.0141030
601.109	0.0140449
601.187	0.0141820
601.265	0.0139573
601.343	0.0139781
601.421	0.0141513
601.499	0.0142168
601.578	0.0141151
601.656	0.0140681
601.734	0.0140041
601.812	0.0140328
601.890	0.0141745
601.968	0.0140976
602.046	0.0140886
602.124	0.0142264
602.203	0.0142352
602.281	0.0141025
602.359	0.0142339
602.437	0.0141609
602.515	0.0141432
602.593	0.0142641
602.671	0.0141991
602.749	0.0142855
602.828	0.0141898
602.906	0.0142065
602.984	0.0142151
603.062	0.0142224
603.140	0.0143291
603.218	0.0144327
603.296	0.0142539
603.374	0.0142238
603.453	0.0143144
603.531	0.0144150
603.609	0.0142235
603.687	0.0142252
603.765	0.0143681
603.843	0.0142895
603.921	0.0142823
603.999	0.0143777
604.078	0.0143214
604.156	0.0143383
604.234	0.0142896
604.312	0.0143523
604.390	0.0141325
604.468	0.0143068
604.546	0.0143172
604.624	0.0142767
604.703	0.0142175
604.781	0.0143560
604.859	0.0141381
604.937	0.0143118
605.015	0.0142204
605.093	0.0143223
605.171	0.0142191
605.249	0.0142114
605.328	0.0142065
605.406	0.0141374
605.484	0.0142826
605.562	0.0141875
605.640	0.0141290
605.718	0.0142432
605.796	0.0142691
605.874	0.0141264
605.953	0.0141840
606.031	0.0141879
606.109	0.0141447
606.187	0.0142140
606.265	0.0141328
606.343	0.0141492
606.421	0.0141088
606.499	0.0140899
606.578	0.0140384
606.656	0.0141585
606.734	0.0141256
606.812	0.0139721
606.890	0.0142381
606.968	0.0140972
607.046	0.0139500
607.124	0.0141483
607.203	0.0140169
607.281	0.0140075
607.359	0.0140491
607.437	0.0140504
607.515	0.0141856
607.593	0.0139364
607.671	0.0139992
607.749	0.0140108
607.828	0.0139213
607.906	0.0139588
607.984	0.0141241
608.062	0.0139552
608.140	0.0139124
608.218	0.0139680
608.296	0.0140926
608.374	0.0139374
608.453	0.0139488
608.531	0.0140546
608.609	0.0139103
608.687	0.0140261
608.765	0.0139709
608.843	0.0139532
608.921	0.0139880
608.999	0.0139861
609.078	0.0138951
609.156	0.0138325
609.234	0.0138846
609.312	0.0138339
609.390	0.0138674
609.468	0.0138090
609.546	0.0137538
609.624	0.0138910
609.703	0.0138193
609.781	0.0138177
609.859	0.0137953
609.937	0.0138589
610.015	0.0137949
610.093	0.0137485
610.171	0.0137577
610.249	0.0138350
610.328	0.0138434
610.406	0.0137511
610.484	0.0136942
610.562	0.0138168
610.640	0.0136681
610.718	0.0137734
610.796	0.0136474
610.874	0.0137701
610.953	0.0137470
611.031	0.0137473
611.109	0.0137462
611.187	0.0136575
611.265	0.0137863
611.343	0.0136533
611.421	0.0136844
611.499	0.0138266
611.578	0.0136346
611.656	0.0136879
611.734	0.0137702
611.812	0.0138963
611.890	0.0137366
611.968	0.0136244
612.046	0.0137147
612.124	0.0137897
612.203	0.0136985
612.281	0.0135712
612.359	0.0136427
612.437	0.0137234
612.515	0.0137344
612.593	0.0138135
612.671	0.0137831
612.749	0.0137823
612.828	0.0136481
612.906	0.0138192
612.984	0.0139607
613.062	0.0137460
613.140	0.0136922
613.218	0.0137960
613.296	0.0136994
613.374	0.0138190
613.453	0.0137982
613.531	0.0138690
613.609	0.0137138
613.687	0.0136303
613.765	0.0138457
613.843	0.0139209
613.921	0.0139279
613.999	0.0138684
614.078	0.0137650
614.156	0.0137874
614.234	0.0137918
614.312	0.0138022
614.390	0.0139098
614.468	0.0138760
614.546	0.0138883
614.624	0.0138107
614.703	0.0138605
614.781	0.0138444
614.859	0.0138682
614.937	0.0136996
615.015	0.0136320
615.093	0.0138982
615.171	0.0139049
615.249	0.0139315
615.328	0.0137444
615.406	0.0138807
615.484	0.0138982
615.562	0.0138982
615.640	0.0138235
615.718	0.0137444
615.796	0.0138882
615.874	0.0139348
615.953	0.0137595
616.031	0.0138406
616.109	0.0138589
616.187	0.0138777
616.265	0.0138288
616.343	0.0137932
616.421	0.0138461
616.499	0.0137112
616.578	0.0139149
616.656	0.0138682
616.734	0.0137613
616.812	0.0137680
616.890	0.0139146
616.968	0.0137638
617.046	0.0138657
617.124	0.0138792
617.203	0.0139532
617.281	0.0139579
617.359	0.0138775
617.437	0.0138750
617.515	0.0138732
617.593	0.0137797
617.671	0.0139070
617.749	0.0138064
617.828	0.0139525
617.906	0.0139157
617.984	0.0137628
618.062	0.0139095
618.140	0.0138146
618.218	0.0140109
618.296	0.0139861
618.374	0.0139522
618.453	0.0139697
618.531	0.0139186
618.609	0.0138243
618.687	0.0138612
618.765	0.0139771
618.843	0.0139294
618.921	0.0139139
618.999	0.0141078
619.078	0.0139342
619.156	0.0139443
619.234	0.0139178
619.312	0.0140200
619.390	0.0139324
619.468	0.0140146
619.546	0.0139850
619.624	0.0139725
619.703	0.0139810
619.781	0.0140929
619.859	0.0140704
619.937	0.0140653
620.015	0.0140258
620.093	0.0139750
620.171	0.0140285
620.249	0.0139927
620.328	0.0140651
620.406	0.0139188
620.484	0.0139915
620.562	0.0140822
620.640	0.0139935
620.718	0.0141407
620.796	0.0141615
620.874	0.0141405
620.953	0.0140011
621.031	0.0139471
621.109	0.0141067
621.187	0.0138909
621.265	0.0140302
621.343	0.0139619
621.421	0.0140728
621.499	0.0139935
621.578	0.0141103
621.656	0.0141621
621.734	0.0138823
621.812	0.0140550
621.890	0.0140386
621.968	0.0141283
622.046	0.0140688
622.124	0.0139876
622.203	0.0139928
622.281	0.0139597
622.359	0.0139504
622.437	0.0138751
622.515	0.0139230
622.593	0.0138299
622.671	0.0139767
622.749	0.0139809
622.828	0.0138543
622.906	0.0139254
622.984	0.0138923
623.062	0.0138640
623.140	0.0139059
623.218	0.0137508
623.296	0.0138336
623.374	0.0139289
623.453	0.0139014
623.531	0.0138450
623.609	0.0137939
623.687	0.0138522
623.765	0.0138856
623.843	0.0138834
623.921	0.0138634
623.999	0.0138366
624.078	0.0139276
624.156	0.0137885
624.234	0.0138775
624.312	0.0139764
624.390	0.0138725
624.468	0.0137980
624.546	0.0139309
624.624	0.0140215
624.703	0.0139417
624.781	0.0139511
624.859	0.0139151
624.937	0.0138858
625.015	0.0139574
625.093	0.0139115
625.171	0.0139477
625.249	0.0139565
625.328	0.0138387
625.406	0.0139785
625.484	0.0138469
625.562	0.0139511
625.640	0.0140931
625.718	0.0139864
625.796	0.0139088
625.874	0.0139082
625.953	0.0140424
626.031	0.0140231
626.109	0.0140311
626.187	0.0140366
626.265	0.0139627
626.343	0.0140907
626.421	0.0138979
626.499	0.0140959
626.578	0.0138960
626.656	0.0141161
626.734	0.0141246
626.812	0.0140702
626.890	0.0140166
626.968	0.0140138
627.046	0.0139758
627.124	0.0139089
627.203	0.0140678
627.281	0.0140128
627.359	0.0140307
627.437	0.0140401
627.515	0.0141315
627.593	0.0140968
627.671	0.0139991
627.749	0.0139214
627.828	0.0139683
627.906	0.0141032
627.984	0.0140274
628.062	0.0140319
628.140	0.0140349
628.218	0.0140041
628.296	0.0140636
628.374	0.0141031
628.453	0.0139603
628.531	0.0139451
628.609	0.0139679
628.687	0.0139897
628.765	0.0139583
628.843	0.0139763
628.921	0.0139867
628.999	0.0139977
629.078	0.0140257
629.156	0.0139981
629.234	0.0140092
629.312	0.0139867
629.390	0.0139415
629.468	0.0139240
629.546	0.0139275
629.624	0.0140317
629.703	0.0138551
629.781	0.0138546
629.859	0.0139317
629.937	0.0138495
630.015	0.0139323
630.093	0.0140127
630.171	0.0138436
630.249	0.0138902
630.328	0.0139643
630.406	0.0139490
630.484	0.0140879
630.562	0.0140125
630.640	0.0138410
630.718	0.0139626
630.796	0.0139118
630.874	0.0140270
630.953	0.0140083
631.031	0.0138658
631.109	0.0140224
631.187	0.0140489
631.265	0.0139568
631.343	0.0139895
631.421	0.0138700
631.499	0.0138631
631.578	0.0139587
631.656	0.0139155
631.734	0.0141013
631.812	0.0138261
631.890	0.0139806
631.968	0.0139424
632.046	0.0139346
632.124	0.0139491
632.203	0.0139286
632.281	0.0139458
632.359	0.0138917
632.437	0.0138877
632.515	0.0139006
632.593	0.0138374
632.671	0.0139005
632.749	0.0138860
632.828	0.0139417
632.906	0.0138396
632.984	0.0140185
633.062	0.0138325
633.140	0.0138640
633.218	0.0138772
633.296	0.0138921
633.374	0.0139157
633.453	0.0138164
633.531	0.0139996
633.609	0.0139339
633.687	0.0140685
633.765	0.0138554
633.843	0.0138966
633.921	0.0139424
633.999	0.0138972
634.078	0.0138609
634.156	0.0137904
634.234	0.0139270
634.312	0.0138890
634.390	0.0139220
634.468	0.0139032
634.546	0.0139602
634.624	0.0138538
634.703	0.0139902
634.781	0.0139630
634.859	0.0139377
634.937	0.0139608
635.015	0.0138995
635.093	0.0139516
635.171	0.0138723
635.249	0.0139082
635.328	0.0137610
635.406	0.0138550
635.484	0.0139063
635.562	0.0139466
635.640	0.0140234
635.718	0.0138988
635.796	0.0137347
635.874	0.0138120
635.953	0.0139260
636.031	0.0139886
636.109	0.0139408
636.187	0.0139147
636.265	0.0140395
636.343	0.0139793
636.421	0.0139449
636.499	0.0138847
636.578	0.0138731
636.656	0.0138019
636.734	0.0140109
636.812	0.0139626
636.890	0.0139742
636.968	0.0139703
637.046	0.0138237
637.124	0.0140172
637.203	0.0138896
637.281	0.0138710
637.359	0.0138580
637.437	0.0138967
637.515	0.0138792
637.593	0.0138248
637.671	0.0138658
637.749	0.0138637
637.828	0.0138479
637.906	0.0137338
637.984	0.0138988
638.062	0.0137742
638.140	0.0139683
638.218	0.0138924
638.296	0.0137858
638.374	0.0138953
638.453	0.0138974
638.531	0.0138594
638.609	0.0138353
638.687	0.0136909
638.765	0.0138249
638.843	0.0138689
638.921	0.0138219
638.999	0.0138996
639.078	0.0138064
639.156	0.0138909
639.234	0.0139180
639.312	0.0138560
639.390	0.0137934
639.468	0.0138850
639.546	0.0139302
639.624	0.0138935
639.703	0.0139439
639.781	0.0138650
639.859	0.0137394
639.937	0.0138856
640.015	0.0137843
640.093	0.0139725
640.171	0.0140365
640.249	0.0138467
640.328	0.0138007
640.406	0.0138387
640.484	0.0137806
640.562	0.0136795
640.640	0.0137038
640.718	0.0137646
640.796	0.0138477
640.874	0.0137206
640.953	0.0137659
641.031	0.0138303
641.109	0.0138220
641.187	0.0136810
641.265	0.0137896
641.343	0.0139011
641.421	0.0137611
641.499	0.0136952
641.578	0.0137969
641.656	0.0139724
641.734	0.0139979
641.812	0.0138369
641.890	0.0137229
641.968	0.0138327
642.046	0.0138860
642.124	0.0138499
642.203	0.0138852
642.281	0.0139493
642.359	0.0137926
642.437	0.0138432
642.515	0.0138955
642.593	0.0138969
642.671	0.0139857
642.749	0.0138092
642.828	0.0136993
642.906	0.0137347
642.984	0.0138477
643.062	0.0138566
643.140	0.0136691
643.218	0.0137299
643.296	0.0137745
643.374	0.0137859
643.453	0.0138333
643.531	0.0136698
643.609	0.0136884
643.687	0.0136881
643.765	0.0137000
643.843	0.0137835
643.921	0.0137697
643.999	0.0138841
644.078	0.0138998
644.156	0.0141218
644.234	0.0140685
644.312	0.0140044
644.390	0.0140091
644.468	0.0142159
644.546	0.0143652
644.624	0.0143816
644.703	0.0140652
644.781	0.0141374
644.859	0.0140845
644.937	0.0142759
645.015	0.0142237
645.093	0.0141335
645.171	0.0141872
645.249	0.0141925
645.328	0.0140923
645.406	0.0139768
645.484	0.0139345
645.562	0.0139288
645.640	0.0139795
645.718	0.0138786
645.796	0.0137235
645.874	0.0137758
645.953	0.0137673
646.031	0.0137411
646.109	0.0137215
646.187	0.0138498
646.265	0.0139065
646.343	0.0139101
646.421	0.0139395
646.499	0.0140623
646.578	0.0141518
646.656	0.0141894
646.734	0.0142151
646.812	0.0143184
646.890	0.0142932
646.968	0.0143941
647.046	0.0144804
647.124	0.0144762
647.203	0.0144724
647.281	0.0145448
647.359	0.0144565
647.437	0.0146981
647.515	0.0145772
647.593	0.0144387
647.671	0.0144360
647.749	0.0145554
647.828	0.0145005
647.906	0.0143822
647.984	0.0142625
648.062	0.0144249
648.140	0.0142498
648.218	0.0139745
648.296	0.0140355
648.374	0.0140265
648.453	0.0138737
648.531	0.0137716
648.609	0.0136430
648.687	0.0136026
648.765	0.0134481
648.843	0.0136308
648.921	0.0134342
648.999	0.0134434
649.078	0.0136620
649.156	0.0136815
649.234	0.0137187
649.312	0.0137423
649.390	0.0139027
649.468	0.0139198
649.546	0.0141334
649.624	0.0143369
649.703	0.0143095
649.781	0.0144808
649.859	0.0144491
649.937	0.0144776
650.015	0.0144845
650.093	0.0146857
650.171	0.0148027
650.249	0.0148232
650.328	0.0148725
650.406	0.0149493
650.484	0.0148457
650.562	0.0148509
650.640	0.0146478
650.718	0.0144671
650.796	0.0142967
650.874	0.0141532
650.953	0.0140105
651.031	0.0136990
651.109	0.0134762
651.187	0.0133522
651.265	0.0132294
651.343	0.0128887
651.421	0.0126672
651.499	0.0126392
651.578	0.0124365
651.656	0.0125053
651.734	0.0125337
651.812	0.0124649
651.890	0.0127017
651.968	0.0128775
652.046	0.0127817
652.124	0.0130698
652.203	0.0131892
652.281	0.0133156
652.359	0.0135543
652.437	0.0138684
652.515	0.0138493
652.593	0.0142376
652.671	0.0141907
652.749	0.0144939
652.828	0.0146098
652.906	0.0148434
652.984	0.0149544
653.062	0.0150893
653.140	0.0152231
653.218	0.0153388
653.296	0.0152678
653.374	0.0152741
653.453	0.0153490
653.531	0.0150965
653.609	0.0150889
653.687	0.0148686
653.765	0.0148367
653.843	0.0147192
653.921	0.0144852
653.999	0.0141783
654.078	0.0140241
654.156	0.0139317
654.234	0.0136491
654.312	0.0135065
654.390	0.0134943
654.468	0.0131329
654.546	0.0131026
654.624	0.0132413
654.703	0.0131139
654.781	0.0129638
654.859	0.0129636
654.937	0.0131316
655.015	0.0129523
655.093	0.0131770
655.171	0.0132955
655.249	0.0132048
655.328	0.0133468
655.406	0.0133821
655.484	0.0134103
655.562	0.0134750
655.640	0.0135020
655.718	0.0135754
655.796	0.0136730
655.874	0.0136546
655.953	0.0136689
656.031	0.0136796
656.109	0.0138747
656.187	0.0138348
656.265	0.0138663
656.343	0.0138811
656.421	0.0140731
656.499	0.0140694
656.578	0.0141447
656.656	0.0142329
656.734	0.0143526
656.812	0.0143829
656.890	0.0144685
656.968	0.0145638
657.046	0.0145109
657.124	0.0146971
657.203	0.0147272
657.281	0.0146223
657.359	0.0147143
657.437	0.0146451
657.515	0.0145933
657.593	0.0145589
657.671	0.0145940
657.749	0.0146425
657.828	0.0146552
657.906	0.0146023
657.984	0.0145580
658.062	0.0146588
658.140	0.0146107
658.218	0.0143140
658.296	0.0145260
658.374	0.0143751
658.453	0.0143354
658.531	0.0143283
658.609	0.0141486
658.687	0.0141050
658.765	0.0140580
658.843	0.0139101
658.921	0.0139562
658.999	0.0136927
659.078	0.0137666
659.156	0.0136902
659.234	0.0136962
659.312	0.0135410
659.390	0.0135469
659.468	0.0134155
659.546	0.0132947
659.624	0.0132161
659.703	0.0130791
659.781	0.0128864
659.859	0.0127639
659.937	0.0127518
660.015	0.0126165
660.093	0.0124638
660.171	0.0123327
660.249	0.0121736
660.328	0.0124110
660.406	0.0123634
660.484	0.0124002
660.562	0.0125834
660.640	0.0125288
660.718	0.0128359
660.796	0.0131782
660.874	0.0133090
660.953	0.0134920
661.031	0.0137946
661.109	0.0140215
661.187	0.0143147
661.265	0.0145329
661.343	0.0149899
661.421	0.0153030
661.499	0.0155129
661.578	0.0157339
661.656	0.0159754
661.734	0.0162488
661.812	0.0163661
661.890	0.0163899
661.968	0.0161932
662.046	0.0163566
662.124	0.0163046
662.203	0.0162945
662.281	0.0160493
662.359	0.0157463
662.437	0.0153761
662.515	0.0151359
662.593	0.0151434
662.671	0.0147710
662.749	0.0145361
662.828	0.0141267
662.906	0.0139260
662.984	0.0138034
663.062	0.0133571
663.140	0.0132516
663.218	0.0131041
663.296	0.0128924
663.374	0.0127742
663.453	0.0125903
663.531	0.0124715
663.609	0.0123319
663.687	0.0123740
663.765	0.0124124
663.843	0.0122375
663.921	0.0123486
663.999	0.0123363
664.078	0.0125433
664.156	0.0127872
664.234	0.0127539
664.312	0.0128623
664.390	0.0129321
664.468	0.0130061
664.546	0.0132329
664.624	0.0133689
664.703	0.0135827
664.781	0.0135618
664.859	0.0137048
664.937	0.0137891
665.015	0.0138260
665.093	0.0138702
665.171	0.0139750
665.249	0.0140710
665.328	0.0139764
665.406	0.0141133
665.484	0.0141795
665.562	0.0142340
665.640	0.0142700
665.718	0.0143110
665.796	0.0144322
665.874	0.0144534
665.953	0.0144504
666.031	0.0147292
666.109	0.0148044
666.187	0.0147740
666.265	0.0147869
666.343	0.0150485
666.421	0.0151875
666.499	0.0152474
666.578	0.0152589
666.656	0.0154609
666.734	0.0153909
666.812	0.0154199
666.890	0.0156806
666.968	0.0155148
667.046	0.0156028
667.124	0.0157140
667.203	0.0154267
667.281	0.0156258
667.359	0.0154552
667.437	0.0152935
667.515	0.0152369
667.593	0.0152316
667.671	0.0149333
667.749	0.0148956
667.828	0.0148360
667.906	0.0147753
667.984	0.0145364
668.062	0.0143626
668.140	0.0143847
668.218	0.0141719
668.296	0.0139379
668.374	0.0136832
668.453	0.0135124
668.531	0.0133248
668.609	0.0130760
668.687	0.0129895
668.765	0.0129168
668.843	0.0124596
668.921	0.0123920
668.999	0.0122543
669.078	0.0119815
669.156	0.0119533
669.234	0.0118919
669.312	0.0118148
669.390	0.0118130
669.468	0.0118799
669.546	0.0119118
669.624	0.0119250
669.703	0.0120479
669.781	0.0123515
669.859	0.0124602
669.937	0.0126787
670.015	0.0128967
670.093	0.0133021
670.171	0.0136424
670.249	0.0138146
670.328	0.0141186
670.406	0.0144455
670.484	0.0145682
670.562	0.0148928
670.640	0.0150537
670.718	0.0151741
670.796	0.0153958
670.874	0.0155286
670.953	0.0157996
671.031	0.0159312
671.109	0.0161709
671.187	0.0160785
671.265	0.0162557
671.343	0.0163654
671.421	0.0163380
671.499	0.0162169
671.578	0.0164586
671.656	0.0165841
671.734	0.0165237
671.812	0.0164013
671.890	0.0163750
671.968	0.0161890
672.046	0.0161884
672.124	0.0159477
672.203	0.0157963
672.281	0.0156595
672.359	0.0151595
672.437	0.0149922
672.515	0.0147533
672.593	0.0144663
672.671	0.0141074
672.749	0.0137875
672.828	0.0135192
672.906	0.0131754
672.984	0.0129601
673.062	0.0126397
673.140	0.0123212
673.218	0.0121312
673.296	0.0117454
673.374	0.0116702
673.453	0.0114714
673.531	0.0113815
673.609	0.0113358
673.687	0.0111639
673.765	0.0111139
673.843	0.0109984
673.921	0.0109983
673.999	0.0109078
674.078	0.0110655
674.156	0.0111284
674.234	0.0113116
674.312	0.0113725
674.390	0.0116692
674.468	0.0118784
674.546	0.0120585
674.624	0.0123464
674.703	0.0125267
674.781	0.0129117
674.859	0.0131702
674.937	0.0135957
675.015	0.0138235
675.093	0.0142712
675.171	0.0145471
675.249	0.0148798
675.328	0.0153194
675.406	0.0156705
675.484	0.0158883
675.562	0.0159821
675.640	0.0163107
675.718	0.0164413
675.796	0.0166463
675.874	0.0167027
675.953	0.0168790
676.031	0.0167374
676.109	0.0169820
676.187	0.0168522
676.265	0.0166992
676.343	0.0166767
676.421	0.0164352
676.499	0.0164127
676.578	0.0161135
676.656	0.0161063
676.734	0.0156697
676.812	0.0155509
676.890	0.0153850
676.968	0.0149887
677.046	0.0148613
677.124	0.0144619
677.203	0.0142776
677.281	0.0139053
677.359	0.0136783
677.437	0.0135082
677.515	0.0134293
677.593	0.0130779
677.671	0.0129137
677.749	0.0127257
677.828	0.0126794
677.906	0.0125049
677.984	0.0124120
678.062	0.0122773
678.140	0.0123663
678.218	0.0123458
678.296	0.0121071
678.374	0.0120944
678.453	0.0120877
678.531	0.0121700
678.609	0.0122495
678.687	0.0121032
678.765	0.0123047
678.843	0.0125506
678.921	0.0127281
678.999	0.0128963
679.078	0.0130783
679.156	0.0133021
679.234	0.0133592
679.312	0.0136398
679.390	0.0139118
679.468	0.0141051
679.546	0.0140574
679.624	0.0141807
679.703	0.0144568
679.781	0.0143896
679.859	0.0142870
679.937	0.0144360
680.015	0.0143874
680.093	0.0143514
680.171	0.0142245
680.249	0.0141217
680.328	0.0140682
680.406	0.0139114
680.484	0.0140122
680.562	0.0138965
680.640	0.0137899
680.718	0.0139011
680.796	0.0139039
680.874	0.0139555
680.953	0.0141248
681.031	0.0141908
681.109	0.0142129
681.187	0.0143003
681.265	0.0145179
681.343	0.0145616
681.421	0.0145315
681.499	0.0147482
681.578	0.0149021
681.656	0.0149990
681.734	0.0149927
681.812	0.0149110
681.890	0.0149097
681.968	0.0149786
682.046	0.0148001
682.124	0.0148087
682.203	0.0147600
682.281	0.0147643
682.359	0.0146837
682.437	0.0145670
682.515	0.0146154
682.593	0.0146009
682.671	0.0145824
682.749	0.0145876
682.828	0.0148283
682.906	0.0145708
682.984	0.0147737
683.062	0.0147751
683.140	0.0144943
683.218	0.0145286
683.296	0.0144276
683.374	0.0142499
683.453	0.0140984
683.531	0.0139597
683.609	0.0137663
683.687	0.0137220
683.765	0.0136568
683.843	0.0133742
683.921	0.0132594
683.999	0.0131140
684.078	0.0128925
684.156	0.0128465
684.234	0.0127879
684.312	0.0126865
684.390	0.0125809
684.468	0.0125319
684.546	0.0125977
684.624	0.0124467
684.703	0.0126962
684.781	0.0125844
684.859	0.0125935
684.937	0.0126331
685.015	0.0127777
685.093	0.0127642
685.171	0.0128876
685.249	0.0130071
685.328	0.0130300
685.406	0.0131120
685.484	0.0131319
685.562	0.0132391
685.640	0.0134770
685.718	0.0134608
685.796	0.0135464
685.874	0.0137910
685.953	0.0139975
686.031	0.0138924
686.109	0.0143695
686.187	0.0143462
686.265	0.0143524
686.343	0.0146497
686.421	0.0147196
686.499	0.0149724
686.578	0.0150703
686.656	0.0152125
686.734	0.0151357
686.812	0.0154203
686.890	0.0153278
686.968	0.0153967
687.046	0.0154726
687.124	0.0154446
687.203	0.0153193
687.281	0.0154478
687.359	0.0153475
687.437	0.0153599
687.515	0.0152161
687.593	0.0152104
687.671	0.0149521
687.749	0.0146354
687.828	0.0146294
687.906	0.0144061
687.984	0.0143635
688.062	0.0141290
688.140	0.0140000
688.218	0.0138289
688.296	0.0136543
688.374	0.0136755
688.453	0.0135979
688.531	0.0134602
688.609	0.0134218
688.687	0.0133870
688.765	0.0133866
688.843	0.0135179
688.921	0.0135947
688.999	0.0135023
689.078	0.0135885
689.156	0.0136823
689.234	0.0136136
689.312	0.0136503
689.390	0.0136403
689.468	0.0136360
689.546	0.0135590
689.624	0.0136047
689.703	0.0138012
689.781	0.0136230
689.859	0.0137975
689.937	0.0138690
690.015	0.0140144
690.093	0.0140456
690.171	0.0141439
690.249	0.0142992
690.328	0.0143746
690.406	0.0145322
690.484	0.0145343
690.562	0.0146384
690.640	0.0145724
690.718	0.0147158
690.796	0.0147440
690.874	0.0144668
690.953	0.0143311
691.031	0.0144095
691.109	0.0144895
691.187	0.0143301
691.265	0.0142331
691.343	0.0140228
691.421	0.0139754
691.499	0.0137668
691.578	0.0136237
691.656	0.0134672
691.734	0.0132249
691.812	0.0131618
691.890	0.0129348
691.968	0.0128642
692.046	0.0129552
692.124	0.0127489
692.203	0.0126882
692.281	0.0127266
692.359	0.0126122
692.437	0.0127618
692.515	0.0127965
692.593	0.0129391
692.671	0.0130483
692.749	0.0132259
692.828	0.0132838
692.906	0.0136205
692.984	0.0137386
693.062	0.0137914
693.140	0.0139962
693.218	0.0142561
693.296	0.0144012
693.374	0.0145801
693.453	0.0146135
693.531	0.0147742
693.609	0.0150166
693.687	0.0150510
693.765	0.0151136
693.843	0.0151154
693.921	0.0151691
693.999	0.0153027
694.078	0.0153180
694.156	0.0155107
694.234	0.0154336
694.312	0.0153953
694.390	0.0153479
694.468	0.0153967
694.546	0.0153512
694.624	0.0155092
694.703	0.0151776
694.781	0.0149464
694.859	0.0149045
694.937	0.0148408
695.015	0.0147237
695.093	0.0144358
695.171	0.0141985
695.249	0.0139602
695.328	0.0137528
695.406	0.0138046
695.484	0.0135527
695.562	0.0134631
695.640	0.0133501
695.718	0.0130173
695.796	0.0131297
695.874	0.0130155
695.953	0.0127995
696.031	0.0127093
696.109	0.0127731
696.187	0.0127118
696.265	0.0126285
696.343	0.0126306
696.421	0.0127277
696.499	0.0129142
696.578	0.0128960
696.656	0.0128455
696.734	0.0130029
696.812	0.0130442
696.890	0.0130394
696.968	0.0131144
697.046	0.0131290
697.124	0.0132061
697.203	0.0132828
697.281	0.0134368
697.359	0.0134344
697.437	0.0133801
697.515	0.0133875
697.593	0.0135357
697.671	0.0135417
697.749	0.0135775
697.828	0.0135816
697.906	0.0138891
697.984	0.0138451
698.062	0.0139413
698.140	0.0139936
698.218	0.0140549
698.296	0.0143526
698.374	0.0143694
698.453	0.0145476
698.531	0.0144741
698.609	0.0145423
698.687	0.0147321
698.765	0.0147692
698.843	0.0147168
698.921	0.0148148
698.999	0.0148099
699.078	0.0147192
699.156	0.0148354
699.234	0.0149422
699.312	0.0148404
699.390	0.0149455
699.468	0.0149857
699.546	0.0148592
699.624	0.0148330
699.703	0.0148656
699.781	0.0148742
699.859	0.0147369
699.937	0.0147418
700.015	0.0147258
700.093	0.0147924
700.171	0.0145743
700.249	0.0146098
700.328	0.0145262
700.406	0.0143412
700.484	0.0144831
700.562	0.0144060
700.640	0.0141573
700.718	0.0140353
700.796	0.0140120
700.874	0.0139252
700.953	0.0138970
701.031	0.0138574
701.109	0.0136559
701.187	0.0137788
701.265	0.0137646
701.343	0.0136546
701.421	0.0136619
701.499	0.0137135
701.578	0.0135741
701.656	0.0135744
701.734	0.0137353
701.812	0.0136285
701.890	0.0138341
701.968	0.0137679
702.046	0.0137907
702.124	0.0135631
702.203	0.0136606
702.281	0.0137751
702.359	0.0136024
702.437	0.0136047
702.515	0.0134955
702.593	0.0133525
702.671	0.0133352
702.749	0.0133839
702.828	0.0133688
702.906	0.0132830
702.984	0.0131865
703.062	0.0132647
703.140	0.0132092
703.218	0.0132056
703.296	0.0132264
703.374	0.0132991
703.453	0.0133112
703.531	0.0133167
703.609	0.0134396
703.687	0.0133298
703.765	0.0133898
703.843	0.0136567
703.921	0.0139310
703.999	0.0139470
704.078	0.0141000
704.156	0.0142570
704.234	0.0143510
704.312	0.0144673
704.390	0.0144985
704.468	0.0146634
704.546	0.0147102
704.624	0.0148112
704.703	0.0147424
704.781	0.0148868
704.859	0.0150011
704.937	0.0148601
705.015	0.0150330
705.093	0.0150812
705.171	0.0149342
705.249	0.0148134
705.328	0.0147443
705.406	0.0149087
705.484	0.0148646
705.562	0.0147616
705.640	0.0149409
705.718	0.0148186
705.796	0.0146400
705.874	0.0147843
705.953	0.0147918
706.031	0.0148649
706.109	0.0147843
706.187	0.0146367
706.265	0.0148481
706.343	0.0145068
706.421	0.0146156
706.499	0.0144724
706.578	0.0143659
706.656	0.0142840
706.734	0.0141692
706.812	0.0140743
706.890	0.0140884
706.968	0.0140788
707.046	0.0139898
707.124	0.0139160
707.203	0.0137491
707.281	0.0136981
707.359	0.0135213
707.437	0.0135312
707.515	0.0135270
707.593	0.0134699
707.671	0.0133669
707.749	0.0130463
707.828	0.0131649
707.906	0.0133124
707.984	0.0130168
708.062	0.0131066
708.140	0.0129617
708.218	0.0129917
708.296	0.0131544
708.374	0.0129512
708.453	0.0129018
708.531	0.0129644
708.609	0.0131662
708.687	0.0131733
708.765	0.0132601
708.843	0.0133020
708.921	0.0133509
708.999	0.0134812
709.078	0.0134853
709.156	0.0136884
709.234	0.0137947
709.312	0.0138619
709.390	0.0138957
709.468	0.0140865
709.546	0.0140753
709.624	0.0143504
709.703	0.0143482
709.781	0.0143353
709.859	0.0143496
709.937	0.0143024
710.015	0.0142934
710.093	0.0143682
710.171	0.0143827
710.249	0.0142298
710.328	0.0141402
710.406	0.0141574
710.484	0.0140856
710.562	0.0141422
710.640	0.0141648
710.718	0.0139342
710.796	0.0138325
710.874	0.0139619
710.953	0.0137821
711.031	0.0139141
711.109	0.0138493
711.187	0.0137836
711.265	0.0139256
711.343	0.0139407
711.421	0.0138448
711.499	0.0139654
711.578	0.0141588
711.656	0.0141721
711.734	0.0141869
711.812	0.0142252
711.890	0.0143604
711.968	0.0143464
712.046	0.0143015
712.124	0.0144214
712.203	0.0143100
712.281	0.0143504
712.359	0.0144322
712.437	0.0142354
712.515	0.0142062
712.593	0.0143980
712.671	0.0142274
712.749	0.0141570
712.828	0.0141453
712.906	0.0140073
712.984	0.0140261
713.062	0.0139360
713.140	0.0138940
713.218	0.0138975
713.296	0.0136610
713.374	0.0135139
713.453	0.0135366
713.531	0.0135516
713.609	0.0134314
713.687	0.0132720
713.765	0.0132784
713.843	0.0134066
713.921	0.0131258
713.999	0.0129139
714.078	0.0128896
714.156	0.0128146
714.234	0.0126791
714.312	0.0127047
714.390	0.0126896
714.468	0.0126263
714.546	0.0126507
714.624	0.0126858
714.703	0.0128781
714.781	0.0128766
714.859	0.0129846
714.937	0.0130325
715.015	0.0130068
715.093	0.0131208
715.171	0.0134105
715.249	0.0135002
715.328	0.0134811
715.406	0.0136913
715.484	0.0139075
715.562	0.0140491
715.640	0.0141224
715.718	0.0141867
715.796	0.0144287
715.874	0.0146536
715.953	0.0146156
716.031	0.0145253
716.109	0.0148665
716.187	0.0147511
716.265	0.0149520
716.343	0.0150020
716.421	0.0149385
716.499	0.0150238
716.578	0.0150854
716.656	0.0150380
716.734	0.0149281
716.812	0.0150551
716.890	0.0149441
716.968	0.0149464
717.046	0.0147612
717.124	0.0147777
717.203	0.0146738
717.281	0.0144453
717.359	0.0145006
717.437	0.0142722
717.515	0.0142586
717.593	0.0141555
717.671	0.0140108
717.749	0.0137760
717.828	0.0138618
717.906	0.0137726
717.984	0.0136568
718.062	0.0136403
718.140	0.0134699
718.218	0.0134956
718.296	0.0135263
718.374	0.0134366
718.453	0.0135320
718.531	0.0134162
718.609	0.0134931
718.687	0.0135330
718.765	0.0132707
718.843	0.0134251
718.921	0.0133236
718.999	0.0135424
719.078	0.0134330
719.156	0.0133524
719.234	0.0135525
719.312	0.0136002
719.390	0.0135157
719.468	0.0134846
719.546	0.0134195
719.624	0.0136135
719.703	0.0135348
719.781	0.0134776
719.859	0.0134122
719.937	0.0136008
720.015	0.0136306
720.093	0.0135236
720.171	0.0133997
720.249	0.0137023
720.328	0.0135134
720.406	0.0135265
720.484	0.0135051
720.562	0.0135193
720.640	0.0137149
720.718	0.0135528
720.796	0.0134818
720.874	0.0136755
720.953	0.0137101
721.031	0.0137369
721.109	0.0138885
721.187	0.0138238
721.265	0.0139232
721.343	0.0141087
721.421	0.0141728
721.499	0.0142755
721.578	0.0142738
721.656	0.0143140
721.734	0.0144527
721.812	0.0146248
721.890	0.0147642
721.968	0.0147144
722.046	0.0146526
722.124	0.0146246
722.203	0.0146797
722.281	0.0146604
722.359	0.0147105
722.437	0.0147491
722.515	0.0148758
722.593	0.0147525
722.671	0.0146130
722.749	0.0146130
722.828	0.0144466
722.906	0.0143840
722.984	0.0142606
723.062	0.0141344
723.140	0.0142960
723.218	0.0141002
723.296	0.0141241
723.374	0.0139571
723.453	0.0138531
723.531	0.0139211
723.609	0.0138898
723.687	0.0137090
723.765	0.0138499
723.843	0.0137783
723.921	0.0136314
723.999	0.0137431
724.078	0.0137729
724.156	0.0137537
724.234	0.0138554
724.312	0.0138316
724.390	0.0139065
724.468	0.0138013
724.546	0.0138350
724.624	0.0137952
724.703	0.0139423
724.781	0.0139822
724.859	0.0141030
724.937	0.0140746
725.015	0.0140566
725.093	0.0140972
725.171	0.0142972
725.249	0.0144167
725.328	0.0142549
725.406	0.0143352
725.484	0.0142683
725.562	0.0143273
725.640	0.0143903
725.718	0.0144221
725.796	0.0143781
725.874	0.0143525
725.953	0.0143259
726.031	0.0142431
726.109	0.0141190
726.187	0.0141452
726.265	0.0141644
726.343	0.0142089
726.421	0.0140187
726.499	0.0141442
726.578	0.0139014
726.656	0.0137928
726.734	0.0138296
726.812	0.0138277
726.890	0.0138683
726.968	0.0139349
727.046	0.0138249
727.124	0.0137305
727.203	0.0137202
727.281	0.0137769
727.359	0.0137292
727.437	0.0136857
727.515	0.0138199
727.593	0.0138415
727.671	0.0139010
727.749	0.0138906
727.828	0.0139120
727.906	0.0139878
727.984	0.0140092
728.062	0.0139761
728.140	0.0139861
728.218	0.0139371
728.296	0.0139513
728.374	0.0141658
728.453	0.0140239
728.531	0.0141809
728.609	0.0142011
728.687	0.0141948
728.765	0.0141398
728.843	0.0142409
728.921	0.0141917
728.999	0.0142745
729.078	0.0143984
729.156	0.0142837
729.234	0.0142615
729.312	0.0143639
729.390	0.0144642
729.468	0.0145458
729.546	0.0145016
729.624	0.0144784
729.703	0.0145680
729.781	0.0145602
729.859	0.0144112
729.937	0.0145213
730.015	0.0144937
730.093	0.0144715
730.171	0.0143456
730.249	0.0141537
730.328	0.0141224
730.406	0.0141788
730.484	0.0139555
730.562	0.0138091
730.640	0.0136826
730.718	0.0137514
730.796	0.0137912
730.874	0.0134908
730.953	0.0135927
731.031	0.0135069
731.109	0.0133545
731.187	0.0135066
731.265	0.0133375
731.343	0.0132455
731.421	0.0134408
731.499	0.0135400
731.578	0.0134418
731.656	0.0134193
731.734	0.0132843
731.812	0.0134052
731.890	0.0133870
731.968	0.0133865
732.046	0.0135771
732.124	0.0136485
732.203	0.0136591
732.281	0.0136589
732.359	0.0136572
732.437	0.0135600
732.515	0.0137835
732.593	0.0137090
732.671	0.0139352
732.749	0.0138638
732.828	0.0139521
732.906	0.0140585
732.984	0.0138881
733.062	0.0139794
733.140	0.0140897
733.218	0.0142416
733.296	0.0142739
733.374	0.0140201
733.453	0.0141479
733.531	0.0142802
733.609	0.0142886
733.687	0.0143882
733.765	0.0142374
733.843	0.0142230
733.921	0.0141011
733.999	0.0143258
734.078	0.0142778
734.156	0.0141007
734.234	0.0142606
734.312	0.0141679
734.390	0.0141336
734.468	0.0141711
734.546	0.0141859
734.624	0.0142645
734.703	0.0140122
734.781	0.0141158
734.859	0.0141452
734.937	0.0142729
735.015	0.0142255
735.093	0.0141851
735.171	0.0139637
735.249	0.0140128
735.328	0.0141309
735.406	0.0140955
735.484	0.0140468
735.562	0.0139645
735.640	0.0139558
735.718	0.0138376
735.796	0.0138751
735.874	0.0138522
735.953	0.0137572
736.031	0.0138014
736.109	0.0138074
736.187	0.0138693
736.265	0.0137304
736.343	0.0137418
736.421	0.0136994
736.499	0.0135238
736.578	0.0137823
736.656	0.0137916
736.734	0.0137308
736.812	0.0138699
736.890	0.0137823
736.968	0.0136068
737.046	0.0136745
737.124	0.0137954
737.203	0.0138884
737.281	0.0137724
737.359	0.0137213
737.437	0.0139131
737.515	0.0138207
737.593	0.0136317
737.671	0.0136648
737.749	0.0137177
737.828	0.0137331
737.906	0.0137309
737.984	0.0137128
738.062	0.0137482
738.140	0.0135281
738.218	0.0135781
738.296	0.0136794
738.374	0.0136874
738.453	0.0136710
738.531	0.0136897
738.609	0.0138204
738.687	0.0138785
738.765	0.0137543
738.843	0.0139845
738.921	0.0139404
738.999	0.0139631
739.078	0.0139034
739.156	0.0138724
739.234	0.0141175
739.312	0.0139542
739.390	0.0141216
739.468	0.0142139
739.546	0.0140730
739.624	0.0142063
739.703	0.0142723
739.781	0.0142661
739.859	0.0142684
739.937	0.0141690
740.015	0.0142178
740.093	0.0141039
740.171	0.0140113
740.249	0.0141606
740.328	0.0140373
740.406	0.0140503
740.484	0.0139639
740.562	0.0139929
740.640	0.0137896
740.718	0.0139983
740.796	0.0138355
740.874	0.0140126
740.953	0.0139559
741.031	0.0140384
741.109	0.0140568
741.187	0.0140098
741.265	0.0140810
741.343	0.0140752
741.421	0.0140598
741.499	0.0140295
741.578	0.0139939
741.656	0.0141312
741.734	0.0140520
741.812	0.0141717
741.890	0.0141402
741.968	0.0140675
742.046	0.0141111
742.124	0.0140373
742.203	0.0140487
742.281	0.0141229
742.359	0.0141161
742.437	0.0140595
742.515	0.0140778
742.593	0.0140348
742.671	0.0140791
742.749	0.0142086
742.828	0.0142017
742.906	0.0141814
742.984	0.0140300
743.062	0.0140905
743.140	0.0140751
743.218	0.0139880
743.296	0.0139777
743.374	0.0140868
743.453	0.0140207
743.531	0.0139066
743.609	0.0139433
743.687	0.0139206
743.765	0.0138668
743.843	0.0140548
743.921	0.0137929
743.999	0.0138111
744.078	0.0137220
744.156	0.0139393
744.234	0.0138137
744.312	0.0138940
744.390	0.0139140
744.468	0.0136906
744.546	0.0138395
744.624	0.0139400
744.703	0.0138409
744.781	0.0137034
744.859	0.0138442
744.937	0.0139169
745.015	0.0138782
745.093	0.0137967
745.171	0.0138751
745.249	0.0139053
745.328	0.0138810
745.406	0.0141161
745.484	0.0142279
745.562	0.0141983
745.640	0.0141643
745.718	0.0141223
745.796	0.0142497
745.874	0.0141807
745.953	0.0143631
746.031	0.0142873
746.109	0.0142710
746.187	0.0142949
746.265	0.0143697
746.343	0.0143972
746.421	0.0143427
746.499	0.0143451
746.578	0.0143389
746.656	0.0143510
746.734	0.0144012
746.812	0.0142369
746.890	0.0142937
746.968	0.0143513
747.046	0.0142562
747.124	0.0143390
747.203	0.0142326
747.281	0.0144368
747.359	0.0143227
747.437	0.0142012
747.515	0.0141934
747.593	0.0143541
747.671	0.0142281
747.749	0.0140186
747.828	0.0140363
747.906	0.0140688
747.984	0.0141111
748.062	0.0139666
748.140	0.0139043
748.218	0.0139445
748.296	0.0138284
748.374	0.0137916
748.453	0.0138098
748.531	0.0137829
748.609	0.0138007
748.687	0.0138013
748.765	0.0137100
748.843	0.0136469
748.921	0.0136854
748.999	0.0137531
749.078	0.0137604
749.156	0.0137231
749.234	0.0139436
749.312	0.0138229
749.390	0.0139018
749.468	0.0137897
749.546	0.0139305
749.624	0.0141447
749.703	0.0141986
749.781	0.0141719
749.859	0.0141949
749.937	0.0143493
750.015	0.0142957
750.093	0.0144992
750.171	0.0144806
750.249	0.0144889
750.328	0.0144445
750.406	0.0143556
750.484	0.0143073
750.562	0.0142822
750.640	0.0142195
750.718	0.0142016
750.796	0.0141721
750.874	0.0141088
750.953	0.0139680
751.031	0.0140501
751.109	0.0138984
751.187	0.0137845
751.265	0.0136652
751.343	0.0136370
751.421	0.0135455
751.499	0.0137788
751.578	0.0137132
751.656	0.0135300
751.734	0.0137446
751.812	0.0137209
751.890	0.0135637
751.968	0.0136954
752.046	0.0136747
752.124	0.0137270
752.203	0.0137392
752.281	0.0137207
752.359	0.0137070
752.437	0.0137159
752.515	0.0137402
752.593	0.0139161
752.671	0.0138470
752.749	0.0139038
752.828	0.0140375
752.906	0.0139251
752.984	0.0139828
753.062	0.0140041
753.140	0.0141151
753.218	0.0140936
753.296	0.0139912
753.374	0.0140434
753.453	0.0139853
753.531	0.0140368
753.609	0.0139314
753.687	0.0139913
753.765	0.0140306
753.843	0.0140228
753.921	0.0140752
753.999	0.0141608
754.078	0.0140987
754.156	0.0138479
754.234	0.0140471
754.312	0.0141451
754.390	0.0139429
754.468	0.0139229
754.546	0.0139972
754.624	0.0140662
754.703	0.0140627
754.781	0.0140329
754.859	0.0140967
754.937	0.0139408
755.015	0.0140498
755.093	0.0141904
755.171	0.0139159
755.249	0.0139838
755.328	0.0141984
755.406	0.0141811
755.484	0.0140405
755.562	0.0142602
755.640	0.0143055
755.718	0.0141512
755.796	0.0141219
755.874	0.0141931
755.953	0.0141064
756.031	0.0140184
756.109	0.0140498
756.187	0.0139431
756.265	0.0139292
756.343	0.0138402
756.421	0.0139647
756.499	0.0139552
756.578	0.0138985
756.656	0.0139080
756.734	0.0138787
756.812	0.0139458
756.890	0.0136350
756.968	0.0137028
757.046	0.0138673
757.124	0.0138103
757.203	0.0139504
757.281	0.0138717
757.359	0.0139201
757.437	0.0139202
757.515	0.0139332
757.593	0.0138989
757.671	0.0139950
757.749	0.0139623
757.828	0.0139286
757.906	0.0140255
757.984	0.0139357
758.062	0.0142034
758.140	0.0142155
758.218	0.0139815
758.296	0.0139420
758.374	0.0141743
758.453	0.0141207
758.531	0.0140494
758.609	0.0140399
758.687	0.0140221
758.765	0.0140954
758.843	0.0139506
758.921	0.0140942
758.999	0.0141813
759.078	0.0140029
759.156	0.0140091
759.234	0.0141175
759.312	0.0140874
759.390	0.0141090
759.468	0.0140162
759.546	0.0140950
759.624	0.0142347
759.703	0.0140699
759.781	0.0140171
759.859	0.0141983
759.937	0.0140725
760.015	0.0139964
760.093	0.0141163
760.171	0.0139710
760.249	0.0140001
760.328	0.0138433
760.406	0.0138612
760.484	0.0139127
760.562	0.0141618
760.640	0.0140450
760.718	0.0139692
760.796	0.0139682
760.874	0.0138475
760.953	0.0138714
761.031	0.0139168
761.109	0.0140742
761.187	0.0139849
761.265	0.0139100
761.343	0.0139848
761.421	0.0140464
761.499	0.0139746
761.578	0.0138789
761.656	0.0139492
761.734	0.0138620
761.812	0.0139746
761.890	0.0139361
761.968	0.0139939
762.046	0.0138431
762.124	0.0138040
762.203	0.0138778
762.281	0.0139008
762.359	0.0138449
762.437	0.0137517
762.515	0.0137239
762.593	0.0139109
762.671	0.0141071
762.749	0.0137798
762.828	0.0139152
762.906	0.0140804
762.984	0.0140771
763.062	0.0141031
763.140	0.0141833
763.218	0.0139912
763.296	0.0141335
763.374	0.0142228
763.453	0.0141045
763.531	0.0142072
763.609	0.0142226
763.687	0.0141165
763.765	0.0139725
763.843	0.0139950
763.921	0.0140969
763.999	0.0139751
764.078	0.0141198
764.156	0.0141113
764.234	0.0140740
764.312	0.0140527
764.390	0.0140089
764.468	0.0138568
764.546	0.0139547
764.624	0.0140012
764.703	0.0141815
764.781	0.0141046
764.859	0.0139827
764.937	0.0141168
765.015	0.0140494
765.093	0.0140122
765.171	0.0140575
765.249	0.0142082
765.328	0.0141290
765.406	0.0139693
765.484	0.0139941
765.562	0.0141251
765.640	0.0139748
765.718	0.0139213
765.796	0.0139137
765.874	0.0138303
765.953	0.0138010
766.031	0.0138517
766.109	0.0139422
766.187	0.0138123
766.265	0.0138164
766.343	0.0138257
766.421	0.0137771
766.499	0.0137747
766.578	0.0138139
766.656	0.0136581
766.734	0.0138554
766.812	0.0138419
766.890	0.0137820
766.968	0.0137751
767.046	0.0138229
767.124	0.0140134
767.203	0.0139365
767.281	0.0138549
767.359	0.0140105
767.437	0.0140427
767.515	0.0140633
767.593	0.0141479
767.671	0.0141454
767.749	0.0140274
767.828	0.0141260
767.906	0.0141418
767.984	0.0141451
768.062	0.0141756
768.140	0.0142894
768.218	0.0143227
768.296	0.0141558
768.374	0.0143103
768.453	0.0145222
768.531	0.0143711
768.609	0.0143604
768.687	0.0144168
768.765	0.0143163
768.843	0.0144811
768.921	0.0144064
768.999	0.0143499
769.078	0.0142558
769.156	0.0144515
769.234	0.0141871
769.312	0.0142358
769.390	0.0144054
769.468	0.0141178
769.546	0.0141925
769.624	0.0141142
769.703	0.0140311
769.781	0.0140482
769.859	0.0139844
769.937	0.0140704
770.015	0.0139117
770.093	0.0138166
770.171	0.0138420
770.249	0.0136587
770.328	0.0136871
770.406	0.0138835
770.484	0.0137767
770.562	0.0138213
770.640	0.0138122
770.718	0.0138287
770.796	0.0138670
770.874	0.0138373
770.953	0.0138475
771.031	0.0139460
771.109	0.0138898
771.187	0.0138039
771.265	0.0139643
771.343	0.0139487
771.421	0.0139148
771.499	0.0140246
771.578	0.0139772
771.656	0.0138760
771.734	0.0139524
771.812	0.0139162
771.890	0.0139005
771.968	0.0140120
772.046	0.0138716
772.124	0.0138464
772.203	0.0138969
772.281	0.0139265
772.359	0.0138843
772.437	0.0139393
772.515	0.0139060
772.593	0.0139078
772.671	0.0140098
772.749	0.0139033
772.828	0.0140578
772.906	0.0140319
772.984	0.0141131
773.062	0.0140367
773.140	0.0141383
773.218	0.0139658
773.296	0.0139986
773.374	0.0141306
773.453	0.0138787
773.531	0.0140546
773.609	0.0140604
773.687	0.0140535
773.765	0.0139448
773.843	0.0140542
773.921	0.0141344
773.999	0.0140618
774.078	0.0139014
774.156	0.0138831
774.234	0.0139775
774.312	0.0138751
774.390	0.0139577
774.468	0.0137928
774.546	0.0138074
774.624	0.0140324
774.703	0.0139718
774.781	0.0139350
774.859	0.0139674
774.937	0.0140772
775.015	0.0139546
775.093	0.0139233
775.171	0.0137741
775.249	0.0137875
775.328	0.0138047
775.406	0.0136839
775.484	0.0137093
775.562	0.0136558
775.640	0.0138287
775.718	0.0135473
775.796	0.0136773
775.874	0.0137035
775.953	0.0139050
776.031	0.0137461
776.109	0.0136285
776.187	0.0137326
776.265	0.0138191
776.343	0.0138094
776.421	0.0138711
776.499	0.0137156
776.578	0.0137328
776.656	0.0137534
776.734	0.0137380
776.812	0.0136821
776.890	0.0137582
776.968	0.0137588
777.046	0.0137193
777.124	0.0137991
777.203	0.0137350
777.281	0.0138334
777.359	0.0138363
777.437	0.0136434
777.515	0.0137069
777.593	0.0138323
777.671	0.0138551
777.749	0.0138026
777.828	0.0138304
777.906	0.0139848
777.984	0.0137537
778.062	0.0138255
778.140	0.0137903
778.218	0.0138129
778.296	0.0138563
778.374	0.0138432
778.453	0.0140466
778.531	0.0139668
778.609	0.0139483
778.687	0.0140257
778.765	0.0141287
778.843	0.0139938
778.921	0.0139439
778.999	0.0140649
779.078	0.0139590
779.156	0.0138593
779.234	0.0141001
779.312	0.0140325
779.390	0.0139526
779.468	0.0140518
779.546	0.0141395
779.624	0.0141293
779.703	0.0139870
779.781	0.0140050
779.859	0.0140080
779.937	0.0141431
780.015	0.0140646
780.093	0.0140282
780.171	0.0138992
780.249	0.0140089
780.328	0.0139722
780.406	0.0140707
780.484	0.0140501
780.562	0.0140954
780.640	0.0141245
780.718	0.0141658
780.796	0.0142719
780.874	0.0141559
780.953	0.0140544
781.031	0.0140289
781.109	0.0140422
781.187	0.0140099
781.265	0.0139982
781.343	0.0140648
781.421	0.0138490
781.499	0.0138334
781.578	0.0138781
781.656	0.0138358
781.734	0.0137685
781.812	0.0138156
781.890	0.0138625
781.968	0.0136462
782.046	0.0138165
782.124	0.0137553
782.203	0.0137243
782.281	0.0137917
782.359	0.0136947
782.437	0.0137817
782.515	0.0137482
782.593	0.0140243
782.671	0.0140378
782.749	0.0139641
782.828	0.0139325
782.906	0.0139354
782.984	0.0140354
783.062	0.0139684
783.140	0.0140080
783.218	0.0140280
783.296	0.0140743
783.374	0.0141557
783.453	0.0140737
783.531	0.0141388
783.609	0.0142801
783.687	0.0143176
783.765	0.0142551
783.843	0.0142503
783.921	0.0143107
783.999	0.0142483
784.078	0.0143887
784.156	0.0142379
784.234	0.0141967
784.312	0.0142986
784.390	0.0142490
784.468	0.0141257
784.546	0.0140333
784.624	0.0141654
784.703	0.0141312
784.781	0.0140591
784.859	0.0140391
784.937	0.0139198
785.015	0.0140205
785.093	0.0139857
785.171	0.0139404
785.249	0.0140107
785.328	0.0138482
785.406	0.0139653
785.484	0.0139226
785.562	0.0138394
785.640	0.0138232
785.718	0.0139052
785.796	0.0139058
785.874	0.0136698
785.953	0.0137588
786.031	0.0139146
786.109	0.0138876
786.187	0.0138243
786.265	0.0138535
786.343	0.0137999
786.421	0.0138692
786.499	0.0138495
786.578	0.0137421
786.656	0.0139419
786.734	0.0138933
786.812	0.0139655
786.890	0.0140047
786.968	0.0140131
787.046	0.0140222
787.124	0.0140107
787.203	0.0140978
787.281	0.0139239
787.359	0.0141081
787.437	0.0140578
787.515	0.0139090
787.593	0.0139107
787.671	0.0140271
787.749	0.0139061
787.828	0.0140555
787.906	0.0139757
787.984	0.0138763
788.062	0.0139455
788.140	0.0140179
788.218	0.0138739
788.296	0.0138522
788.374	0.0138307
788.453	0.0138355
788.531	0.0138020
788.609	0.0139024
788.687	0.0137830
788.765	0.0137781
788.843	0.0140575
788.921	0.0140007
788.999	0.0138022
789.078	0.0138235
789.156	0.0139235
789.234	0.0139285
789.312	0.0139024
789.390	0.0139050
789.468	0.0139468
789.546	0.0138582
789.624	0.0139126
789.703	0.0140384
789.781	0.0140185
789.859	0.0141677
789.937	0.0140453
790.015	0.0140346
790.093	0.0140718
790.171	0.0140757
790.249	0.0141361
790.328	0.0138908
790.406	0.0140607
790.484	0.0142234
790.562	0.0143050
790.640	0.0142751
790.718	0.0140498
790.796	0.0141819
790.874	0.0142429
790.953	0.0141305
791.031	0.0143410
791.109	0.0142758
791.187	0.0141044
791.265	0.0141051
791.343	0.0140999
791.421	0.0142055
791.499	0.0140100
791.578	0.0140696
791.656	0.0140528
791.734	0.0140332
791.812	0.0140495
791.890	0.0139259
791.968	0.0141233
792.046	0.0138736
792.124	0.0138565
792.203	0.0138629
792.281	0.0138679
792.359	0.0137297
792.437	0.0138178
792.515	0.0137936
792.593	0.0136769
792.671	0.0137228
792.749	0.0138187
792.828	0.0137934
792.906	0.0137226
792.984	0.0137451
793.062	0.0136833
793.140	0.0136224
793.218	0.0137274
793.296	0.0136669
793.374	0.0136013
793.453	0.0136597
793.531	0.0137656
793.609	0.0136596
793.687	0.0136292
793.765	0.0137199
793.843	0.0136015
793.921	0.0137321
793.999	0.0135649
794.078	0.0136599
794.156	0.0137460
794.234	0.0138587
794.312	0.0136607
794.390	0.0136509
794.468	0.0137770
794.546	0.0136579
794.624	0.0138065
794.703	0.0139148
794.781	0.0137721
794.859	0.0138042
794.937	0.0137115
795.015	0.0137309
795.093	0.0138178
795.171	0.0137745
795.249	0.0138602
795.328	0.0138673
795.406	0.0140048
795.484	0.0140468
795.562	0.0138921
795.640	0.0138750
795.718	0.0141344
795.796	0.0139537
795.874	0.0141215
795.953	0.0141550
796.031	0.0141203
796.109	0.0142567
796.187	0.0142421
796.265	0.0142357
796.343	0.0140430
796.421	0.0140121
796.499	0.0141235
796.578	0.0140745
796.656	0.0141714
796.734	0.0140405
796.812	0.0140963
796.890	0.0139299
796.968	0.0139404
797.046	0.0139142
797.124	0.0139436
797.203	0.0139075
797.281	0.0137993
797.359	0.0137251
797.437	0.0137564
797.515	0.0136591
797.593	0.0138425
797.671	0.0137206
797.749	0.0136993
797.828	0.0136343
797.906	0.0135937
797.984	0.0137162
798.062	0.0138598
798.140	0.0137562
798.218	0.0137419
798.296	0.0137999
798.374	0.0137597
798.453	0.0137312
798.531	0.0137052
798.609	0.0137286
798.687	0.0138750
798.765	0.0138985
798.843	0.0137951
798.921	0.0137996
798.999	0.0139369
799.078	0.0138338
799.156	0.0139980
799.234	0.0137083
799.312	0.0139528
799.390	0.0139662
799.468	0.0138097
799.546	0.0138953
799.624	0.0137981
799.703	0.0138573
799.781	0.0138399
799.859	0.0137962
799.937	0.0137753
800.015	0.0139955
800.093	0.0138207
800.171	0.0137396
800.249	0.0138045
800.328	0.0139085
800.406	0.0138181
800.484	0.0139485
800.562	0.0138890
800.640	0.0138601
800.718	0.0138064
800.796	0.0138799
800.874	0.0137551
800.953	0.0137215
801.031	0.0137376
801.109	0.0137967
801.187	0.0139151
801.265	0.0138591
801.343	0.0138287
801.421	0.0137937
801.499	0.0138731
801.578	0.0138843
801.656	0.0139493
801.734	0.0139714
801.812	0.0139439
801.890	0.0140958
801.968	0.0141328
802.046	0.0142229
802.124	0.0143292
802.203	0.0142345
802.281	0.0143737
802.359	0.0140747
802.437	0.0142812
802.515	0.0143092
802.593	0.0143160
802.671	0.0142611
802.749	0.0142180
802.828	0.0141612
802.906	0.0142419
802.984	0.0142569
803.062	0.0142732
803.140	0.0141737
803.218	0.0140965
803.296	0.0141393
803.374	0.0141784
803.453	0.0141084
803.531	0.0141685
803.609	0.0142128
803.687	0.0141245
803.765	0.0141631
803.843	0.0142683
803.921	0.0144865
803.999	0.0140707
804.078	0.0141716
804.156	0.0141561
804.234	0.0143230
804.312	0.0142640
804.390	0.0141687
804.468	0.0142901
804.546	0.0141296
804.624	0.0140074
804.703	0.0141828
804.781	0.0142728
804.859	0.0141357
804.937	0.0139523
805.015	0.0140413
805.093	0.0141737
805.171	0.0142802
805.249	0.0140483
805.328	0.0138750
805.406	0.0138808
805.484	0.0139418
805.562	0.0141444
805.640	0.0139468
805.718	0.0140060
805.796	0.0140150
805.874	0.0138883
805.953	0.0139081
806.031	0.0139361
806.109	0.0138800
806.187	0.0137846
806.265	0.0138231
806.343	0.0137981
806.421	0.0138011
806.499	0.0139669
806.578	0.0137627
806.656	0.0137348
806.734	0.0138723
806.812	0.0138003
806.890	0.0138825
806.968	0.0137173
807.046	0.0138529
807.124	0.0138133
807.203	0.0137984
807.281	0.0137383
807.359	0.0138129
807.437	0.0137732
807.515	0.0137778
807.593	0.0136866
807.671	0.0137428
807.749	0.0137342
807.828	0.0139008
807.906	0.0138261
807.984	0.0139262
808.062	0.0137828
808.140	0.0138340
808.218	0.0139005
808.296	0.0139630
808.374	0.0139257
808.453	0.0139589
808.531	0.0137652
808.609	0.0140253
808.687	0.0138502
808.765	0.0139111
808.843	0.0138606
808.921	0.0140273
808.999	0.0141189
809.078	0.0141303
809.156	0.0141750
809.234	0.0142622
809.312	0.0142830
809.390	0.0142026
809.468	0.0142525
809.546	0.0143370
809.624	0.0144190
809.703	0.0142487
809.781	0.0143043
809.859	0.0142757
809.937	0.0144128
810.015	0.0143134
810.093	0.0142603
810.171	0.0142545
810.249	0.0140146
810.328	0.0139935
810.406	0.0141676
810.484	0.0140777
810.562	0.0138734
810.640	0.0139234
810.718	0.0140857
810.796	0.0139067
810.874	0.0138902
810.953	0.0137853
811.031	0.0138299
811.109	0.0136527
811.187	0.0137095
811.265	0.0137018
811.343	0.0136253
811.421	0.0135491
811.499	0.0136217
811.578	0.0137255
811.656	0.0136220
811.734	0.0136679
811.812	0.0136310
811.890	0.0136483
811.968	0.0138116
812.046	0.0138139
812.124	0.0135872
812.203	0.0137381
812.281	0.0138919
812.359	0.0138540
812.437	0.0138545
812.515	0.0138485
812.593	0.0138784
812.671	0.0139577
812.749	0.0139984
812.828	0.0140847
812.906	0.0140120
812.984	0.0140664
813.062	0.0141383
813.140	0.0140608
813.218	0.0141821
813.296	0.0142258
813.374	0.0141522
813.453	0.0142365
813.531	0.0142049
813.609	0.0141362
813.687	0.0141695
813.765	0.0141121
813.843	0.0141827
813.921	0.0142390
813.999	0.0141435
814.078	0.0141119
814.156	0.0140691
814.234	0.0140883
814.312	0.0142237
814.390	0.0140458
814.468	0.0139013
814.546	0.0141076
814.624	0.0139594
814.703	0.0139963
814.781	0.0139472
814.859	0.0140244
814.937	0.0138879
815.015	0.0139190
815.093	0.0140642
815.171	0.0139030
815.249	0.0138852
815.328	0.0138320
815.406	0.0139162
815.484	0.0138991
815.562	0.0138996
815.640	0.0138524
815.718	0.0138116
815.796	0.0139301
815.874	0.0138822
815.953	0.0138509
816.031	0.0139697
816.109	0.0138559
816.187	0.0136656
816.265	0.0138372
816.343	0.0139354
816.421	0.0138487
816.499	0.0138224
816.578	0.0137974
816.656	0.0137997
816.734	0.0138873
816.812	0.0138373
816.890	0.0139155
816.968	0.0138509
817.046	0.0138934
817.124	0.0138841
817.203	0.0137910
817.281	0.0139848
817.359	0.0140080
817.437	0.0138418
817.515	0.0139001
817.593	0.0139523
817.671	0.0140221
817.749	0.0140152
817.828	0.0137949
817.906	0.0139473
817.984	0.0138996
818.062	0.0139222
818.140	0.0140337
818.218	0.0137140
818.296	0.0138850
818.374	0.0139519
818.453	0.0139663
818.531	0.0139099
818.609	0.0139515
818.687	0.0140907
818.765	0.0141017
818.843	0.0139648
818.921	0.0140344
818.999	0.0140443
819.078	0.0139979
819.156	0.0141675
819.234	0.0141991
819.312	0.0142030
819.390	0.0140904
819.468	0.0139931
819.546	0.0140827
819.624	0.0139913
819.703	0.0139587
819.781	0.0139618
819.859	0.0140636
819.937	0.0139178
820.015	0.0139621
820.093	0.0139164
820.171	0.0139129
820.249	0.0138403
820.328	0.0138195
820.406	0.0138743
820.484	0.0137966
820.562	0.0138617
820.640	0.0139421
820.718	0.0140926
820.796	0.0139076
820.874	0.0137980
820.953	0.0138634
821.031	0.0140279
821.109	0.0139693
821.187	0.0140089
821.265	0.0138044
821.343	0.0140180
821.421	0.0140694
821.499	0.0138944
821.578	0.0139445
821.656	0.0139141
821.734	0.0138174
821.812	0.0139771
821.890	0.0140219
821.968	0.0140204
822.046	0.0138892
822.124	0.0137172
822.203	0.0139102
822.281	0.0138981
822.359	0.0138945
822.437	0.0139067
822.515	0.0138309
822.593	0.0138901
822.671	0.0140191
822.749	0.0138458
822.828	0.0140153
822.906	0.0139887
822.984	0.0137504
823.062	0.0139205
823.140	0.0138525
823.218	0.0139935
823.296	0.0140083
823.374	0.0139806
823.453	0.0139993
823.531	0.0139610
823.609	0.0140765
823.687	0.0139981
823.765	0.0140134
823.843	0.0140823
823.921	0.0140396
823.999	0.0141185
824.078	0.0141131
824.156	0.0140005
824.234	0.0141623
824.312	0.0140704
824.390	0.0140255
824.468	0.0140507
824.546	0.0140280
824.624	0.0141317
824.703	0.0140255
824.781	0.0140179
824.859	0.0140083
824.937	0.0140083
825.015	0.0140306
825.093	0.0140991
825.171	0.0139941
825.249	0.0141063
825.328	0.0140649
825.406	0.0140962
825.484	0.0141756
825.562	0.0139916
825.640	0.0142150
825.718	0.0140495
825.796	0.0140146
825.874	0.0140847
825.953	0.0141253
826.031	0.0140035
826.109	0.0141509
826.187	0.0142059
826.265	0.0140964
826.343	0.0139751
826.421	0.0140366
826.499	0.0141277
826.578	0.0141594
826.656	0.0139480
826.734	0.0138486
826.812	0.0140049
826.890	0.0139019
826.968	0.0140244
827.046	0.0139069
827.124	0.0140284
827.203	0.0139547
827.281	0.0139460
827.359	0.0139131
827.437	0.0139886
827.515	0.0137212
827.593	0.0137035
827.671	0.0139784
827.749	0.0139745
827.828	0.0139355
827.906	0.0138868
827.984	0.0138687
828.062	0.0139028
828.140	0.0138297
828.218	0.0138762
828.296	0.0138995
828.374	0.0140274
828.453	0.0139297
828.531	0.0139506
828.609	0.0140437
828.687	0.0141066
828.765	0.0139178
828.843	0.0141496
828.921	0.0140201
828.999	0.0140021
829.078	0.0140784
829.156	0.0140033
829.234	0.0140332
829.312	0.0141259
829.390	0.0140234
829.468	0.0140630
829.546	0.0139804
829.624	0.0140971
829.703	0.0140814
829.781	0.0140349
829.859	0.0140813
829.937	0.0142191
830.015	0.0140791
830.093	0.0141760
830.171	0.0142110
830.249	0.0141008
830.328	0.0140379
830.406	0.0141540
830.484	0.0142108
830.562	0.0141490
830.640	0.0139542
830.718	0.0142504
830.796	0.0141457
830.874	0.0140491
830.953	0.0142015
831.031	0.0141850
831.109	0.0140293
831.187	0.0140956
831.265	0.0141045
831.343	0.0141251
831.421	0.0139936
831.499	0.0139951
831.578	0.0141050
831.656	0.0140257
831.734	0.0141136
831.812	0.0141221
831.890	0.0140430
831.968	0.0140693
832.046	0.0140926
832.124	0.0140874
832.203	0.0141706
832.281	0.0141055
832.359	0.0139859
832.437	0.0140794
832.515	0.0142270
832.593	0.0140546
832.671	0.0139163
832.749	0.0140640
832.828	0.0140314
832.906	0.0140003
832.984	0.0139330
833.062	0.0140369
833.140	0.0139755
833.218	0.0139921
833.296	0.0139240
833.374	0.0140699
833.453	0.0140395
833.531	0.0140853
833.609	0.0139757
833.687	0.0139694
833.765	0.0140511
833.843	0.0139474
833.921	0.0138865
833.999	0.0140789
834.078	0.0140326
834.156	0.0140005
834.234	0.0139112
834.312	0.0139573
834.390	0.0140326
834.468	0.0139016
834.546	0.0138418
834.624	0.0139224
834.703	0.0138950
834.781	0.0139727
834.859	0.0140366
834.937	0.0138643
835.015	0.0138164
835.093	0.0138395
835.171	0.0138100
835.249	0.0138887
835.328	0.0138563
835.406	0.0138058
835.484	0.0137759
835.562	0.0138346
835.640	0.0138202
835.718	0.0139216
835.796	0.0138673
835.874	0.0137469
835.953	0.0137645
836.031	0.0137729
836.109	0.0139529
836.187	0.0139297
836.265	0.0139411
836.343	0.0138164
836.421	0.0138288
836.499	0.0136892
836.578	0.0137560
836.656	0.0140664
836.734	0.0140399
836.812	0.0137309
836.890	0.0138593
836.968	0.0138828
837.046	0.0139133
837.124	0.0139702
837.203	0.0139494
837.281	0.0140562
837.359	0.0140025
837.437	0.0140170
837.515	0.0140291
837.593	0.0140023
837.671	0.0140097
837.749	0.0139423
837.828	0.0139712
837.906	0.0142095
837.984	0.0141774
838.062	0.0141740
838.140	0.0140353
838.218	0.0140845
838.296	0.0140456
838.374	0.0140968
838.453	0.0139439
838.531	0.0140034
838.609	0.0141570
838.687	0.0140678
838.765	0.0140437
838.843	0.0139306
838.921	0.0138862
838.999	0.0139655
839.078	0.0140060
839.156	0.0141781
839.234	0.0138379
839.312	0.0139439
839.390	0.0137951
839.468	0.0138091
839.546	0.0139011
839.624	0.0138625
839.703	0.0138381
839.781	0.0138122
839.859	0.0137513
839.937	0.0138161
840.015	0.0138526
840.093	0.0138271
840.171	0.0137465
840.249	0.0137310
840.328	0.0137734
840.406	0.0138266
840.484	0.0138821
840.562	0.0136900
840.640	0.0136342
840.718	0.0139434
840.796	0.0139548
840.874	0.0136922
840.953	0.0137032
841.031	0.0138691
841.109	0.0138042
841.187	0.0137864
841.265	0.0138736
841.343	0.0138882
841.421	0.0140046
841.499	0.0139764
841.578	0.0139973
841.656	0.0140359
841.734	0.0140002
841.812	0.0140845
841.890	0.0141799
841.968	0.0140154
842.046	0.0140619
842.124	0.0139110
842.203	0.0141022
842.281	0.0140749
842.359	0.0140601
842.437	0.0141303
842.515	0.0141290
842.593	0.0141063
842.671	0.0141935
842.749	0.0141574
842.828	0.0140302
842.906	0.0141238
842.984	0.0141217
843.062	0.0142060
843.140	0.0140539
843.218	0.0139760
843.296	0.0139529
843.374	0.0140005
843.453	0.0140670
843.531	0.0139852
843.609	0.0141574
843.687	0.0141107
843.765	0.0138987
843.843	0.0139610
843.921	0.0139957
843.999	0.0139709
844.078	0.0140516
844.156	0.0142469
844.234	0.0141339
844.312	0.0139519
844.390	0.0141320
844.468	0.0141076
844.546	0.0140384
844.624	0.0140813
844.703	0.0140092
844.781	0.0140594
844.859	0.0139406
844.937	0.0140988
845.015	0.0142464
845.093	0.0140727
845.171	0.0140720
845.249	0.0140955
845.328	0.0141409
845.406	0.0140424
845.484	0.0140109
845.562	0.0140122
845.640	0.0139985
845.718	0.0140331
845.796	0.0140528
845.874	0.0139790
845.953	0.0139844
846.031	0.0139735
846.109	0.0139711
846.187	0.0139650
846.265	0.0138822
846.343	0.0139046
846.421	0.0140845
846.499	0.0139959
846.578	0.0139877
846.656	0.0140871
846.734	0.0141743
846.812	0.0140355
846.890	0.0140997
846.968	0.0141714
847.046	0.0142841
847.124	0.0142917
847.203	0.0139973
847.281	0.0141823
847.359	0.0142284
847.437	0.0142717
847.515	0.0143411
847.593	0.0142608
847.671	0.0142545
847.749	0.0142878
847.828	0.0141971
847.906	0.0142468
847.984	0.0140565
848.062	0.0140750
848.140	0.0141741
848.218	0.0139783
848.296	0.0141329
848.374	0.0142654
848.453	0.0142410
848.531	0.0141579
848.609	0.0140680
848.687	0.0141238
848.765	0.0140260
848.843	0.0141261
848.921	0.0141695
848.999	0.0141763
849.078	0.0141267
849.156	0.0141030
849.234	0.0141026
849.312	0.0139671
849.390	0.0140815
849.468	0.0143063
849.546	0.0141327
849.624	0.0139845
849.703	0.0141412
849.781	0.0142770
849.859	0.0141033
849.937	0.0142371
850.015	0.0141754
850.093	0.0141203
850.171	0.0141277
850.249	0.0140714
850.328	0.0140266
850.406	0.0141190
850.484	0.0140099
850.562	0.0139838
850.640	0.0140173
850.718	0.0137546
850.796	0.0138977
850.874	0.0139023
850.953	0.0138493
851.031	0.0139217
851.109	0.0138449
851.187	0.0138988
851.265	0.0137869
851.343	0.0138477
851.421	0.0138970
851.499	0.0138099
851.578	0.0138551
851.656	0.0137830
851.734	0.0139029
851.812	0.0138099
851.890	0.0139963
851.968	0.0139505
852.046	0.0139513
852.124	0.0140173
852.203	0.0139880
852.281	0.0138245
852.359	0.0139161
852.437	0.0139478
852.515	0.0139624
852.593	0.0140078
852.671	0.0140204
852.749	0.0139229
852.828	0.0141242
852.906	0.0139915
852.984	0.0141151
853.062	0.0142246
853.140	0.0141148
853.218	0.0142133
853.296	0.0141436
853.374	0.0141316
853.453	0.0142510
853.531	0.0143694
853.609	0.0142867
853.687	0.0142882
853.765	0.0142348
853.843	0.0141924
853.921	0.0142706
853.999	0.0142108
854.078	0.0141753
854.156	0.0141919
854.234	0.0142258
854.312	0.0143189
854.390	0.0140306
854.468	0.0140479
854.546	0.0140527
854.624	0.0141373
854.703	0.0139594
854.781	0.0139351
854.859	0.0139546
854.937	0.0138823
855.015	0.0137949
855.093	0.0138426
855.171	0.0138491
855.249	0.0137461
855.328	0.0138276
855.406	0.0138107
855.484	0.0138623
855.562	0.0136821
855.640	0.0136696
855.718	0.0139128
855.796	0.0138424
855.874	0.0138504
855.953	0.0139394
856.031	0.0139417
856.109	0.0137249
856.187	0.0138634
856.265	0.0138557
856.343	0.0138142
856.421	0.0139829
856.499	0.0140775
856.578	0.0140074
856.656	0.0139647
856.734	0.0139628
856.812	0.0139431
856.890	0.0139474
856.968	0.0138897
857.046	0.0140012
857.124	0.0138850
857.203	0.0140649
857.281	0.0139310
857.359	0.0139107
857.437	0.0139411
857.515	0.0139475
857.593	0.0141147
857.671	0.0139989
857.749	0.0139517
857.828	0.0140601
857.906	0.0141138
857.984	0.0140999
858.062	0.0139584
858.140	0.0142034
858.218	0.0141367
858.296	0.0139951
858.374	0.0141441
858.453	0.0141280
858.531	0.0140506
858.609	0.0141447
858.687	0.0139713
858.765	0.0140229
858.843	0.0140398
858.921	0.0140735
858.999	0.0141496
859.078	0.0139698
859.156	0.0139706
859.234	0.0142094
859.312	0.0140203
859.390	0.0139157
859.468	0.0139323
859.546	0.0138103
859.624	0.0138541
859.703	0.0140080
859.781	0.0139606
859.859	0.0140540
859.937	0.0140547
860.015	0.0139260
860.093	0.0140975
860.171	0.0140731
860.249	0.0140865
860.328	0.0139874
860.406	0.0139783
860.484	0.0139801
860.562	0.0139137
860.640	0.0139429
860.718	0.0139102
860.796	0.0138850
860.874	0.0138849
860.953	0.0139064
861.031	0.0138084
861.109	0.0138684
861.187	0.0139687
861.265	0.0137689
861.343	0.0137947
861.421	0.0137013
861.499	0.0138565
861.578	0.0138602
861.656	0.0136582
861.734	0.0138045
861.812	0.0137672
861.890	0.0138896
861.968	0.0137292
862.046	0.0138196
862.124	0.0138129
862.203	0.0137932
862.281	0.0138689
862.359	0.0139170
862.437	0.0139188
862.515	0.0140181
862.593	0.0138410
862.671	0.0138767
862.749	0.0138535
862.828	0.0138368
862.906	0.0139050
862.984	0.0139750
863.062	0.0139585
863.140	0.0140652
863.218	0.0139767
863.296	0.0141572
863.374	0.0141650
863.453	0.0140655
863.531	0.0141144
863.609	0.0139825
863.687	0.0139621
863.765	0.0142283
863.843	0.0143095
863.921	0.0141346
863.999	0.0141245
864.078	0.0140922
864.156	0.0140025
864.234	0.0141394
864.312	0.0141391
864.390	0.0140869
864.468	0.0140861
864.546	0.0141563
864.624	0.0141338
864.703	0.0142281
864.781	0.0141122
864.859	0.0141945
864.937	0.0141306
865.015	0.0140800
865.093	0.0141824
865.171	0.0140783
865.249	0.0140436
865.328	0.0141950
865.406	0.0141490
865.484	0.0139856
865.562	0.0140437
865.640	0.0139588
865.718	0.0141635
865.796	0.0141235
865.874	0.0139536
865.953	0.0140671
866.031	0.0139953
866.109	0.0138550
866.187	0.0139097
866.265	0.0138796
866.343	0.0139272
866.421	0.0140160
866.499	0.0139074
866.578	0.0137743
866.656	0.0138926
866.734	0.0140242
866.812	0.0139183
866.890	0.0139561
866.968	0.0140269
867.046	0.0140495
867.124	0.0141764
867.203	0.0140175
867.281	0.0139557
867.359	0.0140938
867.437	0.0141062
867.515	0.0141679
867.593	0.0139902
867.671	0.0141153
867.749	0.0141188
867.828	0.0141797
867.906	0.0141579
867.984	0.0140679
868.062	0.0140820
868.140	0.0140891
868.218	0.0140457
868.296	0.0139655
868.374	0.0139790
868.453	0.0140062
868.531	0.0140733
868.609	0.0139454
868.687	0.0139200
868.765	0.0139938
868.843	0.0140116
868.921	0.0137683
868.999	0.0139050
869.078	0.0139719
869.156	0.0139017
869.234	0.0139594
869.312	0.0139349
869.390	0.0139417
869.468	0.0140594
869.546	0.0140951
869.624	0.0139030
869.703	0.0140353
869.781	0.0140247
869.859	0.0138629
869.937	0.0140076
870.015	0.0142099
870.093	0.0140577
870.171	0.0141115
870.249	0.0140839
870.328	0.0141316
870.406	0.0141651
870.484	0.0141597
870.562	0.0142152
870.640	0.0141218
870.718	0.0142245
870.796	0.0143248
870.874	0.0143272
870.953	0.0142557
871.031	0.0141405
871.109	0.0141492
871.187	0.0143638
871.265	0.0142299
871.343	0.0142751
871.421	0.0144124
871.499	0.0142921
871.578	0.0142415
871.656	0.0141775
871.734	0.0142746
871.812	0.0141163
871.890	0.0141246
871.968	0.0140820
872.046	0.0141566
872.124	0.0139766
872.203	0.0139668
872.281	0.0140462
872.359	0.0138734
872.437	0.0139693
872.515	0.0139326
872.593	0.0139819
872.671	0.0140002
872.749	0.0138473
872.828	0.0138800
872.906	0.0139658
872.984	0.0140283
873.062	0.0139777
873.140	0.0139419
873.218	0.0139671
873.296	0.0139138
873.374	0.0138575
873.453	0.0139354
873.531	0.0139377
873.609	0.0137997
873.687	0.0138461
873.765	0.0139497
873.843	0.0139284
873.921	0.0139543
873.999	0.0138625
874.078	0.0137532
874.156	0.0137722
874.234	0.0138441
874.312	0.0138120
874.390	0.0137489
874.468	0.0138264
874.546	0.0137066
874.624	0.0137579
874.703	0.0140511
874.781	0.0138392
874.859	0.0138741
874.937	0.0139782
875.015	0.0139624
875.093	0.0138545
875.171	0.0139384
875.249	0.0138863
875.328	0.0138343
875.406	0.0139265
875.484	0.0138264
875.562	0.0137952
875.640	0.0138863
875.718	0.0138995
875.796	0.0139300
875.874	0.0138494
875.953	0.0138540
876.031	0.0137783
876.109	0.0138407
876.187	0.0137828
876.265	0.0137609
876.343	0.0138335
876.421	0.0137556
876.499	0.0137916
876.578	0.0138621
876.656	0.0138448
876.734	0.0136913
876.812	0.0138171
876.890	0.0138148
876.968	0.0138298
877.046	0.0136848
877.124	0.0138005
877.203	0.0138584
877.281	0.0138270
877.359	0.0138524
877.437	0.0138972
877.515	0.0138581
877.593	0.0139758
877.671	0.0139196
877.749	0.0137890
877.828	0.0140226
877.906	0.0139464
877.984	0.0139504
878.062	0.0139137
878.140	0.0139368
878.218	0.0138490
878.296	0.0139032
878.374	0.0140585
878.453	0.0140182
878.531	0.0141232
878.609	0.0140357
878.687	0.0139933
878.765	0.0140283
878.843	0.0139009
878.921	0.0139977
878.999	0.0139474
879.078	0.0140502
879.156	0.0138817
879.234	0.0139852
879.312	0.0140207
879.390	0.0139628
879.468	0.0138657
879.546	0.0138491
879.624	0.0137553
879.703	0.0138664
879.781	0.0139230
879.859	0.0137544
879.937	0.0137782
880.015	0.0134768
880.093	0.0135612
880.171	0.0135701
880.249	0.0137270
880.328	0.0136355
880.406	0.0136121
880.484	0.0137695
880.562	0.0136990
880.640	0.0137363
880.718	0.0137296
880.796	0.0136108
880.874	0.0137603
880.953	0.0138186
881.031	0.0138385
881.109	0.0137672
881.187	0.0138531
881.265	0.0139397
881.343	0.0137975
881.421	0.0140417
881.499	0.0140262
881.578	0.0139168
881.656	0.0139954
881.734	0.0140192
881.812	0.0141417
881.890	0.0140455
881.968	0.0139877
882.046	0.0142209
882.124	0.0140306
882.203	0.0140851
882.281	0.0142239
882.359	0.0141717
882.437	0.0141756
882.515	0.0142648
882.593	0.0140825
882.671	0.0140051
882.749	0.0141329
882.828	0.0140438
882.906	0.0140069
882.984	0.0140055
883.062	0.0141070
883.140	0.0141684
883.218	0.0140170
883.296	0.0139647
883.374	0.0140916
883.453	0.0141805
883.531	0.0140939
883.609	0.0139157
883.687	0.0140689
883.765	0.0139077
883.843	0.0138093
883.921	0.0138172
883.999	0.0138175
884.078	0.0138595
884.156	0.0138590
884.234	0.0137699
884.312	0.0138227
884.390	0.0138604
884.468	0.0137121
884.546	0.0138015
884.624	0.0138210
884.703	0.0136513
884.781	0.0138535
884.859	0.0137550
884.937	0.0137000
885.015	0.0138055
885.093	0.0138258
885.171	0.0139247
885.249	0.0137604
885.328	0.0137672
885.406	0.0136555
885.484	0.0138060
885.562	0.0137170
885.640	0.0137653
885.718	0.0137313
885.796	0.0137919
885.874	0.0138622
885.953	0.0137711
886.031	0.0139080
886.109	0.0138829
886.187	0.0137705
886.265	0.0138732
886.343	0.0139491
886.421	0.0137176
886.499	0.0139494
886.578	0.0140398
886.656	0.0139020
886.734	0.0140240
886.812	0.0138394
886.890	0.0138134
886.968	0.0139442
887.046	0.0139575
887.124	0.0139463
887.203	0.0140993
887.281	0.0140179
887.359	0.0138032
887.437	0.0140012
887.515	0.0139894
887.593	0.0139562
887.671	0.0139748
887.749	0.0138599
887.828	0.0139033
887.906	0.0140222
887.984	0.0139954
888.062	0.0140170
888.140	0.0140684
888.218	0.0139371
888.296	0.0139429
888.374	0.0141279
888.453	0.0141479
888.531	0.0139595
888.609	0.0139368
888.687	0.0140248
888.765	0.0139510
888.843	0.0141015
888.921	0.0140470
888.999	0.0139710
889.078	0.0138782
889.156	0.0140173
889.234	0.0140829
889.312	0.0138948
889.390	0.0140030
889.468	0.0140872
889.546	0.0139448
889.624	0.0139544
889.703	0.0140582
889.781	0.0140383
889.859	0.0139314
889.937	0.0139983
890.015	0.0139952
890.093	0.0140028
890.171	0.0140605
890.249	0.0140897
890.328	0.0139113
890.406	0.0139295
890.484	0.0139796
890.562	0.0139700
890.640	0.0140173
890.718	0.0140156
890.796	0.0139388
890.874	0.0140082
890.953	0.0139657
891.031	0.0139433
891.109	0.0139795
891.187	0.0140350
891.265	0.0139709
891.343	0.0140057
891.421	0.0138647
891.499	0.0138949
891.578	0.0138985
891.656	0.0138628
891.734	0.0140643
891.812	0.0139629
891.890	0.0139194
891.968	0.0141566
892.046	0.0141481
892.124	0.0138682
892.203	0.0140621
892.281	0.0140160
892.359	0.0141075
892.437	0.0139825
892.515	0.0140383
892.593	0.0140210
892.671	0.0140082
892.749	0.0139996
892.828	0.0140620
892.906	0.0139783
892.984	0.0140111
893.062	0.0139561
893.140	0.0139310
893.218	0.0140853
893.296	0.0140742
893.374	0.0141484
893.453	0.0139195
893.531	0.0140654
893.609	0.0140575
893.687	0.0140412
893.765	0.0140417
893.843	0.0139870
893.921	0.0141031
893.999	0.0139697
894.078	0.0140003
894.156	0.0138897
894.234	0.0138847
894.312	0.0140635
894.390	0.0140009
894.468	0.0138874
894.546	0.0139186
894.624	0.0138941
894.703	0.0140010
894.781	0.0140086
894.859	0.0139738
894.937	0.0137375
895.015	0.0138863
895.093	0.0138901
895.171	0.0138811
895.249	0.0138290
895.328	0.0137891
895.406	0.0138904
895.484	0.0140102
895.562	0.0140187
895.640	0.0139114
895.718	0.0139210
895.796	0.0140561
895.874	0.0140094
895.953	0.0139346
896.031	0.0141025
896.109	0.0140161
896.187	0.0140488
896.265	0.0141037
896.343	0.0139408
896.421	0.0140954
896.499	0.0139250
896.578	0.0140176
896.656	0.0139855
896.734	0.0138973
896.812	0.0139642
896.890	0.0139811
896.968	0.0139975
897.046	0.0139929
897.124	0.0139423
897.203	0.0139333
897.281	0.0139382
897.359	0.0139063
897.437	0.0138644
897.515	0.0137860
897.593	0.0138887
897.671	0.0138855
897.749	0.0138758
897.828	0.0138370
897.906	0.0139761
897.984	0.0137852
898.062	0.0138639
898.140	0.0138801
898.218	0.0137441
898.296	0.0137286
898.374	0.0137769
898.453	0.0138142
898.531	0.0137594
898.609	0.0136726
898.687	0.0138551
898.765	0.0137251
898.843	0.0136285
898.921	0.0136154
898.999	0.0136420
899.078	0.0136347
899.156	0.0137742
899.234	0.0136798
899.312	0.0136136
899.390	0.0136163
899.468	0.0137527
899.546	0.0137684
899.624	0.0137634
899.703	0.0137699
899.781	0.0136472
899.859	0.0137448
899.937	0.0138382
900.015	0.0138181
900.093	0.0139598
900.171	0.0139799
900.249	0.0139497
900.328	0.0139439
900.406	0.0139609
900.484	0.0140800
900.562	0.0141507
900.640	0.0140534
900.718	0.0140915
900.796	0.0140572
900.874	0.0141543
900.953	0.0142917
901.031	0.0142011
901.109	0.0140154
901.187	0.0140167
901.265	0.0140708
901.343	0.0140215
901.421	0.0142211
901.499	0.0139826
901.578	0.0140568
901.656	0.0138768
901.734	0.0140708
901.812	0.0141340
901.890	0.0139551
901.968	0.0139687
902.046	0.0138423
902.124	0.0139253
902.203	0.0138400
902.281	0.0139718
902.359	0.0138062
902.437	0.0140729
902.515	0.0140409
902.593	0.0138751
902.671	0.0136920
902.749	0.0137130
902.828	0.0137775
902.906	0.0138039
902.984	0.0137670
903.062	0.0137980
903.140	0.0138094
903.218	0.0138472
903.296	0.0136617
903.374	0.0137626
903.453	0.0138133
903.531	0.0138523
903.609	0.0138216
903.687	0.0137729
903.765	0.0137273
903.843	0.0138467
903.921	0.0137988
903.999	0.0137879
904.078	0.0138590
904.156	0.0140813
904.234	0.0137386
904.312	0.0138120
904.390	0.0139186
904.468	0.0137521
904.546	0.0140715
904.624	0.0140530
904.703	0.0140775
904.781	0.0140432
904.859	0.0141524
904.937	0.0139980
905.015	0.0141476
905.093	0.0141544
905.171	0.0141180
905.249	0.0141919
905.328	0.0141387
905.406	0.0141379
905.484	0.0141121
905.562	0.0140574
905.640	0.0141489
905.718	0.0142238
905.796	0.0141447
905.874	0.0140920
905.953	0.0140184
906.031	0.0140411
906.109	0.0141982
906.187	0.0142155
906.265	0.0143204
906.343	0.0141656
906.421	0.0140779
906.499	0.0140987
906.578	0.0141435
906.656	0.0141026
906.734	0.0141121
906.812	0.0140744
906.890	0.0140650
906.968	0.0140945
907.046	0.0141206
907.124	0.0140414
907.203	0.0141030
907.281	0.0140762
907.359	0.0140036
907.437	0.0140321
907.515	0.0138415
907.593	0.0139312
907.671	0.0139204
907.749	0.0139066
907.828	0.0139490
907.906	0.0140237
907.984	0.0139663
908.062	0.0138078
908.140	0.0138649
908.218	0.0138869
908.296	0.0138191
908.374	0.0137804
908.453	0.0137874
908.531	0.0136570
908.609	0.0137917
908.687	0.0137159
908.765	0.0137918
908.843	0.0138535
908.921	0.0138609
908.999	0.0137698
909.078	0.0139686
909.156	0.0139758
909.234	0.0139432
909.312	0.0138872
909.390	0.0139248
909.468	0.0138636
909.546	0.0139430
909.624	0.0139978
909.703	0.0139856
909.781	0.0139371
909.859	0.0139227
909.937	0.0137953
910.015	0.0139001
910.093	0.0139497
910.171	0.0138113
910.249	0.0140035
910.328	0.0138583
910.406	0.0139272
910.484	0.0140141
910.562	0.0140353
910.640	0.0140260
910.718	0.0139402
910.796	0.0140440
910.874	0.0141483
910.953	0.0139986
911.031	0.0138708
911.109	0.0138834
911.187	0.0139687
911.265	0.0140745
911.343	0.0139986
911.421	0.0139870
911.499	0.0139494
911.578	0.0139713
911.656	0.0140316
911.734	0.0140736
911.812	0.0138397
911.890	0.0140147
911.968	0.0139133
912.046	0.0138876
912.124	0.0140326
912.203	0.0138834
912.281	0.0139542
912.359	0.0140657
912.437	0.0138963
912.515	0.0139497
912.593	0.0140478
912.671	0.0140519
912.749	0.0138929
912.828	0.0140206
912.906	0.0139892
912.984	0.0139494
913.062	0.0141263
913.140	0.0140640
913.218	0.0139568
913.296	0.0140485
913.374	0.0140009
913.453	0.0138533
913.531	0.0139129
913.609	0.0139877
913.687	0.0141067
913.765	0.0140462
913.843	0.0141081
913.921	0.0140116
913.999	0.0140591
914.078	0.0141164
914.156	0.0141071
914.234	0.0141764
914.312	0.0141213
914.390	0.0142626
914.468	0.0142304
914.546	0.0141584
914.624	0.0141501
914.703	0.0142170
914.781	0.0141577
914.859	0.0141299
914.937	0.0140985
915.015	0.0142551
915.093	0.0142598
915.171	0.0140923
915.249	0.0142233
915.328	0.0141948
915.406	0.0142242
915.484	0.0140629
915.562	0.0141550
915.640	0.0141465
915.718	0.0141556
915.796	0.0141563
915.874	0.0143073
915.953	0.0141752
916.031	0.0140064
916.109	0.0141207
916.187	0.0141479
916.265	0.0140448
916.343	0.0140496
916.421	0.0139914
916.499	0.0140532
916.578	0.0140085
916.656	0.0140427
916.734	0.0139658
916.812	0.0140624
916.890	0.0139633
916.968	0.0138764
917.046	0.0139715
917.124	0.0138271
917.203	0.0137801
917.281	0.0140656
917.359	0.0139516
917.437	0.0138459
917.515	0.0139342
917.593	0.0139116
917.671	0.0137160
917.749	0.0139060
917.828	0.0139730
917.906	0.0138251
917.984	0.0138507
918.062	0.0138044
918.140	0.0138548
918.218	0.0137308
918.296	0.0138622
918.374	0.0138091
918.453	0.0137899
918.531	0.0139212
918.609	0.0138376
918.687	0.0139336
918.765	0.0139704
918.843	0.0138199
918.921	0.0139682
918.999	0.0139545
919.078	0.0138995
919.156	0.0140662
919.234	0.0141633
919.312	0.0139693
919.390	0.0139705
919.468	0.0139910
919.546	0.0140657
919.624	0.0141318
919.703	0.0140948
919.781	0.0140826
919.859	0.0140270
919.937	0.0140519
