06/13/2022	15:13:35	Ver.	4.1	UNKNOWN
Optical Delay	599.968395	Delta X		0.078125	Sweeps	1	Scan Rate	0/0
Coordinates	Axis 1	NaN	Axis 2	NaN	Axis 3	NaN	Axis 4	NaN	Axis 5	NaN	Axis 6	0.000000
TX Power	0.000000	RX Power	0.000000

599.968	0.0166235
600.047	0.0165880
600.125	0.0165114
600.203	0.0165409
600.281	0.0167574
600.359	0.0166208
600.437	0.0165388
600.515	0.0165206
600.593	0.0164842
600.672	0.0165520
600.750	0.0165115
600.828	0.0165553
600.906	0.0165267
600.984	0.0164126
601.062	0.0165099
601.140	0.0165697
601.218	0.0165838
601.297	0.0166428
601.375	0.0165559
601.453	0.0166383
601.531	0.0165748
601.609	0.0166688
601.687	0.0166560
601.765	0.0167120
601.843	0.0165768
601.922	0.0165562
602.000	0.0165230
602.078	0.0166275
602.156	0.0167510
602.234	0.0166055
602.312	0.0166939
602.390	0.0165267
602.468	0.0166524
602.547	0.0167418
602.625	0.0166678
602.703	0.0165265
602.781	0.0165834
602.859	0.0166411
602.937	0.0166525
603.015	0.0164609
603.093	0.0165627
603.172	0.0166663
603.250	0.0165550
603.328	0.0165756
603.406	0.0165888
603.484	0.0166531
603.562	0.0164972
603.640	0.0165921
603.718	0.0165388
603.797	0.0165990
603.875	0.0166548
603.953	0.0167623
604.031	0.0167419
604.109	0.0167801
604.187	0.0166492
604.265	0.0167597
604.343	0.0168324
604.422	0.0166108
604.500	0.0168428
604.578	0.0167490
604.656	0.0167022
604.734	0.0167490
604.812	0.0166192
604.890	0.0168188
604.968	0.0167414
605.047	0.0168015
605.125	0.0166717
605.203	0.0167088
605.281	0.0167519
605.359	0.0167519
605.437	0.0168716
605.515	0.0168055
605.593	0.0168657
605.672	0.0168384
605.750	0.0166637
605.828	0.0165524
605.906	0.0167778
605.984	0.0167303
606.062	0.0167289
606.140	0.0167673
606.218	0.0165711
606.297	0.0165646
606.375	0.0168357
606.453	0.0167181
606.531	0.0166512
606.609	0.0168033
606.687	0.0165485
606.765	0.0166581
606.843	0.0167331
606.922	0.0167004
607.000	0.0166602
607.078	0.0167342
607.156	0.0166096
607.234	0.0166981
607.312	0.0166953
607.390	0.0166372
607.468	0.0165928
607.547	0.0166297
607.625	0.0167220
607.703	0.0165906
607.781	0.0165483
607.859	0.0166679
607.937	0.0166224
608.015	0.0165678
608.093	0.0165781
608.172	0.0167193
608.250	0.0167318
608.328	0.0165104
608.406	0.0165778
608.484	0.0165203
608.562	0.0167116
608.640	0.0167059
608.718	0.0165913
608.797	0.0166707
608.875	0.0167471
608.953	0.0165878
609.031	0.0166216
609.109	0.0167448
609.187	0.0166249
609.265	0.0167367
609.343	0.0164320
609.422	0.0166237
609.500	0.0166290
609.578	0.0165372
609.656	0.0166779
609.734	0.0166740
609.812	0.0167234
609.890	0.0166680
609.968	0.0166823
610.047	0.0165919
610.125	0.0166666
610.203	0.0167248
610.281	0.0167712
610.359	0.0168166
610.437	0.0166035
610.515	0.0165458
610.593	0.0167448
610.672	0.0167403
610.750	0.0166425
610.828	0.0166718
610.906	0.0165925
610.984	0.0165429
611.062	0.0165112
611.140	0.0165314
611.218	0.0166494
611.297	0.0166298
611.375	0.0165147
611.453	0.0165229
611.531	0.0166765
611.609	0.0166473
611.687	0.0166131
611.765	0.0166432
611.843	0.0164034
611.922	0.0165465
612.000	0.0165381
612.078	0.0165823
612.156	0.0163599
612.234	0.0163768
612.312	0.0164050
612.390	0.0164420
612.468	0.0164634
612.547	0.0165090
612.625	0.0164558
612.703	0.0162851
612.781	0.0162614
612.859	0.0162485
612.937	0.0162014
613.015	0.0163125
613.093	0.0162674
613.172	0.0163058
613.250	0.0163844
613.328	0.0164339
613.406	0.0163570
613.484	0.0164890
613.562	0.0164275
613.640	0.0164240
613.718	0.0164008
613.797	0.0164043
613.875	0.0165410
613.953	0.0164950
614.031	0.0164915
614.109	0.0164977
614.187	0.0165147
614.265	0.0166066
614.343	0.0164440
614.422	0.0164938
614.500	0.0164661
614.578	0.0165066
614.656	0.0164184
614.734	0.0164208
614.812	0.0163199
614.890	0.0164747
614.968	0.0164185
615.047	0.0163203
615.125	0.0164657
615.203	0.0165034
615.281	0.0163938
615.359	0.0164734
615.437	0.0164626
615.515	0.0164752
615.593	0.0165150
615.672	0.0164824
615.750	0.0165572
615.828	0.0166745
615.906	0.0165184
615.984	0.0164277
616.062	0.0165266
616.140	0.0167094
616.218	0.0164661
616.297	0.0164507
616.375	0.0166294
616.453	0.0165833
616.531	0.0164876
616.609	0.0165553
616.687	0.0166070
616.765	0.0165395
616.843	0.0166412
616.922	0.0165731
617.000	0.0165529
617.078	0.0165730
617.156	0.0165324
617.234	0.0165443
617.312	0.0164864
617.390	0.0165030
617.468	0.0166582
617.547	0.0165691
617.625	0.0166158
617.703	0.0167060
617.781	0.0165880
617.859	0.0165176
617.937	0.0165608
618.015	0.0165739
618.093	0.0166854
618.172	0.0165565
618.250	0.0166643
618.328	0.0166914
618.406	0.0167231
618.484	0.0165986
618.562	0.0164821
618.640	0.0165714
618.718	0.0166764
618.797	0.0166806
618.875	0.0165616
618.953	0.0165749
619.031	0.0166463
619.109	0.0166930
619.187	0.0166028
619.265	0.0165457
619.343	0.0165775
619.422	0.0166692
619.500	0.0166134
619.578	0.0165449
619.656	0.0164713
619.734	0.0166866
619.812	0.0167081
619.890	0.0165866
619.968	0.0166794
620.047	0.0168741
620.125	0.0167801
620.203	0.0166692
620.281	0.0167516
620.359	0.0167291
620.437	0.0166653
620.515	0.0167411
620.593	0.0168078
620.672	0.0168015
620.750	0.0167604
620.828	0.0166862
620.906	0.0167770
620.984	0.0167432
621.062	0.0167598
621.140	0.0167421
621.218	0.0167462
621.297	0.0166630
621.375	0.0166875
621.453	0.0167194
621.531	0.0167278
621.609	0.0166965
621.687	0.0167110
621.765	0.0167660
621.843	0.0167117
621.922	0.0165623
622.000	0.0166514
622.078	0.0166222
622.156	0.0166565
622.234	0.0166228
622.312	0.0165955
622.390	0.0165760
622.468	0.0166119
622.547	0.0165817
622.625	0.0165662
622.703	0.0167043
622.781	0.0165656
622.859	0.0166127
622.937	0.0166421
623.015	0.0166871
623.093	0.0166307
623.172	0.0165807
623.250	0.0166525
623.328	0.0165975
623.406	0.0165917
623.484	0.0167384
623.562	0.0166827
623.640	0.0165707
623.718	0.0165715
623.797	0.0167710
623.875	0.0168303
623.953	0.0167844
624.031	0.0166645
624.109	0.0167372
624.187	0.0166673
624.265	0.0166712
624.343	0.0166994
624.422	0.0166331
624.500	0.0166305
624.578	0.0166664
624.656	0.0166694
624.734	0.0167062
624.812	0.0167107
624.890	0.0169282
624.968	0.0167554
625.047	0.0165952
625.125	0.0166925
625.203	0.0167152
625.281	0.0166559
625.359	0.0166538
625.437	0.0166242
625.515	0.0167412
625.593	0.0166886
625.672	0.0167129
625.750	0.0166756
625.828	0.0166493
625.906	0.0167061
625.984	0.0165110
626.062	0.0165199
626.140	0.0165770
626.218	0.0167876
626.297	0.0166941
626.375	0.0166515
626.453	0.0166341
626.531	0.0166841
626.609	0.0166270
626.687	0.0167305
626.765	0.0167701
626.843	0.0166320
626.922	0.0165965
627.000	0.0168111
627.078	0.0167992
627.156	0.0167439
627.234	0.0168134
627.312	0.0167292
627.390	0.0167811
627.468	0.0167971
627.547	0.0169798
627.625	0.0167314
627.703	0.0167764
627.781	0.0168115
627.859	0.0167201
627.937	0.0166892
628.015	0.0166872
628.093	0.0168535
628.172	0.0167528
628.250	0.0167564
628.328	0.0167274
628.406	0.0167287
628.484	0.0167437
628.562	0.0167217
628.640	0.0167225
628.718	0.0166559
628.797	0.0166559
628.875	0.0165954
628.953	0.0166390
629.031	0.0165209
629.109	0.0165612
629.187	0.0167487
629.265	0.0168384
629.343	0.0166998
629.422	0.0166890
629.500	0.0166210
629.578	0.0166157
629.656	0.0167525
629.734	0.0166369
629.812	0.0165919
629.890	0.0166522
629.968	0.0165784
630.047	0.0165811
630.125	0.0167152
630.203	0.0167161
630.281	0.0167004
630.359	0.0166386
630.437	0.0166386
630.515	0.0166605
630.593	0.0167332
630.672	0.0167187
630.750	0.0166777
630.828	0.0167130
630.906	0.0165902
630.984	0.0167064
631.062	0.0167524
631.140	0.0166799
631.218	0.0166629
631.297	0.0166860
631.375	0.0166143
631.453	0.0167465
631.531	0.0167588
631.609	0.0166869
631.687	0.0167028
631.765	0.0166752
631.843	0.0167120
631.922	0.0167185
632.000	0.0167312
632.078	0.0167567
632.156	0.0166544
632.234	0.0166311
632.312	0.0167189
632.390	0.0166988
632.468	0.0168394
632.547	0.0167777
632.625	0.0168039
632.703	0.0166636
632.781	0.0166372
632.859	0.0167329
632.937	0.0167126
633.015	0.0166956
633.093	0.0166053
633.172	0.0166286
633.250	0.0166319
633.328	0.0166252
633.406	0.0166546
633.484	0.0164989
633.562	0.0168040
633.640	0.0166154
633.718	0.0165488
633.797	0.0164690
633.875	0.0165838
633.953	0.0166422
634.031	0.0167139
634.109	0.0166344
634.187	0.0165532
634.265	0.0166391
634.343	0.0166663
634.422	0.0164806
634.500	0.0167049
634.578	0.0166199
634.656	0.0167053
634.734	0.0165292
634.812	0.0166679
634.890	0.0166419
634.968	0.0166138
635.047	0.0164985
635.125	0.0164685
635.203	0.0164467
635.281	0.0164838
635.359	0.0164989
635.437	0.0166417
635.515	0.0164448
635.593	0.0164275
635.672	0.0163371
635.750	0.0163960
635.828	0.0165610
635.906	0.0165512
635.984	0.0163308
636.062	0.0164411
636.140	0.0164676
636.218	0.0164350
636.297	0.0165614
636.375	0.0165620
636.453	0.0165964
636.531	0.0163921
636.609	0.0162820
636.687	0.0163946
636.765	0.0164661
636.843	0.0164790
636.922	0.0166003
637.000	0.0163372
637.078	0.0163206
637.156	0.0163963
637.234	0.0164129
637.312	0.0163445
637.390	0.0163857
637.468	0.0165380
637.547	0.0163872
637.625	0.0164196
637.703	0.0164051
637.781	0.0164777
637.859	0.0163955
637.937	0.0164318
638.015	0.0164387
638.093	0.0163223
638.172	0.0163953
638.250	0.0163238
638.328	0.0161765
638.406	0.0162654
638.484	0.0162402
638.562	0.0163297
638.640	0.0161304
638.718	0.0162776
638.797	0.0162615
638.875	0.0161120
638.953	0.0162804
639.031	0.0162139
639.109	0.0161711
639.187	0.0162158
639.265	0.0163760
639.343	0.0162643
639.422	0.0162040
639.500	0.0162012
639.578	0.0162003
639.656	0.0162709
639.734	0.0162421
639.812	0.0163309
639.890	0.0163220
639.968	0.0163723
640.047	0.0162138
640.125	0.0162965
640.203	0.0163090
640.281	0.0163641
640.359	0.0163766
640.437	0.0162655
640.515	0.0162563
640.593	0.0164174
640.672	0.0164134
640.750	0.0164967
640.828	0.0163232
640.906	0.0165022
640.984	0.0165297
641.062	0.0162873
641.140	0.0164576
641.218	0.0164864
641.297	0.0164803
641.375	0.0165536
641.453	0.0165500
641.531	0.0164171
641.609	0.0165094
641.687	0.0165799
641.765	0.0164832
641.843	0.0165225
641.922	0.0165910
642.000	0.0164948
642.078	0.0165430
642.156	0.0165704
642.234	0.0165314
642.312	0.0164523
642.390	0.0165073
642.468	0.0165771
642.547	0.0165509
642.625	0.0164667
642.703	0.0163958
642.781	0.0165923
642.859	0.0164606
642.937	0.0165852
643.015	0.0165037
643.093	0.0165514
643.172	0.0165731
643.250	0.0165521
643.328	0.0165510
643.406	0.0165562
643.484	0.0164639
643.562	0.0164997
643.640	0.0165830
643.718	0.0166148
643.797	0.0165025
643.875	0.0165978
643.953	0.0165527
644.031	0.0165402
644.109	0.0165108
644.187	0.0166562
644.265	0.0166176
644.343	0.0165294
644.422	0.0165865
644.500	0.0167074
644.578	0.0167469
644.656	0.0164537
644.734	0.0167246
644.812	0.0166612
644.890	0.0166962
644.968	0.0168001
645.047	0.0166675
645.125	0.0167377
645.203	0.0166817
645.281	0.0167105
645.359	0.0167464
645.437	0.0168040
645.515	0.0167104
645.593	0.0166682
645.672	0.0167739
645.750	0.0168455
645.828	0.0167568
645.906	0.0165965
645.984	0.0166354
646.062	0.0166373
646.140	0.0167574
646.218	0.0167886
646.297	0.0168650
646.375	0.0166622
646.453	0.0166843
646.531	0.0167597
646.609	0.0167367
646.687	0.0165772
646.765	0.0166354
646.843	0.0166663
646.922	0.0167281
647.000	0.0166225
647.078	0.0167249
647.156	0.0168506
647.234	0.0167357
647.312	0.0166166
647.390	0.0166874
647.468	0.0167014
647.547	0.0166646
647.625	0.0167340
647.703	0.0166981
647.781	0.0167336
647.859	0.0167208
647.937	0.0167306
648.015	0.0167527
648.093	0.0166908
648.172	0.0168112
648.250	0.0167227
648.328	0.0168150
648.406	0.0168139
648.484	0.0168700
648.562	0.0167512
648.640	0.0167504
648.718	0.0166608
648.797	0.0168485
648.875	0.0168736
648.953	0.0167465
649.031	0.0167094
649.109	0.0168359
649.187	0.0166359
649.265	0.0167979
649.343	0.0169034
649.422	0.0166582
649.500	0.0167334
649.578	0.0167455
649.656	0.0167107
649.734	0.0166885
649.812	0.0168160
649.890	0.0168114
649.968	0.0166846
650.047	0.0166099
650.125	0.0167433
650.203	0.0167222
650.281	0.0167645
650.359	0.0166330
650.437	0.0167068
650.515	0.0167120
650.593	0.0166801
650.672	0.0166576
650.750	0.0166936
650.828	0.0167082
650.906	0.0168316
650.984	0.0166464
651.062	0.0167825
651.140	0.0166682
651.218	0.0167496
651.297	0.0167419
651.375	0.0166345
651.453	0.0167029
651.531	0.0167290
651.609	0.0166615
651.687	0.0166328
651.765	0.0167550
651.843	0.0166732
651.922	0.0167857
652.000	0.0166241
652.078	0.0166885
652.156	0.0167223
652.234	0.0165903
652.312	0.0166814
652.390	0.0165611
652.468	0.0166928
652.547	0.0166735
652.625	0.0167243
652.703	0.0166343
652.781	0.0166782
652.859	0.0167489
652.937	0.0166115
653.015	0.0165778
653.093	0.0166826
653.172	0.0166506
653.250	0.0166478
653.328	0.0166675
653.406	0.0166702
653.484	0.0166440
653.562	0.0164712
653.640	0.0166708
653.718	0.0166966
653.797	0.0167520
653.875	0.0166868
653.953	0.0166047
654.031	0.0166180
654.109	0.0165755
654.187	0.0165455
654.265	0.0166901
654.343	0.0165542
654.422	0.0165377
654.500	0.0167358
654.578	0.0165711
654.656	0.0165919
654.734	0.0166602
654.812	0.0165841
654.890	0.0166989
654.968	0.0166501
655.047	0.0166007
655.125	0.0165644
655.203	0.0165092
655.281	0.0166987
655.359	0.0167276
655.437	0.0165781
655.515	0.0165556
655.593	0.0165512
655.672	0.0167080
655.750	0.0165082
655.828	0.0166591
655.906	0.0166823
655.984	0.0166679
656.062	0.0165950
656.140	0.0166502
656.218	0.0166133
656.297	0.0165237
656.375	0.0165750
656.453	0.0165739
656.531	0.0165530
656.609	0.0165483
656.687	0.0165675
656.765	0.0165301
656.843	0.0165335
656.922	0.0165721
657.000	0.0165957
657.078	0.0166393
657.156	0.0164670
657.234	0.0164201
657.312	0.0164835
657.390	0.0164452
657.468	0.0163979
657.547	0.0165331
657.625	0.0164560
657.703	0.0163958
657.781	0.0165780
657.859	0.0165209
657.937	0.0164680
658.015	0.0165646
658.093	0.0164691
658.172	0.0164809
658.250	0.0163887
658.328	0.0164406
658.406	0.0165250
658.484	0.0165736
658.562	0.0165421
658.640	0.0165690
658.718	0.0164687
658.797	0.0164731
658.875	0.0165306
658.953	0.0164324
659.031	0.0166770
659.109	0.0164647
659.187	0.0164851
659.265	0.0165910
659.343	0.0164400
659.422	0.0164303
659.500	0.0164885
659.578	0.0165205
659.656	0.0165142
659.734	0.0165186
659.812	0.0164413
659.890	0.0165890
659.968	0.0164277
660.047	0.0165059
660.125	0.0166111
660.203	0.0165215
660.281	0.0165932
660.359	0.0165010
660.437	0.0164756
660.515	0.0165028
660.593	0.0163877
660.672	0.0163927
660.750	0.0165034
660.828	0.0165929
660.906	0.0164350
660.984	0.0166227
661.062	0.0165926
661.140	0.0164957
661.218	0.0165123
661.297	0.0165417
661.375	0.0165935
661.453	0.0165147
661.531	0.0166666
661.609	0.0165651
661.687	0.0164698
661.765	0.0165477
661.843	0.0164989
661.922	0.0165850
662.000	0.0166210
662.078	0.0165450
662.156	0.0164525
662.234	0.0164586
662.312	0.0165836
662.390	0.0165974
662.468	0.0166119
662.547	0.0164634
662.625	0.0165829
662.703	0.0165149
662.781	0.0165640
662.859	0.0165636
662.937	0.0165591
663.015	0.0165942
663.093	0.0165949
663.172	0.0165761
663.250	0.0164694
663.328	0.0166496
663.406	0.0164628
663.484	0.0164626
663.562	0.0165762
663.640	0.0165907
663.718	0.0165596
663.797	0.0165645
663.875	0.0166830
663.953	0.0165437
664.031	0.0165096
664.109	0.0165266
664.187	0.0165662
664.265	0.0165656
664.343	0.0164375
664.422	0.0164995
664.500	0.0166363
664.578	0.0165411
664.656	0.0165497
664.734	0.0165512
664.812	0.0164664
664.890	0.0165749
664.968	0.0165623
665.047	0.0165160
665.125	0.0167820
665.203	0.0167568
665.281	0.0164738
665.359	0.0164789
665.437	0.0165173
665.515	0.0165415
665.593	0.0166041
665.672	0.0165536
665.750	0.0166177
665.828	0.0165649
665.906	0.0165965
665.984	0.0165315
666.062	0.0164970
666.140	0.0165899
666.218	0.0165663
666.297	0.0165812
666.375	0.0166351
666.453	0.0166946
666.531	0.0165979
666.609	0.0164684
666.687	0.0165343
666.765	0.0167419
666.843	0.0166251
666.922	0.0165243
667.000	0.0165721
667.078	0.0166979
667.156	0.0165733
667.234	0.0166848
667.312	0.0166876
667.390	0.0166853
667.468	0.0165869
667.547	0.0164981
667.625	0.0166462
667.703	0.0165750
667.781	0.0165865
667.859	0.0166433
667.937	0.0165772
668.015	0.0167397
668.093	0.0167732
668.172	0.0166738
668.250	0.0166458
668.328	0.0166953
668.406	0.0166187
668.484	0.0165881
668.562	0.0165324
668.640	0.0165625
668.718	0.0166787
668.797	0.0165210
668.875	0.0167006
668.953	0.0167525
669.031	0.0165909
669.109	0.0166866
669.187	0.0168289
669.265	0.0166950
669.343	0.0166091
669.422	0.0165508
669.500	0.0166261
669.578	0.0167593
669.656	0.0166579
669.734	0.0166360
669.812	0.0166336
669.890	0.0166277
669.968	0.0165649
670.047	0.0165723
670.125	0.0166510
670.203	0.0167979
670.281	0.0166136
670.359	0.0167345
670.437	0.0166299
670.515	0.0165458
670.593	0.0166528
670.672	0.0166571
670.750	0.0166174
670.828	0.0167461
670.906	0.0165405
670.984	0.0166792
671.062	0.0167435
671.140	0.0167642
671.218	0.0166107
671.297	0.0166651
671.375	0.0166978
671.453	0.0166351
671.531	0.0167409
671.609	0.0165611
671.687	0.0165573
671.765	0.0166409
671.843	0.0165965
671.922	0.0166424
672.000	0.0166370
672.078	0.0166013
672.156	0.0165598
672.234	0.0166424
672.312	0.0165392
672.390	0.0167314
672.468	0.0166859
672.547	0.0166663
672.625	0.0167229
672.703	0.0165067
672.781	0.0166074
672.859	0.0166739
672.937	0.0166096
673.015	0.0167767
673.093	0.0166486
673.172	0.0166716
673.250	0.0166236
673.328	0.0167185
673.406	0.0167554
673.484	0.0166607
673.562	0.0166667
673.640	0.0167117
673.718	0.0166241
673.797	0.0166154
673.875	0.0167032
673.953	0.0166922
674.031	0.0167812
674.109	0.0167702
674.187	0.0167437
674.265	0.0167316
674.343	0.0166232
674.422	0.0166822
674.500	0.0167390
674.578	0.0166150
674.656	0.0165649
674.734	0.0166565
674.812	0.0166612
674.890	0.0167520
674.968	0.0167992
675.047	0.0166645
675.125	0.0166175
675.203	0.0166564
675.281	0.0165492
675.359	0.0167793
675.437	0.0166715
675.515	0.0168033
675.593	0.0166784
675.672	0.0167723
675.750	0.0167881
675.828	0.0165515
675.906	0.0166774
675.984	0.0166885
676.062	0.0166745
676.140	0.0167445
676.218	0.0168089
676.297	0.0167050
676.375	0.0168156
676.453	0.0166771
676.531	0.0166859
676.609	0.0167913
676.687	0.0167573
676.765	0.0167431
676.843	0.0167845
676.922	0.0168095
677.000	0.0166885
677.078	0.0167475
677.156	0.0168439
677.234	0.0168042
677.312	0.0168526
677.390	0.0167473
677.468	0.0167755
677.547	0.0167397
677.625	0.0167464
677.703	0.0166220
677.781	0.0167043
677.859	0.0166490
677.937	0.0166924
678.015	0.0165963
678.093	0.0167448
678.172	0.0168138
678.250	0.0166258
678.328	0.0166887
678.406	0.0166601
678.484	0.0166965
678.562	0.0167188
678.640	0.0166254
678.718	0.0166248
678.797	0.0165862
678.875	0.0167149
678.953	0.0167075
679.031	0.0166235
679.109	0.0168149
679.187	0.0167278
679.265	0.0166384
679.343	0.0166445
679.422	0.0165346
679.500	0.0165693
679.578	0.0166666
679.656	0.0167396
679.734	0.0166545
679.812	0.0166370
679.890	0.0165623
679.968	0.0166148
680.047	0.0166534
680.125	0.0165872
680.203	0.0165372
680.281	0.0166730
680.359	0.0166440
680.437	0.0166070
680.515	0.0166586
680.593	0.0166338
680.672	0.0166535
680.750	0.0166886
680.828	0.0166477
680.906	0.0167165
680.984	0.0166736
681.062	0.0165215
681.140	0.0166491
681.218	0.0165509
681.297	0.0165501
681.375	0.0166881
681.453	0.0165862
681.531	0.0165229
681.609	0.0165472
681.687	0.0165992
681.765	0.0166378
681.843	0.0165832
681.922	0.0165047
682.000	0.0165323
682.078	0.0166481
682.156	0.0164871
682.234	0.0165530
682.312	0.0166248
682.390	0.0166992
682.468	0.0166278
682.547	0.0164488
682.625	0.0166185
682.703	0.0165758
682.781	0.0164740
682.859	0.0164951
682.937	0.0166865
683.015	0.0167117
683.093	0.0166982
683.172	0.0166327
683.250	0.0164709
683.328	0.0165543
683.406	0.0167427
683.484	0.0166045
683.562	0.0166393
683.640	0.0166420
683.718	0.0165099
683.797	0.0165493
683.875	0.0165144
683.953	0.0164562
684.031	0.0166717
684.109	0.0166772
684.187	0.0165562
684.265	0.0166895
684.343	0.0165313
684.422	0.0165916
684.500	0.0166154
684.578	0.0165263
684.656	0.0165958
684.734	0.0164499
684.812	0.0166029
684.890	0.0165287
684.968	0.0165456
685.047	0.0164710
685.125	0.0164913
685.203	0.0166463
685.281	0.0163927
685.359	0.0165309
685.437	0.0165601
685.515	0.0165656
685.593	0.0165186
685.672	0.0165771
685.750	0.0165195
685.828	0.0164871
685.906	0.0164441
685.984	0.0165417
686.062	0.0164954
686.140	0.0165768
686.218	0.0167493
686.297	0.0165113
686.375	0.0164024
686.453	0.0166055
686.531	0.0166407
686.609	0.0164618
686.687	0.0164433
686.765	0.0165057
686.843	0.0165363
686.922	0.0164759
687.000	0.0165784
687.078	0.0165575
687.156	0.0165408
687.234	0.0165331
687.312	0.0165598
687.390	0.0164980
687.468	0.0166528
687.547	0.0165884
687.625	0.0165591
687.703	0.0166456
687.781	0.0166460
687.859	0.0164240
687.937	0.0166927
688.015	0.0167147
688.093	0.0166063
688.172	0.0164035
688.250	0.0164955
688.328	0.0166398
688.406	0.0166654
688.484	0.0166174
688.562	0.0165031
688.640	0.0165488
688.718	0.0166145
688.797	0.0163186
688.875	0.0165395
688.953	0.0165734
689.031	0.0165930
689.109	0.0166038
689.187	0.0166253
689.265	0.0167680
689.343	0.0166404
689.422	0.0165588
689.500	0.0164863
689.578	0.0165414
689.656	0.0166232
689.734	0.0166382
689.812	0.0166512
689.890	0.0166751
689.968	0.0165633
690.047	0.0165627
690.125	0.0167106
690.203	0.0166949
690.281	0.0166301
690.359	0.0164916
690.437	0.0166918
690.515	0.0167183
690.593	0.0165600
690.672	0.0166247
690.750	0.0165759
690.828	0.0167783
690.906	0.0167001
690.984	0.0166900
691.062	0.0167215
691.140	0.0166626
691.218	0.0165729
691.297	0.0166345
691.375	0.0167226
691.453	0.0167230
691.531	0.0166640
691.609	0.0166834
691.687	0.0166096
691.765	0.0166541
691.843	0.0166320
691.922	0.0167345
692.000	0.0166693
692.078	0.0166590
692.156	0.0166055
692.234	0.0166553
692.312	0.0167097
692.390	0.0167051
692.468	0.0166786
692.547	0.0166688
692.625	0.0166534
692.703	0.0165695
692.781	0.0165958
692.859	0.0166268
692.937	0.0166436
693.015	0.0165124
693.093	0.0166376
693.172	0.0166012
693.250	0.0166412
693.328	0.0166653
693.406	0.0165576
693.484	0.0166290
693.562	0.0166975
693.640	0.0166509
693.718	0.0165957
693.797	0.0167372
693.875	0.0165119
693.953	0.0166000
694.031	0.0167110
694.109	0.0165469
694.187	0.0166530
694.265	0.0166107
694.343	0.0165918
694.422	0.0166286
694.500	0.0166697
694.578	0.0165217
694.656	0.0165565
694.734	0.0166273
694.812	0.0167458
694.890	0.0166445
694.968	0.0166241
695.047	0.0165759
695.125	0.0166776
695.203	0.0166379
695.281	0.0167141
695.359	0.0166209
695.437	0.0166154
695.515	0.0166267
695.593	0.0165329
695.672	0.0165963
695.750	0.0165261
695.828	0.0168031
695.906	0.0167606
695.984	0.0166827
696.062	0.0166971
696.140	0.0165767
696.218	0.0166447
696.297	0.0166133
696.375	0.0167027
696.453	0.0166589
696.531	0.0166327
696.609	0.0166762
696.687	0.0166740
696.765	0.0166180
696.843	0.0166515
696.922	0.0166466
697.000	0.0165618
697.078	0.0166675
697.156	0.0167439
697.234	0.0167529
697.312	0.0166290
697.390	0.0167883
697.468	0.0166019
697.547	0.0166601
697.625	0.0166347
697.703	0.0166723
697.781	0.0166785
697.859	0.0168186
697.937	0.0166524
698.015	0.0165962
698.093	0.0167101
698.172	0.0167250
698.250	0.0165965
698.328	0.0167037
698.406	0.0167475
698.484	0.0167135
698.562	0.0167198
698.640	0.0166363
698.718	0.0166586
698.797	0.0166812
698.875	0.0167231
698.953	0.0165349
699.031	0.0166245
699.109	0.0165976
699.187	0.0167342
699.265	0.0167834
699.343	0.0167355
699.422	0.0168316
699.500	0.0167229
699.578	0.0167433
699.656	0.0167521
699.734	0.0167087
699.812	0.0166284
699.890	0.0166537
699.968	0.0167579
700.047	0.0166774
700.125	0.0166471
700.203	0.0167337
700.281	0.0167220
700.359	0.0167130
700.437	0.0166654
700.515	0.0166924
700.593	0.0167542
700.672	0.0165575
700.750	0.0167501
700.828	0.0167271
700.906	0.0165859
700.984	0.0167377
701.062	0.0166187
701.140	0.0166060
701.218	0.0167004
701.297	0.0166444
701.375	0.0167519
701.453	0.0166435
701.531	0.0167684
701.609	0.0166885
701.687	0.0166318
701.765	0.0165682
701.843	0.0166441
701.922	0.0166338
702.000	0.0167229
702.078	0.0166792
702.156	0.0165149
702.234	0.0166740
702.312	0.0166402
702.390	0.0166465
702.468	0.0165778
702.547	0.0165034
702.625	0.0164819
702.703	0.0166501
702.781	0.0167001
702.859	0.0167945
702.937	0.0166884
703.015	0.0168122
703.093	0.0167096
703.172	0.0167020
703.250	0.0167836
703.328	0.0167219
703.406	0.0167355
703.484	0.0167252
703.562	0.0166702
703.640	0.0166953
703.718	0.0166471
703.797	0.0166445
703.875	0.0166454
703.953	0.0166415
704.031	0.0169458
704.109	0.0168391
704.187	0.0166058
704.265	0.0167519
704.343	0.0168027
704.422	0.0166292
704.500	0.0166547
704.578	0.0167168
704.656	0.0166297
704.734	0.0167052
704.812	0.0166889
704.890	0.0166303
704.968	0.0167073
705.047	0.0166385
705.125	0.0166137
705.203	0.0166252
705.281	0.0167393
705.359	0.0165989
705.437	0.0166225
705.515	0.0166439
705.593	0.0166917
705.672	0.0165334
705.750	0.0164382
705.828	0.0166379
705.906	0.0166158
705.984	0.0164934
706.062	0.0165015
706.140	0.0166264
706.218	0.0164928
706.297	0.0164841
706.375	0.0165289
706.453	0.0165473
706.531	0.0165848
706.609	0.0165804
706.687	0.0166738
706.765	0.0166148
706.843	0.0164761
706.922	0.0164452
707.000	0.0165724
707.078	0.0166856
707.156	0.0166048
707.234	0.0166289
707.312	0.0166795
707.390	0.0164542
707.468	0.0164400
707.547	0.0166224
707.625	0.0165842
707.703	0.0165406
707.781	0.0166763
707.859	0.0164767
707.937	0.0165904
708.015	0.0166082
708.093	0.0166331
708.172	0.0164668
708.250	0.0165230
708.328	0.0166621
708.406	0.0166396
708.484	0.0166270
708.562	0.0166021
708.640	0.0164292
708.718	0.0166325
708.797	0.0165699
708.875	0.0164860
708.953	0.0165697
709.031	0.0166054
709.109	0.0165408
709.187	0.0164475
709.265	0.0164866
709.343	0.0164130
709.422	0.0163920
709.500	0.0165654
709.578	0.0164197
709.656	0.0164796
709.734	0.0164903
709.812	0.0164397
709.890	0.0164521
709.968	0.0165199
710.047	0.0163607
710.125	0.0163073
710.203	0.0166530
710.281	0.0165924
710.359	0.0165846
710.437	0.0165073
710.515	0.0164777
710.593	0.0164093
710.672	0.0164614
710.750	0.0164871
710.828	0.0165248
710.906	0.0165399
710.984	0.0164026
711.062	0.0165044
711.140	0.0164447
711.218	0.0165330
711.297	0.0164832
711.375	0.0165123
711.453	0.0165899
711.531	0.0165148
711.609	0.0166270
711.687	0.0165488
711.765	0.0165382
711.843	0.0165469
711.922	0.0164458
712.000	0.0165894
712.078	0.0164635
712.156	0.0165036
712.234	0.0164845
712.312	0.0166515
712.390	0.0164392
712.468	0.0164821
712.547	0.0165897
712.625	0.0164352
712.703	0.0165073
712.781	0.0165469
712.859	0.0163863
712.937	0.0162969
713.015	0.0166324
713.093	0.0164790
713.172	0.0164415
713.250	0.0165094
713.328	0.0164790
713.406	0.0164289
713.484	0.0164161
713.562	0.0164159
713.640	0.0165134
713.718	0.0165460
713.797	0.0164701
713.875	0.0164265
713.953	0.0165081
714.031	0.0165017
714.109	0.0165036
714.187	0.0164344
714.265	0.0165294
714.343	0.0165530
714.422	0.0165189
714.500	0.0165370
714.578	0.0165424
714.656	0.0163505
714.734	0.0165649
714.812	0.0164363
714.890	0.0163834
714.968	0.0164130
715.047	0.0163901
715.125	0.0164789
715.203	0.0165441
715.281	0.0164902
715.359	0.0165379
715.437	0.0165679
715.515	0.0165793
715.593	0.0165035
715.672	0.0165236
715.750	0.0164928
715.828	0.0165913
715.906	0.0164281
715.984	0.0164514
716.062	0.0165966
716.140	0.0165461
716.218	0.0164362
716.297	0.0164849
716.375	0.0165025
716.453	0.0165125
716.531	0.0164877
716.609	0.0164442
716.687	0.0164996
716.765	0.0164162
716.843	0.0164460
716.922	0.0165164
717.000	0.0164703
717.078	0.0164528
717.156	0.0164831
717.234	0.0164941
717.312	0.0164545
717.390	0.0164229
717.468	0.0165611
717.547	0.0165829
717.625	0.0164631
717.703	0.0164297
717.781	0.0164892
717.859	0.0164659
717.937	0.0164419
718.015	0.0163905
718.093	0.0164565
718.172	0.0164545
718.250	0.0164557
718.328	0.0165645
718.406	0.0165564
718.484	0.0164421
718.562	0.0164179
718.640	0.0165291
718.718	0.0163989
718.797	0.0164948
718.875	0.0164447
718.953	0.0164535
719.031	0.0165212
719.109	0.0164206
719.187	0.0165808
719.265	0.0167001
719.343	0.0165836
719.422	0.0164533
719.500	0.0165703
719.578	0.0166212
719.656	0.0163908
719.734	0.0164764
719.812	0.0166319
719.890	0.0164663
719.968	0.0165615
720.047	0.0165130
720.125	0.0166123
720.203	0.0165432
720.281	0.0165446
720.359	0.0166058
720.437	0.0165779
720.515	0.0166544
720.593	0.0165274
720.672	0.0165202
720.750	0.0164699
720.828	0.0165456
720.906	0.0165513
720.984	0.0165100
721.062	0.0166074
721.140	0.0166656
721.218	0.0166615
721.297	0.0164980
721.375	0.0165210
721.453	0.0165926
721.531	0.0167127
721.609	0.0166737
721.687	0.0165565
721.765	0.0166157
721.843	0.0166258
721.922	0.0165661
722.000	0.0165363
722.078	0.0165120
722.156	0.0166264
722.234	0.0167458
722.312	0.0166350
722.390	0.0166567
722.468	0.0166856
722.547	0.0167446
722.625	0.0167113
722.703	0.0167314
722.781	0.0167319
722.859	0.0165936
722.937	0.0168410
723.015	0.0167007
723.093	0.0165707
723.172	0.0167507
723.250	0.0168135
723.328	0.0166886
723.406	0.0168082
723.484	0.0166685
723.562	0.0166726
723.640	0.0166200
723.718	0.0165865
723.797	0.0167637
723.875	0.0166473
723.953	0.0167067
724.031	0.0167590
724.109	0.0167387
724.187	0.0166217
724.265	0.0167583
724.343	0.0167207
724.422	0.0165865
724.500	0.0168298
724.578	0.0167264
724.656	0.0165896
724.734	0.0166565
724.812	0.0167109
724.890	0.0166173
724.968	0.0167686
725.047	0.0167741
725.125	0.0165945
725.203	0.0168000
725.281	0.0166390
725.359	0.0166338
725.437	0.0165900
725.515	0.0166045
725.593	0.0166409
725.672	0.0167593
725.750	0.0168608
725.828	0.0166345
725.906	0.0167188
725.984	0.0167285
726.062	0.0167074
726.140	0.0168172
726.218	0.0168929
726.297	0.0167837
726.375	0.0167442
726.453	0.0166681
726.531	0.0166723
726.609	0.0166958
726.687	0.0168052
726.765	0.0166227
726.843	0.0165730
726.922	0.0166335
727.000	0.0168023
727.078	0.0166337
727.156	0.0165955
727.234	0.0165346
727.312	0.0165343
727.390	0.0167196
727.468	0.0167275
727.547	0.0167773
727.625	0.0166771
727.703	0.0167049
727.781	0.0167753
727.859	0.0168576
727.937	0.0167676
728.015	0.0167332
728.093	0.0167550
728.172	0.0167603
728.250	0.0167395
728.328	0.0166771
728.406	0.0168119
728.484	0.0167101
728.562	0.0167088
728.640	0.0167130
728.718	0.0166949
728.797	0.0166782
728.875	0.0166730
728.953	0.0167352
729.031	0.0167893
729.109	0.0168131
729.187	0.0167559
729.265	0.0167490
729.343	0.0166783
729.422	0.0167560
729.500	0.0166181
729.578	0.0166769
729.656	0.0166382
729.734	0.0166296
729.812	0.0166177
729.890	0.0166883
729.968	0.0166862
730.047	0.0167397
730.125	0.0166655
730.203	0.0166367
730.281	0.0166122
730.359	0.0166466
730.437	0.0166248
730.515	0.0165114
730.593	0.0166757
730.672	0.0166307
730.750	0.0165548
730.828	0.0165819
730.906	0.0165872
730.984	0.0166163
731.062	0.0165524
731.140	0.0165524
731.218	0.0165416
731.297	0.0165171
731.375	0.0166109
731.453	0.0166406
731.531	0.0165913
731.609	0.0165192
731.687	0.0165599
731.765	0.0165794
731.843	0.0166279
731.922	0.0165405
732.000	0.0164785
732.078	0.0165313
732.156	0.0165195
732.234	0.0165804
732.312	0.0165056
732.390	0.0165795
732.468	0.0164420
732.547	0.0166781
732.625	0.0164983
732.703	0.0165936
732.781	0.0164504
732.859	0.0165289
732.937	0.0165536
733.015	0.0166553
733.093	0.0164764
733.172	0.0165985
733.250	0.0165897
733.328	0.0165003
733.406	0.0165002
733.484	0.0167045
733.562	0.0166196
733.640	0.0165375
733.718	0.0165408
733.797	0.0166505
733.875	0.0165758
733.953	0.0164350
734.031	0.0166367
734.109	0.0165900
734.187	0.0165578
734.265	0.0165427
734.343	0.0163847
734.422	0.0166058
734.500	0.0166273
734.578	0.0164059
734.656	0.0164943
734.734	0.0164758
734.812	0.0164098
734.890	0.0165221
734.968	0.0164690
735.047	0.0163485
735.125	0.0165166
735.203	0.0165835
735.281	0.0165013
735.359	0.0163523
735.437	0.0164443
735.515	0.0164068
735.593	0.0164196
735.672	0.0166214
735.750	0.0165272
735.828	0.0164572
735.906	0.0164799
735.984	0.0164656
736.062	0.0165117
736.140	0.0165741
736.218	0.0164896
736.297	0.0164818
736.375	0.0164664
736.453	0.0164204
736.531	0.0163941
736.609	0.0163462
736.687	0.0163531
736.765	0.0163582
736.843	0.0163543
736.922	0.0161887
737.000	0.0164462
737.078	0.0164680
737.156	0.0165017
737.234	0.0164922
737.312	0.0164656
737.390	0.0164154
737.468	0.0163094
737.547	0.0164593
737.625	0.0165961
737.703	0.0165469
737.781	0.0164127
737.859	0.0165350
737.937	0.0164828
738.015	0.0163872
738.093	0.0164695
738.172	0.0164591
738.250	0.0164178
738.328	0.0163436
738.406	0.0164799
738.484	0.0164570
738.562	0.0163985
738.640	0.0163757
738.718	0.0163310
738.797	0.0163778
738.875	0.0163895
738.953	0.0164828
739.031	0.0164707
739.109	0.0164551
739.187	0.0165009
739.265	0.0164897
739.343	0.0164072
739.422	0.0165048
739.500	0.0163979
739.578	0.0163867
739.656	0.0164747
739.734	0.0164484
739.812	0.0165357
739.890	0.0165347
739.968	0.0163719
740.047	0.0165981
740.125	0.0166371
740.203	0.0164812
740.281	0.0163654
740.359	0.0165694
740.437	0.0165349
740.515	0.0166087
740.593	0.0164131
740.672	0.0165393
740.750	0.0164516
740.828	0.0164997
740.906	0.0164854
740.984	0.0164561
741.062	0.0165121
741.140	0.0163773
741.218	0.0163783
741.297	0.0163839
741.375	0.0163359
741.453	0.0163886
741.531	0.0165651
741.609	0.0164962
741.687	0.0164437
741.765	0.0164948
741.843	0.0165034
741.922	0.0166106
742.000	0.0165160
742.078	0.0164441
742.156	0.0164634
742.234	0.0165476
742.312	0.0164838
742.390	0.0163229
742.468	0.0165280
742.547	0.0166154
742.625	0.0166357
742.703	0.0165573
742.781	0.0165489
742.859	0.0166335
742.937	0.0166876
743.015	0.0165442
743.093	0.0165532
743.172	0.0166737
743.250	0.0165008
743.328	0.0166384
743.406	0.0165871
743.484	0.0166828
743.562	0.0165925
743.640	0.0166848
743.718	0.0166668
743.797	0.0165633
743.875	0.0166602
743.953	0.0165226
744.031	0.0166216
744.109	0.0165856
744.187	0.0165251
744.265	0.0165137
744.343	0.0165044
744.422	0.0165845
744.500	0.0165840
744.578	0.0164965
744.656	0.0165395
744.734	0.0164286
744.812	0.0166213
744.890	0.0165926
744.968	0.0166217
745.047	0.0166424
745.125	0.0165263
745.203	0.0166458
745.281	0.0165870
745.359	0.0165804
745.437	0.0165408
745.515	0.0166753
745.593	0.0167950
745.672	0.0166079
745.750	0.0166103
745.828	0.0165841
745.906	0.0166953
745.984	0.0166190
746.062	0.0167459
746.140	0.0167033
746.218	0.0167657
746.297	0.0166656
746.375	0.0166902
746.453	0.0165871
746.531	0.0165789
746.609	0.0164755
746.687	0.0166556
746.765	0.0167069
746.843	0.0167010
746.922	0.0165837
747.000	0.0166799
747.078	0.0165825
747.156	0.0165288
747.234	0.0166818
747.312	0.0165396
747.390	0.0166378
747.468	0.0167237
747.547	0.0166032
747.625	0.0166762
747.703	0.0167030
747.781	0.0166216
747.859	0.0166953
747.937	0.0167638
748.015	0.0167691
748.093	0.0167202
748.172	0.0166234
748.250	0.0166618
748.328	0.0168711
748.406	0.0167632
748.484	0.0167550
748.562	0.0165967
748.640	0.0166605
748.718	0.0166529
748.797	0.0167445
748.875	0.0167086
748.953	0.0167073
749.031	0.0166888
749.109	0.0167822
749.187	0.0169004
749.265	0.0168320
749.343	0.0167583
749.422	0.0168934
749.500	0.0168374
749.578	0.0168545
749.656	0.0165355
749.734	0.0168333
749.812	0.0168064
749.890	0.0168781
749.968	0.0166896
750.047	0.0166843
750.125	0.0166938
750.203	0.0166489
750.281	0.0168320
750.359	0.0167382
750.437	0.0167609
750.515	0.0168137
750.593	0.0167348
750.672	0.0167754
750.750	0.0167135
750.828	0.0169466
750.906	0.0168706
750.984	0.0167774
751.062	0.0167561
751.140	0.0168774
751.218	0.0167478
751.297	0.0168513
751.375	0.0166953
751.453	0.0168313
751.531	0.0168513
751.609	0.0168672
751.687	0.0168967
751.765	0.0168500
751.843	0.0168690
751.922	0.0168549
752.000	0.0168554
752.078	0.0165895
752.156	0.0168506
752.234	0.0167446
752.312	0.0168228
752.390	0.0168947
752.468	0.0168829
752.547	0.0168605
752.625	0.0167834
752.703	0.0167645
752.781	0.0166774
752.859	0.0167633
752.937	0.0166817
753.015	0.0168130
753.093	0.0166648
753.172	0.0168269
753.250	0.0168460
753.328	0.0168944
753.406	0.0167491
753.484	0.0166717
753.562	0.0167299
753.640	0.0167329
753.718	0.0165709
753.797	0.0168422
753.875	0.0167287
753.953	0.0168074
754.031	0.0167544
754.109	0.0167077
754.187	0.0167723
754.265	0.0167595
754.343	0.0167101
754.422	0.0166984
754.500	0.0168648
754.578	0.0167326
754.656	0.0165821
754.734	0.0167039
754.812	0.0167865
754.890	0.0166428
754.968	0.0166902
755.047	0.0167741
755.125	0.0167741
755.203	0.0167339
755.281	0.0167414
755.359	0.0167137
755.437	0.0166697
755.515	0.0167272
755.593	0.0167571
755.672	0.0166134
755.750	0.0165291
755.828	0.0165383
755.906	0.0166988
755.984	0.0166147
756.062	0.0165765
756.140	0.0166170
756.218	0.0165915
756.297	0.0165395
756.375	0.0165398
756.453	0.0166873
756.531	0.0166182
756.609	0.0165749
756.687	0.0165999
756.765	0.0164622
756.843	0.0165789
756.922	0.0164740
757.000	0.0164850
757.078	0.0165357
757.156	0.0164756
757.234	0.0165356
757.312	0.0165940
757.390	0.0163514
757.468	0.0165543
757.547	0.0165480
757.625	0.0166341
757.703	0.0164906
757.781	0.0164372
757.859	0.0166983
757.937	0.0165853
758.015	0.0165167
758.093	0.0164903
758.172	0.0165134
758.250	0.0166310
758.328	0.0165721
758.406	0.0166653
758.484	0.0165815
758.562	0.0165853
758.640	0.0166028
758.718	0.0166859
758.797	0.0166148
758.875	0.0166043
758.953	0.0167947
759.031	0.0166574
759.109	0.0165885
759.187	0.0165678
759.265	0.0167142
759.343	0.0166011
759.422	0.0167439
759.500	0.0166077
759.578	0.0166006
759.656	0.0166296
759.734	0.0167574
759.812	0.0166172
759.890	0.0167147
759.968	0.0168331
760.047	0.0166532
760.125	0.0167479
760.203	0.0166957
760.281	0.0165981
760.359	0.0166474
760.437	0.0166710
760.515	0.0165698
760.593	0.0166475
760.672	0.0165858
760.750	0.0167046
760.828	0.0166797
760.906	0.0164631
760.984	0.0166147
761.062	0.0165115
761.140	0.0166611
761.218	0.0165579
761.297	0.0165460
761.375	0.0165175
761.453	0.0166119
761.531	0.0166360
761.609	0.0166480
761.687	0.0164424
761.765	0.0165450
761.843	0.0165736
761.922	0.0165796
762.000	0.0164872
762.078	0.0165219
762.156	0.0166664
762.234	0.0166285
762.312	0.0165606
762.390	0.0165811
762.468	0.0167564
762.547	0.0167303
762.625	0.0167268
762.703	0.0168661
762.781	0.0167017
762.859	0.0166830
762.937	0.0166398
763.015	0.0168064
763.093	0.0166499
763.172	0.0165863
763.250	0.0166770
763.328	0.0167569
763.406	0.0167098
763.484	0.0165169
763.562	0.0166660
763.640	0.0166708
763.718	0.0165247
763.797	0.0167186
763.875	0.0166972
763.953	0.0164874
764.031	0.0165501
764.109	0.0164864
764.187	0.0165576
764.265	0.0164889
764.343	0.0166109
764.422	0.0165374
764.500	0.0165146
764.578	0.0165203
764.656	0.0165513
764.734	0.0167112
764.812	0.0164928
764.890	0.0164684
764.968	0.0165007
765.047	0.0165335
765.125	0.0164181
765.203	0.0164470
765.281	0.0163811
765.359	0.0165715
765.437	0.0165791
765.515	0.0164659
765.593	0.0164146
765.672	0.0166120
765.750	0.0165426
765.828	0.0165443
765.906	0.0165720
765.984	0.0165087
766.062	0.0166405
766.140	0.0166483
766.218	0.0165673
766.297	0.0165334
766.375	0.0165597
766.453	0.0166129
766.531	0.0166740
766.609	0.0165524
766.687	0.0165673
766.765	0.0167574
766.843	0.0166005
766.922	0.0166702
767.000	0.0166352
767.078	0.0167317
767.156	0.0166417
767.234	0.0165646
767.312	0.0165691
767.390	0.0165911
767.468	0.0165829
767.547	0.0166649
767.625	0.0166090
767.703	0.0166132
767.781	0.0166143
767.859	0.0165560
767.937	0.0165359
768.015	0.0165876
768.093	0.0166671
768.172	0.0166280
768.250	0.0166486
768.328	0.0166140
768.406	0.0166542
768.484	0.0167254
768.562	0.0166906
768.640	0.0165529
768.718	0.0166659
768.797	0.0166054
768.875	0.0166887
768.953	0.0166942
769.031	0.0167014
769.109	0.0166758
769.187	0.0167869
769.265	0.0167152
769.343	0.0167223
769.422	0.0166496
769.500	0.0166664
769.578	0.0167082
769.656	0.0165977
769.734	0.0165839
769.812	0.0165981
769.890	0.0167599
769.968	0.0167618
770.047	0.0166437
770.125	0.0166900
770.203	0.0167135
770.281	0.0165092
770.359	0.0166344
770.437	0.0165983
770.515	0.0164912
770.593	0.0167229
770.672	0.0165119
770.750	0.0165771
770.828	0.0166151
770.906	0.0165595
770.984	0.0166949
771.062	0.0165525
771.140	0.0165118
771.218	0.0166222
771.297	0.0164879
771.375	0.0165295
771.453	0.0165750
771.531	0.0166162
771.609	0.0166055
771.687	0.0165635
771.765	0.0166412
771.843	0.0165322
771.922	0.0166772
772.000	0.0166681
772.078	0.0165409
772.156	0.0166584
772.234	0.0167505
772.312	0.0168519
772.390	0.0167023
772.468	0.0167389
772.547	0.0168922
772.625	0.0168124
772.703	0.0166747
772.781	0.0168845
772.859	0.0169359
772.937	0.0167412
773.015	0.0167699
773.093	0.0167787
773.172	0.0168317
773.250	0.0165958
773.328	0.0166274
773.406	0.0167917
773.484	0.0166444
773.562	0.0167031
773.640	0.0165290
773.718	0.0164928
773.797	0.0166248
773.875	0.0166620
773.953	0.0166261
774.031	0.0165866
774.109	0.0166751
774.187	0.0166278
774.265	0.0166400
774.343	0.0165710
774.422	0.0167362
774.500	0.0166940
774.578	0.0165817
774.656	0.0165218
774.734	0.0166540
774.812	0.0165718
774.890	0.0166446
774.968	0.0165501
775.047	0.0166121
775.125	0.0165939
775.203	0.0165464
775.281	0.0165957
775.359	0.0165540
775.437	0.0166223
775.515	0.0165810
775.593	0.0165280
775.672	0.0166470
775.750	0.0167944
775.828	0.0168340
775.906	0.0167168
775.984	0.0166580
776.062	0.0165866
776.140	0.0166312
776.218	0.0168043
776.297	0.0166608
776.375	0.0166525
776.453	0.0167254
776.531	0.0165795
776.609	0.0166574
776.687	0.0165674
776.765	0.0164391
776.843	0.0166530
776.922	0.0166501
777.000	0.0166364
777.078	0.0166251
777.156	0.0166792
777.234	0.0165121
777.312	0.0166276
777.390	0.0167038
777.468	0.0165323
777.547	0.0166110
777.625	0.0167373
777.703	0.0167706
777.781	0.0165691
777.859	0.0166262
777.937	0.0166464
778.015	0.0166273
778.093	0.0167601
778.172	0.0167812
778.250	0.0166970
778.328	0.0166822
778.406	0.0166836
778.484	0.0165179
778.562	0.0166056
778.640	0.0166370
778.718	0.0166043
778.797	0.0166035
778.875	0.0166766
778.953	0.0165885
779.031	0.0166265
779.109	0.0166303
779.187	0.0166666
779.265	0.0166301
779.343	0.0165881
779.422	0.0165942
779.500	0.0165321
779.578	0.0167918
779.656	0.0165897
779.734	0.0167086
779.812	0.0165821
779.890	0.0167122
779.968	0.0166577
780.047	0.0166830
780.125	0.0164820
780.203	0.0167790
780.281	0.0167854
780.359	0.0165751
780.437	0.0165920
780.515	0.0168271
780.593	0.0166029
780.672	0.0166374
780.750	0.0166742
780.828	0.0166713
780.906	0.0165387
780.984	0.0164622
781.062	0.0165824
781.140	0.0166293
781.218	0.0165466
781.297	0.0165542
781.375	0.0165771
781.453	0.0166320
781.531	0.0166788
781.609	0.0165588
781.687	0.0165756
781.765	0.0166628
781.843	0.0167126
781.922	0.0167410
782.000	0.0167642
782.078	0.0167316
782.156	0.0167007
782.234	0.0166611
782.312	0.0166830
782.390	0.0166607
782.468	0.0169215
782.547	0.0167117
782.625	0.0165890
782.703	0.0165917
782.781	0.0167784
782.859	0.0167091
782.937	0.0166623
783.015	0.0167588
783.093	0.0166756
783.172	0.0166640
783.250	0.0165713
783.328	0.0165417
783.406	0.0166808
783.484	0.0165846
783.562	0.0164587
783.640	0.0165901
783.718	0.0165205
783.797	0.0166119
783.875	0.0165779
783.953	0.0165465
784.031	0.0164978
784.109	0.0165167
784.187	0.0165272
784.265	0.0165877
784.343	0.0165753
784.422	0.0165176
784.500	0.0164772
784.578	0.0166642
784.656	0.0164625
784.734	0.0165250
784.812	0.0165624
784.890	0.0164272
784.968	0.0163796
785.047	0.0164906
785.125	0.0163914
785.203	0.0163809
785.281	0.0165360
785.359	0.0163680
785.437	0.0165109
785.515	0.0163953
785.593	0.0164245
785.672	0.0164767
785.750	0.0164941
785.828	0.0164663
785.906	0.0165533
785.984	0.0166016
786.062	0.0166611
786.140	0.0167223
786.218	0.0166356
786.297	0.0166353
786.375	0.0167325
786.453	0.0167162
786.531	0.0167552
786.609	0.0167262
786.687	0.0166139
786.765	0.0166168
786.843	0.0166666
786.922	0.0167380
787.000	0.0166328
787.078	0.0166634
787.156	0.0166624
787.234	0.0165842
787.312	0.0164848
787.390	0.0166196
787.468	0.0166757
787.547	0.0165341
787.625	0.0165553
787.703	0.0164889
787.781	0.0166916
787.859	0.0166359
787.937	0.0164851
788.015	0.0165278
788.093	0.0164844
788.172	0.0164751
788.250	0.0164287
788.328	0.0164715
788.406	0.0166608
788.484	0.0163764
788.562	0.0164075
788.640	0.0163480
788.718	0.0165518
788.797	0.0164748
788.875	0.0164505
788.953	0.0165244
789.031	0.0164631
789.109	0.0164828
789.187	0.0165868
789.265	0.0165181
789.343	0.0165994
789.422	0.0166496
789.500	0.0166302
789.578	0.0165649
789.656	0.0166321
789.734	0.0165842
789.812	0.0166459
789.890	0.0164888
789.968	0.0164569
790.047	0.0164877
790.125	0.0164286
790.203	0.0166818
790.281	0.0165668
790.359	0.0164836
790.437	0.0166288
790.515	0.0166708
790.593	0.0165826
790.672	0.0165482
790.750	0.0167242
790.828	0.0166167
790.906	0.0165560
790.984	0.0167249
791.062	0.0168096
791.140	0.0167363
791.218	0.0167528
791.297	0.0167495
791.375	0.0167539
791.453	0.0168845
791.531	0.0167756
791.609	0.0168188
791.687	0.0167991
791.765	0.0167874
791.843	0.0167233
791.922	0.0166995
792.000	0.0166845
792.078	0.0166853
792.156	0.0167803
792.234	0.0166628
792.312	0.0165930
792.390	0.0166256
792.468	0.0166190
792.547	0.0166201
792.625	0.0165732
792.703	0.0165651
792.781	0.0166315
792.859	0.0166793
792.937	0.0165480
793.015	0.0166709
793.093	0.0166350
793.172	0.0165553
793.250	0.0165152
793.328	0.0164364
793.406	0.0166466
793.484	0.0165845
793.562	0.0164481
793.640	0.0164227
793.718	0.0165353
793.797	0.0164732
793.875	0.0165395
793.953	0.0163135
794.031	0.0165096
794.109	0.0165954
794.187	0.0164121
794.265	0.0165896
794.343	0.0166181
794.422	0.0165258
794.500	0.0164088
794.578	0.0165775
794.656	0.0165649
794.734	0.0165704
794.812	0.0165905
794.890	0.0166268
794.968	0.0165652
795.047	0.0163759
795.125	0.0165501
795.203	0.0166866
795.281	0.0165961
795.359	0.0165980
795.437	0.0167789
795.515	0.0164146
795.593	0.0165792
795.672	0.0166414
795.750	0.0165437
795.828	0.0165917
795.906	0.0166541
795.984	0.0167246
796.062	0.0165150
796.140	0.0166337
796.218	0.0167228
796.297	0.0165253
796.375	0.0165314
796.453	0.0165204
796.531	0.0165702
796.609	0.0166386
796.687	0.0166409
796.765	0.0165699
796.843	0.0165204
796.922	0.0165488
797.000	0.0165720
797.078	0.0165623
797.156	0.0165289
797.234	0.0164091
797.312	0.0165820
797.390	0.0166245
797.468	0.0165348
797.547	0.0164162
797.625	0.0164639
797.703	0.0166051
797.781	0.0166035
797.859	0.0164300
797.937	0.0164664
798.015	0.0164603
798.093	0.0165238
798.172	0.0164624
798.250	0.0165908
798.328	0.0164674
798.406	0.0165314
798.484	0.0165586
798.562	0.0164428
798.640	0.0164101
798.718	0.0163168
798.797	0.0164259
798.875	0.0164607
798.953	0.0165230
799.031	0.0164139
799.109	0.0164140
799.187	0.0164119
799.265	0.0163866
799.343	0.0166232
799.422	0.0166119
799.500	0.0164207
799.578	0.0164522
799.656	0.0165005
799.734	0.0166169
799.812	0.0168056
799.890	0.0166798
799.968	0.0167179
800.047	0.0166405
800.125	0.0167874
800.203	0.0166282
800.281	0.0167004
800.359	0.0167001
800.437	0.0166095
800.515	0.0167316
800.593	0.0167195
800.672	0.0166537
800.750	0.0166798
800.828	0.0166911
800.906	0.0167562
800.984	0.0167204
801.062	0.0167101
801.140	0.0166505
801.218	0.0165898
801.297	0.0165181
801.375	0.0165246
801.453	0.0166565
801.531	0.0164673
801.609	0.0164466
801.687	0.0164913
801.765	0.0163950
801.843	0.0166081
801.922	0.0162335
802.000	0.0163168
802.078	0.0164383
802.156	0.0163344
802.234	0.0163065
802.312	0.0163454
802.390	0.0163627
802.468	0.0163986
802.547	0.0162815
802.625	0.0163797
802.703	0.0164149
802.781	0.0164634
802.859	0.0165168
802.937	0.0164687
803.015	0.0166111
803.093	0.0166486
803.172	0.0164672
803.250	0.0163660
803.328	0.0166357
803.406	0.0166695
803.484	0.0165978
803.562	0.0165454
803.640	0.0167036
803.718	0.0165752
803.797	0.0166092
803.875	0.0164799
803.953	0.0164693
804.031	0.0167902
804.109	0.0167992
804.187	0.0166793
804.265	0.0165626
804.343	0.0166840
804.422	0.0166280
804.500	0.0165526
804.578	0.0165610
804.656	0.0166463
804.734	0.0166891
804.812	0.0166142
804.890	0.0166498
804.968	0.0166341
805.047	0.0166248
805.125	0.0166652
805.203	0.0166990
805.281	0.0165633
805.359	0.0166129
805.437	0.0165432
805.515	0.0165458
805.593	0.0165157
805.672	0.0166376
805.750	0.0164699
805.828	0.0166002
805.906	0.0165829
805.984	0.0164553
806.062	0.0165395
806.140	0.0165364
806.218	0.0165849
806.297	0.0165508
806.375	0.0165307
806.453	0.0165334
806.531	0.0165103
806.609	0.0165694
806.687	0.0165665
806.765	0.0166468
806.843	0.0165202
806.922	0.0164615
807.000	0.0164532
807.078	0.0165647
807.156	0.0165894
807.234	0.0165651
807.312	0.0165831
807.390	0.0163882
807.468	0.0164262
807.547	0.0166300
807.625	0.0165918
807.703	0.0166586
807.781	0.0166193
807.859	0.0165359
807.937	0.0163776
808.015	0.0164642
808.093	0.0165865
808.172	0.0166612
808.250	0.0166248
808.328	0.0165015
808.406	0.0166478
808.484	0.0165591
808.562	0.0165484
808.640	0.0165553
808.718	0.0166379
808.797	0.0166260
808.875	0.0165527
808.953	0.0166503
809.031	0.0165135
809.109	0.0165801
809.187	0.0167184
809.265	0.0166860
809.343	0.0166219
809.422	0.0167479
809.500	0.0167239
809.578	0.0168175
809.656	0.0168233
809.734	0.0167317
809.812	0.0166540
809.890	0.0165850
809.968	0.0164481
810.047	0.0167332
810.125	0.0166219
810.203	0.0165995
810.281	0.0163853
810.359	0.0165952
810.437	0.0165325
810.515	0.0164791
810.593	0.0163685
810.672	0.0164135
810.750	0.0164275
810.828	0.0164053
810.906	0.0165045
810.984	0.0164704
811.062	0.0163120
811.140	0.0164304
811.218	0.0165854
811.297	0.0164150
811.375	0.0165081
811.453	0.0164704
811.531	0.0167050
811.609	0.0164469
811.687	0.0164661
811.765	0.0165910
811.843	0.0165872
811.922	0.0166219
812.000	0.0166376
812.078	0.0164616
812.156	0.0166856
812.234	0.0166662
812.312	0.0166214
812.390	0.0165479
812.468	0.0166374
812.547	0.0166155
812.625	0.0166750
812.703	0.0166736
812.781	0.0166936
812.859	0.0167203
812.937	0.0166343
813.015	0.0168135
813.093	0.0166755
813.172	0.0168270
813.250	0.0168208
813.328	0.0167105
813.406	0.0167803
813.484	0.0166191
813.562	0.0168035
813.640	0.0168480
813.718	0.0167370
813.797	0.0165458
813.875	0.0166103
813.953	0.0166941
814.031	0.0165858
814.109	0.0165365
814.187	0.0164655
814.265	0.0165510
814.343	0.0165317
814.422	0.0165088
814.500	0.0164889
814.578	0.0166466
814.656	0.0166599
814.734	0.0165156
814.812	0.0164562
814.890	0.0164556
814.968	0.0165215
815.047	0.0166132
815.125	0.0164609
815.203	0.0166354
815.281	0.0166600
815.359	0.0166293
815.437	0.0166060
815.515	0.0165639
815.593	0.0166022
815.672	0.0165738
815.750	0.0165774
815.828	0.0166997
815.906	0.0167477
815.984	0.0165334
816.062	0.0166628
816.140	0.0168817
816.218	0.0165617
816.297	0.0166039
816.375	0.0167981
816.453	0.0165705
816.531	0.0166509
816.609	0.0166482
816.687	0.0165422
816.765	0.0164890
816.843	0.0164583
816.922	0.0164834
817.000	0.0165044
817.078	0.0165515
817.156	0.0166479
817.234	0.0166038
817.312	0.0165316
817.390	0.0165383
817.468	0.0166239
817.547	0.0165639
817.625	0.0166161
817.703	0.0164871
817.781	0.0167102
817.859	0.0166591
817.937	0.0167043
818.015	0.0166615
818.093	0.0165527
818.172	0.0165639
818.250	0.0167245
818.328	0.0166431
818.406	0.0166219
818.484	0.0165838
818.562	0.0167323
818.640	0.0167377
818.718	0.0166977
818.797	0.0166661
818.875	0.0166125
818.953	0.0165263
819.031	0.0165163
819.109	0.0163684
819.187	0.0165029
819.265	0.0166369
819.343	0.0165998
819.422	0.0166537
819.500	0.0164948
819.578	0.0164799
819.656	0.0165031
819.734	0.0166204
819.812	0.0165939
819.890	0.0163303
819.968	0.0164806
820.047	0.0164711
820.125	0.0164025
820.203	0.0164042
820.281	0.0163421
820.359	0.0163624
820.437	0.0164149
820.515	0.0164893
820.593	0.0165459
820.672	0.0165794
820.750	0.0164612
820.828	0.0163552
820.906	0.0164816
820.984	0.0165478
821.062	0.0167084
821.140	0.0167921
821.218	0.0167603
821.297	0.0167139
821.375	0.0168075
821.453	0.0168556
821.531	0.0167361
821.609	0.0168397
821.687	0.0169328
821.765	0.0168874
821.843	0.0167683
821.922	0.0168114
822.000	0.0168021
822.078	0.0167728
822.156	0.0166971
822.234	0.0166507
822.312	0.0167422
822.390	0.0167660
822.468	0.0167045
822.547	0.0167462
822.625	0.0169330
822.703	0.0167271
822.781	0.0168063
822.859	0.0167731
822.937	0.0165421
823.015	0.0165572
823.093	0.0165748
823.172	0.0166695
823.250	0.0166161
823.328	0.0164966
823.406	0.0165633
823.484	0.0165844
823.562	0.0165599
823.640	0.0165012
823.718	0.0164366
823.797	0.0166473
823.875	0.0165083
823.953	0.0167027
824.031	0.0166090
824.109	0.0167199
824.187	0.0166207
824.265	0.0165755
824.343	0.0167059
824.422	0.0166743
824.500	0.0166614
824.578	0.0165755
824.656	0.0166572
824.734	0.0167275
824.812	0.0169427
824.890	0.0166563
824.968	0.0166645
825.047	0.0167880
825.125	0.0167749
825.203	0.0167238
825.281	0.0167558
825.359	0.0167341
825.437	0.0168364
825.515	0.0168331
825.593	0.0167473
825.672	0.0165951
825.750	0.0167072
825.828	0.0167437
825.906	0.0166615
825.984	0.0166703
826.062	0.0168485
826.140	0.0168153
826.218	0.0167027
826.297	0.0167928
826.375	0.0167102
826.453	0.0168167
826.531	0.0166177
826.609	0.0168179
826.687	0.0166798
826.765	0.0165899
826.843	0.0167413
826.922	0.0167600
827.000	0.0166312
827.078	0.0165980
827.156	0.0164783
827.234	0.0165895
827.312	0.0164529
827.390	0.0163555
827.468	0.0165173
827.547	0.0163938
827.625	0.0164969
827.703	0.0165059
827.781	0.0164498
827.859	0.0164456
827.937	0.0163972
828.015	0.0165636
828.093	0.0165485
828.172	0.0165784
828.250	0.0163059
828.328	0.0164321
828.406	0.0166083
828.484	0.0166591
828.562	0.0167362
828.640	0.0165741
828.718	0.0167406
828.797	0.0167426
828.875	0.0167387
828.953	0.0167962
829.031	0.0168002
829.109	0.0167905
829.187	0.0168491
829.265	0.0168382
829.343	0.0168177
829.422	0.0167417
829.500	0.0167711
829.578	0.0168868
829.656	0.0167386
829.734	0.0165958
829.812	0.0167352
829.890	0.0166269
829.968	0.0165710
830.047	0.0166893
830.125	0.0165053
830.203	0.0165395
830.281	0.0165448
830.359	0.0164268
830.437	0.0164983
830.515	0.0164544
830.593	0.0164275
830.672	0.0163856
830.750	0.0163999
830.828	0.0164188
830.906	0.0165569
830.984	0.0165319
831.062	0.0164497
831.140	0.0164772
831.218	0.0163943
831.297	0.0165745
831.375	0.0165740
831.453	0.0164926
831.531	0.0165365
831.609	0.0166562
831.687	0.0166122
831.765	0.0166608
831.843	0.0166094
831.922	0.0167275
832.000	0.0168302
832.078	0.0167793
832.156	0.0168762
832.234	0.0168666
832.312	0.0167761
832.390	0.0167973
832.468	0.0168379
832.547	0.0168340
832.625	0.0168640
832.703	0.0168948
832.781	0.0167860
832.859	0.0167943
832.937	0.0168532
833.015	0.0167198
833.093	0.0166476
833.172	0.0167246
833.250	0.0166293
833.328	0.0166858
833.406	0.0166164
833.484	0.0164717
833.562	0.0164927
833.640	0.0165111
833.718	0.0163645
833.797	0.0163238
833.875	0.0164919
833.953	0.0165350
834.031	0.0163226
834.109	0.0164447
834.187	0.0165469
834.265	0.0164711
834.343	0.0166082
834.422	0.0164423
834.500	0.0164858
834.578	0.0167241
834.656	0.0166116
834.734	0.0165437
834.812	0.0166051
834.890	0.0164648
834.968	0.0166832
835.047	0.0166342
835.125	0.0166954
835.203	0.0167693
835.281	0.0167096
835.359	0.0167241
835.437	0.0167394
835.515	0.0167710
835.593	0.0165514
835.672	0.0166225
835.750	0.0166354
835.828	0.0165437
835.906	0.0165913
835.984	0.0166107
836.062	0.0166091
836.140	0.0165340
836.218	0.0165768
836.297	0.0165347
836.375	0.0165910
836.453	0.0166290
836.531	0.0165249
836.609	0.0164377
836.687	0.0166693
836.765	0.0166630
836.843	0.0166447
836.922	0.0165838
837.000	0.0166858
837.078	0.0167422
837.156	0.0167763
837.234	0.0166764
837.312	0.0167644
837.390	0.0166832
837.468	0.0168100
837.547	0.0167680
837.625	0.0167979
837.703	0.0168069
837.781	0.0168868
837.859	0.0167947
837.937	0.0167267
838.015	0.0166748
838.093	0.0166253
838.172	0.0164272
838.250	0.0165906
838.328	0.0165951
838.406	0.0165908
838.484	0.0165759
838.562	0.0165662
838.640	0.0165486
838.718	0.0165701
838.797	0.0164258
838.875	0.0166493
838.953	0.0165212
839.031	0.0164572
839.109	0.0165172
839.187	0.0165747
839.265	0.0166199
839.343	0.0164444
839.422	0.0163932
839.500	0.0164717
839.578	0.0164874
839.656	0.0165259
839.734	0.0164075
839.812	0.0167146
839.890	0.0165720
839.968	0.0164703
840.047	0.0164903
840.125	0.0166219
840.203	0.0166590
840.281	0.0166396
840.359	0.0166073
840.437	0.0166525
840.515	0.0166325
840.593	0.0167121
840.672	0.0166526
840.750	0.0165616
840.828	0.0166029
840.906	0.0165692
840.984	0.0167796
841.062	0.0165413
841.140	0.0165788
841.218	0.0165807
841.297	0.0165317
841.375	0.0166430
841.453	0.0165631
841.531	0.0165972
841.609	0.0166557
841.687	0.0166252
841.765	0.0165384
841.843	0.0165556
841.922	0.0166943
842.000	0.0165678
842.078	0.0165651
842.156	0.0165924
842.234	0.0165069
842.312	0.0164745
842.390	0.0165456
842.468	0.0164387
842.547	0.0165423
842.625	0.0163362
842.703	0.0164700
842.781	0.0163514
842.859	0.0165134
842.937	0.0164581
843.015	0.0166102
843.093	0.0164369
843.172	0.0165207
843.250	0.0166007
843.328	0.0165301
843.406	0.0166643
843.484	0.0166830
843.562	0.0167701
843.640	0.0168026
843.718	0.0166341
843.797	0.0167420
843.875	0.0167641
843.953	0.0168233
844.031	0.0169204
844.109	0.0167416
844.187	0.0166747
844.265	0.0166384
844.343	0.0167653
844.422	0.0167875
844.500	0.0166272
844.578	0.0166096
844.656	0.0166241
844.734	0.0166805
844.812	0.0166557
844.890	0.0166440
844.968	0.0167268
845.047	0.0165111
845.125	0.0167377
845.203	0.0166985
845.281	0.0166116
845.359	0.0165755
845.437	0.0168011
845.515	0.0167014
845.593	0.0166008
845.672	0.0167178
845.750	0.0165604
845.828	0.0166533
845.906	0.0165821
845.984	0.0166013
846.062	0.0165133
846.140	0.0164892
846.218	0.0164710
846.297	0.0165309
846.375	0.0164317
846.453	0.0165363
846.531	0.0164500
846.609	0.0164880
846.687	0.0163926
846.765	0.0165535
846.843	0.0164762
846.922	0.0165549
847.000	0.0167368
847.078	0.0166080
847.156	0.0166567
847.234	0.0166535
847.312	0.0167703
847.390	0.0167185
847.468	0.0166486
847.547	0.0168077
847.625	0.0166320
847.703	0.0167889
847.781	0.0167101
847.859	0.0167628
847.937	0.0167245
848.015	0.0167258
848.093	0.0165086
848.172	0.0167004
848.250	0.0167804
848.328	0.0166734
848.406	0.0165887
848.484	0.0166828
848.562	0.0165878
848.640	0.0166202
848.718	0.0165926
848.797	0.0166384
848.875	0.0166209
848.953	0.0164250
849.031	0.0165500
849.109	0.0165735
849.187	0.0165926
849.265	0.0167091
849.343	0.0166452
849.422	0.0165127
849.500	0.0166744
849.578	0.0164059
849.656	0.0165597
849.734	0.0167514
849.812	0.0166631
849.890	0.0164929
849.968	0.0165186
850.047	0.0165493
850.125	0.0163948
850.203	0.0164388
850.281	0.0165513
850.359	0.0164216
850.437	0.0163689
850.515	0.0165668
850.593	0.0162872
850.672	0.0162698
850.750	0.0163471
850.828	0.0166361
850.906	0.0165620
850.984	0.0165652
851.062	0.0166310
851.140	0.0166856
851.218	0.0168086
851.297	0.0167456
851.375	0.0166280
851.453	0.0168747
851.531	0.0167368
851.609	0.0167681
851.687	0.0167372
851.765	0.0168018
851.843	0.0167314
851.922	0.0164689
852.000	0.0167580
852.078	0.0166520
852.156	0.0164696
852.234	0.0165328
852.312	0.0165156
852.390	0.0165378
852.468	0.0165203
852.547	0.0165921
852.625	0.0164985
852.703	0.0165781
852.781	0.0165949
852.859	0.0166403
852.937	0.0165988
853.015	0.0164739
853.093	0.0164111
853.172	0.0164216
853.250	0.0164609
853.328	0.0165611
853.406	0.0166306
853.484	0.0165440
853.562	0.0165992
853.640	0.0165891
853.718	0.0165170
853.797	0.0166357
853.875	0.0166521
853.953	0.0165425
854.031	0.0166985
854.109	0.0167245
854.187	0.0166119
854.265	0.0166010
854.343	0.0166117
854.422	0.0166396
854.500	0.0166755
854.578	0.0166600
854.656	0.0166584
854.734	0.0166125
854.812	0.0165488
854.890	0.0166398
854.968	0.0168021
855.047	0.0166965
855.125	0.0166967
855.203	0.0167623
855.281	0.0166790
855.359	0.0166710
855.437	0.0166035
855.515	0.0166471
855.593	0.0167273
855.672	0.0167458
855.750	0.0167570
855.828	0.0166311
855.906	0.0166368
855.984	0.0165995
856.062	0.0166028
856.140	0.0166302
856.218	0.0164536
856.297	0.0165961
856.375	0.0166668
856.453	0.0167838
856.531	0.0166453
856.609	0.0166451
856.687	0.0165585
856.765	0.0164045
856.843	0.0165398
856.922	0.0164523
857.000	0.0166444
857.078	0.0165737
857.156	0.0165396
857.234	0.0165404
857.312	0.0165823
857.390	0.0165594
857.468	0.0166114
857.547	0.0164003
857.625	0.0165846
857.703	0.0165614
857.781	0.0164866
857.859	0.0164440
857.937	0.0164526
858.015	0.0165950
858.093	0.0165510
858.172	0.0165120
858.250	0.0166621
858.328	0.0165382
858.406	0.0165629
858.484	0.0165329
858.562	0.0165617
858.640	0.0165967
858.718	0.0165671
858.797	0.0165487
858.875	0.0166061
858.953	0.0166286
859.031	0.0165983
859.109	0.0166155
859.187	0.0166946
859.265	0.0166372
859.343	0.0166613
859.422	0.0166711
859.500	0.0166856
859.578	0.0166521
859.656	0.0165850
859.734	0.0166075
859.812	0.0165090
859.890	0.0166606
859.968	0.0166698
860.047	0.0166332
860.125	0.0166697
860.203	0.0166773
860.281	0.0168028
860.359	0.0168679
860.437	0.0167027
860.515	0.0167051
860.593	0.0166773
860.672	0.0166671
860.750	0.0167056
860.828	0.0168055
860.906	0.0166370
860.984	0.0167603
861.062	0.0167739
861.140	0.0166087
861.218	0.0165917
861.297	0.0166204
861.375	0.0167481
861.453	0.0166442
861.531	0.0166831
861.609	0.0167342
861.687	0.0168486
861.765	0.0167794
861.843	0.0167243
861.922	0.0166573
862.000	0.0166005
862.078	0.0165351
862.156	0.0166723
862.234	0.0167216
862.312	0.0166507
862.390	0.0165442
862.468	0.0166642
862.547	0.0166659
862.625	0.0166089
862.703	0.0164486
862.781	0.0166541
862.859	0.0167250
862.937	0.0168404
863.015	0.0167302
863.093	0.0166849
863.172	0.0167178
863.250	0.0166014
863.328	0.0166022
863.406	0.0166364
863.484	0.0166138
863.562	0.0166665
863.640	0.0165464
863.718	0.0165626
863.797	0.0166034
863.875	0.0166103
863.953	0.0165276
864.031	0.0165472
864.109	0.0165081
864.187	0.0166205
864.265	0.0166051
864.343	0.0166030
864.422	0.0166056
864.500	0.0165425
864.578	0.0166842
864.656	0.0168027
864.734	0.0165616
864.812	0.0167512
864.890	0.0165887
864.968	0.0165018
865.047	0.0166932
865.125	0.0165984
865.203	0.0166191
865.281	0.0166140
865.359	0.0165556
865.437	0.0166240
865.515	0.0165702
865.593	0.0164754
865.672	0.0166136
865.750	0.0166746
865.828	0.0165718
865.906	0.0165691
865.984	0.0164948
866.062	0.0165585
866.140	0.0166432
866.218	0.0166084
866.297	0.0164577
866.375	0.0165527
866.453	0.0165975
866.531	0.0165901
866.609	0.0167149
866.687	0.0166335
866.765	0.0166097
866.843	0.0165958
866.922	0.0165533
867.000	0.0164467
867.078	0.0164752
867.156	0.0165347
867.234	0.0164644
867.312	0.0164274
867.390	0.0162727
867.468	0.0163566
867.547	0.0164268
867.625	0.0163049
867.703	0.0163268
867.781	0.0165752
867.859	0.0164417
867.937	0.0163801
868.015	0.0164887
868.093	0.0163909
868.172	0.0164034
868.250	0.0165305
868.328	0.0165003
868.406	0.0164790
868.484	0.0164484
868.562	0.0164227
868.640	0.0164857
868.718	0.0165550
868.797	0.0164713
868.875	0.0164573
868.953	0.0162940
869.031	0.0163245
869.109	0.0163226
869.187	0.0163163
869.265	0.0163153
869.343	0.0162931
869.422	0.0162743
869.500	0.0163236
869.578	0.0163490
869.656	0.0163338
869.734	0.0163222
869.812	0.0164294
869.890	0.0162936
869.968	0.0164487
870.047	0.0164372
870.125	0.0164641
870.203	0.0164769
870.281	0.0165414
870.359	0.0165294
870.437	0.0165716
870.515	0.0165215
870.593	0.0165997
870.672	0.0166329
870.750	0.0165498
870.828	0.0165409
870.906	0.0163782
870.984	0.0165666
871.062	0.0164933
871.140	0.0164491
871.218	0.0164972
871.297	0.0164530
871.375	0.0166415
871.453	0.0166936
871.531	0.0165553
871.609	0.0166504
871.687	0.0165827
871.765	0.0164517
871.843	0.0165280
871.922	0.0166032
872.000	0.0165962
872.078	0.0165677
872.156	0.0165137
872.234	0.0165347
872.312	0.0165150
872.390	0.0166487
872.468	0.0164925
872.547	0.0166373
872.625	0.0163554
872.703	0.0165298
872.781	0.0166336
872.859	0.0164462
872.937	0.0164798
873.015	0.0164355
873.093	0.0164560
873.172	0.0163892
873.250	0.0163921
873.328	0.0164261
873.406	0.0165870
873.484	0.0165216
873.562	0.0164060
873.640	0.0164715
873.718	0.0165238
873.797	0.0164294
873.875	0.0165027
873.953	0.0164905
874.031	0.0165745
874.109	0.0165057
874.187	0.0165721
874.265	0.0166493
874.343	0.0165003
874.422	0.0165131
874.500	0.0165068
874.578	0.0165579
874.656	0.0164286
874.734	0.0165357
874.812	0.0166543
874.890	0.0164725
874.968	0.0164247
875.047	0.0164764
875.125	0.0165171
875.203	0.0165704
875.281	0.0166229
875.359	0.0164843
875.437	0.0164090
875.515	0.0165726
875.593	0.0165139
875.672	0.0164594
875.750	0.0165617
875.828	0.0166550
875.906	0.0165885
875.984	0.0166528
876.062	0.0165968
876.140	0.0167110
876.218	0.0166486
876.297	0.0164865
876.375	0.0166345
876.453	0.0165749
876.531	0.0165706
876.609	0.0165910
876.687	0.0165629
876.765	0.0165339
876.843	0.0165163
876.922	0.0165411
877.000	0.0166383
877.078	0.0165214
877.156	0.0164787
877.234	0.0165520
877.312	0.0165183
877.390	0.0165305
877.468	0.0166909
877.547	0.0165288
877.625	0.0166011
877.703	0.0166454
877.781	0.0164773
877.859	0.0166233
877.937	0.0166152
878.015	0.0166715
878.093	0.0165704
878.172	0.0167360
878.250	0.0167637
878.328	0.0165794
878.406	0.0168443
878.484	0.0168038
878.562	0.0167351
878.640	0.0168034
878.718	0.0168607
878.797	0.0166920
878.875	0.0167046
878.953	0.0166207
879.031	0.0167828
879.109	0.0165497
879.187	0.0165112
879.265	0.0165884
879.343	0.0166154
879.422	0.0167606
879.500	0.0164987
879.578	0.0164577
879.656	0.0166423
879.734	0.0166461
879.812	0.0165780
879.890	0.0165601
879.968	0.0165338
880.047	0.0165521
880.125	0.0166891
880.203	0.0165377
880.281	0.0164564
880.359	0.0165118
880.437	0.0165457
880.515	0.0164610
880.593	0.0165279
880.672	0.0166296
880.750	0.0167197
880.828	0.0166485
880.906	0.0166289
880.984	0.0166905
881.062	0.0167429
881.140	0.0166736
881.218	0.0165483
881.297	0.0165585
881.375	0.0167193
881.453	0.0166333
881.531	0.0165788
881.609	0.0166139
881.687	0.0166612
881.765	0.0167463
881.843	0.0167209
881.922	0.0165208
882.000	0.0165569
882.078	0.0164877
882.156	0.0165308
882.234	0.0164862
882.312	0.0165195
882.390	0.0165624
882.468	0.0165343
882.547	0.0164398
882.625	0.0164635
882.703	0.0164396
882.781	0.0165172
882.859	0.0166080
882.937	0.0164805
883.015	0.0165581
883.093	0.0165164
883.172	0.0165848
883.250	0.0165543
883.328	0.0167010
883.406	0.0166344
883.484	0.0165692
883.562	0.0166960
883.640	0.0166981
883.718	0.0166297
883.797	0.0167596
883.875	0.0166181
883.953	0.0166151
884.031	0.0166663
884.109	0.0166123
884.187	0.0165995
884.265	0.0164694
884.343	0.0166250
884.422	0.0165974
884.500	0.0164350
884.578	0.0166042
884.656	0.0163816
884.734	0.0165965
884.812	0.0164878
884.890	0.0163873
884.968	0.0164605
885.047	0.0165019
885.125	0.0166538
885.203	0.0166828
885.281	0.0165538
885.359	0.0165107
885.437	0.0165733
885.515	0.0165929
885.593	0.0167088
885.672	0.0166249
885.750	0.0166927
885.828	0.0166493
885.906	0.0166550
885.984	0.0166246
886.062	0.0165616
886.140	0.0165381
886.218	0.0165990
886.297	0.0167359
886.375	0.0166360
886.453	0.0166297
886.531	0.0165118
886.609	0.0167239
886.687	0.0165546
886.765	0.0165072
886.843	0.0166552
886.922	0.0166800
887.000	0.0167542
887.078	0.0166113
887.156	0.0165582
887.234	0.0164729
887.312	0.0164808
887.390	0.0166283
887.468	0.0165295
887.547	0.0165253
887.625	0.0166016
887.703	0.0166029
887.781	0.0167722
887.859	0.0165672
887.937	0.0164034
888.015	0.0167826
888.093	0.0166749
888.172	0.0166582
888.250	0.0166447
888.328	0.0166171
888.406	0.0165477
888.484	0.0166477
888.562	0.0164871
888.640	0.0165598
888.718	0.0165561
888.797	0.0167091
888.875	0.0165179
888.953	0.0165793
889.031	0.0164752
889.109	0.0165401
889.187	0.0165507
889.265	0.0165238
889.343	0.0165956
889.422	0.0166039
889.500	0.0165481
889.578	0.0166255
889.656	0.0166364
889.734	0.0165427
889.812	0.0165203
889.890	0.0164629
889.968	0.0164575
890.047	0.0165544
890.125	0.0165883
890.203	0.0165703
890.281	0.0166719
890.359	0.0165545
890.437	0.0165819
890.515	0.0165815
890.593	0.0165420
890.672	0.0165509
890.750	0.0164761
890.828	0.0165867
890.906	0.0165311
890.984	0.0165439
891.062	0.0163235
891.140	0.0164417
891.218	0.0166654
891.297	0.0165182
891.375	0.0165320
891.453	0.0164390
891.531	0.0165454
891.609	0.0165342
891.687	0.0164599
891.765	0.0165076
891.843	0.0164804
891.922	0.0164847
892.000	0.0165640
892.078	0.0164386
892.156	0.0165674
892.234	0.0164548
892.312	0.0164706
892.390	0.0164672
892.468	0.0164300
892.547	0.0164227
892.625	0.0165218
892.703	0.0164856
892.781	0.0165010
892.859	0.0164700
892.937	0.0164124
893.015	0.0164346
893.093	0.0162514
893.172	0.0164442
893.250	0.0165241
893.328	0.0164198
893.406	0.0164742
893.484	0.0164520
893.562	0.0166132
893.640	0.0164610
893.718	0.0165720
893.797	0.0165762
893.875	0.0165773
893.953	0.0164169
894.031	0.0165205
894.109	0.0165477
894.187	0.0166090
894.265	0.0164880
894.343	0.0166396
894.422	0.0166331
894.500	0.0165539
894.578	0.0165572
894.656	0.0165526
894.734	0.0165732
894.812	0.0164646
894.890	0.0164944
894.968	0.0165780
895.047	0.0163402
895.125	0.0163853
895.203	0.0165409
895.281	0.0165281
895.359	0.0164288
895.437	0.0165454
895.515	0.0164516
895.593	0.0164376
895.672	0.0164671
895.750	0.0166762
895.828	0.0166457
895.906	0.0164601
895.984	0.0164109
896.062	0.0164504
896.140	0.0165971
896.218	0.0165806
896.297	0.0167276
896.375	0.0164502
896.453	0.0165691
896.531	0.0166563
896.609	0.0164394
896.687	0.0165656
896.765	0.0164542
896.843	0.0165847
896.922	0.0165602
897.000	0.0164305
897.078	0.0165182
897.156	0.0165529
897.234	0.0165076
897.312	0.0165482
897.390	0.0166500
897.468	0.0166118
897.547	0.0164959
897.625	0.0165489
897.703	0.0164149
897.781	0.0166398
897.859	0.0165967
897.937	0.0165067
898.015	0.0166449
898.093	0.0167834
898.172	0.0166599
898.250	0.0166001
898.328	0.0167290
898.406	0.0165964
898.484	0.0165646
898.562	0.0166728
898.640	0.0166216
898.718	0.0166535
898.797	0.0164972
898.875	0.0165732
898.953	0.0165846
899.031	0.0166368
899.109	0.0166322
899.187	0.0166573
899.265	0.0165206
899.343	0.0167081
899.422	0.0166632
899.500	0.0166121
899.578	0.0165624
899.656	0.0166315
899.734	0.0165756
899.812	0.0166936
899.890	0.0166667
899.968	0.0166719
900.047	0.0168185
900.125	0.0166152
900.203	0.0166897
900.281	0.0166782
900.359	0.0167220
900.437	0.0166157
900.515	0.0166798
900.593	0.0166378
900.672	0.0165176
900.750	0.0166466
900.828	0.0167257
900.906	0.0166748
900.984	0.0167208
901.062	0.0167242
901.140	0.0165652
901.218	0.0166362
901.297	0.0166563
901.375	0.0167685
901.453	0.0168112
901.531	0.0166664
901.609	0.0166217
901.687	0.0166790
901.765	0.0167767
901.843	0.0168447
901.922	0.0166872
902.000	0.0168304
902.078	0.0167990
902.156	0.0167850
902.234	0.0167397
902.312	0.0167234
902.390	0.0167913
902.468	0.0167898
902.547	0.0166621
902.625	0.0167204
902.703	0.0167352
902.781	0.0166783
902.859	0.0168134
902.937	0.0166354
903.015	0.0167423
903.093	0.0166008
903.172	0.0166395
903.250	0.0167041
903.328	0.0166953
903.406	0.0166691
903.484	0.0166812
903.562	0.0166423
903.640	0.0166235
903.718	0.0165784
903.797	0.0166179
903.875	0.0166573
903.953	0.0165649
904.031	0.0166019
904.109	0.0166553
904.187	0.0165989
904.265	0.0165909
904.343	0.0166428
904.422	0.0166163
904.500	0.0164920
904.578	0.0166754
904.656	0.0166523
904.734	0.0167162
904.812	0.0165896
904.890	0.0166789
904.968	0.0167275
905.047	0.0166587
905.125	0.0166739
905.203	0.0166482
905.281	0.0165744
905.359	0.0167006
905.437	0.0167164
905.515	0.0166695
905.593	0.0167075
905.672	0.0166936
905.750	0.0166390
905.828	0.0167155
905.906	0.0165816
905.984	0.0165952
906.062	0.0167519
906.140	0.0165536
906.218	0.0166293
906.297	0.0165028
906.375	0.0165039
906.453	0.0165643
906.531	0.0165639
906.609	0.0164605
906.687	0.0166870
906.765	0.0166263
906.843	0.0165108
906.922	0.0164220
907.000	0.0164622
907.078	0.0165347
907.156	0.0164890
907.234	0.0164859
907.312	0.0165858
907.390	0.0165307
907.468	0.0165647
907.547	0.0166022
907.625	0.0166517
907.703	0.0165070
907.781	0.0166682
907.859	0.0165543
907.937	0.0163577
908.015	0.0165499
908.093	0.0166073
908.172	0.0165293
908.250	0.0165318
908.328	0.0165294
908.406	0.0165737
908.484	0.0165870
908.562	0.0165090
908.640	0.0164462
908.718	0.0166415
908.797	0.0166213
908.875	0.0166409
908.953	0.0166308
909.031	0.0164959
909.109	0.0163831
909.187	0.0165204
909.265	0.0165116
909.343	0.0163161
909.422	0.0165031
909.500	0.0164612
909.578	0.0165601
909.656	0.0163105
909.734	0.0165047
909.812	0.0164886
909.890	0.0164300
909.968	0.0165472
910.047	0.0166878
910.125	0.0166943
910.203	0.0164951
910.281	0.0166010
910.359	0.0165828
910.437	0.0166596
910.515	0.0166597
910.593	0.0165894
910.672	0.0167087
910.750	0.0166681
910.828	0.0166280
910.906	0.0165813
910.984	0.0165880
911.062	0.0167344
911.140	0.0166446
911.218	0.0166460
911.297	0.0166847
911.375	0.0165572
911.453	0.0166911
911.531	0.0167862
911.609	0.0167017
911.687	0.0165376
911.765	0.0165820
911.843	0.0167101
911.922	0.0166663
912.000	0.0164555
912.078	0.0166052
912.156	0.0166397
912.234	0.0167124
912.312	0.0166096
912.390	0.0165347
912.468	0.0165888
912.547	0.0166251
912.625	0.0165477
912.703	0.0163815
912.781	0.0165205
912.859	0.0163929
912.937	0.0164407
913.015	0.0164001
913.093	0.0163797
913.172	0.0163264
913.250	0.0164897
913.328	0.0165051
913.406	0.0163902
913.484	0.0166028
913.562	0.0165355
913.640	0.0165742
913.718	0.0165276
913.797	0.0164793
913.875	0.0165234
913.953	0.0166380
914.031	0.0166436
914.109	0.0165151
914.187	0.0166091
914.265	0.0166212
914.343	0.0166407
914.422	0.0165176
914.500	0.0165446
914.578	0.0165976
914.656	0.0165505
914.734	0.0165534
914.812	0.0165509
914.890	0.0164069
914.968	0.0163060
915.047	0.0165556
915.125	0.0164514
915.203	0.0164415
915.281	0.0165429
915.359	0.0164867
915.437	0.0166234
915.515	0.0164845
915.593	0.0163805
915.672	0.0164974
915.750	0.0165065
915.828	0.0163760
915.906	0.0165240
915.984	0.0164863
916.062	0.0164391
916.140	0.0164858
916.218	0.0166222
916.297	0.0164822
916.375	0.0164486
916.453	0.0166151
916.531	0.0164953
916.609	0.0164669
916.687	0.0166036
916.765	0.0165133
916.843	0.0163734
916.922	0.0164605
917.000	0.0164588
917.078	0.0166129
917.156	0.0165082
917.234	0.0163662
917.312	0.0164845
917.390	0.0165003
917.468	0.0164709
917.547	0.0164919
917.625	0.0166403
917.703	0.0165464
917.781	0.0166145
917.859	0.0165982
917.937	0.0166382
918.015	0.0165871
918.093	0.0165685
918.172	0.0165363
918.250	0.0164892
918.328	0.0165942
918.406	0.0166225
918.484	0.0165019
918.562	0.0165453
918.640	0.0164949
918.718	0.0166219
918.797	0.0167064
918.875	0.0166270
918.953	0.0165314
919.031	0.0165792
919.109	0.0165411
919.187	0.0167104
919.265	0.0166168
919.343	0.0164857
919.422	0.0165645
919.500	0.0167046
919.578	0.0165237
919.656	0.0165505
919.734	0.0167015
919.812	0.0165852
919.890	0.0166692
