06/13/2022	15:14:50	Ver.	4.1	UNKNOWN
Optical Delay	599.961724	Delta X		0.078125	Sweeps	1	Scan Rate	0/0
Coordinates	Axis 1	NaN	Axis 2	NaN	Axis 3	NaN	Axis 4	NaN	Axis 5	NaN	Axis 6	0.000000
TX Power	0.000000	RX Power	0.000000

599.962	0.0170096
600.040	0.0168333
600.118	0.0169149
600.196	0.0170090
600.274	0.0170177
600.352	0.0169994
600.430	0.0170107
600.509	0.0169482
600.587	0.0170850
600.665	0.0170261
600.743	0.0170267
600.821	0.0168850
600.899	0.0170551
600.977	0.0169969
601.055	0.0170583
601.134	0.0170526
601.212	0.0168452
601.290	0.0168896
601.368	0.0169681
601.446	0.0168893
601.524	0.0168233
601.602	0.0168633
601.680	0.0169574
601.759	0.0168338
601.837	0.0166763
601.915	0.0168236
601.993	0.0167462
602.071	0.0167529
602.149	0.0167231
602.227	0.0168674
602.305	0.0168382
602.384	0.0169117
602.462	0.0168129
602.540	0.0168020
602.618	0.0168322
602.696	0.0169347
602.774	0.0167218
602.852	0.0167598
602.930	0.0167935
603.009	0.0167657
603.087	0.0167583
603.165	0.0167668
603.243	0.0166914
603.321	0.0167236
603.399	0.0167506
603.477	0.0166914
603.555	0.0166673
603.634	0.0165628
603.712	0.0164998
603.790	0.0166305
603.868	0.0167353
603.946	0.0165968
604.024	0.0166590
604.102	0.0165015
604.180	0.0165112
604.259	0.0166309
604.337	0.0168101
604.415	0.0166993
604.493	0.0167300
604.571	0.0166595
604.649	0.0166669
604.727	0.0166106
604.805	0.0166933
604.884	0.0167864
604.962	0.0167908
605.040	0.0167676
605.118	0.0166598
605.196	0.0166569
605.274	0.0166793
605.352	0.0166933
605.430	0.0166055
605.509	0.0166927
605.587	0.0167730
605.665	0.0167616
605.743	0.0168392
605.821	0.0166853
605.899	0.0166177
605.977	0.0167688
606.055	0.0168116
606.134	0.0168238
606.212	0.0167747
606.290	0.0166987
606.368	0.0168789
606.446	0.0166753
606.524	0.0167371
606.602	0.0166859
606.680	0.0166875
606.759	0.0167471
606.837	0.0167708
606.915	0.0168691
606.993	0.0167747
607.071	0.0168040
607.149	0.0168875
607.227	0.0169012
607.305	0.0168732
607.384	0.0167983
607.462	0.0168458
607.540	0.0168690
607.618	0.0171216
607.696	0.0169395
607.774	0.0167292
607.852	0.0168948
607.930	0.0169304
608.009	0.0168240
608.087	0.0170911
608.165	0.0169224
608.243	0.0169144
608.321	0.0171429
608.399	0.0169775
608.477	0.0170209
608.555	0.0169684
608.634	0.0169044
608.712	0.0169646
608.790	0.0169685
608.868	0.0171164
608.946	0.0169084
609.024	0.0167885
609.102	0.0169331
609.180	0.0169465
609.259	0.0168366
609.337	0.0168369
609.415	0.0168578
609.493	0.0168492
609.571	0.0167364
609.649	0.0168448
609.727	0.0170052
609.805	0.0167570
609.884	0.0168996
609.962	0.0169389
610.040	0.0168817
610.118	0.0168974
610.196	0.0170278
610.274	0.0169807
610.352	0.0170004
610.430	0.0171360
610.509	0.0171889
610.587	0.0171110
610.665	0.0170309
610.743	0.0171408
610.821	0.0171836
610.899	0.0170860
610.977	0.0171230
611.055	0.0170222
611.134	0.0170343
611.212	0.0169436
611.290	0.0171728
611.368	0.0169810
611.446	0.0168576
611.524	0.0169253
611.602	0.0168757
611.680	0.0171391
611.759	0.0169251
611.837	0.0168410
611.915	0.0168821
611.993	0.0169738
612.071	0.0168990
612.149	0.0168523
612.227	0.0168414
612.305	0.0168797
612.384	0.0169583
612.462	0.0169542
612.540	0.0168692
612.618	0.0167979
612.696	0.0168147
612.774	0.0168325
612.852	0.0168087
612.930	0.0170368
613.009	0.0169862
613.087	0.0168858
613.165	0.0169735
613.243	0.0169725
613.321	0.0168807
613.399	0.0170293
613.477	0.0171010
613.555	0.0170592
613.634	0.0167955
613.712	0.0168941
613.790	0.0169026
613.868	0.0169297
613.946	0.0170007
614.024	0.0169193
614.102	0.0169160
614.180	0.0169836
614.259	0.0171612
614.337	0.0170474
614.415	0.0170274
614.493	0.0169579
614.571	0.0169710
614.649	0.0170705
614.727	0.0169604
614.805	0.0170011
614.884	0.0169592
614.962	0.0169865
615.040	0.0169158
615.118	0.0169821
615.196	0.0169963
615.274	0.0170041
615.352	0.0170186
615.430	0.0169801
615.509	0.0170104
615.587	0.0168784
615.665	0.0169669
615.743	0.0169836
615.821	0.0168610
615.899	0.0168519
615.977	0.0169976
616.055	0.0169399
616.134	0.0170434
616.212	0.0167963
616.290	0.0168810
616.368	0.0169611
616.446	0.0168197
616.524	0.0168635
616.602	0.0169120
616.680	0.0168645
616.759	0.0169482
616.837	0.0170294
616.915	0.0168719
616.993	0.0168714
617.071	0.0169979
617.149	0.0170748
617.227	0.0170045
617.305	0.0170137
617.384	0.0170296
617.462	0.0169795
617.540	0.0169388
617.618	0.0168835
617.696	0.0170245
617.774	0.0171172
617.852	0.0170716
617.930	0.0170377
618.009	0.0171392
618.087	0.0170784
618.165	0.0171187
618.243	0.0170860
618.321	0.0170464
618.399	0.0171847
618.477	0.0170831
618.555	0.0170233
618.634	0.0172601
618.712	0.0171817
618.790	0.0172038
618.868	0.0171225
618.946	0.0171493
619.024	0.0172234
619.102	0.0170652
619.180	0.0170460
619.259	0.0171252
619.337	0.0173041
619.415	0.0171825
619.493	0.0171267
619.571	0.0170602
619.649	0.0169807
619.727	0.0171709
619.805	0.0168596
619.884	0.0170182
619.962	0.0170605
620.040	0.0170473
620.118	0.0170596
620.196	0.0169916
620.274	0.0170398
620.352	0.0168658
620.430	0.0169345
620.509	0.0169034
620.587	0.0170109
620.665	0.0169368
620.743	0.0169699
620.821	0.0170109
620.899	0.0169648
620.977	0.0169985
621.055	0.0170464
621.134	0.0170645
621.212	0.0170389
621.290	0.0170950
621.368	0.0168598
621.446	0.0168556
621.524	0.0169768
621.602	0.0168514
621.680	0.0169377
621.759	0.0168779
621.837	0.0169529
621.915	0.0169517
621.993	0.0168282
622.071	0.0170333
622.149	0.0168979
622.227	0.0168339
622.305	0.0169275
622.384	0.0169065
622.462	0.0169817
622.540	0.0170570
622.618	0.0170043
622.696	0.0169286
622.774	0.0169985
622.852	0.0170409
622.930	0.0170779
623.009	0.0170158
623.087	0.0169308
623.165	0.0171459
623.243	0.0169714
623.321	0.0169489
623.399	0.0169499
623.477	0.0170374
623.555	0.0170673
623.634	0.0170551
623.712	0.0170311
623.790	0.0170467
623.868	0.0168273
623.946	0.0170025
624.024	0.0168723
624.102	0.0168887
624.180	0.0169042
624.259	0.0169453
624.337	0.0168581
624.415	0.0169293
624.493	0.0168333
624.571	0.0169338
624.649	0.0169305
624.727	0.0168820
624.805	0.0169562
624.884	0.0169983
624.962	0.0169007
625.040	0.0169917
625.118	0.0169151
625.196	0.0169464
625.274	0.0168716
625.352	0.0169231
625.430	0.0170257
625.509	0.0169608
625.587	0.0170371
625.665	0.0168720
625.743	0.0168970
625.821	0.0170253
625.899	0.0169337
625.977	0.0167963
626.055	0.0169073
626.134	0.0170103
626.212	0.0168840
626.290	0.0169351
626.368	0.0168996
626.446	0.0168658
626.524	0.0168997
626.602	0.0168295
626.680	0.0168087
626.759	0.0168587
626.837	0.0166969
626.915	0.0168449
626.993	0.0167503
627.071	0.0167904
627.149	0.0167403
627.227	0.0166526
627.305	0.0168678
627.384	0.0168558
627.462	0.0166907
627.540	0.0166851
627.618	0.0167497
627.696	0.0167052
627.774	0.0166165
627.852	0.0167133
627.930	0.0166525
628.009	0.0167418
628.087	0.0167691
628.165	0.0166724
628.243	0.0166742
628.321	0.0165636
628.399	0.0165482
628.477	0.0164986
628.555	0.0165447
628.634	0.0166444
628.712	0.0165859
628.790	0.0165031
628.868	0.0164616
628.946	0.0165654
629.024	0.0164916
629.102	0.0164952
629.180	0.0163921
629.259	0.0164505
629.337	0.0164703
629.415	0.0164819
629.493	0.0164114
629.571	0.0163602
629.649	0.0162562
629.727	0.0164415
629.805	0.0165036
629.884	0.0166402
629.962	0.0164820
630.040	0.0164471
630.118	0.0164544
630.196	0.0166783
630.274	0.0165940
630.352	0.0164755
630.430	0.0166765
630.509	0.0166009
630.587	0.0165506
630.665	0.0165009
630.743	0.0166286
630.821	0.0165369
630.899	0.0167770
630.977	0.0166947
631.055	0.0167115
631.134	0.0166214
631.212	0.0166839
631.290	0.0167140
631.368	0.0167284
631.446	0.0167792
631.524	0.0169684
631.602	0.0168156
631.680	0.0168329
631.759	0.0167286
631.837	0.0167922
631.915	0.0167613
631.993	0.0168084
632.071	0.0168943
632.149	0.0168417
632.227	0.0167245
632.305	0.0167743
632.384	0.0168688
632.462	0.0167980
632.540	0.0167198
632.618	0.0168871
632.696	0.0169083
632.774	0.0168213
632.852	0.0168190
632.930	0.0168718
633.009	0.0167716
633.087	0.0168061
633.165	0.0168533
633.243	0.0169773
633.321	0.0167799
633.399	0.0168588
633.477	0.0167826
633.555	0.0168150
633.634	0.0167918
633.712	0.0168971
633.790	0.0169501
633.868	0.0169940
633.946	0.0170205
634.024	0.0167803
634.102	0.0170123
634.180	0.0169650
634.259	0.0168958
634.337	0.0169851
634.415	0.0170968
634.493	0.0168961
634.571	0.0170026
634.649	0.0169850
634.727	0.0169141
634.805	0.0169978
634.884	0.0169517
634.962	0.0168517
635.040	0.0169351
635.118	0.0170662
635.196	0.0170505
635.274	0.0170455
635.352	0.0170026
635.430	0.0170662
635.509	0.0169835
635.587	0.0170018
635.665	0.0170101
635.743	0.0170923
635.821	0.0169567
635.899	0.0169817
635.977	0.0170831
636.055	0.0170802
636.134	0.0170029
636.212	0.0171226
636.290	0.0170594
636.368	0.0170174
636.446	0.0170153
636.524	0.0169951
636.602	0.0171104
636.680	0.0169376
636.759	0.0171480
636.837	0.0171459
636.915	0.0170988
636.993	0.0170313
637.071	0.0170188
637.149	0.0170448
637.227	0.0170480
637.305	0.0171737
637.384	0.0170825
637.462	0.0170102
637.540	0.0170867
637.618	0.0170885
637.696	0.0170348
637.774	0.0171686
637.852	0.0170824
637.930	0.0172085
638.009	0.0171301
638.087	0.0170412
638.165	0.0171648
638.243	0.0171288
638.321	0.0171172
638.399	0.0171645
638.477	0.0171870
638.555	0.0171835
638.634	0.0169313
638.712	0.0170454
638.790	0.0170355
638.868	0.0172112
638.946	0.0171964
639.024	0.0171792
639.102	0.0171583
639.180	0.0169737
639.259	0.0170218
639.337	0.0171556
639.415	0.0170750
639.493	0.0171027
639.571	0.0169717
639.649	0.0170464
639.727	0.0170638
639.805	0.0170617
639.884	0.0170061
639.962	0.0169996
640.040	0.0170361
640.118	0.0169492
640.196	0.0170766
640.274	0.0170129
640.352	0.0170759
640.430	0.0168806
640.509	0.0169758
640.587	0.0170588
640.665	0.0168936
640.743	0.0170426
640.821	0.0170655
640.899	0.0170886
640.977	0.0169953
641.055	0.0170171
641.134	0.0169111
641.212	0.0169106
641.290	0.0170885
641.368	0.0170920
641.446	0.0169221
641.524	0.0170422
641.602	0.0170514
641.680	0.0169788
641.759	0.0171606
641.837	0.0171780
641.915	0.0170764
641.993	0.0170423
642.071	0.0170260
642.149	0.0170700
642.227	0.0170374
642.305	0.0171455
642.384	0.0169951
642.462	0.0171168
642.540	0.0170815
642.618	0.0169551
642.696	0.0169711
642.774	0.0170591
642.852	0.0169390
642.930	0.0169743
643.009	0.0169763
643.087	0.0169258
643.165	0.0169868
643.243	0.0169328
643.321	0.0169279
643.399	0.0169592
643.477	0.0169893
643.555	0.0170356
643.634	0.0169877
643.712	0.0169392
643.790	0.0170882
643.868	0.0169005
643.946	0.0169395
644.024	0.0169070
644.102	0.0169901
644.180	0.0170637
644.259	0.0171029
644.337	0.0168726
644.415	0.0169138
644.493	0.0168642
644.571	0.0170228
644.649	0.0170074
644.727	0.0170432
644.805	0.0169578
644.884	0.0170055
644.962	0.0170037
645.040	0.0170171
645.118	0.0170190
645.196	0.0170533
645.274	0.0170697
645.352	0.0169706
645.430	0.0169432
645.509	0.0170164
645.587	0.0169704
645.665	0.0169782
645.743	0.0168315
645.821	0.0169713
645.899	0.0169321
645.977	0.0169363
646.055	0.0169268
646.134	0.0169513
646.212	0.0170033
646.290	0.0169643
646.368	0.0169209
646.446	0.0169307
646.524	0.0169666
646.602	0.0169333
646.680	0.0169145
646.759	0.0169872
646.837	0.0169184
646.915	0.0168982
646.993	0.0168324
647.071	0.0168070
647.149	0.0170039
647.227	0.0168034
647.305	0.0168214
647.384	0.0169634
647.462	0.0170852
647.540	0.0168758
647.618	0.0168316
647.696	0.0169098
647.774	0.0168682
647.852	0.0168780
647.930	0.0169551
648.009	0.0168775
648.087	0.0168462
648.165	0.0168538
648.243	0.0167711
648.321	0.0168555
648.399	0.0168995
648.477	0.0168633
648.555	0.0168465
648.634	0.0167592
648.712	0.0168038
648.790	0.0167677
648.868	0.0167094
648.946	0.0168456
649.024	0.0168188
649.102	0.0169489
649.180	0.0167332
649.259	0.0167899
649.337	0.0167963
649.415	0.0168221
649.493	0.0167899
649.571	0.0167612
649.649	0.0168542
649.727	0.0168833
649.805	0.0169516
649.884	0.0167863
649.962	0.0168046
650.040	0.0169041
650.118	0.0167346
650.196	0.0167690
650.274	0.0167710
650.352	0.0167374
650.430	0.0168208
650.509	0.0167666
650.587	0.0167764
650.665	0.0168941
650.743	0.0167381
650.821	0.0166291
650.899	0.0168246
650.977	0.0168349
651.055	0.0167973
651.134	0.0168658
651.212	0.0166470
651.290	0.0168310
651.368	0.0167557
651.446	0.0166719
651.524	0.0167384
651.602	0.0167559
651.680	0.0166496
651.759	0.0167600
651.837	0.0168665
651.915	0.0168646
651.993	0.0168198
652.071	0.0167683
652.149	0.0167973
652.227	0.0168397
652.305	0.0168016
652.384	0.0166827
652.462	0.0168779
652.540	0.0166870
652.618	0.0167496
652.696	0.0167133
652.774	0.0168919
652.852	0.0167048
652.930	0.0168368
653.009	0.0168848
653.087	0.0167147
653.165	0.0168085
653.243	0.0167500
653.321	0.0167417
653.399	0.0168850
653.477	0.0168692
653.555	0.0168351
653.634	0.0169540
653.712	0.0170143
653.790	0.0168685
653.868	0.0168681
653.946	0.0167465
654.024	0.0168378
654.102	0.0169030
654.180	0.0169006
654.259	0.0168822
654.337	0.0170132
654.415	0.0168948
654.493	0.0169134
654.571	0.0169324
654.649	0.0169135
654.727	0.0169180
654.805	0.0167756
654.884	0.0169191
654.962	0.0168532
655.040	0.0169820
655.118	0.0170480
655.196	0.0168513
655.274	0.0168868
655.352	0.0168599
655.430	0.0169200
655.509	0.0169052
655.587	0.0169014
655.665	0.0168598
655.743	0.0169206
655.821	0.0169316
655.899	0.0168977
655.977	0.0169483
656.055	0.0168817
656.134	0.0168417
656.212	0.0168714
656.290	0.0167525
656.368	0.0169835
656.446	0.0168585
656.524	0.0168915
656.602	0.0169320
656.680	0.0168696
656.759	0.0169444
656.837	0.0170287
656.915	0.0168699
656.993	0.0169276
657.071	0.0167754
657.149	0.0169210
657.227	0.0168331
657.305	0.0168780
657.384	0.0169102
657.462	0.0169040
657.540	0.0169756
657.618	0.0167628
657.696	0.0168173
657.774	0.0168492
657.852	0.0168877
657.930	0.0168516
658.009	0.0169061
658.087	0.0168719
658.165	0.0167565
658.243	0.0168691
658.321	0.0169880
658.399	0.0168894
658.477	0.0169652
658.555	0.0170093
658.634	0.0168655
658.712	0.0169681
658.790	0.0170004
658.868	0.0169392
658.946	0.0169955
659.024	0.0168555
659.102	0.0169443
659.180	0.0170181
659.259	0.0169479
659.337	0.0169717
659.415	0.0169671
659.493	0.0168784
659.571	0.0170443
659.649	0.0169016
659.727	0.0168191
659.805	0.0168237
659.884	0.0169082
659.962	0.0168415
660.040	0.0169526
660.118	0.0169964
660.196	0.0169769
660.274	0.0169936
660.352	0.0169649
660.430	0.0169577
660.509	0.0169430
660.587	0.0169564
660.665	0.0169938
660.743	0.0170589
660.821	0.0169583
660.899	0.0168023
660.977	0.0168456
661.055	0.0169545
661.134	0.0170412
661.212	0.0168787
661.290	0.0168436
661.368	0.0169027
661.446	0.0169425
661.524	0.0168295
661.602	0.0169070
661.680	0.0169490
661.759	0.0169665
661.837	0.0169244
661.915	0.0169427
661.993	0.0169662
662.071	0.0169720
662.149	0.0169470
662.227	0.0169736
662.305	0.0169831
662.384	0.0169106
662.462	0.0169807
662.540	0.0169360
662.618	0.0169348
662.696	0.0169226
662.774	0.0169078
662.852	0.0169758
662.930	0.0169617
663.009	0.0169989
663.087	0.0169223
663.165	0.0169769
663.243	0.0171136
663.321	0.0170081
663.399	0.0169507
663.477	0.0170910
663.555	0.0170241
663.634	0.0169928
663.712	0.0170611
663.790	0.0170726
663.868	0.0170551
663.946	0.0168340
664.024	0.0169849
664.102	0.0168859
664.180	0.0169314
664.259	0.0170287
664.337	0.0170043
664.415	0.0170454
664.493	0.0170535
664.571	0.0170686
664.649	0.0169528
664.727	0.0169685
664.805	0.0170770
664.884	0.0171464
664.962	0.0169759
665.040	0.0169885
665.118	0.0168691
665.196	0.0170613
665.274	0.0170477
665.352	0.0170172
665.430	0.0169514
665.509	0.0170879
665.587	0.0169370
665.665	0.0169561
665.743	0.0170379
665.821	0.0170571
665.899	0.0170280
665.977	0.0169604
666.055	0.0170358
666.134	0.0170099
666.212	0.0171504
666.290	0.0170971
666.368	0.0170357
666.446	0.0170862
666.524	0.0170251
666.602	0.0170387
666.680	0.0171483
666.759	0.0171092
666.837	0.0169978
666.915	0.0169098
666.993	0.0170919
667.071	0.0170811
667.149	0.0170468
667.227	0.0170786
667.305	0.0169481
667.384	0.0170001
667.462	0.0170609
667.540	0.0170139
667.618	0.0171553
667.696	0.0169587
667.774	0.0170339
667.852	0.0171097
667.930	0.0170350
668.009	0.0170001
668.087	0.0169044
668.165	0.0169376
668.243	0.0170193
668.321	0.0169899
668.399	0.0169249
668.477	0.0170002
668.555	0.0169903
668.634	0.0170774
668.712	0.0170132
668.790	0.0168661
668.868	0.0170076
668.946	0.0170522
669.024	0.0169549
669.102	0.0170171
669.180	0.0169912
669.259	0.0169532
669.337	0.0171057
669.415	0.0170494
669.493	0.0168319
669.571	0.0168949
669.649	0.0169880
669.727	0.0169370
669.805	0.0171091
669.884	0.0170335
669.962	0.0170141
670.040	0.0169655
670.118	0.0169253
670.196	0.0170058
670.274	0.0170548
670.352	0.0170683
670.430	0.0169051
670.509	0.0170047
670.587	0.0170403
670.665	0.0170068
670.743	0.0170616
670.821	0.0169806
670.899	0.0170208
670.977	0.0170116
671.055	0.0170125
671.134	0.0169154
671.212	0.0169168
671.290	0.0170665
671.368	0.0170193
671.446	0.0169002
671.524	0.0169580
671.602	0.0168980
671.680	0.0170155
671.759	0.0169215
671.837	0.0169447
671.915	0.0168850
671.993	0.0168305
672.071	0.0169677
672.149	0.0168149
672.227	0.0168963
672.305	0.0170631
672.384	0.0169030
672.462	0.0168378
672.540	0.0168994
672.618	0.0169238
672.696	0.0169358
672.774	0.0166921
672.852	0.0169182
672.930	0.0168061
673.009	0.0168074
673.087	0.0168474
673.165	0.0168211
673.243	0.0168742
673.321	0.0168085
673.399	0.0167763
673.477	0.0169991
673.555	0.0167009
673.634	0.0168193
673.712	0.0167865
673.790	0.0168455
673.868	0.0167801
673.946	0.0167391
674.024	0.0167762
674.102	0.0167583
674.180	0.0167801
674.259	0.0168144
674.337	0.0170229
674.415	0.0168168
674.493	0.0167017
674.571	0.0167659
674.649	0.0167979
674.727	0.0167931
674.805	0.0169477
674.884	0.0167753
674.962	0.0167144
675.040	0.0168059
675.118	0.0167336
675.196	0.0166690
675.274	0.0168159
675.352	0.0168134
675.430	0.0168755
675.509	0.0167688
675.587	0.0167286
675.665	0.0166105
675.743	0.0167519
675.821	0.0167773
675.899	0.0168938
675.977	0.0166508
676.055	0.0166376
676.134	0.0167336
676.212	0.0168796
676.290	0.0168380
676.368	0.0166081
676.446	0.0167945
676.524	0.0168551
676.602	0.0168623
676.680	0.0167546
676.759	0.0167306
676.837	0.0168665
676.915	0.0168198
676.993	0.0167031
677.071	0.0166636
677.149	0.0166574
677.227	0.0167316
677.305	0.0168545
677.384	0.0166969
677.462	0.0167577
677.540	0.0167375
677.618	0.0167556
677.696	0.0168835
677.774	0.0168353
677.852	0.0166940
677.930	0.0166158
678.009	0.0168369
678.087	0.0167731
678.165	0.0168044
678.243	0.0167535
678.321	0.0168004
678.399	0.0168250
678.477	0.0166787
678.555	0.0167905
678.634	0.0167852
678.712	0.0167925
678.790	0.0169217
678.868	0.0167090
678.946	0.0167468
679.024	0.0168628
679.102	0.0167603
679.180	0.0168819
679.259	0.0168547
679.337	0.0168906
679.415	0.0167402
679.493	0.0167802
679.571	0.0168652
679.649	0.0168695
679.727	0.0168332
679.805	0.0168642
679.884	0.0167702
679.962	0.0168779
680.040	0.0169579
680.118	0.0169407
680.196	0.0168030
680.274	0.0167749
680.352	0.0168369
680.430	0.0167625
680.509	0.0168589
680.587	0.0168048
680.665	0.0169301
680.743	0.0169643
680.821	0.0168656
680.899	0.0168594
680.977	0.0168240
681.055	0.0169978
681.134	0.0167283
681.212	0.0170406
681.290	0.0169119
681.368	0.0168810
681.446	0.0169141
681.524	0.0167457
681.602	0.0169189
681.680	0.0170080
681.759	0.0169318
681.837	0.0168176
681.915	0.0169749
681.993	0.0169115
682.071	0.0169458
682.149	0.0169119
682.227	0.0169627
682.305	0.0167879
682.384	0.0168627
682.462	0.0169243
682.540	0.0169419
682.618	0.0168085
682.696	0.0168512
682.774	0.0168727
682.852	0.0170657
682.930	0.0168933
683.009	0.0169534
683.087	0.0169552
683.165	0.0167960
683.243	0.0170040
683.321	0.0168705
683.399	0.0169609
683.477	0.0168754
683.555	0.0169778
683.634	0.0169444
683.712	0.0169335
683.790	0.0170264
683.868	0.0170647
683.946	0.0170036
684.024	0.0169628
684.102	0.0170484
684.180	0.0169544
684.259	0.0169114
684.337	0.0170410
684.415	0.0170121
684.493	0.0169888
684.571	0.0170143
684.649	0.0169711
684.727	0.0170717
684.805	0.0169749
684.884	0.0171105
684.962	0.0169012
685.040	0.0169434
685.118	0.0170353
685.196	0.0169095
685.274	0.0171022
685.352	0.0170641
685.430	0.0168794
685.509	0.0169939
685.587	0.0169884
685.665	0.0168542
685.743	0.0168779
685.821	0.0169548
685.899	0.0170390
685.977	0.0170497
686.055	0.0170792
686.134	0.0169627
686.212	0.0171302
686.290	0.0170355
686.368	0.0170100
686.446	0.0170076
686.524	0.0169540
686.602	0.0169444
686.680	0.0169071
686.759	0.0169690
686.837	0.0170372
686.915	0.0171109
686.993	0.0170092
687.071	0.0169039
687.149	0.0169869
687.227	0.0170510
687.305	0.0169237
687.384	0.0169703
687.462	0.0169561
687.540	0.0169184
687.618	0.0169643
687.696	0.0169836
687.774	0.0169019
687.852	0.0171400
687.930	0.0169862
688.009	0.0168996
688.087	0.0170348
688.165	0.0170126
688.243	0.0170283
688.321	0.0168296
688.399	0.0169141
688.477	0.0171317
688.555	0.0169978
688.634	0.0169777
688.712	0.0170692
688.790	0.0169753
688.868	0.0169241
688.946	0.0170934
689.024	0.0169399
689.102	0.0169122
689.180	0.0170005
689.259	0.0169333
689.337	0.0170804
689.415	0.0171381
689.493	0.0170169
689.571	0.0170049
689.649	0.0169922
689.727	0.0169743
689.805	0.0170185
689.884	0.0168784
689.962	0.0170293
690.040	0.0169221
690.118	0.0169243
690.196	0.0170075
690.274	0.0169744
690.352	0.0169047
690.430	0.0168922
690.509	0.0169695
690.587	0.0168456
690.665	0.0169466
690.743	0.0169380
690.821	0.0169823
690.899	0.0170271
690.977	0.0170219
691.055	0.0168341
691.134	0.0169334
691.212	0.0168671
691.290	0.0169780
691.368	0.0169299
691.446	0.0169195
691.524	0.0169605
691.602	0.0169451
691.680	0.0169301
691.759	0.0169379
691.837	0.0170016
691.915	0.0169279
691.993	0.0169174
692.071	0.0169923
692.149	0.0169112
692.227	0.0169529
692.305	0.0169086
692.384	0.0168095
692.462	0.0170823
692.540	0.0168628
692.618	0.0168292
692.696	0.0170372
692.774	0.0169789
692.852	0.0169913
692.930	0.0168571
693.009	0.0169541
693.087	0.0169489
693.165	0.0168147
693.243	0.0169989
693.321	0.0167966
693.399	0.0169286
693.477	0.0172025
693.555	0.0170537
693.634	0.0169290
693.712	0.0169194
693.790	0.0170837
693.868	0.0169944
693.946	0.0169057
694.024	0.0168926
694.102	0.0170521
694.180	0.0169518
694.259	0.0169800
694.337	0.0170586
694.415	0.0169396
694.493	0.0170576
694.571	0.0169735
694.649	0.0169691
694.727	0.0169666
694.805	0.0168517
694.884	0.0169061
694.962	0.0169430
695.040	0.0169426
695.118	0.0169919
695.196	0.0169029
695.274	0.0169168
695.352	0.0169483
695.430	0.0169452
695.509	0.0169415
695.587	0.0169289
695.665	0.0169337
695.743	0.0169478
695.821	0.0170273
695.899	0.0169128
695.977	0.0169433
696.055	0.0169217
696.134	0.0168838
696.212	0.0169211
696.290	0.0168616
696.368	0.0169455
696.446	0.0168885
696.524	0.0167958
696.602	0.0168723
696.680	0.0168634
696.759	0.0167963
696.837	0.0169944
696.915	0.0169271
696.993	0.0168296
697.071	0.0168624
697.149	0.0170395
697.227	0.0167659
697.305	0.0166968
697.384	0.0168991
697.462	0.0167682
697.540	0.0167706
697.618	0.0167497
697.696	0.0166285
697.774	0.0168613
697.852	0.0169490
697.930	0.0166914
698.009	0.0168492
698.087	0.0166859
698.165	0.0168806
698.243	0.0167007
698.321	0.0167710
698.399	0.0167571
698.477	0.0167111
698.555	0.0166409
698.634	0.0167305
698.712	0.0166763
698.790	0.0168179
698.868	0.0167734
698.946	0.0166851
699.024	0.0167548
699.102	0.0167527
699.180	0.0166793
699.259	0.0166884
699.337	0.0167785
699.415	0.0166962
699.493	0.0168491
699.571	0.0167915
699.649	0.0165349
699.727	0.0167156
699.805	0.0166565
699.884	0.0167238
699.962	0.0167362
700.040	0.0167205
700.118	0.0166845
700.196	0.0167294
700.274	0.0166867
700.352	0.0167225
700.430	0.0168283
700.509	0.0167091
700.587	0.0167583
700.665	0.0167683
700.743	0.0168847
700.821	0.0167136
700.899	0.0166280
700.977	0.0167860
701.055	0.0168560
701.134	0.0167056
701.212	0.0167464
701.290	0.0166550
701.368	0.0165943
701.446	0.0168111
701.524	0.0167616
701.602	0.0166284
701.680	0.0166449
701.759	0.0167192
701.837	0.0165931
701.915	0.0166466
701.993	0.0167139
702.071	0.0166210
702.149	0.0166502
702.227	0.0164924
702.305	0.0165842
702.384	0.0166590
702.462	0.0166483
702.540	0.0166722
702.618	0.0165843
702.696	0.0165762
702.774	0.0165711
702.852	0.0166941
702.930	0.0165967
703.009	0.0165665
703.087	0.0165954
703.165	0.0166043
703.243	0.0166581
703.321	0.0165666
703.399	0.0166961
703.477	0.0167141
703.555	0.0166964
703.634	0.0167187
703.712	0.0167836
703.790	0.0166050
703.868	0.0166692
703.946	0.0167124
704.024	0.0167931
704.102	0.0166338
704.180	0.0164794
704.259	0.0167301
704.337	0.0166854
704.415	0.0167521
704.493	0.0166643
704.571	0.0166463
704.649	0.0167297
704.727	0.0165786
704.805	0.0167061
704.884	0.0166369
704.962	0.0166253
705.040	0.0167988
705.118	0.0167822
705.196	0.0166569
705.274	0.0167624
705.352	0.0167867
705.430	0.0167451
705.509	0.0167232
705.587	0.0168079
705.665	0.0167064
705.743	0.0168154
705.821	0.0166979
705.899	0.0166640
705.977	0.0167839
706.055	0.0166667
706.134	0.0167956
706.212	0.0167319
706.290	0.0166282
706.368	0.0166165
706.446	0.0165807
706.524	0.0167371
706.602	0.0167706
706.680	0.0167152
706.759	0.0167811
706.837	0.0168740
706.915	0.0168709
706.993	0.0166637
707.071	0.0168941
707.149	0.0167398
707.227	0.0167788
707.305	0.0167786
707.384	0.0168905
707.462	0.0169097
707.540	0.0168898
707.618	0.0168914
707.696	0.0167999
707.774	0.0168038
707.852	0.0168815
707.930	0.0168508
708.009	0.0168864
708.087	0.0168832
708.165	0.0169278
708.243	0.0168843
708.321	0.0167909
708.399	0.0169506
708.477	0.0170000
708.555	0.0169358
708.634	0.0170409
708.712	0.0170617
708.790	0.0169109
708.868	0.0168053
708.946	0.0168622
709.024	0.0168613
709.102	0.0169853
709.180	0.0169897
709.259	0.0170258
709.337	0.0169128
709.415	0.0169507
709.493	0.0169740
709.571	0.0169509
709.649	0.0169561
709.727	0.0169402
709.805	0.0169660
709.884	0.0169752
709.962	0.0170283
710.040	0.0169669
710.118	0.0169299
710.196	0.0169716
710.274	0.0169978
710.352	0.0168899
710.430	0.0169917
710.509	0.0168665
710.587	0.0168697
710.665	0.0169662
710.743	0.0169414
710.821	0.0170285
710.899	0.0168537
710.977	0.0168790
711.055	0.0169787
711.134	0.0169341
711.212	0.0169120
711.290	0.0169355
711.368	0.0169125
711.446	0.0170075
711.524	0.0170290
711.602	0.0170257
711.680	0.0169759
711.759	0.0170050
711.837	0.0169234
711.915	0.0170608
711.993	0.0169684
712.071	0.0169598
712.149	0.0170449
712.227	0.0168929
712.305	0.0169111
712.384	0.0170006
712.462	0.0170837
712.540	0.0172271
712.618	0.0169801
712.696	0.0170805
712.774	0.0169604
712.852	0.0170995
712.930	0.0170982
713.009	0.0171202
713.087	0.0169991
713.165	0.0170882
713.243	0.0171886
713.321	0.0170887
713.399	0.0169791
713.477	0.0170252
713.555	0.0170479
713.634	0.0169038
713.712	0.0169843
713.790	0.0170770
713.868	0.0169019
713.946	0.0168772
714.024	0.0170079
714.102	0.0169999
714.180	0.0170627
714.259	0.0170007
714.337	0.0169441
714.415	0.0169270
714.493	0.0170475
714.571	0.0170413
714.649	0.0168913
714.727	0.0170616
714.805	0.0170297
714.884	0.0170774
714.962	0.0169456
715.040	0.0169666
715.118	0.0169378
715.196	0.0169458
715.274	0.0170840
715.352	0.0170277
715.430	0.0169836
715.509	0.0170621
715.587	0.0170489
715.665	0.0171336
715.743	0.0170780
715.821	0.0170892
715.899	0.0169999
715.977	0.0170496
716.055	0.0170910
716.134	0.0170883
716.212	0.0170274
716.290	0.0171026
716.368	0.0171509
716.446	0.0171351
716.524	0.0170506
716.602	0.0170924
716.680	0.0171930
716.759	0.0170531
716.837	0.0169954
716.915	0.0171126
716.993	0.0170950
717.071	0.0170155
717.149	0.0170138
717.227	0.0171678
717.305	0.0170313
717.384	0.0170856
717.462	0.0170979
717.540	0.0170502
717.618	0.0169759
717.696	0.0172232
717.774	0.0170415
717.852	0.0169672
717.930	0.0171210
718.009	0.0170368
718.087	0.0170106
718.165	0.0169186
718.243	0.0170115
718.321	0.0169718
718.399	0.0170493
718.477	0.0169274
718.555	0.0169981
718.634	0.0169573
718.712	0.0170325
718.790	0.0169606
718.868	0.0168807
718.946	0.0169121
719.024	0.0169430
719.102	0.0169064
719.180	0.0168864
719.259	0.0168239
719.337	0.0168897
719.415	0.0166236
719.493	0.0168061
719.571	0.0168727
719.649	0.0166741
719.727	0.0169644
719.805	0.0166852
719.884	0.0168535
719.962	0.0168587
720.040	0.0167872
720.118	0.0167415
720.196	0.0167635
720.274	0.0167981
720.352	0.0168959
720.430	0.0167578
720.509	0.0167883
720.587	0.0169431
720.665	0.0168652
720.743	0.0168201
720.821	0.0168839
720.899	0.0169449
720.977	0.0167871
721.055	0.0167829
721.134	0.0167451
721.212	0.0168967
721.290	0.0166902
721.368	0.0169155
721.446	0.0166472
721.524	0.0168238
721.602	0.0168063
721.680	0.0168095
721.759	0.0168466
721.837	0.0168038
721.915	0.0167829
721.993	0.0167902
722.071	0.0168809
722.149	0.0168362
722.227	0.0166673
722.305	0.0167982
722.384	0.0168250
722.462	0.0167787
722.540	0.0167814
722.618	0.0167253
722.696	0.0167809
722.774	0.0168385
722.852	0.0167228
722.930	0.0166976
723.009	0.0168181
723.087	0.0168611
723.165	0.0167616
723.243	0.0167143
723.321	0.0167017
723.399	0.0166897
723.477	0.0168269
723.555	0.0167500
723.634	0.0167651
723.712	0.0166161
723.790	0.0167603
723.868	0.0166942
723.946	0.0167309
724.024	0.0167305
724.102	0.0167003
724.180	0.0168587
724.259	0.0167287
724.337	0.0167194
724.415	0.0167152
724.493	0.0167734
724.571	0.0167764
724.649	0.0167162
724.727	0.0167248
724.805	0.0166429
724.884	0.0167928
724.962	0.0168498
725.040	0.0166817
725.118	0.0167559
725.196	0.0169143
725.274	0.0168168
725.352	0.0167969
725.430	0.0167464
725.509	0.0166807
725.587	0.0168152
725.665	0.0168268
725.743	0.0169099
725.821	0.0167832
725.899	0.0168752
725.977	0.0166735
726.055	0.0165940
726.134	0.0166971
726.212	0.0167833
726.290	0.0168749
726.368	0.0168710
726.446	0.0168295
726.524	0.0167139
726.602	0.0167442
726.680	0.0168124
726.759	0.0167806
726.837	0.0168178
726.915	0.0167365
726.993	0.0166776
727.071	0.0167014
727.149	0.0167301
727.227	0.0168325
727.305	0.0166475
727.384	0.0166506
727.462	0.0166760
727.540	0.0167511
727.618	0.0167866
727.696	0.0168275
727.774	0.0167194
727.852	0.0166515
727.930	0.0166145
728.009	0.0166674
728.087	0.0166361
728.165	0.0166885
728.243	0.0168190
728.321	0.0168893
728.399	0.0166577
728.477	0.0167810
728.555	0.0168559
728.634	0.0166495
728.712	0.0168391
728.790	0.0167170
728.868	0.0167390
728.946	0.0167833
729.024	0.0167349
729.102	0.0169492
729.180	0.0167934
729.259	0.0167460
729.337	0.0167629
729.415	0.0167826
729.493	0.0168471
729.571	0.0167696
729.649	0.0168285
729.727	0.0169335
729.805	0.0168811
729.884	0.0166957
729.962	0.0168623
730.040	0.0168300
730.118	0.0168269
730.196	0.0168325
730.274	0.0169598
730.352	0.0170250
730.430	0.0168893
730.509	0.0168568
730.587	0.0168591
730.665	0.0168714
730.743	0.0169549
730.821	0.0169700
730.899	0.0168106
730.977	0.0167889
731.055	0.0169048
731.134	0.0169492
731.212	0.0169097
731.290	0.0169209
731.368	0.0169389
731.446	0.0170619
731.524	0.0170131
731.602	0.0168209
731.680	0.0168891
731.759	0.0169153
731.837	0.0169393
731.915	0.0167346
731.993	0.0168510
732.071	0.0168045
732.149	0.0169002
732.227	0.0168923
732.305	0.0167976
732.384	0.0168586
732.462	0.0168961
732.540	0.0170038
732.618	0.0169753
732.696	0.0169386
732.774	0.0170231
732.852	0.0170720
732.930	0.0169823
733.009	0.0169908
733.087	0.0170250
733.165	0.0169994
733.243	0.0168977
733.321	0.0169909
733.399	0.0170209
733.477	0.0169695
733.555	0.0169419
733.634	0.0170527
733.712	0.0170820
733.790	0.0169012
733.868	0.0168681
733.946	0.0169830
734.024	0.0170818
734.102	0.0170245
734.180	0.0169278
734.259	0.0169732
734.337	0.0169439
734.415	0.0171127
734.493	0.0169915
734.571	0.0168806
734.649	0.0170363
734.727	0.0169846
734.805	0.0169707
734.884	0.0170262
734.962	0.0170454
735.040	0.0168924
735.118	0.0168790
735.196	0.0167888
735.274	0.0168256
735.352	0.0169553
735.430	0.0167739
735.509	0.0169160
735.587	0.0169539
735.665	0.0169614
735.743	0.0169411
735.821	0.0169032
735.899	0.0170376
735.977	0.0170374
736.055	0.0169082
736.134	0.0169585
736.212	0.0170261
736.290	0.0168830
736.368	0.0169736
736.446	0.0169370
736.524	0.0167703
736.602	0.0168201
736.680	0.0170062
736.759	0.0168901
736.837	0.0168723
736.915	0.0168765
736.993	0.0169475
737.071	0.0168761
737.149	0.0170292
737.227	0.0169265
737.305	0.0170169
737.384	0.0168245
737.462	0.0169709
737.540	0.0170750
737.618	0.0170179
737.696	0.0170390
737.774	0.0169556
737.852	0.0169638
737.930	0.0170827
738.009	0.0170090
738.087	0.0169247
738.165	0.0171207
738.243	0.0170162
738.321	0.0170848
738.399	0.0169416
738.477	0.0169793
738.555	0.0171704
738.634	0.0170801
738.712	0.0170029
738.790	0.0169791
738.868	0.0169048
738.946	0.0168921
739.024	0.0169233
739.102	0.0169855
739.180	0.0169440
739.259	0.0170919
739.337	0.0170415
739.415	0.0169301
739.493	0.0168822
739.571	0.0170798
739.649	0.0170551
739.727	0.0168871
739.805	0.0170857
739.884	0.0171676
739.962	0.0169103
740.040	0.0169249
740.118	0.0170162
740.196	0.0170984
740.274	0.0170119
740.352	0.0170657
740.430	0.0172051
740.509	0.0170295
740.587	0.0170124
740.665	0.0169929
740.743	0.0169341
740.821	0.0170107
740.899	0.0169286
740.977	0.0169537
741.055	0.0170097
741.134	0.0172105
741.212	0.0170335
741.290	0.0172188
741.368	0.0169988
741.446	0.0169285
741.524	0.0170484
741.602	0.0171149
741.680	0.0169940
741.759	0.0170302
741.837	0.0168444
741.915	0.0169966
741.993	0.0170289
742.071	0.0170495
742.149	0.0169362
742.227	0.0168783
742.305	0.0170011
742.384	0.0170625
742.462	0.0170986
742.540	0.0170235
742.618	0.0169009
742.696	0.0170596
742.774	0.0170991
742.852	0.0169032
742.930	0.0171246
743.009	0.0170269
743.087	0.0169099
743.165	0.0170818
743.243	0.0172114
743.321	0.0171506
743.399	0.0171345
743.477	0.0170104
743.555	0.0169334
743.634	0.0169920
743.712	0.0170689
743.790	0.0169798
743.868	0.0169295
743.946	0.0170226
744.024	0.0170663
744.102	0.0169032
744.180	0.0169239
744.259	0.0169807
744.337	0.0169229
744.415	0.0169281
744.493	0.0168944
744.571	0.0168732
744.649	0.0169405
744.727	0.0170270
744.805	0.0168848
744.884	0.0169865
744.962	0.0168388
745.040	0.0169366
745.118	0.0169751
745.196	0.0169241
745.274	0.0167940
745.352	0.0168548
745.430	0.0167374
745.509	0.0168208
745.587	0.0167467
745.665	0.0168350
745.743	0.0169712
745.821	0.0166777
745.899	0.0167522
745.977	0.0168855
746.055	0.0169418
746.134	0.0167585
746.212	0.0168523
746.290	0.0167185
746.368	0.0166722
746.446	0.0169830
746.524	0.0169484
746.602	0.0168295
746.680	0.0168728
746.759	0.0168619
746.837	0.0167287
746.915	0.0167580
746.993	0.0169643
747.071	0.0167159
747.149	0.0169277
747.227	0.0167942
747.305	0.0168091
747.384	0.0167756
747.462	0.0167864
747.540	0.0167031
747.618	0.0167631
747.696	0.0167353
747.774	0.0168044
747.852	0.0167883
747.930	0.0168001
748.009	0.0166682
748.087	0.0166235
748.165	0.0167191
748.243	0.0168041
748.321	0.0167930
748.399	0.0167667
748.477	0.0167896
748.555	0.0167180
748.634	0.0167558
748.712	0.0167657
748.790	0.0167962
748.868	0.0168557
748.946	0.0169370
749.024	0.0169098
749.102	0.0169557
749.180	0.0169363
749.259	0.0169765
749.337	0.0169981
749.415	0.0169527
749.493	0.0170440
749.571	0.0169778
749.649	0.0169608
749.727	0.0171203
749.805	0.0170119
749.884	0.0171835
749.962	0.0170158
750.040	0.0171592
750.118	0.0172518
750.196	0.0170264
750.274	0.0171035
750.352	0.0170156
750.430	0.0170382
750.509	0.0170824
750.587	0.0170348
750.665	0.0170896
750.743	0.0171137
750.821	0.0170975
750.899	0.0172272
750.977	0.0172457
751.055	0.0168491
751.134	0.0168703
751.212	0.0170432
751.290	0.0170980
751.368	0.0170426
751.446	0.0169669
751.524	0.0170081
751.602	0.0169769
751.680	0.0168269
751.759	0.0169662
751.837	0.0169317
751.915	0.0168159
751.993	0.0168245
752.071	0.0169003
752.149	0.0169178
752.227	0.0168831
752.305	0.0168965
752.384	0.0168898
752.462	0.0170216
752.540	0.0168856
752.618	0.0167616
752.696	0.0169509
752.774	0.0170206
752.852	0.0169535
752.930	0.0169411
753.009	0.0168556
753.087	0.0168753
753.165	0.0170052
753.243	0.0169635
753.321	0.0168552
753.399	0.0168788
753.477	0.0169605
753.555	0.0170274
753.634	0.0168570
753.712	0.0168423
753.790	0.0170279
753.868	0.0169591
753.946	0.0168815
754.024	0.0169717
754.102	0.0168208
754.180	0.0170132
754.259	0.0168935
754.337	0.0168866
754.415	0.0169347
754.493	0.0170190
754.571	0.0168607
754.649	0.0169038
754.727	0.0168836
754.805	0.0169538
754.884	0.0170084
754.962	0.0169362
755.040	0.0168169
755.118	0.0169251
755.196	0.0169069
755.274	0.0169355
755.352	0.0169511
755.430	0.0169576
755.509	0.0168594
755.587	0.0167831
755.665	0.0169376
755.743	0.0169340
755.821	0.0168805
755.899	0.0167708
755.977	0.0168939
756.055	0.0170403
756.134	0.0167796
756.212	0.0168239
756.290	0.0169855
756.368	0.0168778
756.446	0.0168773
756.524	0.0167902
756.602	0.0168565
756.680	0.0169306
756.759	0.0169021
756.837	0.0169479
756.915	0.0168672
756.993	0.0169004
757.071	0.0169017
757.149	0.0169084
757.227	0.0168960
757.305	0.0169444
757.384	0.0169614
757.462	0.0170862
757.540	0.0170984
757.618	0.0171402
757.696	0.0170242
757.774	0.0170059
757.852	0.0170344
757.930	0.0170029
758.009	0.0170190
758.087	0.0170097
758.165	0.0170254
758.243	0.0170406
758.321	0.0170564
758.399	0.0170786
758.477	0.0168948
758.555	0.0170013
758.634	0.0170254
758.712	0.0168830
758.790	0.0168742
758.868	0.0168526
758.946	0.0169782
759.024	0.0169205
759.102	0.0171241
759.180	0.0169404
759.259	0.0169774
759.337	0.0168697
759.415	0.0170158
759.493	0.0168419
759.571	0.0168393
759.649	0.0169019
759.727	0.0168132
759.805	0.0168999
759.884	0.0169721
759.962	0.0167732
760.040	0.0170168
760.118	0.0168855
760.196	0.0168430
760.274	0.0169330
760.352	0.0168948
760.430	0.0169281
760.509	0.0169535
760.587	0.0169191
760.665	0.0170147
760.743	0.0169366
760.821	0.0170543
760.899	0.0168874
760.977	0.0168662
761.055	0.0170019
761.134	0.0168689
761.212	0.0169924
761.290	0.0169183
761.368	0.0170741
761.446	0.0169233
761.524	0.0169289
761.602	0.0171236
761.680	0.0169052
761.759	0.0169724
761.837	0.0169791
761.915	0.0169785
761.993	0.0169043
762.071	0.0169309
762.149	0.0168818
762.227	0.0168344
762.305	0.0167657
762.384	0.0168646
762.462	0.0167011
762.540	0.0167725
762.618	0.0168862
762.696	0.0168616
762.774	0.0168362
762.852	0.0166669
762.930	0.0166039
763.009	0.0168284
763.087	0.0169224
763.165	0.0167671
763.243	0.0166859
763.321	0.0166890
763.399	0.0167617
763.477	0.0167020
763.555	0.0168629
763.634	0.0167347
763.712	0.0168147
763.790	0.0167261
763.868	0.0166730
763.946	0.0166434
764.024	0.0166720
764.102	0.0166821
764.180	0.0167329
764.259	0.0167150
764.337	0.0167232
764.415	0.0167609
764.493	0.0167972
764.571	0.0167479
764.649	0.0167224
764.727	0.0169655
764.805	0.0168404
764.884	0.0166850
764.962	0.0169078
765.040	0.0167695
765.118	0.0167966
765.196	0.0168288
765.274	0.0168166
765.352	0.0167864
765.430	0.0168304
765.509	0.0167260
765.587	0.0168501
765.665	0.0167645
765.743	0.0167468
765.821	0.0168264
765.899	0.0167591
765.977	0.0168023
766.055	0.0168224
766.134	0.0167781
766.212	0.0167427
766.290	0.0168041
766.368	0.0167597
766.446	0.0168192
766.524	0.0169033
766.602	0.0168078
766.680	0.0167477
766.759	0.0167734
766.837	0.0167413
766.915	0.0166173
766.993	0.0167191
767.071	0.0167145
767.149	0.0167506
767.227	0.0167255
767.305	0.0169479
767.384	0.0168390
767.462	0.0167809
767.540	0.0167781
767.618	0.0166991
767.696	0.0165890
767.774	0.0167357
767.852	0.0168971
767.930	0.0168819
768.009	0.0167146
768.087	0.0167496
768.165	0.0167978
768.243	0.0167851
768.321	0.0168487
768.399	0.0168648
768.477	0.0168215
768.555	0.0168629
768.634	0.0169089
768.712	0.0165759
768.790	0.0167375
768.868	0.0168290
768.946	0.0167143
769.024	0.0167157
769.102	0.0167576
769.180	0.0168204
769.259	0.0168111
769.337	0.0167155
769.415	0.0166926
769.493	0.0167716
769.571	0.0168119
769.649	0.0168661
769.727	0.0168481
769.805	0.0168713
769.884	0.0168469
769.962	0.0166737
770.040	0.0168636
770.118	0.0168534
770.196	0.0168388
770.274	0.0168904
770.352	0.0168342
770.430	0.0169590
770.509	0.0168703
770.587	0.0169566
770.665	0.0169901
770.743	0.0169753
770.821	0.0168903
770.899	0.0169837
770.977	0.0170460
771.055	0.0169382
771.134	0.0170486
771.212	0.0171416
771.290	0.0170378
771.368	0.0170305
771.446	0.0169283
771.524	0.0169699
771.602	0.0170291
771.680	0.0169525
771.759	0.0168188
771.837	0.0169391
771.915	0.0170876
771.993	0.0168711
772.071	0.0168674
772.149	0.0168400
772.227	0.0168085
772.305	0.0168348
772.384	0.0168617
772.462	0.0168117
772.540	0.0167816
772.618	0.0167052
772.696	0.0168230
772.774	0.0168571
772.852	0.0168196
772.930	0.0169109
773.009	0.0168912
773.087	0.0168605
773.165	0.0170182
773.243	0.0169252
773.321	0.0169041
773.399	0.0168591
773.477	0.0170645
773.555	0.0168957
773.634	0.0169055
773.712	0.0167965
773.790	0.0168850
773.868	0.0169441
773.946	0.0169229
774.024	0.0167982
774.102	0.0169771
774.180	0.0170295
774.259	0.0169317
774.337	0.0168668
774.415	0.0169474
774.493	0.0170320
774.571	0.0169419
774.649	0.0169564
774.727	0.0169067
774.805	0.0169933
774.884	0.0170634
774.962	0.0169115
775.040	0.0168990
775.118	0.0170567
775.196	0.0169859
775.274	0.0169581
775.352	0.0169005
775.430	0.0168111
775.509	0.0168244
775.587	0.0168851
775.665	0.0167634
775.743	0.0169627
775.821	0.0168762
775.899	0.0168138
775.977	0.0167248
776.055	0.0168791
776.134	0.0167758
776.212	0.0166809
776.290	0.0168198
776.368	0.0167705
776.446	0.0167263
776.524	0.0168497
776.602	0.0168367
776.680	0.0167805
776.759	0.0167250
776.837	0.0168062
776.915	0.0168201
776.993	0.0168299
777.071	0.0168207
777.149	0.0168761
777.227	0.0168047
777.305	0.0168427
777.384	0.0166004
777.462	0.0168169
777.540	0.0168346
777.618	0.0168268
777.696	0.0167547
777.774	0.0168188
777.852	0.0167445
777.930	0.0168388
778.009	0.0168468
778.087	0.0169536
778.165	0.0169424
778.243	0.0168637
778.321	0.0169346
778.399	0.0169526
778.477	0.0169456
778.555	0.0168981
778.634	0.0169794
778.712	0.0170000
778.790	0.0168927
778.868	0.0169479
778.946	0.0170227
779.024	0.0168672
779.102	0.0167971
779.180	0.0167181
779.259	0.0169672
779.337	0.0168858
779.415	0.0168743
779.493	0.0168637
779.571	0.0168770
779.649	0.0168740
779.727	0.0168165
779.805	0.0167772
779.884	0.0170097
779.962	0.0168032
780.040	0.0168240
780.118	0.0169711
780.196	0.0168414
780.274	0.0168417
780.352	0.0167966
780.430	0.0168734
780.509	0.0170499
780.587	0.0170505
780.665	0.0170373
780.743	0.0171113
780.821	0.0170413
780.899	0.0171133
780.977	0.0169420
781.055	0.0168926
781.134	0.0170789
781.212	0.0169140
781.290	0.0169074
781.368	0.0170490
781.446	0.0168762
781.524	0.0168958
781.602	0.0170338
781.680	0.0170189
781.759	0.0168586
781.837	0.0168600
781.915	0.0168543
781.993	0.0169444
782.071	0.0168826
782.149	0.0167743
782.227	0.0168622
782.305	0.0168495
782.384	0.0169260
782.462	0.0169457
782.540	0.0168500
782.618	0.0169248
782.696	0.0168378
782.774	0.0169212
782.852	0.0169335
782.930	0.0169070
783.009	0.0168625
783.087	0.0170011
783.165	0.0169112
783.243	0.0169223
783.321	0.0169144
783.399	0.0169750
783.477	0.0170137
783.555	0.0168457
783.634	0.0169418
783.712	0.0170692
783.790	0.0168772
783.868	0.0169186
783.946	0.0169753
784.024	0.0167720
784.102	0.0167873
784.180	0.0168726
784.259	0.0167003
784.337	0.0168100
784.415	0.0167612
784.493	0.0169159
784.571	0.0168131
784.649	0.0167098
784.727	0.0167898
784.805	0.0169566
784.884	0.0170249
784.962	0.0169262
785.040	0.0167719
785.118	0.0168857
785.196	0.0168629
785.274	0.0169343
785.352	0.0168259
785.430	0.0169384
785.509	0.0170415
785.587	0.0169118
785.665	0.0168813
785.743	0.0169802
785.821	0.0169135
785.899	0.0168939
785.977	0.0169367
786.055	0.0169933
786.134	0.0169833
786.212	0.0170140
786.290	0.0168230
786.368	0.0169720
786.446	0.0169915
786.524	0.0169685
786.602	0.0169379
786.680	0.0168407
786.759	0.0168214
786.837	0.0169536
786.915	0.0168758
786.993	0.0167551
787.071	0.0167918
787.149	0.0168458
787.227	0.0166882
787.305	0.0167864
787.384	0.0167142
787.462	0.0167412
787.540	0.0165453
787.618	0.0166210
787.696	0.0166953
787.774	0.0167443
787.852	0.0168073
787.930	0.0168295
788.009	0.0166667
788.087	0.0167111
788.165	0.0167989
788.243	0.0167532
788.321	0.0167153
788.399	0.0168258
788.477	0.0169822
788.555	0.0167944
788.634	0.0166857
788.712	0.0166298
788.790	0.0168546
788.868	0.0169946
788.946	0.0169883
789.024	0.0170129
789.102	0.0169472
789.180	0.0169255
789.259	0.0169063
789.337	0.0169769
789.415	0.0169749
789.493	0.0169961
789.571	0.0168821
789.649	0.0169488
789.727	0.0168787
789.805	0.0168127
789.884	0.0168583
789.962	0.0169665
790.040	0.0169374
790.118	0.0169115
790.196	0.0169133
790.274	0.0168783
790.352	0.0169093
790.430	0.0168042
790.509	0.0167920
790.587	0.0168966
790.665	0.0169135
790.743	0.0166922
790.821	0.0167860
790.899	0.0168370
790.977	0.0168156
791.055	0.0168080
791.134	0.0168405
791.212	0.0168009
791.290	0.0168616
791.368	0.0168745
791.446	0.0167249
791.524	0.0167690
791.602	0.0167908
791.680	0.0168343
791.759	0.0168466
791.837	0.0168182
791.915	0.0167355
791.993	0.0167633
792.071	0.0168622
792.149	0.0170441
792.227	0.0169434
792.305	0.0168762
792.384	0.0167722
792.462	0.0168806
792.540	0.0167500
792.618	0.0169162
792.696	0.0168599
792.774	0.0168569
792.852	0.0169267
792.930	0.0168439
793.009	0.0167442
793.087	0.0168757
793.165	0.0169451
793.243	0.0168020
793.321	0.0168462
793.399	0.0168677
793.477	0.0169504
793.555	0.0169212
793.634	0.0169112
793.712	0.0168195
793.790	0.0168964
793.868	0.0168664
793.946	0.0168554
794.024	0.0168545
794.102	0.0168645
794.180	0.0167803
794.259	0.0168450
794.337	0.0169821
794.415	0.0169836
794.493	0.0169316
794.571	0.0168458
794.649	0.0169189
794.727	0.0168869
794.805	0.0170061
794.884	0.0169541
794.962	0.0170260
795.040	0.0171459
795.118	0.0170515
795.196	0.0170409
795.274	0.0169997
795.352	0.0168987
795.430	0.0170980
795.509	0.0170279
795.587	0.0169161
795.665	0.0169720
795.743	0.0169002
795.821	0.0169830
795.899	0.0169483
795.977	0.0168249
796.055	0.0168764
796.134	0.0168279
796.212	0.0169034
796.290	0.0168693
796.368	0.0169089
796.446	0.0167414
796.524	0.0168999
796.602	0.0168571
796.680	0.0169209
796.759	0.0168047
796.837	0.0169246
796.915	0.0169538
796.993	0.0170641
797.071	0.0167445
797.149	0.0168766
797.227	0.0168098
797.305	0.0167739
797.384	0.0167839
797.462	0.0168362
797.540	0.0169846
797.618	0.0169579
797.696	0.0168347
797.774	0.0169021
797.852	0.0169023
797.930	0.0168659
798.009	0.0168119
798.087	0.0170264
798.165	0.0167794
798.243	0.0166968
798.321	0.0169244
798.399	0.0167706
798.477	0.0167939
798.555	0.0168532
798.634	0.0169243
798.712	0.0168777
798.790	0.0167944
798.868	0.0168640
798.946	0.0168159
799.024	0.0169804
799.102	0.0169728
799.180	0.0169028
799.259	0.0168221
799.337	0.0169585
799.415	0.0169872
799.493	0.0168826
799.571	0.0168566
799.649	0.0171342
799.727	0.0169515
799.805	0.0169611
799.884	0.0169862
799.962	0.0169476
800.040	0.0167577
800.118	0.0169654
800.196	0.0169364
800.274	0.0169292
800.352	0.0170249
800.430	0.0169314
800.509	0.0169186
800.587	0.0168443
800.665	0.0168997
800.743	0.0170193
800.821	0.0169145
800.899	0.0169005
800.977	0.0169803
801.055	0.0167688
801.134	0.0169498
801.212	0.0167766
801.290	0.0168478
801.368	0.0168685
801.446	0.0168839
801.524	0.0168409
801.602	0.0167909
801.680	0.0168031
801.759	0.0168417
801.837	0.0168028
801.915	0.0167611
801.993	0.0169020
802.071	0.0167126
802.149	0.0168627
802.227	0.0168570
802.305	0.0169677
802.384	0.0169543
802.462	0.0169125
802.540	0.0169201
802.618	0.0169207
802.696	0.0168517
802.774	0.0170525
802.852	0.0171088
802.930	0.0169426
803.009	0.0170596
803.087	0.0169011
803.165	0.0170393
803.243	0.0169541
803.321	0.0170449
803.399	0.0169849
803.477	0.0170591
803.555	0.0171452
803.634	0.0170477
803.712	0.0168425
803.790	0.0170214
803.868	0.0170528
803.946	0.0170506
804.024	0.0170194
804.102	0.0169511
804.180	0.0168671
804.259	0.0170434
804.337	0.0170012
804.415	0.0170123
804.493	0.0171332
804.571	0.0170506
804.649	0.0171278
804.727	0.0169668
804.805	0.0170053
804.884	0.0170353
804.962	0.0169354
805.040	0.0168256
805.118	0.0169182
805.196	0.0169354
805.274	0.0168864
805.352	0.0169250
805.430	0.0169339
805.509	0.0169960
805.587	0.0169544
805.665	0.0167770
805.743	0.0168882
805.821	0.0168527
805.899	0.0169833
805.977	0.0169087
806.055	0.0169824
806.134	0.0169337
806.212	0.0167520
806.290	0.0168880
806.368	0.0168375
806.446	0.0168667
806.524	0.0169113
806.602	0.0169307
806.680	0.0167981
806.759	0.0170013
806.837	0.0169161
806.915	0.0170370
806.993	0.0170264
807.071	0.0171410
807.149	0.0170394
807.227	0.0169614
807.305	0.0169318
807.384	0.0169639
807.462	0.0169769
807.540	0.0169852
807.618	0.0169008
807.696	0.0169108
807.774	0.0169252
807.852	0.0170638
807.930	0.0169676
808.009	0.0169835
808.087	0.0170578
808.165	0.0170395
808.243	0.0170496
808.321	0.0170724
808.399	0.0169347
808.477	0.0169987
808.555	0.0170264
808.634	0.0170104
808.712	0.0169045
808.790	0.0169730
808.868	0.0170438
808.946	0.0170446
809.024	0.0169942
809.102	0.0170866
809.180	0.0169141
809.259	0.0169644
809.337	0.0169480
809.415	0.0169337
809.493	0.0169968
809.571	0.0169496
809.649	0.0169097
809.727	0.0169218
809.805	0.0170185
809.884	0.0169406
809.962	0.0169960
810.040	0.0170298
810.118	0.0170662
810.196	0.0168357
810.274	0.0170038
810.352	0.0171711
810.430	0.0169318
810.509	0.0168162
810.587	0.0167663
810.665	0.0169416
810.743	0.0167960
810.821	0.0168153
810.899	0.0168053
810.977	0.0168250
811.055	0.0167438
811.134	0.0167462
811.212	0.0168051
811.290	0.0167455
811.368	0.0168967
811.446	0.0169056
811.524	0.0168272
811.602	0.0169888
811.680	0.0167944
811.759	0.0169310
811.837	0.0169981
811.915	0.0169371
811.993	0.0168443
812.071	0.0169520
812.149	0.0169633
812.227	0.0170109
812.305	0.0170741
812.384	0.0170060
812.462	0.0171407
812.540	0.0172099
812.618	0.0171171
812.696	0.0170181
812.774	0.0172133
812.852	0.0171198
812.930	0.0170525
813.009	0.0171207
813.087	0.0171107
813.165	0.0171189
813.243	0.0171484
813.321	0.0171293
813.399	0.0170373
813.477	0.0171042
813.555	0.0170267
813.634	0.0170993
813.712	0.0171187
813.790	0.0170823
813.868	0.0171577
813.946	0.0169792
814.024	0.0170662
814.102	0.0168792
814.180	0.0168558
814.259	0.0169636
814.337	0.0168756
814.415	0.0170628
814.493	0.0171574
814.571	0.0169745
814.649	0.0169668
814.727	0.0171439
814.805	0.0170088
814.884	0.0171089
814.962	0.0171577
815.040	0.0170849
815.118	0.0169484
815.196	0.0170199
815.274	0.0170328
815.352	0.0169242
815.430	0.0169032
815.509	0.0168836
815.587	0.0170017
815.665	0.0170297
815.743	0.0169458
815.821	0.0167446
815.899	0.0169392
815.977	0.0170678
816.055	0.0169817
816.134	0.0169498
816.212	0.0169466
816.290	0.0170412
816.368	0.0170076
816.446	0.0170126
816.524	0.0169282
816.602	0.0169626
816.680	0.0170226
816.759	0.0170148
816.837	0.0170592
816.915	0.0169499
816.993	0.0169078
817.071	0.0169947
817.149	0.0169270
817.227	0.0169157
817.305	0.0170036
817.384	0.0169592
817.462	0.0168063
817.540	0.0169830
817.618	0.0169222
817.696	0.0169643
817.774	0.0169323
817.852	0.0170396
817.930	0.0170450
818.009	0.0169852
818.087	0.0168797
818.165	0.0169813
818.243	0.0171083
818.321	0.0170605
818.399	0.0169717
818.477	0.0169099
818.555	0.0170486
818.634	0.0169524
818.712	0.0168422
818.790	0.0168392
818.868	0.0168160
818.946	0.0168975
819.024	0.0169276
819.102	0.0168469
819.180	0.0168935
819.259	0.0168778
819.337	0.0169321
819.415	0.0168313
819.493	0.0168768
819.571	0.0167905
819.649	0.0169240
819.727	0.0168869
819.805	0.0170181
819.884	0.0169196
819.962	0.0168903
820.040	0.0169816
820.118	0.0170147
820.196	0.0169396
820.274	0.0167983
820.352	0.0167421
820.430	0.0168114
820.509	0.0168768
820.587	0.0168674
820.665	0.0169342
820.743	0.0168878
820.821	0.0168619
820.899	0.0168177
820.977	0.0167371
821.055	0.0168046
821.134	0.0169024
821.212	0.0170625
821.290	0.0169216
821.368	0.0170141
821.446	0.0171453
821.524	0.0170824
821.602	0.0171165
821.680	0.0170425
821.759	0.0170387
821.837	0.0170902
821.915	0.0170656
821.993	0.0171207
822.071	0.0169546
822.149	0.0169447
822.227	0.0168606
822.305	0.0168525
822.384	0.0169486
822.462	0.0169103
822.540	0.0169159
822.618	0.0168618
822.696	0.0169703
822.774	0.0169321
822.852	0.0169675
822.930	0.0169900
823.009	0.0168916
823.087	0.0169878
823.165	0.0169621
823.243	0.0169016
823.321	0.0169520
823.399	0.0168666
823.477	0.0169950
823.555	0.0168870
823.634	0.0168320
823.712	0.0168757
823.790	0.0168166
823.868	0.0167587
823.946	0.0166397
824.024	0.0167985
824.102	0.0169102
824.180	0.0169122
824.259	0.0168024
824.337	0.0169714
824.415	0.0168344
824.493	0.0168977
824.571	0.0169424
824.649	0.0169706
824.727	0.0170856
824.805	0.0170805
824.884	0.0169524
824.962	0.0170358
825.040	0.0170985
825.118	0.0170009
825.196	0.0169637
825.274	0.0171575
825.352	0.0169665
825.430	0.0169342
825.509	0.0169132
825.587	0.0170151
825.665	0.0168446
825.743	0.0169411
825.821	0.0170680
825.899	0.0170995
825.977	0.0169601
826.055	0.0171523
826.134	0.0170578
826.212	0.0170307
826.290	0.0170763
826.368	0.0171044
826.446	0.0170130
826.524	0.0170227
826.602	0.0170142
826.680	0.0170258
826.759	0.0169422
826.837	0.0170092
826.915	0.0171229
826.993	0.0170876
827.071	0.0170188
827.149	0.0170535
827.227	0.0170425
827.305	0.0169274
827.384	0.0169855
827.462	0.0171396
827.540	0.0170054
827.618	0.0168612
827.696	0.0169137
827.774	0.0169379
827.852	0.0170442
827.930	0.0168690
828.009	0.0168786
828.087	0.0168896
828.165	0.0169067
828.243	0.0167881
828.321	0.0170082
828.399	0.0167608
828.477	0.0169199
828.555	0.0169311
828.634	0.0167834
828.712	0.0169090
828.790	0.0169121
828.868	0.0170053
828.946	0.0170501
829.024	0.0169184
829.102	0.0170592
829.180	0.0171088
829.259	0.0170354
829.337	0.0170171
829.415	0.0170766
829.493	0.0170863
829.571	0.0169814
829.649	0.0169933
829.727	0.0171077
829.805	0.0170550
829.884	0.0170231
829.962	0.0170424
830.040	0.0170046
830.118	0.0169302
830.196	0.0169717
830.274	0.0170293
830.352	0.0169673
830.430	0.0170014
830.509	0.0170728
830.587	0.0168813
830.665	0.0168240
830.743	0.0168834
830.821	0.0167637
830.899	0.0169997
830.977	0.0168759
831.055	0.0167641
831.134	0.0167393
831.212	0.0168044
831.290	0.0169044
831.368	0.0167731
831.446	0.0168387
831.524	0.0167522
831.602	0.0167240
831.680	0.0167705
831.759	0.0167878
831.837	0.0168414
831.915	0.0168553
831.993	0.0168690
832.071	0.0168915
832.149	0.0169727
832.227	0.0170001
832.305	0.0170407
832.384	0.0170837
832.462	0.0170255
832.540	0.0169977
832.618	0.0170945
832.696	0.0170438
832.774	0.0171337
832.852	0.0171564
832.930	0.0171381
833.009	0.0172049
833.087	0.0172334
833.165	0.0171628
833.243	0.0170960
833.321	0.0171742
833.399	0.0170415
833.477	0.0169669
833.555	0.0171140
833.634	0.0169921
833.712	0.0170380
833.790	0.0170427
833.868	0.0169878
833.946	0.0168472
834.024	0.0168882
834.102	0.0169549
834.180	0.0168672
834.259	0.0168411
834.337	0.0168497
834.415	0.0168573
834.493	0.0168009
834.571	0.0169054
834.649	0.0168942
834.727	0.0168932
834.805	0.0168172
834.884	0.0168369
834.962	0.0168365
835.040	0.0169431
835.118	0.0168262
835.196	0.0168602
835.274	0.0167805
835.352	0.0169533
835.430	0.0169205
835.509	0.0169691
835.587	0.0168954
835.665	0.0169294
835.743	0.0169265
835.821	0.0169661
835.899	0.0168503
835.977	0.0170507
836.055	0.0171354
836.134	0.0169945
836.212	0.0168900
836.290	0.0169823
836.368	0.0169528
836.446	0.0170632
836.524	0.0168082
836.602	0.0166976
836.680	0.0167713
836.759	0.0168393
836.837	0.0167638
836.915	0.0167347
836.993	0.0169209
837.071	0.0167932
837.149	0.0168511
837.227	0.0167777
837.305	0.0167508
837.384	0.0168955
837.462	0.0168271
837.540	0.0167835
837.618	0.0168503
837.696	0.0169463
837.774	0.0168055
837.852	0.0168690
837.930	0.0168736
838.009	0.0169868
838.087	0.0168559
838.165	0.0169007
838.243	0.0167052
838.321	0.0167432
838.399	0.0168315
838.477	0.0167640
838.555	0.0169482
838.634	0.0168546
838.712	0.0168187
838.790	0.0168459
838.868	0.0167532
838.946	0.0167892
839.024	0.0168825
839.102	0.0168111
839.180	0.0169140
839.259	0.0167887
839.337	0.0167839
839.415	0.0167691
839.493	0.0168797
839.571	0.0167255
839.649	0.0166343
839.727	0.0167806
839.805	0.0167697
839.884	0.0167191
839.962	0.0166207
840.040	0.0167449
840.118	0.0167426
840.196	0.0168250
840.274	0.0167249
840.352	0.0167632
840.430	0.0167038
840.509	0.0167755
840.587	0.0168620
840.665	0.0167332
840.743	0.0169134
840.821	0.0168304
840.899	0.0168330
840.977	0.0168905
841.055	0.0169907
841.134	0.0169057
841.212	0.0169184
841.290	0.0169201
841.368	0.0169327
841.446	0.0170528
841.524	0.0168742
841.602	0.0170224
841.680	0.0168565
841.759	0.0168771
841.837	0.0168437
841.915	0.0168953
841.993	0.0169594
842.071	0.0168166
842.149	0.0168862
842.227	0.0168282
842.305	0.0168661
842.384	0.0167762
842.462	0.0169221
842.540	0.0168502
842.618	0.0168702
842.696	0.0168649
842.774	0.0168992
842.852	0.0167352
842.930	0.0166914
843.009	0.0169268
843.087	0.0167712
843.165	0.0166216
843.243	0.0167709
843.321	0.0166612
843.399	0.0167368
843.477	0.0167485
843.555	0.0166728
843.634	0.0167033
843.712	0.0167487
843.790	0.0168292
843.868	0.0168449
843.946	0.0169587
844.024	0.0168739
844.102	0.0169080
844.180	0.0168994
844.259	0.0169822
844.337	0.0170107
844.415	0.0169426
844.493	0.0168317
844.571	0.0169750
844.649	0.0170195
844.727	0.0168996
844.805	0.0168750
844.884	0.0169275
844.962	0.0168905
845.040	0.0169649
845.118	0.0169083
845.196	0.0170580
845.274	0.0171904
845.352	0.0170378
845.430	0.0169756
845.509	0.0170419
845.587	0.0169787
845.665	0.0169353
845.743	0.0170492
845.821	0.0170284
845.899	0.0168530
845.977	0.0169966
846.055	0.0171644
846.134	0.0168386
846.212	0.0168781
846.290	0.0170527
846.368	0.0170074
846.446	0.0169424
846.524	0.0168309
846.602	0.0169166
846.680	0.0168181
846.759	0.0168834
846.837	0.0168731
846.915	0.0169564
846.993	0.0169255
847.071	0.0170100
847.149	0.0169944
847.227	0.0168732
847.305	0.0169579
847.384	0.0169389
847.462	0.0169970
847.540	0.0168496
847.618	0.0169150
847.696	0.0168138
847.774	0.0169338
847.852	0.0169580
847.930	0.0168983
848.009	0.0169634
848.087	0.0170020
848.165	0.0168127
848.243	0.0168880
848.321	0.0170094
848.399	0.0168774
848.477	0.0169994
848.555	0.0168885
848.634	0.0169431
848.712	0.0170013
848.790	0.0170235
848.868	0.0168203
848.946	0.0168529
849.024	0.0168880
849.102	0.0168582
849.180	0.0169763
849.259	0.0169577
849.337	0.0169591
849.415	0.0170078
849.493	0.0169164
849.571	0.0168079
849.649	0.0169132
849.727	0.0169189
849.805	0.0169701
849.884	0.0169251
849.962	0.0170779
850.040	0.0170733
850.118	0.0169019
850.196	0.0169711
850.274	0.0169011
850.352	0.0169163
850.430	0.0169294
850.509	0.0169238
850.587	0.0168343
850.665	0.0169168
850.743	0.0169772
850.821	0.0168944
850.899	0.0169118
850.977	0.0169489
851.055	0.0168889
851.134	0.0169046
851.212	0.0169025
851.290	0.0169473
851.368	0.0169089
851.446	0.0168780
851.524	0.0169157
851.602	0.0169307
851.680	0.0169505
851.759	0.0171234
851.837	0.0169498
851.915	0.0169927
851.993	0.0170985
852.071	0.0171546
852.149	0.0171328
852.227	0.0170541
852.305	0.0170512
852.384	0.0170321
852.462	0.0171580
852.540	0.0170331
852.618	0.0172533
852.696	0.0170347
852.774	0.0170865
852.852	0.0169119
852.930	0.0172279
853.009	0.0170296
853.087	0.0171079
853.165	0.0170123
853.243	0.0169975
853.321	0.0170328
853.399	0.0170136
853.477	0.0169769
853.555	0.0168008
853.634	0.0168675
853.712	0.0168613
853.790	0.0168864
853.868	0.0168140
853.946	0.0168095
854.024	0.0168707
854.102	0.0168556
854.180	0.0168670
854.259	0.0166493
854.337	0.0167864
854.415	0.0167461
854.493	0.0168319
854.571	0.0169904
854.649	0.0168919
854.727	0.0168790
854.805	0.0169054
854.884	0.0167937
854.962	0.0168867
855.040	0.0168352
855.118	0.0168549
855.196	0.0168524
855.274	0.0169174
855.352	0.0167960
855.430	0.0167491
855.509	0.0168871
855.587	0.0167673
855.665	0.0167088
855.743	0.0168645
855.821	0.0168842
855.899	0.0168162
855.977	0.0167872
856.055	0.0168263
856.134	0.0169837
856.212	0.0168233
856.290	0.0169478
856.368	0.0169605
856.446	0.0169395
856.524	0.0167749
856.602	0.0167905
856.680	0.0170084
856.759	0.0168913
856.837	0.0168245
856.915	0.0168552
856.993	0.0168056
857.071	0.0167480
857.149	0.0167495
857.227	0.0166795
857.305	0.0167735
857.384	0.0167831
857.462	0.0166599
857.540	0.0165146
857.618	0.0167361
857.696	0.0167809
857.774	0.0167920
857.852	0.0167381
857.930	0.0167860
858.009	0.0167645
858.087	0.0168462
858.165	0.0168562
858.243	0.0169444
858.321	0.0168783
858.399	0.0168082
858.477	0.0168930
858.555	0.0168102
858.634	0.0169139
858.712	0.0168290
858.790	0.0167094
858.868	0.0167398
858.946	0.0168546
859.024	0.0167444
859.102	0.0168433
859.180	0.0169473
859.259	0.0166944
859.337	0.0168348
859.415	0.0167490
859.493	0.0167595
859.571	0.0167247
859.649	0.0166933
859.727	0.0168467
859.805	0.0168507
859.884	0.0166677
859.962	0.0167913
860.040	0.0167095
860.118	0.0167896
860.196	0.0167539
860.274	0.0168336
860.352	0.0166158
860.430	0.0167887
860.509	0.0167329
860.587	0.0168144
860.665	0.0167106
860.743	0.0166212
860.821	0.0167466
860.899	0.0166429
860.977	0.0167451
861.055	0.0168437
861.134	0.0167024
861.212	0.0166709
861.290	0.0167178
861.368	0.0165580
861.446	0.0166400
861.524	0.0167666
861.602	0.0167176
861.680	0.0166469
861.759	0.0166713
861.837	0.0167937
861.915	0.0168122
861.993	0.0167386
862.071	0.0166570
862.149	0.0167320
862.227	0.0167669
862.305	0.0166627
862.384	0.0169062
862.462	0.0168587
862.540	0.0167104
862.618	0.0167419
862.696	0.0168958
862.774	0.0167815
862.852	0.0168093
862.930	0.0168358
863.009	0.0167990
863.087	0.0167360
863.165	0.0168348
863.243	0.0168480
863.321	0.0168700
863.399	0.0166994
863.477	0.0167458
863.555	0.0167557
863.634	0.0167651
863.712	0.0167359
863.790	0.0168983
863.868	0.0168558
863.946	0.0167929
864.024	0.0167998
864.102	0.0167276
864.180	0.0166513
864.259	0.0166958
864.337	0.0167718
864.415	0.0168497
864.493	0.0166388
864.571	0.0167443
864.649	0.0166122
864.727	0.0167943
864.805	0.0166552
864.884	0.0168562
864.962	0.0168349
865.040	0.0167393
865.118	0.0167007
865.196	0.0168809
865.274	0.0168677
865.352	0.0169364
865.430	0.0168707
865.509	0.0166586
865.587	0.0170440
865.665	0.0168459
865.743	0.0167587
865.821	0.0170648
865.899	0.0168969
865.977	0.0168696
866.055	0.0167696
866.134	0.0169783
866.212	0.0170007
866.290	0.0168685
866.368	0.0167254
866.446	0.0167530
866.524	0.0168561
866.602	0.0168826
866.680	0.0168884
866.759	0.0168742
866.837	0.0167999
866.915	0.0168270
866.993	0.0169551
867.071	0.0169431
867.149	0.0169344
867.227	0.0169338
867.305	0.0168694
867.384	0.0168657
867.462	0.0168311
867.540	0.0168722
867.618	0.0168645
867.696	0.0168161
867.774	0.0169083
867.852	0.0168291
867.930	0.0168628
868.009	0.0170415
868.087	0.0168365
868.165	0.0168612
868.243	0.0170158
868.321	0.0169127
868.399	0.0170977
868.477	0.0169186
868.555	0.0169973
868.634	0.0170516
868.712	0.0169049
868.790	0.0168260
868.868	0.0170834
868.946	0.0170899
869.024	0.0170081
869.102	0.0169677
869.180	0.0170062
869.259	0.0170107
869.337	0.0170106
869.415	0.0169403
869.493	0.0169482
869.571	0.0170101
869.649	0.0169717
869.727	0.0169125
869.805	0.0170041
869.884	0.0169148
869.962	0.0168163
870.040	0.0168391
870.118	0.0169456
870.196	0.0169098
870.274	0.0166701
870.352	0.0168053
870.430	0.0170287
870.509	0.0167664
870.587	0.0167416
870.665	0.0167706
870.743	0.0167968
870.821	0.0168629
870.899	0.0169609
870.977	0.0170058
871.055	0.0168240
871.134	0.0170179
871.212	0.0168916
871.290	0.0169981
871.368	0.0169202
871.446	0.0169308
871.524	0.0169582
871.602	0.0169335
871.680	0.0169328
871.759	0.0169917
871.837	0.0168597
871.915	0.0170587
871.993	0.0169296
872.071	0.0169547
872.149	0.0170828
872.227	0.0170129
872.305	0.0170951
872.384	0.0169878
872.462	0.0170242
872.540	0.0169983
872.618	0.0170155
872.696	0.0169135
872.774	0.0170039
872.852	0.0170451
872.930	0.0170149
873.009	0.0171653
873.087	0.0171094
873.165	0.0168665
873.243	0.0170792
873.321	0.0170198
873.399	0.0170359
873.477	0.0169943
873.555	0.0170124
873.634	0.0170636
873.712	0.0167980
873.790	0.0170168
873.868	0.0168758
873.946	0.0168975
874.024	0.0168975
874.102	0.0171539
874.180	0.0170442
874.259	0.0169646
874.337	0.0170566
874.415	0.0168803
874.493	0.0169405
874.571	0.0169680
874.649	0.0170184
874.727	0.0169732
874.805	0.0170602
874.884	0.0169591
874.962	0.0168848
875.040	0.0169613
875.118	0.0170096
875.196	0.0168013
875.274	0.0169178
875.352	0.0169465
875.430	0.0170409
875.509	0.0169172
875.587	0.0168172
875.665	0.0169124
875.743	0.0169482
875.821	0.0169432
875.899	0.0169322
875.977	0.0169905
876.055	0.0169204
876.134	0.0171040
876.212	0.0170298
876.290	0.0169970
876.368	0.0170283
876.446	0.0171040
876.524	0.0171136
876.602	0.0171867
876.680	0.0170115
876.759	0.0169830
876.837	0.0171599
876.915	0.0170028
876.993	0.0170810
877.071	0.0168243
877.149	0.0170625
877.227	0.0170676
877.305	0.0168575
877.384	0.0169867
877.462	0.0169203
877.540	0.0170273
877.618	0.0170440
877.696	0.0168087
877.774	0.0168806
877.852	0.0169575
877.930	0.0168816
878.009	0.0166811
878.087	0.0166852
878.165	0.0167800
878.243	0.0169233
878.321	0.0167206
878.399	0.0167857
878.477	0.0167590
878.555	0.0168502
878.634	0.0166854
878.712	0.0168576
878.790	0.0168776
878.868	0.0167379
878.946	0.0168038
879.024	0.0168851
879.102	0.0169002
879.180	0.0166682
879.259	0.0169604
879.337	0.0168707
879.415	0.0168886
879.493	0.0170373
879.571	0.0168896
879.649	0.0169750
879.727	0.0169268
879.805	0.0169084
879.884	0.0168427
879.962	0.0168061
880.040	0.0168410
880.118	0.0168618
880.196	0.0168044
880.274	0.0168653
880.352	0.0168962
880.430	0.0168657
880.509	0.0167323
880.587	0.0167196
880.665	0.0167986
880.743	0.0168098
880.821	0.0166784
880.899	0.0166984
880.977	0.0167965
881.055	0.0167620
881.134	0.0167892
881.212	0.0166707
881.290	0.0167166
881.368	0.0168930
881.446	0.0167722
881.524	0.0167714
881.602	0.0167374
881.680	0.0168710
881.759	0.0166555
881.837	0.0168279
881.915	0.0168493
881.993	0.0169035
882.071	0.0167976
882.149	0.0168501
882.227	0.0168136
882.305	0.0168143
882.384	0.0168901
882.462	0.0168472
882.540	0.0168543
882.618	0.0169691
882.696	0.0168770
882.774	0.0168404
882.852	0.0169545
882.930	0.0168610
883.009	0.0167931
883.087	0.0168536
883.165	0.0169431
883.243	0.0168906
883.321	0.0167983
883.399	0.0168105
883.477	0.0168191
883.555	0.0169543
883.634	0.0168272
883.712	0.0168624
883.790	0.0169869
883.868	0.0168478
883.946	0.0167315
884.024	0.0168907
884.102	0.0169225
884.180	0.0169224
884.259	0.0167947
884.337	0.0169785
884.415	0.0168150
884.493	0.0168913
884.571	0.0168752
884.649	0.0168467
884.727	0.0168143
884.805	0.0168470
884.884	0.0169360
884.962	0.0169279
885.040	0.0167419
885.118	0.0167848
885.196	0.0167915
885.274	0.0168259
885.352	0.0167897
885.430	0.0166855
885.509	0.0167329
885.587	0.0169636
885.665	0.0167192
885.743	0.0167643
885.821	0.0168626
885.899	0.0168088
885.977	0.0167609
886.055	0.0167567
886.134	0.0168351
886.212	0.0167843
886.290	0.0168684
886.368	0.0168047
886.446	0.0168217
886.524	0.0168290
886.602	0.0168687
886.680	0.0169508
886.759	0.0169804
886.837	0.0167979
886.915	0.0167949
886.993	0.0169850
887.071	0.0169981
887.149	0.0169014
887.227	0.0168064
887.305	0.0168141
887.384	0.0169158
887.462	0.0168501
887.540	0.0168250
887.618	0.0168317
887.696	0.0167683
887.774	0.0168427
887.852	0.0167471
887.930	0.0168466
888.009	0.0168221
888.087	0.0170204
888.165	0.0169511
888.243	0.0169194
888.321	0.0169414
888.399	0.0168033
888.477	0.0169121
888.555	0.0172219
888.634	0.0169003
888.712	0.0169125
888.790	0.0167939
888.868	0.0168598
888.946	0.0169810
889.024	0.0169006
889.102	0.0169845
889.180	0.0169497
889.259	0.0170197
889.337	0.0170216
889.415	0.0169260
889.493	0.0168275
889.571	0.0169197
889.649	0.0170825
889.727	0.0172243
889.805	0.0170982
889.884	0.0170795
889.962	0.0168782
890.040	0.0169377
890.118	0.0169176
890.196	0.0168731
890.274	0.0169784
890.352	0.0169854
890.430	0.0169392
890.509	0.0168812
890.587	0.0168296
890.665	0.0169865
890.743	0.0170018
890.821	0.0170409
890.899	0.0170656
890.977	0.0170081
891.055	0.0170164
891.134	0.0170176
891.212	0.0170117
891.290	0.0170300
891.368	0.0170004
891.446	0.0170116
891.524	0.0170302
891.602	0.0171547
891.680	0.0170536
891.759	0.0171277
891.837	0.0169909
891.915	0.0170760
891.993	0.0171126
892.071	0.0171575
892.149	0.0170672
892.227	0.0171579
892.305	0.0170796
892.384	0.0171131
892.462	0.0170815
892.540	0.0169882
892.618	0.0170597
892.696	0.0170173
892.774	0.0172660
892.852	0.0170703
892.930	0.0169415
893.009	0.0171159
893.087	0.0170098
893.165	0.0170877
893.243	0.0170975
893.321	0.0169013
893.399	0.0169997
893.477	0.0168654
893.555	0.0169070
893.634	0.0169517
893.712	0.0169157
893.790	0.0168974
893.868	0.0168797
893.946	0.0169572
894.024	0.0168764
894.102	0.0169678
894.180	0.0169594
894.259	0.0168240
894.337	0.0168680
894.415	0.0167911
894.493	0.0169129
894.571	0.0169137
894.649	0.0170281
894.727	0.0169324
894.805	0.0168565
894.884	0.0168907
894.962	0.0169837
895.040	0.0171083
895.118	0.0167728
895.196	0.0167843
895.274	0.0169193
895.352	0.0170466
895.430	0.0168694
895.509	0.0167050
895.587	0.0168753
895.665	0.0168871
895.743	0.0168921
895.821	0.0168352
895.899	0.0169037
895.977	0.0167824
896.055	0.0168932
896.134	0.0168010
896.212	0.0166682
896.290	0.0169368
896.368	0.0168005
896.446	0.0167219
896.524	0.0169795
896.602	0.0168529
896.680	0.0168700
896.759	0.0169228
896.837	0.0169450
896.915	0.0168431
896.993	0.0168253
897.071	0.0169264
897.149	0.0168217
897.227	0.0167992
897.305	0.0169171
897.384	0.0170288
897.462	0.0168790
897.540	0.0168844
897.618	0.0168747
897.696	0.0168867
897.774	0.0168243
897.852	0.0168408
897.930	0.0168794
898.009	0.0168294
898.087	0.0168896
898.165	0.0168435
898.243	0.0168789
898.321	0.0167863
898.399	0.0166708
898.477	0.0170104
898.555	0.0167461
898.634	0.0168934
898.712	0.0168751
898.790	0.0168565
898.868	0.0170420
898.946	0.0167432
899.024	0.0168876
899.102	0.0170641
899.180	0.0169666
899.259	0.0169408
899.337	0.0168606
899.415	0.0170523
899.493	0.0169597
899.571	0.0169636
899.649	0.0168256
899.727	0.0169620
899.805	0.0170204
899.884	0.0168949
899.962	0.0169036
900.040	0.0169045
900.118	0.0168964
900.196	0.0169602
900.274	0.0169028
900.352	0.0169576
900.430	0.0169472
900.509	0.0169284
900.587	0.0169301
900.665	0.0169077
900.743	0.0168940
900.821	0.0169148
900.899	0.0168306
900.977	0.0169473
901.055	0.0169363
901.134	0.0168066
901.212	0.0169724
901.290	0.0168208
901.368	0.0168786
901.446	0.0169726
901.524	0.0169712
901.602	0.0169242
901.680	0.0168485
901.759	0.0169492
901.837	0.0170444
901.915	0.0169242
901.993	0.0169337
902.071	0.0169539
902.149	0.0168894
902.227	0.0169555
902.305	0.0170718
902.384	0.0170258
902.462	0.0169293
902.540	0.0170361
902.618	0.0169044
902.696	0.0170663
902.774	0.0169232
902.852	0.0167834
902.930	0.0168893
903.009	0.0169564
903.087	0.0169277
903.165	0.0168430
903.243	0.0168752
903.321	0.0168523
903.399	0.0167910
903.477	0.0169762
903.555	0.0167834
903.634	0.0168297
903.712	0.0168745
903.790	0.0168307
903.868	0.0168089
903.946	0.0168793
904.024	0.0169427
904.102	0.0168906
904.180	0.0170034
904.259	0.0168410
904.337	0.0167905
904.415	0.0169335
904.493	0.0170171
904.571	0.0168350
904.649	0.0170221
904.727	0.0169810
904.805	0.0168240
904.884	0.0169930
904.962	0.0169456
905.040	0.0169020
905.118	0.0168398
905.196	0.0170353
905.274	0.0169423
905.352	0.0168945
905.430	0.0167902
905.509	0.0168268
905.587	0.0168652
905.665	0.0169405
905.743	0.0169546
905.821	0.0170396
905.899	0.0168768
905.977	0.0169500
906.055	0.0169427
906.134	0.0168305
906.212	0.0168780
906.290	0.0168931
906.368	0.0168832
906.446	0.0168730
906.524	0.0168792
906.602	0.0168610
906.680	0.0167652
906.759	0.0168287
906.837	0.0167951
906.915	0.0168312
906.993	0.0169103
907.071	0.0168579
907.149	0.0168349
907.227	0.0167927
907.305	0.0169410
907.384	0.0170568
907.462	0.0169439
907.540	0.0170459
907.618	0.0168939
907.696	0.0170750
907.774	0.0171027
907.852	0.0169942
907.930	0.0170066
908.009	0.0170116
908.087	0.0170259
908.165	0.0169141
908.243	0.0171217
908.321	0.0170418
908.399	0.0168333
908.477	0.0168295
908.555	0.0168171
908.634	0.0168406
908.712	0.0168130
908.790	0.0167956
908.868	0.0169236
908.946	0.0167789
909.024	0.0168642
909.102	0.0168006
909.180	0.0167754
909.259	0.0168378
909.337	0.0167400
909.415	0.0167308
909.493	0.0168032
909.571	0.0167668
909.649	0.0169180
909.727	0.0167226
909.805	0.0168544
909.884	0.0167971
909.962	0.0168085
910.040	0.0169990
910.118	0.0169112
910.196	0.0169922
910.274	0.0169585
910.352	0.0170156
910.430	0.0169083
910.509	0.0168694
910.587	0.0169048
910.665	0.0169861
910.743	0.0169955
910.821	0.0170525
910.899	0.0169007
910.977	0.0168893
911.055	0.0169666
911.134	0.0169953
911.212	0.0170361
911.290	0.0171611
911.368	0.0170811
911.446	0.0171697
911.524	0.0170243
911.602	0.0170570
911.680	0.0173511
911.759	0.0171143
911.837	0.0172045
911.915	0.0169694
911.993	0.0170436
912.071	0.0170367
912.149	0.0171037
912.227	0.0169833
912.305	0.0170610
912.384	0.0169598
912.462	0.0170499
912.540	0.0169798
912.618	0.0170318
912.696	0.0169626
912.774	0.0169421
912.852	0.0169868
912.930	0.0168827
913.009	0.0169049
913.087	0.0168471
913.165	0.0168263
913.243	0.0169387
913.321	0.0169114
913.399	0.0168964
913.477	0.0169090
913.555	0.0169778
913.634	0.0168919
913.712	0.0170445
913.790	0.0168955
913.868	0.0170462
913.946	0.0170733
914.024	0.0170777
914.102	0.0171008
914.180	0.0171209
914.259	0.0171722
914.337	0.0170921
914.415	0.0172241
914.493	0.0171620
914.571	0.0171439
914.649	0.0170799
914.727	0.0169267
914.805	0.0171025
914.884	0.0171286
914.962	0.0170160
915.040	0.0171976
915.118	0.0169749
915.196	0.0169423
915.274	0.0170503
915.352	0.0168826
915.430	0.0168217
915.509	0.0168238
915.587	0.0170473
915.665	0.0168819
915.743	0.0169289
915.821	0.0170208
915.899	0.0169979
915.977	0.0170596
916.055	0.0169903
916.134	0.0169617
916.212	0.0170663
916.290	0.0170680
916.368	0.0169421
916.446	0.0170068
916.524	0.0170129
916.602	0.0171275
916.680	0.0170012
916.759	0.0169938
916.837	0.0169065
916.915	0.0170809
916.993	0.0171639
917.071	0.0170219
917.149	0.0170545
917.227	0.0170799
917.305	0.0170818
917.384	0.0169675
917.462	0.0170701
917.540	0.0169476
917.618	0.0170900
917.696	0.0170155
917.774	0.0169651
917.852	0.0168565
917.930	0.0169305
918.009	0.0170646
918.087	0.0169831
918.165	0.0170135
918.243	0.0170082
918.321	0.0169805
918.399	0.0169931
918.477	0.0168903
918.555	0.0170538
918.634	0.0169598
918.712	0.0168317
918.790	0.0170416
918.868	0.0169437
918.946	0.0169016
919.024	0.0169359
919.102	0.0169884
919.180	0.0168974
919.259	0.0170282
919.337	0.0169999
919.415	0.0168624
919.493	0.0168443
919.571	0.0169617
919.649	0.0168463
919.727	0.0169245
919.805	0.0171987
919.884	0.0169728
