06/13/2022	15:18:10	Ver.	4.1	UNKNOWN
Optical Delay	599.961724	Delta X		0.078125	Sweeps	1	Scan Rate	0/0
Coordinates	Axis 1	NaN	Axis 2	NaN	Axis 3	NaN	Axis 4	NaN	Axis 5	NaN	Axis 6	0.000000
TX Power	0.000000	RX Power	0.000000

599.962	0.0162936
600.040	0.0162312
600.118	0.0162547
600.196	0.0161292
600.274	0.0162171
600.352	0.0162608
600.430	0.0161520
600.509	0.0162043
600.587	0.0162712
600.665	0.0162214
600.743	0.0162166
600.821	0.0161451
600.899	0.0161109
600.977	0.0161721
601.055	0.0160905
601.134	0.0160664
601.212	0.0162424
601.290	0.0162812
601.368	0.0161723
601.446	0.0162333
601.524	0.0161509
601.602	0.0160915
601.680	0.0161913
601.759	0.0161212
601.837	0.0160136
601.915	0.0160289
601.993	0.0161694
602.071	0.0160093
602.149	0.0160738
602.227	0.0161240
602.305	0.0162291
602.384	0.0160828
602.462	0.0162007
602.540	0.0162556
602.618	0.0161317
602.696	0.0161484
602.774	0.0161604
602.852	0.0161307
602.930	0.0161725
603.009	0.0162025
603.087	0.0162289
603.165	0.0162558
603.243	0.0161597
603.321	0.0161712
603.399	0.0161802
603.477	0.0160188
603.555	0.0161442
603.634	0.0162059
603.712	0.0160233
603.790	0.0160146
603.868	0.0162336
603.946	0.0161512
604.024	0.0159385
604.102	0.0160020
604.180	0.0160439
604.259	0.0161012
604.337	0.0159369
604.415	0.0159643
604.493	0.0160536
604.571	0.0160126
604.649	0.0159235
604.727	0.0159534
604.805	0.0160735
604.884	0.0158550
604.962	0.0159525
605.040	0.0160477
605.118	0.0160352
605.196	0.0160399
605.274	0.0160120
605.352	0.0158427
605.430	0.0158768
605.509	0.0159492
605.587	0.0159319
605.665	0.0158470
605.743	0.0159065
605.821	0.0158141
605.899	0.0159025
605.977	0.0158333
606.055	0.0157571
606.134	0.0156686
606.212	0.0157047
606.290	0.0155827
606.368	0.0155695
606.446	0.0155668
606.524	0.0156009
606.602	0.0156568
606.680	0.0154161
606.759	0.0154643
606.837	0.0154598
606.915	0.0154044
606.993	0.0155118
607.071	0.0154851
607.149	0.0154851
607.227	0.0154475
607.305	0.0154971
607.384	0.0157263
607.462	0.0155032
607.540	0.0154324
607.618	0.0155801
607.696	0.0156699
607.774	0.0156573
607.852	0.0157681
607.930	0.0157771
608.009	0.0158328
608.087	0.0159454
608.165	0.0158825
608.243	0.0160898
608.321	0.0161192
608.399	0.0159916
608.477	0.0161702
608.555	0.0161587
608.634	0.0162078
608.712	0.0161397
608.790	0.0162193
608.868	0.0162020
608.946	0.0161422
609.024	0.0162727
609.102	0.0163347
609.180	0.0163040
609.259	0.0162990
609.337	0.0163324
609.415	0.0162501
609.493	0.0162943
609.571	0.0163200
609.649	0.0161814
609.727	0.0162457
609.805	0.0161772
609.884	0.0162497
609.962	0.0161693
610.040	0.0161171
610.118	0.0160537
610.196	0.0159735
610.274	0.0159830
610.352	0.0160371
610.430	0.0159912
610.509	0.0160240
610.587	0.0159978
610.665	0.0160331
610.743	0.0160215
610.821	0.0161251
610.899	0.0160741
610.977	0.0160502
611.055	0.0160866
611.134	0.0161682
611.212	0.0163052
611.290	0.0161839
611.368	0.0162020
611.446	0.0162939
611.524	0.0164996
611.602	0.0162930
611.680	0.0162708
611.759	0.0163959
611.837	0.0163716
611.915	0.0164736
611.993	0.0165058
612.071	0.0164587
612.149	0.0164514
612.227	0.0164752
612.305	0.0163075
612.384	0.0165004
612.462	0.0164723
612.540	0.0165248
612.618	0.0164279
612.696	0.0164193
612.774	0.0165758
612.852	0.0165333
612.930	0.0165286
613.009	0.0165058
613.087	0.0166265
613.165	0.0164936
613.243	0.0164987
613.321	0.0166247
613.399	0.0166257
613.477	0.0168051
613.555	0.0165460
613.634	0.0166175
613.712	0.0166685
613.790	0.0167365
613.868	0.0165228
613.946	0.0164905
614.024	0.0167573
614.102	0.0164830
614.180	0.0164546
614.259	0.0166396
614.337	0.0165932
614.415	0.0165165
614.493	0.0166137
614.571	0.0163816
614.649	0.0164363
614.727	0.0164558
614.805	0.0163462
614.884	0.0164058
614.962	0.0162761
615.040	0.0162230
615.118	0.0164539
615.196	0.0164292
615.274	0.0163601
615.352	0.0163080
615.430	0.0163210
615.509	0.0162206
615.587	0.0163145
615.665	0.0162936
615.743	0.0165311
615.821	0.0162703
615.899	0.0162305
615.977	0.0163114
616.055	0.0164466
616.134	0.0163823
616.212	0.0162576
616.290	0.0162888
616.368	0.0163841
616.446	0.0163413
616.524	0.0162595
616.602	0.0161687
616.680	0.0162787
616.759	0.0162374
616.837	0.0162800
616.915	0.0163602
616.993	0.0162630
617.071	0.0162779
617.149	0.0162352
617.227	0.0162511
617.305	0.0162820
617.384	0.0163549
617.462	0.0161962
617.540	0.0162650
617.618	0.0163152
617.696	0.0161374
617.774	0.0160862
617.852	0.0161945
617.930	0.0162404
618.009	0.0162877
618.087	0.0161221
618.165	0.0161221
618.243	0.0160885
618.321	0.0161729
618.399	0.0160076
618.477	0.0161401
618.555	0.0161914
618.634	0.0161855
618.712	0.0160609
618.790	0.0161320
618.868	0.0161153
618.946	0.0162017
619.024	0.0160940
619.102	0.0162516
619.180	0.0161343
619.259	0.0160822
619.337	0.0162308
619.415	0.0161458
619.493	0.0161417
619.571	0.0161100
619.649	0.0160002
619.727	0.0161130
619.805	0.0158697
619.884	0.0161666
619.962	0.0162092
620.040	0.0159502
620.118	0.0160179
620.196	0.0162392
620.274	0.0160735
620.352	0.0161053
620.430	0.0160513
620.509	0.0161008
620.587	0.0160871
620.665	0.0160239
620.743	0.0160305
620.821	0.0160237
620.899	0.0161375
620.977	0.0159531
621.055	0.0158965
621.134	0.0160266
621.212	0.0161284
621.290	0.0161070
621.368	0.0160825
621.446	0.0160341
621.524	0.0159513
621.602	0.0159709
621.680	0.0159392
621.759	0.0158912
621.837	0.0160433
621.915	0.0160121
621.993	0.0158495
622.071	0.0159988
622.149	0.0159576
622.227	0.0160203
622.305	0.0160648
622.384	0.0160759
622.462	0.0158464
622.540	0.0160961
622.618	0.0159048
622.696	0.0160703
622.774	0.0160606
622.852	0.0160321
622.930	0.0159073
623.009	0.0159998
623.087	0.0161003
623.165	0.0159843
623.243	0.0160152
623.321	0.0160893
623.399	0.0161834
623.477	0.0161536
623.555	0.0160588
623.634	0.0160420
623.712	0.0161536
623.790	0.0162061
623.868	0.0160354
623.946	0.0161226
624.024	0.0161579
624.102	0.0160208
624.180	0.0161176
624.259	0.0161076
624.337	0.0161404
624.415	0.0161447
624.493	0.0162390
624.571	0.0161840
624.649	0.0161003
624.727	0.0161050
624.805	0.0162109
624.884	0.0162643
624.962	0.0160614
625.040	0.0162339
625.118	0.0161805
625.196	0.0161395
625.274	0.0161745
625.352	0.0160439
625.430	0.0160460
625.509	0.0160999
625.587	0.0160279
625.665	0.0160110
625.743	0.0160426
625.821	0.0159966
625.899	0.0159898
625.977	0.0159376
626.055	0.0158971
626.134	0.0159219
626.212	0.0160732
626.290	0.0160381
626.368	0.0160186
626.446	0.0160161
626.524	0.0159180
626.602	0.0160646
626.680	0.0159798
626.759	0.0160352
626.837	0.0161391
626.915	0.0160652
626.993	0.0159795
627.071	0.0160514
627.149	0.0160951
627.227	0.0159469
627.305	0.0161665
627.384	0.0160439
627.462	0.0161079
627.540	0.0159467
627.618	0.0161725
627.696	0.0162257
627.774	0.0159278
627.852	0.0160146
627.930	0.0163042
628.009	0.0161602
628.087	0.0160763
628.165	0.0160408
628.243	0.0162084
628.321	0.0160857
628.399	0.0162846
628.477	0.0161882
628.555	0.0160212
628.634	0.0161729
628.712	0.0161235
628.790	0.0161381
628.868	0.0161282
628.946	0.0161457
629.024	0.0161369
629.102	0.0161048
629.180	0.0159930
629.259	0.0160380
629.337	0.0161026
629.415	0.0161278
629.493	0.0160484
629.571	0.0160546
629.649	0.0160202
629.727	0.0161491
629.805	0.0160300
629.884	0.0161091
629.962	0.0160179
630.040	0.0159863
630.118	0.0160871
630.196	0.0160364
630.274	0.0160090
630.352	0.0159634
630.430	0.0161539
630.509	0.0160203
630.587	0.0161797
630.665	0.0160773
630.743	0.0160265
630.821	0.0161379
630.899	0.0161507
630.977	0.0160902
631.055	0.0162813
631.134	0.0161620
631.212	0.0161682
631.290	0.0161046
631.368	0.0162176
631.446	0.0161317
631.524	0.0160152
631.602	0.0161503
631.680	0.0161892
631.759	0.0159948
631.837	0.0161081
631.915	0.0160364
631.993	0.0161922
632.071	0.0161494
632.149	0.0160673
632.227	0.0160902
632.305	0.0159885
632.384	0.0161766
632.462	0.0161691
632.540	0.0160743
632.618	0.0161224
632.696	0.0160215
632.774	0.0161652
632.852	0.0161758
632.930	0.0161659
633.009	0.0162061
633.087	0.0161674
633.165	0.0163107
633.243	0.0161507
633.321	0.0161690
633.399	0.0161832
633.477	0.0162277
633.555	0.0162152
633.634	0.0162064
633.712	0.0162428
633.790	0.0162044
633.868	0.0163719
633.946	0.0162049
634.024	0.0161661
634.102	0.0162644
634.180	0.0161903
634.259	0.0162840
634.337	0.0163995
634.415	0.0162634
634.493	0.0162783
634.571	0.0163668
634.649	0.0164087
634.727	0.0162835
634.805	0.0162031
634.884	0.0163857
634.962	0.0164925
635.040	0.0162927
635.118	0.0163276
635.196	0.0164388
635.274	0.0163149
635.352	0.0163097
635.430	0.0164082
635.509	0.0162592
635.587	0.0163374
635.665	0.0162172
635.743	0.0163691
635.821	0.0163023
635.899	0.0162783
635.977	0.0161996
636.055	0.0162369
636.134	0.0162765
636.212	0.0161051
636.290	0.0161411
636.368	0.0161089
636.446	0.0162236
636.524	0.0162876
636.602	0.0161037
636.680	0.0161296
636.759	0.0160868
636.837	0.0162019
636.915	0.0160902
636.993	0.0160745
637.071	0.0161927
637.149	0.0162069
637.227	0.0162160
637.305	0.0162247
637.384	0.0162666
637.462	0.0159841
637.540	0.0160939
637.618	0.0161019
637.696	0.0161322
637.774	0.0162155
637.852	0.0161270
637.930	0.0159500
638.009	0.0161539
638.087	0.0161590
638.165	0.0161814
638.243	0.0160925
638.321	0.0160981
638.399	0.0161809
638.477	0.0161437
638.555	0.0160388
638.634	0.0160634
638.712	0.0161449
638.790	0.0159997
638.868	0.0161570
638.946	0.0160845
639.024	0.0161044
639.102	0.0160181
639.180	0.0160201
639.259	0.0159541
639.337	0.0162350
639.415	0.0161727
639.493	0.0160884
639.571	0.0160295
639.649	0.0160583
639.727	0.0161658
639.805	0.0161467
639.884	0.0160805
639.962	0.0161771
640.040	0.0159380
640.118	0.0159941
640.196	0.0161204
640.274	0.0161140
640.352	0.0161611
640.430	0.0160504
640.509	0.0160468
640.587	0.0161316
640.665	0.0160679
640.743	0.0160421
640.821	0.0160661
640.899	0.0160000
640.977	0.0160948
641.055	0.0161243
641.134	0.0161017
641.212	0.0160970
641.290	0.0161426
641.368	0.0160958
641.446	0.0159501
641.524	0.0160728
641.602	0.0160868
641.680	0.0161472
641.759	0.0161080
641.837	0.0160703
641.915	0.0160807
641.993	0.0160445
642.071	0.0161584
642.149	0.0161893
642.227	0.0162098
642.305	0.0160874
642.384	0.0162489
642.462	0.0161699
642.540	0.0161864
642.618	0.0161832
642.696	0.0160932
642.774	0.0163132
642.852	0.0161833
642.930	0.0160585
643.009	0.0162515
643.087	0.0162187
643.165	0.0161816
643.243	0.0162299
643.321	0.0161701
643.399	0.0161484
643.477	0.0161594
643.555	0.0160796
643.634	0.0162727
643.712	0.0162098
643.790	0.0161933
643.868	0.0162294
643.946	0.0161884
644.024	0.0162550
644.102	0.0160120
644.180	0.0160390
644.259	0.0162423
644.337	0.0163891
644.415	0.0162546
644.493	0.0162305
644.571	0.0160541
644.649	0.0161823
644.727	0.0161169
644.805	0.0161393
644.884	0.0162125
644.962	0.0160755
645.040	0.0161739
645.118	0.0162443
645.196	0.0161156
645.274	0.0163094
645.352	0.0162064
645.430	0.0162095
645.509	0.0161555
645.587	0.0160726
645.665	0.0159434
645.743	0.0161752
645.821	0.0161610
645.899	0.0160049
645.977	0.0160740
646.055	0.0160975
646.134	0.0161345
646.212	0.0161170
646.290	0.0160283
646.368	0.0160071
646.446	0.0161059
646.524	0.0161066
646.602	0.0160625
646.680	0.0160567
646.759	0.0159869
646.837	0.0161591
646.915	0.0161041
646.993	0.0160921
647.071	0.0159659
647.149	0.0160455
647.227	0.0159577
647.305	0.0161650
647.384	0.0160706
647.462	0.0160780
647.540	0.0161504
647.618	0.0160201
647.696	0.0161906
647.774	0.0162557
647.852	0.0161851
647.930	0.0162864
648.009	0.0162573
648.087	0.0161171
648.165	0.0161979
648.243	0.0162309
648.321	0.0162272
648.399	0.0160998
648.477	0.0162430
648.555	0.0163013
648.634	0.0162413
648.712	0.0163152
648.790	0.0163767
648.868	0.0162759
648.946	0.0161196
649.024	0.0161851
649.102	0.0162110
649.180	0.0161588
649.259	0.0161767
649.337	0.0161045
649.415	0.0163421
649.493	0.0162229
649.571	0.0161562
649.649	0.0162253
649.727	0.0161948
649.805	0.0161999
649.884	0.0161584
649.962	0.0161649
650.040	0.0162717
650.118	0.0161778
650.196	0.0161606
650.274	0.0162360
650.352	0.0162663
650.430	0.0163361
650.509	0.0162914
650.587	0.0161821
650.665	0.0162479
650.743	0.0163223
650.821	0.0162153
650.899	0.0162847
650.977	0.0161697
651.055	0.0162469
651.134	0.0163272
651.212	0.0162296
651.290	0.0163564
651.368	0.0161797
651.446	0.0162569
651.524	0.0162031
651.602	0.0161866
651.680	0.0162806
651.759	0.0162334
651.837	0.0162406
651.915	0.0162818
651.993	0.0162981
652.071	0.0160542
652.149	0.0162394
652.227	0.0162681
652.305	0.0160511
652.384	0.0162676
652.462	0.0161791
652.540	0.0160242
652.618	0.0162652
652.696	0.0161683
652.774	0.0161037
652.852	0.0161217
652.930	0.0162485
653.009	0.0162309
653.087	0.0161848
653.165	0.0160675
653.243	0.0163224
653.321	0.0161654
653.399	0.0162462
653.477	0.0161031
653.555	0.0161260
653.634	0.0160845
653.712	0.0161485
653.790	0.0161383
653.868	0.0161728
653.946	0.0161635
654.024	0.0162000
654.102	0.0159741
654.180	0.0161011
654.259	0.0162646
654.337	0.0162074
654.415	0.0160237
654.493	0.0160546
654.571	0.0161160
654.649	0.0159492
654.727	0.0161196
654.805	0.0161015
654.884	0.0160513
654.962	0.0160764
655.040	0.0160695
655.118	0.0160565
655.196	0.0160301
655.274	0.0160252
655.352	0.0161584
655.430	0.0161087
655.509	0.0160614
655.587	0.0160982
655.665	0.0160243
655.743	0.0160064
655.821	0.0159734
655.899	0.0160676
655.977	0.0160492
656.055	0.0160661
656.134	0.0160387
656.212	0.0160196
656.290	0.0158797
656.368	0.0158852
656.446	0.0161425
656.524	0.0161134
656.602	0.0159908
656.680	0.0159824
656.759	0.0160401
656.837	0.0160410
656.915	0.0161385
656.993	0.0160746
657.071	0.0160257
657.149	0.0160912
657.227	0.0161125
657.305	0.0161522
657.384	0.0160744
657.462	0.0162008
657.540	0.0160825
657.618	0.0161404
657.696	0.0161721
657.774	0.0161355
657.852	0.0161068
657.930	0.0161212
658.009	0.0162402
658.087	0.0162533
658.165	0.0161456
658.243	0.0162618
658.321	0.0162466
658.399	0.0162658
658.477	0.0163296
658.555	0.0161983
658.634	0.0161684
658.712	0.0162061
658.790	0.0162686
658.868	0.0162801
658.946	0.0164228
659.024	0.0162790
659.102	0.0161993
659.180	0.0162159
659.259	0.0163392
659.337	0.0163660
659.415	0.0162803
659.493	0.0161424
659.571	0.0163921
659.649	0.0161774
659.727	0.0162124
659.805	0.0162337
659.884	0.0162899
659.962	0.0162705
660.040	0.0162306
660.118	0.0161701
660.196	0.0160745
660.274	0.0160867
660.352	0.0161619
660.430	0.0161412
660.509	0.0161249
660.587	0.0161050
660.665	0.0160961
660.743	0.0160621
660.821	0.0161311
660.899	0.0161965
660.977	0.0161069
661.055	0.0160976
661.134	0.0159757
661.212	0.0160870
661.290	0.0161343
661.368	0.0161988
661.446	0.0162047
661.524	0.0161275
661.602	0.0161293
661.680	0.0161264
661.759	0.0161582
661.837	0.0161497
661.915	0.0161596
661.993	0.0162209
662.071	0.0162746
662.149	0.0161925
662.227	0.0161497
662.305	0.0161661
662.384	0.0161826
662.462	0.0161045
662.540	0.0160513
662.618	0.0160670
662.696	0.0160404
662.774	0.0160665
662.852	0.0161265
662.930	0.0162267
663.009	0.0161190
663.087	0.0162206
663.165	0.0162759
663.243	0.0162125
663.321	0.0162031
663.399	0.0160879
663.477	0.0162433
663.555	0.0161842
663.634	0.0161927
663.712	0.0160681
663.790	0.0160812
663.868	0.0161382
663.946	0.0161524
664.024	0.0160242
664.102	0.0162556
664.180	0.0160857
664.259	0.0160561
664.337	0.0161179
664.415	0.0160747
664.493	0.0161335
664.571	0.0161456
664.649	0.0160550
664.727	0.0160902
664.805	0.0160650
664.884	0.0161070
664.962	0.0161156
665.040	0.0160301
665.118	0.0161544
665.196	0.0162041
665.274	0.0161024
665.352	0.0161906
665.430	0.0162407
665.509	0.0162381
665.587	0.0161443
665.665	0.0161237
665.743	0.0162630
665.821	0.0161421
665.899	0.0161111
665.977	0.0162674
666.055	0.0161339
666.134	0.0163051
666.212	0.0160684
666.290	0.0161103
666.368	0.0161482
666.446	0.0161747
666.524	0.0163166
666.602	0.0161092
666.680	0.0161585
666.759	0.0162010
666.837	0.0162366
666.915	0.0161833
666.993	0.0161832
667.071	0.0162709
667.149	0.0163683
667.227	0.0161507
667.305	0.0161887
667.384	0.0162747
667.462	0.0160805
667.540	0.0161266
667.618	0.0160905
667.696	0.0161862
667.774	0.0162873
667.852	0.0162176
667.930	0.0161557
668.009	0.0162481
668.087	0.0163523
668.165	0.0161710
668.243	0.0163048
668.321	0.0162902
668.399	0.0161725
668.477	0.0161906
668.555	0.0163071
668.634	0.0163786
668.712	0.0163357
668.790	0.0161290
668.868	0.0162537
668.946	0.0163111
669.024	0.0162128
669.102	0.0162719
669.180	0.0163631
669.259	0.0163876
669.337	0.0162478
669.415	0.0161304
669.493	0.0162251
669.571	0.0164249
669.649	0.0163087
669.727	0.0160470
669.805	0.0161466
669.884	0.0161953
669.962	0.0161925
670.040	0.0162334
670.118	0.0162931
670.196	0.0162132
670.274	0.0162822
670.352	0.0162172
670.430	0.0161382
670.509	0.0161546
670.587	0.0161687
670.665	0.0161735
670.743	0.0162171
670.821	0.0161481
670.899	0.0162295
670.977	0.0163171
671.055	0.0161183
671.134	0.0162055
671.212	0.0161890
671.290	0.0161136
671.368	0.0161286
671.446	0.0162680
671.524	0.0160966
671.602	0.0162536
671.680	0.0161543
671.759	0.0161763
671.837	0.0162227
671.915	0.0162663
671.993	0.0163177
672.071	0.0162424
672.149	0.0161630
672.227	0.0163682
672.305	0.0161665
672.384	0.0161924
672.462	0.0162412
672.540	0.0162920
672.618	0.0162372
672.696	0.0163302
672.774	0.0162025
672.852	0.0163651
672.930	0.0163020
673.009	0.0161865
673.087	0.0163808
673.165	0.0162215
673.243	0.0163640
673.321	0.0161996
673.399	0.0162417
673.477	0.0163479
673.555	0.0163071
673.634	0.0163808
673.712	0.0162731
673.790	0.0162601
673.868	0.0164012
673.946	0.0161661
674.024	0.0162399
674.102	0.0162751
674.180	0.0163123
674.259	0.0162332
674.337	0.0162276
674.415	0.0160832
674.493	0.0161988
674.571	0.0162324
674.649	0.0161535
674.727	0.0160735
674.805	0.0161568
674.884	0.0162884
674.962	0.0161743
675.040	0.0160916
675.118	0.0161320
675.196	0.0161874
675.274	0.0161086
675.352	0.0161348
675.430	0.0161736
675.509	0.0162387
675.587	0.0161642
675.665	0.0160995
675.743	0.0159745
675.821	0.0160603
675.899	0.0161767
675.977	0.0160667
676.055	0.0160373
676.134	0.0160650
676.212	0.0160608
676.290	0.0160664
676.368	0.0159123
676.446	0.0160547
676.524	0.0161116
676.602	0.0160799
676.680	0.0160630
676.759	0.0160047
676.837	0.0160880
676.915	0.0160173
676.993	0.0160567
677.071	0.0160995
677.149	0.0160156
677.227	0.0160046
677.305	0.0159408
677.384	0.0160829
677.462	0.0159383
677.540	0.0159671
677.618	0.0161012
677.696	0.0160760
677.774	0.0160233
677.852	0.0160802
677.930	0.0158686
678.009	0.0158530
678.087	0.0159567
678.165	0.0160021
678.243	0.0159377
678.321	0.0159756
678.399	0.0159518
678.477	0.0159660
678.555	0.0158058
678.634	0.0159048
678.712	0.0160103
678.790	0.0159146
678.868	0.0158125
678.946	0.0158516
679.024	0.0158666
679.102	0.0159966
679.180	0.0159367
679.259	0.0158227
679.337	0.0159782
679.415	0.0160837
679.493	0.0158649
679.571	0.0159161
679.649	0.0160472
679.727	0.0159134
679.805	0.0159471
679.884	0.0158920
679.962	0.0159707
680.040	0.0159010
680.118	0.0159101
680.196	0.0158248
680.274	0.0159251
680.352	0.0158169
680.430	0.0157730
680.509	0.0158482
680.587	0.0158788
680.665	0.0158360
680.743	0.0158851
680.821	0.0159163
680.899	0.0158863
680.977	0.0158125
681.055	0.0157913
681.134	0.0159174
681.212	0.0158727
681.290	0.0159560
681.368	0.0158997
681.446	0.0158202
681.524	0.0159622
681.602	0.0157800
681.680	0.0157832
681.759	0.0159834
681.837	0.0159238
681.915	0.0157678
681.993	0.0159087
682.071	0.0158498
682.149	0.0159493
682.227	0.0159971
682.305	0.0159467
682.384	0.0157747
682.462	0.0158537
682.540	0.0158701
682.618	0.0157224
682.696	0.0158231
682.774	0.0159111
682.852	0.0159399
682.930	0.0160240
683.009	0.0157310
683.087	0.0158859
683.165	0.0159748
683.243	0.0158887
683.321	0.0158585
683.399	0.0158897
683.477	0.0158863
683.555	0.0160327
683.634	0.0159159
683.712	0.0158862
683.790	0.0158150
683.868	0.0159248
683.946	0.0159762
684.024	0.0158804
684.102	0.0160870
684.180	0.0159450
684.259	0.0161478
684.337	0.0159995
684.415	0.0159867
684.493	0.0161413
684.571	0.0160475
684.649	0.0160480
684.727	0.0159888
684.805	0.0160093
684.884	0.0160717
684.962	0.0160812
685.040	0.0159934
685.118	0.0160512
685.196	0.0161617
685.274	0.0159920
685.352	0.0160953
685.430	0.0160759
685.509	0.0160560
685.587	0.0161668
685.665	0.0161354
685.743	0.0161884
685.821	0.0162228
685.899	0.0161104
685.977	0.0161126
686.055	0.0160979
686.134	0.0161754
686.212	0.0161803
686.290	0.0161538
686.368	0.0161681
686.446	0.0162205
686.524	0.0161184
686.602	0.0161427
686.680	0.0162144
686.759	0.0161602
686.837	0.0162624
686.915	0.0163189
686.993	0.0162894
687.071	0.0163416
687.149	0.0162119
687.227	0.0162615
687.305	0.0162955
687.384	0.0163316
687.462	0.0162535
687.540	0.0161376
687.618	0.0163222
687.696	0.0163668
687.774	0.0162872
687.852	0.0162556
687.930	0.0163032
688.009	0.0163094
688.087	0.0163915
688.165	0.0163885
688.243	0.0164731
688.321	0.0163000
688.399	0.0164262
688.477	0.0162637
688.555	0.0163106
688.634	0.0164072
688.712	0.0165939
688.790	0.0163905
688.868	0.0163737
688.946	0.0163641
689.024	0.0162051
689.102	0.0163213
689.180	0.0163117
689.259	0.0163927
689.337	0.0162464
689.415	0.0163972
689.493	0.0163551
689.571	0.0164016
689.649	0.0163044
689.727	0.0162244
689.805	0.0164772
689.884	0.0163680
689.962	0.0163987
690.040	0.0163395
690.118	0.0164050
690.196	0.0163786
690.274	0.0163069
690.352	0.0163091
690.430	0.0163402
690.509	0.0162649
690.587	0.0163863
690.665	0.0163402
690.743	0.0163498
690.821	0.0165337
690.899	0.0164205
690.977	0.0163285
691.055	0.0164770
691.134	0.0164660
691.212	0.0164040
691.290	0.0164462
691.368	0.0165063
691.446	0.0164516
691.524	0.0164140
691.602	0.0165569
691.680	0.0164032
691.759	0.0165606
691.837	0.0163754
691.915	0.0164574
691.993	0.0164557
692.071	0.0163923
692.149	0.0163107
692.227	0.0164736
692.305	0.0164386
692.384	0.0163976
692.462	0.0163464
692.540	0.0164342
692.618	0.0163520
692.696	0.0164809
692.774	0.0164476
692.852	0.0163396
692.930	0.0163933
693.009	0.0162997
693.087	0.0163983
693.165	0.0163988
693.243	0.0162633
693.321	0.0162714
693.399	0.0162486
693.477	0.0162911
693.555	0.0162732
693.634	0.0162437
693.712	0.0162624
693.790	0.0162852
693.868	0.0163735
693.946	0.0163797
694.024	0.0162378
694.102	0.0163004
694.180	0.0162205
694.259	0.0162029
694.337	0.0162618
694.415	0.0163560
694.493	0.0161597
694.571	0.0162859
694.649	0.0162971
694.727	0.0162531
694.805	0.0163492
694.884	0.0163112
694.962	0.0163044
695.040	0.0162259
695.118	0.0163163
695.196	0.0162932
695.274	0.0161163
695.352	0.0162443
695.430	0.0163046
695.509	0.0163322
695.587	0.0162434
695.665	0.0162742
695.743	0.0161721
695.821	0.0163339
695.899	0.0162158
695.977	0.0163300
696.055	0.0161604
696.134	0.0161047
696.212	0.0162254
696.290	0.0160680
696.368	0.0162563
696.446	0.0160481
696.524	0.0161395
696.602	0.0162012
696.680	0.0163274
696.759	0.0161510
696.837	0.0162675
696.915	0.0161442
696.993	0.0163355
697.071	0.0162025
697.149	0.0161765
697.227	0.0162282
697.305	0.0163144
697.384	0.0162357
697.462	0.0161101
697.540	0.0161246
697.618	0.0162015
697.696	0.0161041
697.774	0.0162280
697.852	0.0161579
697.930	0.0160119
698.009	0.0161456
698.087	0.0161765
698.165	0.0162309
698.243	0.0161875
698.321	0.0159926
698.399	0.0161082
698.477	0.0160650
698.555	0.0159843
698.634	0.0161127
698.712	0.0159697
698.790	0.0160140
698.868	0.0160746
698.946	0.0160187
699.024	0.0159729
699.102	0.0160973
699.180	0.0160908
699.259	0.0160550
699.337	0.0162157
699.415	0.0159701
699.493	0.0159219
699.571	0.0160268
699.649	0.0161797
699.727	0.0161818
699.805	0.0160045
699.884	0.0160473
699.962	0.0160378
700.040	0.0160472
700.118	0.0161390
700.196	0.0159711
700.274	0.0159367
700.352	0.0161608
700.430	0.0161086
700.509	0.0160866
700.587	0.0159696
700.665	0.0158982
700.743	0.0159588
700.821	0.0159926
700.899	0.0159221
700.977	0.0159376
701.055	0.0158434
701.134	0.0159799
701.212	0.0157436
701.290	0.0158397
701.368	0.0159760
701.446	0.0158366
701.524	0.0158199
701.602	0.0157816
701.680	0.0158541
701.759	0.0158599
701.837	0.0158403
701.915	0.0157977
701.993	0.0157098
702.071	0.0156808
702.149	0.0158340
702.227	0.0157240
702.305	0.0158453
702.384	0.0157558
702.462	0.0157204
702.540	0.0157805
702.618	0.0157189
702.696	0.0157864
702.774	0.0158536
702.852	0.0158337
702.930	0.0157006
703.009	0.0157140
703.087	0.0157554
703.165	0.0158383
703.243	0.0159158
703.321	0.0158745
703.399	0.0158270
703.477	0.0158202
703.555	0.0158035
703.634	0.0159000
703.712	0.0159772
703.790	0.0158939
703.868	0.0160156
703.946	0.0160447
704.024	0.0160165
704.102	0.0159992
704.180	0.0159109
704.259	0.0160736
704.337	0.0160513
704.415	0.0161308
704.493	0.0161334
704.571	0.0159802
704.649	0.0160400
704.727	0.0161448
704.805	0.0161621
704.884	0.0160641
704.962	0.0160184
705.040	0.0161181
705.118	0.0161301
705.196	0.0161761
705.274	0.0160386
705.352	0.0160448
705.430	0.0161430
705.509	0.0160692
705.587	0.0161377
705.665	0.0159830
705.743	0.0160680
705.821	0.0162354
705.899	0.0160524
705.977	0.0160210
706.055	0.0160713
706.134	0.0161527
706.212	0.0159112
706.290	0.0158925
706.368	0.0159335
706.446	0.0160991
706.524	0.0160414
706.602	0.0159748
706.680	0.0160839
706.759	0.0160261
706.837	0.0160303
706.915	0.0159418
706.993	0.0159385
707.071	0.0160194
707.149	0.0160683
707.227	0.0159407
707.305	0.0160483
707.384	0.0159299
707.462	0.0159110
707.540	0.0158823
707.618	0.0160568
707.696	0.0160828
707.774	0.0159286
707.852	0.0160338
707.930	0.0161093
708.009	0.0160213
708.087	0.0159808
708.165	0.0159398
708.243	0.0159981
708.321	0.0158796
708.399	0.0159547
708.477	0.0160726
708.555	0.0161078
708.634	0.0160429
708.712	0.0161610
708.790	0.0161458
708.868	0.0160623
708.946	0.0160654
709.024	0.0162225
709.102	0.0160417
709.180	0.0161577
709.259	0.0161578
709.337	0.0161469
709.415	0.0161044
709.493	0.0162201
709.571	0.0161519
709.649	0.0159995
709.727	0.0161067
709.805	0.0162363
709.884	0.0161356
709.962	0.0161559
710.040	0.0162134
710.118	0.0161065
710.196	0.0159891
710.274	0.0162326
710.352	0.0162695
710.430	0.0161211
710.509	0.0161675
710.587	0.0162591
710.665	0.0161250
710.743	0.0162180
710.821	0.0162749
710.899	0.0161411
710.977	0.0161650
711.055	0.0161253
711.134	0.0162553
711.212	0.0164378
711.290	0.0162667
711.368	0.0161895
711.446	0.0162405
711.524	0.0162518
711.602	0.0163832
711.680	0.0163763
711.759	0.0162973
711.837	0.0163393
711.915	0.0163551
711.993	0.0163150
712.071	0.0163560
712.149	0.0164182
712.227	0.0163502
712.305	0.0163101
712.384	0.0162563
712.462	0.0164025
712.540	0.0164458
712.618	0.0164432
712.696	0.0165024
712.774	0.0162620
712.852	0.0161858
712.930	0.0162175
713.009	0.0163280
713.087	0.0163393
713.165	0.0163225
713.243	0.0165222
713.321	0.0164612
713.399	0.0162935
713.477	0.0164476
713.555	0.0166368
713.634	0.0163507
713.712	0.0163578
713.790	0.0162498
713.868	0.0163533
713.946	0.0165053
714.024	0.0164324
714.102	0.0163969
714.180	0.0164589
714.259	0.0165481
714.337	0.0163959
714.415	0.0165165
714.493	0.0163927
714.571	0.0164133
714.649	0.0165244
714.727	0.0163795
714.805	0.0163203
714.884	0.0164036
714.962	0.0164629
715.040	0.0164450
715.118	0.0163799
715.196	0.0164435
715.274	0.0165523
715.352	0.0163702
715.430	0.0165148
715.509	0.0163744
715.587	0.0163035
715.665	0.0164334
715.743	0.0163679
715.821	0.0164505
715.899	0.0164143
715.977	0.0162575
716.055	0.0162240
716.134	0.0163815
716.212	0.0163134
716.290	0.0163178
716.368	0.0162589
716.446	0.0163053
716.524	0.0163898
716.602	0.0162224
716.680	0.0162045
716.759	0.0163687
716.837	0.0163605
716.915	0.0162385
716.993	0.0163461
717.071	0.0164127
717.149	0.0164265
717.227	0.0163022
717.305	0.0162622
717.384	0.0163396
717.462	0.0162509
717.540	0.0163374
717.618	0.0163044
717.696	0.0164294
717.774	0.0162814
717.852	0.0161981
717.930	0.0162745
718.009	0.0163516
718.087	0.0163041
718.165	0.0163459
718.243	0.0163365
718.321	0.0163081
718.399	0.0163464
718.477	0.0163113
718.555	0.0162647
718.634	0.0162154
718.712	0.0163757
718.790	0.0163846
718.868	0.0163406
718.946	0.0163033
719.024	0.0162916
719.102	0.0163619
719.180	0.0163048
719.259	0.0163745
719.337	0.0162841
719.415	0.0162753
719.493	0.0161942
719.571	0.0162705
719.649	0.0162873
719.727	0.0162201
719.805	0.0159827
719.884	0.0163364
719.962	0.0162925
720.040	0.0162376
720.118	0.0162278
720.196	0.0162337
720.274	0.0162241
720.352	0.0161086
720.430	0.0162157
720.509	0.0163080
720.587	0.0161597
720.665	0.0161442
720.743	0.0161513
720.821	0.0161885
720.899	0.0160392
720.977	0.0161716
721.055	0.0161436
721.134	0.0160682
721.212	0.0161430
721.290	0.0161998
721.368	0.0162362
721.446	0.0161462
721.524	0.0160892
721.602	0.0160900
721.680	0.0161993
721.759	0.0161449
721.837	0.0161850
721.915	0.0162448
721.993	0.0161453
722.071	0.0161595
722.149	0.0161599
722.227	0.0162538
722.305	0.0160491
722.384	0.0162213
722.462	0.0162326
722.540	0.0161348
722.618	0.0162093
722.696	0.0160997
722.774	0.0162500
722.852	0.0161899
722.930	0.0160947
723.009	0.0161964
723.087	0.0161209
723.165	0.0160484
723.243	0.0159911
723.321	0.0160049
723.399	0.0160880
723.477	0.0160344
723.555	0.0160220
723.634	0.0159834
723.712	0.0159381
723.790	0.0160184
723.868	0.0160748
723.946	0.0160372
724.024	0.0160127
724.102	0.0158388
724.180	0.0158557
724.259	0.0159023
724.337	0.0159588
724.415	0.0159178
724.493	0.0159177
724.571	0.0159711
724.649	0.0158787
724.727	0.0159614
724.805	0.0158333
724.884	0.0159796
724.962	0.0160035
725.040	0.0160282
725.118	0.0160315
725.196	0.0158951
725.274	0.0158583
725.352	0.0159103
725.430	0.0159953
725.509	0.0159425
725.587	0.0158833
725.665	0.0157567
725.743	0.0158440
725.821	0.0158436
725.899	0.0158730
725.977	0.0158840
726.055	0.0160062
726.134	0.0159966
726.212	0.0159246
726.290	0.0159110
726.368	0.0159457
726.446	0.0159773
726.524	0.0159112
726.602	0.0159053
726.680	0.0158268
726.759	0.0159228
726.837	0.0160326
726.915	0.0159167
726.993	0.0160069
727.071	0.0159650
727.149	0.0159902
727.227	0.0157588
727.305	0.0159334
727.384	0.0159084
727.462	0.0159039
727.540	0.0159937
727.618	0.0159935
727.696	0.0159828
727.774	0.0159946
727.852	0.0159334
727.930	0.0159049
728.009	0.0161227
728.087	0.0158386
728.165	0.0160321
728.243	0.0160613
728.321	0.0161558
728.399	0.0160028
728.477	0.0161180
728.555	0.0161122
728.634	0.0162730
728.712	0.0162183
728.790	0.0160471
728.868	0.0162210
728.946	0.0161917
729.024	0.0161534
729.102	0.0160995
729.180	0.0161376
729.259	0.0162193
729.337	0.0162920
729.415	0.0162096
729.493	0.0161334
729.571	0.0162846
729.649	0.0162347
729.727	0.0162652
729.805	0.0162073
729.884	0.0163847
729.962	0.0161996
730.040	0.0161736
730.118	0.0161783
730.196	0.0163321
730.274	0.0163509
730.352	0.0162828
730.430	0.0162385
730.509	0.0161390
730.587	0.0162019
730.665	0.0161311
730.743	0.0162107
730.821	0.0160590
730.899	0.0161806
730.977	0.0162644
731.055	0.0159395
731.134	0.0159850
731.212	0.0161718
731.290	0.0161423
731.368	0.0159068
731.446	0.0161083
731.524	0.0161444
731.602	0.0160392
731.680	0.0160361
731.759	0.0161343
731.837	0.0162003
731.915	0.0162268
731.993	0.0160246
732.071	0.0159680
732.149	0.0160249
732.227	0.0160226
732.305	0.0159594
732.384	0.0159494
732.462	0.0159625
732.540	0.0160259
732.618	0.0161216
732.696	0.0160045
732.774	0.0160132
732.852	0.0161425
732.930	0.0160934
733.009	0.0160424
733.087	0.0159711
733.165	0.0160995
733.243	0.0160585
733.321	0.0159911
733.399	0.0160329
733.477	0.0160648
733.555	0.0162213
733.634	0.0160225
733.712	0.0161997
733.790	0.0161208
733.868	0.0162035
733.946	0.0160487
734.024	0.0160774
734.102	0.0161772
734.180	0.0161294
734.259	0.0161310
734.337	0.0160520
734.415	0.0161102
734.493	0.0161689
734.571	0.0161097
734.649	0.0161211
734.727	0.0160898
734.805	0.0161774
734.884	0.0160624
734.962	0.0161720
735.040	0.0161133
735.118	0.0161102
735.196	0.0159800
735.274	0.0160500
735.352	0.0160983
735.430	0.0160897
735.509	0.0160567
735.587	0.0161014
735.665	0.0162018
735.743	0.0162469
735.821	0.0160914
735.899	0.0163062
735.977	0.0162225
736.055	0.0163049
736.134	0.0163773
736.212	0.0161224
736.290	0.0161813
736.368	0.0162730
736.446	0.0162696
736.524	0.0163047
736.602	0.0161862
736.680	0.0161820
736.759	0.0161945
736.837	0.0161017
736.915	0.0162093
736.993	0.0162685
737.071	0.0163548
737.149	0.0162044
737.227	0.0161857
737.305	0.0162248
737.384	0.0160851
737.462	0.0160406
737.540	0.0162141
737.618	0.0162622
737.696	0.0163042
737.774	0.0162326
737.852	0.0162751
737.930	0.0161788
738.009	0.0160175
738.087	0.0162495
738.165	0.0162570
738.243	0.0162855
738.321	0.0161195
738.399	0.0161303
738.477	0.0162109
738.555	0.0162305
738.634	0.0160030
738.712	0.0160979
738.790	0.0161013
738.868	0.0162161
738.946	0.0161188
739.024	0.0161798
739.102	0.0161044
739.180	0.0160149
739.259	0.0160692
739.337	0.0161140
739.415	0.0160838
739.493	0.0159659
739.571	0.0161576
739.649	0.0160187
739.727	0.0161698
739.805	0.0161232
739.884	0.0161380
739.962	0.0161350
740.040	0.0160933
740.118	0.0161584
740.196	0.0160441
740.274	0.0161026
740.352	0.0160922
740.430	0.0160831
740.509	0.0160808
740.587	0.0162107
740.665	0.0161525
740.743	0.0160912
740.821	0.0161191
740.899	0.0161263
740.977	0.0161516
741.055	0.0160710
741.134	0.0162557
741.212	0.0160633
741.290	0.0161348
741.368	0.0162153
741.446	0.0160245
741.524	0.0160872
741.602	0.0162704
741.680	0.0161947
741.759	0.0161134
741.837	0.0162026
741.915	0.0161258
741.993	0.0160938
742.071	0.0161861
742.149	0.0161150
742.227	0.0160847
742.305	0.0160729
742.384	0.0161749
742.462	0.0161912
742.540	0.0161378
742.618	0.0161945
742.696	0.0162243
742.774	0.0161243
742.852	0.0159808
742.930	0.0161092
743.009	0.0161157
743.087	0.0160434
743.165	0.0160702
743.243	0.0159625
743.321	0.0160983
743.399	0.0162752
743.477	0.0160577
743.555	0.0161450
743.634	0.0161144
743.712	0.0161144
743.790	0.0160607
743.868	0.0160985
743.946	0.0160731
744.024	0.0161264
744.102	0.0160890
744.180	0.0161631
744.259	0.0162499
744.337	0.0161266
744.415	0.0161956
744.493	0.0160936
744.571	0.0161398
744.649	0.0162965
744.727	0.0161397
744.805	0.0160959
744.884	0.0161742
744.962	0.0161087
745.040	0.0161568
745.118	0.0161768
745.196	0.0160959
745.274	0.0161566
745.352	0.0162488
745.430	0.0162052
745.509	0.0161619
745.587	0.0160501
745.665	0.0160128
745.743	0.0160822
745.821	0.0161094
745.899	0.0160738
745.977	0.0162550
746.055	0.0161764
746.134	0.0161142
746.212	0.0161488
746.290	0.0161204
746.368	0.0161938
746.446	0.0160925
746.524	0.0160464
746.602	0.0160957
746.680	0.0160609
746.759	0.0162029
746.837	0.0161332
746.915	0.0161141
746.993	0.0161202
747.071	0.0160354
747.149	0.0160112
747.227	0.0161460
747.305	0.0160959
747.384	0.0161641
747.462	0.0161584
747.540	0.0161783
747.618	0.0162258
747.696	0.0161375
747.774	0.0160954
747.852	0.0160642
747.930	0.0161423
748.009	0.0161731
748.087	0.0159933
748.165	0.0160836
748.243	0.0160774
748.321	0.0161478
748.399	0.0160850
748.477	0.0159576
748.555	0.0160485
748.634	0.0161053
748.712	0.0160239
748.790	0.0159924
748.868	0.0160371
748.946	0.0160551
749.024	0.0161342
749.102	0.0160252
749.180	0.0159771
749.259	0.0159132
749.337	0.0159061
749.415	0.0160442
749.493	0.0160885
749.571	0.0160014
749.649	0.0161648
749.727	0.0160854
749.805	0.0160617
749.884	0.0160497
749.962	0.0161087
750.040	0.0159525
750.118	0.0161043
750.196	0.0160705
750.274	0.0159779
750.352	0.0159262
750.430	0.0160815
750.509	0.0160534
750.587	0.0159951
750.665	0.0160503
750.743	0.0161237
750.821	0.0161549
750.899	0.0159891
750.977	0.0160643
751.055	0.0160600
751.134	0.0160825
751.212	0.0162357
751.290	0.0161028
751.368	0.0160597
751.446	0.0160255
751.524	0.0160532
751.602	0.0159035
751.680	0.0162041
751.759	0.0159365
751.837	0.0160646
751.915	0.0162544
751.993	0.0161378
752.071	0.0160392
752.149	0.0160822
752.227	0.0160079
752.305	0.0160829
752.384	0.0160578
752.462	0.0160783
752.540	0.0160209
752.618	0.0160312
752.696	0.0160543
752.774	0.0161183
752.852	0.0161813
752.930	0.0162247
753.009	0.0160210
753.087	0.0158430
753.165	0.0160356
753.243	0.0159830
753.321	0.0161874
753.399	0.0160961
753.477	0.0160933
753.555	0.0160491
753.634	0.0161227
753.712	0.0161933
753.790	0.0160818
753.868	0.0161380
753.946	0.0161755
754.024	0.0160371
754.102	0.0162145
754.180	0.0161179
754.259	0.0160658
754.337	0.0161598
754.415	0.0159740
754.493	0.0160949
754.571	0.0163493
754.649	0.0160300
754.727	0.0160318
754.805	0.0161251
754.884	0.0160477
754.962	0.0160789
755.040	0.0160662
755.118	0.0160480
755.196	0.0160483
755.274	0.0161192
755.352	0.0161295
755.430	0.0160683
755.509	0.0160637
755.587	0.0160461
755.665	0.0160384
755.743	0.0161478
755.821	0.0159708
755.899	0.0161955
755.977	0.0162695
756.055	0.0161275
756.134	0.0161543
756.212	0.0161514
756.290	0.0162445
756.368	0.0163014
756.446	0.0162218
756.524	0.0162673
756.602	0.0162300
756.680	0.0160525
756.759	0.0161886
756.837	0.0159989
756.915	0.0161433
756.993	0.0161701
757.071	0.0161957
757.149	0.0160890
757.227	0.0161436
757.305	0.0160719
757.384	0.0160573
757.462	0.0160438
757.540	0.0161007
757.618	0.0161304
757.696	0.0160940
757.774	0.0160815
757.852	0.0161773
757.930	0.0159475
758.009	0.0162120
758.087	0.0160107
758.165	0.0160554
758.243	0.0160554
758.321	0.0160938
758.399	0.0161990
758.477	0.0161220
758.555	0.0161238
758.634	0.0161674
758.712	0.0160711
758.790	0.0160149
758.868	0.0161346
758.946	0.0161038
759.024	0.0160011
759.102	0.0161882
759.180	0.0160941
759.259	0.0162180
759.337	0.0161260
759.415	0.0160487
759.493	0.0160953
759.571	0.0161018
759.649	0.0160627
759.727	0.0162183
759.805	0.0160965
759.884	0.0162679
759.962	0.0162088
760.040	0.0160772
760.118	0.0161254
760.196	0.0162009
760.274	0.0161817
760.352	0.0163775
760.430	0.0162394
760.509	0.0162186
760.587	0.0162133
760.665	0.0163382
760.743	0.0162094
760.821	0.0161189
760.899	0.0161237
760.977	0.0160831
761.055	0.0161861
761.134	0.0163434
761.212	0.0162584
761.290	0.0160551
761.368	0.0161764
761.446	0.0161061
761.524	0.0161085
761.602	0.0161002
761.680	0.0161037
761.759	0.0162199
761.837	0.0160614
761.915	0.0160290
761.993	0.0162819
762.071	0.0162033
762.149	0.0160923
762.227	0.0160118
762.305	0.0161795
762.384	0.0162098
762.462	0.0161503
762.540	0.0161072
762.618	0.0159820
762.696	0.0160307
762.774	0.0159985
762.852	0.0159522
762.930	0.0159155
763.009	0.0160797
763.087	0.0160386
763.165	0.0158945
763.243	0.0160152
763.321	0.0159126
763.399	0.0160934
763.477	0.0158947
763.555	0.0160417
763.634	0.0159571
763.712	0.0159698
763.790	0.0161140
763.868	0.0160725
763.946	0.0161071
764.024	0.0160645
764.102	0.0159265
764.180	0.0160955
764.259	0.0160197
764.337	0.0160963
764.415	0.0161055
764.493	0.0160873
764.571	0.0159587
764.649	0.0160812
764.727	0.0160825
764.805	0.0159145
764.884	0.0161047
764.962	0.0161480
765.040	0.0160728
765.118	0.0160153
765.196	0.0162267
765.274	0.0160547
765.352	0.0160544
765.430	0.0160780
765.509	0.0161922
765.587	0.0160815
765.665	0.0159189
765.743	0.0160995
765.821	0.0160775
765.899	0.0160572
765.977	0.0160926
766.055	0.0159721
766.134	0.0160361
766.212	0.0159805
766.290	0.0161314
766.368	0.0160876
766.446	0.0160834
766.524	0.0160138
766.602	0.0160094
766.680	0.0160300
766.759	0.0160391
766.837	0.0160529
766.915	0.0160919
766.993	0.0161398
767.071	0.0162089
767.149	0.0161616
767.227	0.0161969
767.305	0.0162994
767.384	0.0163361
767.462	0.0159703
767.540	0.0161517
767.618	0.0160622
767.696	0.0161929
767.774	0.0161326
767.852	0.0162276
767.930	0.0160677
768.009	0.0161455
768.087	0.0161549
768.165	0.0162059
768.243	0.0160374
768.321	0.0161137
768.399	0.0161177
768.477	0.0162669
768.555	0.0162117
768.634	0.0161010
768.712	0.0161124
768.790	0.0162331
768.868	0.0160745
768.946	0.0161550
769.024	0.0163176
769.102	0.0161484
769.180	0.0162327
769.259	0.0162299
769.337	0.0160950
769.415	0.0162084
769.493	0.0163239
769.571	0.0161961
769.649	0.0161502
769.727	0.0162626
769.805	0.0162897
769.884	0.0162199
769.962	0.0163255
770.040	0.0162859
770.118	0.0162938
770.196	0.0161933
770.274	0.0163631
770.352	0.0162835
770.430	0.0164045
770.509	0.0162714
770.587	0.0162260
770.665	0.0162753
770.743	0.0162593
770.821	0.0162588
770.899	0.0162842
770.977	0.0162712
771.055	0.0161753
771.134	0.0163734
771.212	0.0163824
771.290	0.0162778
771.368	0.0164413
771.446	0.0163995
771.524	0.0161866
771.602	0.0163855
771.680	0.0163396
771.759	0.0161260
771.837	0.0162111
771.915	0.0163265
771.993	0.0162390
772.071	0.0162574
772.149	0.0160870
772.227	0.0162270
772.305	0.0162878
772.384	0.0162296
772.462	0.0161745
772.540	0.0161507
772.618	0.0161842
772.696	0.0161203
772.774	0.0162878
772.852	0.0162047
772.930	0.0161915
773.009	0.0161685
773.087	0.0162926
773.165	0.0162833
773.243	0.0163249
773.321	0.0161730
773.399	0.0163115
773.477	0.0162144
773.555	0.0161269
773.634	0.0162319
773.712	0.0162975
773.790	0.0160477
773.868	0.0161037
773.946	0.0161208
774.024	0.0161678
774.102	0.0161497
774.180	0.0161482
774.259	0.0161316
774.337	0.0161283
774.415	0.0161415
774.493	0.0162278
774.571	0.0161608
774.649	0.0161806
774.727	0.0161420
774.805	0.0162054
774.884	0.0162383
774.962	0.0161474
775.040	0.0162093
775.118	0.0161520
775.196	0.0161477
775.274	0.0161079
775.352	0.0161283
775.430	0.0160493
775.509	0.0160990
775.587	0.0162315
775.665	0.0161968
775.743	0.0162662
775.821	0.0161094
775.899	0.0162353
775.977	0.0161007
776.055	0.0161946
776.134	0.0161111
776.212	0.0160957
776.290	0.0162026
776.368	0.0161143
776.446	0.0161368
776.524	0.0160126
776.602	0.0161129
776.680	0.0161057
776.759	0.0161335
776.837	0.0161252
776.915	0.0161651
776.993	0.0162455
777.071	0.0162110
777.149	0.0161731
777.227	0.0160118
777.305	0.0161026
777.384	0.0162273
777.462	0.0162737
777.540	0.0162766
777.618	0.0163239
777.696	0.0163847
777.774	0.0162331
777.852	0.0162069
777.930	0.0162426
778.009	0.0160934
778.087	0.0163171
778.165	0.0162572
778.243	0.0160282
778.321	0.0161027
778.399	0.0161881
778.477	0.0162155
778.555	0.0159724
778.634	0.0159952
778.712	0.0161753
778.790	0.0161869
778.868	0.0161892
778.946	0.0161308
779.024	0.0161222
779.102	0.0160897
779.180	0.0161195
779.259	0.0161885
779.337	0.0162169
779.415	0.0162561
779.493	0.0161844
779.571	0.0160579
779.649	0.0161765
779.727	0.0161574
779.805	0.0160985
779.884	0.0160224
779.962	0.0161409
780.040	0.0160090
780.118	0.0161927
780.196	0.0161631
780.274	0.0161214
780.352	0.0161752
780.430	0.0160535
780.509	0.0163345
780.587	0.0161468
780.665	0.0162428
780.743	0.0163535
780.821	0.0163016
780.899	0.0162697
780.977	0.0162504
781.055	0.0162138
781.134	0.0162487
781.212	0.0163223
781.290	0.0164320
781.368	0.0162826
781.446	0.0164004
781.524	0.0163322
781.602	0.0162617
781.680	0.0163710
781.759	0.0163374
781.837	0.0162749
781.915	0.0164070
781.993	0.0163214
782.071	0.0162897
782.149	0.0163913
782.227	0.0162111
782.305	0.0162004
782.384	0.0162268
782.462	0.0161555
782.540	0.0162273
782.618	0.0161696
782.696	0.0162212
782.774	0.0161639
782.852	0.0161385
782.930	0.0161557
783.009	0.0161929
783.087	0.0160995
783.165	0.0161540
783.243	0.0160506
783.321	0.0160687
783.399	0.0160898
783.477	0.0161250
783.555	0.0163353
783.634	0.0162121
783.712	0.0161121
783.790	0.0161816
783.868	0.0162406
783.946	0.0162249
784.024	0.0161840
784.102	0.0161485
784.180	0.0161144
784.259	0.0161876
784.337	0.0160182
784.415	0.0160843
784.493	0.0160674
784.571	0.0162173
784.649	0.0161955
784.727	0.0160664
784.805	0.0161824
784.884	0.0161446
784.962	0.0162791
785.040	0.0163194
785.118	0.0162994
785.196	0.0162885
785.274	0.0161639
785.352	0.0161451
785.430	0.0163074
785.509	0.0162815
785.587	0.0161610
785.665	0.0163165
785.743	0.0162215
785.821	0.0163830
785.899	0.0163539
785.977	0.0163027
786.055	0.0163696
786.134	0.0163432
786.212	0.0163141
786.290	0.0162257
786.368	0.0163064
786.446	0.0162591
786.524	0.0163613
786.602	0.0163475
786.680	0.0162194
786.759	0.0163015
786.837	0.0163400
786.915	0.0161493
786.993	0.0162504
787.071	0.0161992
787.149	0.0162828
787.227	0.0163142
787.305	0.0164075
787.384	0.0164465
787.462	0.0163976
787.540	0.0163940
787.618	0.0163494
787.696	0.0161303
787.774	0.0163686
787.852	0.0163686
787.930	0.0163165
788.009	0.0162139
788.087	0.0161917
788.165	0.0162093
788.243	0.0162168
788.321	0.0163419
788.399	0.0162418
788.477	0.0162170
788.555	0.0161498
788.634	0.0163823
788.712	0.0161572
788.790	0.0160818
788.868	0.0161707
788.946	0.0162940
789.024	0.0160755
789.102	0.0160603
789.180	0.0160805
789.259	0.0160601
789.337	0.0161431
789.415	0.0161939
789.493	0.0160170
789.571	0.0160764
789.649	0.0160161
789.727	0.0159608
789.805	0.0159561
789.884	0.0160291
789.962	0.0161322
790.040	0.0160225
790.118	0.0160291
790.196	0.0160250
790.274	0.0160847
790.352	0.0161236
790.430	0.0160554
790.509	0.0160365
790.587	0.0161430
790.665	0.0160905
790.743	0.0159633
790.821	0.0159792
790.899	0.0161674
790.977	0.0160813
791.055	0.0160974
791.134	0.0161481
791.212	0.0161611
791.290	0.0161454
791.368	0.0161780
791.446	0.0162076
791.524	0.0162426
791.602	0.0164040
791.680	0.0163615
791.759	0.0162626
791.837	0.0163822
791.915	0.0163506
791.993	0.0164127
792.071	0.0163406
792.149	0.0164404
792.227	0.0163699
792.305	0.0164483
792.384	0.0163248
792.462	0.0164280
792.540	0.0163869
792.618	0.0163647
792.696	0.0162992
792.774	0.0163058
792.852	0.0162999
792.930	0.0162376
793.009	0.0161028
793.087	0.0163573
793.165	0.0162798
793.243	0.0163626
793.321	0.0161904
793.399	0.0162228
793.477	0.0163931
793.555	0.0164282
793.634	0.0163525
793.712	0.0162471
793.790	0.0162554
793.868	0.0163327
793.946	0.0162943
794.024	0.0162662
794.102	0.0162913
794.180	0.0162186
794.259	0.0164063
794.337	0.0163121
794.415	0.0163200
794.493	0.0164068
794.571	0.0163956
794.649	0.0163971
794.727	0.0163367
794.805	0.0163004
794.884	0.0163236
794.962	0.0161828
795.040	0.0161575
795.118	0.0163595
795.196	0.0163084
795.274	0.0162653
795.352	0.0162290
795.430	0.0162083
795.509	0.0163566
795.587	0.0164291
795.665	0.0163517
795.743	0.0162244
795.821	0.0163115
795.899	0.0163781
795.977	0.0163788
796.055	0.0162849
796.134	0.0163466
796.212	0.0163867
796.290	0.0162165
796.368	0.0163605
796.446	0.0163016
796.524	0.0163158
796.602	0.0163834
796.680	0.0164779
796.759	0.0162955
796.837	0.0163506
796.915	0.0163966
796.993	0.0163226
797.071	0.0161993
797.149	0.0163696
797.227	0.0163216
797.305	0.0163123
797.384	0.0162476
797.462	0.0162678
797.540	0.0161216
797.618	0.0161761
797.696	0.0163259
797.774	0.0160074
797.852	0.0161024
797.930	0.0161836
798.009	0.0161922
798.087	0.0161293
798.165	0.0160340
798.243	0.0161395
798.321	0.0161147
798.399	0.0161382
798.477	0.0160818
798.555	0.0160143
798.634	0.0161979
798.712	0.0162360
798.790	0.0161156
798.868	0.0161398
798.946	0.0160200
799.024	0.0161091
799.102	0.0160782
799.180	0.0161265
799.259	0.0159694
799.337	0.0160632
799.415	0.0161385
799.493	0.0160629
799.571	0.0158479
799.649	0.0160626
799.727	0.0160168
799.805	0.0161524
799.884	0.0161806
799.962	0.0160350
800.040	0.0162032
800.118	0.0160072
800.196	0.0159365
800.274	0.0161004
800.352	0.0161727
800.430	0.0162487
800.509	0.0160518
800.587	0.0160312
800.665	0.0161626
800.743	0.0161411
800.821	0.0160707
800.899	0.0160233
800.977	0.0161152
801.055	0.0160648
801.134	0.0159959
801.212	0.0160752
801.290	0.0160783
801.368	0.0160552
801.446	0.0160643
801.524	0.0161234
801.602	0.0163041
801.680	0.0162044
801.759	0.0163484
801.837	0.0163644
801.915	0.0163293
801.993	0.0162724
802.071	0.0164317
802.149	0.0164082
802.227	0.0163530
802.305	0.0164256
802.384	0.0163863
802.462	0.0163530
802.540	0.0163857
802.618	0.0163979
802.696	0.0163280
802.774	0.0162614
802.852	0.0163335
802.930	0.0162138
803.009	0.0162064
803.087	0.0162032
803.165	0.0161369
803.243	0.0161546
803.321	0.0161708
803.399	0.0162520
803.477	0.0162360
803.555	0.0161032
803.634	0.0162283
803.712	0.0161570
803.790	0.0161205
803.868	0.0161365
803.946	0.0162311
804.024	0.0161060
804.102	0.0160708
804.180	0.0161365
804.259	0.0161006
804.337	0.0160571
804.415	0.0160976
804.493	0.0161083
804.571	0.0160062
804.649	0.0161813
804.727	0.0162342
804.805	0.0161811
804.884	0.0161981
804.962	0.0161545
805.040	0.0161177
805.118	0.0161835
805.196	0.0163348
805.274	0.0160996
805.352	0.0161613
805.430	0.0161294
805.509	0.0160455
805.587	0.0161727
805.665	0.0162394
805.743	0.0162859
805.821	0.0163435
805.899	0.0162827
805.977	0.0161464
806.055	0.0162546
806.134	0.0162421
806.212	0.0163605
806.290	0.0162951
806.368	0.0162144
806.446	0.0161887
806.524	0.0162092
806.602	0.0163977
806.680	0.0163172
806.759	0.0162350
806.837	0.0163297
806.915	0.0162318
806.993	0.0162797
807.071	0.0163522
807.149	0.0163245
807.227	0.0162643
807.305	0.0162690
807.384	0.0162301
807.462	0.0162796
807.540	0.0161989
807.618	0.0161626
807.696	0.0162117
807.774	0.0161498
807.852	0.0163401
807.930	0.0162547
808.009	0.0160700
808.087	0.0162498
808.165	0.0160949
808.243	0.0161608
808.321	0.0161261
808.399	0.0162260
808.477	0.0161426
808.555	0.0161366
808.634	0.0161458
808.712	0.0160352
808.790	0.0161328
808.868	0.0161656
808.946	0.0162453
809.024	0.0162067
809.102	0.0162917
809.180	0.0161467
809.259	0.0161237
809.337	0.0160983
809.415	0.0161057
809.493	0.0161606
809.571	0.0160342
809.649	0.0161449
809.727	0.0160446
809.805	0.0160604
809.884	0.0161475
809.962	0.0160877
810.040	0.0160883
810.118	0.0160333
810.196	0.0159458
810.274	0.0162304
810.352	0.0159401
810.430	0.0161263
810.509	0.0159727
810.587	0.0162117
810.665	0.0163180
810.743	0.0163093
810.821	0.0162621
810.899	0.0161590
810.977	0.0162763
811.055	0.0163544
811.134	0.0164901
811.212	0.0162460
811.290	0.0164187
811.368	0.0163244
811.446	0.0163685
811.524	0.0162890
811.602	0.0162798
811.680	0.0162170
811.759	0.0162491
811.837	0.0162685
811.915	0.0163152
811.993	0.0162803
812.071	0.0161850
812.149	0.0162060
812.227	0.0161057
812.305	0.0161423
812.384	0.0161990
812.462	0.0161004
812.540	0.0162477
812.618	0.0160751
812.696	0.0160507
812.774	0.0162030
812.852	0.0161863
812.930	0.0161850
813.009	0.0161800
813.087	0.0162241
813.165	0.0162937
813.243	0.0160573
813.321	0.0161192
813.399	0.0162741
813.477	0.0161549
813.555	0.0160226
813.634	0.0163076
813.712	0.0162122
813.790	0.0161305
813.868	0.0161584
813.946	0.0160313
814.024	0.0162593
814.102	0.0161388
814.180	0.0162263
814.259	0.0159226
814.337	0.0161141
814.415	0.0161584
814.493	0.0160255
814.571	0.0161119
814.649	0.0161089
814.727	0.0159990
814.805	0.0161585
814.884	0.0160786
814.962	0.0161895
815.040	0.0160719
815.118	0.0161510
815.196	0.0161431
815.274	0.0160190
815.352	0.0161048
815.430	0.0161941
815.509	0.0160530
815.587	0.0160258
815.665	0.0159500
815.743	0.0161361
815.821	0.0161378
815.899	0.0160526
815.977	0.0159802
816.055	0.0158890
816.134	0.0160705
816.212	0.0161772
816.290	0.0160090
816.368	0.0160390
816.446	0.0159845
816.524	0.0160380
816.602	0.0161016
816.680	0.0160516
816.759	0.0159295
816.837	0.0161723
816.915	0.0161415
816.993	0.0161644
817.071	0.0161069
817.149	0.0161409
817.227	0.0161717
817.305	0.0162234
817.384	0.0159801
817.462	0.0160315
817.540	0.0160670
817.618	0.0162128
817.696	0.0161224
817.774	0.0159244
817.852	0.0160394
817.930	0.0160764
818.009	0.0160847
818.087	0.0160281
818.165	0.0160349
818.243	0.0160839
818.321	0.0161021
818.399	0.0160225
818.477	0.0162978
818.555	0.0161256
818.634	0.0161521
818.712	0.0161092
818.790	0.0161598
818.868	0.0161436
818.946	0.0163178
819.024	0.0164346
819.102	0.0162629
819.180	0.0163285
819.259	0.0163856
819.337	0.0163399
819.415	0.0162569
819.493	0.0162213
819.571	0.0163139
819.649	0.0163137
819.727	0.0163034
819.805	0.0162598
819.884	0.0162556
819.962	0.0163020
820.040	0.0163487
820.118	0.0161095
820.196	0.0162666
820.274	0.0163024
820.352	0.0161368
820.430	0.0161841
820.509	0.0163126
820.587	0.0162251
820.665	0.0161259
820.743	0.0160463
820.821	0.0163193
820.899	0.0162603
820.977	0.0162566
821.055	0.0162706
821.134	0.0162552
821.212	0.0162588
821.290	0.0161348
821.368	0.0160703
821.446	0.0162672
821.524	0.0162296
821.602	0.0162351
821.680	0.0161752
821.759	0.0162345
821.837	0.0162437
821.915	0.0161401
821.993	0.0161519
822.071	0.0160854
822.149	0.0161397
822.227	0.0162856
822.305	0.0161788
822.384	0.0161624
822.462	0.0161102
822.540	0.0161749
822.618	0.0160438
822.696	0.0160596
822.774	0.0160701
822.852	0.0161318
822.930	0.0161191
823.009	0.0160831
823.087	0.0162067
823.165	0.0161703
823.243	0.0162242
823.321	0.0159952
823.399	0.0162173
823.477	0.0162720
823.555	0.0161258
823.634	0.0161893
823.712	0.0160733
823.790	0.0161091
823.868	0.0160820
823.946	0.0161990
824.024	0.0162108
824.102	0.0161512
824.180	0.0160654
824.259	0.0159617
824.337	0.0161055
824.415	0.0161147
824.493	0.0160897
824.571	0.0159194
824.649	0.0160499
824.727	0.0161007
824.805	0.0161036
824.884	0.0160910
824.962	0.0161246
825.040	0.0161610
825.118	0.0161179
825.196	0.0160929
825.274	0.0160568
825.352	0.0160975
825.430	0.0161290
825.509	0.0159994
825.587	0.0161739
825.665	0.0159799
825.743	0.0161346
825.821	0.0160864
825.899	0.0161447
825.977	0.0160157
826.055	0.0160974
826.134	0.0160403
826.212	0.0161092
826.290	0.0161087
826.368	0.0161398
826.446	0.0160550
826.524	0.0161130
826.602	0.0160809
826.680	0.0160612
826.759	0.0160173
826.837	0.0159258
826.915	0.0160537
826.993	0.0160072
827.071	0.0160284
827.149	0.0160725
827.227	0.0160620
827.305	0.0159441
827.384	0.0160336
827.462	0.0159743
827.540	0.0161104
827.618	0.0162023
827.696	0.0161633
827.774	0.0161729
827.852	0.0160297
827.930	0.0160303
828.009	0.0160429
828.087	0.0161168
828.165	0.0160539
828.243	0.0160726
828.321	0.0161839
828.399	0.0160764
828.477	0.0160497
828.555	0.0160958
828.634	0.0161537
828.712	0.0161728
828.790	0.0160936
828.868	0.0161186
828.946	0.0161517
829.024	0.0160915
829.102	0.0162063
829.180	0.0161541
829.259	0.0162392
829.337	0.0163041
829.415	0.0162344
829.493	0.0162694
829.571	0.0162311
829.649	0.0163271
829.727	0.0162534
829.805	0.0163380
829.884	0.0162258
829.962	0.0161793
830.040	0.0163103
830.118	0.0162572
830.196	0.0162151
830.274	0.0162718
830.352	0.0163353
830.430	0.0162653
830.509	0.0162598
830.587	0.0161525
830.665	0.0161385
830.743	0.0160696
830.821	0.0162333
830.899	0.0161870
830.977	0.0161700
831.055	0.0162167
831.134	0.0160439
831.212	0.0160271
831.290	0.0160462
831.368	0.0160736
831.446	0.0161156
831.524	0.0159927
831.602	0.0159865
831.680	0.0159795
831.759	0.0160168
831.837	0.0159344
831.915	0.0159695
831.993	0.0161701
832.071	0.0160447
832.149	0.0159505
832.227	0.0160202
832.305	0.0161131
832.384	0.0160509
832.462	0.0160822
832.540	0.0161034
832.618	0.0159695
832.696	0.0159821
832.774	0.0159949
832.852	0.0160554
832.930	0.0161919
833.009	0.0160082
833.087	0.0158600
833.165	0.0159801
833.243	0.0158118
833.321	0.0160651
833.399	0.0159885
833.477	0.0159004
833.555	0.0160265
833.634	0.0160751
833.712	0.0160291
833.790	0.0159555
833.868	0.0158841
833.946	0.0159491
834.024	0.0160177
834.102	0.0161556
834.180	0.0158740
834.259	0.0160236
834.337	0.0159489
834.415	0.0159510
834.493	0.0160571
834.571	0.0159411
834.649	0.0160813
834.727	0.0160587
834.805	0.0160285
834.884	0.0158746
834.962	0.0159779
835.040	0.0161279
835.118	0.0159769
835.196	0.0160639
835.274	0.0160146
835.352	0.0160023
835.430	0.0159985
835.509	0.0160533
835.587	0.0160547
835.665	0.0160114
835.743	0.0161427
835.821	0.0160641
835.899	0.0160135
835.977	0.0159423
836.055	0.0159807
836.134	0.0159209
836.212	0.0159074
836.290	0.0160648
836.368	0.0160936
836.446	0.0160026
836.524	0.0158112
836.602	0.0160421
836.680	0.0160781
836.759	0.0159576
836.837	0.0158781
836.915	0.0159676
836.993	0.0160746
837.071	0.0159687
837.149	0.0159225
837.227	0.0160569
837.305	0.0159781
837.384	0.0160347
837.462	0.0161085
837.540	0.0160819
837.618	0.0159666
837.696	0.0160005
837.774	0.0161101
837.852	0.0161389
837.930	0.0162199
838.009	0.0162635
838.087	0.0162445
838.165	0.0161172
838.243	0.0161444
838.321	0.0161263
838.399	0.0162884
838.477	0.0163007
838.555	0.0161255
838.634	0.0161098
838.712	0.0161346
838.790	0.0161005
838.868	0.0162465
838.946	0.0162323
839.024	0.0163097
839.102	0.0162589
839.180	0.0161691
839.259	0.0161695
839.337	0.0162489
839.415	0.0160298
839.493	0.0160015
839.571	0.0161652
839.649	0.0162363
839.727	0.0161194
839.805	0.0159567
839.884	0.0158466
839.962	0.0160347
840.040	0.0160026
840.118	0.0159966
840.196	0.0159518
840.274	0.0159229
840.352	0.0161274
840.430	0.0160923
840.509	0.0161322
840.587	0.0161798
840.665	0.0159943
840.743	0.0160335
840.821	0.0161505
840.899	0.0160484
840.977	0.0160339
841.055	0.0160791
841.134	0.0159919
841.212	0.0160343
841.290	0.0160320
841.368	0.0161648
841.446	0.0161384
841.524	0.0162072
841.602	0.0159904
841.680	0.0162680
841.759	0.0161063
841.837	0.0161410
841.915	0.0161110
841.993	0.0160748
842.071	0.0161088
842.149	0.0161069
842.227	0.0161945
842.305	0.0161291
842.384	0.0161172
842.462	0.0162402
842.540	0.0161952
842.618	0.0162260
842.696	0.0161009
842.774	0.0160580
842.852	0.0162198
842.930	0.0162011
843.009	0.0162172
843.087	0.0161300
843.165	0.0160454
843.243	0.0161596
843.321	0.0161752
843.399	0.0161079
843.477	0.0161653
843.555	0.0162106
843.634	0.0161597
843.712	0.0161035
843.790	0.0160928
843.868	0.0159871
843.946	0.0160178
844.024	0.0161359
844.102	0.0160480
844.180	0.0161903
844.259	0.0160284
844.337	0.0160605
844.415	0.0161045
844.493	0.0161717
844.571	0.0161327
844.649	0.0159496
844.727	0.0159950
844.805	0.0158644
844.884	0.0161160
844.962	0.0160757
845.040	0.0160608
845.118	0.0160661
845.196	0.0160555
845.274	0.0161926
845.352	0.0161941
845.430	0.0160085
845.509	0.0160593
845.587	0.0161031
845.665	0.0160198
845.743	0.0160070
845.821	0.0161748
845.899	0.0160581
845.977	0.0159464
846.055	0.0162517
846.134	0.0161103
846.212	0.0160746
846.290	0.0160574
846.368	0.0160862
846.446	0.0161147
846.524	0.0160473
846.602	0.0161037
846.680	0.0162853
846.759	0.0161733
846.837	0.0160971
846.915	0.0162354
846.993	0.0161491
847.071	0.0161658
847.149	0.0162154
847.227	0.0161630
847.305	0.0160609
847.384	0.0161800
847.462	0.0163715
847.540	0.0161545
847.618	0.0161871
847.696	0.0163039
847.774	0.0162256
847.852	0.0161826
847.930	0.0162953
848.009	0.0163010
848.087	0.0161129
848.165	0.0162291
848.243	0.0162465
848.321	0.0163115
848.399	0.0163103
848.477	0.0162931
848.555	0.0162417
848.634	0.0163024
848.712	0.0162981
848.790	0.0162446
848.868	0.0162560
848.946	0.0162651
849.024	0.0162614
849.102	0.0161588
849.180	0.0161768
849.259	0.0162021
849.337	0.0162955
849.415	0.0162117
849.493	0.0162989
849.571	0.0162526
849.649	0.0163615
849.727	0.0162852
849.805	0.0162170
849.884	0.0161914
849.962	0.0161593
850.040	0.0162453
850.118	0.0162134
850.196	0.0161613
850.274	0.0162428
850.352	0.0161568
850.430	0.0161704
850.509	0.0161907
850.587	0.0160821
850.665	0.0160975
850.743	0.0162640
850.821	0.0161202
850.899	0.0160370
850.977	0.0160694
851.055	0.0161358
851.134	0.0159345
851.212	0.0158918
851.290	0.0161738
851.368	0.0161776
851.446	0.0160676
851.524	0.0159941
851.602	0.0160499
851.680	0.0159902
851.759	0.0161114
851.837	0.0161218
851.915	0.0162067
851.993	0.0160741
852.071	0.0161366
852.149	0.0161523
852.227	0.0160664
852.305	0.0160731
852.384	0.0162350
852.462	0.0160605
852.540	0.0162930
852.618	0.0161954
852.696	0.0161899
852.774	0.0163115
852.852	0.0162132
852.930	0.0163184
853.009	0.0162314
853.087	0.0161317
853.165	0.0162492
853.243	0.0163160
853.321	0.0163454
853.399	0.0162876
853.477	0.0163875
853.555	0.0163321
853.634	0.0162842
853.712	0.0163966
853.790	0.0163278
853.868	0.0162681
853.946	0.0162553
854.024	0.0162681
854.102	0.0161599
854.180	0.0162099
854.259	0.0162818
854.337	0.0162228
854.415	0.0161836
854.493	0.0161465
854.571	0.0161801
854.649	0.0161329
854.727	0.0161634
854.805	0.0162436
854.884	0.0161208
854.962	0.0160272
855.040	0.0160770
855.118	0.0161005
855.196	0.0161868
855.274	0.0159832
855.352	0.0160829
855.430	0.0160118
855.509	0.0159753
855.587	0.0160808
855.665	0.0160778
855.743	0.0160063
855.821	0.0160512
855.899	0.0161312
855.977	0.0161398
856.055	0.0161235
856.134	0.0162354
856.212	0.0162263
856.290	0.0162184
856.368	0.0161970
856.446	0.0162890
856.524	0.0160784
856.602	0.0163131
856.680	0.0163206
856.759	0.0163615
856.837	0.0163931
856.915	0.0162736
856.993	0.0161703
857.071	0.0161609
857.149	0.0163554
857.227	0.0162730
857.305	0.0162892
857.384	0.0162570
857.462	0.0161411
857.540	0.0162619
857.618	0.0163621
857.696	0.0162720
857.774	0.0163325
857.852	0.0162500
857.930	0.0162396
858.009	0.0162859
858.087	0.0162128
858.165	0.0162151
858.243	0.0162064
858.321	0.0161681
858.399	0.0160825
858.477	0.0162430
858.555	0.0161739
858.634	0.0163679
858.712	0.0163597
858.790	0.0162322
858.868	0.0163210
858.946	0.0161478
859.024	0.0161368
859.102	0.0162128
859.180	0.0161934
859.259	0.0162343
859.337	0.0161052
859.415	0.0162277
859.493	0.0161388
859.571	0.0161854
859.649	0.0161549
859.727	0.0162164
859.805	0.0162143
859.884	0.0162389
859.962	0.0161036
860.040	0.0160035
860.118	0.0162171
860.196	0.0160882
860.274	0.0160405
860.352	0.0161607
860.430	0.0161861
860.509	0.0161924
860.587	0.0161809
860.665	0.0162446
860.743	0.0163271
860.821	0.0161435
860.899	0.0162199
860.977	0.0162797
861.055	0.0162503
861.134	0.0162032
861.212	0.0161678
861.290	0.0161718
861.368	0.0161182
861.446	0.0161490
861.524	0.0161953
861.602	0.0161475
861.680	0.0161474
861.759	0.0160754
861.837	0.0160988
861.915	0.0160647
861.993	0.0161594
862.071	0.0162029
862.149	0.0162196
862.227	0.0162406
862.305	0.0161006
862.384	0.0161740
862.462	0.0162080
862.540	0.0161929
862.618	0.0162033
862.696	0.0160648
862.774	0.0161777
862.852	0.0161883
862.930	0.0160916
863.009	0.0161481
863.087	0.0160780
863.165	0.0160375
863.243	0.0158261
863.321	0.0160012
863.399	0.0159155
863.477	0.0159585
863.555	0.0159954
863.634	0.0160195
863.712	0.0159845
863.790	0.0158071
863.868	0.0158881
863.946	0.0159373
864.024	0.0159595
864.102	0.0160081
864.180	0.0160638
864.259	0.0159462
864.337	0.0159062
864.415	0.0159450
864.493	0.0159021
864.571	0.0159253
864.649	0.0159779
864.727	0.0160670
864.805	0.0159622
864.884	0.0158911
864.962	0.0160296
865.040	0.0159025
865.118	0.0158247
865.196	0.0159737
865.274	0.0158474
865.352	0.0158887
865.430	0.0160374
865.509	0.0160307
865.587	0.0159703
865.665	0.0160360
865.743	0.0159287
865.821	0.0158813
865.899	0.0159954
865.977	0.0159188
866.055	0.0159847
866.134	0.0159707
866.212	0.0159361
866.290	0.0160294
866.368	0.0159652
866.446	0.0160497
866.524	0.0160336
866.602	0.0160115
866.680	0.0158308
866.759	0.0159688
866.837	0.0160717
866.915	0.0159314
866.993	0.0160198
867.071	0.0160201
867.149	0.0159367
867.227	0.0160325
867.305	0.0160417
867.384	0.0160042
867.462	0.0159742
867.540	0.0161503
867.618	0.0161620
867.696	0.0162331
867.774	0.0162189
867.852	0.0161314
867.930	0.0162321
868.009	0.0162344
868.087	0.0162701
868.165	0.0160910
868.243	0.0160967
868.321	0.0160931
868.399	0.0161996
868.477	0.0162125
868.555	0.0162817
868.634	0.0162383
868.712	0.0164093
868.790	0.0162531
868.868	0.0162194
868.946	0.0162775
869.024	0.0163232
869.102	0.0162582
869.180	0.0162479
869.259	0.0161437
869.337	0.0163278
869.415	0.0163556
869.493	0.0162444
869.571	0.0163457
869.649	0.0162184
869.727	0.0161777
869.805	0.0162590
869.884	0.0162315
869.962	0.0162656
870.040	0.0161793
870.118	0.0162984
870.196	0.0162511
870.274	0.0162031
870.352	0.0163310
870.430	0.0161335
870.509	0.0161864
870.587	0.0161865
870.665	0.0163583
870.743	0.0163853
870.821	0.0162445
870.899	0.0162183
870.977	0.0162364
871.055	0.0163142
871.134	0.0163161
871.212	0.0162700
871.290	0.0162009
871.368	0.0161812
871.446	0.0161929
871.524	0.0162151
871.602	0.0162440
871.680	0.0160861
871.759	0.0161511
871.837	0.0161965
871.915	0.0163132
871.993	0.0162229
872.071	0.0161692
872.149	0.0162112
872.227	0.0162509
872.305	0.0161153
872.384	0.0162582
872.462	0.0161419
872.540	0.0162053
872.618	0.0162071
872.696	0.0163793
872.774	0.0162310
872.852	0.0162159
872.930	0.0162600
873.009	0.0163271
873.087	0.0162607
873.165	0.0162027
873.243	0.0162420
873.321	0.0162606
873.399	0.0162446
873.477	0.0162074
873.555	0.0161813
873.634	0.0161681
873.712	0.0161739
873.790	0.0161977
873.868	0.0161415
873.946	0.0161629
874.024	0.0161430
874.102	0.0162103
874.180	0.0162133
874.259	0.0160692
874.337	0.0163224
874.415	0.0161623
874.493	0.0161637
874.571	0.0162300
874.649	0.0162048
874.727	0.0161739
874.805	0.0161331
874.884	0.0162424
874.962	0.0163533
875.040	0.0162660
875.118	0.0162633
875.196	0.0160600
875.274	0.0162402
875.352	0.0162944
875.430	0.0161456
875.509	0.0163120
875.587	0.0162135
875.665	0.0161373
875.743	0.0162156
875.821	0.0162961
875.899	0.0161711
875.977	0.0162402
876.055	0.0162230
876.134	0.0163091
876.212	0.0161758
876.290	0.0161626
876.368	0.0161140
876.446	0.0162315
876.524	0.0160780
876.602	0.0162844
876.680	0.0162074
876.759	0.0161488
876.837	0.0163996
876.915	0.0162077
876.993	0.0161765
877.071	0.0162024
877.149	0.0162312
877.227	0.0161550
877.305	0.0163298
877.384	0.0162708
877.462	0.0162514
877.540	0.0162993
877.618	0.0163374
877.696	0.0163515
877.774	0.0162553
877.852	0.0162444
877.930	0.0162937
878.009	0.0161845
878.087	0.0162676
878.165	0.0162746
878.243	0.0162422
878.321	0.0161414
878.399	0.0162192
878.477	0.0161600
878.555	0.0162650
878.634	0.0162209
878.712	0.0162374
878.790	0.0161754
878.868	0.0161787
878.946	0.0161285
879.024	0.0162119
879.102	0.0162493
879.180	0.0161941
879.259	0.0161572
879.337	0.0161224
879.415	0.0163378
879.493	0.0162440
879.571	0.0161897
879.649	0.0162242
879.727	0.0161337
879.805	0.0161384
879.884	0.0161335
879.962	0.0160954
880.040	0.0160700
880.118	0.0161510
880.196	0.0160222
880.274	0.0161102
880.352	0.0161156
880.430	0.0160582
880.509	0.0160678
880.587	0.0160217
880.665	0.0160700
880.743	0.0160991
880.821	0.0161217
880.899	0.0160896
880.977	0.0161549
881.055	0.0160051
881.134	0.0158851
881.212	0.0162176
881.290	0.0160981
881.368	0.0161044
881.446	0.0161288
881.524	0.0161172
881.602	0.0160251
881.680	0.0161301
881.759	0.0162193
881.837	0.0160998
881.915	0.0161919
881.993	0.0161105
882.071	0.0160557
882.149	0.0161732
882.227	0.0160477
882.305	0.0159385
882.384	0.0160426
882.462	0.0159883
882.540	0.0161371
882.618	0.0160116
882.696	0.0158555
882.774	0.0160829
882.852	0.0161640
882.930	0.0159960
883.009	0.0160596
883.087	0.0160230
883.165	0.0159749
883.243	0.0160000
883.321	0.0161571
883.399	0.0159851
883.477	0.0161616
883.555	0.0159975
883.634	0.0160429
883.712	0.0160050
883.790	0.0160965
883.868	0.0160365
883.946	0.0159939
884.024	0.0159358
884.102	0.0159947
884.180	0.0160413
884.259	0.0159677
884.337	0.0161105
884.415	0.0159076
884.493	0.0159479
884.571	0.0160333
884.649	0.0159792
884.727	0.0159328
884.805	0.0160101
884.884	0.0159933
884.962	0.0159688
885.040	0.0160769
885.118	0.0161765
885.196	0.0161554
885.274	0.0161902
885.352	0.0160854
885.430	0.0160891
885.509	0.0160889
885.587	0.0161552
885.665	0.0161501
885.743	0.0161774
885.821	0.0161392
885.899	0.0161484
885.977	0.0162360
886.055	0.0161696
886.134	0.0160802
886.212	0.0162338
886.290	0.0162035
886.368	0.0162298
886.446	0.0161801
886.524	0.0161227
886.602	0.0161251
886.680	0.0160902
886.759	0.0161469
886.837	0.0160501
886.915	0.0159297
886.993	0.0161306
887.071	0.0161838
887.149	0.0160537
887.227	0.0160887
887.305	0.0159298
887.384	0.0160732
887.462	0.0160789
887.540	0.0161134
887.618	0.0160635
887.696	0.0159628
887.774	0.0159196
887.852	0.0160786
887.930	0.0160613
888.009	0.0159776
888.087	0.0160624
888.165	0.0161247
888.243	0.0161034
888.321	0.0160829
888.399	0.0161274
888.477	0.0160740
888.555	0.0159628
888.634	0.0160739
888.712	0.0160051
888.790	0.0161481
888.868	0.0161369
888.946	0.0160273
889.024	0.0162119
889.102	0.0159846
889.180	0.0162251
889.259	0.0161408
889.337	0.0161569
889.415	0.0161988
889.493	0.0161108
889.571	0.0161174
889.649	0.0162361
889.727	0.0161844
889.805	0.0160841
889.884	0.0161150
889.962	0.0162149
890.040	0.0163515
890.118	0.0162011
890.196	0.0161578
890.274	0.0161686
890.352	0.0163828
890.430	0.0161780
890.509	0.0160515
890.587	0.0162177
890.665	0.0161533
890.743	0.0160013
890.821	0.0160008
890.899	0.0161143
890.977	0.0160448
891.055	0.0162714
891.134	0.0161956
891.212	0.0161328
891.290	0.0160585
891.368	0.0160046
891.446	0.0160876
891.524	0.0159943
891.602	0.0161173
891.680	0.0160926
891.759	0.0163575
891.837	0.0161425
891.915	0.0162141
891.993	0.0161789
892.071	0.0162151
892.149	0.0162334
892.227	0.0162802
892.305	0.0163604
892.384	0.0162943
892.462	0.0162232
892.540	0.0163757
892.618	0.0162585
892.696	0.0163097
892.774	0.0163441
892.852	0.0160307
892.930	0.0162036
893.009	0.0162228
893.087	0.0161682
893.165	0.0162466
893.243	0.0162880
893.321	0.0161645
893.399	0.0162213
893.477	0.0162878
893.555	0.0163613
893.634	0.0163937
893.712	0.0162876
893.790	0.0162533
893.868	0.0164765
893.946	0.0162767
894.024	0.0164042
894.102	0.0163754
894.180	0.0163053
894.259	0.0164059
894.337	0.0164298
894.415	0.0163853
894.493	0.0164162
894.571	0.0163979
894.649	0.0164924
894.727	0.0163081
894.805	0.0163573
894.884	0.0164539
894.962	0.0163894
895.040	0.0163423
895.118	0.0164380
895.196	0.0165463
895.274	0.0164438
895.352	0.0164265
895.430	0.0164337
895.509	0.0164159
895.587	0.0163234
895.665	0.0163121
895.743	0.0163354
895.821	0.0163165
895.899	0.0162663
895.977	0.0162727
896.055	0.0162324
896.134	0.0161771
896.212	0.0161229
896.290	0.0161133
896.368	0.0162015
896.446	0.0161136
896.524	0.0160033
896.602	0.0162263
896.680	0.0161569
896.759	0.0160503
896.837	0.0161588
896.915	0.0160696
896.993	0.0161176
897.071	0.0160973
897.149	0.0161195
897.227	0.0161813
897.305	0.0162197
897.384	0.0161754
897.462	0.0161999
897.540	0.0162241
897.618	0.0161834
897.696	0.0161893
897.774	0.0162029
897.852	0.0161733
897.930	0.0160775
898.009	0.0161940
898.087	0.0163165
898.165	0.0161953
898.243	0.0161936
898.321	0.0163374
898.399	0.0163392
898.477	0.0164050
898.555	0.0162528
898.634	0.0161623
898.712	0.0163737
898.790	0.0163564
898.868	0.0163727
898.946	0.0164275
899.024	0.0164374
899.102	0.0163173
899.180	0.0163882
899.259	0.0164140
899.337	0.0163145
899.415	0.0164998
899.493	0.0163651
899.571	0.0162934
899.649	0.0164359
899.727	0.0163760
899.805	0.0163599
899.884	0.0163189
899.962	0.0163318
900.040	0.0163568
900.118	0.0162653
900.196	0.0161401
900.274	0.0162404
900.352	0.0163516
900.430	0.0162884
900.509	0.0161665
900.587	0.0160845
900.665	0.0162238
900.743	0.0161255
900.821	0.0162435
900.899	0.0162330
900.977	0.0162681
901.055	0.0163148
901.134	0.0161075
901.212	0.0162335
901.290	0.0161379
901.368	0.0162031
901.446	0.0163260
901.524	0.0161794
901.602	0.0160714
901.680	0.0163377
901.759	0.0162724
901.837	0.0160865
901.915	0.0160722
901.993	0.0160804
902.071	0.0160858
902.149	0.0162043
902.227	0.0161612
902.305	0.0160710
902.384	0.0162936
902.462	0.0161860
902.540	0.0162495
902.618	0.0162690
902.696	0.0161355
902.774	0.0162842
902.852	0.0161709
902.930	0.0162292
903.009	0.0163029
903.087	0.0163380
903.165	0.0161702
903.243	0.0161878
903.321	0.0162653
903.399	0.0162003
903.477	0.0161675
903.555	0.0161488
903.634	0.0160815
903.712	0.0162094
903.790	0.0162418
903.868	0.0161620
903.946	0.0161964
904.024	0.0160560
904.102	0.0161533
904.180	0.0161423
904.259	0.0161174
904.337	0.0160233
904.415	0.0160799
904.493	0.0160660
904.571	0.0160527
904.649	0.0160011
904.727	0.0159395
904.805	0.0159439
904.884	0.0159330
904.962	0.0160103
905.040	0.0159225
905.118	0.0159337
905.196	0.0160909
905.274	0.0160143
905.352	0.0159573
905.430	0.0158738
905.509	0.0158244
905.587	0.0159266
905.665	0.0160225
905.743	0.0159791
905.821	0.0159945
905.899	0.0158611
905.977	0.0158386
906.055	0.0158800
906.134	0.0158945
906.212	0.0159822
906.290	0.0159486
906.368	0.0159806
906.446	0.0160193
906.524	0.0161000
906.602	0.0159557
906.680	0.0160702
906.759	0.0161072
906.837	0.0161207
906.915	0.0160849
906.993	0.0159882
907.071	0.0161179
907.149	0.0161339
907.227	0.0160659
907.305	0.0161731
907.384	0.0160986
907.462	0.0161504
907.540	0.0161743
907.618	0.0160701
907.696	0.0158363
907.774	0.0161333
907.852	0.0161929
907.930	0.0161349
908.009	0.0159574
908.087	0.0161008
908.165	0.0161279
908.243	0.0160686
908.321	0.0161576
908.399	0.0161135
908.477	0.0160601
908.555	0.0160167
908.634	0.0161097
908.712	0.0160554
908.790	0.0160350
908.868	0.0162560
908.946	0.0161344
909.024	0.0161650
909.102	0.0161335
909.180	0.0162930
909.259	0.0161418
909.337	0.0161012
909.415	0.0162086
909.493	0.0162176
909.571	0.0161124
909.649	0.0161352
909.727	0.0161219
909.805	0.0162124
909.884	0.0160489
909.962	0.0160208
910.040	0.0161453
910.118	0.0160709
910.196	0.0162502
910.274	0.0161224
910.352	0.0161594
910.430	0.0159777
910.509	0.0159649
910.587	0.0160622
910.665	0.0163641
910.743	0.0160873
910.821	0.0160606
910.899	0.0161634
910.977	0.0160817
911.055	0.0161187
911.134	0.0161526
911.212	0.0160921
911.290	0.0161822
911.368	0.0161483
911.446	0.0160397
911.524	0.0161127
911.602	0.0161198
911.680	0.0161264
911.759	0.0161338
911.837	0.0161082
911.915	0.0161545
911.993	0.0161374
912.071	0.0162090
912.149	0.0160711
912.227	0.0161055
912.305	0.0161746
912.384	0.0159859
912.462	0.0161174
912.540	0.0161825
912.618	0.0161444
912.696	0.0159271
912.774	0.0160970
912.852	0.0161942
912.930	0.0160684
913.009	0.0161189
913.087	0.0162242
913.165	0.0160083
913.243	0.0161082
913.321	0.0160910
913.399	0.0161774
913.477	0.0161335
913.555	0.0161124
913.634	0.0160586
913.712	0.0161973
913.790	0.0161176
913.868	0.0160896
913.946	0.0160323
914.024	0.0160699
914.102	0.0161868
914.180	0.0161131
914.259	0.0162586
914.337	0.0160955
914.415	0.0162526
914.493	0.0161419
914.571	0.0161403
914.649	0.0161893
914.727	0.0160867
914.805	0.0160989
914.884	0.0162331
914.962	0.0162306
915.040	0.0160294
915.118	0.0161677
915.196	0.0161973
915.274	0.0161425
915.352	0.0160452
915.430	0.0161301
915.509	0.0161123
915.587	0.0159643
915.665	0.0161465
915.743	0.0159995
915.821	0.0160629
915.899	0.0159816
915.977	0.0160490
916.055	0.0161422
916.134	0.0159256
916.212	0.0161304
916.290	0.0161970
916.368	0.0162477
916.446	0.0162634
916.524	0.0161119
916.602	0.0162040
916.680	0.0161768
916.759	0.0162429
916.837	0.0162320
916.915	0.0162064
916.993	0.0161916
917.071	0.0162614
917.149	0.0163201
917.227	0.0163265
917.305	0.0163347
917.384	0.0163029
917.462	0.0164037
917.540	0.0164564
917.618	0.0163843
917.696	0.0164610
917.774	0.0165073
917.852	0.0165318
917.930	0.0165513
918.009	0.0164391
918.087	0.0164563
918.165	0.0165443
918.243	0.0164465
918.321	0.0165030
918.399	0.0165046
918.477	0.0163345
918.555	0.0165476
918.634	0.0164725
918.712	0.0165236
918.790	0.0164143
918.868	0.0163441
918.946	0.0165359
919.024	0.0164303
919.102	0.0165279
919.180	0.0164652
919.259	0.0164637
919.337	0.0165279
919.415	0.0164029
919.493	0.0164651
919.571	0.0165314
919.649	0.0164466
919.727	0.0163280
919.805	0.0164732
919.884	0.0163814
