06/13/2022	15:18:50	Ver.	4.1	UNKNOWN
Optical Delay	599.968395	Delta X		0.078125	Sweeps	1	Scan Rate	0/0
Coordinates	Axis 1	NaN	Axis 2	NaN	Axis 3	NaN	Axis 4	NaN	Axis 5	NaN	Axis 6	0.000000
TX Power	0.000000	RX Power	0.000000

599.968	0.0168247
600.047	0.0166896
600.125	0.0166896
600.203	0.0166293
600.281	0.0166048
600.359	0.0166830
600.437	0.0166217
600.515	0.0168770
600.593	0.0166360
600.672	0.0166522
600.750	0.0166215
600.828	0.0165685
600.906	0.0166011
600.984	0.0166239
601.062	0.0165438
601.140	0.0166255
601.218	0.0166064
601.297	0.0165186
601.375	0.0164129
601.453	0.0165248
601.531	0.0164056
601.609	0.0163586
601.687	0.0163634
601.765	0.0165308
601.843	0.0163335
601.922	0.0163024
602.000	0.0163024
602.078	0.0162888
602.156	0.0162700
602.234	0.0163270
602.312	0.0161844
602.390	0.0162579
602.468	0.0161569
602.547	0.0159818
602.625	0.0159839
602.703	0.0160204
602.781	0.0161389
602.859	0.0160534
602.937	0.0159925
603.015	0.0159680
603.093	0.0160732
603.172	0.0159669
603.250	0.0159668
603.328	0.0161298
603.406	0.0162788
603.484	0.0163269
603.562	0.0161899
603.640	0.0163844
603.718	0.0162944
603.797	0.0163872
603.875	0.0164986
603.953	0.0166057
604.031	0.0166744
604.109	0.0167130
604.187	0.0166879
604.265	0.0167114
604.343	0.0168298
604.422	0.0169032
604.500	0.0169579
604.578	0.0169131
604.656	0.0169210
604.734	0.0171461
604.812	0.0171378
604.890	0.0171452
604.968	0.0171249
605.047	0.0171659
605.125	0.0171401
605.203	0.0173486
605.281	0.0172662
605.359	0.0171786
605.437	0.0173698
605.515	0.0172650
605.593	0.0171165
605.672	0.0169466
605.750	0.0171057
605.828	0.0170845
605.906	0.0168645
605.984	0.0169669
606.062	0.0170469
606.140	0.0167484
606.218	0.0166322
606.297	0.0166624
606.375	0.0166839
606.453	0.0165990
606.531	0.0167384
606.609	0.0167485
606.687	0.0166696
606.765	0.0166045
606.843	0.0166799
606.922	0.0168494
607.000	0.0169170
607.078	0.0168644
607.156	0.0168258
607.234	0.0170938
607.312	0.0169241
607.390	0.0168125
607.468	0.0168862
607.547	0.0169121
607.625	0.0170059
607.703	0.0170387
607.781	0.0170671
607.859	0.0171008
607.937	0.0167754
608.015	0.0169991
608.093	0.0171754
608.172	0.0171010
608.250	0.0171116
608.328	0.0171575
608.406	0.0170377
608.484	0.0171790
608.562	0.0172626
608.640	0.0170245
608.718	0.0171110
608.797	0.0171581
608.875	0.0171049
608.953	0.0171392
609.031	0.0172951
609.109	0.0172217
609.187	0.0172086
609.265	0.0171718
609.343	0.0170924
609.422	0.0171554
609.500	0.0171680
609.578	0.0173305
609.656	0.0172773
609.734	0.0170971
609.812	0.0172370
609.890	0.0173469
609.968	0.0172964
610.047	0.0172899
610.125	0.0172462
610.203	0.0171890
610.281	0.0173300
610.359	0.0172202
610.437	0.0172668
610.515	0.0171660
610.593	0.0169823
610.672	0.0171329
610.750	0.0171238
610.828	0.0171525
610.906	0.0169767
610.984	0.0170412
611.062	0.0169930
611.140	0.0168600
611.218	0.0169479
611.297	0.0169696
611.375	0.0170164
611.453	0.0169765
611.531	0.0170341
611.609	0.0168266
611.687	0.0169719
611.765	0.0169205
611.843	0.0170178
611.922	0.0169932
612.000	0.0169429
612.078	0.0169655
612.156	0.0168159
612.234	0.0169733
612.312	0.0171416
612.390	0.0168480
612.468	0.0169437
612.547	0.0167903
612.625	0.0168147
612.703	0.0168397
612.781	0.0168010
612.859	0.0169733
612.937	0.0169115
613.015	0.0167970
613.093	0.0169860
613.172	0.0169585
613.250	0.0168222
613.328	0.0167838
613.406	0.0168061
613.484	0.0168622
613.562	0.0168886
613.640	0.0169093
613.718	0.0168365
613.797	0.0168654
613.875	0.0169644
613.953	0.0169930
614.031	0.0168853
614.109	0.0167592
614.187	0.0169625
614.265	0.0170090
614.343	0.0168458
614.422	0.0169402
614.500	0.0169814
614.578	0.0170323
614.656	0.0169214
614.734	0.0169518
614.812	0.0169302
614.890	0.0169411
614.968	0.0169428
615.047	0.0170357
615.125	0.0169088
615.203	0.0168135
615.281	0.0168047
615.359	0.0170391
615.437	0.0169443
615.515	0.0169374
615.593	0.0168702
615.672	0.0168903
615.750	0.0169000
615.828	0.0169492
615.906	0.0169079
615.984	0.0168307
616.062	0.0168603
616.140	0.0169379
616.218	0.0168610
616.297	0.0167837
616.375	0.0166665
616.453	0.0167400
616.531	0.0167006
616.609	0.0166739
616.687	0.0167474
616.765	0.0167223
616.843	0.0166729
616.922	0.0168008
617.000	0.0166275
617.078	0.0166405
617.156	0.0167155
617.234	0.0165649
617.312	0.0165557
617.390	0.0165380
617.468	0.0166134
617.547	0.0166217
617.625	0.0165981
617.703	0.0167677
617.781	0.0165895
617.859	0.0165097
617.937	0.0166540
618.015	0.0166759
618.093	0.0166959
618.172	0.0165501
618.250	0.0166086
618.328	0.0166494
618.406	0.0165566
618.484	0.0166700
618.562	0.0168034
618.640	0.0167661
618.718	0.0166406
618.797	0.0165659
618.875	0.0168082
618.953	0.0167966
619.031	0.0166103
619.109	0.0167356
619.187	0.0167667
619.265	0.0166692
619.343	0.0168676
619.422	0.0168430
619.500	0.0168133
619.578	0.0167880
619.656	0.0168315
619.734	0.0168850
619.812	0.0167834
619.890	0.0168499
619.968	0.0167939
620.047	0.0169138
620.125	0.0168691
620.203	0.0169152
620.281	0.0169759
620.359	0.0168412
620.437	0.0167957
620.515	0.0168307
620.593	0.0168385
620.672	0.0169075
620.750	0.0169671
620.828	0.0168633
620.906	0.0168188
620.984	0.0166913
621.062	0.0168247
621.140	0.0169293
621.218	0.0168541
621.297	0.0169055
621.375	0.0168901
621.453	0.0169418
621.531	0.0168657
621.609	0.0168322
621.687	0.0169213
621.765	0.0168807
621.843	0.0168738
621.922	0.0167580
622.000	0.0169188
622.078	0.0169442
622.156	0.0169289
622.234	0.0168716
622.312	0.0168708
622.390	0.0167872
622.468	0.0168949
622.547	0.0167354
622.625	0.0167733
622.703	0.0168305
622.781	0.0168881
622.859	0.0167842
622.937	0.0168311
623.015	0.0165881
623.093	0.0167604
623.172	0.0167165
623.250	0.0167306
623.328	0.0167413
623.406	0.0167078
623.484	0.0167398
623.562	0.0167637
623.640	0.0166558
623.718	0.0167471
623.797	0.0166435
623.875	0.0166082
623.953	0.0166889
624.031	0.0166093
624.109	0.0167291
624.187	0.0166523
624.265	0.0167323
624.343	0.0165932
624.422	0.0166130
624.500	0.0167791
624.578	0.0167350
624.656	0.0165431
624.734	0.0166856
624.812	0.0166400
624.890	0.0167639
624.968	0.0167056
625.047	0.0166727
625.125	0.0165713
625.203	0.0166750
625.281	0.0166306
625.359	0.0166447
625.437	0.0165538
625.515	0.0167353
625.593	0.0166539
625.672	0.0166853
625.750	0.0165510
625.828	0.0164980
625.906	0.0166827
625.984	0.0165920
626.062	0.0167312
626.140	0.0166651
626.218	0.0166370
626.297	0.0167142
626.375	0.0167070
626.453	0.0165107
626.531	0.0165547
626.609	0.0167384
626.687	0.0166102
626.765	0.0167389
626.843	0.0168447
626.922	0.0167620
627.000	0.0166104
627.078	0.0167581
627.156	0.0166570
627.234	0.0166025
627.312	0.0167717
627.390	0.0166541
627.468	0.0167290
627.547	0.0166321
627.625	0.0164447
627.703	0.0166793
627.781	0.0167491
627.859	0.0166504
627.937	0.0165292
628.015	0.0164775
628.093	0.0166354
628.172	0.0166974
628.250	0.0166370
628.328	0.0164588
628.406	0.0167015
628.484	0.0165731
628.562	0.0165670
628.640	0.0166556
628.718	0.0167991
628.797	0.0167348
628.875	0.0167002
628.953	0.0168178
629.031	0.0168076
629.109	0.0169039
629.187	0.0167084
629.265	0.0166737
629.343	0.0168669
629.422	0.0169803
629.500	0.0168523
629.578	0.0168961
629.656	0.0168836
629.734	0.0169966
629.812	0.0171033
629.890	0.0170535
629.968	0.0171101
630.047	0.0170576
630.125	0.0170425
630.203	0.0171004
630.281	0.0171294
630.359	0.0170113
630.437	0.0171362
630.515	0.0169565
630.593	0.0170944
630.672	0.0169721
630.750	0.0170771
630.828	0.0171590
630.906	0.0170833
630.984	0.0169576
631.062	0.0170903
631.140	0.0169363
631.218	0.0169152
631.297	0.0171024
631.375	0.0170541
631.453	0.0170213
631.531	0.0168659
631.609	0.0169238
631.687	0.0169620
631.765	0.0169433
631.843	0.0167574
631.922	0.0170039
632.000	0.0169238
632.078	0.0168961
632.156	0.0168434
632.234	0.0167980
632.312	0.0169071
632.390	0.0169887
632.468	0.0169183
632.547	0.0168816
632.625	0.0169324
632.703	0.0169247
632.781	0.0169138
632.859	0.0169138
632.937	0.0168679
633.015	0.0169306
633.093	0.0169472
633.172	0.0170018
633.250	0.0170341
633.328	0.0167205
633.406	0.0169891
633.484	0.0170126
633.562	0.0169337
633.640	0.0167991
633.718	0.0168420
633.797	0.0168277
633.875	0.0169361
633.953	0.0169561
634.031	0.0168037
634.109	0.0168755
634.187	0.0168870
634.265	0.0168449
634.343	0.0168040
634.422	0.0167776
634.500	0.0168403
634.578	0.0167686
634.656	0.0169610
634.734	0.0168414
634.812	0.0168040
634.890	0.0167455
634.968	0.0168044
635.047	0.0168626
635.125	0.0165710
635.203	0.0166566
635.281	0.0167173
635.359	0.0168806
635.437	0.0167915
635.515	0.0167068
635.593	0.0168788
635.672	0.0168026
635.750	0.0168066
635.828	0.0168543
635.906	0.0167329
635.984	0.0166917
636.062	0.0168659
636.140	0.0168967
636.218	0.0168751
636.297	0.0169482
636.375	0.0168821
636.453	0.0168869
636.531	0.0169080
636.609	0.0168444
636.687	0.0169319
636.765	0.0168676
636.843	0.0167491
636.922	0.0169271
637.000	0.0169205
637.078	0.0167698
637.156	0.0169894
637.234	0.0169578
637.312	0.0168120
637.390	0.0168074
637.468	0.0167721
637.547	0.0168459
637.625	0.0169316
637.703	0.0168603
637.781	0.0169848
637.859	0.0168913
637.937	0.0167816
638.015	0.0168630
638.093	0.0169797
638.172	0.0168619
638.250	0.0169931
638.328	0.0168993
638.406	0.0168487
638.484	0.0167735
638.562	0.0169865
638.640	0.0168693
638.718	0.0167598
638.797	0.0168836
638.875	0.0170005
638.953	0.0168742
639.031	0.0168586
639.109	0.0168984
639.187	0.0168531
639.265	0.0169031
639.343	0.0170268
639.422	0.0168987
639.500	0.0169976
639.578	0.0169966
639.656	0.0168568
639.734	0.0168644
639.812	0.0169525
639.890	0.0170220
639.968	0.0169723
640.047	0.0169616
640.125	0.0169782
640.203	0.0169261
640.281	0.0169836
640.359	0.0169311
640.437	0.0168216
640.515	0.0169502
640.593	0.0170048
640.672	0.0170119
640.750	0.0169801
640.828	0.0167786
640.906	0.0169405
640.984	0.0169580
641.062	0.0167676
641.140	0.0169151
641.218	0.0169082
641.297	0.0169084
641.375	0.0168122
641.453	0.0167351
641.531	0.0169206
641.609	0.0169235
641.687	0.0168641
641.765	0.0169724
641.843	0.0169300
641.922	0.0168442
642.000	0.0168660
642.078	0.0168443
642.156	0.0168343
642.234	0.0167679
642.312	0.0167736
642.390	0.0167490
642.468	0.0167539
642.547	0.0167086
642.625	0.0167475
642.703	0.0166367
642.781	0.0166025
642.859	0.0166829
642.937	0.0166768
643.015	0.0167238
643.093	0.0167062
643.172	0.0167770
643.250	0.0167313
643.328	0.0166463
643.406	0.0167148
643.484	0.0167257
643.562	0.0167121
643.640	0.0168350
643.718	0.0168441
643.797	0.0168221
643.875	0.0167884
643.953	0.0168365
644.031	0.0167816
644.109	0.0169001
644.187	0.0168066
644.265	0.0168281
644.343	0.0168282
644.422	0.0168971
644.500	0.0169848
644.578	0.0169977
644.656	0.0170203
644.734	0.0167605
644.812	0.0168797
644.890	0.0169801
644.968	0.0168799
645.047	0.0169167
645.125	0.0170353
645.203	0.0168658
645.281	0.0170579
645.359	0.0168820
645.437	0.0168289
645.515	0.0169072
645.593	0.0169247
645.672	0.0169923
645.750	0.0169906
645.828	0.0171378
645.906	0.0170784
645.984	0.0170101
646.062	0.0168369
646.140	0.0171001
646.218	0.0170109
646.297	0.0170135
646.375	0.0169448
646.453	0.0168647
646.531	0.0167699
646.609	0.0167868
646.687	0.0169041
646.765	0.0169250
646.843	0.0169505
646.922	0.0169424
647.000	0.0168845
647.078	0.0168977
647.156	0.0169637
647.234	0.0169978
647.312	0.0168577
647.390	0.0169509
647.468	0.0168645
647.547	0.0169936
647.625	0.0169276
647.703	0.0168859
647.781	0.0169460
647.859	0.0168525
647.937	0.0167932
648.015	0.0169456
648.093	0.0169854
648.172	0.0169704
648.250	0.0169484
648.328	0.0167760
648.406	0.0168828
648.484	0.0167644
648.562	0.0168248
648.640	0.0168024
648.718	0.0168545
648.797	0.0167371
648.875	0.0168782
648.953	0.0167938
649.031	0.0167403
649.109	0.0168712
649.187	0.0168117
649.265	0.0167597
649.343	0.0166219
649.422	0.0166491
649.500	0.0168396
649.578	0.0168576
649.656	0.0168234
649.734	0.0167087
649.812	0.0166370
649.890	0.0168435
649.968	0.0166785
650.047	0.0167604
650.125	0.0168464
650.203	0.0167664
650.281	0.0167415
650.359	0.0167657
650.437	0.0168701
650.515	0.0169602
650.593	0.0169226
650.672	0.0167713
650.750	0.0168707
650.828	0.0169292
650.906	0.0169508
650.984	0.0168416
651.062	0.0168653
651.140	0.0167101
651.218	0.0167204
651.297	0.0167385
651.375	0.0166988
651.453	0.0167597
651.531	0.0167889
651.609	0.0168386
651.687	0.0168410
651.765	0.0167297
651.843	0.0167433
651.922	0.0167689
652.000	0.0168566
652.078	0.0167571
652.156	0.0168162
652.234	0.0167576
652.312	0.0166541
652.390	0.0166662
652.468	0.0167384
652.547	0.0168592
652.625	0.0167518
652.703	0.0167261
652.781	0.0166502
652.859	0.0166204
652.937	0.0166806
653.015	0.0168719
653.093	0.0165840
653.172	0.0166206
653.250	0.0166976
653.328	0.0166164
653.406	0.0167318
653.484	0.0169114
653.562	0.0167126
653.640	0.0165717
653.718	0.0167325
653.797	0.0167194
653.875	0.0167538
653.953	0.0167059
654.031	0.0167529
654.109	0.0167922
654.187	0.0167624
654.265	0.0169301
654.343	0.0169005
654.422	0.0169964
654.500	0.0168616
654.578	0.0167152
654.656	0.0167844
654.734	0.0169659
654.812	0.0168488
654.890	0.0168856
654.968	0.0170340
655.047	0.0168759
655.125	0.0169533
655.203	0.0170367
655.281	0.0171000
655.359	0.0170132
655.437	0.0169952
655.515	0.0171293
655.593	0.0170277
655.672	0.0171395
655.750	0.0171844
655.828	0.0169448
655.906	0.0171201
655.984	0.0172060
656.062	0.0170816
656.140	0.0171471
656.218	0.0169688
656.297	0.0170435
656.375	0.0169524
656.453	0.0170415
656.531	0.0169225
656.609	0.0170470
656.687	0.0170779
656.765	0.0170435
656.843	0.0169821
656.922	0.0170021
657.000	0.0169718
657.078	0.0169625
657.156	0.0169099
657.234	0.0169130
657.312	0.0169851
657.390	0.0170620
657.468	0.0169650
657.547	0.0169516
657.625	0.0168702
657.703	0.0169270
657.781	0.0169555
657.859	0.0170107
657.937	0.0169958
658.015	0.0168935
658.093	0.0170731
658.172	0.0170883
658.250	0.0169992
658.328	0.0170535
658.406	0.0170041
658.484	0.0170762
658.562	0.0170330
658.640	0.0169841
658.718	0.0169325
658.797	0.0171315
658.875	0.0171420
658.953	0.0170484
659.031	0.0169883
659.109	0.0170222
659.187	0.0171497
659.265	0.0170053
659.343	0.0169411
659.422	0.0169926
659.500	0.0169819
659.578	0.0170449
659.656	0.0168555
659.734	0.0170063
659.812	0.0169253
659.890	0.0170470
659.968	0.0169825
660.047	0.0169804
660.125	0.0169644
660.203	0.0168211
660.281	0.0168903
660.359	0.0167811
660.437	0.0169427
660.515	0.0169099
660.593	0.0167245
660.672	0.0167478
660.750	0.0169489
660.828	0.0169174
660.906	0.0168645
660.984	0.0168716
661.062	0.0167552
661.140	0.0166905
661.218	0.0168423
661.297	0.0169423
661.375	0.0168655
661.453	0.0168978
661.531	0.0168508
661.609	0.0168841
661.687	0.0168950
661.765	0.0168652
661.843	0.0168173
661.922	0.0168370
662.000	0.0168603
662.078	0.0169884
662.156	0.0169809
662.234	0.0169635
662.312	0.0169592
662.390	0.0169670
662.468	0.0168908
662.547	0.0169501
662.625	0.0167492
662.703	0.0168732
662.781	0.0169492
662.859	0.0170207
662.937	0.0169679
663.015	0.0167652
663.093	0.0169094
663.172	0.0168488
663.250	0.0170070
663.328	0.0168958
663.406	0.0169090
663.484	0.0169086
663.562	0.0169460
663.640	0.0168593
663.718	0.0168439
663.797	0.0169012
663.875	0.0168900
663.953	0.0168339
664.031	0.0167747
664.109	0.0168307
664.187	0.0168045
664.265	0.0168208
664.343	0.0167480
664.422	0.0168246
664.500	0.0169013
664.578	0.0168307
664.656	0.0168700
664.734	0.0169289
664.812	0.0168942
664.890	0.0169366
664.968	0.0168758
665.047	0.0168494
665.125	0.0169279
665.203	0.0169917
665.281	0.0170107
665.359	0.0168287
665.437	0.0169578
665.515	0.0170547
665.593	0.0169076
665.672	0.0169521
665.750	0.0168718
665.828	0.0169579
665.906	0.0169469
665.984	0.0168736
666.062	0.0168621
666.140	0.0169848
666.218	0.0168566
666.297	0.0168227
666.375	0.0168746
666.453	0.0169929
666.531	0.0169025
666.609	0.0170142
666.687	0.0167700
666.765	0.0170918
666.843	0.0169426
666.922	0.0169138
667.000	0.0168468
667.078	0.0169658
667.156	0.0168721
667.234	0.0168230
667.312	0.0169618
667.390	0.0169324
667.468	0.0170436
667.547	0.0170222
667.625	0.0169874
667.703	0.0170245
667.781	0.0169332
667.859	0.0169630
667.937	0.0169105
668.015	0.0169875
668.093	0.0170421
668.172	0.0169804
668.250	0.0170972
668.328	0.0169220
668.406	0.0170364
668.484	0.0169804
668.562	0.0170071
668.640	0.0170134
668.718	0.0170904
668.797	0.0169949
668.875	0.0170277
668.953	0.0169788
669.031	0.0168816
669.109	0.0170826
669.187	0.0170015
669.265	0.0169225
669.343	0.0169702
669.422	0.0169810
669.500	0.0169937
669.578	0.0168701
669.656	0.0169850
669.734	0.0167937
669.812	0.0168899
669.890	0.0169580
669.968	0.0168848
670.047	0.0167306
670.125	0.0168362
670.203	0.0168884
670.281	0.0170171
670.359	0.0170392
670.437	0.0170648
670.515	0.0168423
670.593	0.0170573
670.672	0.0168988
670.750	0.0169278
670.828	0.0169374
670.906	0.0167181
670.984	0.0168264
671.062	0.0168449
671.140	0.0169926
671.218	0.0168491
671.297	0.0168950
671.375	0.0168169
671.453	0.0168118
671.531	0.0168451
671.609	0.0166875
671.687	0.0167639
671.765	0.0167963
671.843	0.0167470
671.922	0.0167896
672.000	0.0167670
672.078	0.0167411
672.156	0.0166624
672.234	0.0168280
672.312	0.0166942
672.390	0.0167722
672.468	0.0167686
672.547	0.0168046
672.625	0.0168145
672.703	0.0165803
672.781	0.0166653
672.859	0.0166938
672.937	0.0166956
673.015	0.0167444
673.093	0.0165136
673.172	0.0167211
673.250	0.0166574
673.328	0.0166568
673.406	0.0167545
673.484	0.0166032
673.562	0.0165569
673.640	0.0167278
673.718	0.0166079
673.797	0.0167395
673.875	0.0167443
673.953	0.0165933
674.031	0.0166074
674.109	0.0165126
674.187	0.0167148
674.265	0.0164893
674.343	0.0166452
674.422	0.0165675
674.500	0.0164889
674.578	0.0166080
674.656	0.0166573
674.734	0.0166062
674.812	0.0166035
674.890	0.0166358
674.968	0.0166143
675.047	0.0164931
675.125	0.0165848
675.203	0.0165768
675.281	0.0166265
675.359	0.0164841
675.437	0.0165067
675.515	0.0164916
675.593	0.0165870
675.672	0.0167264
675.750	0.0166354
675.828	0.0165055
675.906	0.0166119
675.984	0.0165773
676.062	0.0166244
676.140	0.0165362
676.218	0.0166348
676.297	0.0166894
676.375	0.0166426
676.453	0.0165813
676.531	0.0166832
676.609	0.0164855
676.687	0.0165764
676.765	0.0166239
676.843	0.0165211
676.922	0.0164973
677.000	0.0165482
677.078	0.0165668
677.156	0.0166058
677.234	0.0164281
677.312	0.0164507
677.390	0.0167020
677.468	0.0166846
677.547	0.0166404
677.625	0.0166714
677.703	0.0166853
677.781	0.0166029
677.859	0.0166006
677.937	0.0166185
678.015	0.0165976
678.093	0.0165350
678.172	0.0167295
678.250	0.0167959
678.328	0.0168464
678.406	0.0167981
678.484	0.0167613
678.562	0.0166800
678.640	0.0168850
678.718	0.0168280
678.797	0.0166727
678.875	0.0167203
678.953	0.0167455
679.031	0.0167927
679.109	0.0168073
679.187	0.0168044
679.265	0.0168112
679.343	0.0168279
679.422	0.0167721
679.500	0.0169489
679.578	0.0169675
679.656	0.0166400
679.734	0.0168395
679.812	0.0168520
679.890	0.0167955
679.968	0.0168453
680.047	0.0168825
680.125	0.0169166
680.203	0.0168562
680.281	0.0169028
680.359	0.0168286
680.437	0.0169432
680.515	0.0168887
680.593	0.0170985
680.672	0.0170401
680.750	0.0168664
680.828	0.0169132
680.906	0.0169485
680.984	0.0169831
681.062	0.0168541
681.140	0.0169823
681.218	0.0169053
681.297	0.0169259
681.375	0.0168761
681.453	0.0169852
681.531	0.0170186
681.609	0.0171112
681.687	0.0170640
681.765	0.0170724
681.843	0.0171103
681.922	0.0170422
682.000	0.0170229
682.078	0.0170236
682.156	0.0170271
682.234	0.0170437
682.312	0.0170472
682.390	0.0172594
682.468	0.0171684
682.547	0.0170415
682.625	0.0170045
682.703	0.0171304
682.781	0.0170984
682.859	0.0170590
682.937	0.0171129
683.015	0.0171451
683.093	0.0169968
683.172	0.0171761
683.250	0.0170216
683.328	0.0171636
683.406	0.0171031
683.484	0.0169627
683.562	0.0169668
683.640	0.0170885
683.718	0.0170939
683.797	0.0171198
683.875	0.0171696
683.953	0.0171138
684.031	0.0170672
684.109	0.0171542
684.187	0.0172723
684.265	0.0170432
684.343	0.0170414
684.422	0.0171127
684.500	0.0171698
684.578	0.0171445
684.656	0.0171626
684.734	0.0171405
684.812	0.0173634
684.890	0.0170052
684.968	0.0172411
685.047	0.0172060
685.125	0.0170578
685.203	0.0172211
685.281	0.0171732
685.359	0.0172028
685.437	0.0171901
685.515	0.0171867
685.593	0.0170841
685.672	0.0171601
685.750	0.0171041
685.828	0.0171770
685.906	0.0171719
685.984	0.0170445
686.062	0.0169651
686.140	0.0170650
686.218	0.0170497
686.297	0.0169109
686.375	0.0170767
686.453	0.0171788
686.531	0.0170204
686.609	0.0171310
686.687	0.0170919
686.765	0.0170205
686.843	0.0169808
686.922	0.0171618
687.000	0.0171666
687.078	0.0170943
687.156	0.0171359
687.234	0.0171380
687.312	0.0171069
687.390	0.0169969
687.468	0.0170457
687.547	0.0170073
687.625	0.0171402
687.703	0.0171503
687.781	0.0171896
687.859	0.0171576
687.937	0.0171170
688.015	0.0171346
688.093	0.0170880
688.172	0.0171515
688.250	0.0171105
688.328	0.0171562
688.406	0.0172116
688.484	0.0171736
688.562	0.0169872
688.640	0.0171527
688.718	0.0171500
688.797	0.0170712
688.875	0.0170154
688.953	0.0170824
689.031	0.0169724
689.109	0.0171101
689.187	0.0169199
689.265	0.0169503
689.343	0.0170472
689.422	0.0170035
689.500	0.0170324
689.578	0.0170937
689.656	0.0168544
689.734	0.0169662
689.812	0.0169951
689.890	0.0169471
689.968	0.0169592
690.047	0.0169253
690.125	0.0169189
690.203	0.0169928
690.281	0.0169582
690.359	0.0168727
690.437	0.0169586
690.515	0.0170593
690.593	0.0169474
690.672	0.0168777
690.750	0.0170692
690.828	0.0170620
690.906	0.0170435
690.984	0.0170837
691.062	0.0169739
691.140	0.0169791
691.218	0.0170455
691.297	0.0169486
691.375	0.0168142
691.453	0.0169642
691.531	0.0170793
691.609	0.0168958
691.687	0.0169298
691.765	0.0169736
691.843	0.0168839
691.922	0.0167999
692.000	0.0168827
692.078	0.0169144
692.156	0.0169062
692.234	0.0167857
692.312	0.0168445
692.390	0.0169005
692.468	0.0167462
692.547	0.0168150
692.625	0.0168522
692.703	0.0168666
692.781	0.0168047
692.859	0.0167834
692.937	0.0168116
693.015	0.0168614
693.093	0.0168317
693.172	0.0168529
693.250	0.0168442
693.328	0.0167310
693.406	0.0166611
693.484	0.0168256
693.562	0.0168635
693.640	0.0167606
693.718	0.0166426
693.797	0.0166415
693.875	0.0168843
693.953	0.0169707
694.031	0.0167819
694.109	0.0168030
694.187	0.0168656
694.265	0.0167848
694.343	0.0167299
694.422	0.0167787
694.500	0.0168771
694.578	0.0167294
694.656	0.0167167
694.734	0.0167660
694.812	0.0168034
694.890	0.0167503
694.968	0.0167112
695.047	0.0166772
695.125	0.0167336
695.203	0.0166888
695.281	0.0167617
695.359	0.0166216
695.437	0.0165434
695.515	0.0166072
695.593	0.0166982
695.672	0.0167282
695.750	0.0167593
695.828	0.0167476
695.906	0.0167417
695.984	0.0166265
696.062	0.0165778
696.140	0.0166797
696.218	0.0166796
696.297	0.0168008
696.375	0.0167239
696.453	0.0165911
696.531	0.0165707
696.609	0.0166598
696.687	0.0168597
696.765	0.0166992
696.843	0.0165468
696.922	0.0166811
697.000	0.0166755
697.078	0.0165009
697.156	0.0165809
697.234	0.0166917
697.312	0.0165867
697.390	0.0166775
697.468	0.0165879
697.547	0.0166560
697.625	0.0165715
697.703	0.0164942
697.781	0.0166225
697.859	0.0166342
697.937	0.0165434
698.015	0.0164411
698.093	0.0164873
698.172	0.0165388
698.250	0.0166090
698.328	0.0165647
698.406	0.0166176
698.484	0.0165379
698.562	0.0166139
698.640	0.0165731
698.718	0.0164728
698.797	0.0166061
698.875	0.0166649
698.953	0.0166593
699.031	0.0165829
699.109	0.0165661
699.187	0.0167171
699.265	0.0166428
699.343	0.0165759
699.422	0.0167538
699.500	0.0167259
699.578	0.0166150
699.656	0.0166809
699.734	0.0168733
699.812	0.0167005
699.890	0.0166352
699.968	0.0168343
700.047	0.0167731
700.125	0.0167366
700.203	0.0168058
700.281	0.0167548
700.359	0.0167146
700.437	0.0169091
700.515	0.0168743
700.593	0.0169135
700.672	0.0167624
700.750	0.0168553
700.828	0.0167218
700.906	0.0166919
700.984	0.0167134
701.062	0.0167010
701.140	0.0168817
701.218	0.0167995
701.297	0.0167951
701.375	0.0168594
701.453	0.0167633
701.531	0.0167972
701.609	0.0167309
701.687	0.0167719
701.765	0.0168877
701.843	0.0169250
701.922	0.0168797
702.000	0.0168664
702.078	0.0168043
702.156	0.0169109
702.234	0.0168964
702.312	0.0169304
702.390	0.0168588
702.468	0.0167506
702.547	0.0168295
702.625	0.0170036
702.703	0.0168576
702.781	0.0167627
702.859	0.0168481
702.937	0.0168396
703.015	0.0169593
703.093	0.0168083
703.172	0.0169487
703.250	0.0167905
703.328	0.0168279
703.406	0.0167344
703.484	0.0167776
703.562	0.0168788
703.640	0.0167255
703.718	0.0167464
703.797	0.0168259
703.875	0.0166984
703.953	0.0167030
704.031	0.0168311
704.109	0.0167822
704.187	0.0167343
704.265	0.0167612
704.343	0.0167609
704.422	0.0168784
704.500	0.0168027
704.578	0.0169103
704.656	0.0168238
704.734	0.0168172
704.812	0.0167970
704.890	0.0168636
704.968	0.0168244
705.047	0.0169356
705.125	0.0168712
705.203	0.0168974
705.281	0.0168156
705.359	0.0168402
705.437	0.0168770
705.515	0.0170065
705.593	0.0168767
705.672	0.0167812
705.750	0.0168581
705.828	0.0168242
705.906	0.0169889
705.984	0.0169336
706.062	0.0169447
706.140	0.0168196
706.218	0.0169983
706.297	0.0168774
706.375	0.0170128
706.453	0.0168158
706.531	0.0168839
706.609	0.0169824
706.687	0.0171162
706.765	0.0169926
706.843	0.0170878
706.922	0.0170705
707.000	0.0169472
707.078	0.0171006
707.156	0.0171528
707.234	0.0171428
707.312	0.0170490
707.390	0.0172119
707.468	0.0171151
707.547	0.0171506
707.625	0.0172358
707.703	0.0171905
707.781	0.0171486
707.859	0.0171148
707.937	0.0171270
708.015	0.0172699
708.093	0.0171460
708.172	0.0171757
708.250	0.0170766
708.328	0.0173253
708.406	0.0172679
708.484	0.0171684
708.562	0.0172227
708.640	0.0170601
708.718	0.0170602
708.797	0.0171190
708.875	0.0170661
708.953	0.0171856
709.031	0.0170693
709.109	0.0171136
709.187	0.0171777
709.265	0.0171326
709.343	0.0170653
709.422	0.0171735
709.500	0.0171017
709.578	0.0170957
709.656	0.0170950
709.734	0.0172392
709.812	0.0172331
709.890	0.0171992
709.968	0.0170792
710.047	0.0171307
710.125	0.0173586
710.203	0.0171413
710.281	0.0171504
710.359	0.0170977
710.437	0.0171091
710.515	0.0171297
710.593	0.0171690
710.672	0.0173016
710.750	0.0170924
710.828	0.0171267
710.906	0.0171664
710.984	0.0171075
711.062	0.0171709
711.140	0.0170652
711.218	0.0171810
711.297	0.0171003
711.375	0.0171478
711.453	0.0170338
711.531	0.0170084
711.609	0.0170722
711.687	0.0171167
711.765	0.0170178
711.843	0.0170850
711.922	0.0170605
712.000	0.0169901
712.078	0.0171079
712.156	0.0170133
712.234	0.0170237
712.312	0.0168486
712.390	0.0169941
712.468	0.0171492
712.547	0.0171870
712.625	0.0170142
712.703	0.0169379
712.781	0.0169651
712.859	0.0169966
712.937	0.0170393
713.015	0.0169454
713.093	0.0168772
713.172	0.0169765
713.250	0.0169598
713.328	0.0170005
713.406	0.0169938
713.484	0.0169110
713.562	0.0168928
713.640	0.0170084
713.718	0.0170138
713.797	0.0169646
713.875	0.0169163
713.953	0.0168986
714.031	0.0168510
714.109	0.0170121
714.187	0.0170548
714.265	0.0169460
714.343	0.0169304
714.422	0.0169334
714.500	0.0168858
714.578	0.0170276
714.656	0.0171305
714.734	0.0170274
714.812	0.0169169
714.890	0.0169442
714.968	0.0168978
715.047	0.0168690
715.125	0.0169775
715.203	0.0168589
715.281	0.0169817
715.359	0.0168803
715.437	0.0170893
715.515	0.0170004
715.593	0.0169758
715.672	0.0169260
715.750	0.0171004
715.828	0.0169234
715.906	0.0170220
715.984	0.0170571
716.062	0.0168958
716.140	0.0170347
716.218	0.0169201
716.297	0.0167929
716.375	0.0169598
716.453	0.0169637
716.531	0.0168648
716.609	0.0170252
716.687	0.0169860
716.765	0.0169784
716.843	0.0169160
716.922	0.0169832
717.000	0.0168692
717.078	0.0169388
717.156	0.0169257
717.234	0.0168955
717.312	0.0169531
717.390	0.0168158
717.468	0.0168954
717.547	0.0169402
717.625	0.0170518
717.703	0.0168527
717.781	0.0168506
717.859	0.0168669
717.937	0.0169154
718.015	0.0168507
718.093	0.0167870
718.172	0.0168446
718.250	0.0169283
718.328	0.0169964
718.406	0.0170213
718.484	0.0168421
718.562	0.0167929
718.640	0.0170099
718.718	0.0169342
718.797	0.0169728
718.875	0.0169707
718.953	0.0168660
719.031	0.0168856
719.109	0.0168431
719.187	0.0168648
719.265	0.0169254
719.343	0.0168113
719.422	0.0168533
719.500	0.0168176
719.578	0.0168317
719.656	0.0166782
719.734	0.0168287
719.812	0.0167845
719.890	0.0167085
719.968	0.0169145
720.047	0.0167849
720.125	0.0167981
720.203	0.0167012
720.281	0.0168242
720.359	0.0167809
720.437	0.0166854
720.515	0.0167188
720.593	0.0167651
720.672	0.0168896
720.750	0.0169019
720.828	0.0167980
720.906	0.0168694
720.984	0.0167709
721.062	0.0168876
721.140	0.0168752
721.218	0.0167419
721.297	0.0167231
721.375	0.0167188
721.453	0.0167146
721.531	0.0167693
721.609	0.0165723
721.687	0.0165180
721.765	0.0166673
721.843	0.0167110
721.922	0.0166836
722.000	0.0167896
722.078	0.0169173
722.156	0.0166947
722.234	0.0167148
722.312	0.0168057
722.390	0.0167809
722.468	0.0166714
722.547	0.0166409
722.625	0.0168285
722.703	0.0165221
722.781	0.0166479
722.859	0.0167090
722.937	0.0167170
723.015	0.0166800
723.093	0.0166302
723.172	0.0168505
723.250	0.0166048
723.328	0.0167493
723.406	0.0165303
723.484	0.0165616
723.562	0.0167275
723.640	0.0168333
723.718	0.0166723
723.797	0.0167727
723.875	0.0167741
723.953	0.0168505
724.031	0.0168394
724.109	0.0167951
724.187	0.0168192
724.265	0.0168024
724.343	0.0168043
724.422	0.0168446
724.500	0.0169236
724.578	0.0167700
724.656	0.0167331
724.734	0.0168814
724.812	0.0170134
724.890	0.0169254
724.968	0.0168401
725.047	0.0168960
725.125	0.0169901
725.203	0.0169221
725.281	0.0169165
725.359	0.0168422
725.437	0.0169794
725.515	0.0168245
725.593	0.0168077
725.672	0.0168832
725.750	0.0169300
725.828	0.0167676
725.906	0.0168174
725.984	0.0169760
726.062	0.0169331
726.140	0.0168444
726.218	0.0169611
726.297	0.0169489
726.375	0.0170747
726.453	0.0169488
726.531	0.0167905
726.609	0.0168672
726.687	0.0169518
726.765	0.0168677
726.843	0.0168357
726.922	0.0168108
727.000	0.0168298
727.078	0.0167752
727.156	0.0168392
727.234	0.0169152
727.312	0.0168291
727.390	0.0168334
727.468	0.0166763
727.547	0.0168171
727.625	0.0169016
727.703	0.0169426
727.781	0.0168871
727.859	0.0168277
727.937	0.0168045
728.015	0.0167077
728.093	0.0167773
728.172	0.0167952
728.250	0.0166731
728.328	0.0167532
728.406	0.0169048
728.484	0.0168433
728.562	0.0168290
728.640	0.0167239
728.718	0.0168743
728.797	0.0168005
728.875	0.0168162
728.953	0.0168465
729.031	0.0167941
729.109	0.0167683
729.187	0.0168273
729.265	0.0167673
729.343	0.0167726
729.422	0.0167480
729.500	0.0168782
729.578	0.0169634
729.656	0.0168583
729.734	0.0168784
729.812	0.0169022
729.890	0.0169784
729.968	0.0168723
730.047	0.0170956
730.125	0.0169408
730.203	0.0170509
730.281	0.0170274
730.359	0.0168306
730.437	0.0169134
730.515	0.0169790
730.593	0.0171671
730.672	0.0169537
730.750	0.0169189
730.828	0.0170110
730.906	0.0170813
730.984	0.0169006
731.062	0.0169695
731.140	0.0169006
731.218	0.0169742
731.297	0.0170638
731.375	0.0169018
731.453	0.0168745
731.531	0.0169518
731.609	0.0170409
731.687	0.0169942
731.765	0.0168373
731.843	0.0168948
731.922	0.0170222
732.000	0.0169858
732.078	0.0169164
732.156	0.0169035
732.234	0.0169690
732.312	0.0169712
732.390	0.0170239
732.468	0.0170296
732.547	0.0169080
732.625	0.0171199
732.703	0.0170194
732.781	0.0170489
732.859	0.0169549
732.937	0.0168561
733.015	0.0171579
733.093	0.0170594
733.172	0.0171454
733.250	0.0171509
733.328	0.0171361
733.406	0.0171939
733.484	0.0170770
733.562	0.0170079
733.640	0.0171884
733.718	0.0171189
733.797	0.0172141
733.875	0.0169872
733.953	0.0170117
734.031	0.0171625
734.109	0.0171867
734.187	0.0169523
734.265	0.0170555
734.343	0.0168953
734.422	0.0170011
734.500	0.0170503
734.578	0.0169954
734.656	0.0168867
734.734	0.0170267
734.812	0.0169164
734.890	0.0170097
734.968	0.0168266
735.047	0.0169402
735.125	0.0168645
735.203	0.0169713
735.281	0.0168930
735.359	0.0167514
735.437	0.0169184
735.515	0.0169052
735.593	0.0169344
735.672	0.0167829
735.750	0.0168510
735.828	0.0169832
735.906	0.0167538
735.984	0.0167262
736.062	0.0168476
736.140	0.0169122
736.218	0.0169242
736.297	0.0167764
736.375	0.0168496
736.453	0.0168712
736.531	0.0169097
736.609	0.0168920
736.687	0.0168287
736.765	0.0167692
736.843	0.0169172
736.922	0.0168056
737.000	0.0168875
737.078	0.0167321
737.156	0.0168638
737.234	0.0169972
737.312	0.0169545
737.390	0.0170350
737.468	0.0168587
737.547	0.0168852
737.625	0.0169569
737.703	0.0168845
737.781	0.0168871
737.859	0.0169423
737.937	0.0168322
738.015	0.0168858
738.093	0.0169653
738.172	0.0167683
738.250	0.0168926
738.328	0.0167839
738.406	0.0168653
738.484	0.0169129
738.562	0.0168005
738.640	0.0166971
738.718	0.0167223
738.797	0.0169028
738.875	0.0168126
738.953	0.0167770
739.031	0.0168152
739.109	0.0168529
739.187	0.0167284
739.265	0.0168220
739.343	0.0168114
739.422	0.0168528
739.500	0.0168134
739.578	0.0168070
739.656	0.0168124
739.734	0.0167783
739.812	0.0168164
739.890	0.0167998
739.968	0.0167733
740.047	0.0167853
740.125	0.0167540
740.203	0.0167512
740.281	0.0168303
740.359	0.0168262
740.437	0.0168398
740.515	0.0168343
740.593	0.0169847
740.672	0.0169122
740.750	0.0167340
740.828	0.0168099
740.906	0.0169019
740.984	0.0168768
741.062	0.0169202
741.140	0.0169913
741.218	0.0168892
741.297	0.0169378
741.375	0.0169978
741.453	0.0169714
741.531	0.0168965
741.609	0.0168649
741.687	0.0169526
741.765	0.0169052
741.843	0.0169299
741.922	0.0169703
742.000	0.0168457
742.078	0.0167994
742.156	0.0169038
742.234	0.0170075
742.312	0.0168716
742.390	0.0168131
742.468	0.0168766
742.547	0.0169038
742.625	0.0169459
742.703	0.0168162
742.781	0.0167577
742.859	0.0168302
742.937	0.0168785
743.015	0.0168836
743.093	0.0168459
743.172	0.0168999
743.250	0.0168535
743.328	0.0168893
743.406	0.0169378
743.484	0.0168513
743.562	0.0168855
743.640	0.0167273
743.718	0.0168851
743.797	0.0167885
743.875	0.0167835
743.953	0.0167044
744.031	0.0166911
744.109	0.0167636
744.187	0.0168127
744.265	0.0167841
744.343	0.0168594
744.422	0.0168690
744.500	0.0166808
744.578	0.0166637
744.656	0.0168718
744.734	0.0168436
744.812	0.0167437
744.890	0.0168168
744.968	0.0167303
745.047	0.0165797
745.125	0.0167327
745.203	0.0166204
745.281	0.0166212
745.359	0.0167042
745.437	0.0166450
745.515	0.0167404
745.593	0.0167031
745.672	0.0166225
745.750	0.0166644
745.828	0.0167596
745.906	0.0165714
745.984	0.0168182
746.062	0.0166830
746.140	0.0167049
746.218	0.0166107
746.297	0.0164493
746.375	0.0166100
746.453	0.0167173
746.531	0.0167116
746.609	0.0167458
746.687	0.0166188
746.765	0.0166798
746.843	0.0167797
746.922	0.0167184
747.000	0.0165637
747.078	0.0168204
747.156	0.0167326
747.234	0.0167064
747.312	0.0166846
747.390	0.0166894
747.468	0.0166698
747.547	0.0167485
747.625	0.0168098
747.703	0.0168224
747.781	0.0167451
747.859	0.0167709
747.937	0.0167374
748.015	0.0167049
748.093	0.0168150
748.172	0.0168077
748.250	0.0167941
748.328	0.0167722
748.406	0.0168324
748.484	0.0167931
748.562	0.0168768
748.640	0.0168933
748.718	0.0167819
748.797	0.0167339
748.875	0.0168726
748.953	0.0167577
749.031	0.0168104
749.109	0.0168377
749.187	0.0168213
749.265	0.0166801
749.343	0.0167892
749.422	0.0166981
749.500	0.0167042
749.578	0.0167870
749.656	0.0168439
749.734	0.0168274
749.812	0.0166666
749.890	0.0166766
749.968	0.0166969
750.047	0.0168275
750.125	0.0168701
750.203	0.0167738
750.281	0.0167719
750.359	0.0168751
750.437	0.0169012
750.515	0.0167380
750.593	0.0168563
750.672	0.0167707
750.750	0.0169123
750.828	0.0167902
750.906	0.0168500
750.984	0.0168887
751.062	0.0170230
751.140	0.0169951
751.218	0.0169135
751.297	0.0169997
751.375	0.0170570
751.453	0.0168851
751.531	0.0169213
751.609	0.0170140
751.687	0.0169885
751.765	0.0169326
751.843	0.0170439
751.922	0.0169301
752.000	0.0169116
752.078	0.0167979
752.156	0.0169658
752.234	0.0169241
752.312	0.0169980
752.390	0.0168252
752.468	0.0168606
752.547	0.0169630
752.625	0.0169758
752.703	0.0168517
752.781	0.0170206
752.859	0.0168864
752.937	0.0169632
753.015	0.0169304
753.093	0.0169080
753.172	0.0169507
753.250	0.0169868
753.328	0.0168941
753.406	0.0169260
753.484	0.0169640
753.562	0.0169095
753.640	0.0168074
753.718	0.0167966
753.797	0.0168056
753.875	0.0168658
753.953	0.0167085
754.031	0.0168771
754.109	0.0167393
754.187	0.0167434
754.265	0.0168624
754.343	0.0167334
754.422	0.0166485
754.500	0.0168378
754.578	0.0167594
754.656	0.0167932
754.734	0.0168432
754.812	0.0167319
754.890	0.0168539
754.968	0.0167873
755.047	0.0168738
755.125	0.0168108
755.203	0.0167802
755.281	0.0168029
755.359	0.0169115
755.437	0.0168060
755.515	0.0167508
755.593	0.0169450
755.672	0.0168324
755.750	0.0169788
755.828	0.0169035
755.906	0.0168310
755.984	0.0170859
756.062	0.0170738
756.140	0.0169723
756.218	0.0169657
756.297	0.0169752
756.375	0.0169628
756.453	0.0169157
756.531	0.0170366
756.609	0.0169685
756.687	0.0170835
756.765	0.0170232
756.843	0.0168649
756.922	0.0169160
757.000	0.0168784
757.078	0.0168705
757.156	0.0169649
757.234	0.0169462
757.312	0.0170509
757.390	0.0169434
757.468	0.0168597
757.547	0.0169189
757.625	0.0169263
757.703	0.0169215
757.781	0.0168941
757.859	0.0169042
757.937	0.0168486
758.015	0.0168568
758.093	0.0169220
758.172	0.0168433
758.250	0.0168781
758.328	0.0167693
758.406	0.0168110
758.484	0.0167905
758.562	0.0167603
758.640	0.0168316
758.718	0.0168688
758.797	0.0169328
758.875	0.0168368
758.953	0.0167836
759.031	0.0169464
759.109	0.0169305
759.187	0.0168145
759.265	0.0169039
759.343	0.0168752
759.422	0.0167233
759.500	0.0169109
759.578	0.0170680
759.656	0.0169848
759.734	0.0167857
759.812	0.0168950
759.890	0.0169905
759.968	0.0168441
760.047	0.0166749
760.125	0.0169429
760.203	0.0169892
760.281	0.0168709
760.359	0.0168448
760.437	0.0169073
760.515	0.0167593
760.593	0.0168061
760.672	0.0167818
760.750	0.0168078
760.828	0.0167699
760.906	0.0168660
760.984	0.0169205
761.062	0.0168702
761.140	0.0167470
761.218	0.0168517
761.297	0.0169563
761.375	0.0168124
761.453	0.0168214
761.531	0.0168053
761.609	0.0169148
761.687	0.0168471
761.765	0.0169885
761.843	0.0169707
761.922	0.0168864
762.000	0.0167742
762.078	0.0168408
762.156	0.0167480
762.234	0.0169018
762.312	0.0168586
762.390	0.0167508
762.468	0.0169107
762.547	0.0169207
762.625	0.0168861
762.703	0.0166772
762.781	0.0169833
762.859	0.0168814
762.937	0.0168822
763.015	0.0168758
763.093	0.0168233
763.172	0.0169035
763.250	0.0168539
763.328	0.0169985
763.406	0.0169303
763.484	0.0167995
763.562	0.0168316
763.640	0.0168175
763.718	0.0168637
763.797	0.0169320
763.875	0.0168462
763.953	0.0168340
764.031	0.0168787
764.109	0.0169068
764.187	0.0170287
764.265	0.0167992
764.343	0.0168602
764.422	0.0169045
764.500	0.0169058
764.578	0.0168945
764.656	0.0168294
764.734	0.0168616
764.812	0.0167155
764.890	0.0168572
764.968	0.0167734
765.047	0.0168053
765.125	0.0168468
765.203	0.0169033
765.281	0.0168758
765.359	0.0168589
765.437	0.0168855
765.515	0.0167899
765.593	0.0166872
765.672	0.0168676
765.750	0.0167512
765.828	0.0169461
765.906	0.0168098
765.984	0.0170146
766.062	0.0169761
766.140	0.0169794
766.218	0.0169461
766.297	0.0169695
766.375	0.0170211
766.453	0.0170214
766.531	0.0171381
766.609	0.0170333
766.687	0.0169759
766.765	0.0169550
766.843	0.0171236
766.922	0.0170771
767.000	0.0170348
767.078	0.0169254
767.156	0.0170466
767.234	0.0169880
767.312	0.0169669
767.390	0.0169199
767.468	0.0169698
767.547	0.0170208
767.625	0.0169202
767.703	0.0168736
767.781	0.0168466
767.859	0.0167673
767.937	0.0168539
768.015	0.0169839
768.093	0.0167288
768.172	0.0167326
768.250	0.0168018
768.328	0.0169394
768.406	0.0169090
768.484	0.0168106
768.562	0.0166810
768.640	0.0168099
768.718	0.0168460
768.797	0.0169218
768.875	0.0168133
768.953	0.0168786
769.031	0.0166653
769.109	0.0167877
769.187	0.0169222
769.265	0.0167450
769.343	0.0166418
769.422	0.0170045
769.500	0.0168577
769.578	0.0168259
769.656	0.0167472
769.734	0.0167588
769.812	0.0169248
769.890	0.0168345
769.968	0.0168520
770.047	0.0167960
770.125	0.0168053
770.203	0.0170454
770.281	0.0168434
770.359	0.0168972
770.437	0.0169744
770.515	0.0168268
770.593	0.0168808
770.672	0.0169290
770.750	0.0170857
770.828	0.0168453
770.906	0.0168329
770.984	0.0167503
771.062	0.0169726
771.140	0.0169125
771.218	0.0168666
771.297	0.0167990
771.375	0.0167818
771.453	0.0169149
771.531	0.0168357
771.609	0.0167442
771.687	0.0167158
771.765	0.0167391
771.843	0.0167864
771.922	0.0167545
772.000	0.0166893
772.078	0.0167238
772.156	0.0167073
772.234	0.0167620
772.312	0.0168150
772.390	0.0167864
772.468	0.0167029
772.547	0.0167156
772.625	0.0168594
772.703	0.0167904
772.781	0.0167437
772.859	0.0167223
772.937	0.0168536
773.015	0.0166618
773.093	0.0167760
773.172	0.0169936
773.250	0.0167409
773.328	0.0168917
773.406	0.0167417
773.484	0.0167670
773.562	0.0167886
773.640	0.0169305
773.718	0.0168510
773.797	0.0168175
773.875	0.0169386
773.953	0.0168733
774.031	0.0168102
774.109	0.0169039
774.187	0.0169228
774.265	0.0168672
774.343	0.0170230
774.422	0.0169205
774.500	0.0166687
774.578	0.0168463
774.656	0.0169705
774.734	0.0170457
774.812	0.0169253
774.890	0.0168787
774.968	0.0169826
775.047	0.0169290
775.125	0.0169817
775.203	0.0169162
775.281	0.0168507
775.359	0.0168182
775.437	0.0167915
775.515	0.0169261
775.593	0.0169919
775.672	0.0168871
775.750	0.0169041
775.828	0.0168826
775.906	0.0168904
775.984	0.0170020
776.062	0.0169796
776.140	0.0168746
776.218	0.0169955
776.297	0.0169518
776.375	0.0170175
776.453	0.0169210
776.531	0.0170097
776.609	0.0171130
776.687	0.0169280
776.765	0.0170074
776.843	0.0171393
776.922	0.0171143
777.000	0.0170280
777.078	0.0169845
777.156	0.0169764
777.234	0.0171811
777.312	0.0170502
777.390	0.0170874
777.468	0.0171333
777.547	0.0171004
777.625	0.0171507
777.703	0.0169730
777.781	0.0171166
777.859	0.0172086
777.937	0.0170103
778.015	0.0172009
778.093	0.0170850
778.172	0.0171042
778.250	0.0171677
778.328	0.0173316
778.406	0.0169939
778.484	0.0171127
778.562	0.0170573
778.640	0.0170381
778.718	0.0171099
778.797	0.0171369
778.875	0.0170975
778.953	0.0169833
779.031	0.0169643
779.109	0.0169896
779.187	0.0170439
779.265	0.0170745
779.343	0.0170007
779.422	0.0169490
779.500	0.0169614
779.578	0.0170212
779.656	0.0170755
779.734	0.0170053
779.812	0.0169463
779.890	0.0170251
779.968	0.0168684
780.047	0.0170924
780.125	0.0169589
780.203	0.0170351
780.281	0.0170924
780.359	0.0170675
780.437	0.0171065
780.515	0.0171295
780.593	0.0170411
780.672	0.0170634
780.750	0.0171062
780.828	0.0169702
780.906	0.0170364
780.984	0.0171823
781.062	0.0171051
781.140	0.0170676
781.218	0.0170830
781.297	0.0171092
781.375	0.0171399
781.453	0.0170838
781.531	0.0171175
781.609	0.0170490
781.687	0.0169701
781.765	0.0169461
781.843	0.0170242
781.922	0.0169776
782.000	0.0168767
782.078	0.0170281
782.156	0.0169627
782.234	0.0167221
782.312	0.0167503
782.390	0.0169830
782.468	0.0170561
782.547	0.0169466
782.625	0.0168769
782.703	0.0169200
782.781	0.0169604
782.859	0.0170409
782.937	0.0170136
783.015	0.0170850
783.093	0.0170289
783.172	0.0170654
783.250	0.0170144
783.328	0.0169175
783.406	0.0170738
783.484	0.0170132
783.562	0.0169722
783.640	0.0169706
783.718	0.0169835
783.797	0.0170213
783.875	0.0168853
783.953	0.0168971
784.031	0.0167873
784.109	0.0168656
784.187	0.0169898
784.265	0.0169131
784.343	0.0169471
784.422	0.0169241
784.500	0.0168604
784.578	0.0169825
784.656	0.0169387
784.734	0.0170590
784.812	0.0170701
784.890	0.0171189
784.968	0.0169861
785.047	0.0168925
785.125	0.0168572
785.203	0.0170650
785.281	0.0169639
785.359	0.0169272
785.437	0.0168162
785.515	0.0169038
785.593	0.0167390
785.672	0.0169912
785.750	0.0169160
785.828	0.0167730
785.906	0.0167812
785.984	0.0168024
786.062	0.0168121
786.140	0.0168547
786.218	0.0168703
786.297	0.0167435
786.375	0.0168344
786.453	0.0167982
786.531	0.0167983
786.609	0.0168221
786.687	0.0169707
786.765	0.0170106
786.843	0.0168800
786.922	0.0169800
787.000	0.0170119
787.078	0.0168400
787.156	0.0168281
787.234	0.0170004
787.312	0.0169337
787.390	0.0168990
787.468	0.0168591
787.547	0.0169080
787.625	0.0169697
787.703	0.0168974
787.781	0.0168539
787.859	0.0167918
787.937	0.0168668
788.015	0.0168785
788.093	0.0167964
788.172	0.0168195
788.250	0.0168560
788.328	0.0167729
788.406	0.0168670
788.484	0.0168298
788.562	0.0170208
788.640	0.0169276
788.718	0.0168857
788.797	0.0169620
788.875	0.0170809
788.953	0.0169353
789.031	0.0171054
789.109	0.0170165
789.187	0.0171440
789.265	0.0170702
789.343	0.0169544
789.422	0.0170653
789.500	0.0170052
789.578	0.0170306
789.656	0.0169590
789.734	0.0169217
789.812	0.0170490
789.890	0.0171039
789.968	0.0169790
790.047	0.0169154
790.125	0.0169607
790.203	0.0170686
790.281	0.0170182
790.359	0.0169336
790.437	0.0169861
790.515	0.0171204
790.593	0.0171336
790.672	0.0171325
790.750	0.0170442
790.828	0.0171445
790.906	0.0171604
790.984	0.0171569
791.062	0.0169335
791.140	0.0171021
791.218	0.0171246
791.297	0.0170479
791.375	0.0170925
791.453	0.0171120
791.531	0.0170663
791.609	0.0170808
791.687	0.0171142
791.765	0.0169849
791.843	0.0168683
791.922	0.0169817
792.000	0.0169407
792.078	0.0169593
792.156	0.0169139
792.234	0.0168812
792.312	0.0169263
792.390	0.0169540
792.468	0.0168011
792.547	0.0168372
792.625	0.0167940
792.703	0.0169129
792.781	0.0168381
792.859	0.0167397
792.937	0.0168375
793.015	0.0168523
793.093	0.0169361
793.172	0.0170805
793.250	0.0168793
793.328	0.0169432
793.406	0.0168826
793.484	0.0167751
793.562	0.0168530
793.640	0.0168591
793.718	0.0169688
793.797	0.0168418
793.875	0.0168735
793.953	0.0168530
794.031	0.0168065
794.109	0.0167474
794.187	0.0167944
794.265	0.0168865
794.343	0.0167747
794.422	0.0168638
794.500	0.0170020
794.578	0.0169753
794.656	0.0168790
794.734	0.0169048
794.812	0.0168239
794.890	0.0169197
794.968	0.0169874
795.047	0.0168947
795.125	0.0169786
795.203	0.0169216
795.281	0.0170821
795.359	0.0170124
795.437	0.0169777
795.515	0.0168011
795.593	0.0168656
795.672	0.0170149
795.750	0.0168924
795.828	0.0167902
795.906	0.0168308
795.984	0.0168167
796.062	0.0169064
796.140	0.0169333
796.218	0.0169391
796.297	0.0168795
796.375	0.0168272
796.453	0.0168418
796.531	0.0167846
796.609	0.0167474
796.687	0.0168334
796.765	0.0168320
796.843	0.0167276
796.922	0.0167934
797.000	0.0166797
797.078	0.0167308
797.156	0.0166745
797.234	0.0166875
797.312	0.0167097
797.390	0.0167750
797.468	0.0167442
797.547	0.0167168
797.625	0.0167195
797.703	0.0167606
797.781	0.0168327
797.859	0.0169422
797.937	0.0170323
798.015	0.0169691
798.093	0.0169955
798.172	0.0169005
798.250	0.0170023
798.328	0.0170016
798.406	0.0169715
798.484	0.0170522
798.562	0.0169674
798.640	0.0170009
798.718	0.0168957
798.797	0.0170883
798.875	0.0170484
798.953	0.0170045
799.031	0.0169059
799.109	0.0170396
799.187	0.0170520
799.265	0.0169346
799.343	0.0170366
799.422	0.0171329
799.500	0.0168980
799.578	0.0167828
799.656	0.0168887
799.734	0.0168458
799.812	0.0168743
799.890	0.0169115
799.968	0.0169813
800.047	0.0169755
800.125	0.0170943
800.203	0.0169410
800.281	0.0170686
800.359	0.0169914
800.437	0.0169680
800.515	0.0169749
800.593	0.0170618
800.672	0.0170670
800.750	0.0168827
800.828	0.0169036
800.906	0.0169185
800.984	0.0171239
801.062	0.0169414
801.140	0.0170304
801.218	0.0168932
801.297	0.0169552
801.375	0.0170645
801.453	0.0171574
801.531	0.0171362
801.609	0.0170749
801.687	0.0170370
801.765	0.0171472
801.843	0.0168822
801.922	0.0170519
802.000	0.0169757
802.078	0.0169275
802.156	0.0170621
802.234	0.0168862
802.312	0.0169195
802.390	0.0169127
802.468	0.0170683
802.547	0.0169513
802.625	0.0168848
802.703	0.0169045
802.781	0.0169017
802.859	0.0169767
802.937	0.0169861
803.015	0.0169588
803.093	0.0169359
803.172	0.0169094
803.250	0.0169924
803.328	0.0168974
803.406	0.0170459
803.484	0.0170028
803.562	0.0170017
803.640	0.0169440
803.718	0.0170185
803.797	0.0169189
803.875	0.0169386
803.953	0.0168095
804.031	0.0168519
804.109	0.0169643
804.187	0.0167508
804.265	0.0169025
804.343	0.0168428
804.422	0.0168792
804.500	0.0169766
804.578	0.0169080
804.656	0.0168778
804.734	0.0168120
804.812	0.0168849
804.890	0.0169757
804.968	0.0169494
805.047	0.0168547
805.125	0.0169500
805.203	0.0169579
805.281	0.0168358
805.359	0.0169658
805.437	0.0169113
805.515	0.0169778
805.593	0.0168249
805.672	0.0167984
805.750	0.0168633
805.828	0.0170599
805.906	0.0168712
805.984	0.0168846
806.062	0.0169965
806.140	0.0170621
806.218	0.0167783
806.297	0.0168316
806.375	0.0169128
806.453	0.0168311
806.531	0.0166859
806.609	0.0169213
806.687	0.0168606
806.765	0.0168092
806.843	0.0168960
806.922	0.0169156
807.000	0.0168723
807.078	0.0168752
807.156	0.0168717
807.234	0.0168168
807.312	0.0167578
807.390	0.0168421
807.468	0.0169167
807.547	0.0168674
807.625	0.0168733
807.703	0.0168486
807.781	0.0166772
807.859	0.0166743
807.937	0.0167672
808.015	0.0167110
808.093	0.0166767
808.172	0.0167023
808.250	0.0167413
808.328	0.0167083
808.406	0.0167456
808.484	0.0167379
808.562	0.0166715
808.640	0.0167264
808.718	0.0166882
808.797	0.0165955
808.875	0.0167780
808.953	0.0166444
809.031	0.0168058
809.109	0.0168392
809.187	0.0166248
809.265	0.0167617
809.343	0.0168792
809.422	0.0169069
809.500	0.0170238
809.578	0.0168214
809.656	0.0168588
809.734	0.0168140
809.812	0.0167585
809.890	0.0168465
809.968	0.0167181
810.047	0.0167765
810.125	0.0168050
810.203	0.0168188
810.281	0.0168797
810.359	0.0167879
810.437	0.0169006
810.515	0.0168299
810.593	0.0169778
810.672	0.0168275
810.750	0.0168721
810.828	0.0170875
810.906	0.0169012
810.984	0.0168985
811.062	0.0169244
811.140	0.0169082
811.218	0.0168803
811.297	0.0168740
811.375	0.0167516
811.453	0.0167594
811.531	0.0168657
811.609	0.0168578
811.687	0.0167472
811.765	0.0167260
811.843	0.0167536
811.922	0.0167238
812.000	0.0167402
812.078	0.0166025
812.156	0.0168571
812.234	0.0166631
812.312	0.0166265
812.390	0.0168591
812.468	0.0167180
812.547	0.0166553
812.625	0.0165419
812.703	0.0168109
812.781	0.0168272
812.859	0.0167565
812.937	0.0168268
813.015	0.0167912
813.093	0.0166741
813.172	0.0167993
813.250	0.0169331
813.328	0.0168514
813.406	0.0168241
813.484	0.0168068
813.562	0.0169419
813.640	0.0167806
813.718	0.0168272
813.797	0.0168182
813.875	0.0168274
813.953	0.0167988
814.031	0.0168913
814.109	0.0168182
814.187	0.0168362
814.265	0.0168369
814.343	0.0169071
814.422	0.0169104
814.500	0.0168662
814.578	0.0170148
814.656	0.0168920
814.734	0.0169482
814.812	0.0170044
814.890	0.0170206
814.968	0.0169949
815.047	0.0169481
815.125	0.0168138
815.203	0.0169453
815.281	0.0169667
815.359	0.0170405
815.437	0.0169748
815.515	0.0170099
815.593	0.0169001
815.672	0.0169731
815.750	0.0169981
815.828	0.0169722
815.906	0.0170760
815.984	0.0169124
816.062	0.0169810
816.140	0.0169215
816.218	0.0168948
816.297	0.0170631
816.375	0.0169610
816.453	0.0170154
816.531	0.0169931
816.609	0.0168876
816.687	0.0169224
816.765	0.0170436
816.843	0.0169698
816.922	0.0168713
817.000	0.0170841
817.078	0.0170163
817.156	0.0170234
817.234	0.0169173
817.312	0.0169548
817.390	0.0169526
817.468	0.0169443
817.547	0.0168609
817.625	0.0168531
817.703	0.0169090
817.781	0.0169374
817.859	0.0168735
817.937	0.0168356
818.015	0.0169112
818.093	0.0170010
818.172	0.0168712
818.250	0.0168636
818.328	0.0167719
818.406	0.0166179
818.484	0.0167451
818.562	0.0168359
818.640	0.0167690
818.718	0.0168164
818.797	0.0169928
818.875	0.0170000
818.953	0.0169186
819.031	0.0168838
819.109	0.0169622
819.187	0.0169939
819.265	0.0168508
819.343	0.0169720
819.422	0.0168824
819.500	0.0168576
819.578	0.0168964
819.656	0.0169349
819.734	0.0168660
819.812	0.0167819
819.890	0.0168380
819.968	0.0169669
820.047	0.0169966
820.125	0.0169810
820.203	0.0167638
820.281	0.0167731
820.359	0.0167885
820.437	0.0168709
820.515	0.0168942
820.593	0.0168535
820.672	0.0169076
820.750	0.0167484
820.828	0.0169312
820.906	0.0169147
820.984	0.0169944
821.062	0.0167645
821.140	0.0168874
821.218	0.0168129
821.297	0.0169353
821.375	0.0167565
821.453	0.0168334
821.531	0.0169252
821.609	0.0169568
821.687	0.0169318
821.765	0.0168142
821.843	0.0167668
821.922	0.0166788
822.000	0.0169409
822.078	0.0166242
822.156	0.0168005
822.234	0.0167873
822.312	0.0168825
822.390	0.0168506
822.468	0.0168404
822.547	0.0167574
822.625	0.0167657
822.703	0.0168063
822.781	0.0167819
822.859	0.0168815
822.937	0.0167254
823.015	0.0166708
823.093	0.0167292
823.172	0.0167346
823.250	0.0168140
823.328	0.0167544
823.406	0.0168782
823.484	0.0166930
823.562	0.0168055
823.640	0.0168726
823.718	0.0168851
823.797	0.0168722
823.875	0.0167472
823.953	0.0167077
824.031	0.0166722
824.109	0.0168120
824.187	0.0167966
824.265	0.0168208
824.343	0.0167670
824.422	0.0168207
824.500	0.0167460
824.578	0.0167637
824.656	0.0168221
824.734	0.0167915
824.812	0.0168523
824.890	0.0169426
824.968	0.0169661
825.047	0.0170053
825.125	0.0168586
825.203	0.0168504
825.281	0.0168430
825.359	0.0168539
825.437	0.0169152
825.515	0.0169917
825.593	0.0169569
825.672	0.0169157
825.750	0.0169193
825.828	0.0168420
825.906	0.0169101
825.984	0.0170062
826.062	0.0169183
826.140	0.0169028
826.218	0.0170007
826.297	0.0168767
826.375	0.0169166
826.453	0.0168140
826.531	0.0170119
826.609	0.0169775
826.687	0.0169753
826.765	0.0169403
826.843	0.0168433
826.922	0.0168719
827.000	0.0167945
827.078	0.0170062
827.156	0.0168090
827.234	0.0167954
827.312	0.0169885
827.390	0.0167341
827.468	0.0168166
827.547	0.0170084
827.625	0.0169022
827.703	0.0168861
827.781	0.0168055
827.859	0.0169280
827.937	0.0167898
828.015	0.0168042
828.093	0.0167873
828.172	0.0167772
828.250	0.0167388
828.328	0.0168217
828.406	0.0169039
828.484	0.0167438
828.562	0.0167268
828.640	0.0166965
828.718	0.0166525
828.797	0.0166967
828.875	0.0165784
828.953	0.0167877
829.031	0.0167793
829.109	0.0167064
829.187	0.0166663
829.265	0.0166558
829.343	0.0167958
829.422	0.0167049
829.500	0.0168707
829.578	0.0166982
829.656	0.0166538
829.734	0.0167416
829.812	0.0166967
829.890	0.0167152
829.968	0.0166747
830.047	0.0166164
830.125	0.0164714
830.203	0.0166653
830.281	0.0166766
830.359	0.0166885
830.437	0.0166738
830.515	0.0165625
830.593	0.0166660
830.672	0.0167004
830.750	0.0167110
830.828	0.0166579
830.906	0.0166888
830.984	0.0167542
831.062	0.0167666
831.140	0.0167738
831.218	0.0167754
831.297	0.0166773
831.375	0.0167841
831.453	0.0167355
831.531	0.0167509
831.609	0.0168314
831.687	0.0168198
831.765	0.0168099
831.843	0.0167616
831.922	0.0167865
832.000	0.0167805
832.078	0.0169530
832.156	0.0167990
832.234	0.0167609
832.312	0.0168530
832.390	0.0167821
832.468	0.0167884
832.547	0.0167033
832.625	0.0168059
832.703	0.0168790
832.781	0.0166449
832.859	0.0168261
832.937	0.0167715
833.015	0.0167134
833.093	0.0167468
833.172	0.0167142
833.250	0.0166371
833.328	0.0166747
833.406	0.0167378
833.484	0.0167008
833.562	0.0167505
833.640	0.0167304
833.718	0.0168326
833.797	0.0168436
833.875	0.0168743
833.953	0.0169403
834.031	0.0168903
834.109	0.0169337
834.187	0.0167802
834.265	0.0168234
834.343	0.0167595
834.422	0.0168876
834.500	0.0169811
834.578	0.0168618
834.656	0.0167339
834.734	0.0168179
834.812	0.0168230
834.890	0.0168889
834.968	0.0168682
835.047	0.0168121
835.125	0.0168938
835.203	0.0169024
835.281	0.0169867
835.359	0.0169678
835.437	0.0169267
835.515	0.0169825
835.593	0.0168036
835.672	0.0169306
835.750	0.0169813
835.828	0.0170653
835.906	0.0169764
835.984	0.0169236
836.062	0.0168562
836.140	0.0168841
836.218	0.0168396
836.297	0.0167661
836.375	0.0168493
836.453	0.0166929
836.531	0.0167442
836.609	0.0167019
836.687	0.0168330
836.765	0.0167199
836.843	0.0167861
836.922	0.0168690
837.000	0.0169607
837.078	0.0167796
837.156	0.0167393
837.234	0.0168203
837.312	0.0168392
837.390	0.0166331
837.468	0.0167886
837.547	0.0169292
837.625	0.0167931
837.703	0.0168744
837.781	0.0168011
837.859	0.0168993
837.937	0.0169275
838.015	0.0168307
838.093	0.0169725
838.172	0.0169374
838.250	0.0168760
838.328	0.0168243
838.406	0.0168375
838.484	0.0167972
838.562	0.0167628
838.640	0.0166437
838.718	0.0168179
838.797	0.0169336
838.875	0.0168082
838.953	0.0167966
839.031	0.0169360
839.109	0.0168745
839.187	0.0167241
839.265	0.0168339
839.343	0.0167049
839.422	0.0166786
839.500	0.0167425
839.578	0.0167579
839.656	0.0167805
839.734	0.0167286
839.812	0.0167191
839.890	0.0167133
839.968	0.0167623
840.047	0.0167502
840.125	0.0169509
840.203	0.0168050
840.281	0.0167950
840.359	0.0168063
840.437	0.0168479
840.515	0.0169106
840.593	0.0168343
840.672	0.0168757
840.750	0.0169106
840.828	0.0168369
840.906	0.0167440
840.984	0.0166748
841.062	0.0168434
841.140	0.0167828
841.218	0.0168368
841.297	0.0168462
841.375	0.0168816
841.453	0.0168404
841.531	0.0167134
841.609	0.0167086
841.687	0.0166876
841.765	0.0166904
841.843	0.0167694
841.922	0.0167093
842.000	0.0168288
842.078	0.0167955
842.156	0.0167064
842.234	0.0168604
842.312	0.0167606
842.390	0.0167797
842.468	0.0167826
842.547	0.0167564
842.625	0.0167828
842.703	0.0168015
842.781	0.0166915
842.859	0.0167365
842.937	0.0167671
843.015	0.0166977
843.093	0.0168462
843.172	0.0168398
843.250	0.0168166
843.328	0.0169243
843.406	0.0168658
843.484	0.0168917
843.562	0.0168570
843.640	0.0168259
843.718	0.0169464
843.797	0.0169389
843.875	0.0168690
843.953	0.0170135
844.031	0.0168096
844.109	0.0168571
844.187	0.0169351
844.265	0.0168613
844.343	0.0169232
844.422	0.0167368
844.500	0.0169019
844.578	0.0168172
844.656	0.0168211
844.734	0.0169579
844.812	0.0169776
844.890	0.0169687
844.968	0.0169524
845.047	0.0169762
845.125	0.0169765
845.203	0.0169437
845.281	0.0169348
845.359	0.0169760
845.437	0.0169304
845.515	0.0169185
845.593	0.0168881
845.672	0.0168338
845.750	0.0169021
845.828	0.0169181
845.906	0.0168034
845.984	0.0168896
846.062	0.0169080
846.140	0.0169344
846.218	0.0168672
846.297	0.0168184
846.375	0.0169374
846.453	0.0169418
846.531	0.0169868
846.609	0.0168478
846.687	0.0169209
846.765	0.0169358
846.843	0.0168324
846.922	0.0168066
847.000	0.0168925
847.078	0.0169873
847.156	0.0169980
847.234	0.0167498
847.312	0.0167669
847.390	0.0168154
847.468	0.0168102
847.547	0.0167283
847.625	0.0167922
847.703	0.0168424
847.781	0.0170411
847.859	0.0168328
847.937	0.0167991
848.015	0.0168024
848.093	0.0168365
848.172	0.0167751
848.250	0.0168674
848.328	0.0169528
848.406	0.0170056
848.484	0.0169593
848.562	0.0168648
848.640	0.0169547
848.718	0.0168987
848.797	0.0170478
848.875	0.0170558
848.953	0.0168821
849.031	0.0170654
849.109	0.0171049
849.187	0.0170153
849.265	0.0170432
849.343	0.0170893
849.422	0.0169910
849.500	0.0169798
849.578	0.0170528
849.656	0.0170647
849.734	0.0171274
849.812	0.0171133
849.890	0.0171254
849.968	0.0168987
850.047	0.0170497
850.125	0.0169862
850.203	0.0170473
850.281	0.0170567
850.359	0.0171098
850.437	0.0168515
850.515	0.0169587
850.593	0.0169855
850.672	0.0170364
850.750	0.0168221
850.828	0.0169806
850.906	0.0168999
850.984	0.0169141
851.062	0.0168437
851.140	0.0167771
851.218	0.0168983
851.297	0.0169620
851.375	0.0169733
851.453	0.0167747
851.531	0.0167166
851.609	0.0168007
851.687	0.0168227
851.765	0.0167336
851.843	0.0168176
851.922	0.0167677
852.000	0.0169296
852.078	0.0169492
852.156	0.0168414
852.234	0.0167477
852.312	0.0170267
852.390	0.0169356
852.468	0.0168438
852.547	0.0169996
852.625	0.0170067
852.703	0.0169906
852.781	0.0170426
852.859	0.0170811
852.937	0.0170541
853.015	0.0171302
853.093	0.0169695
853.172	0.0171886
853.250	0.0171666
853.328	0.0169110
853.406	0.0168299
853.484	0.0170432
853.562	0.0171130
853.640	0.0169913
853.718	0.0170296
853.797	0.0170395
853.875	0.0170889
853.953	0.0171291
854.031	0.0171822
854.109	0.0170628
854.187	0.0170342
854.265	0.0169685
854.343	0.0171212
854.422	0.0171405
854.500	0.0169927
854.578	0.0170146
854.656	0.0170197
854.734	0.0170788
854.812	0.0170345
854.890	0.0169341
854.968	0.0169875
855.047	0.0168421
855.125	0.0169334
855.203	0.0169130
855.281	0.0168030
855.359	0.0167558
855.437	0.0169040
855.515	0.0167460
855.593	0.0170050
855.672	0.0168098
855.750	0.0167843
855.828	0.0167684
855.906	0.0169135
855.984	0.0169675
856.062	0.0171215
856.140	0.0169223
856.218	0.0170242
856.297	0.0169851
856.375	0.0168433
856.453	0.0168533
856.531	0.0168694
856.609	0.0169177
856.687	0.0170605
856.765	0.0169315
856.843	0.0169629
856.922	0.0168359
857.000	0.0168997
857.078	0.0169132
857.156	0.0169897
857.234	0.0169086
857.312	0.0168655
857.390	0.0169344
857.468	0.0169207
857.547	0.0167843
857.625	0.0168795
857.703	0.0169447
857.781	0.0167680
857.859	0.0168012
857.937	0.0167586
858.015	0.0169880
858.093	0.0168532
858.172	0.0169022
858.250	0.0169663
858.328	0.0169358
858.406	0.0169125
858.484	0.0168900
858.562	0.0167326
858.640	0.0168159
858.718	0.0168472
858.797	0.0167291
858.875	0.0167957
858.953	0.0168121
859.031	0.0166947
859.109	0.0167908
859.187	0.0167368
859.265	0.0167464
859.343	0.0168320
859.422	0.0167124
859.500	0.0167876
859.578	0.0166879
859.656	0.0166743
859.734	0.0165435
859.812	0.0167309
859.890	0.0166610
859.968	0.0167536
860.047	0.0167720
860.125	0.0168356
860.203	0.0166254
860.281	0.0167757
860.359	0.0166493
860.437	0.0166100
860.515	0.0165342
860.593	0.0167188
860.672	0.0165617
860.750	0.0167131
860.828	0.0166386
860.906	0.0166272
860.984	0.0167091
861.062	0.0166981
861.140	0.0166084
861.218	0.0167025
861.297	0.0166274
861.375	0.0166256
861.453	0.0165908
861.531	0.0166085
861.609	0.0165120
861.687	0.0167355
861.765	0.0167136
861.843	0.0166716
861.922	0.0167309
862.000	0.0166515
862.078	0.0166801
862.156	0.0166783
862.234	0.0167313
862.312	0.0168409
862.390	0.0167597
862.468	0.0167877
862.547	0.0167583
862.625	0.0167725
862.703	0.0166930
862.781	0.0168969
862.859	0.0168722
862.937	0.0169901
863.015	0.0167614
863.093	0.0168258
863.172	0.0168547
863.250	0.0168356
863.328	0.0168739
863.406	0.0169166
863.484	0.0169197
863.562	0.0169970
863.640	0.0169257
863.718	0.0169073
863.797	0.0169379
863.875	0.0169821
863.953	0.0168868
864.031	0.0170159
864.109	0.0170376
864.187	0.0168631
864.265	0.0169711
864.343	0.0169915
864.422	0.0169850
864.500	0.0168999
864.578	0.0169919
864.656	0.0168032
864.734	0.0169737
864.812	0.0168433
864.890	0.0168596
864.968	0.0170040
865.047	0.0169687
865.125	0.0169753
865.203	0.0169376
865.281	0.0169768
865.359	0.0168810
865.437	0.0168291
865.515	0.0170280
865.593	0.0170377
865.672	0.0168943
865.750	0.0169592
865.828	0.0169617
865.906	0.0169927
865.984	0.0171158
866.062	0.0170094
866.140	0.0171071
866.218	0.0170206
866.297	0.0170100
866.375	0.0170721
866.453	0.0169764
866.531	0.0170178
866.609	0.0169501
866.687	0.0170206
866.765	0.0169590
866.843	0.0169063
866.922	0.0170151
867.000	0.0169476
867.078	0.0169311
867.156	0.0169701
867.234	0.0170171
867.312	0.0170113
867.390	0.0167628
867.468	0.0170452
867.547	0.0171014
867.625	0.0168695
867.703	0.0168879
867.781	0.0170403
867.859	0.0169501
867.937	0.0168905
868.015	0.0169985
868.093	0.0169400
868.172	0.0169814
868.250	0.0170772
868.328	0.0168877
868.406	0.0168972
868.484	0.0168217
868.562	0.0168778
868.640	0.0168699
868.718	0.0168817
868.797	0.0167603
868.875	0.0168917
868.953	0.0169423
869.031	0.0169364
869.109	0.0169262
869.187	0.0169452
869.265	0.0168222
869.343	0.0168294
869.422	0.0168797
869.500	0.0168697
869.578	0.0168709
869.656	0.0169116
869.734	0.0169775
869.812	0.0168176
869.890	0.0167607
869.968	0.0168274
870.047	0.0168469
870.125	0.0168692
870.203	0.0168707
870.281	0.0170323
870.359	0.0170222
870.437	0.0169617
870.515	0.0168680
870.593	0.0167847
870.672	0.0169110
870.750	0.0166685
870.828	0.0168941
870.906	0.0168538
870.984	0.0168436
871.062	0.0168169
871.140	0.0169933
871.218	0.0168304
871.297	0.0168425
871.375	0.0168301
871.453	0.0167496
871.531	0.0169078
871.609	0.0167825
871.687	0.0167603
871.765	0.0168343
871.843	0.0169173
871.922	0.0168408
872.000	0.0169169
872.078	0.0168438
872.156	0.0169241
872.234	0.0169626
872.312	0.0168913
872.390	0.0167722
872.468	0.0167929
872.547	0.0167703
872.625	0.0167615
872.703	0.0167999
872.781	0.0169883
872.859	0.0169155
872.937	0.0169509
873.015	0.0170619
873.093	0.0169479
873.172	0.0170567
873.250	0.0169548
873.328	0.0169011
873.406	0.0170589
873.484	0.0171440
873.562	0.0169327
873.640	0.0171127
873.718	0.0171500
873.797	0.0170211
873.875	0.0169892
873.953	0.0169453
874.031	0.0170366
874.109	0.0170747
874.187	0.0170259
874.265	0.0171128
874.343	0.0169745
874.422	0.0169129
874.500	0.0170138
874.578	0.0169312
874.656	0.0170155
874.734	0.0170360
874.812	0.0169228
874.890	0.0169659
874.968	0.0170387
875.047	0.0170075
875.125	0.0169382
875.203	0.0170064
875.281	0.0170319
875.359	0.0170575
875.437	0.0169003
875.515	0.0168657
875.593	0.0170189
875.672	0.0169164
875.750	0.0168358
875.828	0.0169762
875.906	0.0170646
875.984	0.0169891
876.062	0.0168568
876.140	0.0169631
876.218	0.0169111
876.297	0.0168975
876.375	0.0167954
876.453	0.0169292
876.531	0.0168413
876.609	0.0167651
876.687	0.0169229
876.765	0.0168809
876.843	0.0169492
876.922	0.0168456
877.000	0.0167661
877.078	0.0168720
877.156	0.0170334
877.234	0.0169718
877.312	0.0168315
877.390	0.0167593
877.468	0.0168407
877.547	0.0168694
877.625	0.0168660
877.703	0.0167859
877.781	0.0168659
877.859	0.0168185
877.937	0.0168353
878.015	0.0167540
878.093	0.0168598
878.172	0.0167943
878.250	0.0169141
878.328	0.0169074
878.406	0.0168422
878.484	0.0168519
878.562	0.0168517
878.640	0.0168390
878.718	0.0168298
878.797	0.0168159
878.875	0.0167438
878.953	0.0167298
879.031	0.0168704
879.109	0.0168192
879.187	0.0168430
879.265	0.0167776
879.343	0.0166444
879.422	0.0168393
879.500	0.0167559
879.578	0.0167655
879.656	0.0168781
879.734	0.0168223
879.812	0.0167078
879.890	0.0167474
879.968	0.0167711
880.047	0.0167578
880.125	0.0168211
880.203	0.0167824
880.281	0.0167551
880.359	0.0168908
880.437	0.0168013
880.515	0.0167381
880.593	0.0168732
880.672	0.0168071
880.750	0.0168279
880.828	0.0168051
880.906	0.0167197
880.984	0.0168521
881.062	0.0167442
881.140	0.0168901
881.218	0.0168016
881.297	0.0168685
881.375	0.0168578
881.453	0.0168298
881.531	0.0168243
881.609	0.0168925
881.687	0.0168126
881.765	0.0166888
881.843	0.0167489
881.922	0.0168568
882.000	0.0166984
882.078	0.0166889
882.156	0.0168354
882.234	0.0168507
882.312	0.0169259
882.390	0.0168478
882.468	0.0167612
882.547	0.0167222
882.625	0.0166946
882.703	0.0168484
882.781	0.0170885
882.859	0.0169122
882.937	0.0169126
883.015	0.0168226
883.093	0.0168250
883.172	0.0169421
883.250	0.0170042
883.328	0.0168235
883.406	0.0168123
883.484	0.0169008
883.562	0.0168919
883.640	0.0169672
883.718	0.0169780
883.797	0.0168700
883.875	0.0169153
883.953	0.0169307
884.031	0.0166929
884.109	0.0167709
884.187	0.0166930
884.265	0.0168462
884.343	0.0168297
884.422	0.0168461
884.500	0.0167661
884.578	0.0167590
884.656	0.0169109
884.734	0.0167612
884.812	0.0166885
884.890	0.0166916
884.968	0.0167256
885.047	0.0167752
885.125	0.0168861
885.203	0.0167919
885.281	0.0168301
885.359	0.0168816
885.437	0.0168623
885.515	0.0169222
885.593	0.0167945
885.672	0.0169505
885.750	0.0167979
885.828	0.0168221
885.906	0.0168365
885.984	0.0168323
886.062	0.0168380
886.140	0.0168801
886.218	0.0168591
886.297	0.0168033
886.375	0.0168659
886.453	0.0167592
886.531	0.0168803
886.609	0.0168848
886.687	0.0167712
886.765	0.0168065
886.843	0.0167525
886.922	0.0168922
887.000	0.0167953
887.078	0.0169064
887.156	0.0168530
887.234	0.0167000
887.312	0.0167325
887.390	0.0167973
887.468	0.0168011
887.547	0.0167958
887.625	0.0167873
887.703	0.0168512
887.781	0.0167455
887.859	0.0167262
887.937	0.0168258
888.015	0.0168576
888.093	0.0167030
888.172	0.0168669
888.250	0.0168999
888.328	0.0169269
888.406	0.0169662
888.484	0.0169790
888.562	0.0167828
888.640	0.0170084
888.718	0.0170020
888.797	0.0170879
888.875	0.0170093
888.953	0.0169907
889.031	0.0171579
889.109	0.0171444
889.187	0.0171283
889.265	0.0170807
889.343	0.0171333
889.422	0.0171403
889.500	0.0172259
889.578	0.0171424
889.656	0.0170797
889.734	0.0171253
889.812	0.0170353
889.890	0.0171114
889.968	0.0171746
890.047	0.0172219
890.125	0.0169833
890.203	0.0171272
890.281	0.0171638
890.359	0.0170953
890.437	0.0170701
890.515	0.0171182
890.593	0.0171135
890.672	0.0170446
890.750	0.0171542
890.828	0.0170693
890.906	0.0169459
890.984	0.0170501
891.062	0.0170763
891.140	0.0170116
891.218	0.0171024
891.297	0.0169559
891.375	0.0169308
891.453	0.0171242
891.531	0.0169373
891.609	0.0170451
891.687	0.0171429
891.765	0.0170340
891.843	0.0170052
891.922	0.0170263
892.000	0.0170043
892.078	0.0170222
892.156	0.0168992
892.234	0.0169525
892.312	0.0170885
892.390	0.0172246
892.468	0.0169947
892.547	0.0170785
892.625	0.0171136
892.703	0.0171088
892.781	0.0170587
892.859	0.0170467
892.937	0.0171053
893.015	0.0170100
893.093	0.0170535
893.172	0.0171156
893.250	0.0170412
893.328	0.0168482
893.406	0.0168131
893.484	0.0170036
893.562	0.0169856
893.640	0.0168699
893.718	0.0170068
893.797	0.0168556
893.875	0.0168822
893.953	0.0169530
894.031	0.0168405
894.109	0.0169605
894.187	0.0170190
894.265	0.0170118
894.343	0.0170523
894.422	0.0169283
894.500	0.0169349
894.578	0.0169864
894.656	0.0171158
894.734	0.0170447
894.812	0.0170438
894.890	0.0169686
894.968	0.0170609
895.047	0.0169415
895.125	0.0170589
895.203	0.0171051
895.281	0.0170671
895.359	0.0169719
895.437	0.0170798
895.515	0.0170455
895.593	0.0171056
895.672	0.0170856
895.750	0.0169466
895.828	0.0169949
895.906	0.0170119
895.984	0.0170515
896.062	0.0169398
896.140	0.0169685
896.218	0.0168345
896.297	0.0169443
896.375	0.0168705
896.453	0.0167897
896.531	0.0168890
896.609	0.0167961
896.687	0.0167154
896.765	0.0167656
896.843	0.0167444
896.922	0.0167352
897.000	0.0166442
897.078	0.0168053
897.156	0.0168957
897.234	0.0167103
897.312	0.0167059
897.390	0.0166647
897.468	0.0166784
897.547	0.0169064
897.625	0.0167471
897.703	0.0166962
897.781	0.0169112
897.859	0.0169612
897.937	0.0167210
898.015	0.0168754
898.093	0.0168822
898.172	0.0167833
898.250	0.0169913
898.328	0.0169469
898.406	0.0168659
898.484	0.0169640
898.562	0.0169583
898.640	0.0169456
898.718	0.0170582
898.797	0.0169318
898.875	0.0169734
898.953	0.0169803
899.031	0.0170388
899.109	0.0170746
899.187	0.0168752
899.265	0.0171287
899.343	0.0170216
899.422	0.0170681
899.500	0.0171031
899.578	0.0169077
899.656	0.0170501
899.734	0.0169832
899.812	0.0170994
899.890	0.0168703
899.968	0.0168925
900.047	0.0168857
900.125	0.0167508
900.203	0.0168122
900.281	0.0167359
900.359	0.0168336
900.437	0.0169269
900.515	0.0166157
900.593	0.0166672
900.672	0.0166429
900.750	0.0167159
900.828	0.0167836
900.906	0.0167947
900.984	0.0166431
901.062	0.0166478
901.140	0.0167827
901.218	0.0166550
901.297	0.0167931
901.375	0.0168025
901.453	0.0166676
901.531	0.0165990
901.609	0.0166319
901.687	0.0166671
901.765	0.0165744
901.843	0.0166284
901.922	0.0167532
902.000	0.0165938
902.078	0.0167229
902.156	0.0165002
902.234	0.0166605
902.312	0.0166507
902.390	0.0167342
902.468	0.0167770
902.547	0.0166984
902.625	0.0167082
902.703	0.0167851
902.781	0.0166814
902.859	0.0168158
902.937	0.0169274
903.015	0.0166758
903.093	0.0167605
903.172	0.0167509
903.250	0.0166866
903.328	0.0166564
903.406	0.0167883
903.484	0.0166397
903.562	0.0167118
903.640	0.0167298
903.718	0.0168620
903.797	0.0167081
903.875	0.0166786
903.953	0.0166692
904.031	0.0166716
904.109	0.0168865
904.187	0.0167242
904.265	0.0167631
904.343	0.0168227
904.422	0.0168334
904.500	0.0166645
904.578	0.0168699
904.656	0.0168531
904.734	0.0168152
904.812	0.0168488
904.890	0.0168745
904.968	0.0168030
905.047	0.0168767
905.125	0.0169353
905.203	0.0168523
905.281	0.0166538
905.359	0.0168961
905.437	0.0167469
905.515	0.0169422
905.593	0.0168420
905.672	0.0168028
905.750	0.0169035
905.828	0.0169487
905.906	0.0168620
905.984	0.0168703
906.062	0.0168443
906.140	0.0169054
906.218	0.0169135
906.297	0.0169086
906.375	0.0168753
906.453	0.0168453
906.531	0.0167847
906.609	0.0169166
906.687	0.0168326
906.765	0.0170116
906.843	0.0168905
906.922	0.0167386
907.000	0.0169325
907.078	0.0168772
907.156	0.0169319
907.234	0.0167773
907.312	0.0167644
907.390	0.0168394
907.468	0.0167825
907.547	0.0168740
907.625	0.0168209
907.703	0.0168571
907.781	0.0169016
907.859	0.0168024
907.937	0.0168932
908.015	0.0167491
908.093	0.0167726
908.172	0.0167148
908.250	0.0167146
908.328	0.0167881
908.406	0.0167615
908.484	0.0167549
908.562	0.0168073
908.640	0.0168699
908.718	0.0168697
908.797	0.0168595
908.875	0.0168658
908.953	0.0168233
909.031	0.0168848
909.109	0.0168150
909.187	0.0169316
909.265	0.0170395
909.343	0.0170050
909.422	0.0168036
909.500	0.0169366
909.578	0.0169468
909.656	0.0170435
909.734	0.0171785
909.812	0.0169325
909.890	0.0170055
909.968	0.0168953
910.047	0.0168923
910.125	0.0169608
910.203	0.0168647
910.281	0.0168333
910.359	0.0168695
910.437	0.0168604
910.515	0.0168775
910.593	0.0169062
910.672	0.0168824
910.750	0.0168125
910.828	0.0169173
910.906	0.0169450
910.984	0.0168827
911.062	0.0168020
911.140	0.0168182
911.218	0.0168534
911.297	0.0168003
911.375	0.0167901
911.453	0.0167069
911.531	0.0168295
911.609	0.0167466
911.687	0.0168222
911.765	0.0167622
911.843	0.0166910
911.922	0.0168396
912.000	0.0168159
912.078	0.0167401
912.156	0.0169176
912.234	0.0168539
912.312	0.0167898
912.390	0.0168199
912.468	0.0167256
912.547	0.0168536
912.625	0.0167674
912.703	0.0168321
912.781	0.0169415
912.859	0.0169685
912.937	0.0169924
913.015	0.0170140
913.093	0.0169543
913.172	0.0171040
913.250	0.0169045
913.328	0.0170467
913.406	0.0170459
913.484	0.0170821
913.562	0.0170666
913.640	0.0169726
913.718	0.0169148
913.797	0.0170370
913.875	0.0170850
913.953	0.0169927
914.031	0.0169743
914.109	0.0170078
914.187	0.0169667
914.265	0.0170160
914.343	0.0170315
914.422	0.0169549
914.500	0.0169752
914.578	0.0169218
914.656	0.0170403
914.734	0.0171112
914.812	0.0170963
914.890	0.0170662
914.968	0.0171105
915.047	0.0170498
915.125	0.0171244
915.203	0.0172060
915.281	0.0171403
915.359	0.0172070
915.437	0.0172032
915.515	0.0172247
915.593	0.0171945
915.672	0.0169318
915.750	0.0171413
915.828	0.0171439
915.906	0.0170705
915.984	0.0171063
916.062	0.0171181
916.140	0.0171066
916.218	0.0171329
916.297	0.0171733
916.375	0.0171105
916.453	0.0171893
916.531	0.0170461
916.609	0.0170545
916.687	0.0170512
916.765	0.0171047
916.843	0.0169666
916.922	0.0170721
917.000	0.0170487
917.078	0.0172315
917.156	0.0171201
917.234	0.0170152
917.312	0.0171211
917.390	0.0170834
917.468	0.0170700
917.547	0.0171963
917.625	0.0172131
917.703	0.0171050
917.781	0.0171526
917.859	0.0171076
917.937	0.0171426
918.015	0.0171720
918.093	0.0171030
918.172	0.0170787
918.250	0.0171159
918.328	0.0170016
918.406	0.0170401
918.484	0.0170432
918.562	0.0169421
918.640	0.0169672
918.718	0.0168141
918.797	0.0168553
918.875	0.0169284
918.953	0.0169166
919.031	0.0170125
919.109	0.0169082
919.187	0.0167812
919.265	0.0167641
919.343	0.0168500
919.422	0.0169659
919.500	0.0168550
919.578	0.0169624
919.656	0.0168772
919.734	0.0167904
919.812	0.0168127
919.890	0.0168507
