06/13/2022	15:19:10	Ver.	4.1	UNKNOWN
Optical Delay	599.961724	Delta X		0.078125	Sweeps	1	Scan Rate	0/0
Coordinates	Axis 1	NaN	Axis 2	NaN	Axis 3	NaN	Axis 4	NaN	Axis 5	NaN	Axis 6	0.000000
TX Power	0.000000	RX Power	0.000000

599.962	0.0165638
600.040	0.0161398
600.118	0.0160078
600.196	0.0160133
600.274	0.0162541
600.352	0.0160711
600.430	0.0160218
600.509	0.0160355
600.587	0.0162464
600.665	0.0160665
600.743	0.0160451
600.821	0.0161362
600.899	0.0160309
600.977	0.0162028
601.055	0.0162923
601.134	0.0163062
601.212	0.0163651
601.290	0.0164822
601.368	0.0165072
601.446	0.0165884
601.524	0.0166905
601.602	0.0166955
601.680	0.0166229
601.759	0.0168178
601.837	0.0168327
601.915	0.0168420
601.993	0.0169466
602.071	0.0171101
602.149	0.0170785
602.227	0.0171056
602.305	0.0171324
602.384	0.0172839
602.462	0.0172532
602.540	0.0172984
602.618	0.0172657
602.696	0.0172531
602.774	0.0173502
602.852	0.0172392
602.930	0.0172082
603.009	0.0170980
603.087	0.0172184
603.165	0.0171832
603.243	0.0171798
603.321	0.0171471
603.399	0.0169366
603.477	0.0169095
603.555	0.0168723
603.634	0.0168919
603.712	0.0169060
603.790	0.0167807
603.868	0.0167038
603.946	0.0166378
604.024	0.0166328
604.102	0.0167020
604.180	0.0168067
604.259	0.0166919
604.337	0.0167602
604.415	0.0167654
604.493	0.0166268
604.571	0.0168072
604.649	0.0168108
604.727	0.0167427
604.805	0.0168278
604.884	0.0168916
604.962	0.0169809
605.040	0.0167482
605.118	0.0169096
605.196	0.0170556
605.274	0.0168665
605.352	0.0169309
605.430	0.0171191
605.509	0.0171728
605.587	0.0170462
605.665	0.0170660
605.743	0.0170086
605.821	0.0170600
605.899	0.0170979
605.977	0.0170168
606.055	0.0171031
606.134	0.0172868
606.212	0.0170528
606.290	0.0171828
606.368	0.0171860
606.446	0.0170287
606.524	0.0171062
606.602	0.0171926
606.680	0.0172385
606.759	0.0171046
606.837	0.0171091
606.915	0.0171049
606.993	0.0171853
607.071	0.0173676
607.149	0.0172030
607.227	0.0172314
607.305	0.0171502
607.384	0.0172440
607.462	0.0172292
607.540	0.0172179
607.618	0.0172491
607.696	0.0172086
607.774	0.0171005
607.852	0.0171790
607.930	0.0171433
608.009	0.0170158
608.087	0.0168600
608.165	0.0170368
608.243	0.0169997
608.321	0.0169353
608.399	0.0170563
608.477	0.0170236
608.555	0.0168492
608.634	0.0168388
608.712	0.0169094
608.790	0.0169553
608.868	0.0170428
608.946	0.0169767
609.024	0.0170102
609.102	0.0169192
609.180	0.0170528
609.259	0.0170189
609.337	0.0170316
609.415	0.0170331
609.493	0.0169521
609.571	0.0170403
609.649	0.0170715
609.727	0.0169979
609.805	0.0170466
609.884	0.0170119
609.962	0.0169220
610.040	0.0169902
610.118	0.0170419
610.196	0.0170336
610.274	0.0170513
610.352	0.0170703
610.430	0.0171223
610.509	0.0169041
610.587	0.0168748
610.665	0.0169109
610.743	0.0169514
610.821	0.0170074
610.899	0.0169489
610.977	0.0169325
611.055	0.0171050
611.134	0.0169965
611.212	0.0169283
611.290	0.0168715
611.368	0.0171082
611.446	0.0171061
611.524	0.0169813
611.602	0.0170466
611.680	0.0170252
611.759	0.0170306
611.837	0.0170049
611.915	0.0171382
611.993	0.0171298
612.071	0.0170083
612.149	0.0170448
612.227	0.0171056
612.305	0.0169890
612.384	0.0169405
612.462	0.0170287
612.540	0.0170808
612.618	0.0170663
612.696	0.0170919
612.774	0.0170260
612.852	0.0169628
612.930	0.0169007
613.009	0.0169287
613.087	0.0170242
613.165	0.0170176
613.243	0.0168618
613.321	0.0169677
613.399	0.0169209
613.477	0.0168141
613.555	0.0170708
613.634	0.0170100
613.712	0.0169315
613.790	0.0168474
613.868	0.0166916
613.946	0.0168121
614.024	0.0168283
614.102	0.0167104
614.180	0.0167803
614.259	0.0167313
614.337	0.0166478
614.415	0.0165765
614.493	0.0167592
614.571	0.0166418
614.649	0.0168951
614.727	0.0166547
614.805	0.0165776
614.884	0.0165785
614.962	0.0165751
615.040	0.0165629
615.118	0.0166428
615.196	0.0165524
615.274	0.0166163
615.352	0.0164875
615.430	0.0166302
615.509	0.0166089
615.587	0.0166592
615.665	0.0165459
615.743	0.0165847
615.821	0.0165945
615.899	0.0165592
615.977	0.0166949
616.055	0.0165867
616.134	0.0166427
616.212	0.0167761
616.290	0.0166318
616.368	0.0168191
616.446	0.0168631
616.524	0.0166319
616.602	0.0168082
616.680	0.0167861
616.759	0.0167603
616.837	0.0167539
616.915	0.0167538
616.993	0.0167982
617.071	0.0168156
617.149	0.0169193
617.227	0.0168886
617.305	0.0167612
617.384	0.0167501
617.462	0.0167240
617.540	0.0169008
617.618	0.0169199
617.696	0.0169248
617.774	0.0169502
617.852	0.0168817
617.930	0.0170497
618.009	0.0168924
618.087	0.0169696
618.165	0.0168799
618.243	0.0168237
618.321	0.0171207
618.399	0.0169030
618.477	0.0169379
618.555	0.0167863
618.634	0.0168890
618.712	0.0168971
618.790	0.0168697
618.868	0.0170746
618.946	0.0170466
619.024	0.0170013
619.102	0.0168890
619.180	0.0169449
619.259	0.0170330
619.337	0.0169032
619.415	0.0169481
619.493	0.0170012
619.571	0.0168685
619.649	0.0168870
619.727	0.0169575
619.805	0.0169186
619.884	0.0169369
619.962	0.0168452
620.040	0.0168420
620.118	0.0168525
620.196	0.0167538
620.274	0.0168134
620.352	0.0169360
620.430	0.0168864
620.509	0.0167249
620.587	0.0168395
620.665	0.0167568
620.743	0.0166843
620.821	0.0166061
620.899	0.0166496
620.977	0.0168568
621.055	0.0165575
621.134	0.0166452
621.212	0.0166405
621.290	0.0166354
621.368	0.0165607
621.446	0.0166395
621.524	0.0166357
621.602	0.0164140
621.680	0.0165803
621.759	0.0165753
621.837	0.0166358
621.915	0.0165056
621.993	0.0164979
622.071	0.0166178
622.149	0.0166136
622.227	0.0166355
622.305	0.0165456
622.384	0.0165533
622.462	0.0165917
622.540	0.0165184
622.618	0.0165424
622.696	0.0165621
622.774	0.0165369
622.852	0.0166844
622.930	0.0166116
623.009	0.0166107
623.087	0.0166341
623.165	0.0166341
623.243	0.0166552
623.321	0.0166100
623.399	0.0166610
623.477	0.0165398
623.555	0.0165236
623.634	0.0165733
623.712	0.0166663
623.790	0.0164928
623.868	0.0166176
623.946	0.0166473
624.024	0.0167641
624.102	0.0166106
624.180	0.0166895
624.259	0.0166788
624.337	0.0166938
624.415	0.0167357
624.493	0.0166928
624.571	0.0166354
624.649	0.0166085
624.727	0.0165561
624.805	0.0166320
624.884	0.0166796
624.962	0.0166673
625.040	0.0166633
625.118	0.0166086
625.196	0.0165881
625.274	0.0164896
625.352	0.0165559
625.430	0.0165788
625.509	0.0166490
625.587	0.0164668
625.665	0.0165163
625.743	0.0166383
625.821	0.0165685
625.899	0.0165578
625.977	0.0166132
626.055	0.0165820
626.134	0.0166207
626.212	0.0167150
626.290	0.0166219
626.368	0.0165974
626.446	0.0165093
626.524	0.0167015
626.602	0.0167180
626.680	0.0167543
626.759	0.0167667
626.837	0.0167216
626.915	0.0167369
626.993	0.0168555
627.071	0.0169676
627.149	0.0168002
627.227	0.0171075
627.305	0.0169699
627.384	0.0169201
627.462	0.0168569
627.540	0.0169753
627.618	0.0170674
627.696	0.0171254
627.774	0.0171298
627.852	0.0170062
627.930	0.0170642
628.009	0.0172447
628.087	0.0170956
628.165	0.0171001
628.243	0.0170450
628.321	0.0172215
628.399	0.0172829
628.477	0.0171181
628.555	0.0171379
628.634	0.0170561
628.712	0.0171788
628.790	0.0171481
628.868	0.0171179
628.946	0.0172137
629.024	0.0171657
629.102	0.0171390
629.180	0.0170712
629.259	0.0170158
629.337	0.0171417
629.415	0.0171900
629.493	0.0170377
629.571	0.0171042
629.649	0.0170818
629.727	0.0169942
629.805	0.0171026
629.884	0.0170706
629.962	0.0170658
630.040	0.0170141
630.118	0.0169568
630.196	0.0169894
630.274	0.0170865
630.352	0.0171227
630.430	0.0171823
630.509	0.0169849
630.587	0.0169142
630.665	0.0169424
630.743	0.0170418
630.821	0.0169872
630.899	0.0170394
630.977	0.0169321
631.055	0.0169376
631.134	0.0170205
631.212	0.0170649
631.290	0.0170353
631.368	0.0169849
631.446	0.0168910
631.524	0.0168775
631.602	0.0169302
631.680	0.0168648
631.759	0.0169245
631.837	0.0168229
631.915	0.0169439
631.993	0.0170555
632.071	0.0169436
632.149	0.0167625
632.227	0.0168994
632.305	0.0168515
632.384	0.0169514
632.462	0.0169251
632.540	0.0167881
632.618	0.0170290
632.696	0.0169308
632.774	0.0169110
632.852	0.0169048
632.930	0.0169136
633.009	0.0168646
633.087	0.0168290
633.165	0.0169507
633.243	0.0169783
633.321	0.0169038
633.399	0.0168812
633.477	0.0168038
633.555	0.0169870
633.634	0.0170308
633.712	0.0168427
633.790	0.0168933
633.868	0.0168682
633.946	0.0169424
634.024	0.0168887
634.102	0.0169568
634.180	0.0169836
634.259	0.0169048
634.337	0.0168462
634.415	0.0169505
634.493	0.0170023
634.571	0.0169880
634.649	0.0169582
634.727	0.0169620
634.805	0.0168793
634.884	0.0171080
634.962	0.0170309
635.040	0.0168936
635.118	0.0170050
635.196	0.0169434
635.274	0.0170354
635.352	0.0170562
635.430	0.0170199
635.509	0.0168766
635.587	0.0168894
635.665	0.0169679
635.743	0.0169206
635.821	0.0169499
635.899	0.0169702
635.977	0.0168837
636.055	0.0169258
636.134	0.0169990
636.212	0.0168063
636.290	0.0169103
636.368	0.0168817
636.446	0.0169283
636.524	0.0168870
636.602	0.0168416
636.680	0.0168864
636.759	0.0168460
636.837	0.0169062
636.915	0.0169474
636.993	0.0167729
637.071	0.0168408
637.149	0.0169298
637.227	0.0167911
637.305	0.0168928
637.384	0.0169140
637.462	0.0169226
637.540	0.0168410
637.618	0.0168949
637.696	0.0167643
637.774	0.0170320
637.852	0.0169586
637.930	0.0169444
638.009	0.0169421
638.087	0.0168391
638.165	0.0168101
638.243	0.0169250
638.321	0.0170500
638.399	0.0168964
638.477	0.0169504
638.555	0.0168554
638.634	0.0170344
638.712	0.0169450
638.790	0.0169134
638.868	0.0169035
638.946	0.0168194
639.024	0.0169831
639.102	0.0169213
639.180	0.0168914
639.259	0.0170085
639.337	0.0166460
639.415	0.0168443
639.493	0.0168032
639.571	0.0167198
639.649	0.0168608
639.727	0.0167307
639.805	0.0166134
639.884	0.0166972
639.962	0.0166486
640.040	0.0168052
640.118	0.0166714
640.196	0.0165882
640.274	0.0168953
640.352	0.0167104
640.430	0.0166805
640.509	0.0167793
640.587	0.0166996
640.665	0.0165879
640.743	0.0167027
640.821	0.0166866
640.899	0.0167300
640.977	0.0167504
641.055	0.0167340
641.134	0.0167548
641.212	0.0168373
641.290	0.0167844
641.368	0.0166679
641.446	0.0167700
641.524	0.0169176
641.602	0.0167529
641.680	0.0167422
641.759	0.0167148
641.837	0.0169375
641.915	0.0168318
641.993	0.0167526
642.071	0.0168091
642.149	0.0169254
642.227	0.0168166
642.305	0.0168663
642.384	0.0169689
642.462	0.0169187
642.540	0.0169485
642.618	0.0169048
642.696	0.0168964
642.774	0.0170558
642.852	0.0170358
642.930	0.0169012
643.009	0.0168945
643.087	0.0169897
643.165	0.0169518
643.243	0.0167979
643.321	0.0169118
643.399	0.0169374
643.477	0.0168706
643.555	0.0169489
643.634	0.0169218
643.712	0.0170934
643.790	0.0169608
643.868	0.0170254
643.946	0.0168520
644.024	0.0167352
644.102	0.0169123
644.180	0.0168283
644.259	0.0168661
644.337	0.0169462
644.415	0.0168819
644.493	0.0167388
644.571	0.0168902
644.649	0.0168889
644.727	0.0169590
644.805	0.0169231
644.884	0.0170036
644.962	0.0168254
645.040	0.0168871
645.118	0.0169479
645.196	0.0169339
645.274	0.0169013
645.352	0.0167887
645.430	0.0168846
645.509	0.0169604
645.587	0.0167807
645.665	0.0168428
645.743	0.0170454
645.821	0.0167819
645.899	0.0168012
645.977	0.0167937
646.055	0.0169805
646.134	0.0167955
646.212	0.0168433
646.290	0.0168295
646.368	0.0167879
646.446	0.0168513
646.524	0.0167783
646.602	0.0169112
646.680	0.0168436
646.759	0.0167694
646.837	0.0168130
646.915	0.0167905
646.993	0.0168628
647.071	0.0168765
647.149	0.0167264
647.227	0.0167815
647.305	0.0167558
647.384	0.0168308
647.462	0.0166921
647.540	0.0168398
647.618	0.0168117
647.696	0.0166766
647.774	0.0167954
647.852	0.0167957
647.930	0.0166780
648.009	0.0167596
648.087	0.0166660
648.165	0.0167606
648.243	0.0168562
648.321	0.0166859
648.399	0.0166153
648.477	0.0167271
648.555	0.0166534
648.634	0.0167845
648.712	0.0166623
648.790	0.0166535
648.868	0.0166895
648.946	0.0167303
649.024	0.0166656
649.102	0.0166417
649.180	0.0167135
649.259	0.0167396
649.337	0.0165935
649.415	0.0167495
649.493	0.0166917
649.571	0.0167820
649.649	0.0168067
649.727	0.0167043
649.805	0.0166511
649.884	0.0166399
649.962	0.0167164
650.040	0.0166290
650.118	0.0167006
650.196	0.0167216
650.274	0.0167799
650.352	0.0166389
650.430	0.0167766
650.509	0.0168315
650.587	0.0167400
650.665	0.0166504
650.743	0.0166663
650.821	0.0167183
650.899	0.0167254
650.977	0.0168098
651.055	0.0167014
651.134	0.0167008
651.212	0.0166783
651.290	0.0168420
651.368	0.0168501
651.446	0.0167428
651.524	0.0166712
651.602	0.0168579
651.680	0.0168537
651.759	0.0169249
651.837	0.0168486
651.915	0.0168156
651.993	0.0170320
652.071	0.0169850
652.149	0.0169026
652.227	0.0170354
652.305	0.0172105
652.384	0.0169165
652.462	0.0171848
652.540	0.0171723
652.618	0.0170506
652.696	0.0170844
652.774	0.0172805
652.852	0.0172179
652.930	0.0172137
653.009	0.0171297
653.087	0.0171993
653.165	0.0172798
653.243	0.0172581
653.321	0.0171367
653.399	0.0172160
653.477	0.0171623
653.555	0.0172473
653.634	0.0172765
653.712	0.0172414
653.790	0.0171438
653.868	0.0173803
653.946	0.0172871
654.024	0.0171593
654.102	0.0172170
654.180	0.0171149
654.259	0.0173438
654.337	0.0171800
654.415	0.0171571
654.493	0.0170415
654.571	0.0171456
654.649	0.0171913
654.727	0.0171235
654.805	0.0171398
654.884	0.0171056
654.962	0.0171125
655.040	0.0171666
655.118	0.0171766
655.196	0.0169975
655.274	0.0170116
655.352	0.0170181
655.430	0.0170478
655.509	0.0170266
655.587	0.0169376
655.665	0.0171200
655.743	0.0170930
655.821	0.0169860
655.899	0.0169875
655.977	0.0170043
656.055	0.0170572
656.134	0.0170712
656.212	0.0169466
656.290	0.0168794
656.368	0.0168798
656.446	0.0168834
656.524	0.0169711
656.602	0.0170157
656.680	0.0170985
656.759	0.0169365
656.837	0.0169523
656.915	0.0169164
656.993	0.0169246
657.071	0.0168465
657.149	0.0169574
657.227	0.0170369
657.305	0.0169804
657.384	0.0170258
657.462	0.0170441
657.540	0.0168151
657.618	0.0168265
657.696	0.0170129
657.774	0.0169582
657.852	0.0170090
657.930	0.0170406
658.009	0.0169061
658.087	0.0169758
658.165	0.0170583
658.243	0.0169732
658.321	0.0168414
658.399	0.0166743
658.477	0.0169626
658.555	0.0168935
658.634	0.0167764
658.712	0.0169270
658.790	0.0168557
658.868	0.0167603
658.946	0.0169299
659.024	0.0169126
659.102	0.0167978
659.180	0.0168316
659.259	0.0167611
659.337	0.0167769
659.415	0.0168350
659.493	0.0168685
659.571	0.0167679
659.649	0.0167656
659.727	0.0168052
659.805	0.0167914
659.884	0.0168349
659.962	0.0167874
660.040	0.0167555
660.118	0.0168906
660.196	0.0168829
660.274	0.0169493
660.352	0.0166704
660.430	0.0168739
660.509	0.0168149
660.587	0.0168773
660.665	0.0168719
660.743	0.0169823
660.821	0.0168403
660.899	0.0168768
660.977	0.0169732
661.055	0.0170152
661.134	0.0168430
661.212	0.0168657
661.290	0.0168526
661.368	0.0169714
661.446	0.0168362
661.524	0.0169157
661.602	0.0167785
661.680	0.0168170
661.759	0.0169061
661.837	0.0169315
661.915	0.0169444
661.993	0.0168446
662.071	0.0169202
662.149	0.0169938
662.227	0.0169215
662.305	0.0168830
662.384	0.0168126
662.462	0.0167860
662.540	0.0168425
662.618	0.0169018
662.696	0.0168688
662.774	0.0167583
662.852	0.0168203
662.930	0.0168763
663.009	0.0167241
663.087	0.0167413
663.165	0.0167775
663.243	0.0168748
663.321	0.0169710
663.399	0.0169179
663.477	0.0168339
663.555	0.0168881
663.634	0.0168745
663.712	0.0169482
663.790	0.0169178
663.868	0.0169063
663.946	0.0168260
664.024	0.0168716
664.102	0.0168909
664.180	0.0169669
664.259	0.0168738
664.337	0.0169407
664.415	0.0169290
664.493	0.0169798
664.571	0.0170549
664.649	0.0169234
664.727	0.0169474
664.805	0.0169884
664.884	0.0170011
664.962	0.0169498
665.040	0.0169466
665.118	0.0168557
665.196	0.0170502
665.274	0.0169477
665.352	0.0169621
665.430	0.0169885
665.509	0.0170615
665.587	0.0170014
665.665	0.0169161
665.743	0.0170547
665.821	0.0170100
665.899	0.0168601
665.977	0.0170092
666.055	0.0169958
666.134	0.0169090
666.212	0.0170022
666.290	0.0169453
666.368	0.0168874
666.446	0.0168706
666.524	0.0168648
666.602	0.0167987
666.680	0.0169826
666.759	0.0169059
666.837	0.0169151
666.915	0.0169275
666.993	0.0169015
667.071	0.0170402
667.149	0.0169170
667.227	0.0168900
667.305	0.0169810
667.384	0.0168457
667.462	0.0169438
667.540	0.0171738
667.618	0.0169438
667.696	0.0167828
667.774	0.0168218
667.852	0.0169434
667.930	0.0168766
668.009	0.0166848
668.087	0.0168366
668.165	0.0169624
668.243	0.0168129
668.321	0.0167321
668.399	0.0167744
668.477	0.0169453
668.555	0.0169311
668.634	0.0169350
668.712	0.0168813
668.790	0.0168002
668.868	0.0167480
668.946	0.0168146
669.024	0.0167403
669.102	0.0167529
669.180	0.0166631
669.259	0.0167690
669.337	0.0167690
669.415	0.0168450
669.493	0.0166852
669.571	0.0167127
669.649	0.0166419
669.727	0.0166439
669.805	0.0165471
669.884	0.0167196
669.962	0.0165321
670.040	0.0166452
670.118	0.0166053
670.196	0.0166037
670.274	0.0165808
670.352	0.0167773
670.430	0.0167095
670.509	0.0166216
670.587	0.0164934
670.665	0.0165826
670.743	0.0166704
670.821	0.0166956
670.899	0.0165120
670.977	0.0166494
671.055	0.0166652
671.134	0.0166886
671.212	0.0166053
671.290	0.0167072
671.368	0.0165775
671.446	0.0167225
671.524	0.0167160
671.602	0.0166913
671.680	0.0166454
671.759	0.0166451
671.837	0.0166911
671.915	0.0167075
671.993	0.0168110
672.071	0.0166702
672.149	0.0167446
672.227	0.0168127
672.305	0.0166969
672.384	0.0166156
672.462	0.0167181
672.540	0.0166048
672.618	0.0167428
672.696	0.0166442
672.774	0.0166785
672.852	0.0166517
672.930	0.0166386
673.009	0.0166048
673.087	0.0168021
673.165	0.0167194
673.243	0.0166603
673.321	0.0168658
673.399	0.0166077
673.477	0.0166579
673.555	0.0167583
673.634	0.0166539
673.712	0.0167220
673.790	0.0166592
673.868	0.0167314
673.946	0.0166456
674.024	0.0167127
674.102	0.0167233
674.180	0.0167404
674.259	0.0167744
674.337	0.0165297
674.415	0.0166656
674.493	0.0167424
674.571	0.0167400
674.649	0.0167928
674.727	0.0168147
674.805	0.0168913
674.884	0.0167132
674.962	0.0166193
675.040	0.0167755
675.118	0.0167570
675.196	0.0168079
675.274	0.0168076
675.352	0.0167156
675.430	0.0167471
675.509	0.0169881
675.587	0.0168980
675.665	0.0169099
675.743	0.0169086
675.821	0.0168929
675.899	0.0169355
675.977	0.0169228
676.055	0.0168900
676.134	0.0169682
676.212	0.0168441
676.290	0.0168803
676.368	0.0169489
676.446	0.0169009
676.524	0.0170564
676.602	0.0168915
676.680	0.0169699
676.759	0.0170354
676.837	0.0169955
676.915	0.0170520
676.993	0.0169690
677.071	0.0169817
677.149	0.0169653
677.227	0.0169449
677.305	0.0169261
677.384	0.0170286
677.462	0.0170961
677.540	0.0169720
677.618	0.0169223
677.696	0.0169962
677.774	0.0169751
677.852	0.0169114
677.930	0.0170158
678.009	0.0169814
678.087	0.0168571
678.165	0.0170850
678.243	0.0168911
678.321	0.0169757
678.399	0.0170357
678.477	0.0168502
678.555	0.0170657
678.634	0.0169824
678.712	0.0170717
678.790	0.0169823
678.868	0.0170069
678.946	0.0169090
679.024	0.0169880
679.102	0.0169823
679.180	0.0169482
679.259	0.0169459
679.337	0.0170685
679.415	0.0171089
679.493	0.0170212
679.571	0.0171432
679.649	0.0170766
679.727	0.0170412
679.805	0.0170443
679.884	0.0171804
679.962	0.0170889
680.040	0.0170855
680.118	0.0170254
680.196	0.0171905
680.274	0.0171854
680.352	0.0171538
680.430	0.0170676
680.509	0.0172158
680.587	0.0171358
680.665	0.0171310
680.743	0.0171215
680.821	0.0170972
680.899	0.0171242
680.977	0.0172330
681.055	0.0172597
681.134	0.0172836
681.212	0.0172824
681.290	0.0171199
681.368	0.0171759
681.446	0.0173203
681.524	0.0171030
681.602	0.0172488
681.680	0.0171984
681.759	0.0170975
681.837	0.0171909
681.915	0.0172150
681.993	0.0172429
682.071	0.0171593
682.149	0.0170770
682.227	0.0170560
682.305	0.0169721
682.384	0.0171599
682.462	0.0171278
682.540	0.0171312
682.618	0.0171052
682.696	0.0168929
682.774	0.0169543
682.852	0.0170507
682.930	0.0169819
683.009	0.0170886
683.087	0.0169961
683.165	0.0169809
683.243	0.0169643
683.321	0.0169593
683.399	0.0170198
683.477	0.0169347
683.555	0.0170558
683.634	0.0169061
683.712	0.0170914
683.790	0.0171046
683.868	0.0170731
683.946	0.0169501
684.024	0.0169370
684.102	0.0169707
684.180	0.0169695
684.259	0.0170802
684.337	0.0168636
684.415	0.0168587
684.493	0.0169505
684.571	0.0168308
684.649	0.0168987
684.727	0.0169010
684.805	0.0168687
684.884	0.0170921
684.962	0.0169150
685.040	0.0169608
685.118	0.0171040
685.196	0.0169164
685.274	0.0169296
685.352	0.0168971
685.430	0.0170934
685.509	0.0170058
685.587	0.0169049
685.665	0.0168498
685.743	0.0170490
685.821	0.0170207
685.899	0.0169560
685.977	0.0170631
686.055	0.0169198
686.134	0.0169733
686.212	0.0169749
686.290	0.0169626
686.368	0.0169633
686.446	0.0170261
686.524	0.0169608
686.602	0.0168996
686.680	0.0169417
686.759	0.0169141
686.837	0.0169225
686.915	0.0169605
686.993	0.0168345
687.071	0.0168997
687.149	0.0167820
687.227	0.0168128
687.305	0.0169540
687.384	0.0168531
687.462	0.0168007
687.540	0.0169762
687.618	0.0169215
687.696	0.0169572
687.774	0.0168999
687.852	0.0169176
687.930	0.0169072
688.009	0.0168996
688.087	0.0168355
688.165	0.0168800
688.243	0.0169149
688.321	0.0170426
688.399	0.0168977
688.477	0.0169829
688.555	0.0169881
688.634	0.0169288
688.712	0.0168828
688.790	0.0168571
688.868	0.0167561
688.946	0.0168631
689.024	0.0169007
689.102	0.0168916
689.180	0.0169015
689.259	0.0168101
689.337	0.0168676
689.415	0.0168645
689.493	0.0168437
689.571	0.0168394
689.649	0.0168915
689.727	0.0169144
689.805	0.0168162
689.884	0.0168837
689.962	0.0170605
690.040	0.0168877
690.118	0.0168713
690.196	0.0169933
690.274	0.0168733
690.352	0.0167725
690.430	0.0169937
690.509	0.0167612
690.587	0.0169051
690.665	0.0168200
690.743	0.0168507
690.821	0.0168244
690.899	0.0168530
690.977	0.0167501
691.055	0.0167115
691.134	0.0167515
691.212	0.0168702
691.290	0.0167417
691.368	0.0168014
691.446	0.0169370
691.524	0.0168881
691.602	0.0168884
691.680	0.0168855
691.759	0.0166550
691.837	0.0168911
691.915	0.0168540
691.993	0.0167800
692.071	0.0166827
692.149	0.0167391
692.227	0.0167454
692.305	0.0168216
692.384	0.0167721
692.462	0.0166761
692.540	0.0166862
692.618	0.0167449
692.696	0.0166151
692.774	0.0167114
692.852	0.0167808
692.930	0.0167137
693.009	0.0166752
693.087	0.0166493
693.165	0.0168028
693.243	0.0168550
693.321	0.0166898
693.399	0.0166063
693.477	0.0167616
693.555	0.0167594
693.634	0.0167188
693.712	0.0167398
693.790	0.0166723
693.868	0.0167629
693.946	0.0167635
694.024	0.0166562
694.102	0.0167798
694.180	0.0167171
694.259	0.0168266
694.337	0.0167402
694.415	0.0166701
694.493	0.0166928
694.571	0.0167886
694.649	0.0166060
694.727	0.0165472
694.805	0.0165518
694.884	0.0166383
694.962	0.0166096
695.040	0.0167176
695.118	0.0165989
695.196	0.0166936
695.274	0.0167326
695.352	0.0167000
695.430	0.0167273
695.509	0.0166766
695.587	0.0166161
695.665	0.0166402
695.743	0.0166186
695.821	0.0166367
695.899	0.0167259
695.977	0.0166957
696.055	0.0166415
696.134	0.0166019
696.212	0.0165277
696.290	0.0166998
696.368	0.0167124
696.446	0.0166930
696.524	0.0166349
696.602	0.0165462
696.680	0.0168150
696.759	0.0167607
696.837	0.0167506
696.915	0.0166232
696.993	0.0165685
697.071	0.0167122
697.149	0.0167555
697.227	0.0167458
697.305	0.0167748
697.384	0.0167529
697.462	0.0167472
697.540	0.0167145
697.618	0.0166956
697.696	0.0167309
697.774	0.0166452
697.852	0.0166396
697.930	0.0167709
698.009	0.0166286
698.087	0.0167857
698.165	0.0166129
698.243	0.0166509
698.321	0.0167235
698.399	0.0167056
698.477	0.0167195
698.555	0.0168640
698.634	0.0167751
698.712	0.0166711
698.790	0.0167543
698.868	0.0167316
698.946	0.0168861
699.024	0.0169159
699.102	0.0168348
699.180	0.0168667
699.259	0.0168538
699.337	0.0170074
699.415	0.0168359
699.493	0.0167999
699.571	0.0168967
699.649	0.0168875
699.727	0.0168999
699.805	0.0170289
699.884	0.0168310
699.962	0.0168026
700.040	0.0168482
700.118	0.0167950
700.196	0.0167883
700.274	0.0168765
700.352	0.0170067
700.430	0.0169683
700.509	0.0167955
700.587	0.0167642
700.665	0.0168722
700.743	0.0168800
700.821	0.0168301
700.899	0.0166937
700.977	0.0168701
701.055	0.0167397
701.134	0.0167249
701.212	0.0167832
701.290	0.0166401
701.368	0.0168200
701.446	0.0169328
701.524	0.0168845
701.602	0.0167043
701.680	0.0168599
701.759	0.0168950
701.837	0.0169277
701.915	0.0168493
701.993	0.0168787
702.071	0.0167982
702.149	0.0170039
702.227	0.0168140
702.305	0.0168330
702.384	0.0167740
702.462	0.0169942
702.540	0.0169257
702.618	0.0167693
702.696	0.0168255
702.774	0.0169073
702.852	0.0169701
702.930	0.0169440
703.009	0.0168792
703.087	0.0170214
703.165	0.0169588
703.243	0.0169328
703.321	0.0170045
703.399	0.0169288
703.477	0.0170496
703.555	0.0168845
703.634	0.0170045
703.712	0.0169264
703.790	0.0170705
703.868	0.0170480
703.946	0.0168410
704.024	0.0169908
704.102	0.0170766
704.180	0.0170435
704.259	0.0170756
704.337	0.0171141
704.415	0.0170287
704.493	0.0171835
704.571	0.0171634
704.649	0.0170763
704.727	0.0170721
704.805	0.0170174
704.884	0.0169657
704.962	0.0169797
705.040	0.0172791
705.118	0.0171449
705.196	0.0170174
705.274	0.0172465
705.352	0.0172369
705.430	0.0171944
705.509	0.0172562
705.587	0.0171247
705.665	0.0173483
705.743	0.0171674
705.821	0.0172239
705.899	0.0170710
705.977	0.0170997
706.055	0.0172083
706.134	0.0170892
706.212	0.0172472
706.290	0.0171358
706.368	0.0170466
706.446	0.0170901
706.524	0.0170868
706.602	0.0170524
706.680	0.0171040
706.759	0.0170083
706.837	0.0171329
706.915	0.0171131
706.993	0.0171358
707.071	0.0171507
707.149	0.0171357
707.227	0.0171597
707.305	0.0170810
707.384	0.0170762
707.462	0.0171908
707.540	0.0171117
707.618	0.0170782
707.696	0.0170613
707.774	0.0170898
707.852	0.0170165
707.930	0.0170918
708.009	0.0169668
708.087	0.0170100
708.165	0.0170006
708.243	0.0169105
708.321	0.0170315
708.399	0.0170724
708.477	0.0169634
708.555	0.0169537
708.634	0.0170332
708.712	0.0170322
708.790	0.0169934
708.868	0.0170905
708.946	0.0169682
709.024	0.0171329
709.102	0.0170554
709.180	0.0169885
709.259	0.0169750
709.337	0.0169968
709.415	0.0169971
709.493	0.0169297
709.571	0.0169512
709.649	0.0169910
709.727	0.0169821
709.805	0.0170686
709.884	0.0169052
709.962	0.0171398
710.040	0.0169266
710.118	0.0169749
710.196	0.0172422
710.274	0.0171103
710.352	0.0169965
710.430	0.0170366
710.509	0.0170018
710.587	0.0170195
710.665	0.0170110
710.743	0.0169788
710.821	0.0169809
710.899	0.0171739
710.977	0.0170092
711.055	0.0167601
711.134	0.0168519
711.212	0.0169906
711.290	0.0169631
711.368	0.0169594
711.446	0.0170083
711.524	0.0169590
711.602	0.0169202
711.680	0.0169598
711.759	0.0169492
711.837	0.0170329
711.915	0.0167801
711.993	0.0169573
712.071	0.0170061
712.149	0.0170052
712.227	0.0170341
712.305	0.0169917
712.384	0.0169341
712.462	0.0170618
712.540	0.0169939
712.618	0.0169762
712.696	0.0169126
712.774	0.0169724
712.852	0.0170305
712.930	0.0170058
713.009	0.0170301
713.087	0.0168976
713.165	0.0170463
713.243	0.0169249
713.321	0.0169281
713.399	0.0169059
713.477	0.0168585
713.555	0.0169766
713.634	0.0169347
713.712	0.0169365
713.790	0.0170499
713.868	0.0170424
713.946	0.0170659
714.024	0.0169942
714.102	0.0169000
714.180	0.0170497
714.259	0.0170839
714.337	0.0169397
714.415	0.0169468
714.493	0.0168590
714.571	0.0169142
714.649	0.0169002
714.727	0.0168604
714.805	0.0170367
714.884	0.0169314
714.962	0.0169251
715.040	0.0168964
715.118	0.0169247
715.196	0.0167595
715.274	0.0169521
715.352	0.0169248
715.430	0.0168539
715.509	0.0167476
715.587	0.0168810
715.665	0.0169241
715.743	0.0167946
715.821	0.0167633
715.899	0.0168919
715.977	0.0168004
716.055	0.0169222
716.134	0.0169808
716.212	0.0167436
716.290	0.0167594
716.368	0.0168862
716.446	0.0168378
716.524	0.0168960
716.602	0.0169061
716.680	0.0168512
716.759	0.0168864
716.837	0.0167587
716.915	0.0169277
716.993	0.0169466
717.071	0.0169015
717.149	0.0168002
717.227	0.0168002
717.305	0.0167521
717.384	0.0167847
717.462	0.0167300
717.540	0.0168507
717.618	0.0168577
717.696	0.0168777
717.774	0.0166947
717.852	0.0168381
717.930	0.0167680
718.009	0.0167645
718.087	0.0168372
718.165	0.0168734
718.243	0.0167494
718.321	0.0167293
718.399	0.0167461
718.477	0.0167398
718.555	0.0167185
718.634	0.0167525
718.712	0.0167099
718.790	0.0167275
718.868	0.0166518
718.946	0.0166582
719.024	0.0167308
719.102	0.0165394
719.180	0.0165359
719.259	0.0165456
719.337	0.0166776
719.415	0.0166331
719.493	0.0165442
719.571	0.0165540
719.649	0.0165166
719.727	0.0165675
719.805	0.0165221
719.884	0.0165222
719.962	0.0167364
720.040	0.0166579
720.118	0.0166022
720.196	0.0165848
720.274	0.0166414
720.352	0.0166901
720.430	0.0165754
720.509	0.0164685
720.587	0.0165089
720.665	0.0166434
720.743	0.0167308
720.821	0.0166002
720.899	0.0166802
720.977	0.0167165
721.055	0.0166409
721.134	0.0166521
721.212	0.0167876
721.290	0.0167345
721.368	0.0168070
721.446	0.0167630
721.524	0.0168170
721.602	0.0168423
721.680	0.0168867
721.759	0.0169656
721.837	0.0169125
721.915	0.0168360
721.993	0.0168507
722.071	0.0168436
722.149	0.0168455
722.227	0.0169362
722.305	0.0169110
722.384	0.0168237
722.462	0.0168591
722.540	0.0167767
722.618	0.0169009
722.696	0.0166420
722.774	0.0167196
722.852	0.0169447
722.930	0.0166451
723.009	0.0168305
723.087	0.0170087
723.165	0.0168952
723.243	0.0168651
723.321	0.0167997
723.399	0.0168164
723.477	0.0168227
723.555	0.0168123
723.634	0.0168519
723.712	0.0167456
723.790	0.0169090
723.868	0.0169185
723.946	0.0168385
724.024	0.0167402
724.102	0.0167789
724.180	0.0169980
724.259	0.0168073
724.337	0.0168491
724.415	0.0168241
724.493	0.0169624
724.571	0.0168880
724.649	0.0168858
724.727	0.0168433
724.805	0.0168073
724.884	0.0170214
724.962	0.0168745
725.040	0.0167877
725.118	0.0170389
725.196	0.0169357
725.274	0.0168037
725.352	0.0169631
725.430	0.0168655
725.509	0.0168504
725.587	0.0168731
725.665	0.0167213
725.743	0.0167235
725.821	0.0168764
725.899	0.0167737
725.977	0.0168567
726.055	0.0167064
726.134	0.0169553
726.212	0.0169304
726.290	0.0168846
726.368	0.0167075
726.446	0.0167873
726.524	0.0168054
726.602	0.0167356
726.680	0.0169289
726.759	0.0169847
726.837	0.0168951
726.915	0.0168385
726.993	0.0168452
727.071	0.0169255
727.149	0.0168169
727.227	0.0169829
727.305	0.0169959
727.384	0.0169373
727.462	0.0168864
727.540	0.0170335
727.618	0.0170069
727.696	0.0171165
727.774	0.0170094
727.852	0.0170142
727.930	0.0169183
728.009	0.0168928
728.087	0.0169777
728.165	0.0170594
728.243	0.0171088
728.321	0.0169354
728.399	0.0169275
728.477	0.0169398
728.555	0.0169687
728.634	0.0171072
728.712	0.0169005
728.790	0.0168140
728.868	0.0169458
728.946	0.0169683
729.024	0.0167480
729.102	0.0170266
729.180	0.0168997
729.259	0.0169936
729.337	0.0169711
729.415	0.0169723
729.493	0.0169846
729.571	0.0170479
729.649	0.0169919
729.727	0.0170364
729.805	0.0169118
729.884	0.0169920
729.962	0.0169445
730.040	0.0168745
730.118	0.0169143
730.196	0.0169590
730.274	0.0169604
730.352	0.0169357
730.430	0.0169276
730.509	0.0170628
730.587	0.0169747
730.665	0.0169164
730.743	0.0168562
730.821	0.0170039
730.899	0.0171160
730.977	0.0170859
731.055	0.0170435
731.134	0.0170390
731.212	0.0170114
731.290	0.0171256
731.368	0.0170108
731.446	0.0169907
731.524	0.0169959
731.602	0.0169650
731.680	0.0170219
731.759	0.0170387
731.837	0.0169636
731.915	0.0172190
731.993	0.0170032
732.071	0.0170365
732.149	0.0170567
732.227	0.0168217
732.305	0.0168867
732.384	0.0169941
732.462	0.0168027
732.540	0.0168784
732.618	0.0170334
732.696	0.0169164
732.774	0.0168553
732.852	0.0169255
732.930	0.0169336
733.009	0.0168311
733.087	0.0168958
733.165	0.0168452
733.243	0.0168082
733.321	0.0168352
733.399	0.0169044
733.477	0.0167501
733.555	0.0167309
733.634	0.0168604
733.712	0.0168132
733.790	0.0167159
733.868	0.0167041
733.946	0.0167638
734.024	0.0167508
734.102	0.0167242
734.180	0.0167912
734.259	0.0166114
734.337	0.0167905
734.415	0.0167649
734.493	0.0167698
734.571	0.0166685
734.649	0.0167576
734.727	0.0167764
734.805	0.0166737
734.884	0.0167267
734.962	0.0169598
735.040	0.0167841
735.118	0.0168088
735.196	0.0167802
735.274	0.0167699
735.352	0.0167635
735.430	0.0167857
735.509	0.0169917
735.587	0.0169628
735.665	0.0168774
735.743	0.0167628
735.821	0.0169096
735.899	0.0168925
735.977	0.0168768
736.055	0.0168385
736.134	0.0168721
736.212	0.0169235
736.290	0.0168032
736.368	0.0167812
736.446	0.0169109
736.524	0.0168510
736.602	0.0167677
736.680	0.0168309
736.759	0.0168182
736.837	0.0167987
736.915	0.0168359
736.993	0.0168199
737.071	0.0168542
737.149	0.0170035
737.227	0.0169121
737.305	0.0169080
737.384	0.0167453
737.462	0.0168586
737.540	0.0168622
737.618	0.0169716
737.696	0.0169076
737.774	0.0169353
737.852	0.0168756
737.930	0.0166985
738.009	0.0167549
738.087	0.0168907
738.165	0.0167849
738.243	0.0167603
738.321	0.0169962
738.399	0.0168560
738.477	0.0168910
738.555	0.0168778
738.634	0.0169691
738.712	0.0167997
738.790	0.0170002
738.868	0.0167918
738.946	0.0167896
739.024	0.0168879
739.102	0.0169032
739.180	0.0168048
739.259	0.0168070
739.337	0.0168097
739.415	0.0167443
739.493	0.0169225
739.571	0.0168738
739.649	0.0167418
739.727	0.0167307
739.805	0.0168593
739.884	0.0168065
739.962	0.0167554
740.040	0.0169748
740.118	0.0169147
740.196	0.0168410
740.274	0.0167882
740.352	0.0168424
740.430	0.0168641
740.509	0.0168937
740.587	0.0167322
740.665	0.0168785
740.743	0.0168972
740.821	0.0168665
740.899	0.0165796
740.977	0.0166777
741.055	0.0168261
741.134	0.0166870
741.212	0.0167228
741.290	0.0167129
741.368	0.0167188
741.446	0.0166991
741.524	0.0166585
741.602	0.0166447
741.680	0.0165919
741.759	0.0166387
741.837	0.0167510
741.915	0.0164615
741.993	0.0166287
742.071	0.0166965
742.149	0.0166744
742.227	0.0166185
742.305	0.0165066
742.384	0.0166657
742.462	0.0165808
742.540	0.0165168
742.618	0.0166314
742.696	0.0166720
742.774	0.0166366
742.852	0.0166390
742.930	0.0166576
743.009	0.0165249
743.087	0.0165472
743.165	0.0166225
743.243	0.0165941
743.321	0.0167605
743.399	0.0166770
743.477	0.0166174
743.555	0.0166245
743.634	0.0165415
743.712	0.0166692
743.790	0.0165652
743.868	0.0166743
743.946	0.0165071
744.024	0.0165343
744.102	0.0166016
744.180	0.0166418
744.259	0.0165536
744.337	0.0164760
744.415	0.0166609
744.493	0.0166014
744.571	0.0165768
744.649	0.0165873
744.727	0.0166228
744.805	0.0166322
744.884	0.0165214
744.962	0.0166969
745.040	0.0165859
745.118	0.0166205
745.196	0.0166010
745.274	0.0166109
745.352	0.0166734
745.430	0.0166170
745.509	0.0166996
745.587	0.0166670
745.665	0.0167172
745.743	0.0167721
745.821	0.0167573
745.899	0.0167571
745.977	0.0167596
746.055	0.0168288
746.134	0.0168513
746.212	0.0168642
746.290	0.0168310
746.368	0.0168626
746.446	0.0168079
746.524	0.0168133
746.602	0.0168561
746.680	0.0170345
746.759	0.0168752
746.837	0.0168769
746.915	0.0168941
746.993	0.0168401
747.071	0.0169170
747.149	0.0168416
747.227	0.0167868
747.305	0.0168302
747.384	0.0168156
747.462	0.0168668
747.540	0.0168572
747.618	0.0169438
747.696	0.0167915
747.774	0.0167943
747.852	0.0168465
747.930	0.0168288
748.009	0.0168244
748.087	0.0167534
748.165	0.0167884
748.243	0.0168391
748.321	0.0167344
748.399	0.0169984
748.477	0.0169568
748.555	0.0169414
748.634	0.0169751
748.712	0.0169458
748.790	0.0169901
748.868	0.0169184
748.946	0.0169691
749.024	0.0170042
749.102	0.0169852
749.180	0.0169115
749.259	0.0169874
749.337	0.0170409
749.415	0.0170184
749.493	0.0169579
749.571	0.0170010
749.649	0.0169829
749.727	0.0169764
749.805	0.0170061
749.884	0.0168732
749.962	0.0168997
750.040	0.0170863
750.118	0.0170029
750.196	0.0169743
750.274	0.0169893
750.352	0.0169657
750.430	0.0169579
750.509	0.0170012
750.587	0.0170327
750.665	0.0171349
750.743	0.0172033
750.821	0.0169694
750.899	0.0169042
750.977	0.0170178
751.055	0.0169576
751.134	0.0169321
751.212	0.0168692
751.290	0.0170592
751.368	0.0170776
751.446	0.0169617
751.524	0.0168978
751.602	0.0168774
751.680	0.0168543
751.759	0.0168184
751.837	0.0169751
751.915	0.0170047
751.993	0.0168774
752.071	0.0169305
752.149	0.0169151
752.227	0.0168551
752.305	0.0167811
752.384	0.0168055
752.462	0.0169497
752.540	0.0168698
752.618	0.0168360
752.696	0.0169533
752.774	0.0168085
752.852	0.0167656
752.930	0.0168559
753.009	0.0169357
753.087	0.0168752
753.165	0.0167644
753.243	0.0168320
753.321	0.0167363
753.399	0.0168444
753.477	0.0168553
753.555	0.0168923
753.634	0.0168239
753.712	0.0168484
753.790	0.0167831
753.868	0.0168571
753.946	0.0167754
754.024	0.0168762
754.102	0.0168233
754.180	0.0168864
754.259	0.0168629
754.337	0.0170253
754.415	0.0169176
754.493	0.0169270
754.571	0.0169939
754.649	0.0170309
754.727	0.0169146
754.805	0.0169607
754.884	0.0169141
754.962	0.0169771
755.040	0.0169445
755.118	0.0169729
755.196	0.0171036
755.274	0.0169092
755.352	0.0170456
755.430	0.0169244
755.509	0.0168911
755.587	0.0171106
755.665	0.0169958
755.743	0.0169349
755.821	0.0168758
755.899	0.0170765
755.977	0.0170361
756.055	0.0171416
756.134	0.0170251
756.212	0.0169240
756.290	0.0169495
756.368	0.0170034
756.446	0.0168577
756.524	0.0169143
756.602	0.0167775
756.680	0.0169384
756.759	0.0169074
756.837	0.0168436
756.915	0.0167805
756.993	0.0168253
757.071	0.0169215
757.149	0.0168868
757.227	0.0167914
757.305	0.0168000
757.384	0.0167891
757.462	0.0168524
757.540	0.0167316
757.618	0.0167883
757.696	0.0168667
757.774	0.0167897
757.852	0.0167534
757.930	0.0168025
758.009	0.0167474
758.087	0.0168194
758.165	0.0167754
758.243	0.0168055
758.321	0.0167710
758.399	0.0167388
758.477	0.0167884
758.555	0.0166946
758.634	0.0166821
758.712	0.0167492
758.790	0.0168048
758.868	0.0167504
758.946	0.0167453
759.024	0.0168418
759.102	0.0167112
759.180	0.0167751
759.259	0.0167565
759.337	0.0167011
759.415	0.0170007
759.493	0.0169894
759.571	0.0168765
759.649	0.0167846
759.727	0.0168668
759.805	0.0167906
759.884	0.0166858
759.962	0.0167612
760.040	0.0169299
760.118	0.0168603
760.196	0.0168880
760.274	0.0167457
760.352	0.0167365
760.430	0.0168012
760.509	0.0167688
760.587	0.0168073
760.665	0.0167635
760.743	0.0167356
760.821	0.0169422
760.899	0.0168147
760.977	0.0167983
761.055	0.0167244
761.134	0.0167971
761.212	0.0168133
761.290	0.0166799
761.368	0.0167184
761.446	0.0167110
761.524	0.0168722
761.602	0.0168330
761.680	0.0168262
761.759	0.0166936
761.837	0.0166567
761.915	0.0169123
761.993	0.0168380
762.071	0.0167110
762.149	0.0168101
762.227	0.0166720
762.305	0.0166447
762.384	0.0166959
762.462	0.0166659
762.540	0.0166640
762.618	0.0167661
762.696	0.0167916
762.774	0.0167107
762.852	0.0166308
762.930	0.0165858
763.009	0.0166471
763.087	0.0167123
763.165	0.0168575
763.243	0.0167457
763.321	0.0166852
763.399	0.0168404
763.477	0.0168348
763.555	0.0167852
763.634	0.0166673
763.712	0.0168259
763.790	0.0168089
763.868	0.0168655
763.946	0.0168095
764.024	0.0168319
764.102	0.0167609
764.180	0.0168909
764.259	0.0169738
764.337	0.0168576
764.415	0.0167172
764.493	0.0169040
764.571	0.0167936
764.649	0.0168449
764.727	0.0167477
764.805	0.0167549
764.884	0.0168578
764.962	0.0168301
765.040	0.0168424
765.118	0.0168506
765.196	0.0169500
765.274	0.0169651
765.352	0.0168387
765.430	0.0169067
765.509	0.0168143
765.587	0.0168394
765.665	0.0170454
765.743	0.0169590
765.821	0.0169427
765.899	0.0170594
765.977	0.0169540
766.055	0.0169244
766.134	0.0170019
766.212	0.0171053
766.290	0.0169872
766.368	0.0169846
766.446	0.0168763
766.524	0.0169763
766.602	0.0168536
766.680	0.0169379
766.759	0.0169987
766.837	0.0170270
766.915	0.0169320
766.993	0.0169232
767.071	0.0168697
767.149	0.0168929
767.227	0.0167741
767.305	0.0167962
767.384	0.0168248
767.462	0.0169501
767.540	0.0169348
767.618	0.0168861
767.696	0.0168633
767.774	0.0167995
767.852	0.0168522
767.930	0.0168439
768.009	0.0169147
768.087	0.0167530
768.165	0.0169015
768.243	0.0167358
768.321	0.0169041
768.399	0.0168460
768.477	0.0169344
768.555	0.0167339
768.634	0.0168638
768.712	0.0168581
768.790	0.0168340
768.868	0.0168219
768.946	0.0168700
769.024	0.0168752
769.102	0.0166874
769.180	0.0167690
769.259	0.0168092
769.337	0.0167580
769.415	0.0168443
769.493	0.0168649
769.571	0.0167870
769.649	0.0167558
769.727	0.0169097
769.805	0.0168488
769.884	0.0168427
769.962	0.0169083
770.040	0.0169171
770.118	0.0167822
770.196	0.0168113
770.274	0.0168999
770.352	0.0168141
770.430	0.0169592
770.509	0.0167982
770.587	0.0166962
770.665	0.0169087
770.743	0.0168649
770.821	0.0168253
770.899	0.0168565
770.977	0.0169480
771.055	0.0169308
771.134	0.0167270
771.212	0.0167998
771.290	0.0167285
771.368	0.0167649
771.446	0.0168024
771.524	0.0168716
771.602	0.0167527
771.680	0.0169014
771.759	0.0169646
771.837	0.0168011
771.915	0.0169767
771.993	0.0168969
772.071	0.0168056
772.149	0.0168683
772.227	0.0167839
772.305	0.0170249
772.384	0.0169113
772.462	0.0170455
772.540	0.0168479
772.618	0.0169491
772.696	0.0170444
772.774	0.0169143
772.852	0.0169577
772.930	0.0169093
773.009	0.0169347
773.087	0.0169080
773.165	0.0167960
773.243	0.0170103
773.321	0.0170037
773.399	0.0169450
773.477	0.0169539
773.555	0.0170686
773.634	0.0169616
773.712	0.0169138
773.790	0.0170164
773.868	0.0169627
773.946	0.0170125
774.024	0.0170451
774.102	0.0170303
774.180	0.0169466
774.259	0.0169660
774.337	0.0170387
774.415	0.0169006
774.493	0.0171060
774.571	0.0170380
774.649	0.0169936
774.727	0.0170196
774.805	0.0170590
774.884	0.0169791
774.962	0.0170582
775.040	0.0170511
775.118	0.0172666
775.196	0.0171554
775.274	0.0170244
775.352	0.0171055
775.430	0.0171677
775.509	0.0171035
775.587	0.0170603
775.665	0.0170763
775.743	0.0171770
775.821	0.0172797
775.899	0.0172547
775.977	0.0170994
776.055	0.0170935
776.134	0.0170000
776.212	0.0171056
776.290	0.0171552
776.368	0.0170894
776.446	0.0171510
776.524	0.0172224
776.602	0.0172021
776.680	0.0171543
776.759	0.0171000
776.837	0.0170355
776.915	0.0170853
776.993	0.0169174
777.071	0.0168824
777.149	0.0170769
777.227	0.0170218
777.305	0.0169149
777.384	0.0169800
777.462	0.0169109
777.540	0.0169172
777.618	0.0169694
777.696	0.0169412
777.774	0.0170708
777.852	0.0169678
777.930	0.0168801
778.009	0.0170158
778.087	0.0170226
778.165	0.0169838
778.243	0.0170324
778.321	0.0170587
778.399	0.0170161
778.477	0.0169791
778.555	0.0168934
778.634	0.0169100
778.712	0.0170394
778.790	0.0168491
778.868	0.0168573
778.946	0.0169384
779.024	0.0169922
779.102	0.0170121
779.180	0.0170005
779.259	0.0170274
779.337	0.0169836
779.415	0.0169082
779.493	0.0169993
779.571	0.0170418
779.649	0.0170290
779.727	0.0171567
779.805	0.0170515
779.884	0.0170704
779.962	0.0170838
780.040	0.0170142
780.118	0.0170132
780.196	0.0169989
780.274	0.0170914
780.352	0.0169775
780.430	0.0170882
780.509	0.0171121
780.587	0.0170068
780.665	0.0169756
780.743	0.0169775
780.821	0.0170023
780.899	0.0170624
780.977	0.0171491
781.055	0.0169253
781.134	0.0169157
781.212	0.0169493
781.290	0.0169444
781.368	0.0171085
781.446	0.0168919
781.524	0.0169032
781.602	0.0168085
781.680	0.0167957
781.759	0.0168584
781.837	0.0168933
781.915	0.0168597
781.993	0.0169088
782.071	0.0168118
782.149	0.0169521
782.227	0.0169997
782.305	0.0168267
782.384	0.0169289
782.462	0.0168461
782.540	0.0167725
782.618	0.0168053
782.696	0.0168291
782.774	0.0168273
782.852	0.0167868
782.930	0.0167262
783.009	0.0167775
783.087	0.0166901
783.165	0.0166908
783.243	0.0166489
783.321	0.0168642
783.399	0.0167692
783.477	0.0166623
783.555	0.0166633
783.634	0.0166145
783.712	0.0167660
783.790	0.0166793
783.868	0.0166203
783.946	0.0167454
784.024	0.0167384
784.102	0.0167049
784.180	0.0167327
784.259	0.0166869
784.337	0.0166537
784.415	0.0167229
784.493	0.0168172
784.571	0.0168040
784.649	0.0168298
784.727	0.0170230
784.805	0.0169991
784.884	0.0168233
784.962	0.0169238
785.040	0.0168519
785.118	0.0169193
785.196	0.0168782
785.274	0.0169096
785.352	0.0169131
785.430	0.0167404
785.509	0.0168179
785.587	0.0166587
785.665	0.0168914
785.743	0.0168016
785.821	0.0168094
785.899	0.0169107
785.977	0.0168183
786.055	0.0169476
786.134	0.0169651
786.212	0.0169648
786.290	0.0168703
786.368	0.0168684
786.446	0.0170351
786.524	0.0169639
786.602	0.0168769
786.680	0.0169627
786.759	0.0169212
786.837	0.0169733
786.915	0.0168875
786.993	0.0169353
787.071	0.0170221
787.149	0.0169390
787.227	0.0169055
787.305	0.0170413
787.384	0.0170154
787.462	0.0170004
787.540	0.0169543
787.618	0.0169868
787.696	0.0169095
787.774	0.0169342
787.852	0.0169379
787.930	0.0169112
788.009	0.0169317
788.087	0.0169174
788.165	0.0168517
788.243	0.0169335
788.321	0.0170229
788.399	0.0171276
788.477	0.0168625
788.555	0.0168197
788.634	0.0169810
788.712	0.0170181
788.790	0.0169057
788.868	0.0167902
788.946	0.0168349
789.024	0.0168632
789.102	0.0169430
789.180	0.0169161
789.259	0.0169963
789.337	0.0169693
789.415	0.0168848
789.493	0.0169197
789.571	0.0168933
789.649	0.0169965
789.727	0.0168843
789.805	0.0169899
789.884	0.0170190
789.962	0.0169824
790.040	0.0170696
790.118	0.0170452
790.196	0.0170835
790.274	0.0170721
790.352	0.0170035
790.430	0.0169991
790.509	0.0170383
790.587	0.0171236
790.665	0.0171056
790.743	0.0170513
790.821	0.0170018
790.899	0.0170360
790.977	0.0170545
791.055	0.0170607
791.134	0.0170715
791.212	0.0169511
791.290	0.0169696
791.368	0.0170277
791.446	0.0171299
791.524	0.0169904
791.602	0.0169576
791.680	0.0169263
791.759	0.0170625
791.837	0.0170228
791.915	0.0170232
791.993	0.0169640
792.071	0.0168778
792.149	0.0169092
792.227	0.0170594
792.305	0.0170588
792.384	0.0169069
792.462	0.0168954
792.540	0.0170569
792.618	0.0169850
792.696	0.0169511
792.774	0.0169676
792.852	0.0170792
792.930	0.0170203
793.009	0.0169064
793.087	0.0168448
793.165	0.0168987
793.243	0.0168915
793.321	0.0168627
793.399	0.0169689
793.477	0.0169147
793.555	0.0168932
793.634	0.0168866
793.712	0.0167515
793.790	0.0169251
793.868	0.0167220
793.946	0.0167121
794.024	0.0168295
794.102	0.0167511
794.180	0.0167561
794.259	0.0167801
794.337	0.0167551
794.415	0.0165199
794.493	0.0168046
794.571	0.0166839
794.649	0.0167368
794.727	0.0167355
794.805	0.0168910
794.884	0.0167622
794.962	0.0168235
795.040	0.0167805
795.118	0.0168540
795.196	0.0169048
795.274	0.0168333
795.352	0.0169411
795.430	0.0169599
795.509	0.0171717
795.587	0.0171101
795.665	0.0170143
795.743	0.0170898
795.821	0.0168964
795.899	0.0170673
795.977	0.0172431
796.055	0.0171306
796.134	0.0171071
796.212	0.0171387
796.290	0.0170012
796.368	0.0170210
796.446	0.0169915
796.524	0.0171766
796.602	0.0170501
796.680	0.0172371
796.759	0.0169580
796.837	0.0169504
796.915	0.0169796
796.993	0.0168539
797.071	0.0170532
797.149	0.0170618
797.227	0.0170006
797.305	0.0168822
797.384	0.0168620
797.462	0.0170728
797.540	0.0170049
797.618	0.0169510
797.696	0.0169456
797.774	0.0168171
797.852	0.0170262
797.930	0.0169759
798.009	0.0168415
798.087	0.0169672
798.165	0.0167863
798.243	0.0168279
798.321	0.0169618
798.399	0.0169516
798.477	0.0168845
798.555	0.0169602
798.634	0.0167901
798.712	0.0167918
798.790	0.0168319
798.868	0.0168234
798.946	0.0168867
799.024	0.0168674
799.102	0.0167838
799.180	0.0168884
799.259	0.0168197
799.337	0.0168147
799.415	0.0169114
799.493	0.0168925
799.571	0.0168734
799.649	0.0169425
799.727	0.0169949
799.805	0.0169499
799.884	0.0169954
799.962	0.0168337
800.040	0.0170224
800.118	0.0170710
800.196	0.0168526
800.274	0.0170558
800.352	0.0169205
800.430	0.0169433
800.509	0.0171041
800.587	0.0169619
800.665	0.0170517
800.743	0.0171431
800.821	0.0170860
800.899	0.0170824
800.977	0.0171049
801.055	0.0170649
801.134	0.0169746
801.212	0.0169505
801.290	0.0169948
801.368	0.0170120
801.446	0.0170648
801.524	0.0169640
801.602	0.0168820
801.680	0.0168703
801.759	0.0168056
801.837	0.0170264
801.915	0.0168993
801.993	0.0169250
802.071	0.0167007
802.149	0.0168243
802.227	0.0167924
802.305	0.0167674
802.384	0.0168446
802.462	0.0168497
802.540	0.0168166
802.618	0.0167653
802.696	0.0167394
802.774	0.0169577
802.852	0.0168541
802.930	0.0167902
803.009	0.0167824
803.087	0.0169207
803.165	0.0167226
803.243	0.0168970
803.321	0.0168123
803.399	0.0166617
803.477	0.0168185
803.555	0.0169170
803.634	0.0167579
803.712	0.0167707
803.790	0.0167029
803.868	0.0167606
803.946	0.0168379
804.024	0.0167951
804.102	0.0167036
804.180	0.0166001
804.259	0.0167799
804.337	0.0167462
804.415	0.0167476
804.493	0.0167921
804.571	0.0166273
804.649	0.0168682
804.727	0.0167678
804.805	0.0167628
804.884	0.0167720
804.962	0.0167774
805.040	0.0167568
805.118	0.0167881
805.196	0.0166899
805.274	0.0167111
805.352	0.0169407
805.430	0.0168114
805.509	0.0167989
805.587	0.0168167
805.665	0.0168060
805.743	0.0167001
805.821	0.0168483
805.899	0.0167006
805.977	0.0167604
806.055	0.0166410
806.134	0.0166688
806.212	0.0166612
806.290	0.0166866
806.368	0.0167226
806.446	0.0166200
806.524	0.0166498
806.602	0.0166088
806.680	0.0167316
806.759	0.0166922
806.837	0.0167101
806.915	0.0166647
806.993	0.0167929
807.071	0.0167912
807.149	0.0166584
807.227	0.0168087
807.305	0.0167336
807.384	0.0167960
807.462	0.0165433
807.540	0.0167403
807.618	0.0168665
807.696	0.0167143
807.774	0.0167565
807.852	0.0167868
807.930	0.0167090
808.009	0.0166549
808.087	0.0167039
808.165	0.0167966
808.243	0.0168192
808.321	0.0167824
808.399	0.0168823
808.477	0.0168582
808.555	0.0168977
808.634	0.0169246
808.712	0.0168137
808.790	0.0167630
808.868	0.0168761
808.946	0.0168418
809.024	0.0166930
809.102	0.0167922
809.180	0.0167757
809.259	0.0165997
809.337	0.0166888
809.415	0.0167228
809.493	0.0167510
809.571	0.0166656
809.649	0.0167204
809.727	0.0167777
809.805	0.0169006
809.884	0.0167400
809.962	0.0169304
810.040	0.0167580
810.118	0.0167862
810.196	0.0168146
810.274	0.0168594
810.352	0.0169817
810.430	0.0167832
810.509	0.0169599
810.587	0.0171234
810.665	0.0168030
810.743	0.0169201
810.821	0.0169609
810.899	0.0170226
810.977	0.0169780
811.055	0.0169795
811.134	0.0169519
811.212	0.0170477
811.290	0.0169499
811.368	0.0170500
811.446	0.0169711
811.524	0.0168600
811.602	0.0168508
811.680	0.0169917
811.759	0.0167568
811.837	0.0169064
811.915	0.0169527
811.993	0.0170238
812.071	0.0168845
812.149	0.0169225
812.227	0.0167962
812.305	0.0168062
812.384	0.0169110
812.462	0.0169963
812.540	0.0170170
812.618	0.0169451
812.696	0.0169415
812.774	0.0169787
812.852	0.0169334
812.930	0.0170496
813.009	0.0171018
813.087	0.0169842
813.165	0.0168774
813.243	0.0170450
813.321	0.0168353
813.399	0.0169401
813.477	0.0170543
813.555	0.0169340
813.634	0.0169083
813.712	0.0170017
813.790	0.0169258
813.868	0.0170605
813.946	0.0169602
814.024	0.0169460
814.102	0.0170193
814.180	0.0168896
814.259	0.0169658
814.337	0.0169859
814.415	0.0169963
814.493	0.0170441
814.571	0.0169376
814.649	0.0170707
814.727	0.0170511
814.805	0.0168636
814.884	0.0169505
814.962	0.0170193
815.040	0.0168423
815.118	0.0169492
815.196	0.0168927
815.274	0.0169077
815.352	0.0168343
815.430	0.0168832
815.509	0.0168953
815.587	0.0168396
815.665	0.0167503
815.743	0.0167649
815.821	0.0168925
815.899	0.0169454
815.977	0.0168236
816.055	0.0167876
816.134	0.0168472
816.212	0.0168515
816.290	0.0168453
816.368	0.0167958
816.446	0.0166470
816.524	0.0167852
816.602	0.0167219
816.680	0.0167307
816.759	0.0168752
816.837	0.0168047
816.915	0.0167072
816.993	0.0168012
817.071	0.0169422
817.149	0.0168807
817.227	0.0167492
817.305	0.0169441
817.384	0.0168669
817.462	0.0168256
817.540	0.0167885
817.618	0.0167725
817.696	0.0167330
817.774	0.0168517
817.852	0.0167678
817.930	0.0169563
818.009	0.0168887
818.087	0.0168135
818.165	0.0168342
818.243	0.0170270
818.321	0.0168549
818.399	0.0168735
818.477	0.0169375
818.555	0.0169516
818.634	0.0168845
818.712	0.0169271
818.790	0.0169122
818.868	0.0168652
818.946	0.0170379
819.024	0.0169570
819.102	0.0169465
819.180	0.0170473
819.259	0.0169856
819.337	0.0167945
819.415	0.0169245
819.493	0.0170252
819.571	0.0170722
819.649	0.0168876
819.727	0.0169889
819.805	0.0170615
819.884	0.0169482
819.962	0.0168430
820.040	0.0168789
820.118	0.0169215
820.196	0.0168173
820.274	0.0169339
820.352	0.0168643
820.430	0.0169618
820.509	0.0169297
820.587	0.0168414
820.665	0.0167915
820.743	0.0170007
820.821	0.0168388
820.899	0.0168996
820.977	0.0167910
821.055	0.0169331
821.134	0.0168719
821.212	0.0167888
821.290	0.0167374
821.368	0.0167565
821.446	0.0167495
821.524	0.0166503
821.602	0.0167236
821.680	0.0168448
821.759	0.0168336
821.837	0.0169554
821.915	0.0168069
821.993	0.0168257
822.071	0.0168303
822.149	0.0168097
822.227	0.0168396
822.305	0.0167514
822.384	0.0167785
822.462	0.0168597
822.540	0.0167905
822.618	0.0167788
822.696	0.0169323
822.774	0.0169218
822.852	0.0168578
822.930	0.0169524
823.009	0.0169030
823.087	0.0168463
823.165	0.0170522
823.243	0.0169570
823.321	0.0168697
823.399	0.0171363
823.477	0.0170193
823.555	0.0168831
823.634	0.0168925
823.712	0.0169248
823.790	0.0169816
823.868	0.0167786
823.946	0.0168481
824.024	0.0170570
824.102	0.0169386
824.180	0.0169392
824.259	0.0167781
824.337	0.0168572
824.415	0.0169312
824.493	0.0170097
824.571	0.0168500
824.649	0.0168736
824.727	0.0168127
824.805	0.0170346
824.884	0.0168399
824.962	0.0167965
825.040	0.0168639
825.118	0.0170657
825.196	0.0167773
825.274	0.0169009
825.352	0.0168739
825.430	0.0168217
825.509	0.0168556
825.587	0.0169547
825.665	0.0168294
825.743	0.0169575
825.821	0.0168224
825.899	0.0167662
825.977	0.0168298
826.055	0.0168169
826.134	0.0167778
826.212	0.0168375
826.290	0.0166620
826.368	0.0167069
826.446	0.0166697
826.524	0.0166126
826.602	0.0165604
826.680	0.0166571
826.759	0.0167276
826.837	0.0166160
826.915	0.0165040
826.993	0.0164609
827.071	0.0164949
827.149	0.0164794
827.227	0.0167145
827.305	0.0165806
827.384	0.0164488
827.462	0.0166003
827.540	0.0165468
827.618	0.0165910
827.696	0.0167263
827.774	0.0165352
827.852	0.0165904
827.930	0.0165930
828.009	0.0166084
828.087	0.0166225
828.165	0.0166656
828.243	0.0166311
828.321	0.0166374
828.399	0.0167764
828.477	0.0168459
828.555	0.0168067
828.634	0.0168428
828.712	0.0167861
828.790	0.0168705
828.868	0.0168316
828.946	0.0169322
829.024	0.0169951
829.102	0.0168533
829.180	0.0169305
829.259	0.0170821
829.337	0.0169259
829.415	0.0169859
829.493	0.0171133
829.571	0.0169556
829.649	0.0168560
829.727	0.0169260
829.805	0.0168552
829.884	0.0167992
829.962	0.0169499
830.040	0.0167886
830.118	0.0168530
830.196	0.0169479
830.274	0.0168373
830.352	0.0167854
830.430	0.0169090
830.509	0.0167966
830.587	0.0167171
830.665	0.0169054
830.743	0.0167400
830.821	0.0167397
830.899	0.0167775
830.977	0.0168462
831.055	0.0165823
831.134	0.0166348
831.212	0.0168336
831.290	0.0168869
831.368	0.0168172
831.446	0.0167804
831.524	0.0168372
831.602	0.0167910
831.680	0.0168561
831.759	0.0168865
831.837	0.0168465
831.915	0.0167881
831.993	0.0169884
832.071	0.0169540
832.149	0.0169489
832.227	0.0170081
832.305	0.0168956
832.384	0.0168346
832.462	0.0168760
832.540	0.0169090
832.618	0.0168377
832.696	0.0169437
832.774	0.0168520
832.852	0.0169453
832.930	0.0167423
833.009	0.0169717
833.087	0.0169867
833.165	0.0168659
833.243	0.0169007
833.321	0.0169662
833.399	0.0168792
833.477	0.0169364
833.555	0.0170017
833.634	0.0170286
833.712	0.0169739
833.790	0.0170250
833.868	0.0169994
833.946	0.0169085
834.024	0.0168803
834.102	0.0168243
834.180	0.0168084
834.259	0.0168246
834.337	0.0167857
834.415	0.0167216
834.493	0.0168636
834.571	0.0166743
834.649	0.0167423
834.727	0.0168135
834.805	0.0167293
834.884	0.0166401
834.962	0.0167388
835.040	0.0167848
835.118	0.0167432
835.196	0.0167007
835.274	0.0167652
835.352	0.0167931
835.430	0.0168424
835.509	0.0169051
835.587	0.0168784
835.665	0.0167370
835.743	0.0166920
835.821	0.0168938
835.899	0.0167434
835.977	0.0169106
836.055	0.0168565
836.134	0.0166519
836.212	0.0166447
836.290	0.0168218
836.368	0.0167280
836.446	0.0168333
836.524	0.0168873
836.602	0.0167310
836.680	0.0166676
836.759	0.0168005
836.837	0.0168105
836.915	0.0167480
836.993	0.0166857
837.071	0.0167921
837.149	0.0170222
837.227	0.0169224
837.305	0.0169362
837.384	0.0167889
837.462	0.0168797
837.540	0.0169989
837.618	0.0168545
837.696	0.0169178
837.774	0.0169619
837.852	0.0168343
837.930	0.0167101
838.009	0.0167355
838.087	0.0168354
838.165	0.0168540
838.243	0.0169267
838.321	0.0167685
838.399	0.0169553
838.477	0.0169118
838.555	0.0167957
838.634	0.0167716
838.712	0.0169849
838.790	0.0168392
838.868	0.0168659
838.946	0.0169118
839.024	0.0167890
839.102	0.0167091
839.180	0.0168383
839.259	0.0169622
839.337	0.0168615
839.415	0.0168353
839.493	0.0169095
839.571	0.0168147
839.649	0.0168159
839.727	0.0169030
839.805	0.0167761
839.884	0.0167224
839.962	0.0167710
840.040	0.0168205
840.118	0.0167913
840.196	0.0166628
840.274	0.0167884
840.352	0.0168647
840.430	0.0168573
840.509	0.0168861
840.587	0.0168294
840.665	0.0169548
840.743	0.0169706
840.821	0.0168972
840.899	0.0168141
840.977	0.0168139
841.055	0.0168635
841.134	0.0169382
841.212	0.0169463
841.290	0.0169267
841.368	0.0170079
841.446	0.0168688
841.524	0.0168826
841.602	0.0169710
841.680	0.0168439
841.759	0.0167536
841.837	0.0169321
841.915	0.0169028
841.993	0.0167937
842.071	0.0169247
842.149	0.0169769
842.227	0.0169966
842.305	0.0168794
842.384	0.0169946
842.462	0.0169217
842.540	0.0168922
842.618	0.0170713
842.696	0.0169770
842.774	0.0169298
842.852	0.0171253
842.930	0.0169875
843.009	0.0169532
843.087	0.0169188
843.165	0.0171292
843.243	0.0170737
843.321	0.0170052
843.399	0.0168665
843.477	0.0169742
843.555	0.0169592
843.634	0.0170005
843.712	0.0168524
843.790	0.0169146
843.868	0.0168102
843.946	0.0168842
844.024	0.0168927
844.102	0.0170004
844.180	0.0169019
844.259	0.0169432
844.337	0.0169044
844.415	0.0169051
844.493	0.0169633
844.571	0.0169909
844.649	0.0168821
844.727	0.0168121
844.805	0.0168372
844.884	0.0168896
844.962	0.0168092
845.040	0.0168932
845.118	0.0168269
845.196	0.0168108
845.274	0.0169007
845.352	0.0167863
845.430	0.0169582
845.509	0.0168362
845.587	0.0169131
845.665	0.0167255
845.743	0.0168613
845.821	0.0169441
845.899	0.0169178
845.977	0.0169022
846.055	0.0169382
846.134	0.0169241
846.212	0.0168189
846.290	0.0169831
846.368	0.0168376
846.446	0.0168537
846.524	0.0168520
846.602	0.0168810
846.680	0.0169181
846.759	0.0169778
846.837	0.0169074
846.915	0.0169519
846.993	0.0170374
847.071	0.0169936
847.149	0.0169294
847.227	0.0170231
847.305	0.0171009
847.384	0.0168950
847.462	0.0169717
847.540	0.0169234
847.618	0.0169518
847.696	0.0169424
847.774	0.0170332
847.852	0.0169919
847.930	0.0169616
848.009	0.0169827
848.087	0.0168414
848.165	0.0170170
848.243	0.0169740
848.321	0.0168630
848.399	0.0170075
848.477	0.0170220
848.555	0.0168632
848.634	0.0169061
848.712	0.0171318
848.790	0.0169878
848.868	0.0169450
848.946	0.0168740
849.024	0.0169851
849.102	0.0170198
849.180	0.0168520
849.259	0.0168836
849.337	0.0169340
849.415	0.0169588
849.493	0.0168208
849.571	0.0170190
849.649	0.0170850
849.727	0.0169129
849.805	0.0169433
849.884	0.0169799
849.962	0.0169181
850.040	0.0168677
850.118	0.0170228
850.196	0.0169989
850.274	0.0170580
850.352	0.0169497
850.430	0.0168960
850.509	0.0168941
850.587	0.0169943
850.665	0.0169556
850.743	0.0169390
850.821	0.0170115
850.899	0.0169474
850.977	0.0170340
851.055	0.0170090
851.134	0.0170400
851.212	0.0169322
851.290	0.0170618
851.368	0.0168909
851.446	0.0167677
851.524	0.0168451
851.602	0.0168742
851.680	0.0168484
851.759	0.0170805
851.837	0.0170331
851.915	0.0169864
851.993	0.0169872
852.071	0.0169460
852.149	0.0170469
852.227	0.0169660
852.305	0.0170518
852.384	0.0168953
852.462	0.0168346
852.540	0.0169765
852.618	0.0169949
852.696	0.0169463
852.774	0.0169814
852.852	0.0170699
852.930	0.0170483
853.009	0.0170190
853.087	0.0168388
853.165	0.0169357
853.243	0.0170396
853.321	0.0167934
853.399	0.0167675
853.477	0.0168139
853.555	0.0169155
853.634	0.0169442
853.712	0.0170236
853.790	0.0168546
853.868	0.0168365
853.946	0.0169246
854.024	0.0168000
854.102	0.0169366
854.180	0.0167840
854.259	0.0169025
854.337	0.0169467
854.415	0.0169048
854.493	0.0169865
854.571	0.0167006
854.649	0.0168124
854.727	0.0168626
854.805	0.0168772
854.884	0.0168582
854.962	0.0169116
855.040	0.0169483
855.118	0.0169211
855.196	0.0169528
855.274	0.0169360
855.352	0.0168452
855.430	0.0168427
855.509	0.0168306
855.587	0.0168755
855.665	0.0169550
855.743	0.0168757
855.821	0.0168341
855.899	0.0169642
855.977	0.0170270
856.055	0.0169624
856.134	0.0170316
856.212	0.0169080
856.290	0.0168703
856.368	0.0167047
856.446	0.0166978
856.524	0.0168719
856.602	0.0169276
856.680	0.0167796
856.759	0.0167509
856.837	0.0167705
856.915	0.0168269
856.993	0.0166688
857.071	0.0166599
857.149	0.0166445
857.227	0.0166667
857.305	0.0167316
857.384	0.0166834
857.462	0.0166077
857.540	0.0166925
857.618	0.0166902
857.696	0.0165242
857.774	0.0166859
857.852	0.0167878
857.930	0.0166468
858.009	0.0166128
858.087	0.0166993
858.165	0.0167387
858.243	0.0167860
858.321	0.0166994
858.399	0.0167013
858.477	0.0166024
858.555	0.0166826
858.634	0.0165730
858.712	0.0167101
858.790	0.0165844
858.868	0.0166281
858.946	0.0165466
859.024	0.0166330
859.102	0.0166042
859.180	0.0167200
859.259	0.0166866
859.337	0.0166019
859.415	0.0167224
859.493	0.0166501
859.571	0.0166113
859.649	0.0166640
859.727	0.0167105
859.805	0.0166649
859.884	0.0167517
859.962	0.0167545
860.040	0.0168480
860.118	0.0166590
860.196	0.0166035
860.274	0.0167186
860.352	0.0168375
860.430	0.0167817
860.509	0.0167149
860.587	0.0168462
860.665	0.0166843
860.743	0.0167208
860.821	0.0167808
860.899	0.0168435
860.977	0.0169180
861.055	0.0167859
861.134	0.0169151
861.212	0.0168281
861.290	0.0167304
861.368	0.0167867
861.446	0.0168017
861.524	0.0167160
861.602	0.0169531
861.680	0.0170123
861.759	0.0168226
861.837	0.0169205
861.915	0.0169199
861.993	0.0168488
862.071	0.0169244
862.149	0.0170669
862.227	0.0167854
862.305	0.0169402
862.384	0.0169883
862.462	0.0170941
862.540	0.0170270
862.618	0.0168539
862.696	0.0168989
862.774	0.0169595
862.852	0.0170711
862.930	0.0169973
863.009	0.0169541
863.087	0.0171388
863.165	0.0169360
863.243	0.0170338
863.321	0.0171420
863.399	0.0170381
863.477	0.0169846
863.555	0.0169754
863.634	0.0170390
863.712	0.0170066
863.790	0.0169512
863.868	0.0168839
863.946	0.0168586
864.024	0.0169344
864.102	0.0169543
864.180	0.0169311
864.259	0.0168382
864.337	0.0168252
864.415	0.0169286
864.493	0.0168630
864.571	0.0168803
864.649	0.0168974
864.727	0.0168089
864.805	0.0169284
864.884	0.0167624
864.962	0.0170105
865.040	0.0168422
865.118	0.0169421
865.196	0.0167255
865.274	0.0170100
865.352	0.0169489
865.430	0.0169141
865.509	0.0168732
865.587	0.0170346
865.665	0.0170074
865.743	0.0169886
865.821	0.0169357
865.899	0.0169152
865.977	0.0169181
866.055	0.0168806
866.134	0.0170525
866.212	0.0170909
866.290	0.0169563
866.368	0.0169980
866.446	0.0169435
866.524	0.0169434
866.602	0.0168361
866.680	0.0168793
866.759	0.0169405
866.837	0.0169802
866.915	0.0169145
866.993	0.0169308
867.071	0.0169000
867.149	0.0171342
867.227	0.0169943
867.305	0.0169828
867.384	0.0169872
867.462	0.0170026
867.540	0.0168706
867.618	0.0168398
867.696	0.0168703
867.774	0.0170388
867.852	0.0168707
867.930	0.0169273
868.009	0.0169449
868.087	0.0168886
868.165	0.0168044
868.243	0.0168600
868.321	0.0169834
868.399	0.0168835
868.477	0.0168632
868.555	0.0168957
868.634	0.0166857
868.712	0.0168330
868.790	0.0167677
868.868	0.0168420
868.946	0.0168795
869.024	0.0168856
869.102	0.0170437
869.180	0.0168777
869.259	0.0168658
869.337	0.0170139
869.415	0.0167757
869.493	0.0168182
869.571	0.0170231
869.649	0.0169161
869.727	0.0169454
869.805	0.0171017
869.884	0.0170169
869.962	0.0170107
870.040	0.0169991
870.118	0.0169215
870.196	0.0167957
870.274	0.0169257
870.352	0.0169710
870.430	0.0170087
870.509	0.0170985
870.587	0.0169241
870.665	0.0170625
870.743	0.0170796
870.821	0.0170459
870.899	0.0169852
870.977	0.0169121
871.055	0.0168877
871.134	0.0169682
871.212	0.0170837
871.290	0.0170397
871.368	0.0170800
871.446	0.0169974
871.524	0.0169841
871.602	0.0168980
871.680	0.0169838
871.759	0.0169864
871.837	0.0169672
871.915	0.0169841
871.993	0.0169593
872.071	0.0170292
872.149	0.0169704
872.227	0.0169583
872.305	0.0169987
872.384	0.0170610
872.462	0.0170819
872.540	0.0170812
872.618	0.0169436
872.696	0.0169435
872.774	0.0169458
872.852	0.0169754
872.930	0.0169616
873.009	0.0170366
873.087	0.0169160
873.165	0.0168510
873.243	0.0168520
873.321	0.0169363
873.399	0.0169070
873.477	0.0168800
873.555	0.0169273
873.634	0.0169517
873.712	0.0169454
873.790	0.0168185
873.868	0.0169422
873.946	0.0169379
874.024	0.0170184
874.102	0.0168403
874.180	0.0167529
874.259	0.0168372
874.337	0.0168625
874.415	0.0168158
874.493	0.0168507
874.571	0.0166975
874.649	0.0169071
874.727	0.0169659
874.805	0.0169965
874.884	0.0168369
874.962	0.0166908
875.040	0.0168468
875.118	0.0168082
875.196	0.0168164
875.274	0.0169238
875.352	0.0168330
875.430	0.0168691
875.509	0.0167950
875.587	0.0167572
875.665	0.0167352
875.743	0.0167692
875.821	0.0169124
875.899	0.0168083
875.977	0.0167181
876.055	0.0166763
876.134	0.0167654
876.212	0.0166567
876.290	0.0168761
876.368	0.0168655
876.446	0.0167625
876.524	0.0167855
876.602	0.0167432
876.680	0.0167036
876.759	0.0168234
876.837	0.0168280
876.915	0.0167419
876.993	0.0168071
877.071	0.0167003
877.149	0.0166674
877.227	0.0167924
877.305	0.0169020
877.384	0.0167516
877.462	0.0168118
877.540	0.0167974
877.618	0.0168202
877.696	0.0169527
877.774	0.0168732
877.852	0.0168073
877.930	0.0167776
878.009	0.0167853
878.087	0.0168602
878.165	0.0167478
878.243	0.0169061
878.321	0.0168219
878.399	0.0170317
878.477	0.0168375
878.555	0.0169296
878.634	0.0169307
878.712	0.0167254
878.790	0.0168134
878.868	0.0169096
878.946	0.0167609
879.024	0.0169551
879.102	0.0168114
879.180	0.0166355
879.259	0.0168284
879.337	0.0168775
879.415	0.0167841
879.493	0.0167223
879.571	0.0167741
879.649	0.0168214
879.727	0.0168239
879.805	0.0167480
879.884	0.0168002
879.962	0.0168134
880.040	0.0167767
880.118	0.0167780
880.196	0.0168633
880.274	0.0168542
880.352	0.0168397
880.430	0.0169857
880.509	0.0168366
880.587	0.0166223
880.665	0.0168494
880.743	0.0168250
880.821	0.0167725
880.899	0.0168619
880.977	0.0169167
881.055	0.0167864
881.134	0.0168113
881.212	0.0168721
881.290	0.0168377
881.368	0.0167673
881.446	0.0167396
881.524	0.0166479
881.602	0.0167773
881.680	0.0167037
881.759	0.0168005
881.837	0.0167855
881.915	0.0168806
881.993	0.0167564
882.071	0.0168318
882.149	0.0168800
882.227	0.0167614
882.305	0.0166958
882.384	0.0167678
882.462	0.0168590
882.540	0.0169788
882.618	0.0168223
882.696	0.0168487
882.774	0.0168262
882.852	0.0168508
882.930	0.0168336
883.009	0.0169332
883.087	0.0167352
883.165	0.0168004
883.243	0.0168485
883.321	0.0169064
883.399	0.0169294
883.477	0.0168607
883.555	0.0168759
883.634	0.0168169
883.712	0.0170795
883.790	0.0168491
883.868	0.0168231
883.946	0.0167610
884.024	0.0168899
884.102	0.0168295
884.180	0.0167963
884.259	0.0166553
884.337	0.0168371
884.415	0.0167869
884.493	0.0167284
884.571	0.0166767
884.649	0.0168091
884.727	0.0169688
884.805	0.0168475
884.884	0.0167966
884.962	0.0170287
885.040	0.0169199
885.118	0.0169408
885.196	0.0170168
885.274	0.0169798
885.352	0.0170171
885.430	0.0169891
885.509	0.0170351
885.587	0.0169476
885.665	0.0170605
885.743	0.0169704
885.821	0.0170469
885.899	0.0171133
885.977	0.0170184
886.055	0.0169173
886.134	0.0171907
886.212	0.0171935
886.290	0.0170354
886.368	0.0170168
886.446	0.0169931
886.524	0.0171559
886.602	0.0172192
886.680	0.0171940
886.759	0.0171912
886.837	0.0170489
886.915	0.0171932
886.993	0.0172076
887.071	0.0172082
887.149	0.0170536
887.227	0.0171057
887.305	0.0172648
887.384	0.0170820
887.462	0.0171326
887.540	0.0172144
887.618	0.0170359
887.696	0.0170435
887.774	0.0171427
887.852	0.0170943
887.930	0.0171046
888.009	0.0170986
888.087	0.0171531
888.165	0.0170988
888.243	0.0171751
888.321	0.0170319
888.399	0.0171498
888.477	0.0171454
888.555	0.0172653
888.634	0.0170341
888.712	0.0171816
888.790	0.0170721
888.868	0.0172016
888.946	0.0171238
889.024	0.0172031
889.102	0.0171393
889.180	0.0170252
889.259	0.0171793
889.337	0.0171081
889.415	0.0170666
889.493	0.0170390
889.571	0.0170856
889.649	0.0168760
889.727	0.0168692
889.805	0.0169893
889.884	0.0170093
889.962	0.0169052
890.040	0.0171220
890.118	0.0170467
890.196	0.0169505
890.274	0.0169122
890.352	0.0169166
890.430	0.0168406
890.509	0.0169325
890.587	0.0169054
890.665	0.0167787
890.743	0.0169371
890.821	0.0167678
890.899	0.0167902
890.977	0.0168609
891.055	0.0167963
891.134	0.0170344
891.212	0.0168752
891.290	0.0168535
891.368	0.0169424
891.446	0.0168822
891.524	0.0168614
891.602	0.0169057
891.680	0.0168975
891.759	0.0168446
891.837	0.0169040
891.915	0.0170187
891.993	0.0171635
892.071	0.0169093
892.149	0.0170681
892.227	0.0169804
892.305	0.0170474
892.384	0.0170557
892.462	0.0169181
892.540	0.0171153
892.618	0.0170724
892.696	0.0169901
892.774	0.0170477
892.852	0.0171984
892.930	0.0170511
893.009	0.0169523
893.087	0.0170573
893.165	0.0169788
893.243	0.0168816
893.321	0.0170241
893.399	0.0170509
893.477	0.0168693
893.555	0.0169299
893.634	0.0169669
893.712	0.0168659
893.790	0.0167406
893.868	0.0168507
893.946	0.0170580
894.024	0.0168766
894.102	0.0169756
894.180	0.0168508
894.259	0.0169645
894.337	0.0169410
894.415	0.0167782
894.493	0.0167835
894.571	0.0168221
894.649	0.0168589
894.727	0.0167774
894.805	0.0168602
894.884	0.0167781
894.962	0.0168719
895.040	0.0167844
895.118	0.0167251
895.196	0.0169418
895.274	0.0168087
895.352	0.0168855
895.430	0.0170168
895.509	0.0168510
895.587	0.0169305
895.665	0.0169209
895.743	0.0169486
895.821	0.0168760
895.899	0.0170370
895.977	0.0170746
896.055	0.0169050
896.134	0.0170493
896.212	0.0171138
896.290	0.0170537
896.368	0.0171146
896.446	0.0171839
896.524	0.0170664
896.602	0.0170747
896.680	0.0169836
896.759	0.0171752
896.837	0.0170428
896.915	0.0170042
896.993	0.0170646
897.071	0.0170208
897.149	0.0171588
897.227	0.0168051
897.305	0.0169087
897.384	0.0169151
897.462	0.0169350
897.540	0.0168339
897.618	0.0169714
897.696	0.0168330
897.774	0.0167667
897.852	0.0167665
897.930	0.0167397
898.009	0.0169141
898.087	0.0167921
898.165	0.0167633
898.243	0.0168250
898.321	0.0167508
898.399	0.0167515
898.477	0.0167754
898.555	0.0168951
898.634	0.0167318
898.712	0.0168885
898.790	0.0168271
898.868	0.0167590
898.946	0.0169226
899.024	0.0166825
899.102	0.0169183
899.180	0.0167200
899.259	0.0168021
899.337	0.0168427
899.415	0.0168131
899.493	0.0167188
899.571	0.0167812
899.649	0.0167043
899.727	0.0168150
899.805	0.0167673
899.884	0.0167860
899.962	0.0167950
900.040	0.0167993
900.118	0.0168541
900.196	0.0167766
900.274	0.0168342
900.352	0.0167123
900.430	0.0167127
900.509	0.0167287
900.587	0.0167397
900.665	0.0167551
900.743	0.0168533
900.821	0.0165864
900.899	0.0167921
900.977	0.0167766
901.055	0.0168473
901.134	0.0167638
901.212	0.0168760
901.290	0.0167406
901.368	0.0168534
901.446	0.0168771
901.524	0.0168253
901.602	0.0167177
901.680	0.0167690
901.759	0.0168338
901.837	0.0167789
901.915	0.0168699
901.993	0.0167542
902.071	0.0169093
902.149	0.0168377
902.227	0.0168489
902.305	0.0168214
902.384	0.0168419
902.462	0.0167802
902.540	0.0168362
902.618	0.0169704
902.696	0.0168428
902.774	0.0168559
902.852	0.0169645
902.930	0.0170980
903.009	0.0169918
903.087	0.0168599
903.165	0.0171489
903.243	0.0169117
903.321	0.0168860
903.399	0.0168765
903.477	0.0169330
903.555	0.0168324
903.634	0.0168768
903.712	0.0168637
903.790	0.0169608
903.868	0.0168639
903.946	0.0168652
904.024	0.0170357
904.102	0.0169368
904.180	0.0167664
904.259	0.0168586
904.337	0.0167635
904.415	0.0167892
904.493	0.0169583
904.571	0.0167826
904.649	0.0169379
904.727	0.0169721
904.805	0.0166917
904.884	0.0168970
904.962	0.0169513
905.040	0.0168406
905.118	0.0169101
905.196	0.0169196
905.274	0.0169456
905.352	0.0169751
905.430	0.0167202
905.509	0.0170401
905.587	0.0168185
905.665	0.0168332
905.743	0.0168634
905.821	0.0169595
905.899	0.0169106
905.977	0.0169197
906.055	0.0167828
906.134	0.0169405
906.212	0.0169511
906.290	0.0170719
906.368	0.0169279
906.446	0.0169574
906.524	0.0169279
906.602	0.0169943
906.680	0.0168932
906.759	0.0171516
906.837	0.0168746
906.915	0.0169587
906.993	0.0170390
907.071	0.0170236
907.149	0.0169427
907.227	0.0170612
907.305	0.0170701
907.384	0.0170811
907.462	0.0171777
907.540	0.0171184
907.618	0.0171824
907.696	0.0170578
907.774	0.0171085
907.852	0.0170765
907.930	0.0170367
908.009	0.0170083
908.087	0.0169730
908.165	0.0170418
908.243	0.0169646
908.321	0.0169972
908.399	0.0170847
908.477	0.0170438
908.555	0.0169205
908.634	0.0168275
908.712	0.0169513
908.790	0.0169226
908.868	0.0168320
908.946	0.0168732
909.024	0.0169261
909.102	0.0167988
909.180	0.0168605
909.259	0.0168520
909.337	0.0168650
909.415	0.0168396
909.493	0.0168246
909.571	0.0169006
909.649	0.0169370
909.727	0.0169244
909.805	0.0169738
909.884	0.0169241
909.962	0.0167404
910.040	0.0168213
910.118	0.0169585
910.196	0.0169156
910.274	0.0168268
910.352	0.0169537
910.430	0.0168970
910.509	0.0169276
910.587	0.0170310
910.665	0.0171172
910.743	0.0171379
910.821	0.0170456
910.899	0.0171159
910.977	0.0171552
911.055	0.0170283
911.134	0.0169662
911.212	0.0168909
911.290	0.0171142
911.368	0.0169164
911.446	0.0170585
911.524	0.0170316
911.602	0.0170918
911.680	0.0170760
911.759	0.0169170
911.837	0.0170313
911.915	0.0170397
911.993	0.0170361
912.071	0.0172496
912.149	0.0171460
912.227	0.0172210
912.305	0.0173582
912.384	0.0170750
912.462	0.0172449
912.540	0.0172014
912.618	0.0171857
912.696	0.0171691
912.774	0.0172106
912.852	0.0171980
912.930	0.0171860
913.009	0.0172094
913.087	0.0172351
913.165	0.0171476
913.243	0.0172221
913.321	0.0171764
913.399	0.0172881
913.477	0.0172478
913.555	0.0173064
913.634	0.0172878
913.712	0.0171577
913.790	0.0172061
913.868	0.0171938
913.946	0.0169745
914.024	0.0170073
914.102	0.0171526
914.180	0.0171409
914.259	0.0169949
914.337	0.0168605
914.415	0.0170878
914.493	0.0169647
914.571	0.0169817
914.649	0.0169729
914.727	0.0170444
914.805	0.0170657
914.884	0.0171494
914.962	0.0170399
915.040	0.0169183
915.118	0.0170555
915.196	0.0170802
915.274	0.0172325
915.352	0.0171365
915.430	0.0170978
915.509	0.0171303
915.587	0.0170875
915.665	0.0171343
915.743	0.0169453
915.821	0.0170158
915.899	0.0169688
915.977	0.0169550
916.055	0.0169967
916.134	0.0170290
916.212	0.0170368
916.290	0.0168951
916.368	0.0168537
916.446	0.0168964
916.524	0.0168497
916.602	0.0167788
916.680	0.0168552
916.759	0.0167863
916.837	0.0167937
916.915	0.0167610
916.993	0.0167787
917.071	0.0166692
917.149	0.0169312
917.227	0.0168507
917.305	0.0168031
917.384	0.0168718
917.462	0.0168179
917.540	0.0169180
917.618	0.0169258
917.696	0.0170892
917.774	0.0167334
917.852	0.0166816
917.930	0.0169917
918.009	0.0170207
918.087	0.0170112
918.165	0.0168437
918.243	0.0169218
918.321	0.0169041
918.399	0.0167970
918.477	0.0168488
918.555	0.0169258
918.634	0.0170518
918.712	0.0169787
918.790	0.0169333
918.868	0.0169238
918.946	0.0169085
919.024	0.0168571
919.102	0.0168472
919.180	0.0169556
919.259	0.0169000
919.337	0.0169325
919.415	0.0169286
919.493	0.0168274
919.571	0.0168642
919.649	0.0169830
919.727	0.0167628
919.805	0.0168932
919.884	0.0169579
