06/13/2022	14:35:48	Ver.	4.1	UNKNOWN
Optical Delay	599.968395	Delta X		0.078125	Sweeps	1	Scan Rate	0/0
Coordinates	Axis 1	NaN	Axis 2	NaN	Axis 3	NaN	Axis 4	NaN	Axis 5	NaN	Axis 6	0.000000
TX Power	0.000000	RX Power	0.000000

599.968	0.0152813
600.047	0.0153106
600.125	0.0152065
600.203	0.0153057
600.281	0.0153413
600.359	0.0152100
600.437	0.0152523
600.515	0.0154113
600.593	0.0154371
600.672	0.0153015
600.750	0.0153830
600.828	0.0152652
600.906	0.0152676
600.984	0.0152023
601.062	0.0154779
601.140	0.0153159
601.218	0.0151715
601.297	0.0151907
601.375	0.0153526
601.453	0.0153199
601.531	0.0152560
601.609	0.0152161
601.687	0.0152935
601.765	0.0154326
601.843	0.0152786
601.922	0.0152664
602.000	0.0152308
602.078	0.0154452
602.156	0.0152813
602.234	0.0152791
602.312	0.0152880
602.390	0.0152463
602.468	0.0153838
602.547	0.0153531
602.625	0.0153235
602.703	0.0153014
602.781	0.0152835
602.859	0.0152258
602.937	0.0152728
603.015	0.0153133
603.093	0.0153204
603.172	0.0151140
603.250	0.0153008
603.328	0.0153449
603.406	0.0152573
603.484	0.0152695
603.562	0.0153144
603.640	0.0153191
603.718	0.0154139
603.797	0.0153998
603.875	0.0152619
603.953	0.0153786
604.031	0.0152941
604.109	0.0154108
604.187	0.0153323
604.265	0.0151785
604.343	0.0152280
604.422	0.0153409
604.500	0.0154340
604.578	0.0153026
604.656	0.0152822
604.734	0.0152261
604.812	0.0152377
604.890	0.0152798
604.968	0.0152742
605.047	0.0152322
605.125	0.0152047
605.203	0.0153486
605.281	0.0154044
605.359	0.0152698
605.437	0.0153534
605.515	0.0151759
605.593	0.0152707
605.672	0.0153296
605.750	0.0152240
605.828	0.0151974
605.906	0.0152670
605.984	0.0153515
606.062	0.0153523
606.140	0.0152671
606.218	0.0153146
606.297	0.0151919
606.375	0.0152735
606.453	0.0152725
606.531	0.0152025
606.609	0.0152328
606.687	0.0153364
606.765	0.0153756
606.843	0.0151964
606.922	0.0151544
607.000	0.0151873
607.078	0.0153277
607.156	0.0153428
607.234	0.0152646
607.312	0.0153848
607.390	0.0153807
607.468	0.0152605
607.547	0.0152038
607.625	0.0152048
607.703	0.0152736
607.781	0.0153761
607.859	0.0153655
607.937	0.0153675
608.015	0.0154384
608.093	0.0153001
608.172	0.0151814
608.250	0.0153532
608.328	0.0152780
608.406	0.0152253
608.484	0.0152578
608.562	0.0153527
608.640	0.0152926
608.718	0.0153378
608.797	0.0152618
608.875	0.0153513
608.953	0.0152519
609.031	0.0152412
609.109	0.0154066
609.187	0.0152528
609.265	0.0152787
609.343	0.0154187
609.422	0.0153839
609.500	0.0153537
609.578	0.0151608
609.656	0.0152547
609.734	0.0154112
609.812	0.0152671
609.890	0.0151769
609.968	0.0153319
610.047	0.0152625
610.125	0.0153391
610.203	0.0153222
610.281	0.0152822
610.359	0.0153542
610.437	0.0152954
610.515	0.0151910
610.593	0.0153780
610.672	0.0154434
610.750	0.0151943
610.828	0.0153596
610.906	0.0153278
610.984	0.0153451
611.062	0.0153128
611.140	0.0153618
611.218	0.0152559
611.297	0.0151392
611.375	0.0153523
611.453	0.0153496
611.531	0.0153287
611.609	0.0153288
611.687	0.0153272
611.765	0.0153301
611.843	0.0153145
611.922	0.0153983
612.000	0.0153036
612.078	0.0153269
612.156	0.0153706
612.234	0.0154023
612.312	0.0153300
612.390	0.0153634
612.468	0.0152689
612.547	0.0153721
612.625	0.0151924
612.703	0.0153186
612.781	0.0154083
612.859	0.0154914
612.937	0.0152575
613.015	0.0151766
613.093	0.0152883
613.172	0.0153071
613.250	0.0153729
613.328	0.0153792
613.406	0.0152759
613.484	0.0152650
613.562	0.0153394
613.640	0.0153487
613.718	0.0152370
613.797	0.0153011
613.875	0.0153711
613.953	0.0152918
614.031	0.0152300
614.109	0.0152776
614.187	0.0154047
614.265	0.0153026
614.343	0.0153073
614.422	0.0152758
614.500	0.0152187
614.578	0.0153829
614.656	0.0153276
614.734	0.0153613
614.812	0.0154649
614.890	0.0152351
614.968	0.0153014
615.047	0.0152396
615.125	0.0152771
615.203	0.0152698
615.281	0.0151365
615.359	0.0153622
615.437	0.0151764
615.515	0.0153178
615.593	0.0153575
615.672	0.0152479
615.750	0.0153151
615.828	0.0152644
615.906	0.0153321
615.984	0.0153369
616.062	0.0153159
616.140	0.0152457
616.218	0.0153938
616.297	0.0153889
616.375	0.0153576
616.453	0.0152194
616.531	0.0154327
616.609	0.0153251
616.687	0.0151797
616.765	0.0153704
616.843	0.0153320
616.922	0.0152716
617.000	0.0152985
617.078	0.0153484
617.156	0.0153203
617.234	0.0152893
617.312	0.0152126
617.390	0.0153265
617.468	0.0152405
617.547	0.0154038
617.625	0.0154407
617.703	0.0153040
617.781	0.0151656
617.859	0.0152194
617.937	0.0154079
618.015	0.0152279
618.093	0.0153795
618.172	0.0154071
618.250	0.0153118
618.328	0.0150908
618.406	0.0153864
618.484	0.0153619
618.562	0.0153030
618.640	0.0153597
618.718	0.0153006
618.797	0.0155302
618.875	0.0153575
618.953	0.0153822
619.031	0.0152357
619.109	0.0153025
619.187	0.0152050
619.265	0.0153561
619.343	0.0153016
619.422	0.0154762
619.500	0.0154122
619.578	0.0151682
619.656	0.0154066
619.734	0.0154044
619.812	0.0152738
619.890	0.0152837
619.968	0.0153155
620.047	0.0153431
620.125	0.0153532
620.203	0.0151814
620.281	0.0153517
620.359	0.0152673
620.437	0.0151939
620.515	0.0152634
620.593	0.0153007
620.672	0.0152912
620.750	0.0153751
620.828	0.0152691
620.906	0.0151969
620.984	0.0153667
621.062	0.0153223
621.140	0.0153510
621.218	0.0153259
621.297	0.0153275
621.375	0.0153069
621.453	0.0152422
621.531	0.0154396
621.609	0.0152348
621.687	0.0152780
621.765	0.0152921
621.843	0.0153584
621.922	0.0152498
622.000	0.0154324
622.078	0.0154060
622.156	0.0152358
622.234	0.0153481
622.312	0.0154372
622.390	0.0154546
622.468	0.0153315
622.547	0.0152215
622.625	0.0154250
622.703	0.0152343
622.781	0.0152206
622.859	0.0154354
622.937	0.0153983
623.015	0.0153988
623.093	0.0152534
623.172	0.0154706
623.250	0.0154856
623.328	0.0153579
623.406	0.0152890
623.484	0.0152802
623.562	0.0153870
623.640	0.0153056
623.718	0.0152635
623.797	0.0153766
623.875	0.0153481
623.953	0.0155246
624.031	0.0153564
624.109	0.0151853
624.187	0.0152726
624.265	0.0154816
624.343	0.0153738
624.422	0.0153536
624.500	0.0152394
624.578	0.0152262
624.656	0.0153222
624.734	0.0154247
624.812	0.0154414
624.890	0.0153469
624.968	0.0153251
625.047	0.0153302
625.125	0.0153497
625.203	0.0154112
625.281	0.0152371
625.359	0.0152826
625.437	0.0152304
625.515	0.0153299
625.593	0.0154363
625.672	0.0154459
625.750	0.0153092
625.828	0.0152554
625.906	0.0153930
625.984	0.0153711
626.062	0.0152513
626.140	0.0152515
626.218	0.0153413
626.297	0.0152666
626.375	0.0152785
626.453	0.0153069
626.531	0.0152812
626.609	0.0153136
626.687	0.0152657
626.765	0.0151729
626.843	0.0153469
626.922	0.0154159
627.000	0.0153011
627.078	0.0152544
627.156	0.0154352
627.234	0.0152701
627.312	0.0152246
627.390	0.0153536
627.468	0.0152579
627.547	0.0152390
627.625	0.0154357
627.703	0.0153387
627.781	0.0152782
627.859	0.0153370
627.937	0.0154182
628.015	0.0153832
628.093	0.0152394
628.172	0.0152895
628.250	0.0153294
628.328	0.0153736
628.406	0.0153908
628.484	0.0154957
628.562	0.0153339
628.640	0.0151704
628.718	0.0152911
628.797	0.0152663
628.875	0.0154109
628.953	0.0153993
629.031	0.0153580
629.109	0.0153490
629.187	0.0154804
629.265	0.0153985
629.343	0.0152697
629.422	0.0153146
629.500	0.0153748
629.578	0.0154154
629.656	0.0153471
629.734	0.0152791
629.812	0.0153675
629.890	0.0153751
629.968	0.0152536
630.047	0.0153762
630.125	0.0153002
630.203	0.0153822
630.281	0.0152534
630.359	0.0152801
630.437	0.0152991
630.515	0.0152599
630.593	0.0153903
630.672	0.0153583
630.750	0.0153837
630.828	0.0152547
630.906	0.0152077
630.984	0.0153425
631.062	0.0153173
631.140	0.0152225
631.218	0.0155096
631.297	0.0152684
631.375	0.0151513
631.453	0.0152884
631.531	0.0152150
631.609	0.0152039
631.687	0.0153509
631.765	0.0153265
631.843	0.0154250
631.922	0.0153637
632.000	0.0151817
632.078	0.0152480
632.156	0.0153629
632.234	0.0152212
632.312	0.0152010
632.390	0.0152701
632.468	0.0154343
632.547	0.0154163
632.625	0.0152464
632.703	0.0152868
632.781	0.0152287
632.859	0.0153133
632.937	0.0152318
633.015	0.0152328
633.093	0.0153228
633.172	0.0152331
633.250	0.0152775
633.328	0.0151474
633.406	0.0152725
633.484	0.0152345
633.562	0.0154118
633.640	0.0154167
633.718	0.0153326
633.797	0.0154420
633.875	0.0153733
633.953	0.0153141
634.031	0.0152727
634.109	0.0152753
634.187	0.0153499
634.265	0.0152930
634.343	0.0152951
634.422	0.0152988
634.500	0.0153899
634.578	0.0152758
634.656	0.0153386
634.734	0.0153760
634.812	0.0153914
634.890	0.0154075
634.968	0.0153259
635.047	0.0152420
635.125	0.0153731
635.203	0.0153777
635.281	0.0154498
635.359	0.0151492
635.437	0.0152915
635.515	0.0153672
635.593	0.0153764
635.672	0.0153750
635.750	0.0153754
635.828	0.0152339
635.906	0.0153008
635.984	0.0154107
636.062	0.0154710
636.140	0.0154169
636.218	0.0153167
636.297	0.0153757
636.375	0.0152872
636.453	0.0153715
636.531	0.0153130
636.609	0.0151874
636.687	0.0152618
636.765	0.0154697
636.843	0.0153715
636.922	0.0153014
637.000	0.0153914
637.078	0.0153315
637.156	0.0152982
637.234	0.0152466
637.312	0.0152193
637.390	0.0152606
637.468	0.0153817
637.547	0.0151823
637.625	0.0153056
637.703	0.0153773
637.781	0.0152219
637.859	0.0154944
637.937	0.0153520
638.015	0.0154223
638.093	0.0152737
638.172	0.0152161
638.250	0.0152194
638.328	0.0151842
638.406	0.0152959
638.484	0.0152277
638.562	0.0153799
638.640	0.0153271
638.718	0.0154773
638.797	0.0152627
638.875	0.0151613
638.953	0.0152962
639.031	0.0153535
639.109	0.0152672
639.187	0.0152800
639.265	0.0152349
639.343	0.0152734
639.422	0.0152811
639.500	0.0152899
639.578	0.0152354
639.656	0.0152466
639.734	0.0152568
639.812	0.0153458
639.890	0.0153912
639.968	0.0154028
640.047	0.0153066
640.125	0.0152601
640.203	0.0153462
640.281	0.0154230
640.359	0.0152705
640.437	0.0152409
640.515	0.0153178
640.593	0.0152296
640.672	0.0152745
640.750	0.0152385
640.828	0.0154207
640.906	0.0153117
640.984	0.0152921
641.062	0.0153440
641.140	0.0152837
641.218	0.0153106
641.297	0.0153341
641.375	0.0153143
641.453	0.0153082
641.531	0.0153742
641.609	0.0153209
641.687	0.0152040
641.765	0.0154163
641.843	0.0151515
641.922	0.0152561
642.000	0.0154099
642.078	0.0153010
642.156	0.0153873
642.234	0.0153831
642.312	0.0152374
642.390	0.0152483
642.468	0.0153078
642.547	0.0153934
642.625	0.0152956
642.703	0.0151630
642.781	0.0152861
642.859	0.0152876
642.937	0.0153539
643.015	0.0152615
643.093	0.0153226
643.172	0.0153107
643.250	0.0153432
643.328	0.0152777
643.406	0.0152359
643.484	0.0153414
643.562	0.0152404
643.640	0.0153191
643.718	0.0153873
643.797	0.0152544
643.875	0.0153220
643.953	0.0153124
644.031	0.0152566
644.109	0.0151846
644.187	0.0152710
644.265	0.0153278
644.343	0.0153056
644.422	0.0152686
644.500	0.0153886
644.578	0.0153531
644.656	0.0153176
644.734	0.0152401
644.812	0.0154101
644.890	0.0153544
644.968	0.0152869
645.047	0.0153646
645.125	0.0152548
645.203	0.0153856
645.281	0.0154221
645.359	0.0154118
645.437	0.0152402
645.515	0.0153380
645.593	0.0153829
645.672	0.0154446
645.750	0.0153973
645.828	0.0153155
645.906	0.0154250
645.984	0.0153381
646.062	0.0153515
646.140	0.0153123
646.218	0.0154324
646.297	0.0153911
646.375	0.0154049
646.453	0.0152266
646.531	0.0153316
646.609	0.0153653
646.687	0.0153693
646.765	0.0153996
646.843	0.0152924
646.922	0.0152453
647.000	0.0153210
647.078	0.0153737
647.156	0.0153340
647.234	0.0153947
647.312	0.0154115
647.390	0.0153411
647.468	0.0153904
647.547	0.0153313
647.625	0.0153591
647.703	0.0152817
647.781	0.0154289
647.859	0.0154331
647.937	0.0154230
648.015	0.0154184
648.093	0.0153883
648.172	0.0152769
648.250	0.0152563
648.328	0.0153513
648.406	0.0154400
648.484	0.0152554
648.562	0.0154246
648.640	0.0152773
648.718	0.0153476
648.797	0.0153048
648.875	0.0151992
648.953	0.0153477
649.031	0.0153638
649.109	0.0152601
649.187	0.0153820
649.265	0.0151836
649.343	0.0151333
649.422	0.0152030
649.500	0.0152316
649.578	0.0152891
649.656	0.0152850
649.734	0.0153013
649.812	0.0153105
649.890	0.0154824
649.968	0.0153120
650.047	0.0153488
650.125	0.0153271
650.203	0.0152740
650.281	0.0152603
650.359	0.0153995
650.437	0.0154221
650.515	0.0152518
650.593	0.0153683
650.672	0.0152980
650.750	0.0153628
650.828	0.0153741
650.906	0.0153691
650.984	0.0154193
651.062	0.0153564
651.140	0.0154287
651.218	0.0154259
651.297	0.0152220
651.375	0.0153759
651.453	0.0153276
651.531	0.0155049
651.609	0.0154676
651.687	0.0152734
651.765	0.0151855
651.843	0.0153267
651.922	0.0154179
652.000	0.0153514
652.078	0.0154381
652.156	0.0153667
652.234	0.0152916
652.312	0.0153128
652.390	0.0153072
652.468	0.0154229
652.547	0.0153312
652.625	0.0153720
652.703	0.0154258
652.781	0.0153333
652.859	0.0153363
652.937	0.0152930
653.015	0.0153234
653.093	0.0153405
653.172	0.0153001
653.250	0.0153001
653.328	0.0153387
653.406	0.0155476
653.484	0.0153645
653.562	0.0154159
653.640	0.0151910
653.718	0.0153470
653.797	0.0151803
653.875	0.0154459
653.953	0.0153299
654.031	0.0152480
654.109	0.0151890
654.187	0.0153622
654.265	0.0154380
654.343	0.0153549
654.422	0.0152487
654.500	0.0152446
654.578	0.0152614
654.656	0.0153927
654.734	0.0154168
654.812	0.0153053
654.890	0.0152431
654.968	0.0153975
655.047	0.0153843
655.125	0.0152278
655.203	0.0153302
655.281	0.0152808
655.359	0.0153406
655.437	0.0154467
655.515	0.0153626
655.593	0.0153853
655.672	0.0155453
655.750	0.0153280
655.828	0.0153211
655.906	0.0152635
655.984	0.0153589
656.062	0.0152797
656.140	0.0154176
656.218	0.0152815
656.297	0.0153202
656.375	0.0152636
656.453	0.0153129
656.531	0.0153741
656.609	0.0154411
656.687	0.0153032
656.765	0.0151926
656.843	0.0152318
656.922	0.0153065
657.000	0.0153139
657.078	0.0153166
657.156	0.0153732
657.234	0.0152338
657.312	0.0153964
657.390	0.0153540
657.468	0.0153796
657.547	0.0154967
657.625	0.0153369
657.703	0.0153358
657.781	0.0153484
657.859	0.0153795
657.937	0.0154398
658.015	0.0154453
658.093	0.0152719
658.172	0.0153172
658.250	0.0152210
658.328	0.0152709
658.406	0.0152425
658.484	0.0153223
658.562	0.0154543
658.640	0.0154173
658.718	0.0152901
658.797	0.0153446
658.875	0.0153163
658.953	0.0153259
659.031	0.0152292
659.109	0.0152971
659.187	0.0151781
659.265	0.0152773
659.343	0.0153329
659.422	0.0153060
659.500	0.0152460
659.578	0.0152843
659.656	0.0152930
659.734	0.0153608
659.812	0.0152372
659.890	0.0153056
659.968	0.0153378
660.047	0.0153040
660.125	0.0152222
660.203	0.0152898
660.281	0.0152245
660.359	0.0153576
660.437	0.0153453
660.515	0.0152438
660.593	0.0152915
660.672	0.0153581
660.750	0.0153916
660.828	0.0151801
660.906	0.0152281
660.984	0.0153628
661.062	0.0154003
661.140	0.0152242
661.218	0.0152672
661.297	0.0154391
661.375	0.0153381
661.453	0.0153738
661.531	0.0152011
661.609	0.0154122
661.687	0.0154468
661.765	0.0153938
661.843	0.0153249
661.922	0.0153072
662.000	0.0152977
662.078	0.0153683
662.156	0.0153814
662.234	0.0153188
662.312	0.0153460
662.390	0.0152281
662.468	0.0152925
662.547	0.0152554
662.625	0.0152095
662.703	0.0153125
662.781	0.0153303
662.859	0.0153609
662.937	0.0153020
663.015	0.0154233
663.093	0.0153609
663.172	0.0152370
663.250	0.0153521
663.328	0.0153490
663.406	0.0153796
663.484	0.0152462
663.562	0.0154253
663.640	0.0151844
663.718	0.0152878
663.797	0.0153112
663.875	0.0153791
663.953	0.0153348
664.031	0.0154484
664.109	0.0152874
664.187	0.0152785
664.265	0.0154322
664.343	0.0153636
664.422	0.0153547
664.500	0.0153427
664.578	0.0153533
664.656	0.0153498
664.734	0.0153231
664.812	0.0153333
664.890	0.0154305
664.968	0.0152013
665.047	0.0151398
665.125	0.0153525
665.203	0.0153825
665.281	0.0152988
665.359	0.0153557
665.437	0.0152812
665.515	0.0153127
665.593	0.0152004
665.672	0.0153082
665.750	0.0152843
665.828	0.0154124
665.906	0.0153191
665.984	0.0152176
666.062	0.0152708
666.140	0.0153423
666.218	0.0153570
666.297	0.0153763
666.375	0.0154270
666.453	0.0153844
666.531	0.0153669
666.609	0.0153412
666.687	0.0154182
666.765	0.0153078
666.843	0.0152541
666.922	0.0154356
667.000	0.0153470
667.078	0.0152197
667.156	0.0153681
667.234	0.0153853
667.312	0.0153890
667.390	0.0153727
667.468	0.0153405
667.547	0.0153638
667.625	0.0152551
667.703	0.0153951
667.781	0.0154173
667.859	0.0152686
667.937	0.0154810
668.015	0.0154659
668.093	0.0152747
668.172	0.0151173
668.250	0.0152415
668.328	0.0153542
668.406	0.0153554
668.484	0.0152306
668.562	0.0152059
668.640	0.0151972
668.718	0.0153181
668.797	0.0153218
668.875	0.0152988
668.953	0.0154247
669.031	0.0154337
669.109	0.0153593
669.187	0.0153748
669.265	0.0154063
669.343	0.0153165
669.422	0.0154462
669.500	0.0153110
669.578	0.0153243
669.656	0.0152822
669.734	0.0154013
669.812	0.0152622
669.890	0.0154769
669.968	0.0154471
670.047	0.0153806
670.125	0.0152793
670.203	0.0153979
670.281	0.0153773
670.359	0.0152622
670.437	0.0153487
670.515	0.0152029
670.593	0.0153304
670.672	0.0153127
670.750	0.0152591
670.828	0.0153284
670.906	0.0153219
670.984	0.0153059
671.062	0.0153653
671.140	0.0154175
671.218	0.0153191
671.297	0.0152173
671.375	0.0153087
671.453	0.0152203
671.531	0.0152896
671.609	0.0152332
671.687	0.0153964
671.765	0.0153754
671.843	0.0153994
671.922	0.0153987
672.000	0.0153519
672.078	0.0152838
672.156	0.0153680
672.234	0.0153698
672.312	0.0153543
672.390	0.0154001
672.468	0.0151618
672.547	0.0153898
672.625	0.0154134
672.703	0.0152885
672.781	0.0154320
672.859	0.0153030
672.937	0.0153374
673.015	0.0152943
673.093	0.0152283
673.172	0.0152269
673.250	0.0152120
673.328	0.0153219
673.406	0.0151888
673.484	0.0153315
673.562	0.0153718
673.640	0.0153593
673.718	0.0151674
673.797	0.0151066
673.875	0.0153519
673.953	0.0152610
674.031	0.0151459
674.109	0.0153080
674.187	0.0153774
674.265	0.0152394
674.343	0.0152805
674.422	0.0153348
674.500	0.0153130
674.578	0.0152933
674.656	0.0154512
674.734	0.0152465
674.812	0.0154151
674.890	0.0154132
674.968	0.0154334
675.047	0.0153914
675.125	0.0153102
675.203	0.0155243
675.281	0.0153551
675.359	0.0153171
675.437	0.0153268
675.515	0.0154337
675.593	0.0153326
675.672	0.0153117
675.750	0.0152360
675.828	0.0153091
675.906	0.0152615
675.984	0.0151981
676.062	0.0151714
676.140	0.0151395
676.218	0.0152859
676.297	0.0152019
676.375	0.0153898
676.453	0.0152884
676.531	0.0152531
676.609	0.0152619
676.687	0.0152916
676.765	0.0153326
676.843	0.0152761
676.922	0.0152166
677.000	0.0153641
677.078	0.0152956
677.156	0.0153346
677.234	0.0154560
677.312	0.0154467
677.390	0.0152836
677.468	0.0154041
677.547	0.0154865
677.625	0.0153098
677.703	0.0153299
677.781	0.0155387
677.859	0.0153249
677.937	0.0153773
678.015	0.0154108
678.093	0.0153220
678.172	0.0151997
678.250	0.0153497
678.328	0.0152486
678.406	0.0152236
678.484	0.0154575
678.562	0.0155196
678.640	0.0152927
678.718	0.0152222
678.797	0.0151579
678.875	0.0152543
678.953	0.0152026
679.031	0.0152740
679.109	0.0152692
679.187	0.0153355
679.265	0.0152313
679.343	0.0153080
679.422	0.0151758
679.500	0.0152903
679.578	0.0152484
679.656	0.0153068
679.734	0.0153186
679.812	0.0152462
679.890	0.0152582
679.968	0.0153497
680.047	0.0152531
680.125	0.0153403
680.203	0.0153593
680.281	0.0152658
680.359	0.0153072
680.437	0.0154832
680.515	0.0153830
680.593	0.0153700
680.672	0.0152444
680.750	0.0153848
680.828	0.0153542
680.906	0.0153002
680.984	0.0153757
681.062	0.0153422
681.140	0.0153278
681.218	0.0152563
681.297	0.0154005
681.375	0.0153044
681.453	0.0153313
681.531	0.0153130
681.609	0.0153274
681.687	0.0152104
681.765	0.0151642
681.843	0.0153685
681.922	0.0153044
682.000	0.0152798
682.078	0.0153147
682.156	0.0152347
682.234	0.0152864
682.312	0.0152636
682.390	0.0152210
682.468	0.0151945
682.547	0.0152846
682.625	0.0153213
682.703	0.0152627
682.781	0.0152386
682.859	0.0151865
682.937	0.0152582
683.015	0.0153619
683.093	0.0153202
683.172	0.0152973
683.250	0.0153592
683.328	0.0153108
683.406	0.0154055
683.484	0.0153168
683.562	0.0152908
683.640	0.0152939
683.718	0.0152177
683.797	0.0153854
683.875	0.0153621
683.953	0.0152471
684.031	0.0152380
684.109	0.0154255
684.187	0.0153253
684.265	0.0152005
684.343	0.0152121
684.422	0.0152409
684.500	0.0151720
684.578	0.0154376
684.656	0.0152886
684.734	0.0151685
684.812	0.0155074
684.890	0.0152378
684.968	0.0152901
685.047	0.0153236
685.125	0.0152597
685.203	0.0153500
685.281	0.0153487
685.359	0.0154045
685.437	0.0152934
685.515	0.0151968
685.593	0.0153836
685.672	0.0153011
685.750	0.0152919
685.828	0.0154290
685.906	0.0153538
685.984	0.0152672
686.062	0.0152876
686.140	0.0153728
686.218	0.0153185
686.297	0.0153803
686.375	0.0152957
686.453	0.0154386
686.531	0.0153976
686.609	0.0153059
686.687	0.0152203
686.765	0.0153765
686.843	0.0152996
686.922	0.0153223
687.000	0.0152988
687.078	0.0153252
687.156	0.0153857
687.234	0.0153848
687.312	0.0153627
687.390	0.0152410
687.468	0.0152740
687.547	0.0152083
687.625	0.0150957
687.703	0.0153365
687.781	0.0154539
687.859	0.0152806
687.937	0.0152001
688.015	0.0152415
688.093	0.0153332
688.172	0.0152544
688.250	0.0153417
688.328	0.0153549
688.406	0.0152922
688.484	0.0152358
688.562	0.0152703
688.640	0.0152151
688.718	0.0153053
688.797	0.0152969
688.875	0.0152968
688.953	0.0153885
689.031	0.0153927
689.109	0.0153622
689.187	0.0154307
689.265	0.0153020
689.343	0.0153715
689.422	0.0153540
689.500	0.0151857
689.578	0.0153946
689.656	0.0153537
689.734	0.0151752
689.812	0.0152561
689.890	0.0153040
689.968	0.0153620
690.047	0.0152560
690.125	0.0152768
690.203	0.0152518
690.281	0.0152757
690.359	0.0153300
690.437	0.0151696
690.515	0.0154424
690.593	0.0152484
690.672	0.0153207
690.750	0.0153098
690.828	0.0152692
690.906	0.0153593
690.984	0.0152603
691.062	0.0152483
691.140	0.0153914
691.218	0.0152676
691.297	0.0152625
691.375	0.0155244
691.453	0.0153263
691.531	0.0152953
691.609	0.0151710
691.687	0.0153045
691.765	0.0154152
691.843	0.0152554
691.922	0.0153561
692.000	0.0151987
692.078	0.0152639
692.156	0.0153986
692.234	0.0153445
692.312	0.0153532
692.390	0.0152753
692.468	0.0152840
692.547	0.0152859
692.625	0.0153553
692.703	0.0153960
692.781	0.0152376
692.859	0.0153675
692.937	0.0153837
693.015	0.0152475
693.093	0.0152828
693.172	0.0152745
693.250	0.0152427
693.328	0.0152121
693.406	0.0153194
693.484	0.0153661
693.562	0.0152744
693.640	0.0154005
693.718	0.0153138
693.797	0.0153809
693.875	0.0154328
693.953	0.0152489
694.031	0.0152940
694.109	0.0154747
694.187	0.0151488
694.265	0.0151699
694.343	0.0153136
694.422	0.0154659
694.500	0.0152805
694.578	0.0152896
694.656	0.0153856
694.734	0.0153696
694.812	0.0152494
694.890	0.0153339
694.968	0.0153130
695.047	0.0152824
695.125	0.0151579
695.203	0.0153751
695.281	0.0152203
695.359	0.0153209
695.437	0.0153747
695.515	0.0152980
695.593	0.0153258
695.672	0.0153355
695.750	0.0153916
695.828	0.0152568
695.906	0.0152463
695.984	0.0152925
696.062	0.0153355
696.140	0.0152589
696.218	0.0153211
696.297	0.0151998
696.375	0.0153120
696.453	0.0153371
696.531	0.0152951
696.609	0.0154140
696.687	0.0152818
696.765	0.0153728
696.843	0.0152578
696.922	0.0153286
697.000	0.0153995
697.078	0.0153835
697.156	0.0152273
697.234	0.0153219
697.312	0.0152686
697.390	0.0154312
697.468	0.0152579
697.547	0.0151549
697.625	0.0152790
697.703	0.0154704
697.781	0.0153451
697.859	0.0151934
697.937	0.0153063
698.015	0.0154189
698.093	0.0153060
698.172	0.0151834
698.250	0.0153799
698.328	0.0154367
698.406	0.0153449
698.484	0.0153508
698.562	0.0153044
698.640	0.0152573
698.718	0.0152806
698.797	0.0155377
698.875	0.0154152
698.953	0.0152895
699.031	0.0152859
699.109	0.0153437
699.187	0.0152773
699.265	0.0154607
699.343	0.0153442
699.422	0.0153144
699.500	0.0154076
699.578	0.0153133
699.656	0.0152009
699.734	0.0154205
699.812	0.0154051
699.890	0.0153999
699.968	0.0152209
700.047	0.0154269
700.125	0.0153834
700.203	0.0153360
700.281	0.0153375
700.359	0.0153652
700.437	0.0152908
700.515	0.0152699
700.593	0.0153810
700.672	0.0154499
700.750	0.0152112
700.828	0.0153159
700.906	0.0153321
700.984	0.0153717
701.062	0.0151629
701.140	0.0153177
701.218	0.0153113
701.297	0.0154311
701.375	0.0153787
701.453	0.0152682
701.531	0.0153663
701.609	0.0153318
701.687	0.0152105
701.765	0.0154253
701.843	0.0152161
701.922	0.0152462
702.000	0.0152730
702.078	0.0153777
702.156	0.0151564
702.234	0.0154529
702.312	0.0155493
702.390	0.0152724
702.468	0.0152993
702.547	0.0152492
702.625	0.0153519
702.703	0.0152644
702.781	0.0153167
702.859	0.0153394
702.937	0.0152611
703.015	0.0152489
703.093	0.0152506
703.172	0.0153635
703.250	0.0153551
703.328	0.0152193
703.406	0.0152779
703.484	0.0153825
703.562	0.0152834
703.640	0.0152155
703.718	0.0152032
703.797	0.0153071
703.875	0.0153532
703.953	0.0152992
704.031	0.0152961
704.109	0.0152849
704.187	0.0152689
704.265	0.0153567
704.343	0.0152976
704.422	0.0153036
704.500	0.0153953
704.578	0.0153639
704.656	0.0153289
704.734	0.0152198
704.812	0.0152149
704.890	0.0152771
704.968	0.0152267
705.047	0.0153936
705.125	0.0153355
705.203	0.0151640
705.281	0.0152744
705.359	0.0153160
705.437	0.0153022
705.515	0.0153955
705.593	0.0152470
705.672	0.0152076
705.750	0.0152364
705.828	0.0153238
705.906	0.0153639
705.984	0.0153394
706.062	0.0152284
706.140	0.0151978
706.218	0.0151727
706.297	0.0153283
706.375	0.0153035
706.453	0.0153101
706.531	0.0153097
706.609	0.0153261
706.687	0.0152934
706.765	0.0153040
706.843	0.0152615
706.922	0.0153172
707.000	0.0153768
707.078	0.0153115
707.156	0.0152383
707.234	0.0153574
707.312	0.0153037
707.390	0.0152481
707.468	0.0153813
707.547	0.0152634
707.625	0.0152745
707.703	0.0154177
707.781	0.0153976
707.859	0.0153461
707.937	0.0152731
708.015	0.0151987
708.093	0.0153456
708.172	0.0153955
708.250	0.0154211
708.328	0.0154623
708.406	0.0153339
708.484	0.0154369
708.562	0.0151807
708.640	0.0153070
708.718	0.0153316
708.797	0.0153230
708.875	0.0152031
708.953	0.0153915
709.031	0.0152894
709.109	0.0154296
709.187	0.0154335
709.265	0.0153079
709.343	0.0153865
709.422	0.0153866
709.500	0.0152749
709.578	0.0153259
709.656	0.0153684
709.734	0.0154415
709.812	0.0153001
709.890	0.0152511
709.968	0.0153571
710.047	0.0154320
710.125	0.0153784
710.203	0.0152853
710.281	0.0153918
710.359	0.0153674
710.437	0.0152225
710.515	0.0151594
710.593	0.0154257
710.672	0.0152329
710.750	0.0152937
710.828	0.0153790
710.906	0.0153751
710.984	0.0153169
711.062	0.0154269
711.140	0.0153255
711.218	0.0153259
711.297	0.0152551
711.375	0.0153109
711.453	0.0151840
711.531	0.0153511
711.609	0.0152966
711.687	0.0153880
711.765	0.0153869
711.843	0.0153838
711.922	0.0152594
712.000	0.0153220
712.078	0.0153796
712.156	0.0154611
712.234	0.0153163
712.312	0.0154079
712.390	0.0153468
712.468	0.0152600
712.547	0.0153850
712.625	0.0154287
712.703	0.0152186
712.781	0.0153448
712.859	0.0153306
712.937	0.0152402
713.015	0.0152158
713.093	0.0153853
713.172	0.0152287
713.250	0.0153072
713.328	0.0152724
713.406	0.0153038
713.484	0.0152451
713.562	0.0153249
713.640	0.0151788
713.718	0.0153566
713.797	0.0153025
713.875	0.0153174
713.953	0.0152608
714.031	0.0152678
714.109	0.0152492
714.187	0.0153985
714.265	0.0155185
714.343	0.0151981
714.422	0.0153850
714.500	0.0153790
714.578	0.0152934
714.656	0.0153667
714.734	0.0152885
714.812	0.0153878
714.890	0.0152052
714.968	0.0153328
715.047	0.0153524
715.125	0.0153530
715.203	0.0153282
715.281	0.0153629
715.359	0.0153284
715.437	0.0153075
715.515	0.0151962
715.593	0.0153812
715.672	0.0154479
715.750	0.0152097
715.828	0.0152424
715.906	0.0153180
715.984	0.0153923
716.062	0.0152802
716.140	0.0153492
716.218	0.0151737
716.297	0.0152736
716.375	0.0152287
716.453	0.0152793
716.531	0.0153061
716.609	0.0152754
716.687	0.0152628
716.765	0.0151834
716.843	0.0153205
716.922	0.0154845
717.000	0.0152663
717.078	0.0152397
717.156	0.0152654
717.234	0.0153466
717.312	0.0152374
717.390	0.0152929
717.468	0.0153681
717.547	0.0151768
717.625	0.0152472
717.703	0.0152698
717.781	0.0152928
717.859	0.0153138
717.937	0.0152456
718.015	0.0153098
718.093	0.0153101
718.172	0.0153385
718.250	0.0151644
718.328	0.0153220
718.406	0.0152306
718.484	0.0154016
718.562	0.0153926
718.640	0.0154614
718.718	0.0153448
718.797	0.0153825
718.875	0.0152768
718.953	0.0152814
719.031	0.0151558
719.109	0.0152270
719.187	0.0152429
719.265	0.0153160
719.343	0.0153259
719.422	0.0152487
719.500	0.0154124
719.578	0.0152815
719.656	0.0152007
719.734	0.0153651
719.812	0.0152042
719.890	0.0153111
719.968	0.0151984
720.047	0.0151427
720.125	0.0152815
720.203	0.0153271
720.281	0.0152319
720.359	0.0152322
720.437	0.0152514
720.515	0.0154456
720.593	0.0153132
720.672	0.0152074
720.750	0.0152674
720.828	0.0152677
720.906	0.0153347
720.984	0.0152396
721.062	0.0153576
721.140	0.0153507
721.218	0.0153592
721.297	0.0153333
721.375	0.0152995
721.453	0.0153722
721.531	0.0153015
721.609	0.0152128
721.687	0.0153519
721.765	0.0153851
721.843	0.0153373
721.922	0.0153415
722.000	0.0152943
722.078	0.0152965
722.156	0.0152782
722.234	0.0152767
722.312	0.0152189
722.390	0.0152763
722.468	0.0153686
722.547	0.0152909
722.625	0.0152110
722.703	0.0153500
722.781	0.0153111
722.859	0.0154019
722.937	0.0152673
723.015	0.0153264
723.093	0.0154326
723.172	0.0153091
723.250	0.0152799
723.328	0.0155093
723.406	0.0153760
723.484	0.0153454
723.562	0.0152151
723.640	0.0153143
723.718	0.0153365
723.797	0.0153017
723.875	0.0154182
723.953	0.0152560
724.031	0.0153103
724.109	0.0153177
724.187	0.0152728
724.265	0.0153781
724.343	0.0154103
724.422	0.0153843
724.500	0.0153821
724.578	0.0153193
724.656	0.0153149
724.734	0.0154103
724.812	0.0153942
724.890	0.0152460
724.968	0.0153542
725.047	0.0154215
725.125	0.0154806
725.203	0.0153452
725.281	0.0154745
725.359	0.0152739
725.437	0.0152724
725.515	0.0153690
725.593	0.0152846
725.672	0.0152613
725.750	0.0153667
725.828	0.0154199
725.906	0.0153374
725.984	0.0153576
726.062	0.0152716
726.140	0.0153699
726.218	0.0152920
726.297	0.0153481
726.375	0.0154038
726.453	0.0153109
726.531	0.0153090
726.609	0.0154427
726.687	0.0152961
726.765	0.0154049
726.843	0.0153281
726.922	0.0153887
727.000	0.0152645
727.078	0.0152168
727.156	0.0154408
727.234	0.0153809
727.312	0.0153606
727.390	0.0152811
727.468	0.0152597
727.547	0.0152974
727.625	0.0153793
727.703	0.0153645
727.781	0.0153073
727.859	0.0152289
727.937	0.0152050
728.015	0.0153750
728.093	0.0155106
728.172	0.0153065
728.250	0.0153297
728.328	0.0153413
728.406	0.0153384
728.484	0.0153958
728.562	0.0153584
728.640	0.0153596
728.718	0.0152882
728.797	0.0153332
728.875	0.0153227
728.953	0.0154144
729.031	0.0154230
729.109	0.0153535
729.187	0.0152986
729.265	0.0153765
729.343	0.0152666
729.422	0.0152521
729.500	0.0152818
729.578	0.0152607
729.656	0.0152413
729.734	0.0153386
729.812	0.0153281
729.890	0.0153168
729.968	0.0155302
730.047	0.0152647
730.125	0.0152885
730.203	0.0153532
730.281	0.0153255
730.359	0.0152868
730.437	0.0153452
730.515	0.0152213
730.593	0.0152780
730.672	0.0153020
730.750	0.0153043
730.828	0.0152072
730.906	0.0151914
730.984	0.0152772
731.062	0.0151770
731.140	0.0151927
731.218	0.0152694
731.297	0.0154713
731.375	0.0152001
731.453	0.0152760
731.531	0.0153634
731.609	0.0153233
731.687	0.0153210
731.765	0.0153887
731.843	0.0153556
731.922	0.0152654
732.000	0.0153038
732.078	0.0153757
732.156	0.0153217
732.234	0.0152770
732.312	0.0153393
732.390	0.0153993
732.468	0.0152665
732.547	0.0152653
732.625	0.0152476
732.703	0.0151718
732.781	0.0153381
732.859	0.0153477
732.937	0.0153425
733.015	0.0152319
733.093	0.0152857
733.172	0.0153189
733.250	0.0150927
733.328	0.0151058
733.406	0.0153002
733.484	0.0153815
733.562	0.0153429
733.640	0.0152441
733.718	0.0152757
733.797	0.0151202
733.875	0.0153004
733.953	0.0153060
734.031	0.0153490
734.109	0.0153149
734.187	0.0153070
734.265	0.0152100
734.343	0.0152055
734.422	0.0153105
734.500	0.0153218
734.578	0.0152598
734.656	0.0152698
734.734	0.0153887
734.812	0.0151997
734.890	0.0152551
734.968	0.0153190
735.047	0.0152766
735.125	0.0152044
735.203	0.0151929
735.281	0.0151801
735.359	0.0153287
735.437	0.0152321
735.515	0.0151516
735.593	0.0151465
735.672	0.0153846
735.750	0.0152499
735.828	0.0151863
735.906	0.0153260
735.984	0.0151188
736.062	0.0152030
736.140	0.0151909
736.218	0.0153073
736.297	0.0152991
736.375	0.0152114
736.453	0.0151711
736.531	0.0153025
736.609	0.0152782
736.687	0.0152514
736.765	0.0154518
736.843	0.0153121
736.922	0.0152693
737.000	0.0154142
737.078	0.0152856
737.156	0.0153531
737.234	0.0153653
737.312	0.0152945
737.390	0.0153780
737.468	0.0153087
737.547	0.0152534
737.625	0.0154063
737.703	0.0152594
737.781	0.0151646
737.859	0.0151249
737.937	0.0152397
738.015	0.0152831
738.093	0.0152783
738.172	0.0151346
738.250	0.0152515
738.328	0.0153530
738.406	0.0152622
738.484	0.0151784
738.562	0.0153004
738.640	0.0154099
738.718	0.0153300
738.797	0.0152942
738.875	0.0152801
738.953	0.0153556
739.031	0.0154063
739.109	0.0153075
739.187	0.0152963
739.265	0.0153457
739.343	0.0153882
739.422	0.0153431
739.500	0.0153018
739.578	0.0152981
739.656	0.0153107
739.734	0.0152993
739.812	0.0151869
739.890	0.0154069
739.968	0.0153583
740.047	0.0152170
740.125	0.0153960
740.203	0.0153342
740.281	0.0154003
740.359	0.0153009
740.437	0.0153945
740.515	0.0153878
740.593	0.0152596
740.672	0.0153102
740.750	0.0153346
740.828	0.0153921
740.906	0.0154490
740.984	0.0153182
741.062	0.0154374
741.140	0.0155082
741.218	0.0153981
741.297	0.0153780
741.375	0.0152210
741.453	0.0154206
741.531	0.0154865
741.609	0.0152821
741.687	0.0151309
741.765	0.0150283
741.843	0.0151787
741.922	0.0150362
742.000	0.0150804
742.078	0.0150610
742.156	0.0150289
742.234	0.0150540
742.312	0.0150849
742.390	0.0151842
742.468	0.0152688
742.547	0.0152946
742.625	0.0152996
742.703	0.0155470
742.781	0.0155038
742.859	0.0155602
742.937	0.0155824
743.015	0.0155338
743.093	0.0156535
743.172	0.0157494
743.250	0.0158019
743.328	0.0157247
743.406	0.0157194
743.484	0.0156483
743.562	0.0155366
743.640	0.0155943
743.718	0.0155592
743.797	0.0153967
743.875	0.0152674
743.953	0.0151758
744.031	0.0150240
744.109	0.0148038
744.187	0.0147843
744.265	0.0145882
744.343	0.0145625
744.422	0.0142139
744.500	0.0141131
744.578	0.0140317
744.656	0.0141133
744.734	0.0138425
744.812	0.0139243
744.890	0.0140656
744.968	0.0143449
745.047	0.0147473
745.125	0.0150785
745.203	0.0154473
745.281	0.0158363
745.359	0.0161182
745.437	0.0165007
745.515	0.0167250
745.593	0.0169878
745.672	0.0172427
745.750	0.0176262
745.828	0.0176839
745.906	0.0175720
745.984	0.0177937
746.062	0.0176779
746.140	0.0176835
746.218	0.0174453
746.297	0.0171192
746.375	0.0168256
746.453	0.0164656
746.531	0.0158650
746.609	0.0151450
746.687	0.0142929
746.765	0.0134695
746.843	0.0125645
746.922	0.0118791
747.000	0.0112957
747.078	0.0108439
747.156	0.0105077
747.234	0.0106977
747.312	0.0108545
747.390	0.0111348
747.468	0.0113335
747.547	0.0118709
747.625	0.0124771
747.703	0.0130319
747.781	0.0136169
747.859	0.0144319
747.937	0.0151785
748.015	0.0161108
748.093	0.0170306
748.172	0.0179607
748.250	0.0188693
748.328	0.0196519
748.406	0.0205704
748.484	0.0210490
748.562	0.0213946
748.640	0.0218941
748.718	0.0217675
748.797	0.0215206
748.875	0.0210040
748.953	0.0203659
749.031	0.0196697
749.109	0.0186504
749.187	0.0176385
749.265	0.0165089
749.343	0.0154486
749.422	0.0143504
749.500	0.0132417
749.578	0.0123972
749.656	0.0113861
749.734	0.0104585
749.812	0.00968048
749.890	0.00903854
749.968	0.00848236
750.047	0.00809822
750.125	0.00787560
750.203	0.00763840
750.281	0.00784264
750.359	0.00833031
750.437	0.00911095
750.515	0.00977966
750.593	0.0105589
750.672	0.0119133
750.750	0.0131381
750.828	0.0143243
750.906	0.0156567
750.984	0.0171078
751.062	0.0185439
751.140	0.0197572
751.218	0.0208302
751.297	0.0221437
751.375	0.0230436
751.453	0.0237978
751.531	0.0243113
751.609	0.0244594
751.687	0.0245395
751.765	0.0242423
751.843	0.0236660
751.922	0.0227297
752.000	0.0215379
752.078	0.0204170
752.156	0.0190721
752.234	0.0173486
752.312	0.0158855
752.390	0.0144249
752.468	0.0129384
752.547	0.0115116
752.625	0.0102931
752.703	0.00895210
752.781	0.00784386
752.859	0.00689331
752.937	0.00611618
753.015	0.00584846
753.093	0.00557365
753.172	0.00569588
753.250	0.00624229
753.328	0.00723770
753.406	0.00841934
753.484	0.00991364
753.562	0.0114731
753.640	0.0134347
753.718	0.0152115
753.797	0.0168814
753.875	0.0186941
753.953	0.0200312
754.031	0.0215162
754.109	0.0225518
754.187	0.0232552
754.265	0.0238281
754.343	0.0240250
754.422	0.0238754
754.500	0.0235782
754.578	0.0233068
754.656	0.0227316
754.734	0.0215397
754.812	0.0202460
754.890	0.0187840
754.968	0.0171759
755.047	0.0156005
755.125	0.0139191
755.203	0.0125281
755.281	0.0113599
755.359	0.0100684
755.437	0.00919380
755.515	0.00842705
755.593	0.00810814
755.672	0.00766602
755.750	0.00763588
755.828	0.00765335
755.906	0.00785393
755.984	0.00846100
756.062	0.00912971
756.140	0.00990166
756.218	0.0109138
756.297	0.0122296
756.375	0.0134332
756.453	0.0146671
756.531	0.0161688
756.609	0.0176602
756.687	0.0189866
756.765	0.0202387
756.843	0.0214158
756.922	0.0225605
757.000	0.0233013
757.078	0.0241266
757.156	0.0247449
757.234	0.0247599
757.312	0.0246954
757.390	0.0243166
757.468	0.0237238
757.547	0.0225072
757.625	0.0214317
757.703	0.0199355
757.781	0.0184185
757.859	0.0167187
757.937	0.0147813
758.015	0.0130123
758.093	0.0113501
758.172	0.00961792
758.250	0.00826050
758.328	0.00694397
758.406	0.00576683
758.484	0.00513847
758.562	0.00473511
758.640	0.00441460
758.718	0.00456970
758.797	0.00496346
758.875	0.00563965
758.953	0.00673409
759.031	0.00797318
759.109	0.00950592
759.187	0.0113597
759.265	0.0134193
759.343	0.0152063
759.422	0.0170301
759.500	0.0188374
759.578	0.0203896
759.656	0.0216354
759.734	0.0229383
759.812	0.0238148
759.890	0.0243295
759.968	0.0246490
760.047	0.0248752
760.125	0.0247482
760.203	0.0245339
760.281	0.0238663
760.359	0.0227395
760.437	0.0217271
760.515	0.0204097
760.593	0.0189960
760.672	0.0175678
760.750	0.0160892
760.828	0.0145585
760.906	0.0132739
760.984	0.0121893
761.062	0.0111349
761.140	0.0103696
761.218	0.00964737
761.297	0.00934914
761.375	0.00908264
761.453	0.00897484
761.531	0.00890930
761.609	0.00900856
761.687	0.00919556
761.765	0.00992706
761.843	0.0102448
761.922	0.0109616
762.000	0.0118197
762.078	0.0125945
762.156	0.0136107
762.234	0.0145074
762.312	0.0153990
762.390	0.0162016
762.468	0.0170570
762.547	0.0177647
762.625	0.0182847
762.703	0.0189224
762.781	0.0193481
762.859	0.0196381
762.937	0.0198317
763.015	0.0199547
763.093	0.0199815
763.172	0.0197212
763.250	0.0194610
763.328	0.0190717
763.406	0.0183490
763.484	0.0175970
763.562	0.0167770
763.640	0.0159785
763.718	0.0151253
763.797	0.0142420
763.875	0.0134152
763.953	0.0126928
764.031	0.0121323
764.109	0.0116562
764.187	0.0112505
764.265	0.0108697
764.343	0.0108606
764.422	0.0108138
764.500	0.0109412
764.578	0.0111950
764.656	0.0116864
764.734	0.0121757
764.812	0.0128240
764.890	0.0136045
764.968	0.0144392
765.047	0.0154249
765.125	0.0161326
765.203	0.0169543
765.281	0.0177135
765.359	0.0184506
765.437	0.0190319
765.515	0.0193898
765.593	0.0198264
765.672	0.0201500
765.750	0.0201474
765.828	0.0198828
765.906	0.0197532
765.984	0.0195508
766.062	0.0190038
766.140	0.0183890
766.218	0.0179056
766.297	0.0170959
766.375	0.0161943
766.453	0.0154658
766.531	0.0148452
766.609	0.0142496
766.687	0.0135204
766.765	0.0130777
766.843	0.0125848
766.922	0.0121455
767.000	0.0120086
767.078	0.0117396
767.156	0.0117951
767.234	0.0118013
767.312	0.0118966
767.390	0.0121380
767.468	0.0122934
767.547	0.0128297
767.625	0.0132440
767.703	0.0136768
767.781	0.0141992
767.859	0.0147632
767.937	0.0153378
768.015	0.0157277
768.093	0.0160438
768.172	0.0162443
768.250	0.0166611
768.328	0.0168274
768.406	0.0169328
768.484	0.0170422
768.562	0.0171677
768.640	0.0171248
768.718	0.0169804
768.797	0.0169876
768.875	0.0167321
768.953	0.0165192
769.031	0.0162112
769.109	0.0160509
769.187	0.0156866
769.265	0.0154888
769.343	0.0153434
769.422	0.0153141
769.500	0.0150482
769.578	0.0147223
769.656	0.0147710
769.734	0.0146894
769.812	0.0145300
769.890	0.0142620
769.968	0.0141961
770.047	0.0141795
770.125	0.0141998
770.203	0.0141876
770.281	0.0143188
770.359	0.0145274
770.437	0.0145331
770.515	0.0146770
770.593	0.0150142
770.672	0.0151763
770.750	0.0153273
770.828	0.0155709
770.906	0.0156107
770.984	0.0157274
771.062	0.0158892
771.140	0.0161731
771.218	0.0161405
771.297	0.0162379
771.375	0.0163188
771.453	0.0164833
771.531	0.0165252
771.609	0.0166490
771.687	0.0164674
771.765	0.0163904
771.843	0.0165067
771.922	0.0165607
772.000	0.0163843
772.078	0.0160325
772.156	0.0158507
772.234	0.0157632
772.312	0.0153827
772.390	0.0153501
772.468	0.0150999
772.547	0.0146874
772.625	0.0145559
772.703	0.0143006
772.781	0.0140766
772.859	0.0139278
772.937	0.0139027
773.015	0.0137717
773.093	0.0136622
773.172	0.0137785
773.250	0.0138464
773.328	0.0138855
773.406	0.0140562
773.484	0.0143256
773.562	0.0143906
773.640	0.0145298
773.718	0.0148972
773.797	0.0148919
773.875	0.0151136
773.953	0.0154354
774.031	0.0155439
774.109	0.0157851
774.187	0.0160073
774.265	0.0161348
774.343	0.0160657
774.422	0.0160782
774.500	0.0162982
774.578	0.0161627
774.656	0.0160244
774.734	0.0159092
774.812	0.0159787
774.890	0.0156934
774.968	0.0154994
775.047	0.0154230
775.125	0.0151875
775.203	0.0151506
775.281	0.0149883
775.359	0.0148700
775.437	0.0147523
775.515	0.0146501
775.593	0.0146866
775.672	0.0146993
775.750	0.0147124
775.828	0.0148270
775.906	0.0151466
775.984	0.0152464
776.062	0.0155087
776.140	0.0156868
776.218	0.0160819
776.297	0.0162807
776.375	0.0164526
776.453	0.0164384
776.531	0.0166333
776.609	0.0167142
776.687	0.0166685
776.765	0.0166457
776.843	0.0165421
776.922	0.0164916
777.000	0.0162968
777.078	0.0159557
777.156	0.0157867
777.234	0.0156646
777.312	0.0154691
777.390	0.0153029
777.468	0.0151447
777.547	0.0149719
777.625	0.0149188
777.703	0.0147569
777.781	0.0146516
777.859	0.0146821
777.937	0.0145099
778.015	0.0147633
778.093	0.0147480
778.172	0.0147382
778.250	0.0148646
778.328	0.0149326
778.406	0.0150124
778.484	0.0149785
778.562	0.0147819
778.640	0.0149343
778.718	0.0148708
778.797	0.0146175
778.875	0.0147179
778.953	0.0146786
779.031	0.0146812
779.109	0.0146255
779.187	0.0149205
779.265	0.0147593
779.343	0.0148242
779.422	0.0150325
779.500	0.0151554
779.578	0.0153214
779.656	0.0155624
779.734	0.0157386
779.812	0.0159075
779.890	0.0159740
779.968	0.0161926
780.047	0.0161189
780.125	0.0160126
780.203	0.0160164
780.281	0.0160050
780.359	0.0158325
780.437	0.0157087
780.515	0.0155466
780.593	0.0153786
780.672	0.0152723
780.750	0.0150327
780.828	0.0149287
780.906	0.0146941
780.984	0.0147242
781.062	0.0144947
781.140	0.0145759
781.218	0.0146935
781.297	0.0148026
781.375	0.0150044
781.453	0.0152036
781.531	0.0152716
781.609	0.0155373
781.687	0.0155824
781.765	0.0156962
781.843	0.0159126
781.922	0.0160579
782.000	0.0159830
782.078	0.0158794
782.156	0.0160529
782.234	0.0158794
782.312	0.0158711
782.390	0.0158900
782.468	0.0156239
782.547	0.0155939
782.625	0.0155193
782.703	0.0154769
782.781	0.0153920
782.859	0.0152789
782.937	0.0152715
783.015	0.0153619
783.093	0.0153784
783.172	0.0151267
783.250	0.0152430
783.328	0.0153175
783.406	0.0153890
783.484	0.0153162
783.562	0.0151805
783.640	0.0151557
783.718	0.0150499
783.797	0.0151402
783.875	0.0150391
783.953	0.0150627
784.031	0.0150573
784.109	0.0148019
784.187	0.0148382
784.265	0.0149193
784.343	0.0149482
784.422	0.0149155
784.500	0.0149072
784.578	0.0148911
784.656	0.0150571
784.734	0.0150823
784.812	0.0150755
784.890	0.0151186
784.968	0.0152190
785.047	0.0151947
785.125	0.0153744
785.203	0.0153159
785.281	0.0152956
785.359	0.0154402
785.437	0.0152311
785.515	0.0153872
785.593	0.0152552
785.672	0.0152501
785.750	0.0151314
785.828	0.0150092
785.906	0.0150146
785.984	0.0149626
786.062	0.0148161
786.140	0.0149744
786.218	0.0147536
786.297	0.0148389
786.375	0.0149525
786.453	0.0150104
786.531	0.0152366
786.609	0.0151839
786.687	0.0154700
786.765	0.0154554
786.843	0.0156911
786.922	0.0158031
787.000	0.0159306
787.078	0.0159418
787.156	0.0159007
787.234	0.0158424
787.312	0.0159440
787.390	0.0158417
787.468	0.0157738
787.547	0.0156968
787.625	0.0158352
787.703	0.0156080
787.781	0.0156498
787.859	0.0156060
787.937	0.0154391
788.015	0.0155715
788.093	0.0154846
788.172	0.0154657
788.250	0.0157020
788.328	0.0155702
788.406	0.0155444
788.484	0.0154794
788.562	0.0155167
788.640	0.0153926
788.718	0.0152783
788.797	0.0153759
788.875	0.0152930
788.953	0.0152402
789.031	0.0152181
789.109	0.0151847
789.187	0.0150788
789.265	0.0150503
789.343	0.0149514
789.422	0.0148317
789.500	0.0147239
789.578	0.0149196
789.656	0.0148065
789.734	0.0148106
789.812	0.0148737
789.890	0.0148837
789.968	0.0148333
790.047	0.0150427
790.125	0.0149695
790.203	0.0151276
790.281	0.0152695
790.359	0.0152015
790.437	0.0154098
790.515	0.0153818
790.593	0.0155059
790.672	0.0153391
790.750	0.0153908
790.828	0.0155681
790.906	0.0154867
790.984	0.0153905
791.062	0.0153829
791.140	0.0154245
791.218	0.0151476
791.297	0.0152013
791.375	0.0151930
791.453	0.0149937
791.531	0.0152101
791.609	0.0151962
791.687	0.0151811
791.765	0.0153619
791.843	0.0151558
791.922	0.0155607
792.000	0.0155195
792.078	0.0156159
792.156	0.0155153
792.234	0.0155972
792.312	0.0156402
792.390	0.0156612
792.468	0.0157547
792.547	0.0157781
792.625	0.0157189
792.703	0.0158250
792.781	0.0157310
792.859	0.0157395
792.937	0.0154936
793.015	0.0155315
793.093	0.0153399
793.172	0.0153786
793.250	0.0152763
793.328	0.0152512
793.406	0.0151267
793.484	0.0152021
793.562	0.0151612
793.640	0.0151709
793.718	0.0152072
793.797	0.0151096
793.875	0.0149965
793.953	0.0150306
794.031	0.0151989
794.109	0.0151983
794.187	0.0152557
794.265	0.0151859
794.343	0.0154292
794.422	0.0153905
794.500	0.0154513
794.578	0.0154378
794.656	0.0154836
794.734	0.0154780
794.812	0.0154101
794.890	0.0153532
794.968	0.0154739
795.047	0.0155110
795.125	0.0154590
795.203	0.0153127
795.281	0.0152617
795.359	0.0153772
795.437	0.0153270
795.515	0.0152666
795.593	0.0153111
795.672	0.0151872
795.750	0.0152512
795.828	0.0153318
795.906	0.0151226
795.984	0.0151134
796.062	0.0151706
796.140	0.0151409
796.218	0.0150748
796.297	0.0151492
796.375	0.0151233
796.453	0.0151556
796.531	0.0152792
796.609	0.0150128
796.687	0.0150502
796.765	0.0151964
796.843	0.0150584
796.922	0.0151923
797.000	0.0151144
797.078	0.0151476
797.156	0.0150928
797.234	0.0150445
797.312	0.0152951
797.390	0.0153225
797.468	0.0151466
797.547	0.0152711
797.625	0.0154143
797.703	0.0154014
797.781	0.0155014
797.859	0.0154590
797.937	0.0154837
798.015	0.0155541
798.093	0.0155609
798.172	0.0154355
798.250	0.0155882
798.328	0.0154383
798.406	0.0154823
798.484	0.0153424
798.562	0.0153134
798.640	0.0153889
798.718	0.0153931
798.797	0.0152824
798.875	0.0153129
798.953	0.0150239
799.031	0.0150526
799.109	0.0150455
799.187	0.0149391
799.265	0.0150526
799.343	0.0149516
799.422	0.0150340
799.500	0.0150833
799.578	0.0151096
799.656	0.0153558
799.734	0.0153221
799.812	0.0152904
799.890	0.0154076
799.968	0.0155004
800.047	0.0154345
800.125	0.0154977
800.203	0.0155972
800.281	0.0156040
800.359	0.0156102
800.437	0.0156152
800.515	0.0157172
800.593	0.0157159
800.672	0.0156384
800.750	0.0156411
800.828	0.0156090
800.906	0.0156026
800.984	0.0156461
801.062	0.0155645
801.140	0.0154309
801.218	0.0153230
801.297	0.0154376
801.375	0.0152795
801.453	0.0152376
801.531	0.0152923
801.609	0.0153468
801.687	0.0152402
801.765	0.0151511
801.843	0.0152400
801.922	0.0151377
802.000	0.0150992
802.078	0.0150639
802.156	0.0151713
802.234	0.0150681
802.312	0.0149844
802.390	0.0149819
802.468	0.0152367
802.547	0.0152026
802.625	0.0151418
802.703	0.0151119
802.781	0.0151142
802.859	0.0150600
802.937	0.0151070
803.015	0.0150930
803.093	0.0151830
803.172	0.0151794
803.250	0.0151289
803.328	0.0152812
803.406	0.0153854
803.484	0.0153184
803.562	0.0153139
803.640	0.0156075
803.718	0.0156150
803.797	0.0157870
803.875	0.0156680
803.953	0.0156229
804.031	0.0155734
804.109	0.0155788
804.187	0.0155003
804.265	0.0155119
804.343	0.0154518
804.422	0.0152625
804.500	0.0153310
804.578	0.0153362
804.656	0.0152664
804.734	0.0152623
804.812	0.0151620
804.890	0.0151814
804.968	0.0151850
805.047	0.0151721
805.125	0.0152119
805.203	0.0150992
805.281	0.0151242
805.359	0.0151483
805.437	0.0153027
805.515	0.0152852
805.593	0.0152733
805.672	0.0152145
805.750	0.0155074
805.828	0.0155146
805.906	0.0155608
805.984	0.0153737
806.062	0.0154918
806.140	0.0155764
806.218	0.0154257
806.297	0.0153587
806.375	0.0154900
806.453	0.0152921
806.531	0.0153495
806.609	0.0153920
806.687	0.0153216
806.765	0.0153904
806.843	0.0154515
806.922	0.0152918
807.000	0.0153676
807.078	0.0154910
807.156	0.0153500
807.234	0.0154573
807.312	0.0153815
807.390	0.0153458
807.468	0.0154132
807.547	0.0153915
807.625	0.0154520
807.703	0.0153883
807.781	0.0153449
807.859	0.0152787
807.937	0.0153825
808.015	0.0154098
808.093	0.0152725
808.172	0.0151839
808.250	0.0152730
808.328	0.0151916
808.406	0.0151953
808.484	0.0150904
808.562	0.0151488
808.640	0.0152438
808.718	0.0151077
808.797	0.0151952
808.875	0.0151575
808.953	0.0152882
809.031	0.0153130
809.109	0.0153629
809.187	0.0153129
809.265	0.0153590
809.343	0.0153410
809.422	0.0153313
809.500	0.0153150
809.578	0.0151928
809.656	0.0151114
809.734	0.0152145
809.812	0.0150787
809.890	0.0152206
809.968	0.0151376
810.047	0.0151117
810.125	0.0150479
810.203	0.0151030
810.281	0.0151566
810.359	0.0151652
810.437	0.0151137
810.515	0.0151974
810.593	0.0150995
810.672	0.0152406
810.750	0.0152237
810.828	0.0153374
810.906	0.0153323
810.984	0.0153562
811.062	0.0154096
811.140	0.0153419
811.218	0.0152418
811.297	0.0153709
811.375	0.0154314
811.453	0.0152107
811.531	0.0152190
811.609	0.0152859
811.687	0.0153993
811.765	0.0153384
811.843	0.0153145
811.922	0.0152271
812.000	0.0151576
812.078	0.0152258
812.156	0.0152897
812.234	0.0153532
812.312	0.0152820
812.390	0.0154247
812.468	0.0153871
812.547	0.0154362
812.625	0.0154290
812.703	0.0154263
812.781	0.0154041
812.859	0.0156407
812.937	0.0155728
813.015	0.0155780
813.093	0.0156322
813.172	0.0156637
813.250	0.0153808
813.328	0.0153845
813.406	0.0154477
813.484	0.0154630
813.562	0.0154800
813.640	0.0153141
813.718	0.0153004
813.797	0.0152267
813.875	0.0152828
813.953	0.0151353
814.031	0.0150030
814.109	0.0150761
814.187	0.0150243
814.265	0.0150548
814.343	0.0150724
814.422	0.0152159
814.500	0.0151515
814.578	0.0150907
814.656	0.0150745
814.734	0.0150224
814.812	0.0151243
814.890	0.0151231
814.968	0.0151691
815.047	0.0151650
815.125	0.0151321
815.203	0.0153065
815.281	0.0152708
815.359	0.0153069
815.437	0.0152122
815.515	0.0151365
815.593	0.0152201
815.672	0.0151473
815.750	0.0151229
815.828	0.0151342
815.906	0.0152045
815.984	0.0152701
816.062	0.0153486
816.140	0.0152142
816.218	0.0151904
816.297	0.0154335
816.375	0.0153555
816.453	0.0154315
816.531	0.0153165
816.609	0.0153323
816.687	0.0153484
816.765	0.0154554
816.843	0.0155542
816.922	0.0154616
817.000	0.0153486
817.078	0.0154608
817.156	0.0154060
817.234	0.0154143
817.312	0.0153278
817.390	0.0153683
817.468	0.0152235
817.547	0.0153596
817.625	0.0153018
817.703	0.0153726
817.781	0.0152265
817.859	0.0152862
817.937	0.0152799
818.015	0.0153835
818.093	0.0152604
818.172	0.0152047
818.250	0.0152243
818.328	0.0152444
818.406	0.0153066
818.484	0.0154535
818.562	0.0154724
818.640	0.0153551
818.718	0.0152877
818.797	0.0154156
818.875	0.0152512
818.953	0.0153661
819.031	0.0153912
819.109	0.0154308
819.187	0.0153987
819.265	0.0152448
819.343	0.0152996
819.422	0.0154127
819.500	0.0152768
819.578	0.0152780
819.656	0.0152659
819.734	0.0151859
819.812	0.0154904
819.890	0.0153207
819.968	0.0153475
820.047	0.0153325
820.125	0.0151727
820.203	0.0150950
820.281	0.0153396
820.359	0.0151340
820.437	0.0152023
820.515	0.0153326
820.593	0.0151112
820.672	0.0152226
820.750	0.0151950
820.828	0.0152407
820.906	0.0152346
820.984	0.0152701
821.062	0.0152130
821.140	0.0151292
821.218	0.0150957
821.297	0.0152560
821.375	0.0153581
821.453	0.0153016
821.531	0.0151451
821.609	0.0152734
821.687	0.0152464
821.765	0.0153389
821.843	0.0152871
821.922	0.0153587
822.000	0.0153934
822.078	0.0154025
822.156	0.0155701
822.234	0.0153673
822.312	0.0154023
822.390	0.0152905
822.468	0.0152969
822.547	0.0153282
822.625	0.0154597
822.703	0.0152895
822.781	0.0154188
822.859	0.0152576
822.937	0.0152967
823.015	0.0152424
823.093	0.0151424
823.172	0.0151669
823.250	0.0150007
823.328	0.0150517
823.406	0.0148939
823.484	0.0150847
823.562	0.0150468
823.640	0.0150279
823.718	0.0151867
823.797	0.0150020
823.875	0.0149448
823.953	0.0151323
824.031	0.0151688
824.109	0.0152432
824.187	0.0151821
824.265	0.0152829
824.343	0.0153730
824.422	0.0154826
824.500	0.0153568
824.578	0.0153474
824.656	0.0155424
824.734	0.0154562
824.812	0.0154385
824.890	0.0156680
824.968	0.0154864
825.047	0.0154964
825.125	0.0156634
825.203	0.0155689
825.281	0.0155711
825.359	0.0155032
825.437	0.0156168
825.515	0.0155806
825.593	0.0154842
825.672	0.0153400
825.750	0.0153275
825.828	0.0153300
825.906	0.0153906
825.984	0.0153902
826.062	0.0152905
826.140	0.0152000
826.218	0.0151622
826.297	0.0152074
826.375	0.0151447
826.453	0.0150384
826.531	0.0151186
826.609	0.0150068
826.687	0.0149866
826.765	0.0151186
826.843	0.0150384
826.922	0.0148653
827.000	0.0149906
827.078	0.0150778
827.156	0.0151142
827.234	0.0150990
827.312	0.0152969
827.390	0.0152106
827.468	0.0151434
827.547	0.0152663
827.625	0.0154007
827.703	0.0155534
827.781	0.0155180
827.859	0.0155135
827.937	0.0154659
828.015	0.0156549
828.093	0.0155323
828.172	0.0156426
828.250	0.0155047
828.328	0.0156426
828.406	0.0154091
828.484	0.0153831
828.562	0.0155538
828.640	0.0156348
828.718	0.0155304
828.797	0.0154675
828.875	0.0154043
828.953	0.0153684
829.031	0.0152248
829.109	0.0153177
829.187	0.0153125
829.265	0.0151968
829.343	0.0152299
829.422	0.0151998
829.500	0.0150482
829.578	0.0150189
829.656	0.0149191
829.734	0.0150479
829.812	0.0151173
829.890	0.0150927
829.968	0.0150648
830.047	0.0151666
830.125	0.0151546
830.203	0.0152106
830.281	0.0151571
830.359	0.0153158
830.437	0.0152052
830.515	0.0154875
830.593	0.0155531
830.672	0.0155011
830.750	0.0155811
830.828	0.0153776
830.906	0.0156152
830.984	0.0155626
831.062	0.0155134
831.140	0.0155009
831.218	0.0154516
831.297	0.0153677
831.375	0.0152883
831.453	0.0153567
831.531	0.0153523
831.609	0.0152547
831.687	0.0152741
831.765	0.0152501
831.843	0.0152402
831.922	0.0151128
832.000	0.0150247
832.078	0.0151176
832.156	0.0151501
832.234	0.0152540
832.312	0.0151743
832.390	0.0150893
832.468	0.0151615
832.547	0.0152915
832.625	0.0152344
832.703	0.0154163
832.781	0.0153492
832.859	0.0153732
832.937	0.0152525
833.015	0.0153416
833.093	0.0154025
833.172	0.0154662
833.250	0.0154134
833.328	0.0153825
833.406	0.0154446
833.484	0.0154256
833.562	0.0153726
833.640	0.0153719
833.718	0.0153358
833.797	0.0152468
833.875	0.0152917
833.953	0.0153128
834.031	0.0154426
834.109	0.0153182
834.187	0.0151556
834.265	0.0152440
834.343	0.0152579
834.422	0.0151910
834.500	0.0151991
834.578	0.0150700
834.656	0.0151820
834.734	0.0150955
834.812	0.0152132
834.890	0.0151042
834.968	0.0151349
835.047	0.0152293
835.125	0.0150055
835.203	0.0150240
835.281	0.0151460
835.359	0.0151981
835.437	0.0150576
835.515	0.0152493
835.593	0.0151985
835.672	0.0153584
835.750	0.0153635
835.828	0.0153660
835.906	0.0152456
835.984	0.0153674
836.062	0.0156419
836.140	0.0154106
836.218	0.0153500
836.297	0.0154274
836.375	0.0155785
836.453	0.0153901
836.531	0.0152721
836.609	0.0153593
836.687	0.0154700
836.765	0.0152927
836.843	0.0153999
836.922	0.0153582
837.000	0.0153365
837.078	0.0153052
837.156	0.0151440
837.234	0.0150296
837.312	0.0150764
837.390	0.0150696
837.468	0.0151361
837.547	0.0151537
837.625	0.0150896
837.703	0.0151288
837.781	0.0151131
837.859	0.0150907
837.937	0.0149619
838.015	0.0151958
838.093	0.0153800
838.172	0.0153356
838.250	0.0153445
838.328	0.0152750
838.406	0.0153210
838.484	0.0152161
838.562	0.0153407
838.640	0.0155820
838.718	0.0154628
838.797	0.0154114
838.875	0.0154028
838.953	0.0155566
839.031	0.0155161
839.109	0.0153970
839.187	0.0154132
839.265	0.0153391
839.343	0.0153957
839.422	0.0153903
839.500	0.0153902
839.578	0.0153081
839.656	0.0152574
839.734	0.0153334
839.812	0.0153259
839.890	0.0151022
839.968	0.0151532
840.047	0.0152335
840.125	0.0152287
840.203	0.0151056
840.281	0.0152187
840.359	0.0151162
840.437	0.0151350
840.515	0.0152225
840.593	0.0150627
840.672	0.0151833
840.750	0.0149742
840.828	0.0150758
840.906	0.0150167
840.984	0.0150392
841.062	0.0150079
841.140	0.0149328
841.218	0.0150803
841.297	0.0151345
841.375	0.0151153
841.453	0.0149681
841.531	0.0150546
841.609	0.0151455
841.687	0.0151765
841.765	0.0151045
841.843	0.0150596
841.922	0.0152501
842.000	0.0152137
842.078	0.0153365
842.156	0.0154860
842.234	0.0154898
842.312	0.0154463
842.390	0.0154319
842.468	0.0154412
842.547	0.0154807
842.625	0.0154949
842.703	0.0155126
842.781	0.0154179
842.859	0.0154254
842.937	0.0154443
843.015	0.0155193
843.093	0.0153471
843.172	0.0153661
843.250	0.0154354
843.328	0.0152602
843.406	0.0152390
843.484	0.0153056
843.562	0.0150976
843.640	0.0151092
843.718	0.0152046
843.797	0.0149997
843.875	0.0148958
843.953	0.0147991
844.031	0.0147962
844.109	0.0148489
844.187	0.0149110
844.265	0.0149406
844.343	0.0149590
844.422	0.0149326
844.500	0.0150288
844.578	0.0150758
844.656	0.0152589
844.734	0.0154302
844.812	0.0155968
844.890	0.0157666
844.968	0.0158374
845.047	0.0158534
845.125	0.0158736
845.203	0.0159914
845.281	0.0160677
845.359	0.0161518
845.437	0.0160236
845.515	0.0161416
845.593	0.0160394
845.672	0.0160486
845.750	0.0160168
845.828	0.0160546
845.906	0.0157352
845.984	0.0155877
846.062	0.0155010
846.140	0.0154068
846.218	0.0153198
846.297	0.0149232
846.375	0.0147465
846.453	0.0146206
846.531	0.0144197
846.609	0.0144104
846.687	0.0142319
846.765	0.0141155
846.843	0.0141709
846.922	0.0141547
847.000	0.0140910
847.078	0.0142192
847.156	0.0142603
847.234	0.0143554
847.312	0.0145381
847.390	0.0147797
847.468	0.0149364
847.547	0.0151531
847.625	0.0153410
847.703	0.0154457
847.781	0.0156157
847.859	0.0158022
847.937	0.0160524
848.015	0.0162686
848.093	0.0164040
848.172	0.0163374
848.250	0.0164203
848.328	0.0164098
848.406	0.0164394
848.484	0.0164086
848.562	0.0162877
848.640	0.0161908
848.718	0.0162303
848.797	0.0161039
848.875	0.0157846
848.953	0.0156604
849.031	0.0155244
849.109	0.0153500
849.187	0.0151685
849.265	0.0149301
849.343	0.0148357
849.422	0.0146463
849.500	0.0146507
849.578	0.0143225
849.656	0.0142206
849.734	0.0142568
849.812	0.0144125
849.890	0.0142746
849.968	0.0142802
850.047	0.0144487
850.125	0.0145397
850.203	0.0147818
850.281	0.0149523
850.359	0.0151853
850.437	0.0152432
850.515	0.0153384
850.593	0.0154677
850.672	0.0156724
850.750	0.0159270
850.828	0.0159439
850.906	0.0160515
850.984	0.0162388
851.062	0.0161979
851.140	0.0160889
851.218	0.0163419
851.297	0.0161897
851.375	0.0161029
851.453	0.0159830
851.531	0.0158012
851.609	0.0157278
851.687	0.0155216
851.765	0.0154460
851.843	0.0151658
851.922	0.0151104
852.000	0.0148951
852.078	0.0148273
852.156	0.0147369
852.234	0.0148254
852.312	0.0147611
852.390	0.0144105
852.468	0.0144733
852.547	0.0145525
852.625	0.0144743
852.703	0.0145255
852.781	0.0145704
852.859	0.0146349
852.937	0.0148064
853.015	0.0150793
853.093	0.0152325
853.172	0.0152666
853.250	0.0155447
853.328	0.0156878
853.406	0.0155876
853.484	0.0158493
853.562	0.0159579
853.640	0.0161161
853.718	0.0162135
853.797	0.0163106
853.875	0.0163802
853.953	0.0163264
854.031	0.0163477
854.109	0.0161877
854.187	0.0160763
854.265	0.0160396
854.343	0.0158530
854.422	0.0156831
854.500	0.0156783
854.578	0.0154363
854.656	0.0151965
854.734	0.0150864
854.812	0.0148566
854.890	0.0146877
854.968	0.0145383
855.047	0.0143589
855.125	0.0143537
855.203	0.0144696
855.281	0.0142583
855.359	0.0141877
855.437	0.0142496
855.515	0.0143423
855.593	0.0144554
855.672	0.0144554
855.750	0.0145421
855.828	0.0148956
855.906	0.0148980
855.984	0.0150136
856.062	0.0151885
856.140	0.0153526
856.218	0.0153542
856.297	0.0154873
856.375	0.0156269
856.453	0.0157876
856.531	0.0158585
856.609	0.0158748
856.687	0.0160108
856.765	0.0159733
856.843	0.0160421
856.922	0.0159877
857.000	0.0159694
857.078	0.0160437
857.156	0.0159046
857.234	0.0157693
857.312	0.0157533
857.390	0.0156752
857.468	0.0155615
857.547	0.0153631
857.625	0.0153500
857.703	0.0153299
857.781	0.0152764
857.859	0.0151289
857.937	0.0150748
858.015	0.0149242
858.093	0.0147922
858.172	0.0148688
858.250	0.0149314
858.328	0.0148926
858.406	0.0150469
858.484	0.0149861
858.562	0.0150462
858.640	0.0149841
858.718	0.0151326
858.797	0.0150993
858.875	0.0152253
858.953	0.0151229
859.031	0.0152294
859.109	0.0153529
859.187	0.0152423
859.265	0.0153661
859.343	0.0153734
859.422	0.0153931
859.500	0.0152819
859.578	0.0154419
859.656	0.0153768
859.734	0.0152547
859.812	0.0153366
859.890	0.0154803
859.968	0.0153336
860.047	0.0152866
860.125	0.0153139
860.203	0.0154108
860.281	0.0153574
860.359	0.0153208
860.437	0.0153039
860.515	0.0152016
860.593	0.0153730
860.672	0.0152668
860.750	0.0151804
860.828	0.0152474
860.906	0.0154330
860.984	0.0152532
861.062	0.0152454
861.140	0.0153895
861.218	0.0153113
861.297	0.0152654
861.375	0.0153007
861.453	0.0153057
861.531	0.0152188
861.609	0.0153116
861.687	0.0153242
861.765	0.0154076
861.843	0.0153146
861.922	0.0152600
862.000	0.0155248
862.078	0.0153858
862.156	0.0153384
862.234	0.0153527
862.312	0.0153741
862.390	0.0152650
862.468	0.0154444
862.547	0.0154514
862.625	0.0154206
862.703	0.0154060
862.781	0.0152177
862.859	0.0152059
862.937	0.0151301
863.015	0.0151399
863.093	0.0150998
863.172	0.0150827
863.250	0.0151859
863.328	0.0151830
863.406	0.0152778
863.484	0.0151948
863.562	0.0150225
863.640	0.0151443
863.718	0.0152867
863.797	0.0151999
863.875	0.0152529
863.953	0.0153645
864.031	0.0151039
864.109	0.0153310
864.187	0.0153322
864.265	0.0153663
864.343	0.0153638
864.422	0.0152814
864.500	0.0153140
864.578	0.0153098
864.656	0.0153279
864.734	0.0151909
864.812	0.0153266
864.890	0.0152940
864.968	0.0151222
865.047	0.0151862
865.125	0.0151470
865.203	0.0150989
865.281	0.0151431
865.359	0.0151328
865.437	0.0150845
865.515	0.0151734
865.593	0.0151025
865.672	0.0151149
865.750	0.0153397
865.828	0.0151890
865.906	0.0152522
865.984	0.0152882
866.062	0.0153542
866.140	0.0154728
866.218	0.0155750
866.297	0.0156489
866.375	0.0155024
866.453	0.0155912
866.531	0.0156988
866.609	0.0155291
866.687	0.0155840
866.765	0.0157528
866.843	0.0156463
866.922	0.0156020
867.000	0.0157469
867.078	0.0155568
867.156	0.0153960
867.234	0.0154728
867.312	0.0153831
867.390	0.0153427
867.468	0.0152593
867.547	0.0152650
867.625	0.0152062
867.703	0.0152007
867.781	0.0151933
867.859	0.0150781
867.937	0.0152087
868.015	0.0151314
868.093	0.0151163
868.172	0.0149373
868.250	0.0148308
868.328	0.0148859
868.406	0.0150157
868.484	0.0150573
868.562	0.0150012
868.640	0.0151334
868.718	0.0151536
868.797	0.0150224
868.875	0.0151632
868.953	0.0152094
869.031	0.0153391
869.109	0.0153251
869.187	0.0153519
869.265	0.0152163
869.343	0.0153169
869.422	0.0154199
869.500	0.0155000
869.578	0.0155379
869.656	0.0155415
869.734	0.0155143
869.812	0.0154787
869.890	0.0155700
869.968	0.0155271
870.047	0.0154382
870.125	0.0153567
870.203	0.0153075
870.281	0.0153201
870.359	0.0152256
870.437	0.0152612
870.515	0.0151340
870.593	0.0150352
870.672	0.0151595
870.750	0.0151550
870.828	0.0148820
870.906	0.0149461
870.984	0.0149291
871.062	0.0148380
871.140	0.0150177
871.218	0.0149197
871.297	0.0149848
871.375	0.0150578
871.453	0.0150064
871.531	0.0150669
871.609	0.0152956
871.687	0.0152482
871.765	0.0151127
871.843	0.0153081
871.922	0.0154993
872.000	0.0154034
872.078	0.0156207
872.156	0.0156518
872.234	0.0157694
872.312	0.0155363
872.390	0.0156689
872.468	0.0156506
872.547	0.0156660
872.625	0.0159053
872.703	0.0157330
872.781	0.0156950
872.859	0.0157682
872.937	0.0158517
873.015	0.0158147
873.093	0.0156715
873.172	0.0156386
873.250	0.0155013
873.328	0.0154126
873.406	0.0154800
873.484	0.0153952
873.562	0.0153621
873.640	0.0153581
873.718	0.0152440
873.797	0.0152319
873.875	0.0151620
873.953	0.0150850
874.031	0.0149887
874.109	0.0149755
874.187	0.0150568
874.265	0.0150474
874.343	0.0149924
874.422	0.0151405
874.500	0.0151205
874.578	0.0149778
874.656	0.0150388
874.734	0.0152356
874.812	0.0151653
874.890	0.0150600
874.968	0.0151683
875.047	0.0151643
875.125	0.0151900
875.203	0.0151891
875.281	0.0152866
875.359	0.0153873
875.437	0.0152581
875.515	0.0154443
875.593	0.0154755
875.672	0.0152707
875.750	0.0151973
875.828	0.0153810
875.906	0.0153289
875.984	0.0154546
876.062	0.0152824
876.140	0.0153488
876.218	0.0153892
876.297	0.0153373
876.375	0.0154457
876.453	0.0152876
876.531	0.0151438
876.609	0.0152884
876.687	0.0152807
876.765	0.0151420
876.843	0.0151425
876.922	0.0151417
877.000	0.0152358
877.078	0.0150087
877.156	0.0150900
877.234	0.0151884
877.312	0.0153008
877.390	0.0152459
877.468	0.0154111
877.547	0.0152912
877.625	0.0153783
877.703	0.0154901
877.781	0.0154858
877.859	0.0153431
877.937	0.0154973
878.015	0.0156014
878.093	0.0156277
878.172	0.0155314
878.250	0.0155835
878.328	0.0156665
878.406	0.0155157
878.484	0.0156290
878.562	0.0155620
878.640	0.0156576
878.718	0.0156270
878.797	0.0155580
878.875	0.0155710
878.953	0.0155872
879.031	0.0157878
879.109	0.0155798
879.187	0.0153783
879.265	0.0154662
879.343	0.0154634
879.422	0.0153792
879.500	0.0152350
879.578	0.0152908
879.656	0.0152381
879.734	0.0150451
879.812	0.0151685
879.890	0.0151450
879.968	0.0151042
880.047	0.0150356
880.125	0.0151039
880.203	0.0150171
880.281	0.0149528
880.359	0.0149188
880.437	0.0150172
880.515	0.0150931
880.593	0.0150771
880.672	0.0151608
880.750	0.0152116
880.828	0.0151729
880.906	0.0151611
880.984	0.0152510
881.062	0.0152779
881.140	0.0154156
881.218	0.0154273
881.297	0.0152969
881.375	0.0153834
881.453	0.0154714
881.531	0.0154800
881.609	0.0154533
881.687	0.0155288
881.765	0.0154086
881.843	0.0153230
881.922	0.0153387
882.000	0.0154475
882.078	0.0154935
882.156	0.0152759
882.234	0.0152235
882.312	0.0152215
882.390	0.0151395
882.468	0.0151670
882.547	0.0153683
882.625	0.0151271
882.703	0.0149942
882.781	0.0149497
882.859	0.0150298
882.937	0.0150981
883.015	0.0150483
883.093	0.0151310
883.172	0.0149809
883.250	0.0149916
883.328	0.0151369
883.406	0.0152813
883.484	0.0152094
883.562	0.0152187
883.640	0.0152339
883.718	0.0151977
883.797	0.0153144
883.875	0.0155923
883.953	0.0155568
884.031	0.0154184
884.109	0.0155526
884.187	0.0155373
884.265	0.0157185
884.343	0.0156714
884.422	0.0156563
884.500	0.0157137
884.578	0.0156380
884.656	0.0155719
884.734	0.0157253
884.812	0.0156243
884.890	0.0155180
884.968	0.0154705
885.047	0.0154738
885.125	0.0153751
885.203	0.0153315
885.281	0.0153550
885.359	0.0152342
885.437	0.0151515
885.515	0.0152068
885.593	0.0152496
885.672	0.0151379
885.750	0.0151276
885.828	0.0150012
885.906	0.0153086
885.984	0.0151963
886.062	0.0152357
886.140	0.0152544
886.218	0.0150776
886.297	0.0152616
886.375	0.0152781
886.453	0.0153786
886.531	0.0152628
886.609	0.0152169
886.687	0.0152654
886.765	0.0153699
886.843	0.0152891
886.922	0.0153496
887.000	0.0154045
887.078	0.0153245
887.156	0.0153809
887.234	0.0154995
887.312	0.0153637
887.390	0.0152808
887.468	0.0152766
887.547	0.0152235
887.625	0.0152448
887.703	0.0153062
887.781	0.0152624
887.859	0.0152238
887.937	0.0152985
888.015	0.0152147
888.093	0.0151855
888.172	0.0152267
888.250	0.0152370
888.328	0.0152175
888.406	0.0151147
888.484	0.0151433
888.562	0.0153851
888.640	0.0153432
888.718	0.0153218
888.797	0.0153620
888.875	0.0153517
888.953	0.0154192
889.031	0.0154250
889.109	0.0155079
889.187	0.0154536
889.265	0.0153325
889.343	0.0154610
889.422	0.0153069
889.500	0.0154807
889.578	0.0156458
889.656	0.0155057
889.734	0.0155968
889.812	0.0155552
889.890	0.0155782
889.968	0.0154791
890.047	0.0154604
890.125	0.0154212
890.203	0.0154163
890.281	0.0155161
890.359	0.0153483
890.437	0.0153127
890.515	0.0151826
890.593	0.0151400
890.672	0.0150903
890.750	0.0151604
890.828	0.0150204
890.906	0.0150265
890.984	0.0150712
891.062	0.0150134
891.140	0.0150623
891.218	0.0150980
891.297	0.0150762
891.375	0.0150214
891.453	0.0151633
891.531	0.0150845
891.609	0.0152421
891.687	0.0152876
891.765	0.0152971
891.843	0.0153784
891.922	0.0154086
892.000	0.0153683
892.078	0.0154720
892.156	0.0155095
892.234	0.0155705
892.312	0.0153349
892.390	0.0155692
892.468	0.0155405
892.547	0.0155447
892.625	0.0155013
892.703	0.0156155
892.781	0.0156371
892.859	0.0154790
892.937	0.0155550
893.015	0.0153421
893.093	0.0153942
893.172	0.0153601
893.250	0.0152431
893.328	0.0155018
893.406	0.0153024
893.484	0.0153107
893.562	0.0151246
893.640	0.0151099
893.718	0.0151615
893.797	0.0153220
893.875	0.0150542
893.953	0.0150436
894.031	0.0151945
894.109	0.0151529
894.187	0.0152351
894.265	0.0151210
894.343	0.0152052
894.422	0.0150787
894.500	0.0152171
894.578	0.0152354
894.656	0.0152679
894.734	0.0153062
894.812	0.0154937
894.890	0.0153866
894.968	0.0154443
895.047	0.0154067
895.125	0.0154173
895.203	0.0155920
895.281	0.0154711
895.359	0.0155468
895.437	0.0156348
895.515	0.0154244
895.593	0.0154941
895.672	0.0154994
895.750	0.0154565
895.828	0.0153836
895.906	0.0151754
895.984	0.0152794
896.062	0.0153121
896.140	0.0152478
896.218	0.0151781
896.297	0.0151785
896.375	0.0152913
896.453	0.0151337
896.531	0.0151226
896.609	0.0150304
896.687	0.0150799
896.765	0.0150803
896.843	0.0152119
896.922	0.0150835
897.000	0.0152173
897.078	0.0151575
897.156	0.0152148
897.234	0.0153242
897.312	0.0153108
897.390	0.0153676
897.468	0.0154236
897.547	0.0154151
897.625	0.0153981
897.703	0.0155041
897.781	0.0155468
897.859	0.0155257
897.937	0.0154734
898.015	0.0154575
898.093	0.0156757
898.172	0.0156469
898.250	0.0156189
898.328	0.0156354
898.406	0.0155567
898.484	0.0153599
898.562	0.0154591
898.640	0.0155949
898.718	0.0156100
898.797	0.0155299
898.875	0.0155331
898.953	0.0154832
899.031	0.0153755
899.109	0.0154745
899.187	0.0153243
899.265	0.0153017
899.343	0.0153561
899.422	0.0151620
899.500	0.0152084
899.578	0.0152667
899.656	0.0150246
899.734	0.0151185
899.812	0.0151322
899.890	0.0151427
899.968	0.0151634
900.047	0.0151154
900.125	0.0151607
900.203	0.0151357
900.281	0.0151692
900.359	0.0150684
900.437	0.0150903
900.515	0.0151479
900.593	0.0152317
900.672	0.0152619
900.750	0.0152204
900.828	0.0152010
900.906	0.0152720
900.984	0.0152402
901.062	0.0151605
901.140	0.0152543
901.218	0.0152725
901.297	0.0152901
901.375	0.0153341
901.453	0.0152576
901.531	0.0152139
901.609	0.0153618
901.687	0.0152708
901.765	0.0153050
901.843	0.0152364
901.922	0.0153353
902.000	0.0151559
902.078	0.0152596
902.156	0.0152689
902.234	0.0151832
902.312	0.0152692
902.390	0.0153436
902.468	0.0151109
902.547	0.0151096
902.625	0.0152094
902.703	0.0152235
902.781	0.0152573
902.859	0.0151810
902.937	0.0153237
903.015	0.0152751
903.093	0.0153320
903.172	0.0152930
903.250	0.0153537
903.328	0.0154675
903.406	0.0153799
903.484	0.0154167
903.562	0.0154395
903.640	0.0153724
903.718	0.0154623
903.797	0.0155080
903.875	0.0155750
903.953	0.0154448
904.031	0.0156146
904.109	0.0153489
904.187	0.0154968
904.265	0.0154160
904.343	0.0154185
904.422	0.0152585
904.500	0.0153117
904.578	0.0153927
904.656	0.0154073
904.734	0.0152798
904.812	0.0152422
904.890	0.0153402
904.968	0.0152368
905.047	0.0151719
905.125	0.0152555
905.203	0.0153162
905.281	0.0152468
905.359	0.0151523
905.437	0.0151190
905.515	0.0151520
905.593	0.0153024
905.672	0.0151340
905.750	0.0151840
905.828	0.0151327
905.906	0.0152264
905.984	0.0152139
906.062	0.0152729
906.140	0.0151778
906.218	0.0151109
906.297	0.0151293
906.375	0.0151878
906.453	0.0150657
906.531	0.0152604
906.609	0.0152398
906.687	0.0153333
906.765	0.0153156
906.843	0.0153344
906.922	0.0153979
907.000	0.0153856
907.078	0.0153168
907.156	0.0152740
907.234	0.0154108
907.312	0.0153743
907.390	0.0153103
907.468	0.0153362
907.547	0.0152616
907.625	0.0152663
907.703	0.0152539
907.781	0.0152391
907.859	0.0151469
907.937	0.0151141
908.015	0.0152714
908.093	0.0152387
908.172	0.0152479
908.250	0.0152645
908.328	0.0153001
908.406	0.0152222
908.484	0.0153183
908.562	0.0153653
908.640	0.0153114
908.718	0.0152647
908.797	0.0153895
908.875	0.0154021
908.953	0.0153996
909.031	0.0153456
909.109	0.0153622
909.187	0.0154237
909.265	0.0154919
909.343	0.0154702
909.422	0.0155379
909.500	0.0155402
909.578	0.0154417
909.656	0.0154936
909.734	0.0155791
909.812	0.0154370
909.890	0.0155426
909.968	0.0155904
910.047	0.0155563
910.125	0.0154716
910.203	0.0154381
910.281	0.0154116
910.359	0.0153725
910.437	0.0152199
910.515	0.0151027
910.593	0.0152563
910.672	0.0152374
910.750	0.0151227
910.828	0.0151251
910.906	0.0152137
910.984	0.0150894
911.062	0.0151231
911.140	0.0150191
911.218	0.0150997
911.297	0.0150348
911.375	0.0149825
911.453	0.0150536
911.531	0.0150620
911.609	0.0151274
911.687	0.0151434
911.765	0.0151588
911.843	0.0153300
911.922	0.0152943
912.000	0.0152549
912.078	0.0152744
912.156	0.0152511
912.234	0.0153437
912.312	0.0152993
912.390	0.0154575
912.468	0.0155418
912.547	0.0153198
912.625	0.0153323
912.703	0.0154783
912.781	0.0154980
912.859	0.0154466
912.937	0.0153576
913.015	0.0153871
913.093	0.0153887
913.172	0.0154409
913.250	0.0153049
913.328	0.0151891
913.406	0.0153056
913.484	0.0152144
913.562	0.0153189
913.640	0.0151861
913.718	0.0151052
913.797	0.0152180
913.875	0.0152822
913.953	0.0152866
914.031	0.0151698
914.109	0.0150503
914.187	0.0152290
914.265	0.0152792
914.343	0.0151909
914.422	0.0152825
914.500	0.0152431
914.578	0.0153180
914.656	0.0153899
914.734	0.0154039
914.812	0.0154221
914.890	0.0153840
914.968	0.0153503
915.047	0.0155330
915.125	0.0152282
915.203	0.0154375
915.281	0.0156053
915.359	0.0154874
915.437	0.0155383
915.515	0.0153956
915.593	0.0154259
915.672	0.0154578
915.750	0.0154527
915.828	0.0154520
915.906	0.0152502
915.984	0.0153591
916.062	0.0153862
916.140	0.0153529
916.218	0.0151659
916.297	0.0153147
916.375	0.0152278
916.453	0.0151002
916.531	0.0151659
916.609	0.0150559
916.687	0.0152693
916.765	0.0153073
916.843	0.0150822
916.922	0.0150726
917.000	0.0152180
917.078	0.0151431
917.156	0.0151204
917.234	0.0151008
917.312	0.0151170
917.390	0.0150108
917.468	0.0151877
917.547	0.0153342
917.625	0.0151356
917.703	0.0151923
917.781	0.0152587
917.859	0.0152677
917.937	0.0151860
918.015	0.0152066
918.093	0.0153634
918.172	0.0152268
918.250	0.0153533
918.328	0.0153220
918.406	0.0155237
918.484	0.0154729
918.562	0.0153151
918.640	0.0153269
918.718	0.0153797
918.797	0.0154150
918.875	0.0154301
918.953	0.0154845
919.031	0.0154548
919.109	0.0154120
919.187	0.0153451
919.265	0.0153297
919.343	0.0154507
919.422	0.0155719
919.500	0.0154089
919.578	0.0154195
919.656	0.0153675
919.734	0.0154980
919.812	0.0153368
919.890	0.0153538
