06/13/2022	14:37:13	Ver.	4.1	UNKNOWN
Optical Delay	599.968395	Delta X		0.078125	Sweeps	1	Scan Rate	0/0
Coordinates	Axis 1	NaN	Axis 2	NaN	Axis 3	NaN	Axis 4	NaN	Axis 5	NaN	Axis 6	0.000000
TX Power	0.000000	RX Power	0.000000

599.968	0.0153458
600.047	0.0152607
600.125	0.0155005
600.203	0.0153186
600.281	0.0152889
600.359	0.0154301
600.437	0.0154263
600.515	0.0153277
600.593	0.0153545
600.672	0.0152172
600.750	0.0153381
600.828	0.0153033
600.906	0.0153193
600.984	0.0152918
601.062	0.0153170
601.140	0.0152563
601.218	0.0154334
601.297	0.0154567
601.375	0.0152477
601.453	0.0152885
601.531	0.0153046
601.609	0.0153113
601.687	0.0153289
601.765	0.0154042
601.843	0.0154005
601.922	0.0153192
602.000	0.0153587
602.078	0.0153539
602.156	0.0152409
602.234	0.0151948
602.312	0.0153891
602.390	0.0153374
602.468	0.0155028
602.547	0.0153447
602.625	0.0153042
602.703	0.0153996
602.781	0.0152958
602.859	0.0154446
602.937	0.0154022
603.015	0.0153522
603.093	0.0154992
603.172	0.0152684
603.250	0.0153796
603.328	0.0154050
603.406	0.0151949
603.484	0.0153902
603.562	0.0152473
603.640	0.0153433
603.718	0.0154023
603.797	0.0152957
603.875	0.0152573
603.953	0.0153732
604.031	0.0152341
604.109	0.0154276
604.187	0.0155756
604.265	0.0154057
604.343	0.0152919
604.422	0.0153205
604.500	0.0152313
604.578	0.0153552
604.656	0.0153980
604.734	0.0153914
604.812	0.0154396
604.890	0.0153443
604.968	0.0153295
605.047	0.0152637
605.125	0.0153314
605.203	0.0152468
605.281	0.0153453
605.359	0.0153032
605.437	0.0153400
605.515	0.0154252
605.593	0.0153801
605.672	0.0152807
605.750	0.0152855
605.828	0.0153256
605.906	0.0153310
605.984	0.0154451
606.062	0.0154008
606.140	0.0151992
606.218	0.0153104
606.297	0.0153538
606.375	0.0152705
606.453	0.0152998
606.531	0.0153147
606.609	0.0152390
606.687	0.0151952
606.765	0.0152945
606.843	0.0152191
606.922	0.0152760
607.000	0.0153069
607.078	0.0152460
607.156	0.0153503
607.234	0.0152076
607.312	0.0152699
607.390	0.0154489
607.468	0.0152803
607.547	0.0153197
607.625	0.0151835
607.703	0.0152924
607.781	0.0153284
607.859	0.0152861
607.937	0.0153244
608.015	0.0152665
608.093	0.0152506
608.172	0.0153306
608.250	0.0152914
608.328	0.0152843
608.406	0.0152924
608.484	0.0153455
608.562	0.0152332
608.640	0.0153173
608.718	0.0152567
608.797	0.0153194
608.875	0.0152974
608.953	0.0153365
609.031	0.0153784
609.109	0.0153723
609.187	0.0152679
609.265	0.0153897
609.343	0.0152849
609.422	0.0152451
609.500	0.0153175
609.578	0.0152269
609.656	0.0153506
609.734	0.0153039
609.812	0.0152951
609.890	0.0152112
609.968	0.0154292
610.047	0.0153985
610.125	0.0153972
610.203	0.0153693
610.281	0.0153514
610.359	0.0153625
610.437	0.0152761
610.515	0.0153742
610.593	0.0152836
610.672	0.0154038
610.750	0.0153532
610.828	0.0153488
610.906	0.0153572
610.984	0.0154492
611.062	0.0153510
611.140	0.0152972
611.218	0.0154378
611.297	0.0154434
611.375	0.0154244
611.453	0.0154213
611.531	0.0154102
611.609	0.0153243
611.687	0.0152277
611.765	0.0154038
611.843	0.0152409
611.922	0.0153790
612.000	0.0153741
612.078	0.0153628
612.156	0.0153796
612.234	0.0152779
612.312	0.0152011
612.390	0.0153584
612.468	0.0153751
612.547	0.0153436
612.625	0.0151420
612.703	0.0152334
612.781	0.0154366
612.859	0.0153359
612.937	0.0152733
613.015	0.0153027
613.093	0.0152856
613.172	0.0154289
613.250	0.0153738
613.328	0.0153230
613.406	0.0153045
613.484	0.0154540
613.562	0.0152753
613.640	0.0153033
613.718	0.0153865
613.797	0.0152557
613.875	0.0151935
613.953	0.0152997
614.031	0.0154261
614.109	0.0153410
614.187	0.0153310
614.265	0.0153501
614.343	0.0155132
614.422	0.0153004
614.500	0.0153048
614.578	0.0151987
614.656	0.0153441
614.734	0.0154679
614.812	0.0153199
614.890	0.0153928
614.968	0.0154779
615.047	0.0153152
615.125	0.0155025
615.203	0.0153693
615.281	0.0153037
615.359	0.0153310
615.437	0.0153275
615.515	0.0153753
615.593	0.0153049
615.672	0.0154329
615.750	0.0154411
615.828	0.0153892
615.906	0.0152831
615.984	0.0152214
616.062	0.0153147
616.140	0.0154345
616.218	0.0154135
616.297	0.0154669
616.375	0.0154099
616.453	0.0154151
616.531	0.0153898
616.609	0.0153305
616.687	0.0154035
616.765	0.0153905
616.843	0.0152431
616.922	0.0153539
617.000	0.0152903
617.078	0.0154256
617.156	0.0153415
617.234	0.0154748
617.312	0.0153618
617.390	0.0152460
617.468	0.0154615
617.547	0.0152820
617.625	0.0152654
617.703	0.0153766
617.781	0.0153608
617.859	0.0153804
617.937	0.0153936
618.015	0.0154175
618.093	0.0154663
618.172	0.0152225
618.250	0.0154017
618.328	0.0153268
618.406	0.0153795
618.484	0.0154185
618.562	0.0153747
618.640	0.0152715
618.718	0.0152733
618.797	0.0153671
618.875	0.0153728
618.953	0.0154526
619.031	0.0153093
619.109	0.0152955
619.187	0.0152875
619.265	0.0153893
619.343	0.0153853
619.422	0.0154145
619.500	0.0153722
619.578	0.0153306
619.656	0.0153216
619.734	0.0152203
619.812	0.0153207
619.890	0.0152595
619.968	0.0154565
620.047	0.0155566
620.125	0.0154425
620.203	0.0153335
620.281	0.0153520
620.359	0.0154891
620.437	0.0152769
620.515	0.0154873
620.593	0.0153162
620.672	0.0151935
620.750	0.0153741
620.828	0.0152707
620.906	0.0154043
620.984	0.0153964
621.062	0.0154508
621.140	0.0153185
621.218	0.0154128
621.297	0.0153188
621.375	0.0153049
621.453	0.0155182
621.531	0.0153701
621.609	0.0154031
621.687	0.0153896
621.765	0.0153203
621.843	0.0153516
621.922	0.0153387
622.000	0.0153020
622.078	0.0154816
622.156	0.0153545
622.234	0.0153867
622.312	0.0153782
622.390	0.0153008
622.468	0.0153288
622.547	0.0153736
622.625	0.0153905
622.703	0.0153384
622.781	0.0153671
622.859	0.0153004
622.937	0.0153130
623.015	0.0153780
623.093	0.0153555
623.172	0.0152271
623.250	0.0152048
623.328	0.0152866
623.406	0.0153020
623.484	0.0153045
623.562	0.0154808
623.640	0.0153402
623.718	0.0153100
623.797	0.0152177
623.875	0.0152407
623.953	0.0151544
624.031	0.0153437
624.109	0.0153880
624.187	0.0154257
624.265	0.0153455
624.343	0.0152669
624.422	0.0153809
624.500	0.0153537
624.578	0.0153537
624.656	0.0153817
624.734	0.0152585
624.812	0.0153348
624.890	0.0152442
624.968	0.0153757
625.047	0.0155515
625.125	0.0152683
625.203	0.0153254
625.281	0.0152704
625.359	0.0152243
625.437	0.0152944
625.515	0.0154053
625.593	0.0153383
625.672	0.0151997
625.750	0.0151463
625.828	0.0152486
625.906	0.0154558
625.984	0.0152847
626.062	0.0153273
626.140	0.0152719
626.218	0.0152141
626.297	0.0154160
626.375	0.0154759
626.453	0.0154020
626.531	0.0153854
626.609	0.0153039
626.687	0.0153126
626.765	0.0153211
626.843	0.0154203
626.922	0.0152231
627.000	0.0152621
627.078	0.0154193
627.156	0.0153026
627.234	0.0152541
627.312	0.0153884
627.390	0.0153581
627.468	0.0152473
627.547	0.0154157
627.625	0.0152829
627.703	0.0152941
627.781	0.0153590
627.859	0.0153376
627.937	0.0152469
628.015	0.0152741
628.093	0.0153635
628.172	0.0153954
628.250	0.0153542
628.328	0.0153207
628.406	0.0154259
628.484	0.0153381
628.562	0.0153207
628.640	0.0153339
628.718	0.0153252
628.797	0.0153145
628.875	0.0155903
628.953	0.0155222
629.031	0.0153382
629.109	0.0153373
629.187	0.0152512
629.265	0.0152094
629.343	0.0153680
629.422	0.0154276
629.500	0.0155186
629.578	0.0152119
629.656	0.0153320
629.734	0.0154375
629.812	0.0152910
629.890	0.0153413
629.968	0.0153566
630.047	0.0152586
630.125	0.0154805
630.203	0.0153920
630.281	0.0153152
630.359	0.0152585
630.437	0.0153654
630.515	0.0152814
630.593	0.0153406
630.672	0.0153359
630.750	0.0152823
630.828	0.0154210
630.906	0.0152722
630.984	0.0152429
631.062	0.0153716
631.140	0.0153129
631.218	0.0152953
631.297	0.0152470
631.375	0.0153137
631.453	0.0153334
631.531	0.0152553
631.609	0.0153697
631.687	0.0153645
631.765	0.0153039
631.843	0.0153928
631.922	0.0153468
632.000	0.0154611
632.078	0.0152795
632.156	0.0154517
632.234	0.0153176
632.312	0.0153938
632.390	0.0154360
632.468	0.0153080
632.547	0.0153694
632.625	0.0154364
632.703	0.0153239
632.781	0.0154640
632.859	0.0153506
632.937	0.0151788
633.015	0.0152728
633.093	0.0153721
633.172	0.0153499
633.250	0.0153581
633.328	0.0154784
633.406	0.0153459
633.484	0.0153159
633.562	0.0152653
633.640	0.0153765
633.718	0.0153346
633.797	0.0153534
633.875	0.0154132
633.953	0.0153232
634.031	0.0153668
634.109	0.0152501
634.187	0.0152702
634.265	0.0152460
634.343	0.0152486
634.422	0.0154340
634.500	0.0152939
634.578	0.0152467
634.656	0.0153493
634.734	0.0153031
634.812	0.0153610
634.890	0.0154438
634.968	0.0153481
635.047	0.0154066
635.125	0.0152460
635.203	0.0153123
635.281	0.0153327
635.359	0.0153737
635.437	0.0152250
635.515	0.0153580
635.593	0.0154391
635.672	0.0153738
635.750	0.0152850
635.828	0.0153069
635.906	0.0153641
635.984	0.0152780
636.062	0.0153472
636.140	0.0152995
636.218	0.0152725
636.297	0.0153783
636.375	0.0151892
636.453	0.0153976
636.531	0.0154067
636.609	0.0152925
636.687	0.0152351
636.765	0.0153473
636.843	0.0153464
636.922	0.0152999
637.000	0.0152598
637.078	0.0152724
637.156	0.0153259
637.234	0.0153648
637.312	0.0154861
637.390	0.0152638
637.468	0.0153877
637.547	0.0152763
637.625	0.0152968
637.703	0.0152618
637.781	0.0152802
637.859	0.0154285
637.937	0.0153442
638.015	0.0152753
638.093	0.0153246
638.172	0.0152468
638.250	0.0153824
638.328	0.0153573
638.406	0.0153078
638.484	0.0153532
638.562	0.0154375
638.640	0.0153278
638.718	0.0152647
638.797	0.0154140
638.875	0.0152903
638.953	0.0152489
639.031	0.0153036
639.109	0.0152240
639.187	0.0153682
639.265	0.0153601
639.343	0.0153790
639.422	0.0153582
639.500	0.0152907
639.578	0.0153642
639.656	0.0154005
639.734	0.0153316
639.812	0.0154553
639.890	0.0153924
639.968	0.0154475
640.047	0.0153032
640.125	0.0152477
640.203	0.0153660
640.281	0.0153493
640.359	0.0152809
640.437	0.0153335
640.515	0.0153436
640.593	0.0153673
640.672	0.0154320
640.750	0.0152695
640.828	0.0153001
640.906	0.0153637
640.984	0.0153191
641.062	0.0152834
641.140	0.0153799
641.218	0.0153479
641.297	0.0152888
641.375	0.0152998
641.453	0.0151680
641.531	0.0152607
641.609	0.0152462
641.687	0.0152483
641.765	0.0153129
641.843	0.0153229
641.922	0.0152019
642.000	0.0152834
642.078	0.0153761
642.156	0.0154093
642.234	0.0153598
642.312	0.0153997
642.390	0.0153172
642.468	0.0153210
642.547	0.0154382
642.625	0.0154359
642.703	0.0154810
642.781	0.0154655
642.859	0.0153244
642.937	0.0153547
643.015	0.0153116
643.093	0.0155148
643.172	0.0153256
643.250	0.0152750
643.328	0.0152762
643.406	0.0154514
643.484	0.0153450
643.562	0.0154159
643.640	0.0153454
643.718	0.0152866
643.797	0.0152806
643.875	0.0155034
643.953	0.0152850
644.031	0.0154618
644.109	0.0155278
644.187	0.0152256
644.265	0.0154175
644.343	0.0154603
644.422	0.0154865
644.500	0.0153967
644.578	0.0152447
644.656	0.0152869
644.734	0.0154044
644.812	0.0153446
644.890	0.0154270
644.968	0.0153104
645.047	0.0153098
645.125	0.0152105
645.203	0.0152988
645.281	0.0154575
645.359	0.0152969
645.437	0.0152747
645.515	0.0153291
645.593	0.0151915
645.672	0.0152699
645.750	0.0154149
645.828	0.0153052
645.906	0.0153424
645.984	0.0153164
646.062	0.0154591
646.140	0.0155080
646.218	0.0153484
646.297	0.0153809
646.375	0.0153656
646.453	0.0152660
646.531	0.0152731
646.609	0.0153689
646.687	0.0153562
646.765	0.0152575
646.843	0.0153423
646.922	0.0154519
647.000	0.0153236
647.078	0.0153924
647.156	0.0152345
647.234	0.0153381
647.312	0.0152968
647.390	0.0154002
647.468	0.0152239
647.547	0.0153780
647.625	0.0152654
647.703	0.0152856
647.781	0.0152563
647.859	0.0152760
647.937	0.0153371
648.015	0.0154522
648.093	0.0153938
648.172	0.0153066
648.250	0.0152879
648.328	0.0153859
648.406	0.0153565
648.484	0.0152812
648.562	0.0153116
648.640	0.0153635
648.718	0.0153145
648.797	0.0153536
648.875	0.0155122
648.953	0.0152791
649.031	0.0153165
649.109	0.0152845
649.187	0.0153853
649.265	0.0154488
649.343	0.0154411
649.422	0.0154281
649.500	0.0152848
649.578	0.0154102
649.656	0.0152290
649.734	0.0153400
649.812	0.0153709
649.890	0.0153187
649.968	0.0153058
650.047	0.0152844
650.125	0.0153653
650.203	0.0153319
650.281	0.0153593
650.359	0.0153558
650.437	0.0153805
650.515	0.0154457
650.593	0.0154972
650.672	0.0153809
650.750	0.0152710
650.828	0.0153648
650.906	0.0154143
650.984	0.0154363
651.062	0.0153199
651.140	0.0154012
651.218	0.0153754
651.297	0.0152941
651.375	0.0153354
651.453	0.0152299
651.531	0.0154625
651.609	0.0152935
651.687	0.0153345
651.765	0.0153574
651.843	0.0153562
651.922	0.0153801
652.000	0.0153469
652.078	0.0153440
652.156	0.0152266
652.234	0.0153029
652.312	0.0153281
652.390	0.0154839
652.468	0.0153593
652.547	0.0154111
652.625	0.0153026
652.703	0.0153072
652.781	0.0154772
652.859	0.0154020
652.937	0.0152996
653.015	0.0155051
653.093	0.0154509
653.172	0.0154035
653.250	0.0152077
653.328	0.0153204
653.406	0.0154363
653.484	0.0154276
653.562	0.0152657
653.640	0.0152383
653.718	0.0155727
653.797	0.0153637
653.875	0.0154288
653.953	0.0153793
654.031	0.0153875
654.109	0.0152583
654.187	0.0153933
654.265	0.0154224
654.343	0.0152863
654.422	0.0153641
654.500	0.0152552
654.578	0.0153674
654.656	0.0154689
654.734	0.0152674
654.812	0.0152905
654.890	0.0152990
654.968	0.0153920
655.047	0.0153430
655.125	0.0152425
655.203	0.0153002
655.281	0.0153522
655.359	0.0154173
655.437	0.0152170
655.515	0.0153029
655.593	0.0154247
655.672	0.0152646
655.750	0.0152561
655.828	0.0153358
655.906	0.0154456
655.984	0.0153462
656.062	0.0153072
656.140	0.0152818
656.218	0.0153633
656.297	0.0153719
656.375	0.0153329
656.453	0.0154633
656.531	0.0153271
656.609	0.0153899
656.687	0.0153571
656.765	0.0152744
656.843	0.0152384
656.922	0.0152265
657.000	0.0152800
657.078	0.0152546
657.156	0.0154152
657.234	0.0153460
657.312	0.0154542
657.390	0.0152467
657.468	0.0152289
657.547	0.0153098
657.625	0.0154892
657.703	0.0153740
657.781	0.0153158
657.859	0.0153997
657.937	0.0154311
658.015	0.0152417
658.093	0.0154306
658.172	0.0152821
658.250	0.0152568
658.328	0.0154123
658.406	0.0153239
658.484	0.0153474
658.562	0.0153143
658.640	0.0153739
658.718	0.0152957
658.797	0.0153925
658.875	0.0155335
658.953	0.0153950
659.031	0.0153904
659.109	0.0153217
659.187	0.0152338
659.265	0.0154370
659.343	0.0154159
659.422	0.0153999
659.500	0.0153745
659.578	0.0153583
659.656	0.0153285
659.734	0.0154137
659.812	0.0152871
659.890	0.0154059
659.968	0.0154680
660.047	0.0155246
660.125	0.0153149
660.203	0.0153264
660.281	0.0154580
660.359	0.0153255
660.437	0.0153394
660.515	0.0153548
660.593	0.0152828
660.672	0.0153706
660.750	0.0152792
660.828	0.0151794
660.906	0.0153179
660.984	0.0153605
661.062	0.0153962
661.140	0.0153463
661.218	0.0152716
661.297	0.0153011
661.375	0.0154526
661.453	0.0154829
661.531	0.0152081
661.609	0.0152728
661.687	0.0154481
661.765	0.0154494
661.843	0.0153429
661.922	0.0155064
662.000	0.0153816
662.078	0.0153776
662.156	0.0154122
662.234	0.0153709
662.312	0.0152818
662.390	0.0155199
662.468	0.0154263
662.547	0.0153433
662.625	0.0152823
662.703	0.0154749
662.781	0.0153851
662.859	0.0153918
662.937	0.0153316
663.015	0.0154180
663.093	0.0154868
663.172	0.0154305
663.250	0.0153298
663.328	0.0153664
663.406	0.0154091
663.484	0.0153158
663.562	0.0151550
663.640	0.0152873
663.718	0.0154685
663.797	0.0153149
663.875	0.0154256
663.953	0.0153354
664.031	0.0153683
664.109	0.0151341
664.187	0.0153044
664.265	0.0152737
664.343	0.0152629
664.422	0.0152563
664.500	0.0154015
664.578	0.0153244
664.656	0.0153516
664.734	0.0153571
664.812	0.0153313
664.890	0.0154310
664.968	0.0153868
665.047	0.0152969
665.125	0.0152667
665.203	0.0153641
665.281	0.0153061
665.359	0.0155323
665.437	0.0153571
665.515	0.0154108
665.593	0.0154884
665.672	0.0153613
665.750	0.0152975
665.828	0.0153546
665.906	0.0152660
665.984	0.0153059
666.062	0.0153836
666.140	0.0153065
666.218	0.0154214
666.297	0.0153574
666.375	0.0153282
666.453	0.0154141
666.531	0.0153288
666.609	0.0153625
666.687	0.0152296
666.765	0.0152938
666.843	0.0154089
666.922	0.0153851
667.000	0.0153794
667.078	0.0153175
667.156	0.0153865
667.234	0.0152700
667.312	0.0152891
667.390	0.0153349
667.468	0.0154405
667.547	0.0153728
667.625	0.0153632
667.703	0.0153580
667.781	0.0153142
667.859	0.0154735
667.937	0.0153867
668.015	0.0153603
668.093	0.0154412
668.172	0.0154286
668.250	0.0154072
668.328	0.0154871
668.406	0.0153552
668.484	0.0152798
668.562	0.0154436
668.640	0.0155158
668.718	0.0153858
668.797	0.0151731
668.875	0.0153389
668.953	0.0153582
669.031	0.0152779
669.109	0.0152274
669.187	0.0153484
669.265	0.0152670
669.343	0.0152486
669.422	0.0152431
669.500	0.0153497
669.578	0.0152831
669.656	0.0152042
669.734	0.0153842
669.812	0.0153522
669.890	0.0153725
669.968	0.0152704
670.047	0.0152760
670.125	0.0152557
670.203	0.0153345
670.281	0.0153217
670.359	0.0153217
670.437	0.0154463
670.515	0.0153368
670.593	0.0153295
670.672	0.0153560
670.750	0.0153173
670.828	0.0152219
670.906	0.0153437
670.984	0.0152892
671.062	0.0153626
671.140	0.0153467
671.218	0.0152705
671.297	0.0153215
671.375	0.0153808
671.453	0.0154413
671.531	0.0152682
671.609	0.0153470
671.687	0.0153661
671.765	0.0153997
671.843	0.0152969
671.922	0.0152911
672.000	0.0153118
672.078	0.0152767
672.156	0.0152709
672.234	0.0152500
672.312	0.0152966
672.390	0.0152313
672.468	0.0153417
672.547	0.0152994
672.625	0.0152267
672.703	0.0154697
672.781	0.0152922
672.859	0.0153070
672.937	0.0152434
673.015	0.0153913
673.093	0.0152419
673.172	0.0153518
673.250	0.0152528
673.328	0.0154430
673.406	0.0154345
673.484	0.0154049
673.562	0.0152805
673.640	0.0153960
673.718	0.0155958
673.797	0.0155170
673.875	0.0153279
673.953	0.0154884
674.031	0.0153934
674.109	0.0153830
674.187	0.0154794
674.265	0.0154910
674.343	0.0153773
674.422	0.0153906
674.500	0.0153312
674.578	0.0153699
674.656	0.0153753
674.734	0.0153775
674.812	0.0153058
674.890	0.0153577
674.968	0.0152151
675.047	0.0152298
675.125	0.0154333
675.203	0.0153935
675.281	0.0153449
675.359	0.0152612
675.437	0.0153435
675.515	0.0152924
675.593	0.0153156
675.672	0.0152972
675.750	0.0153629
675.828	0.0152865
675.906	0.0153507
675.984	0.0154269
676.062	0.0153288
676.140	0.0154168
676.218	0.0152921
676.297	0.0153159
676.375	0.0153514
676.453	0.0153294
676.531	0.0153775
676.609	0.0154549
676.687	0.0153275
676.765	0.0154617
676.843	0.0154184
676.922	0.0152824
677.000	0.0153004
677.078	0.0154097
677.156	0.0153659
677.234	0.0154265
677.312	0.0154587
677.390	0.0154146
677.468	0.0153439
677.547	0.0152943
677.625	0.0153323
677.703	0.0153764
677.781	0.0153365
677.859	0.0154877
677.937	0.0152940
678.015	0.0153444
678.093	0.0153031
678.172	0.0153333
678.250	0.0154163
678.328	0.0153838
678.406	0.0152576
678.484	0.0153415
678.562	0.0150927
678.640	0.0152393
678.718	0.0154079
678.797	0.0153510
678.875	0.0153853
678.953	0.0152846
679.031	0.0153256
679.109	0.0152341
679.187	0.0153181
679.265	0.0152676
679.343	0.0152924
679.422	0.0152643
679.500	0.0153791
679.578	0.0154393
679.656	0.0154632
679.734	0.0154624
679.812	0.0153584
679.890	0.0154340
679.968	0.0153096
680.047	0.0155125
680.125	0.0153926
680.203	0.0152573
680.281	0.0153706
680.359	0.0155335
680.437	0.0151883
680.515	0.0153064
680.593	0.0153636
680.672	0.0153490
680.750	0.0151764
680.828	0.0152013
680.906	0.0153874
680.984	0.0153536
681.062	0.0153133
681.140	0.0152239
681.218	0.0151852
681.297	0.0151660
681.375	0.0152976
681.453	0.0153490
681.531	0.0154358
681.609	0.0153653
681.687	0.0152934
681.765	0.0152684
681.843	0.0151731
681.922	0.0153015
682.000	0.0153287
682.078	0.0152893
682.156	0.0154792
682.234	0.0153515
682.312	0.0154051
682.390	0.0152626
682.468	0.0152898
682.547	0.0153805
682.625	0.0153313
682.703	0.0153147
682.781	0.0154134
682.859	0.0153182
682.937	0.0153873
683.015	0.0153275
683.093	0.0154043
683.172	0.0154163
683.250	0.0156470
683.328	0.0154193
683.406	0.0154201
683.484	0.0153991
683.562	0.0153031
683.640	0.0154781
683.718	0.0155553
683.797	0.0153864
683.875	0.0153825
683.953	0.0153417
684.031	0.0152869
684.109	0.0153325
684.187	0.0151754
684.265	0.0153693
684.343	0.0154259
684.422	0.0153944
684.500	0.0153875
684.578	0.0152344
684.656	0.0152942
684.734	0.0152597
684.812	0.0152949
684.890	0.0153307
684.968	0.0153202
685.047	0.0152406
685.125	0.0152689
685.203	0.0153058
685.281	0.0153395
685.359	0.0152354
685.437	0.0153444
685.515	0.0152482
685.593	0.0153989
685.672	0.0153740
685.750	0.0153076
685.828	0.0153797
685.906	0.0153213
685.984	0.0152438
686.062	0.0154621
686.140	0.0154205
686.218	0.0153426
686.297	0.0153550
686.375	0.0153450
686.453	0.0151899
686.531	0.0152717
686.609	0.0154025
686.687	0.0153356
686.765	0.0153912
686.843	0.0155190
686.922	0.0152866
687.000	0.0153298
687.078	0.0152501
687.156	0.0152586
687.234	0.0153419
687.312	0.0153266
687.390	0.0152722
687.468	0.0153164
687.547	0.0153476
687.625	0.0152679
687.703	0.0153613
687.781	0.0152643
687.859	0.0151900
687.937	0.0152862
688.015	0.0152393
688.093	0.0152933
688.172	0.0153054
688.250	0.0154436
688.328	0.0152831
688.406	0.0152396
688.484	0.0153278
688.562	0.0152839
688.640	0.0152947
688.718	0.0154199
688.797	0.0152181
688.875	0.0152022
688.953	0.0153006
689.031	0.0153204
689.109	0.0153829
689.187	0.0153903
689.265	0.0154438
689.343	0.0153111
689.422	0.0153429
689.500	0.0152081
689.578	0.0154974
689.656	0.0153703
689.734	0.0154076
689.812	0.0153483
689.890	0.0152865
689.968	0.0152866
690.047	0.0154969
690.125	0.0152953
690.203	0.0153391
690.281	0.0152161
690.359	0.0152804
690.437	0.0153369
690.515	0.0152631
690.593	0.0153198
690.672	0.0152934
690.750	0.0154548
690.828	0.0153489
690.906	0.0152891
690.984	0.0152501
691.062	0.0152805
691.140	0.0152718
691.218	0.0153352
691.297	0.0153193
691.375	0.0152632
691.453	0.0152088
691.531	0.0152299
691.609	0.0152398
691.687	0.0153548
691.765	0.0152834
691.843	0.0152737
691.922	0.0153857
692.000	0.0152532
692.078	0.0153745
692.156	0.0153844
692.234	0.0153403
692.312	0.0153767
692.390	0.0154523
692.468	0.0153416
692.547	0.0152809
692.625	0.0154089
692.703	0.0153725
692.781	0.0152422
692.859	0.0152055
692.937	0.0152883
693.015	0.0153396
693.093	0.0152567
693.172	0.0154238
693.250	0.0153287
693.328	0.0153001
693.406	0.0154227
693.484	0.0154167
693.562	0.0152148
693.640	0.0152722
693.718	0.0153660
693.797	0.0153257
693.875	0.0152863
693.953	0.0153983
694.031	0.0153812
694.109	0.0152024
694.187	0.0153428
694.265	0.0151464
694.343	0.0154344
694.422	0.0153230
694.500	0.0151669
694.578	0.0152892
694.656	0.0153154
694.734	0.0153097
694.812	0.0153024
694.890	0.0154146
694.968	0.0152600
695.047	0.0152972
695.125	0.0153989
695.203	0.0154196
695.281	0.0153703
695.359	0.0153677
695.437	0.0153239
695.515	0.0154453
695.593	0.0154230
695.672	0.0153032
695.750	0.0154131
695.828	0.0152541
695.906	0.0153947
695.984	0.0153786
696.062	0.0153860
696.140	0.0152847
696.218	0.0152491
696.297	0.0154171
696.375	0.0153829
696.453	0.0153654
696.531	0.0154415
696.609	0.0154523
696.687	0.0154406
696.765	0.0152723
696.843	0.0153478
696.922	0.0153244
697.000	0.0153204
697.078	0.0154349
697.156	0.0152927
697.234	0.0153411
697.312	0.0153433
697.390	0.0154184
697.468	0.0153593
697.547	0.0153286
697.625	0.0153785
697.703	0.0153452
697.781	0.0153567
697.859	0.0153776
697.937	0.0152337
698.015	0.0153671
698.093	0.0154048
698.172	0.0154517
698.250	0.0153857
698.328	0.0153897
698.406	0.0154325
698.484	0.0153669
698.562	0.0153032
698.640	0.0153342
698.718	0.0151759
698.797	0.0154351
698.875	0.0154021
698.953	0.0152431
699.031	0.0152062
699.109	0.0152955
699.187	0.0153848
699.265	0.0153622
699.343	0.0153757
699.422	0.0154995
699.500	0.0154080
699.578	0.0152740
699.656	0.0154660
699.734	0.0153494
699.812	0.0152415
699.890	0.0153000
699.968	0.0154379
700.047	0.0153896
700.125	0.0152836
700.203	0.0153199
700.281	0.0152078
700.359	0.0153441
700.437	0.0152361
700.515	0.0153571
700.593	0.0153979
700.672	0.0152891
700.750	0.0153928
700.828	0.0152380
700.906	0.0153602
700.984	0.0153403
701.062	0.0154745
701.140	0.0152691
701.218	0.0151727
701.297	0.0153383
701.375	0.0155035
701.453	0.0153764
701.531	0.0152831
701.609	0.0153618
701.687	0.0153223
701.765	0.0152837
701.843	0.0152560
701.922	0.0153905
702.000	0.0154924
702.078	0.0154143
702.156	0.0153894
702.234	0.0153184
702.312	0.0153933
702.390	0.0153702
702.468	0.0153349
702.547	0.0152679
702.625	0.0153191
702.703	0.0152923
702.781	0.0153466
702.859	0.0154091
702.937	0.0152313
703.015	0.0153200
703.093	0.0151839
703.172	0.0153468
703.250	0.0153957
703.328	0.0153332
703.406	0.0153678
703.484	0.0153485
703.562	0.0152624
703.640	0.0153245
703.718	0.0152608
703.797	0.0152847
703.875	0.0153979
703.953	0.0154115
704.031	0.0153735
704.109	0.0153242
704.187	0.0152441
704.265	0.0153106
704.343	0.0153113
704.422	0.0154123
704.500	0.0152799
704.578	0.0152092
704.656	0.0152483
704.734	0.0153799
704.812	0.0153342
704.890	0.0152834
704.968	0.0152195
705.047	0.0153397
705.125	0.0152274
705.203	0.0152755
705.281	0.0153868
705.359	0.0153880
705.437	0.0152065
705.515	0.0153311
705.593	0.0154611
705.672	0.0153918
705.750	0.0154904
705.828	0.0152818
705.906	0.0153823
705.984	0.0154891
706.062	0.0154008
706.140	0.0153860
706.218	0.0153201
706.297	0.0154308
706.375	0.0154961
706.453	0.0151998
706.531	0.0153493
706.609	0.0154245
706.687	0.0152871
706.765	0.0152132
706.843	0.0153059
706.922	0.0153422
707.000	0.0153456
707.078	0.0152670
707.156	0.0153805
707.234	0.0153445
707.312	0.0153262
707.390	0.0153288
707.468	0.0152779
707.547	0.0153146
707.625	0.0154021
707.703	0.0153513
707.781	0.0152611
707.859	0.0153146
707.937	0.0153782
708.015	0.0153224
708.093	0.0153345
708.172	0.0153666
708.250	0.0154160
708.328	0.0154938
708.406	0.0152998
708.484	0.0153157
708.562	0.0153255
708.640	0.0153343
708.718	0.0152962
708.797	0.0153423
708.875	0.0153143
708.953	0.0152987
709.031	0.0153399
709.109	0.0153028
709.187	0.0152262
709.265	0.0153479
709.343	0.0152904
709.422	0.0154493
709.500	0.0153983
709.578	0.0153230
709.656	0.0153266
709.734	0.0152461
709.812	0.0153560
709.890	0.0151839
709.968	0.0153624
710.047	0.0153961
710.125	0.0153740
710.203	0.0152949
710.281	0.0152416
710.359	0.0152019
710.437	0.0153521
710.515	0.0152882
710.593	0.0152875
710.672	0.0151955
710.750	0.0151817
710.828	0.0154021
710.906	0.0153893
710.984	0.0152953
711.062	0.0153059
711.140	0.0152541
711.218	0.0154424
711.297	0.0152488
711.375	0.0151019
711.453	0.0152084
711.531	0.0154265
711.609	0.0154536
711.687	0.0153376
711.765	0.0152861
711.843	0.0153182
711.922	0.0152459
712.000	0.0152390
712.078	0.0153046
712.156	0.0152209
712.234	0.0152757
712.312	0.0152271
712.390	0.0152720
712.468	0.0154160
712.547	0.0152867
712.625	0.0152618
712.703	0.0154072
712.781	0.0153274
712.859	0.0152233
712.937	0.0153201
713.015	0.0152634
713.093	0.0150951
713.172	0.0152575
713.250	0.0153392
713.328	0.0152379
713.406	0.0151651
713.484	0.0151785
713.562	0.0151844
713.640	0.0151796
713.718	0.0151466
713.797	0.0152184
713.875	0.0152914
713.953	0.0152290
714.031	0.0152528
714.109	0.0152312
714.187	0.0152956
714.265	0.0152941
714.343	0.0152853
714.422	0.0153240
714.500	0.0152554
714.578	0.0152312
714.656	0.0154591
714.734	0.0153487
714.812	0.0151451
714.890	0.0152266
714.968	0.0152940
715.047	0.0153879
715.125	0.0153969
715.203	0.0151651
715.281	0.0152226
715.359	0.0154398
715.437	0.0152377
715.515	0.0152876
715.593	0.0153403
715.672	0.0152465
715.750	0.0153072
715.828	0.0152548
715.906	0.0152368
715.984	0.0152914
716.062	0.0152215
716.140	0.0154203
716.218	0.0152676
716.297	0.0154482
716.375	0.0153357
716.453	0.0153362
716.531	0.0152165
716.609	0.0152916
716.687	0.0153492
716.765	0.0154169
716.843	0.0152997
716.922	0.0152808
717.000	0.0153101
717.078	0.0152576
717.156	0.0154302
717.234	0.0152882
717.312	0.0151777
717.390	0.0153289
717.468	0.0152773
717.547	0.0153829
717.625	0.0152493
717.703	0.0152140
717.781	0.0154151
717.859	0.0152597
717.937	0.0151460
718.015	0.0152622
718.093	0.0151748
718.172	0.0154643
718.250	0.0152886
718.328	0.0152827
718.406	0.0154076
718.484	0.0152479
718.562	0.0152701
718.640	0.0152817
718.718	0.0152166
718.797	0.0153528
718.875	0.0152781
718.953	0.0152536
719.031	0.0152672
719.109	0.0152833
719.187	0.0152130
719.265	0.0151870
719.343	0.0152627
719.422	0.0153632
719.500	0.0153020
719.578	0.0152520
719.656	0.0152956
719.734	0.0153158
719.812	0.0153036
719.890	0.0152814
719.968	0.0153622
720.047	0.0152872
720.125	0.0153931
720.203	0.0153362
720.281	0.0151790
720.359	0.0152165
720.437	0.0153516
720.515	0.0154359
720.593	0.0152944
720.672	0.0152097
720.750	0.0151939
720.828	0.0152729
720.906	0.0152667
720.984	0.0154011
721.062	0.0152135
721.140	0.0153060
721.218	0.0153431
721.297	0.0153967
721.375	0.0152721
721.453	0.0153656
721.531	0.0153392
721.609	0.0152814
721.687	0.0152379
721.765	0.0153629
721.843	0.0153463
721.922	0.0152947
722.000	0.0153712
722.078	0.0154049
722.156	0.0152799
722.234	0.0153437
722.312	0.0154256
722.390	0.0152905
722.468	0.0153333
722.547	0.0153777
722.625	0.0152132
722.703	0.0153088
722.781	0.0153694
722.859	0.0154037
722.937	0.0153735
723.015	0.0152399
723.093	0.0153353
723.172	0.0151718
723.250	0.0152099
723.328	0.0154471
723.406	0.0153596
723.484	0.0154507
723.562	0.0152103
723.640	0.0153225
723.718	0.0154125
723.797	0.0153656
723.875	0.0152244
723.953	0.0154173
724.031	0.0153551
724.109	0.0153342
724.187	0.0151367
724.265	0.0153257
724.343	0.0154353
724.422	0.0152914
724.500	0.0152707
724.578	0.0152701
724.656	0.0154081
724.734	0.0153713
724.812	0.0152814
724.890	0.0154596
724.968	0.0153233
725.047	0.0153928
725.125	0.0153133
725.203	0.0152990
725.281	0.0153116
725.359	0.0153149
725.437	0.0154148
725.515	0.0153630
725.593	0.0153465
725.672	0.0153576
725.750	0.0152582
725.828	0.0153841
725.906	0.0153435
725.984	0.0154113
726.062	0.0153886
726.140	0.0153874
726.218	0.0153123
726.297	0.0152364
726.375	0.0153437
726.453	0.0152055
726.531	0.0153335
726.609	0.0153393
726.687	0.0152798
726.765	0.0153378
726.843	0.0153095
726.922	0.0153855
727.000	0.0153722
727.078	0.0153497
727.156	0.0153068
727.234	0.0152293
727.312	0.0153827
727.390	0.0154120
727.468	0.0153028
727.547	0.0153809
727.625	0.0153786
727.703	0.0153374
727.781	0.0154082
727.859	0.0153378
727.937	0.0153020
728.015	0.0153387
728.093	0.0153183
728.172	0.0153143
728.250	0.0152553
728.328	0.0151807
728.406	0.0155298
728.484	0.0154719
728.562	0.0152428
728.640	0.0152451
728.718	0.0152377
728.797	0.0153602
728.875	0.0153951
728.953	0.0152879
729.031	0.0153479
729.109	0.0153921
729.187	0.0152172
729.265	0.0153087
729.343	0.0154210
729.422	0.0152688
729.500	0.0151948
729.578	0.0153274
729.656	0.0152681
729.734	0.0153123
729.812	0.0152133
729.890	0.0151263
729.968	0.0153436
730.047	0.0151733
730.125	0.0151636
730.203	0.0152468
730.281	0.0154150
730.359	0.0152452
730.437	0.0152077
730.515	0.0152908
730.593	0.0153140
730.672	0.0153248
730.750	0.0151946
730.828	0.0152567
730.906	0.0151806
730.984	0.0153321
731.062	0.0153018
731.140	0.0153210
731.218	0.0151990
731.297	0.0152706
731.375	0.0153728
731.453	0.0153696
731.531	0.0153127
731.609	0.0152444
731.687	0.0151865
731.765	0.0153149
731.843	0.0153041
731.922	0.0153197
732.000	0.0153251
732.078	0.0152702
732.156	0.0152472
732.234	0.0152890
732.312	0.0152487
732.390	0.0152215
732.468	0.0153026
732.547	0.0152425
732.625	0.0152028
732.703	0.0152450
732.781	0.0152388
732.859	0.0152064
732.937	0.0152337
733.015	0.0152208
733.093	0.0152715
733.172	0.0153432
733.250	0.0151615
733.328	0.0152483
733.406	0.0153409
733.484	0.0151544
733.562	0.0152956
733.640	0.0151924
733.718	0.0152863
733.797	0.0151961
733.875	0.0152530
733.953	0.0152787
734.031	0.0153397
734.109	0.0153542
734.187	0.0153185
734.265	0.0152774
734.343	0.0153139
734.422	0.0151920
734.500	0.0153738
734.578	0.0152502
734.656	0.0154010
734.734	0.0153009
734.812	0.0152626
734.890	0.0151798
734.968	0.0152991
735.047	0.0152975
735.125	0.0152819
735.203	0.0153092
735.281	0.0153893
735.359	0.0153246
735.437	0.0153359
735.515	0.0153104
735.593	0.0153263
735.672	0.0152311
735.750	0.0153910
735.828	0.0151965
735.906	0.0153395
735.984	0.0152831
736.062	0.0152082
736.140	0.0152599
736.218	0.0152425
736.297	0.0151817
736.375	0.0152682
736.453	0.0152265
736.531	0.0152721
736.609	0.0152413
736.687	0.0153021
736.765	0.0152655
736.843	0.0151678
736.922	0.0152224
737.000	0.0153476
737.078	0.0153485
737.156	0.0153749
737.234	0.0153124
737.312	0.0152727
737.390	0.0154160
737.468	0.0153352
737.547	0.0152644
737.625	0.0152007
737.703	0.0150856
737.781	0.0152512
737.859	0.0152658
737.937	0.0153000
738.015	0.0152399
738.093	0.0153535
738.172	0.0153468
738.250	0.0153281
738.328	0.0152539
738.406	0.0152119
738.484	0.0153430
738.562	0.0152644
738.640	0.0153338
738.718	0.0154329
738.797	0.0152718
738.875	0.0153602
738.953	0.0152940
739.031	0.0151927
739.109	0.0153934
739.187	0.0152489
739.265	0.0152381
739.343	0.0152715
739.422	0.0152871
739.500	0.0152348
739.578	0.0152831
739.656	0.0153094
739.734	0.0152699
739.812	0.0154251
739.890	0.0154002
739.968	0.0153602
740.047	0.0152924
740.125	0.0152663
740.203	0.0152087
740.281	0.0152198
740.359	0.0152801
740.437	0.0151268
740.515	0.0151986
740.593	0.0152999
740.672	0.0153458
740.750	0.0152517
740.828	0.0153373
740.906	0.0153983
740.984	0.0152498
741.062	0.0152567
741.140	0.0154176
741.218	0.0153854
741.297	0.0153915
741.375	0.0153727
741.453	0.0152220
741.531	0.0153042
741.609	0.0154137
741.687	0.0151443
741.765	0.0152621
741.843	0.0152445
741.922	0.0154144
742.000	0.0154009
742.078	0.0153654
742.156	0.0154239
742.234	0.0154596
742.312	0.0153308
742.390	0.0154594
742.468	0.0154086
742.547	0.0153650
742.625	0.0152934
742.703	0.0152775
742.781	0.0151316
742.859	0.0151688
742.937	0.0151707
743.015	0.0150213
743.093	0.0151576
743.172	0.0151009
743.250	0.0150112
743.328	0.0150724
743.406	0.0151495
743.484	0.0151386
743.562	0.0152568
743.640	0.0153322
743.718	0.0154167
743.797	0.0155975
743.875	0.0157505
743.953	0.0156741
744.031	0.0157473
744.109	0.0159338
744.187	0.0157450
744.265	0.0157699
744.343	0.0156203
744.422	0.0156915
744.500	0.0155156
744.578	0.0153503
744.656	0.0153145
744.734	0.0150871
744.812	0.0150446
744.890	0.0148682
744.968	0.0148407
745.047	0.0148489
745.125	0.0146490
745.203	0.0147720
745.281	0.0147229
745.359	0.0149212
745.437	0.0148418
745.515	0.0149582
745.593	0.0149292
745.672	0.0149642
745.750	0.0150295
745.828	0.0151520
745.906	0.0152744
745.984	0.0151758
746.062	0.0153226
746.140	0.0153193
746.218	0.0151012
746.297	0.0153309
746.375	0.0152129
746.453	0.0155324
746.531	0.0155229
746.609	0.0156551
746.687	0.0158016
746.765	0.0160890
746.843	0.0162993
746.922	0.0165439
747.000	0.0166375
747.078	0.0167020
747.156	0.0169745
747.234	0.0171071
747.312	0.0170200
747.390	0.0169982
747.468	0.0168580
747.547	0.0168411
747.625	0.0165386
747.703	0.0161089
747.781	0.0157440
747.859	0.0152384
747.937	0.0147017
748.015	0.0142954
748.093	0.0136187
748.172	0.0130505
748.250	0.0124615
748.328	0.0119793
748.406	0.0117012
748.484	0.0116435
748.562	0.0115763
748.640	0.0115126
748.718	0.0118884
748.797	0.0120877
748.875	0.0124773
748.953	0.0129986
749.031	0.0139735
749.109	0.0147529
749.187	0.0154886
749.265	0.0161939
749.343	0.0170251
749.422	0.0176304
749.500	0.0183579
749.578	0.0188983
749.656	0.0192590
749.734	0.0196063
749.812	0.0197663
749.890	0.0198892
749.968	0.0200194
750.047	0.0199512
750.125	0.0197189
750.203	0.0194974
750.281	0.0192168
750.359	0.0187896
750.437	0.0183793
750.515	0.0178490
750.593	0.0173509
750.672	0.0166506
750.750	0.0158260
750.828	0.0152975
750.906	0.0143082
750.984	0.0132981
751.062	0.0123127
751.140	0.0114226
751.218	0.0105004
751.297	0.00957611
751.375	0.00900314
751.453	0.00837425
751.531	0.00793396
751.609	0.00774818
751.687	0.00773346
751.765	0.00796318
751.843	0.00841812
751.922	0.00930542
752.000	0.0102039
752.078	0.0111571
752.156	0.0123675
752.234	0.0136979
752.312	0.0150217
752.390	0.0164959
752.468	0.0178991
752.547	0.0191688
752.625	0.0203107
752.703	0.0215128
752.781	0.0224454
752.859	0.0231565
752.937	0.0239085
753.015	0.0242622
753.093	0.0243102
753.172	0.0242446
753.250	0.0239405
753.328	0.0234418
753.406	0.0226030
753.484	0.0216998
753.562	0.0206505
753.640	0.0194659
753.718	0.0183836
753.797	0.0172038
753.875	0.0159496
753.953	0.0146401
754.031	0.0133747
754.109	0.0124209
754.187	0.0113314
754.265	0.0102699
754.343	0.00936974
754.422	0.00859924
754.500	0.00800484
754.578	0.00744186
754.656	0.00699677
754.734	0.00670845
754.812	0.00645538
754.890	0.00656311
754.968	0.00676880
755.047	0.00724228
755.125	0.00797760
755.203	0.00868896
755.281	0.00985016
755.359	0.0110539
755.437	0.0123656
755.515	0.0138907
755.593	0.0153015
755.672	0.0169170
755.750	0.0183628
755.828	0.0197538
755.906	0.0208278
755.984	0.0220109
756.062	0.0228294
756.140	0.0234044
756.218	0.0237756
756.297	0.0239053
756.375	0.0240126
756.453	0.0238541
756.531	0.0233686
756.609	0.0228197
756.687	0.0220486
756.765	0.0212031
756.843	0.0204655
756.922	0.0195387
757.000	0.0187000
757.078	0.0179295
757.156	0.0169981
757.234	0.0161490
757.312	0.0152322
757.390	0.0139950
757.468	0.0133210
757.547	0.0121233
757.625	0.0109697
757.703	0.0100536
757.781	0.00890503
757.859	0.00787628
757.937	0.00706459
758.015	0.00622925
758.093	0.00568199
758.172	0.00530991
758.250	0.00529633
758.328	0.00560921
758.406	0.00606033
758.484	0.00723022
758.562	0.00851990
758.640	0.0100771
758.718	0.0121411
758.797	0.0142255
758.875	0.0162530
758.953	0.0185377
759.031	0.0205038
759.109	0.0224419
759.187	0.0240181
759.265	0.0253022
759.343	0.0264325
759.422	0.0268443
759.500	0.0266241
759.578	0.0263735
759.656	0.0254977
759.734	0.0241865
759.812	0.0228784
759.890	0.0210125
759.968	0.0192469
760.047	0.0176507
760.125	0.0159854
760.203	0.0142140
760.281	0.0127002
760.359	0.0114452
760.437	0.0104710
760.515	0.00955124
760.593	0.00876350
760.672	0.00834824
760.750	0.00818405
760.828	0.00793472
760.906	0.00801575
760.984	0.00817230
761.062	0.00834244
761.140	0.00869949
761.218	0.00881866
761.297	0.00926529
761.375	0.00984207
761.453	0.0102124
761.531	0.0108753
761.609	0.0116082
761.687	0.0124065
761.765	0.0136279
761.843	0.0148344
761.922	0.0162726
762.000	0.0177030
762.078	0.0188989
762.156	0.0205016
762.234	0.0217211
762.312	0.0228785
762.390	0.0240649
762.468	0.0249576
762.547	0.0256847
762.625	0.0257983
762.703	0.0259138
762.781	0.0255843
762.859	0.0249268
762.937	0.0239428
763.015	0.0227790
763.093	0.0213293
763.172	0.0197533
763.250	0.0182303
763.328	0.0162279
763.406	0.0145856
763.484	0.0128797
763.562	0.0111571
763.640	0.00951477
763.718	0.00818764
763.797	0.00708267
763.875	0.00609154
763.953	0.00529106
764.031	0.00495934
764.109	0.00478058
764.187	0.00472054
764.265	0.00503136
764.343	0.00554672
764.422	0.00616226
764.500	0.00717880
764.578	0.00819878
764.656	0.00950485
764.734	0.0109762
764.812	0.0122907
764.890	0.0138729
764.968	0.0154595
765.047	0.0168426
765.125	0.0182894
765.203	0.0196671
765.281	0.0209768
765.359	0.0221141
765.437	0.0230302
765.515	0.0236680
765.593	0.0243285
765.672	0.0245798
765.750	0.0247560
765.828	0.0246263
765.906	0.0242487
765.984	0.0236674
766.062	0.0230018
766.140	0.0219062
766.218	0.0207706
766.297	0.0196004
766.375	0.0183875
766.453	0.0168499
766.531	0.0154800
766.609	0.0143442
766.687	0.0131393
766.765	0.0121936
766.843	0.0112593
766.922	0.0107186
767.000	0.0102193
767.078	0.00981827
767.156	0.00960533
767.234	0.00965157
767.312	0.00976265
767.390	0.00982536
767.468	0.0100282
767.547	0.0103024
767.625	0.0107806
767.703	0.0113534
767.781	0.0118620
767.859	0.0123763
767.937	0.0129528
768.015	0.0135822
768.093	0.0140914
768.172	0.0148058
768.250	0.0154538
768.328	0.0159412
768.406	0.0164807
768.484	0.0170304
768.562	0.0175977
768.640	0.0182085
768.718	0.0186784
768.797	0.0191390
768.875	0.0193744
768.953	0.0196124
769.031	0.0197260
769.109	0.0197417
769.187	0.0195265
769.265	0.0191791
769.343	0.0188309
769.422	0.0180482
769.500	0.0175860
769.578	0.0167605
769.656	0.0161620
769.734	0.0154798
769.812	0.0145998
769.890	0.0140413
769.968	0.0134661
770.047	0.0126860
770.125	0.0123695
770.203	0.0119621
770.281	0.0115369
770.359	0.0112486
770.437	0.0111109
770.515	0.0111755
770.593	0.0113914
770.672	0.0114631
770.750	0.0117658
770.828	0.0122276
770.906	0.0127861
770.984	0.0134475
771.062	0.0141280
771.140	0.0145068
771.218	0.0152951
771.297	0.0159737
771.375	0.0165120
771.453	0.0170163
771.531	0.0176438
771.609	0.0178323
771.687	0.0183192
771.765	0.0186218
771.843	0.0186495
771.922	0.0187681
772.000	0.0188435
772.078	0.0186862
772.156	0.0186238
772.234	0.0183964
772.312	0.0183772
772.390	0.0180346
772.468	0.0175491
772.547	0.0172605
772.625	0.0167691
772.703	0.0160737
772.781	0.0158657
772.859	0.0153786
772.937	0.0148845
773.015	0.0144668
773.093	0.0140068
773.172	0.0134915
773.250	0.0133196
773.328	0.0129266
773.406	0.0126453
773.484	0.0124236
773.562	0.0123316
773.640	0.0122285
773.718	0.0120798
773.797	0.0123271
773.875	0.0124029
773.953	0.0125732
774.031	0.0130577
774.109	0.0134986
774.187	0.0139237
774.265	0.0142528
774.343	0.0146349
774.422	0.0151868
774.500	0.0155019
774.578	0.0159084
774.656	0.0160800
774.734	0.0163731
774.812	0.0167393
774.890	0.0167538
774.968	0.0168551
775.047	0.0170364
775.125	0.0169918
775.203	0.0169825
775.281	0.0166532
775.359	0.0165288
775.437	0.0162925
775.515	0.0160854
775.593	0.0158334
775.672	0.0155977
775.750	0.0155376
775.828	0.0154205
775.906	0.0152924
775.984	0.0150986
776.062	0.0152134
776.140	0.0151759
776.218	0.0151452
776.297	0.0152013
776.375	0.0151241
776.453	0.0151682
776.531	0.0151966
776.609	0.0149339
776.687	0.0151009
776.765	0.0150481
776.843	0.0149506
776.922	0.0149311
777.000	0.0148392
777.078	0.0148751
777.156	0.0147800
777.234	0.0147614
777.312	0.0148315
777.390	0.0150489
777.468	0.0150896
777.547	0.0151555
777.625	0.0153269
777.703	0.0155727
777.781	0.0158007
777.859	0.0158591
777.937	0.0162087
778.015	0.0162627
778.093	0.0163777
778.172	0.0164504
778.250	0.0165438
778.328	0.0165155
778.406	0.0165345
778.484	0.0164751
778.562	0.0164197
778.640	0.0161062
778.718	0.0160925
778.797	0.0157606
778.875	0.0156657
778.953	0.0154745
779.031	0.0152490
779.109	0.0150626
779.187	0.0148503
779.265	0.0150049
779.343	0.0147126
779.422	0.0145662
779.500	0.0146626
779.578	0.0147552
779.656	0.0147177
779.734	0.0146866
779.812	0.0147902
779.890	0.0147759
779.968	0.0149277
780.047	0.0151266
780.125	0.0150256
780.203	0.0147481
780.281	0.0149277
780.359	0.0149033
780.437	0.0149321
780.515	0.0149631
780.593	0.0150455
780.672	0.0148303
780.750	0.0149196
780.828	0.0149648
780.906	0.0149615
780.984	0.0150174
781.062	0.0149558
781.140	0.0151086
781.218	0.0152560
781.297	0.0152376
781.375	0.0151494
781.453	0.0152496
781.531	0.0152328
781.609	0.0153262
781.687	0.0154958
781.765	0.0154605
781.843	0.0157471
781.922	0.0157596
782.000	0.0158322
782.078	0.0158496
782.156	0.0158316
782.234	0.0158833
782.312	0.0158223
782.390	0.0158435
782.468	0.0157507
782.547	0.0158201
782.625	0.0157933
782.703	0.0157193
782.781	0.0157951
782.859	0.0158310
782.937	0.0157796
783.015	0.0158235
783.093	0.0158572
783.172	0.0157556
783.250	0.0156152
783.328	0.0155840
783.406	0.0157816
783.484	0.0157407
783.562	0.0156599
783.640	0.0155529
783.718	0.0154073
783.797	0.0154666
783.875	0.0151023
783.953	0.0150391
784.031	0.0149884
784.109	0.0147749
784.187	0.0147332
784.265	0.0146825
784.343	0.0147452
784.422	0.0147713
784.500	0.0147598
784.578	0.0149578
784.656	0.0148974
784.734	0.0152162
784.812	0.0153844
784.890	0.0154272
784.968	0.0156057
785.047	0.0156515
785.125	0.0156728
785.203	0.0157420
785.281	0.0158110
785.359	0.0157174
785.437	0.0156924
785.515	0.0154694
785.593	0.0154136
785.672	0.0152824
785.750	0.0151791
785.828	0.0149506
785.906	0.0150557
785.984	0.0148342
786.062	0.0148869
786.140	0.0148171
786.218	0.0147907
786.297	0.0149834
786.375	0.0149498
786.453	0.0150831
786.531	0.0152608
786.609	0.0152817
786.687	0.0154140
786.765	0.0154947
786.843	0.0155382
786.922	0.0155511
787.000	0.0154089
787.078	0.0155780
787.156	0.0155284
787.234	0.0153699
787.312	0.0153833
787.390	0.0151652
787.468	0.0149430
787.547	0.0147725
787.625	0.0148616
787.703	0.0147761
787.781	0.0148029
787.859	0.0146121
787.937	0.0146969
788.015	0.0148105
788.093	0.0147852
788.172	0.0148507
788.250	0.0149884
788.328	0.0151667
788.406	0.0153075
788.484	0.0154835
788.562	0.0156897
788.640	0.0157083
788.718	0.0158591
788.797	0.0160614
788.875	0.0160465
788.953	0.0161404
789.031	0.0160980
789.109	0.0163246
789.187	0.0162157
789.265	0.0160650
789.343	0.0160856
789.422	0.0158623
789.500	0.0158591
789.578	0.0159631
789.656	0.0157509
789.734	0.0156250
789.812	0.0154018
789.890	0.0154927
789.968	0.0154156
790.047	0.0152390
790.125	0.0152408
790.203	0.0151048
790.281	0.0150774
790.359	0.0150979
790.437	0.0150471
790.515	0.0149373
790.593	0.0150143
790.672	0.0150375
790.750	0.0149287
790.828	0.0150191
790.906	0.0151241
790.984	0.0151003
791.062	0.0149974
791.140	0.0149828
791.218	0.0149321
791.297	0.0148552
791.375	0.0148476
791.453	0.0148968
791.531	0.0148988
791.609	0.0147755
791.687	0.0150395
791.765	0.0149787
791.843	0.0151164
791.922	0.0152428
792.000	0.0151656
792.078	0.0152487
792.156	0.0153436
792.234	0.0156375
792.312	0.0155481
792.390	0.0156116
792.468	0.0155612
792.547	0.0155753
792.625	0.0156278
792.703	0.0153858
792.781	0.0154809
792.859	0.0153098
792.937	0.0152869
793.015	0.0150983
793.093	0.0151949
793.172	0.0150154
793.250	0.0148906
793.328	0.0149553
793.406	0.0148883
793.484	0.0149080
793.562	0.0150345
793.640	0.0151341
793.718	0.0150307
793.797	0.0151347
793.875	0.0151660
793.953	0.0154470
794.031	0.0155151
794.109	0.0157537
794.187	0.0158085
794.265	0.0157767
794.343	0.0158537
794.422	0.0159202
794.500	0.0159776
794.578	0.0159184
794.656	0.0160567
794.734	0.0160368
794.812	0.0158707
794.890	0.0158625
794.968	0.0156245
795.047	0.0155944
795.125	0.0155936
795.203	0.0154865
795.281	0.0154334
795.359	0.0154166
795.437	0.0153698
795.515	0.0152338
795.593	0.0153518
795.672	0.0154098
795.750	0.0154101
795.828	0.0152654
795.906	0.0151741
795.984	0.0153595
796.062	0.0151836
796.140	0.0152111
796.218	0.0151687
796.297	0.0151862
796.375	0.0150362
796.453	0.0150508
796.531	0.0149280
796.609	0.0147943
796.687	0.0147343
796.765	0.0147075
796.843	0.0146549
796.922	0.0147024
797.000	0.0147604
797.078	0.0149258
797.156	0.0149673
797.234	0.0149055
797.312	0.0151090
797.390	0.0151341
797.468	0.0153199
797.547	0.0153037
797.625	0.0154388
797.703	0.0154443
797.781	0.0154584
797.859	0.0152947
797.937	0.0153144
798.015	0.0153534
798.093	0.0152675
798.172	0.0152007
798.250	0.0152386
798.328	0.0151260
798.406	0.0151229
798.484	0.0150150
798.562	0.0149471
798.640	0.0149187
798.718	0.0151277
798.797	0.0150875
798.875	0.0151986
798.953	0.0151830
799.031	0.0150745
799.109	0.0152247
799.187	0.0152882
799.265	0.0152190
799.343	0.0153732
799.422	0.0154025
799.500	0.0154477
799.578	0.0153538
799.656	0.0155563
799.734	0.0155125
799.812	0.0156131
799.890	0.0155034
799.968	0.0155260
800.047	0.0155727
800.125	0.0155811
800.203	0.0156415
800.281	0.0154839
800.359	0.0154730
800.437	0.0155324
800.515	0.0155476
800.593	0.0154397
800.672	0.0153828
800.750	0.0154329
800.828	0.0154302
800.906	0.0154235
800.984	0.0152431
801.062	0.0152873
801.140	0.0153183
801.218	0.0152950
801.297	0.0153316
801.375	0.0153351
801.453	0.0155394
801.531	0.0154153
801.609	0.0152978
801.687	0.0153924
801.765	0.0155173
801.843	0.0153576
801.922	0.0154366
802.000	0.0154182
802.078	0.0153228
802.156	0.0152812
802.234	0.0152891
802.312	0.0152574
802.390	0.0153809
802.468	0.0153182
802.547	0.0153539
802.625	0.0154705
802.703	0.0154217
802.781	0.0151965
802.859	0.0155074
802.937	0.0154795
803.015	0.0154964
803.093	0.0154824
803.172	0.0153667
803.250	0.0153647
803.328	0.0153354
803.406	0.0154179
803.484	0.0152371
803.562	0.0153726
803.640	0.0152400
803.718	0.0152943
803.797	0.0152397
803.875	0.0151247
803.953	0.0151435
804.031	0.0151142
804.109	0.0151743
804.187	0.0149535
804.265	0.0151097
804.343	0.0150991
804.422	0.0149504
804.500	0.0151099
804.578	0.0152634
804.656	0.0151441
804.734	0.0152267
804.812	0.0152701
804.890	0.0153460
804.968	0.0152862
805.047	0.0153938
805.125	0.0154128
805.203	0.0154245
805.281	0.0155957
805.359	0.0156781
805.437	0.0156030
805.515	0.0156638
805.593	0.0157658
805.672	0.0156441
805.750	0.0156227
805.828	0.0155434
805.906	0.0154429
805.984	0.0155043
806.062	0.0154850
806.140	0.0155141
806.218	0.0154038
806.297	0.0153249
806.375	0.0153445
806.453	0.0154398
806.531	0.0153736
806.609	0.0153761
806.687	0.0153847
806.765	0.0153395
806.843	0.0153076
806.922	0.0152809
807.000	0.0154412
807.078	0.0153676
807.156	0.0153694
807.234	0.0153465
807.312	0.0153080
807.390	0.0153359
807.468	0.0152047
807.547	0.0152104
807.625	0.0153484
807.703	0.0152882
807.781	0.0152654
807.859	0.0152689
807.937	0.0153135
808.015	0.0153011
808.093	0.0152931
808.172	0.0153724
808.250	0.0152980
808.328	0.0152827
808.406	0.0152071
808.484	0.0152578
808.562	0.0153062
808.640	0.0153108
808.718	0.0152342
808.797	0.0153142
808.875	0.0153900
808.953	0.0153923
809.031	0.0154656
809.109	0.0153957
809.187	0.0154785
809.265	0.0155025
809.343	0.0154469
809.422	0.0155798
809.500	0.0155093
809.578	0.0153876
809.656	0.0154852
809.734	0.0154958
809.812	0.0155263
809.890	0.0153310
809.968	0.0154374
810.047	0.0153070
810.125	0.0152341
810.203	0.0153044
810.281	0.0151437
810.359	0.0150531
810.437	0.0152170
810.515	0.0152206
810.593	0.0150318
810.672	0.0151057
810.750	0.0150692
810.828	0.0150953
810.906	0.0150507
810.984	0.0151560
811.062	0.0151866
811.140	0.0152337
811.218	0.0150754
811.297	0.0151200
811.375	0.0152308
811.453	0.0151930
811.531	0.0152023
811.609	0.0153293
811.687	0.0153678
811.765	0.0153043
811.843	0.0154179
811.922	0.0153597
812.000	0.0153590
812.078	0.0153786
812.156	0.0154770
812.234	0.0156284
812.312	0.0154550
812.390	0.0154130
812.468	0.0156830
812.547	0.0154908
812.625	0.0154370
812.703	0.0155097
812.781	0.0154622
812.859	0.0154715
812.937	0.0154265
813.015	0.0153986
813.093	0.0154150
813.172	0.0153449
813.250	0.0153181
813.328	0.0153304
813.406	0.0152601
813.484	0.0151312
813.562	0.0154381
813.640	0.0151846
813.718	0.0151578
813.797	0.0152802
813.875	0.0152900
813.953	0.0152701
814.031	0.0152094
814.109	0.0152541
814.187	0.0152166
814.265	0.0152840
814.343	0.0153488
814.422	0.0153876
814.500	0.0152935
814.578	0.0153625
814.656	0.0153726
814.734	0.0154388
814.812	0.0154731
814.890	0.0154868
814.968	0.0155504
815.047	0.0155161
815.125	0.0156407
815.203	0.0155201
815.281	0.0153831
815.359	0.0153696
815.437	0.0152704
815.515	0.0152333
815.593	0.0153341
815.672	0.0153905
815.750	0.0152109
815.828	0.0151624
815.906	0.0152391
815.984	0.0152446
816.062	0.0152566
816.140	0.0151509
816.218	0.0151402
816.297	0.0151685
816.375	0.0152239
816.453	0.0152714
816.531	0.0152319
816.609	0.0151158
816.687	0.0150604
816.765	0.0152522
816.843	0.0151587
816.922	0.0151513
817.000	0.0150624
817.078	0.0151740
817.156	0.0153009
817.234	0.0153059
817.312	0.0152575
817.390	0.0151580
817.468	0.0152518
817.547	0.0153252
817.625	0.0152678
817.703	0.0153236
817.781	0.0154395
817.859	0.0153857
817.937	0.0152964
818.015	0.0153963
818.093	0.0154517
818.172	0.0153735
818.250	0.0153832
818.328	0.0154406
818.406	0.0153872
818.484	0.0154952
818.562	0.0154159
818.640	0.0154131
818.718	0.0154698
818.797	0.0155409
818.875	0.0154124
818.953	0.0152271
819.031	0.0153886
819.109	0.0153445
819.187	0.0153200
819.265	0.0153221
819.343	0.0152034
819.422	0.0151640
819.500	0.0152461
819.578	0.0150902
819.656	0.0152020
819.734	0.0150898
819.812	0.0150964
819.890	0.0152343
819.968	0.0150971
820.047	0.0151794
820.125	0.0152605
820.203	0.0152312
820.281	0.0151480
820.359	0.0153296
820.437	0.0152899
820.515	0.0154587
820.593	0.0154501
820.672	0.0154700
820.750	0.0155706
820.828	0.0155085
820.906	0.0153374
820.984	0.0155478
821.062	0.0154720
821.140	0.0153540
821.218	0.0155239
821.297	0.0153598
821.375	0.0154852
821.453	0.0152898
821.531	0.0154011
821.609	0.0153705
821.687	0.0151634
821.765	0.0152115
821.843	0.0152351
821.922	0.0154216
822.000	0.0152344
822.078	0.0151495
822.156	0.0153269
822.234	0.0153416
822.312	0.0154033
822.390	0.0154155
822.468	0.0153190
822.547	0.0152222
822.625	0.0154125
822.703	0.0154200
822.781	0.0153985
822.859	0.0155473
822.937	0.0154836
823.015	0.0152872
823.093	0.0154591
823.172	0.0152657
823.250	0.0152746
823.328	0.0152814
823.406	0.0151814
823.484	0.0152734
823.562	0.0151848
823.640	0.0150984
823.718	0.0150368
823.797	0.0149809
823.875	0.0151038
823.953	0.0150712
824.031	0.0150308
824.109	0.0151180
824.187	0.0151376
824.265	0.0152528
824.343	0.0151926
824.422	0.0152600
824.500	0.0151546
824.578	0.0152433
824.656	0.0151865
824.734	0.0153133
824.812	0.0153587
824.890	0.0152418
824.968	0.0155287
825.047	0.0152480
825.125	0.0152862
825.203	0.0154022
825.281	0.0154838
825.359	0.0153648
825.437	0.0153773
825.515	0.0153562
825.593	0.0154079
825.672	0.0153297
825.750	0.0153460
825.828	0.0153696
825.906	0.0153404
825.984	0.0154867
826.062	0.0155161
826.140	0.0155936
826.218	0.0155225
826.297	0.0154992
826.375	0.0155659
826.453	0.0155112
826.531	0.0156612
826.609	0.0156584
826.687	0.0155457
826.765	0.0155464
826.843	0.0155285
826.922	0.0156063
827.000	0.0156274
827.078	0.0153960
827.156	0.0154482
827.234	0.0152763
827.312	0.0153596
827.390	0.0153930
827.468	0.0151931
827.547	0.0151232
827.625	0.0152074
827.703	0.0150787
827.781	0.0151597
827.859	0.0151601
827.937	0.0151309
828.015	0.0151179
828.093	0.0150945
828.172	0.0151531
828.250	0.0151577
828.328	0.0151003
828.406	0.0152560
828.484	0.0151288
828.562	0.0151305
828.640	0.0152663
828.718	0.0152350
828.797	0.0150941
828.875	0.0151952
828.953	0.0153223
829.031	0.0153130
829.109	0.0152542
829.187	0.0153234
829.265	0.0152711
829.343	0.0153226
829.422	0.0152082
829.500	0.0154659
829.578	0.0153530
829.656	0.0153245
829.734	0.0153886
829.812	0.0154957
829.890	0.0153887
829.968	0.0155117
830.047	0.0153142
830.125	0.0154230
830.203	0.0154060
830.281	0.0155152
830.359	0.0154576
830.437	0.0153724
830.515	0.0152462
830.593	0.0154601
830.672	0.0154841
830.750	0.0153382
830.828	0.0154114
830.906	0.0154441
830.984	0.0154256
831.062	0.0153685
831.140	0.0152383
831.218	0.0153145
831.297	0.0152908
831.375	0.0153265
831.453	0.0152411
831.531	0.0151282
831.609	0.0152332
831.687	0.0152126
831.765	0.0152362
831.843	0.0153456
831.922	0.0152502
832.000	0.0152526
832.078	0.0153288
832.156	0.0153237
832.234	0.0152935
832.312	0.0153795
832.390	0.0153091
832.468	0.0152727
832.547	0.0153659
832.625	0.0154054
832.703	0.0152477
832.781	0.0154458
832.859	0.0153166
832.937	0.0153307
833.015	0.0153867
833.093	0.0152874
833.172	0.0153035
833.250	0.0154612
833.328	0.0153568
833.406	0.0153162
833.484	0.0154784
833.562	0.0153291
833.640	0.0151682
833.718	0.0154002
833.797	0.0154350
833.875	0.0153696
833.953	0.0152842
834.031	0.0152218
834.109	0.0152715
834.187	0.0150535
834.265	0.0151476
834.343	0.0151641
834.422	0.0152825
834.500	0.0153385
834.578	0.0153078
834.656	0.0151079
834.734	0.0152320
834.812	0.0152271
834.890	0.0150817
834.968	0.0151108
835.047	0.0151523
835.125	0.0153054
835.203	0.0152190
835.281	0.0151449
835.359	0.0152995
835.437	0.0153657
835.515	0.0153535
835.593	0.0153732
835.672	0.0153869
835.750	0.0153849
835.828	0.0153296
835.906	0.0153648
835.984	0.0154953
836.062	0.0154808
836.140	0.0154060
836.218	0.0154692
836.297	0.0154503
836.375	0.0152607
836.453	0.0152135
836.531	0.0153685
836.609	0.0153840
836.687	0.0152389
836.765	0.0153070
836.843	0.0152202
836.922	0.0152481
837.000	0.0153172
837.078	0.0151426
837.156	0.0149935
837.234	0.0150938
837.312	0.0151075
837.390	0.0151163
837.468	0.0152112
837.547	0.0151915
837.625	0.0151153
837.703	0.0152171
837.781	0.0152323
837.859	0.0153283
837.937	0.0151675
838.015	0.0153407
838.093	0.0152552
838.172	0.0154296
838.250	0.0155263
838.328	0.0155102
838.406	0.0155506
838.484	0.0154874
838.562	0.0155183
838.640	0.0155653
838.718	0.0154058
838.797	0.0155275
838.875	0.0155923
838.953	0.0154462
839.031	0.0154716
839.109	0.0155602
839.187	0.0153215
839.265	0.0153369
839.343	0.0153362
839.422	0.0154703
839.500	0.0153967
839.578	0.0154317
839.656	0.0153317
839.734	0.0151776
839.812	0.0153082
839.890	0.0151990
839.968	0.0153996
840.047	0.0152702
840.125	0.0153304
840.203	0.0153043
840.281	0.0152408
840.359	0.0152108
840.437	0.0153475
840.515	0.0154392
840.593	0.0153086
840.672	0.0154301
840.750	0.0154028
840.828	0.0152062
840.906	0.0152496
840.984	0.0153204
841.062	0.0153268
841.140	0.0153682
841.218	0.0153431
841.297	0.0153934
841.375	0.0153487
841.453	0.0155270
841.531	0.0152702
841.609	0.0153591
841.687	0.0154146
841.765	0.0153543
841.843	0.0153078
841.922	0.0153680
842.000	0.0154662
842.078	0.0153321
842.156	0.0153452
842.234	0.0153819
842.312	0.0154046
842.390	0.0152792
842.468	0.0153321
842.547	0.0152014
842.625	0.0152106
842.703	0.0150586
842.781	0.0153085
842.859	0.0152516
842.937	0.0153654
843.015	0.0152447
843.093	0.0151892
843.172	0.0151974
843.250	0.0152942
843.328	0.0152965
843.406	0.0152895
843.484	0.0153831
843.562	0.0152621
843.640	0.0153078
843.718	0.0153999
843.797	0.0153928
843.875	0.0155022
843.953	0.0154411
844.031	0.0156217
844.109	0.0156745
844.187	0.0154948
844.265	0.0155148
844.343	0.0153956
844.422	0.0154233
844.500	0.0154251
844.578	0.0153564
844.656	0.0152599
844.734	0.0152237
844.812	0.0152710
844.890	0.0150204
844.968	0.0151585
845.047	0.0151321
845.125	0.0151172
845.203	0.0150285
845.281	0.0149464
845.359	0.0150809
845.437	0.0150623
845.515	0.0150866
845.593	0.0151246
845.672	0.0150800
845.750	0.0151244
845.828	0.0151255
845.906	0.0152483
845.984	0.0153896
846.062	0.0154678
846.140	0.0155630
846.218	0.0155326
846.297	0.0156034
846.375	0.0157378
846.453	0.0156799
846.531	0.0157543
846.609	0.0159018
846.687	0.0159295
846.765	0.0160347
846.843	0.0160410
846.922	0.0159653
847.000	0.0159380
847.078	0.0158117
847.156	0.0158723
847.234	0.0159945
847.312	0.0156795
847.390	0.0156172
847.468	0.0155548
847.547	0.0153919
847.625	0.0152917
847.703	0.0151152
847.781	0.0150430
847.859	0.0147643
847.937	0.0147922
848.015	0.0146735
848.093	0.0145259
848.172	0.0143710
848.250	0.0144005
848.328	0.0143299
848.406	0.0142624
848.484	0.0141592
848.562	0.0143793
848.640	0.0142979
848.718	0.0144017
848.797	0.0146727
848.875	0.0148076
848.953	0.0148959
849.031	0.0149794
849.109	0.0151977
849.187	0.0154505
849.265	0.0156981
849.343	0.0157867
849.422	0.0158823
849.500	0.0161006
849.578	0.0162226
849.656	0.0164295
849.734	0.0163063
849.812	0.0165846
849.890	0.0165311
849.968	0.0164955
850.047	0.0163017
850.125	0.0163427
850.203	0.0164675
850.281	0.0161660
850.359	0.0160857
850.437	0.0159187
850.515	0.0158868
850.593	0.0157275
850.672	0.0155585
850.750	0.0154283
850.828	0.0151129
850.906	0.0149648
850.984	0.0147073
851.062	0.0146603
851.140	0.0146111
851.218	0.0144427
851.297	0.0141936
851.375	0.0141173
851.453	0.0140521
851.531	0.0140927
851.609	0.0141274
851.687	0.0140914
851.765	0.0141260
851.843	0.0143015
851.922	0.0144183
852.000	0.0143616
852.078	0.0145902
852.156	0.0147922
852.234	0.0148785
852.312	0.0151945
852.390	0.0154044
852.468	0.0153742
852.547	0.0156824
852.625	0.0157803
852.703	0.0159720
852.781	0.0160252
852.859	0.0163391
852.937	0.0162583
853.015	0.0162318
853.093	0.0163407
853.172	0.0164206
853.250	0.0164855
853.328	0.0163520
853.406	0.0162923
853.484	0.0163757
853.562	0.0162755
853.640	0.0162260
853.718	0.0162347
853.797	0.0160682
853.875	0.0157930
853.953	0.0157544
854.031	0.0155255
854.109	0.0154130
854.187	0.0153295
854.265	0.0150858
854.343	0.0148291
854.422	0.0146992
854.500	0.0145537
854.578	0.0145296
854.656	0.0143305
854.734	0.0140868
854.812	0.0140372
854.890	0.0141412
854.968	0.0141261
855.047	0.0140872
855.125	0.0142509
855.203	0.0143464
855.281	0.0143973
855.359	0.0145245
855.437	0.0148159
855.515	0.0149782
855.593	0.0152113
855.672	0.0154472
855.750	0.0156110
855.828	0.0157637
855.906	0.0158878
855.984	0.0161346
856.062	0.0161600
856.140	0.0162035
856.218	0.0161542
856.297	0.0162366
856.375	0.0162189
856.453	0.0162700
856.531	0.0159811
856.609	0.0160066
856.687	0.0158311
856.765	0.0157264
856.843	0.0156882
856.922	0.0155620
857.000	0.0154208
857.078	0.0152745
857.156	0.0152529
857.234	0.0150735
857.312	0.0150577
857.390	0.0151184
857.468	0.0150568
857.547	0.0148402
857.625	0.0147951
857.703	0.0147770
857.781	0.0147094
857.859	0.0146074
857.937	0.0146694
858.015	0.0146623
858.093	0.0146484
858.172	0.0148507
858.250	0.0149146
858.328	0.0148878
858.406	0.0150215
858.484	0.0150967
858.562	0.0152467
858.640	0.0152454
858.718	0.0154356
858.797	0.0155078
858.875	0.0156736
858.953	0.0157210
859.031	0.0159502
859.109	0.0159370
859.187	0.0159226
859.265	0.0162312
859.343	0.0161950
859.422	0.0162633
859.500	0.0162805
859.578	0.0161538
859.656	0.0161981
859.734	0.0159879
859.812	0.0159504
859.890	0.0157462
859.968	0.0156885
860.047	0.0155725
860.125	0.0154066
860.203	0.0153674
860.281	0.0151923
860.359	0.0149995
860.437	0.0149541
860.515	0.0148569
860.593	0.0147594
860.672	0.0147538
860.750	0.0145290
860.828	0.0145614
860.906	0.0144949
860.984	0.0144608
861.062	0.0144047
861.140	0.0144900
861.218	0.0144004
861.297	0.0145391
861.375	0.0146288
861.453	0.0145979
861.531	0.0147717
861.609	0.0149521
861.687	0.0149842
861.765	0.0150922
861.843	0.0151835
861.922	0.0153857
862.000	0.0154066
862.078	0.0156403
862.156	0.0157587
862.234	0.0158682
862.312	0.0160622
862.390	0.0161802
862.468	0.0162133
862.547	0.0162889
862.625	0.0162582
862.703	0.0162691
862.781	0.0161959
862.859	0.0162406
862.937	0.0161685
863.015	0.0160689
863.093	0.0159978
863.172	0.0158453
863.250	0.0157143
863.328	0.0156736
863.406	0.0155664
863.484	0.0154382
863.562	0.0151531
863.640	0.0150375
863.718	0.0152144
863.797	0.0151144
863.875	0.0148584
863.953	0.0148697
864.031	0.0148417
864.109	0.0148557
864.187	0.0150062
864.265	0.0149878
864.343	0.0148639
864.422	0.0149442
864.500	0.0149461
864.578	0.0149790
864.656	0.0150507
864.734	0.0150688
864.812	0.0149773
864.890	0.0151243
864.968	0.0151873
865.047	0.0152429
865.125	0.0152687
865.203	0.0154025
865.281	0.0153264
865.359	0.0153376
865.437	0.0153072
865.515	0.0154731
865.593	0.0153832
865.672	0.0153349
865.750	0.0153678
865.828	0.0153811
865.906	0.0154971
865.984	0.0153977
866.062	0.0154347
866.140	0.0153732
866.218	0.0155264
866.297	0.0154753
866.375	0.0153001
866.453	0.0153591
866.531	0.0154249
866.609	0.0151884
866.687	0.0153716
866.765	0.0153632
866.843	0.0152918
866.922	0.0150956
867.000	0.0149390
867.078	0.0151423
867.156	0.0150397
867.234	0.0150668
867.312	0.0150719
867.390	0.0150473
867.468	0.0150869
867.547	0.0152010
867.625	0.0152250
867.703	0.0150658
867.781	0.0152377
867.859	0.0152536
867.937	0.0153252
868.015	0.0153810
868.093	0.0155469
868.172	0.0154458
868.250	0.0155359
868.328	0.0154080
868.406	0.0154679
868.484	0.0156091
868.562	0.0155790
868.640	0.0157715
868.718	0.0156304
868.797	0.0155325
868.875	0.0156259
868.953	0.0155529
869.031	0.0155037
869.109	0.0156703
869.187	0.0155312
869.265	0.0155561
869.343	0.0153839
869.422	0.0154652
869.500	0.0154113
869.578	0.0152952
869.656	0.0153292
869.734	0.0153500
869.812	0.0152101
869.890	0.0151488
869.968	0.0151026
870.047	0.0151032
870.125	0.0150297
870.203	0.0150825
870.281	0.0151088
870.359	0.0149968
870.437	0.0150326
870.515	0.0150130
870.593	0.0150701
870.672	0.0150811
870.750	0.0151246
870.828	0.0150839
870.906	0.0150105
870.984	0.0152493
871.062	0.0150549
871.140	0.0151619
871.218	0.0151894
871.297	0.0153384
871.375	0.0152917
871.453	0.0152740
871.531	0.0151692
871.609	0.0151225
871.687	0.0153152
871.765	0.0153645
871.843	0.0152510
871.922	0.0153472
872.000	0.0152590
872.078	0.0153907
872.156	0.0153248
872.234	0.0152767
872.312	0.0152735
872.390	0.0153810
872.468	0.0152432
872.547	0.0153808
872.625	0.0153693
872.703	0.0152646
872.781	0.0152555
872.859	0.0152474
872.937	0.0150507
873.015	0.0152805
873.093	0.0152808
873.172	0.0152205
873.250	0.0152773
873.328	0.0152059
873.406	0.0152039
873.484	0.0152185
873.562	0.0152937
873.640	0.0152517
873.718	0.0153164
873.797	0.0153891
873.875	0.0155410
873.953	0.0154178
874.031	0.0156385
874.109	0.0155374
874.187	0.0156024
874.265	0.0155401
874.343	0.0157414
874.422	0.0156599
874.500	0.0157470
874.578	0.0158054
874.656	0.0156454
874.734	0.0155064
874.812	0.0157185
874.890	0.0155645
874.968	0.0155581
875.047	0.0152889
875.125	0.0154659
875.203	0.0153132
875.281	0.0152996
875.359	0.0152068
875.437	0.0151364
875.515	0.0150739
875.593	0.0150535
875.672	0.0148865
875.750	0.0149834
875.828	0.0149477
875.906	0.0150603
875.984	0.0150581
876.062	0.0149293
876.140	0.0149353
876.218	0.0149471
876.297	0.0150342
876.375	0.0151626
876.453	0.0150840
876.531	0.0149617
876.609	0.0152056
876.687	0.0150497
876.765	0.0151039
876.843	0.0150343
876.922	0.0151138
877.000	0.0152739
877.078	0.0154122
877.156	0.0154160
877.234	0.0153576
877.312	0.0153977
877.390	0.0153967
877.468	0.0154536
877.547	0.0155206
877.625	0.0154811
877.703	0.0154793
877.781	0.0154652
877.859	0.0155021
877.937	0.0154342
878.015	0.0153830
878.093	0.0154018
878.172	0.0153333
878.250	0.0153965
878.328	0.0154086
878.406	0.0152217
878.484	0.0153437
878.562	0.0150798
878.640	0.0152387
878.718	0.0151022
878.797	0.0151124
878.875	0.0150000
878.953	0.0149798
879.031	0.0151357
879.109	0.0150859
879.187	0.0151676
879.265	0.0151561
879.343	0.0152359
879.422	0.0152969
879.500	0.0152898
879.578	0.0154103
879.656	0.0153819
879.734	0.0153413
879.812	0.0154601
879.890	0.0154461
879.968	0.0154989
880.047	0.0155029
880.125	0.0154663
880.203	0.0156289
880.281	0.0155875
880.359	0.0155615
880.437	0.0156293
880.515	0.0157030
880.593	0.0155972
880.672	0.0157980
880.750	0.0156091
880.828	0.0155493
880.906	0.0156333
880.984	0.0155727
881.062	0.0155493
881.140	0.0153890
881.218	0.0153561
881.297	0.0151708
881.375	0.0152630
881.453	0.0153085
881.531	0.0152568
881.609	0.0151697
881.687	0.0151303
881.765	0.0151011
881.843	0.0150763
881.922	0.0149703
882.000	0.0149892
882.078	0.0149091
882.156	0.0151431
882.234	0.0150690
882.312	0.0149935
882.390	0.0150258
882.468	0.0151263
882.547	0.0150401
882.625	0.0151733
882.703	0.0151125
882.781	0.0152799
882.859	0.0153507
882.937	0.0152419
883.015	0.0153170
883.093	0.0153848
883.172	0.0153843
883.250	0.0153314
883.328	0.0153658
883.406	0.0156057
883.484	0.0155679
883.562	0.0154532
883.640	0.0155181
883.718	0.0154745
883.797	0.0152911
883.875	0.0156587
883.953	0.0155709
884.031	0.0155090
884.109	0.0155659
884.187	0.0155086
884.265	0.0152991
884.343	0.0153693
884.422	0.0154252
884.500	0.0154528
884.578	0.0153728
884.656	0.0152912
884.734	0.0152386
884.812	0.0152184
884.890	0.0152478
884.968	0.0152032
885.047	0.0150748
885.125	0.0151891
885.203	0.0150072
885.281	0.0151459
885.359	0.0150536
885.437	0.0151286
885.515	0.0151773
885.593	0.0151115
885.672	0.0151736
885.750	0.0153776
885.828	0.0152925
885.906	0.0153593
885.984	0.0153860
886.062	0.0154726
886.140	0.0153945
886.218	0.0154209
886.297	0.0155011
886.375	0.0155062
886.453	0.0154427
886.531	0.0155299
886.609	0.0155207
886.687	0.0155459
886.765	0.0154348
886.843	0.0156100
886.922	0.0155551
887.000	0.0153717
887.078	0.0154696
887.156	0.0155191
887.234	0.0154140
887.312	0.0153954
887.390	0.0152009
887.468	0.0154411
887.547	0.0154504
887.625	0.0153687
887.703	0.0153870
887.781	0.0155700
887.859	0.0152850
887.937	0.0152639
888.015	0.0151782
888.093	0.0152201
888.172	0.0152486
888.250	0.0152692
888.328	0.0152111
888.406	0.0151232
888.484	0.0152190
888.562	0.0152510
888.640	0.0150653
888.718	0.0151239
888.797	0.0152815
888.875	0.0151180
888.953	0.0152506
889.031	0.0152207
889.109	0.0151468
889.187	0.0151227
889.265	0.0152968
889.343	0.0154029
889.422	0.0151317
889.500	0.0153399
889.578	0.0152490
889.656	0.0153439
889.734	0.0153514
889.812	0.0154442
889.890	0.0154912
889.968	0.0152951
890.047	0.0154134
890.125	0.0154884
890.203	0.0154822
890.281	0.0154243
890.359	0.0154619
890.437	0.0153800
890.515	0.0154661
890.593	0.0154095
890.672	0.0152834
890.750	0.0155640
890.828	0.0154180
890.906	0.0155501
890.984	0.0154399
891.062	0.0154544
891.140	0.0153934
891.218	0.0154159
891.297	0.0153526
891.375	0.0152258
891.453	0.0154236
891.531	0.0152302
891.609	0.0151959
891.687	0.0151480
891.765	0.0154388
891.843	0.0150922
891.922	0.0151499
892.000	0.0153309
892.078	0.0152513
892.156	0.0151714
892.234	0.0151920
892.312	0.0151985
892.390	0.0151791
892.468	0.0152541
892.547	0.0151457
892.625	0.0152353
892.703	0.0152354
892.781	0.0151893
892.859	0.0152300
892.937	0.0152283
893.015	0.0152390
893.093	0.0152624
893.172	0.0150555
893.250	0.0152244
893.328	0.0151776
893.406	0.0152003
893.484	0.0151601
893.562	0.0152879
893.640	0.0152855
893.718	0.0152285
893.797	0.0152674
893.875	0.0150977
893.953	0.0152452
894.031	0.0153828
894.109	0.0152391
894.187	0.0152358
894.265	0.0153469
894.343	0.0152315
894.422	0.0153200
894.500	0.0153419
894.578	0.0152247
894.656	0.0154749
894.734	0.0152445
894.812	0.0151460
894.890	0.0153471
894.968	0.0153182
895.047	0.0153101
895.125	0.0152808
895.203	0.0152737
895.281	0.0152625
895.359	0.0153232
895.437	0.0153432
895.515	0.0153148
895.593	0.0154466
895.672	0.0153801
895.750	0.0152863
895.828	0.0153683
895.906	0.0153479
895.984	0.0152978
896.062	0.0153745
896.140	0.0153202
896.218	0.0152858
896.297	0.0153330
896.375	0.0153561
896.453	0.0152889
896.531	0.0151449
896.609	0.0151728
896.687	0.0152940
896.765	0.0152331
896.843	0.0153008
896.922	0.0150986
897.000	0.0152504
897.078	0.0151762
897.156	0.0151571
897.234	0.0153590
897.312	0.0152226
897.390	0.0153846
897.468	0.0154733
897.547	0.0152854
897.625	0.0152338
897.703	0.0152962
897.781	0.0153123
897.859	0.0152873
897.937	0.0154134
898.015	0.0154844
898.093	0.0153701
898.172	0.0154750
898.250	0.0153931
898.328	0.0153141
898.406	0.0153094
898.484	0.0153773
898.562	0.0154314
898.640	0.0153651
898.718	0.0154134
898.797	0.0153481
898.875	0.0152824
898.953	0.0152366
899.031	0.0153963
899.109	0.0153740
899.187	0.0154584
899.265	0.0153449
899.343	0.0152614
899.422	0.0153094
899.500	0.0153133
899.578	0.0153744
899.656	0.0151935
899.734	0.0152665
899.812	0.0153195
899.890	0.0153228
899.968	0.0152859
900.047	0.0153671
900.125	0.0153838
900.203	0.0153564
900.281	0.0152187
900.359	0.0152892
900.437	0.0152719
900.515	0.0152834
900.593	0.0151940
900.672	0.0152670
900.750	0.0151583
900.828	0.0152647
900.906	0.0152002
900.984	0.0152205
901.062	0.0150162
901.140	0.0152427
901.218	0.0151722
901.297	0.0152785
901.375	0.0152975
901.453	0.0152709
901.531	0.0152139
901.609	0.0152333
901.687	0.0152400
901.765	0.0152892
901.843	0.0151764
901.922	0.0152915
902.000	0.0151947
902.078	0.0152258
902.156	0.0151247
902.234	0.0151841
902.312	0.0153344
902.390	0.0151025
902.468	0.0150930
902.547	0.0152380
902.625	0.0152018
902.703	0.0152351
902.781	0.0151097
902.859	0.0152847
902.937	0.0152596
903.015	0.0153093
903.093	0.0153059
903.172	0.0153799
903.250	0.0151764
903.328	0.0152710
903.406	0.0153794
903.484	0.0153632
903.562	0.0152948
903.640	0.0154578
903.718	0.0152376
903.797	0.0153928
903.875	0.0155148
903.953	0.0153763
904.031	0.0153172
904.109	0.0153422
904.187	0.0154310
904.265	0.0153704
904.343	0.0153565
904.422	0.0153705
904.500	0.0154440
904.578	0.0153382
904.656	0.0153605
904.734	0.0153708
904.812	0.0154553
904.890	0.0153928
904.968	0.0152906
905.047	0.0155746
905.125	0.0154923
905.203	0.0152224
905.281	0.0153411
905.359	0.0153658
905.437	0.0153586
905.515	0.0151997
905.593	0.0153280
905.672	0.0152806
905.750	0.0153108
905.828	0.0152457
905.906	0.0151154
905.984	0.0152965
906.062	0.0153145
906.140	0.0154232
906.218	0.0152761
906.297	0.0152047
906.375	0.0152398
906.453	0.0152220
906.531	0.0154099
906.609	0.0152014
906.687	0.0152686
906.765	0.0153522
906.843	0.0154309
906.922	0.0152269
907.000	0.0152490
907.078	0.0152209
907.156	0.0153226
907.234	0.0154842
907.312	0.0153808
907.390	0.0152627
907.468	0.0153535
907.547	0.0154575
907.625	0.0153796
907.703	0.0153937
907.781	0.0153857
907.859	0.0155772
907.937	0.0155154
908.015	0.0154606
908.093	0.0153740
908.172	0.0154778
908.250	0.0154326
908.328	0.0154072
908.406	0.0154461
908.484	0.0154457
908.562	0.0155846
908.640	0.0155079
908.718	0.0154092
908.797	0.0155388
908.875	0.0154698
908.953	0.0154198
909.031	0.0154212
909.109	0.0154813
909.187	0.0154260
909.265	0.0154603
909.343	0.0155768
909.422	0.0154232
909.500	0.0153451
909.578	0.0154646
909.656	0.0152125
909.734	0.0153398
909.812	0.0152843
909.890	0.0154090
909.968	0.0153327
910.047	0.0152956
910.125	0.0152687
910.203	0.0152918
910.281	0.0153651
910.359	0.0155148
910.437	0.0154082
910.515	0.0153637
910.593	0.0152719
910.672	0.0154664
910.750	0.0153785
910.828	0.0153087
910.906	0.0152921
910.984	0.0152605
911.062	0.0153481
911.140	0.0154053
911.218	0.0153024
911.297	0.0153677
911.375	0.0153649
911.453	0.0152968
911.531	0.0154500
911.609	0.0155555
911.687	0.0154491
911.765	0.0154548
911.843	0.0153209
911.922	0.0153165
912.000	0.0154162
912.078	0.0153771
912.156	0.0153240
912.234	0.0154205
912.312	0.0153794
912.390	0.0155900
912.468	0.0153094
912.547	0.0152131
912.625	0.0152036
912.703	0.0154134
912.781	0.0153107
912.859	0.0153293
912.937	0.0153534
913.015	0.0151876
913.093	0.0152918
913.172	0.0153108
913.250	0.0152715
913.328	0.0152053
913.406	0.0153168
913.484	0.0153685
913.562	0.0152958
913.640	0.0153532
913.718	0.0153674
913.797	0.0153793
913.875	0.0155062
913.953	0.0154079
914.031	0.0152219
914.109	0.0154695
914.187	0.0153983
914.265	0.0153826
914.343	0.0154479
914.422	0.0152597
914.500	0.0154384
914.578	0.0152493
914.656	0.0152126
914.734	0.0154261
914.812	0.0152780
914.890	0.0152916
914.968	0.0153118
915.047	0.0153314
915.125	0.0153717
915.203	0.0153435
915.281	0.0154058
915.359	0.0153942
915.437	0.0152966
915.515	0.0152632
915.593	0.0152225
915.672	0.0153117
915.750	0.0153699
915.828	0.0153268
915.906	0.0153973
915.984	0.0154154
916.062	0.0152260
916.140	0.0153760
916.218	0.0154565
916.297	0.0154005
916.375	0.0152824
916.453	0.0153123
916.531	0.0153593
916.609	0.0152972
916.687	0.0150943
916.765	0.0153295
916.843	0.0154719
916.922	0.0151705
917.000	0.0151578
917.078	0.0151275
917.156	0.0152110
917.234	0.0152388
917.312	0.0151280
917.390	0.0152130
917.468	0.0150937
917.547	0.0151102
917.625	0.0150618
917.703	0.0151524
917.781	0.0151347
917.859	0.0152261
917.937	0.0150797
918.015	0.0151655
918.093	0.0153065
918.172	0.0153819
918.250	0.0152499
918.328	0.0153953
918.406	0.0153075
918.484	0.0153042
918.562	0.0153441
918.640	0.0152526
918.718	0.0153656
918.797	0.0152703
918.875	0.0154094
918.953	0.0153349
919.031	0.0152544
919.109	0.0153645
919.187	0.0153852
919.265	0.0153226
919.343	0.0153581
919.422	0.0153095
919.500	0.0153098
919.578	0.0152431
919.656	0.0153362
919.734	0.0152162
919.812	0.0154376
919.890	0.0154182
