06/13/2022	14:39:43	Ver.	4.1	UNKNOWN
Optical Delay	599.968395	Delta X		0.078125	Sweeps	1	Scan Rate	0/0
Coordinates	Axis 1	NaN	Axis 2	NaN	Axis 3	NaN	Axis 4	NaN	Axis 5	NaN	Axis 6	0.000000
TX Power	0.000000	RX Power	0.000000

599.968	0.0161462
600.047	0.0160764
600.125	0.0161833
600.203	0.0160244
600.281	0.0162182
600.359	0.0162548
600.437	0.0161428
600.515	0.0161703
600.593	0.0161638
600.672	0.0161774
600.750	0.0160900
600.828	0.0160725
600.906	0.0161269
600.984	0.0161666
601.062	0.0161082
601.140	0.0161996
601.218	0.0162053
601.297	0.0162058
601.375	0.0162034
601.453	0.0160812
601.531	0.0161513
601.609	0.0160893
601.687	0.0162710
601.765	0.0163390
601.843	0.0162009
601.922	0.0161073
602.000	0.0161974
602.078	0.0160364
602.156	0.0161311
602.234	0.0162381
602.312	0.0162622
602.390	0.0162279
602.468	0.0161137
602.547	0.0162093
602.625	0.0161929
602.703	0.0162482
602.781	0.0161174
602.859	0.0160954
602.937	0.0160760
603.015	0.0162413
603.093	0.0162795
603.172	0.0161700
603.250	0.0161462
603.328	0.0162528
603.406	0.0160867
603.484	0.0161882
603.562	0.0163317
603.640	0.0160485
603.718	0.0161734
603.797	0.0161144
603.875	0.0160881
603.953	0.0160828
604.031	0.0161098
604.109	0.0161593
604.187	0.0161824
604.265	0.0161894
604.343	0.0161523
604.422	0.0161316
604.500	0.0161890
604.578	0.0162009
604.656	0.0160368
604.734	0.0161086
604.812	0.0161307
604.890	0.0162979
604.968	0.0161823
605.047	0.0162345
605.125	0.0162583
605.203	0.0162554
605.281	0.0162789
605.359	0.0161047
605.437	0.0162087
605.515	0.0160643
605.593	0.0159699
605.672	0.0162671
605.750	0.0161541
605.828	0.0163108
605.906	0.0161044
605.984	0.0161681
606.062	0.0162458
606.140	0.0161341
606.218	0.0161359
606.297	0.0163432
606.375	0.0162584
606.453	0.0161173
606.531	0.0161707
606.609	0.0162604
606.687	0.0161725
606.765	0.0161715
606.843	0.0161320
606.922	0.0160564
607.000	0.0162183
607.078	0.0161599
607.156	0.0160405
607.234	0.0161005
607.312	0.0161063
607.390	0.0162132
607.468	0.0161068
607.547	0.0160821
607.625	0.0160143
607.703	0.0161152
607.781	0.0161704
607.859	0.0161895
607.937	0.0161897
608.015	0.0161642
608.093	0.0160723
608.172	0.0161516
608.250	0.0161329
608.328	0.0160072
608.406	0.0162129
608.484	0.0160437
608.562	0.0161203
608.640	0.0161150
608.718	0.0160160
608.797	0.0161355
608.875	0.0160909
608.953	0.0160049
609.031	0.0160531
609.109	0.0162198
609.187	0.0162257
609.265	0.0161683
609.343	0.0161932
609.422	0.0162088
609.500	0.0161845
609.578	0.0161479
609.656	0.0162298
609.734	0.0162167
609.812	0.0161566
609.890	0.0161376
609.968	0.0160358
610.047	0.0162440
610.125	0.0162652
610.203	0.0161294
610.281	0.0160590
610.359	0.0162461
610.437	0.0161021
610.515	0.0162035
610.593	0.0161383
610.672	0.0160950
610.750	0.0162279
610.828	0.0161344
610.906	0.0160786
610.984	0.0163098
611.062	0.0162344
611.140	0.0161299
611.218	0.0162793
611.297	0.0162619
611.375	0.0161124
611.453	0.0160047
611.531	0.0161274
611.609	0.0160883
611.687	0.0162019
611.765	0.0160561
611.843	0.0161891
611.922	0.0162136
612.000	0.0160768
612.078	0.0161979
612.156	0.0162850
612.234	0.0162294
612.312	0.0160852
612.390	0.0160555
612.468	0.0161348
612.547	0.0160112
612.625	0.0162404
612.703	0.0162299
612.781	0.0160136
612.859	0.0161363
612.937	0.0161124
613.015	0.0161807
613.093	0.0161922
613.172	0.0162148
613.250	0.0162747
613.328	0.0161951
613.406	0.0162236
613.484	0.0160585
613.562	0.0163164
613.640	0.0160632
613.718	0.0160654
613.797	0.0160256
613.875	0.0162363
613.953	0.0161469
614.031	0.0161119
614.109	0.0162177
614.187	0.0161211
614.265	0.0160295
614.343	0.0161057
614.422	0.0162725
614.500	0.0161988
614.578	0.0160978
614.656	0.0161359
614.734	0.0161852
614.812	0.0162825
614.890	0.0161430
614.968	0.0161335
615.047	0.0162702
615.125	0.0162004
615.203	0.0160821
615.281	0.0161713
615.359	0.0161344
615.437	0.0161463
615.515	0.0160978
615.593	0.0162222
615.672	0.0160534
615.750	0.0161777
615.828	0.0161453
615.906	0.0161330
615.984	0.0159581
616.062	0.0160397
616.140	0.0161327
616.218	0.0162169
616.297	0.0162465
616.375	0.0161202
616.453	0.0160787
616.531	0.0160851
616.609	0.0162025
616.687	0.0161506
616.765	0.0160557
616.843	0.0160579
616.922	0.0162129
617.000	0.0161855
617.078	0.0161362
617.156	0.0160793
617.234	0.0161169
617.312	0.0160421
617.390	0.0161652
617.468	0.0162617
617.547	0.0161256
617.625	0.0161587
617.703	0.0162159
617.781	0.0161788
617.859	0.0161405
617.937	0.0161460
618.015	0.0162576
618.093	0.0161256
618.172	0.0161111
618.250	0.0160098
618.328	0.0162018
618.406	0.0161735
618.484	0.0161426
618.562	0.0162303
618.640	0.0161119
618.718	0.0160452
618.797	0.0162048
618.875	0.0160788
618.953	0.0162009
619.031	0.0163275
619.109	0.0161847
619.187	0.0161498
619.265	0.0160786
619.343	0.0160584
619.422	0.0160310
619.500	0.0161097
619.578	0.0162657
619.656	0.0161718
619.734	0.0161756
619.812	0.0160252
619.890	0.0161148
619.968	0.0162041
620.047	0.0161894
620.125	0.0162385
620.203	0.0160768
620.281	0.0161227
620.359	0.0160742
620.437	0.0160045
620.515	0.0162279
620.593	0.0162860
620.672	0.0160094
620.750	0.0160833
620.828	0.0161597
620.906	0.0161490
620.984	0.0161826
621.062	0.0160879
621.140	0.0162336
621.218	0.0160638
621.297	0.0160875
621.375	0.0161386
621.453	0.0162816
621.531	0.0162692
621.609	0.0160892
621.687	0.0161465
621.765	0.0162659
621.843	0.0160168
621.922	0.0160848
622.000	0.0162689
622.078	0.0161574
622.156	0.0161925
622.234	0.0162000
622.312	0.0162080
622.390	0.0162251
622.468	0.0161922
622.547	0.0162551
622.625	0.0160637
622.703	0.0161414
622.781	0.0161064
622.859	0.0162329
622.937	0.0161519
623.015	0.0161525
623.093	0.0161829
623.172	0.0161476
623.250	0.0161040
623.328	0.0161670
623.406	0.0160497
623.484	0.0162473
623.562	0.0162067
623.640	0.0161246
623.718	0.0161832
623.797	0.0161199
623.875	0.0161826
623.953	0.0160851
624.031	0.0158680
624.109	0.0162605
624.187	0.0162907
624.265	0.0161781
624.343	0.0160818
624.422	0.0161625
624.500	0.0162361
624.578	0.0161024
624.656	0.0161220
624.734	0.0161609
624.812	0.0160429
624.890	0.0160694
624.968	0.0161430
625.047	0.0161375
625.125	0.0161648
625.203	0.0160823
625.281	0.0161586
625.359	0.0161193
625.437	0.0160435
625.515	0.0162045
625.593	0.0160998
625.672	0.0161604
625.750	0.0162398
625.828	0.0163055
625.906	0.0161464
625.984	0.0160992
626.062	0.0161343
626.140	0.0161626
626.218	0.0161613
626.297	0.0162154
626.375	0.0161398
626.453	0.0160925
626.531	0.0160938
626.609	0.0160259
626.687	0.0160259
626.765	0.0161597
626.843	0.0162474
626.922	0.0162051
627.000	0.0159782
627.078	0.0160504
627.156	0.0160976
627.234	0.0161660
627.312	0.0162240
627.390	0.0160831
627.468	0.0162110
627.547	0.0162076
627.625	0.0161691
627.703	0.0161504
627.781	0.0159988
627.859	0.0163228
627.937	0.0162067
628.015	0.0160249
628.093	0.0161459
628.172	0.0161771
628.250	0.0161131
628.328	0.0159971
628.406	0.0160509
628.484	0.0162469
628.562	0.0161575
628.640	0.0161215
628.718	0.0161119
628.797	0.0161207
628.875	0.0161508
628.953	0.0161829
629.031	0.0161018
629.109	0.0161095
629.187	0.0162339
629.265	0.0160571
629.343	0.0160496
629.422	0.0161693
629.500	0.0161314
629.578	0.0163167
629.656	0.0161523
629.734	0.0160995
629.812	0.0161382
629.890	0.0160703
629.968	0.0161084
630.047	0.0160643
630.125	0.0160036
630.203	0.0159874
630.281	0.0161368
630.359	0.0162760
630.437	0.0160645
630.515	0.0160703
630.593	0.0162663
630.672	0.0161025
630.750	0.0160394
630.828	0.0160340
630.906	0.0162724
630.984	0.0162076
631.062	0.0160909
631.140	0.0160963
631.218	0.0160952
631.297	0.0161339
631.375	0.0161951
631.453	0.0161795
631.531	0.0161756
631.609	0.0161001
631.687	0.0162332
631.765	0.0161089
631.843	0.0160507
631.922	0.0162698
632.000	0.0161394
632.078	0.0161400
632.156	0.0161434
632.234	0.0161461
632.312	0.0160905
632.390	0.0160685
632.468	0.0161812
632.547	0.0161543
632.625	0.0160706
632.703	0.0161625
632.781	0.0161411
632.859	0.0161406
632.937	0.0161351
633.015	0.0161272
633.093	0.0160654
633.172	0.0161767
633.250	0.0160844
633.328	0.0160279
633.406	0.0162465
633.484	0.0162118
633.562	0.0162206
633.640	0.0162077
633.718	0.0161842
633.797	0.0161367
633.875	0.0161106
633.953	0.0161945
634.031	0.0161545
634.109	0.0161718
634.187	0.0161037
634.265	0.0162038
634.343	0.0160946
634.422	0.0161580
634.500	0.0163377
634.578	0.0161163
634.656	0.0161362
634.734	0.0161443
634.812	0.0161932
634.890	0.0162257
634.968	0.0161881
635.047	0.0161876
635.125	0.0161903
635.203	0.0161154
635.281	0.0160266
635.359	0.0161705
635.437	0.0163112
635.515	0.0161221
635.593	0.0160502
635.672	0.0162450
635.750	0.0162435
635.828	0.0160420
635.906	0.0161433
635.984	0.0160995
636.062	0.0160173
636.140	0.0159912
636.218	0.0162848
636.297	0.0162385
636.375	0.0161984
636.453	0.0161445
636.531	0.0160796
636.609	0.0162133
636.687	0.0161657
636.765	0.0160777
636.843	0.0160823
636.922	0.0161587
637.000	0.0162084
637.078	0.0160959
637.156	0.0160848
637.234	0.0162534
637.312	0.0161775
637.390	0.0162655
637.468	0.0161755
637.547	0.0160983
637.625	0.0163577
637.703	0.0161932
637.781	0.0160226
637.859	0.0161118
637.937	0.0160679
638.015	0.0163159
638.093	0.0162225
638.172	0.0160845
638.250	0.0161224
638.328	0.0160165
638.406	0.0160298
638.484	0.0161298
638.562	0.0160975
638.640	0.0161150
638.718	0.0160139
638.797	0.0161541
638.875	0.0162030
638.953	0.0162371
639.031	0.0161826
639.109	0.0159450
639.187	0.0161517
639.265	0.0161702
639.343	0.0161352
639.422	0.0161589
639.500	0.0161913
639.578	0.0160500
639.656	0.0162668
639.734	0.0161158
639.812	0.0161665
639.890	0.0161138
639.968	0.0162341
640.047	0.0162375
640.125	0.0160077
640.203	0.0162525
640.281	0.0162727
640.359	0.0161937
640.437	0.0161659
640.515	0.0160317
640.593	0.0161442
640.672	0.0162131
640.750	0.0163010
640.828	0.0162383
640.906	0.0161553
640.984	0.0161166
641.062	0.0160933
641.140	0.0160592
641.218	0.0161904
641.297	0.0161079
641.375	0.0162608
641.453	0.0161069
641.531	0.0160828
641.609	0.0161273
641.687	0.0162157
641.765	0.0161857
641.843	0.0162174
641.922	0.0161021
642.000	0.0160915
642.078	0.0161858
642.156	0.0162469
642.234	0.0160811
642.312	0.0161436
642.390	0.0161513
642.468	0.0161119
642.547	0.0162158
642.625	0.0161545
642.703	0.0160400
642.781	0.0161160
642.859	0.0161441
642.937	0.0162459
643.015	0.0161694
643.093	0.0161969
643.172	0.0161595
643.250	0.0161285
643.328	0.0161041
643.406	0.0163258
643.484	0.0161571
643.562	0.0161946
643.640	0.0160940
643.718	0.0161033
643.797	0.0161509
643.875	0.0161577
643.953	0.0161434
644.031	0.0162061
644.109	0.0161486
644.187	0.0161325
644.265	0.0162227
644.343	0.0162093
644.422	0.0161201
644.500	0.0161816
644.578	0.0162035
644.656	0.0161284
644.734	0.0161854
644.812	0.0161417
644.890	0.0162174
644.968	0.0161839
645.047	0.0159949
645.125	0.0161203
645.203	0.0161614
645.281	0.0160712
645.359	0.0162411
645.437	0.0162495
645.515	0.0161852
645.593	0.0161366
645.672	0.0161779
645.750	0.0161987
645.828	0.0161705
645.906	0.0162969
645.984	0.0161761
646.062	0.0163422
646.140	0.0163184
646.218	0.0161740
646.297	0.0161608
646.375	0.0160374
646.453	0.0159862
646.531	0.0161037
646.609	0.0162882
646.687	0.0161044
646.765	0.0160046
646.843	0.0162157
646.922	0.0161744
647.000	0.0161420
647.078	0.0160808
647.156	0.0161658
647.234	0.0161589
647.312	0.0162316
647.390	0.0161503
647.468	0.0161031
647.547	0.0161926
647.625	0.0162696
647.703	0.0161736
647.781	0.0162375
647.859	0.0161695
647.937	0.0162659
648.015	0.0163156
648.093	0.0160593
648.172	0.0161758
648.250	0.0162302
648.328	0.0161839
648.406	0.0161926
648.484	0.0161864
648.562	0.0161148
648.640	0.0161240
648.718	0.0161135
648.797	0.0161428
648.875	0.0159554
648.953	0.0160344
649.031	0.0161680
649.109	0.0161271
649.187	0.0162780
649.265	0.0161787
649.343	0.0162761
649.422	0.0161655
649.500	0.0161553
649.578	0.0161047
649.656	0.0161725
649.734	0.0161414
649.812	0.0162160
649.890	0.0160391
649.968	0.0161719
650.047	0.0161964
650.125	0.0161638
650.203	0.0161926
650.281	0.0161199
650.359	0.0161703
650.437	0.0161684
650.515	0.0160498
650.593	0.0161718
650.672	0.0162618
650.750	0.0161773
650.828	0.0161701
650.906	0.0162302
650.984	0.0162794
651.062	0.0161420
651.140	0.0160828
651.218	0.0163163
651.297	0.0162498
651.375	0.0162486
651.453	0.0161183
651.531	0.0163130
651.609	0.0162147
651.687	0.0160809
651.765	0.0162076
651.843	0.0162361
651.922	0.0161543
652.000	0.0162404
652.078	0.0161387
652.156	0.0161924
652.234	0.0162785
652.312	0.0161195
652.390	0.0162142
652.468	0.0162474
652.547	0.0161461
652.625	0.0161346
652.703	0.0162436
652.781	0.0162220
652.859	0.0160086
652.937	0.0160928
653.015	0.0162617
653.093	0.0162948
653.172	0.0161264
653.250	0.0161217
653.328	0.0162115
653.406	0.0161311
653.484	0.0162691
653.562	0.0161214
653.640	0.0161517
653.718	0.0161264
653.797	0.0161607
653.875	0.0163387
653.953	0.0161194
654.031	0.0161421
654.109	0.0162099
654.187	0.0162788
654.265	0.0162596
654.343	0.0161842
654.422	0.0161398
654.500	0.0162643
654.578	0.0161541
654.656	0.0161098
654.734	0.0160104
654.812	0.0160403
654.890	0.0161798
654.968	0.0162182
655.047	0.0162361
655.125	0.0161231
655.203	0.0160159
655.281	0.0161154
655.359	0.0162089
655.437	0.0161323
655.515	0.0160563
655.593	0.0161613
655.672	0.0162042
655.750	0.0162933
655.828	0.0161836
655.906	0.0161955
655.984	0.0160658
656.062	0.0161265
656.140	0.0162322
656.218	0.0162029
656.297	0.0161376
656.375	0.0161999
656.453	0.0163216
656.531	0.0162473
656.609	0.0161400
656.687	0.0162784
656.765	0.0162127
656.843	0.0162204
656.922	0.0161513
657.000	0.0161350
657.078	0.0162267
657.156	0.0161755
657.234	0.0161377
657.312	0.0162550
657.390	0.0162263
657.468	0.0162097
657.547	0.0161910
657.625	0.0163182
657.703	0.0162163
657.781	0.0162175
657.859	0.0161881
657.937	0.0161612
658.015	0.0160456
658.093	0.0161086
658.172	0.0162484
658.250	0.0162495
658.328	0.0159779
658.406	0.0159738
658.484	0.0163316
658.562	0.0161918
658.640	0.0161339
658.718	0.0161394
658.797	0.0162370
658.875	0.0162643
658.953	0.0160979
659.031	0.0159421
659.109	0.0161417
659.187	0.0160271
659.265	0.0161053
659.343	0.0162452
659.422	0.0162535
659.500	0.0161998
659.578	0.0161568
659.656	0.0162567
659.734	0.0160307
659.812	0.0161146
659.890	0.0161912
659.968	0.0161446
660.047	0.0162138
660.125	0.0161616
660.203	0.0162637
660.281	0.0161552
660.359	0.0160952
660.437	0.0162534
660.515	0.0162385
660.593	0.0161356
660.672	0.0162527
660.750	0.0163125
660.828	0.0162644
660.906	0.0161608
660.984	0.0161375
661.062	0.0161950
661.140	0.0161499
661.218	0.0159846
661.297	0.0161976
661.375	0.0163669
661.453	0.0161249
661.531	0.0162389
661.609	0.0161900
661.687	0.0161019
661.765	0.0163119
661.843	0.0161906
661.922	0.0161687
662.000	0.0161402
662.078	0.0161806
662.156	0.0161044
662.234	0.0161082
662.312	0.0161347
662.390	0.0161366
662.468	0.0161283
662.547	0.0161749
662.625	0.0162720
662.703	0.0161987
662.781	0.0160728
662.859	0.0161278
662.937	0.0162569
663.015	0.0160678
663.093	0.0160612
663.172	0.0161700
663.250	0.0161916
663.328	0.0163074
663.406	0.0162318
663.484	0.0161713
663.562	0.0162021
663.640	0.0161415
663.718	0.0162050
663.797	0.0162924
663.875	0.0162651
663.953	0.0162345
664.031	0.0161383
664.109	0.0161613
664.187	0.0160911
664.265	0.0161933
664.343	0.0162618
664.422	0.0162363
664.500	0.0161258
664.578	0.0161969
664.656	0.0162615
664.734	0.0161164
664.812	0.0162485
664.890	0.0161583
664.968	0.0162933
665.047	0.0161903
665.125	0.0161067
665.203	0.0161195
665.281	0.0161183
665.359	0.0162336
665.437	0.0162344
665.515	0.0161600
665.593	0.0161548
665.672	0.0161777
665.750	0.0161230
665.828	0.0161080
665.906	0.0161650
665.984	0.0161287
666.062	0.0161568
666.140	0.0162690
666.218	0.0159866
666.297	0.0161499
666.375	0.0161292
666.453	0.0161554
666.531	0.0162798
666.609	0.0160802
666.687	0.0160324
666.765	0.0161613
666.843	0.0161962
666.922	0.0162052
667.000	0.0161622
667.078	0.0160204
667.156	0.0161732
667.234	0.0161906
667.312	0.0161085
667.390	0.0161209
667.468	0.0161569
667.547	0.0162612
667.625	0.0160371
667.703	0.0161156
667.781	0.0160701
667.859	0.0161606
667.937	0.0161745
668.015	0.0162021
668.093	0.0161956
668.172	0.0161885
668.250	0.0161736
668.328	0.0161652
668.406	0.0161356
668.484	0.0162498
668.562	0.0161370
668.640	0.0161567
668.718	0.0161293
668.797	0.0161380
668.875	0.0161602
668.953	0.0162872
669.031	0.0161000
669.109	0.0161930
669.187	0.0160608
669.265	0.0161089
669.343	0.0161674
669.422	0.0162212
669.500	0.0161422
669.578	0.0161304
669.656	0.0160637
669.734	0.0161594
669.812	0.0162607
669.890	0.0162114
669.968	0.0162998
670.047	0.0161082
670.125	0.0161433
670.203	0.0160581
670.281	0.0161835
670.359	0.0161207
670.437	0.0161720
670.515	0.0160603
670.593	0.0161544
670.672	0.0160784
670.750	0.0161514
670.828	0.0161934
670.906	0.0161957
670.984	0.0160174
671.062	0.0163409
671.140	0.0161358
671.218	0.0162657
671.297	0.0163128
671.375	0.0160712
671.453	0.0160227
671.531	0.0162572
671.609	0.0161753
671.687	0.0161426
671.765	0.0162083
671.843	0.0161738
671.922	0.0162291
672.000	0.0161285
672.078	0.0161226
672.156	0.0161954
672.234	0.0160881
672.312	0.0162369
672.390	0.0162202
672.468	0.0161469
672.547	0.0161024
672.625	0.0161069
672.703	0.0161625
672.781	0.0163456
672.859	0.0159962
672.937	0.0161478
673.015	0.0161061
673.093	0.0160825
673.172	0.0162038
673.250	0.0160728
673.328	0.0162563
673.406	0.0160997
673.484	0.0160766
673.562	0.0162272
673.640	0.0161755
673.718	0.0162141
673.797	0.0162827
673.875	0.0161719
673.953	0.0161140
674.031	0.0161379
674.109	0.0161576
674.187	0.0161247
674.265	0.0160876
674.343	0.0161772
674.422	0.0161604
674.500	0.0160405
674.578	0.0161296
674.656	0.0162447
674.734	0.0161394
674.812	0.0161485
674.890	0.0162037
674.968	0.0160063
675.047	0.0161147
675.125	0.0160343
675.203	0.0161160
675.281	0.0161898
675.359	0.0162492
675.437	0.0162386
675.515	0.0161975
675.593	0.0160546
675.672	0.0160954
675.750	0.0161472
675.828	0.0161131
675.906	0.0161557
675.984	0.0162005
676.062	0.0161890
676.140	0.0160844
676.218	0.0160904
676.297	0.0162091
676.375	0.0161944
676.453	0.0161514
676.531	0.0161962
676.609	0.0160534
676.687	0.0162586
676.765	0.0161405
676.843	0.0160284
676.922	0.0161334
677.000	0.0161089
677.078	0.0160211
677.156	0.0159463
677.234	0.0161880
677.312	0.0161950
677.390	0.0160812
677.468	0.0161153
677.547	0.0160752
677.625	0.0161046
677.703	0.0160382
677.781	0.0160969
677.859	0.0161181
677.937	0.0160468
678.015	0.0160252
678.093	0.0161887
678.172	0.0160919
678.250	0.0160261
678.328	0.0160936
678.406	0.0161396
678.484	0.0161303
678.562	0.0162579
678.640	0.0161043
678.718	0.0162330
678.797	0.0162088
678.875	0.0162032
678.953	0.0161405
679.031	0.0162956
679.109	0.0161797
679.187	0.0160788
679.265	0.0161922
679.343	0.0161523
679.422	0.0162146
679.500	0.0162252
679.578	0.0160655
679.656	0.0161771
679.734	0.0161714
679.812	0.0162508
679.890	0.0161371
679.968	0.0162243
680.047	0.0161478
680.125	0.0162875
680.203	0.0162566
680.281	0.0160159
680.359	0.0159751
680.437	0.0161125
680.515	0.0162852
680.593	0.0161480
680.672	0.0161457
680.750	0.0161153
680.828	0.0160783
680.906	0.0161070
680.984	0.0162609
681.062	0.0160622
681.140	0.0161649
681.218	0.0162905
681.297	0.0160484
681.375	0.0161504
681.453	0.0161878
681.531	0.0162014
681.609	0.0160413
681.687	0.0161455
681.765	0.0162787
681.843	0.0160995
681.922	0.0160718
682.000	0.0161454
682.078	0.0160864
682.156	0.0160767
682.234	0.0161700
682.312	0.0161929
682.390	0.0163048
682.468	0.0160823
682.547	0.0161111
682.625	0.0162096
682.703	0.0160650
682.781	0.0162094
682.859	0.0162036
682.937	0.0161274
683.015	0.0162484
683.093	0.0161621
683.172	0.0160687
683.250	0.0162203
683.328	0.0161298
683.406	0.0161594
683.484	0.0161108
683.562	0.0162441
683.640	0.0161018
683.718	0.0162489
683.797	0.0162694
683.875	0.0161253
683.953	0.0162800
684.031	0.0160429
684.109	0.0162086
684.187	0.0162354
684.265	0.0163023
684.343	0.0163106
684.422	0.0163345
684.500	0.0160859
684.578	0.0161201
684.656	0.0160862
684.734	0.0162701
684.812	0.0162857
684.890	0.0161332
684.968	0.0162056
685.047	0.0161480
685.125	0.0162743
685.203	0.0162469
685.281	0.0162569
685.359	0.0162163
685.437	0.0162414
685.515	0.0161773
685.593	0.0160722
685.672	0.0163090
685.750	0.0162305
685.828	0.0160868
685.906	0.0161015
685.984	0.0162561
686.062	0.0161345
686.140	0.0160736
686.218	0.0161679
686.297	0.0162399
686.375	0.0162303
686.453	0.0161475
686.531	0.0162109
686.609	0.0161729
686.687	0.0163972
686.765	0.0162336
686.843	0.0161572
686.922	0.0161492
687.000	0.0161507
687.078	0.0162592
687.156	0.0162049
687.234	0.0162444
687.312	0.0164320
687.390	0.0162663
687.468	0.0162110
687.547	0.0162195
687.625	0.0162946
687.703	0.0163037
687.781	0.0162287
687.859	0.0162104
687.937	0.0162451
688.015	0.0162048
688.093	0.0162153
688.172	0.0162271
688.250	0.0162737
688.328	0.0162935
688.406	0.0160853
688.484	0.0161805
688.562	0.0162581
688.640	0.0162357
688.718	0.0162401
688.797	0.0163030
688.875	0.0161581
688.953	0.0160175
689.031	0.0161131
689.109	0.0163359
689.187	0.0161548
689.265	0.0162171
689.343	0.0161904
689.422	0.0161571
689.500	0.0161287
689.578	0.0161029
689.656	0.0161996
689.734	0.0161912
689.812	0.0161573
689.890	0.0161692
689.968	0.0160741
690.047	0.0161748
690.125	0.0161180
690.203	0.0161278
690.281	0.0161832
690.359	0.0160988
690.437	0.0160033
690.515	0.0161976
690.593	0.0161787
690.672	0.0162665
690.750	0.0162035
690.828	0.0160631
690.906	0.0161462
690.984	0.0161973
691.062	0.0164238
691.140	0.0162193
691.218	0.0162306
691.297	0.0162055
691.375	0.0161825
691.453	0.0161814
691.531	0.0162787
691.609	0.0161491
691.687	0.0161021
691.765	0.0162131
691.843	0.0161837
691.922	0.0162370
692.000	0.0162016
692.078	0.0161098
692.156	0.0161507
692.234	0.0163118
692.312	0.0161971
692.390	0.0161124
692.468	0.0160777
692.547	0.0161166
692.625	0.0161440
692.703	0.0160343
692.781	0.0161141
692.859	0.0161485
692.937	0.0162032
693.015	0.0160735
693.093	0.0160683
693.172	0.0161134
693.250	0.0160802
693.328	0.0162554
693.406	0.0161527
693.484	0.0162173
693.562	0.0162341
693.640	0.0159743
693.718	0.0160903
693.797	0.0161588
693.875	0.0161782
693.953	0.0162819
694.031	0.0161209
694.109	0.0162605
694.187	0.0161227
694.265	0.0161064
694.343	0.0159922
694.422	0.0160575
694.500	0.0161716
694.578	0.0160735
694.656	0.0161340
694.734	0.0162510
694.812	0.0160635
694.890	0.0161266
694.968	0.0162950
695.047	0.0161514
695.125	0.0161047
695.203	0.0160700
695.281	0.0161293
695.359	0.0162631
695.437	0.0162406
695.515	0.0162613
695.593	0.0162923
695.672	0.0159518
695.750	0.0160914
695.828	0.0161565
695.906	0.0158997
695.984	0.0161504
696.062	0.0162376
696.140	0.0162366
696.218	0.0161583
696.297	0.0162183
696.375	0.0161727
696.453	0.0159781
696.531	0.0161679
696.609	0.0162975
696.687	0.0161537
696.765	0.0161713
696.843	0.0160424
696.922	0.0162008
697.000	0.0161460
697.078	0.0160978
697.156	0.0161677
697.234	0.0161470
697.312	0.0161242
697.390	0.0162460
697.468	0.0160434
697.547	0.0161769
697.625	0.0162747
697.703	0.0161956
697.781	0.0160732
697.859	0.0161352
697.937	0.0160576
698.015	0.0160789
698.093	0.0160872
698.172	0.0162479
698.250	0.0161739
698.328	0.0160820
698.406	0.0161857
698.484	0.0162033
698.562	0.0161082
698.640	0.0161097
698.718	0.0161847
698.797	0.0161166
698.875	0.0162964
698.953	0.0161951
699.031	0.0161846
699.109	0.0161884
699.187	0.0162349
699.265	0.0161798
699.343	0.0162263
699.422	0.0162184
699.500	0.0161536
699.578	0.0161197
699.656	0.0162166
699.734	0.0161907
699.812	0.0160428
699.890	0.0161476
699.968	0.0160590
700.047	0.0161771
700.125	0.0161743
700.203	0.0161884
700.281	0.0160291
700.359	0.0161406
700.437	0.0161712
700.515	0.0161378
700.593	0.0161126
700.672	0.0161547
700.750	0.0161711
700.828	0.0161006
700.906	0.0160719
700.984	0.0161302
701.062	0.0161637
701.140	0.0161472
701.218	0.0162302
701.297	0.0161347
701.375	0.0161494
701.453	0.0161198
701.531	0.0160376
701.609	0.0161749
701.687	0.0160435
701.765	0.0160954
701.843	0.0161403
701.922	0.0162507
702.000	0.0162160
702.078	0.0161398
702.156	0.0160605
702.234	0.0162012
702.312	0.0162690
702.390	0.0161616
702.468	0.0163007
702.547	0.0162209
702.625	0.0161819
702.703	0.0160708
702.781	0.0160595
702.859	0.0161777
702.937	0.0162943
703.015	0.0162466
703.093	0.0161652
703.172	0.0160954
703.250	0.0161433
703.328	0.0161379
703.406	0.0160151
703.484	0.0163509
703.562	0.0162015
703.640	0.0162396
703.718	0.0161426
703.797	0.0160896
703.875	0.0161872
703.953	0.0162780
704.031	0.0160926
704.109	0.0162090
704.187	0.0162828
704.265	0.0163007
704.343	0.0161887
704.422	0.0161769
704.500	0.0163335
704.578	0.0162334
704.656	0.0162282
704.734	0.0160186
704.812	0.0162224
704.890	0.0160207
704.968	0.0161460
705.047	0.0161685
705.125	0.0162791
705.203	0.0161668
705.281	0.0161310
705.359	0.0161292
705.437	0.0161688
705.515	0.0160296
705.593	0.0160926
705.672	0.0162538
705.750	0.0163634
705.828	0.0161085
705.906	0.0162219
705.984	0.0161470
706.062	0.0161369
706.140	0.0162283
706.218	0.0162852
706.297	0.0162905
706.375	0.0161649
706.453	0.0161469
706.531	0.0161179
706.609	0.0162006
706.687	0.0162529
706.765	0.0159981
706.843	0.0162031
706.922	0.0162091
707.000	0.0161462
707.078	0.0161552
707.156	0.0161401
707.234	0.0162724
707.312	0.0162775
707.390	0.0161652
707.468	0.0162325
707.547	0.0161951
707.625	0.0161237
707.703	0.0162154
707.781	0.0162315
707.859	0.0161659
707.937	0.0161187
708.015	0.0161391
708.093	0.0163032
708.172	0.0161939
708.250	0.0162352
708.328	0.0161263
708.406	0.0160179
708.484	0.0160030
708.562	0.0162646
708.640	0.0161100
708.718	0.0161492
708.797	0.0162149
708.875	0.0160725
708.953	0.0160140
709.031	0.0162543
709.109	0.0161253
709.187	0.0162258
709.265	0.0162694
709.343	0.0161307
709.422	0.0160767
709.500	0.0160798
709.578	0.0161683
709.656	0.0160967
709.734	0.0160738
709.812	0.0160283
709.890	0.0161322
709.968	0.0161800
710.047	0.0160840
710.125	0.0161725
710.203	0.0161820
710.281	0.0162093
710.359	0.0160173
710.437	0.0160244
710.515	0.0161784
710.593	0.0161417
710.672	0.0161726
710.750	0.0160964
710.828	0.0161377
710.906	0.0162143
710.984	0.0161633
711.062	0.0162554
711.140	0.0161538
711.218	0.0162519
711.297	0.0160909
711.375	0.0161873
711.453	0.0161881
711.531	0.0160998
711.609	0.0161773
711.687	0.0162256
711.765	0.0161791
711.843	0.0161834
711.922	0.0161810
712.000	0.0160943
712.078	0.0162157
712.156	0.0161980
712.234	0.0161613
712.312	0.0161114
712.390	0.0160726
712.468	0.0162541
712.547	0.0161507
712.625	0.0161437
712.703	0.0162513
712.781	0.0162360
712.859	0.0161538
712.937	0.0162106
713.015	0.0160278
713.093	0.0159839
713.172	0.0161575
713.250	0.0162612
713.328	0.0162091
713.406	0.0160802
713.484	0.0161961
713.562	0.0162549
713.640	0.0160807
713.718	0.0161165
713.797	0.0161654
713.875	0.0161491
713.953	0.0161933
714.031	0.0160081
714.109	0.0160441
714.187	0.0160667
714.265	0.0161873
714.343	0.0160955
714.422	0.0162736
714.500	0.0162457
714.578	0.0161061
714.656	0.0161935
714.734	0.0162521
714.812	0.0161023
714.890	0.0161642
714.968	0.0161711
715.047	0.0160224
715.125	0.0161626
715.203	0.0161563
715.281	0.0160645
715.359	0.0161423
715.437	0.0162698
715.515	0.0162157
715.593	0.0161430
715.672	0.0161478
715.750	0.0161141
715.828	0.0162079
715.906	0.0163192
715.984	0.0160756
716.062	0.0161738
716.140	0.0159592
716.218	0.0161526
716.297	0.0161216
716.375	0.0160558
716.453	0.0162276
716.531	0.0162576
716.609	0.0160660
716.687	0.0161395
716.765	0.0161011
716.843	0.0161464
716.922	0.0162017
717.000	0.0161980
717.078	0.0161669
717.156	0.0160230
717.234	0.0161708
717.312	0.0161382
717.390	0.0161688
717.468	0.0161040
717.547	0.0161971
717.625	0.0161861
717.703	0.0161542
717.781	0.0160325
717.859	0.0161612
717.937	0.0161945
718.015	0.0160745
718.093	0.0161577
718.172	0.0161975
718.250	0.0161459
718.328	0.0160536
718.406	0.0160237
718.484	0.0161385
718.562	0.0160059
718.640	0.0160517
718.718	0.0161423
718.797	0.0161224
718.875	0.0160987
718.953	0.0162289
719.031	0.0162398
719.109	0.0161025
719.187	0.0160732
719.265	0.0161177
719.343	0.0161124
719.422	0.0162590
719.500	0.0161939
719.578	0.0161370
719.656	0.0160719
719.734	0.0160365
719.812	0.0161103
719.890	0.0162463
719.968	0.0161602
720.047	0.0161926
720.125	0.0160234
720.203	0.0161475
720.281	0.0160787
720.359	0.0162485
720.437	0.0160883
720.515	0.0160944
720.593	0.0160651
720.672	0.0161782
720.750	0.0161089
720.828	0.0162502
720.906	0.0161022
720.984	0.0162663
721.062	0.0162203
721.140	0.0160883
721.218	0.0161503
721.297	0.0161504
721.375	0.0162473
721.453	0.0160043
721.531	0.0162356
721.609	0.0162640
721.687	0.0162302
721.765	0.0161658
721.843	0.0162448
721.922	0.0160900
722.000	0.0161913
722.078	0.0160593
722.156	0.0161184
722.234	0.0162109
722.312	0.0161237
722.390	0.0160590
722.468	0.0161466
722.547	0.0161258
722.625	0.0162924
722.703	0.0160931
722.781	0.0161255
722.859	0.0161951
722.937	0.0162338
723.015	0.0163576
723.093	0.0162290
723.172	0.0162010
723.250	0.0160944
723.328	0.0161732
723.406	0.0162685
723.484	0.0161491
723.562	0.0162193
723.640	0.0163383
723.718	0.0161393
723.797	0.0161116
723.875	0.0160838
723.953	0.0161079
724.031	0.0161040
724.109	0.0162864
724.187	0.0161539
724.265	0.0162447
724.343	0.0162829
724.422	0.0160943
724.500	0.0163062
724.578	0.0161952
724.656	0.0161584
724.734	0.0161687
724.812	0.0162115
724.890	0.0161451
724.968	0.0162016
725.047	0.0161906
725.125	0.0160963
725.203	0.0162836
725.281	0.0161917
725.359	0.0162120
725.437	0.0161868
725.515	0.0162785
725.593	0.0161790
725.672	0.0161785
725.750	0.0161860
725.828	0.0161346
725.906	0.0161716
725.984	0.0161926
726.062	0.0161143
726.140	0.0161873
726.218	0.0161641
726.297	0.0162601
726.375	0.0162007
726.453	0.0161549
726.531	0.0160309
726.609	0.0162796
726.687	0.0161985
726.765	0.0162496
726.843	0.0162171
726.922	0.0162682
727.000	0.0161993
727.078	0.0161879
727.156	0.0162891
727.234	0.0162916
727.312	0.0161147
727.390	0.0161813
727.468	0.0161215
727.547	0.0162115
727.625	0.0161096
727.703	0.0161747
727.781	0.0161075
727.859	0.0162020
727.937	0.0161778
728.015	0.0161755
728.093	0.0162479
728.172	0.0161814
728.250	0.0161587
728.328	0.0161292
728.406	0.0161457
728.484	0.0162092
728.562	0.0161711
728.640	0.0163439
728.718	0.0161652
728.797	0.0160738
728.875	0.0161684
728.953	0.0162199
729.031	0.0161494
729.109	0.0161949
729.187	0.0163043
729.265	0.0161054
729.343	0.0161689
729.422	0.0161723
729.500	0.0161844
729.578	0.0162828
729.656	0.0163848
729.734	0.0161777
729.812	0.0161757
729.890	0.0161512
729.968	0.0162097
730.047	0.0161877
730.125	0.0162224
730.203	0.0161260
730.281	0.0162290
730.359	0.0160229
730.437	0.0160601
730.515	0.0160424
730.593	0.0160941
730.672	0.0160297
730.750	0.0162006
730.828	0.0161669
730.906	0.0160574
730.984	0.0161520
731.062	0.0162454
731.140	0.0160941
731.218	0.0160545
731.297	0.0161291
731.375	0.0162457
731.453	0.0161289
731.531	0.0161448
731.609	0.0162127
731.687	0.0160131
731.765	0.0160316
731.843	0.0162321
731.922	0.0161156
732.000	0.0163165
732.078	0.0160850
732.156	0.0161472
732.234	0.0160584
732.312	0.0162308
732.390	0.0161089
732.468	0.0160880
732.547	0.0161106
732.625	0.0162023
732.703	0.0161365
732.781	0.0161333
732.859	0.0162146
732.937	0.0161669
733.015	0.0162377
733.093	0.0161320
733.172	0.0161343
733.250	0.0163001
733.328	0.0162001
733.406	0.0163197
733.484	0.0161557
733.562	0.0160652
733.640	0.0160921
733.718	0.0161458
733.797	0.0162547
733.875	0.0162086
733.953	0.0161101
734.031	0.0161234
734.109	0.0160641
734.187	0.0161485
734.265	0.0161621
734.343	0.0160846
734.422	0.0161197
734.500	0.0160903
734.578	0.0162002
734.656	0.0161610
734.734	0.0160302
734.812	0.0160972
734.890	0.0160857
734.968	0.0162030
735.047	0.0161187
735.125	0.0160661
735.203	0.0162025
735.281	0.0161616
735.359	0.0161430
735.437	0.0160535
735.515	0.0162169
735.593	0.0161877
735.672	0.0160646
735.750	0.0161109
735.828	0.0160474
735.906	0.0161636
735.984	0.0161660
736.062	0.0160191
736.140	0.0162085
736.218	0.0162067
736.297	0.0162807
736.375	0.0162595
736.453	0.0161364
736.531	0.0162476
736.609	0.0161523
736.687	0.0162857
736.765	0.0161915
736.843	0.0161691
736.922	0.0162421
737.000	0.0161031
737.078	0.0160754
737.156	0.0160788
737.234	0.0161593
737.312	0.0162940
737.390	0.0162068
737.468	0.0161517
737.547	0.0161728
737.625	0.0162397
737.703	0.0161712
737.781	0.0163354
737.859	0.0163964
737.937	0.0162096
738.015	0.0161720
738.093	0.0161682
738.172	0.0161024
738.250	0.0160519
738.328	0.0160950
738.406	0.0161814
738.484	0.0162099
738.562	0.0160936
738.640	0.0160767
738.718	0.0162038
738.797	0.0161922
738.875	0.0161501
738.953	0.0161898
739.031	0.0161898
739.109	0.0161133
739.187	0.0162269
739.265	0.0161417
739.343	0.0162078
739.422	0.0162456
739.500	0.0159704
739.578	0.0160573
739.656	0.0160598
739.734	0.0160627
739.812	0.0160957
739.890	0.0161362
739.968	0.0161036
740.047	0.0161946
740.125	0.0161398
740.203	0.0160952
740.281	0.0161585
740.359	0.0162508
740.437	0.0161604
740.515	0.0162582
740.593	0.0161279
740.672	0.0162872
740.750	0.0162296
740.828	0.0162923
740.906	0.0161313
740.984	0.0161983
741.062	0.0160959
741.140	0.0162607
741.218	0.0161295
741.297	0.0161760
741.375	0.0161551
741.453	0.0159886
741.531	0.0159761
741.609	0.0161004
741.687	0.0159946
741.765	0.0158826
741.843	0.0159480
741.922	0.0160054
742.000	0.0160086
742.078	0.0162631
742.156	0.0160966
742.234	0.0162114
742.312	0.0162585
742.390	0.0162813
742.468	0.0161920
742.547	0.0162213
742.625	0.0163220
742.703	0.0162307
742.781	0.0162731
742.859	0.0161587
742.937	0.0160212
743.015	0.0160873
743.093	0.0160213
743.172	0.0160571
743.250	0.0160586
743.328	0.0160882
743.406	0.0160180
743.484	0.0161943
743.562	0.0161395
743.640	0.0162350
743.718	0.0162674
743.797	0.0162532
743.875	0.0162676
743.953	0.0162923
744.031	0.0164446
744.109	0.0162684
744.187	0.0163331
744.265	0.0162760
744.343	0.0162608
744.422	0.0161508
744.500	0.0160730
744.578	0.0160275
744.656	0.0160254
744.734	0.0160484
744.812	0.0160422
744.890	0.0161819
744.968	0.0160343
745.047	0.0161880
745.125	0.0162424
745.203	0.0162827
745.281	0.0161518
745.359	0.0162719
745.437	0.0162753
745.515	0.0162516
745.593	0.0163390
745.672	0.0164310
745.750	0.0163960
745.828	0.0164423
745.906	0.0164812
745.984	0.0163936
746.062	0.0163847
746.140	0.0163524
746.218	0.0161481
746.297	0.0160869
746.375	0.0159679
746.453	0.0157806
746.531	0.0157778
746.609	0.0156297
746.687	0.0155886
746.765	0.0157127
746.843	0.0156454
746.922	0.0155337
747.000	0.0155212
747.078	0.0158221
747.156	0.0158379
747.234	0.0160006
747.312	0.0161598
747.390	0.0162083
747.468	0.0162829
747.547	0.0163592
747.625	0.0164302
747.703	0.0165221
747.781	0.0165503
747.859	0.0165039
747.937	0.0165942
748.015	0.0166911
748.093	0.0165277
748.172	0.0164216
748.250	0.0164742
748.328	0.0165186
748.406	0.0164822
748.484	0.0164158
748.562	0.0165368
748.640	0.0164777
748.718	0.0165701
748.797	0.0164840
748.875	0.0167520
748.953	0.0166025
749.031	0.0165096
749.109	0.0166890
749.187	0.0165211
749.265	0.0163486
749.343	0.0163454
749.422	0.0162514
749.500	0.0160718
749.578	0.0157414
749.656	0.0154075
749.734	0.0152596
749.812	0.0150611
749.890	0.0149316
749.968	0.0148470
750.047	0.0147237
750.125	0.0147872
750.203	0.0148269
750.281	0.0148640
750.359	0.0150287
750.437	0.0152399
750.515	0.0153710
750.593	0.0155534
750.672	0.0158356
750.750	0.0161107
750.828	0.0161985
750.906	0.0163137
750.984	0.0165134
751.062	0.0168185
751.140	0.0168867
751.218	0.0170580
751.297	0.0172052
751.375	0.0172675
751.453	0.0173243
751.531	0.0173524
751.609	0.0173468
751.687	0.0172526
751.765	0.0171786
751.843	0.0171510
751.922	0.0171520
752.000	0.0171738
752.078	0.0172129
752.156	0.0172669
752.234	0.0171991
752.312	0.0173674
752.390	0.0175736
752.468	0.0175654
752.547	0.0176549
752.625	0.0174798
752.703	0.0173580
752.781	0.0169666
752.859	0.0166901
752.937	0.0162141
753.015	0.0155074
753.093	0.0150481
753.172	0.0144277
753.250	0.0137763
753.328	0.0132980
753.406	0.0128579
753.484	0.0123258
753.562	0.0120788
753.640	0.0117712
753.718	0.0116367
753.797	0.0116057
753.875	0.0118709
753.953	0.0121011
754.031	0.0125128
754.109	0.0129714
754.187	0.0134776
754.265	0.0140801
754.343	0.0150137
754.422	0.0159412
754.500	0.0167967
754.578	0.0176611
754.656	0.0185113
754.734	0.0195018
754.812	0.0202753
754.890	0.0208678
754.968	0.0213416
755.047	0.0217675
755.125	0.0219366
755.203	0.0218814
755.281	0.0217254
755.359	0.0216095
755.437	0.0212808
755.515	0.0209730
755.593	0.0206619
755.672	0.0201358
755.750	0.0197908
755.828	0.0190180
755.906	0.0184741
755.984	0.0178976
756.062	0.0174519
756.140	0.0168100
756.218	0.0161396
756.297	0.0154401
756.375	0.0146393
756.453	0.0140733
756.531	0.0133407
756.609	0.0126386
756.687	0.0120160
756.765	0.0113435
756.843	0.0108001
756.922	0.0100024
757.000	0.00934685
757.078	0.00907402
757.156	0.00870338
757.234	0.00858192
757.312	0.00868896
757.390	0.00888885
757.468	0.00924904
757.547	0.00981529
757.625	0.0106622
757.703	0.0116479
757.781	0.0128640
757.859	0.0140488
757.937	0.0152395
758.015	0.0167763
758.093	0.0180654
758.172	0.0191745
758.250	0.0204529
758.328	0.0215219
758.406	0.0223833
758.484	0.0231054
758.562	0.0236418
758.640	0.0241615
758.718	0.0244862
758.797	0.0244840
758.875	0.0243423
758.953	0.0240567
759.031	0.0238112
759.109	0.0230836
759.187	0.0223015
759.265	0.0213494
759.343	0.0204356
759.422	0.0192740
759.500	0.0181963
759.578	0.0174987
759.656	0.0164272
759.734	0.0155686
759.812	0.0148492
759.890	0.0139638
759.968	0.0133446
760.047	0.0129886
760.125	0.0126588
760.203	0.0124809
760.281	0.0121433
760.359	0.0121916
760.437	0.0121333
760.515	0.0121318
760.593	0.0120615
760.672	0.0118793
760.750	0.0119695
760.828	0.0118355
760.906	0.0117945
760.984	0.0118385
761.062	0.0119378
761.140	0.0118809
761.218	0.0120059
761.297	0.0120936
761.375	0.0125006
761.453	0.0127505
761.531	0.0129332
761.609	0.0133012
761.687	0.0136549
761.765	0.0142019
761.843	0.0145998
761.922	0.0150765
762.000	0.0157005
762.078	0.0163479
762.156	0.0170963
762.234	0.0176290
762.312	0.0182426
762.390	0.0188466
762.468	0.0194634
762.547	0.0199358
762.625	0.0204499
762.703	0.0208642
762.781	0.0211138
762.859	0.0212971
762.937	0.0213374
763.015	0.0211234
763.093	0.0212318
763.172	0.0212006
763.250	0.0211034
763.328	0.0208562
763.406	0.0206088
763.484	0.0203935
763.562	0.0201048
763.640	0.0197274
763.718	0.0194598
763.797	0.0191209
763.875	0.0186510
763.953	0.0182983
764.031	0.0179064
764.109	0.0176335
764.187	0.0172784
764.265	0.0167786
764.343	0.0163165
764.422	0.0157943
764.500	0.0150985
764.578	0.0143501
764.656	0.0134559
764.734	0.0126966
764.812	0.0117953
764.890	0.0107632
764.968	0.00990044
765.047	0.00909103
765.125	0.00824486
765.203	0.00783989
765.281	0.00753471
765.359	0.00737091
765.437	0.00738708
765.515	0.00757942
765.593	0.00828377
765.672	0.00895103
765.750	0.00999329
765.828	0.0114291
765.906	0.0127436
765.984	0.0142999
766.062	0.0157488
766.140	0.0173205
766.218	0.0189699
766.297	0.0201747
766.375	0.0213831
766.453	0.0224133
766.531	0.0230942
766.609	0.0232955
766.687	0.0235617
766.765	0.0233743
766.843	0.0231874
766.922	0.0225334
767.000	0.0218478
767.078	0.0213910
767.156	0.0205735
767.234	0.0198729
767.312	0.0194476
767.390	0.0188319
767.468	0.0183537
767.547	0.0181521
767.625	0.0180813
767.703	0.0180447
767.781	0.0180380
767.859	0.0178194
767.937	0.0178388
768.015	0.0179350
768.093	0.0179639
768.172	0.0176418
768.250	0.0172799
768.328	0.0168362
768.406	0.0161353
768.484	0.0153538
768.562	0.0144010
768.640	0.0133333
768.718	0.0122398
768.797	0.0110534
768.875	0.0101007
768.953	0.00919273
769.031	0.00838043
769.109	0.00772430
769.187	0.00726768
769.265	0.00730598
769.343	0.00761024
769.422	0.00809761
769.500	0.00892021
769.578	0.0100046
769.656	0.0114978
769.734	0.0131042
769.812	0.0145524
769.890	0.0164643
769.968	0.0182375
770.047	0.0200696
770.125	0.0216376
770.203	0.0228710
770.281	0.0239664
770.359	0.0247736
770.437	0.0251431
770.515	0.0251550
770.593	0.0249625
770.672	0.0245265
770.750	0.0234686
770.828	0.0225027
770.906	0.0213658
770.984	0.0201418
771.062	0.0188344
771.140	0.0173897
771.218	0.0163538
771.297	0.0151717
771.375	0.0140859
771.453	0.0134934
771.531	0.0127585
771.609	0.0124751
771.687	0.0122573
771.765	0.0123610
771.843	0.0125972
771.922	0.0130348
772.000	0.0131604
772.078	0.0135595
772.156	0.0139647
772.234	0.0140193
772.312	0.0143441
772.390	0.0143558
772.468	0.0140796
772.547	0.0139342
772.625	0.0136746
772.703	0.0133557
772.781	0.0128848
772.859	0.0126545
772.937	0.0125481
773.015	0.0122832
773.093	0.0124532
773.172	0.0127278
773.250	0.0131373
773.328	0.0135901
773.406	0.0142589
773.484	0.0149341
773.562	0.0160052
773.640	0.0169971
773.718	0.0180374
773.797	0.0191693
773.875	0.0202615
773.953	0.0213251
774.031	0.0223026
774.109	0.0229123
774.187	0.0233607
774.265	0.0235243
774.343	0.0235289
774.422	0.0233606
774.500	0.0228166
774.578	0.0221699
774.656	0.0212436
774.734	0.0202766
774.812	0.0191842
774.890	0.0179351
774.968	0.0167180
775.047	0.0156007
775.125	0.0143574
775.203	0.0133240
775.281	0.0127338
775.359	0.0120219
775.437	0.0114381
775.515	0.0111180
775.593	0.0110110
775.672	0.0112498
775.750	0.0117008
775.828	0.0119870
775.906	0.0123708
775.984	0.0130397
776.062	0.0135762
776.140	0.0141811
776.218	0.0145492
776.297	0.0149657
776.375	0.0151812
776.453	0.0153548
776.531	0.0152708
776.609	0.0151653
776.687	0.0151022
776.765	0.0149504
776.843	0.0145278
776.922	0.0143592
777.000	0.0140829
777.078	0.0140168
777.156	0.0139538
777.234	0.0140353
777.312	0.0141552
777.390	0.0146283
777.468	0.0149870
777.547	0.0157249
777.625	0.0162457
777.703	0.0169869
777.781	0.0178288
777.859	0.0186502
777.937	0.0193568
778.015	0.0201345
778.093	0.0205389
778.172	0.0210738
778.250	0.0213319
778.328	0.0216000
778.406	0.0214295
778.484	0.0212103
778.562	0.0209385
778.640	0.0203781
778.718	0.0198696
778.797	0.0191197
778.875	0.0182037
778.953	0.0175333
779.031	0.0168076
779.109	0.0158946
779.187	0.0154039
779.265	0.0148217
779.343	0.0142039
779.422	0.0139203
779.500	0.0135835
779.578	0.0135375
779.656	0.0135759
779.734	0.0136733
779.812	0.0139314
779.890	0.0141312
779.968	0.0145424
780.047	0.0148119
780.125	0.0150723
780.203	0.0151534
780.281	0.0154488
780.359	0.0155852
780.437	0.0156566
780.515	0.0158012
780.593	0.0156880
780.672	0.0155784
780.750	0.0154895
780.828	0.0153893
780.906	0.0152115
780.984	0.0150674
781.062	0.0150052
781.140	0.0149510
781.218	0.0147660
781.297	0.0150187
781.375	0.0151142
781.453	0.0153779
781.531	0.0156555
781.609	0.0158160
781.687	0.0161781
781.765	0.0165628
781.843	0.0169984
781.922	0.0173064
782.000	0.0173883
782.078	0.0176043
782.156	0.0178664
782.234	0.0179489
782.312	0.0180544
782.390	0.0181034
782.468	0.0180187
782.547	0.0178535
782.625	0.0176480
782.703	0.0174147
782.781	0.0172818
782.859	0.0168348
782.937	0.0167818
783.015	0.0164270
783.093	0.0159873
783.172	0.0158002
783.250	0.0155306
783.328	0.0153715
783.406	0.0154060
783.484	0.0153146
783.562	0.0152081
783.640	0.0150683
783.718	0.0151897
783.797	0.0154387
783.875	0.0154288
783.953	0.0155376
784.031	0.0155215
784.109	0.0157073
784.187	0.0159602
784.265	0.0161060
784.343	0.0161084
784.422	0.0162818
784.500	0.0164612
784.578	0.0165429
784.656	0.0165754
784.734	0.0163595
784.812	0.0164256
784.890	0.0165070
784.968	0.0164252
785.047	0.0161929
785.125	0.0162743
785.203	0.0161954
785.281	0.0161924
785.359	0.0161988
785.437	0.0162125
785.515	0.0163069
785.593	0.0162253
785.672	0.0162349
785.750	0.0162057
785.828	0.0161249
785.906	0.0164085
785.984	0.0164775
786.062	0.0164603
786.140	0.0163936
786.218	0.0163538
786.297	0.0164203
786.375	0.0164785
786.453	0.0164574
786.531	0.0165583
786.609	0.0164469
786.687	0.0165307
786.765	0.0163395
786.843	0.0163685
786.922	0.0164496
787.000	0.0163759
787.078	0.0164070
787.156	0.0163216
787.234	0.0163184
787.312	0.0164125
787.390	0.0162969
787.468	0.0162399
787.547	0.0162564
787.625	0.0160450
787.703	0.0158611
787.781	0.0157688
787.859	0.0158080
787.937	0.0155734
788.015	0.0154929
788.093	0.0154360
788.172	0.0154474
788.250	0.0153698
788.328	0.0154266
788.406	0.0154031
788.484	0.0153840
788.562	0.0154140
788.640	0.0155077
788.718	0.0154472
788.797	0.0154981
788.875	0.0157261
788.953	0.0158213
789.031	0.0157970
789.109	0.0159049
789.187	0.0160007
789.265	0.0159644
789.343	0.0163054
789.422	0.0162211
789.500	0.0162302
789.578	0.0162915
789.656	0.0162787
789.734	0.0163744
789.812	0.0165047
789.890	0.0165007
789.968	0.0164256
790.047	0.0165810
790.125	0.0166973
790.203	0.0166989
790.281	0.0166919
790.359	0.0169115
790.437	0.0169289
790.515	0.0170883
790.593	0.0169808
790.672	0.0170769
790.750	0.0171848
790.828	0.0172027
790.906	0.0171829
790.984	0.0171656
791.062	0.0172180
791.140	0.0169407
791.218	0.0168670
791.297	0.0166822
791.375	0.0165255
791.453	0.0164280
791.531	0.0161884
791.609	0.0160373
791.687	0.0159780
791.765	0.0156627
791.843	0.0154659
791.922	0.0153086
792.000	0.0152216
792.078	0.0150666
792.156	0.0150247
792.234	0.0149599
792.312	0.0151591
792.390	0.0152669
792.468	0.0152730
792.547	0.0154504
792.625	0.0155637
792.703	0.0157495
792.781	0.0157819
792.859	0.0159924
792.937	0.0159827
793.015	0.0162761
793.093	0.0162354
793.172	0.0161811
793.250	0.0163264
793.328	0.0162843
793.406	0.0159726
793.484	0.0160326
793.562	0.0159565
793.640	0.0159470
793.718	0.0158552
793.797	0.0157874
793.875	0.0157408
793.953	0.0157459
794.031	0.0159056
794.109	0.0159679
794.187	0.0160925
794.265	0.0162474
794.343	0.0162438
794.422	0.0163485
794.500	0.0166793
794.578	0.0167882
794.656	0.0167848
794.734	0.0168702
794.812	0.0168733
794.890	0.0168870
794.968	0.0168451
795.047	0.0167315
795.125	0.0165586
795.203	0.0165108
795.281	0.0163798
795.359	0.0163513
795.437	0.0161305
795.515	0.0160879
795.593	0.0159445
795.672	0.0158779
795.750	0.0158385
795.828	0.0156799
795.906	0.0158075
795.984	0.0155316
796.062	0.0156516
796.140	0.0158907
796.218	0.0158585
796.297	0.0159421
796.375	0.0159975
796.453	0.0159643
796.531	0.0159426
796.609	0.0158693
796.687	0.0158347
796.765	0.0159076
796.843	0.0159297
796.922	0.0159780
797.000	0.0160131
797.078	0.0159435
797.156	0.0158678
797.234	0.0157904
797.312	0.0160133
797.390	0.0159618
797.468	0.0159479
797.547	0.0160255
797.625	0.0161369
797.703	0.0161687
797.781	0.0160641
797.859	0.0163482
797.937	0.0165066
798.015	0.0165234
798.093	0.0166187
798.172	0.0167974
798.250	0.0168978
798.328	0.0171684
798.406	0.0170064
798.484	0.0168849
798.562	0.0169875
798.640	0.0168836
798.718	0.0167593
798.797	0.0167058
798.875	0.0167124
798.953	0.0164185
799.031	0.0163300
799.109	0.0163565
799.187	0.0160260
799.265	0.0160091
799.343	0.0158700
799.422	0.0157274
799.500	0.0156487
799.578	0.0155533
799.656	0.0155852
799.734	0.0155264
799.812	0.0156453
799.890	0.0155359
799.968	0.0154440
800.047	0.0154832
800.125	0.0157253
800.203	0.0157188
800.281	0.0157041
800.359	0.0156059
800.437	0.0156946
800.515	0.0156681
800.593	0.0158167
800.672	0.0157253
800.750	0.0156467
800.828	0.0156542
800.906	0.0157241
800.984	0.0158000
801.062	0.0156528
801.140	0.0158384
801.218	0.0158807
801.297	0.0158415
801.375	0.0158437
801.453	0.0159842
801.531	0.0160313
801.609	0.0160672
801.687	0.0161961
801.765	0.0164880
801.843	0.0165197
801.922	0.0164239
802.000	0.0167123
802.078	0.0167915
802.156	0.0168381
802.234	0.0167654
802.312	0.0169088
802.390	0.0168016
802.468	0.0170278
802.547	0.0168166
802.625	0.0168870
802.703	0.0169791
802.781	0.0169345
802.859	0.0168713
802.937	0.0169524
803.015	0.0168526
803.093	0.0167816
803.172	0.0168912
803.250	0.0166755
803.328	0.0167091
803.406	0.0165569
803.484	0.0165301
803.562	0.0162316
803.640	0.0160777
803.718	0.0160651
803.797	0.0159950
803.875	0.0158269
803.953	0.0157429
804.031	0.0158559
804.109	0.0157506
804.187	0.0156293
804.265	0.0157507
804.343	0.0157417
804.422	0.0156760
804.500	0.0157217
804.578	0.0157829
804.656	0.0158289
804.734	0.0157104
804.812	0.0158394
804.890	0.0159191
804.968	0.0159064
805.047	0.0160288
805.125	0.0159300
805.203	0.0158639
805.281	0.0159576
805.359	0.0160602
805.437	0.0160063
805.515	0.0158420
805.593	0.0159394
805.672	0.0159193
805.750	0.0158502
805.828	0.0158962
805.906	0.0157970
805.984	0.0159196
806.062	0.0160443
806.140	0.0158901
806.218	0.0160118
806.297	0.0159568
806.375	0.0162016
806.453	0.0162538
806.531	0.0164392
806.609	0.0164591
806.687	0.0164957
806.765	0.0163972
806.843	0.0164712
806.922	0.0164536
807.000	0.0164880
807.078	0.0163779
807.156	0.0164150
807.234	0.0163309
807.312	0.0161696
807.390	0.0163010
807.468	0.0162347
807.547	0.0159223
807.625	0.0159506
807.703	0.0159982
807.781	0.0160655
807.859	0.0159731
807.937	0.0161561
808.015	0.0160106
808.093	0.0159938
808.172	0.0160371
808.250	0.0161396
808.328	0.0162108
808.406	0.0162951
808.484	0.0162589
808.562	0.0164024
808.640	0.0165631
808.718	0.0165803
808.797	0.0165138
808.875	0.0167552
808.953	0.0166597
809.031	0.0165964
809.109	0.0166845
809.187	0.0165671
809.265	0.0165995
809.343	0.0165135
809.422	0.0165262
809.500	0.0163882
809.578	0.0163960
809.656	0.0162920
809.734	0.0162702
809.812	0.0161389
809.890	0.0160699
809.968	0.0161285
810.047	0.0161320
810.125	0.0158542
810.203	0.0158952
810.281	0.0160787
810.359	0.0160747
810.437	0.0157998
810.515	0.0159753
810.593	0.0159499
810.672	0.0161149
810.750	0.0160758
810.828	0.0160307
810.906	0.0159863
810.984	0.0161432
811.062	0.0161748
811.140	0.0160905
811.218	0.0161554
811.297	0.0162595
811.375	0.0164026
811.453	0.0161620
811.531	0.0162206
811.609	0.0162622
811.687	0.0163049
811.765	0.0163687
811.843	0.0163824
811.922	0.0161859
812.000	0.0162564
812.078	0.0161851
812.156	0.0161294
812.234	0.0162292
812.312	0.0161831
812.390	0.0161595
812.468	0.0161707
812.547	0.0162347
812.625	0.0161755
812.703	0.0161805
812.781	0.0160769
812.859	0.0158633
812.937	0.0159612
813.015	0.0161324
813.093	0.0159983
813.172	0.0160574
813.250	0.0159602
813.328	0.0159641
813.406	0.0158727
813.484	0.0159023
813.562	0.0158060
813.640	0.0156726
813.718	0.0156804
813.797	0.0158377
813.875	0.0159710
813.953	0.0159266
814.031	0.0159901
814.109	0.0160584
814.187	0.0160805
814.265	0.0160700
814.343	0.0162468
814.422	0.0165073
814.500	0.0163714
814.578	0.0164111
814.656	0.0164289
814.734	0.0166267
814.812	0.0167376
814.890	0.0166682
814.968	0.0167101
815.047	0.0167936
815.125	0.0167126
815.203	0.0168775
815.281	0.0168766
815.359	0.0167744
815.437	0.0166515
815.515	0.0166792
815.593	0.0165516
815.672	0.0164783
815.750	0.0164761
815.828	0.0164013
815.906	0.0162322
815.984	0.0161331
816.062	0.0161724
816.140	0.0162125
816.218	0.0161464
816.297	0.0158950
816.375	0.0157101
816.453	0.0157423
816.531	0.0157511
816.609	0.0157983
816.687	0.0157046
816.765	0.0156748
816.843	0.0155547
816.922	0.0155862
817.000	0.0155933
817.078	0.0157056
817.156	0.0157580
817.234	0.0156153
817.312	0.0157368
817.390	0.0158382
817.468	0.0159360
817.547	0.0159683
817.625	0.0158152
817.703	0.0158605
817.781	0.0160384
817.859	0.0160536
817.937	0.0160622
818.015	0.0160320
818.093	0.0162260
818.172	0.0160964
818.250	0.0160824
818.328	0.0160935
818.406	0.0162182
818.484	0.0161278
818.562	0.0160707
818.640	0.0160845
818.718	0.0160489
818.797	0.0158966
818.875	0.0159713
818.953	0.0161227
819.031	0.0161771
819.109	0.0160558
819.187	0.0162222
819.265	0.0160761
819.343	0.0161169
819.422	0.0162695
819.500	0.0164201
819.578	0.0162559
819.656	0.0165478
819.734	0.0165017
819.812	0.0164853
819.890	0.0165157
819.968	0.0167370
820.047	0.0166405
820.125	0.0166476
820.203	0.0166984
820.281	0.0165447
820.359	0.0165038
820.437	0.0165341
820.515	0.0164088
820.593	0.0163474
820.672	0.0164455
820.750	0.0162151
820.828	0.0159901
820.906	0.0158899
820.984	0.0159069
821.062	0.0158907
821.140	0.0159533
821.218	0.0156867
821.297	0.0155963
821.375	0.0154576
821.453	0.0155515
821.531	0.0155661
821.609	0.0155408
821.687	0.0155868
821.765	0.0155181
821.843	0.0157433
821.922	0.0156187
822.000	0.0157532
822.078	0.0157416
822.156	0.0158125
822.234	0.0159073
822.312	0.0160129
822.390	0.0159150
822.468	0.0161543
822.547	0.0161675
822.625	0.0162560
822.703	0.0164313
822.781	0.0164304
822.859	0.0164808
822.937	0.0164931
823.015	0.0165010
823.093	0.0165014
823.172	0.0164812
823.250	0.0165701
823.328	0.0165897
823.406	0.0164673
823.484	0.0164561
823.562	0.0166621
823.640	0.0164455
823.718	0.0163142
823.797	0.0164139
823.875	0.0162841
823.953	0.0162318
824.031	0.0163660
824.109	0.0161545
824.187	0.0161482
824.265	0.0159992
824.343	0.0158964
824.422	0.0158885
824.500	0.0157738
824.578	0.0158359
824.656	0.0159692
824.734	0.0159161
824.812	0.0159151
824.890	0.0158740
824.968	0.0157246
825.047	0.0158953
825.125	0.0159023
825.203	0.0157706
825.281	0.0157546
825.359	0.0158136
825.437	0.0159369
825.515	0.0158501
825.593	0.0159898
825.672	0.0160462
825.750	0.0160051
825.828	0.0160164
825.906	0.0163114
825.984	0.0163023
826.062	0.0162120
826.140	0.0162353
826.218	0.0162498
826.297	0.0163965
826.375	0.0163879
826.453	0.0163643
826.531	0.0163673
826.609	0.0163564
826.687	0.0163934
826.765	0.0163316
826.843	0.0162961
826.922	0.0163669
827.000	0.0164566
827.078	0.0164211
827.156	0.0162614
827.234	0.0163579
827.312	0.0163359
827.390	0.0162543
827.468	0.0163835
827.547	0.0163174
827.625	0.0162907
827.703	0.0163210
827.781	0.0163109
827.859	0.0162340
827.937	0.0162164
828.015	0.0162949
828.093	0.0163329
828.172	0.0163259
828.250	0.0163162
828.328	0.0161460
828.406	0.0161905
828.484	0.0162302
828.562	0.0162153
828.640	0.0161994
828.718	0.0163339
828.797	0.0162439
828.875	0.0161578
828.953	0.0161385
829.031	0.0161597
829.109	0.0160651
829.187	0.0162070
829.265	0.0160574
829.343	0.0160001
829.422	0.0160277
829.500	0.0158383
829.578	0.0157383
829.656	0.0158680
829.734	0.0158450
829.812	0.0158552
829.890	0.0158659
829.968	0.0159211
830.047	0.0158486
830.125	0.0158766
830.203	0.0159348
830.281	0.0159188
830.359	0.0159863
830.437	0.0159845
830.515	0.0161417
830.593	0.0163520
830.672	0.0164109
830.750	0.0163470
830.828	0.0163696
830.906	0.0165164
830.984	0.0163787
831.062	0.0163723
831.140	0.0165322
831.218	0.0165880
831.297	0.0164339
831.375	0.0163818
831.453	0.0165681
831.531	0.0164503
831.609	0.0164072
831.687	0.0164194
831.765	0.0164432
831.843	0.0165028
831.922	0.0164584
832.000	0.0163009
832.078	0.0162988
832.156	0.0163541
832.234	0.0162762
832.312	0.0160881
832.390	0.0162225
832.468	0.0161823
832.547	0.0160653
832.625	0.0160524
832.703	0.0159540
832.781	0.0159845
832.859	0.0159383
832.937	0.0159367
833.015	0.0159541
833.093	0.0157682
833.172	0.0157783
833.250	0.0158826
833.328	0.0159782
833.406	0.0158429
833.484	0.0158069
833.562	0.0160279
833.640	0.0160239
833.718	0.0161606
833.797	0.0160645
833.875	0.0161057
833.953	0.0162463
834.031	0.0160564
834.109	0.0161485
834.187	0.0162110
834.265	0.0163132
834.343	0.0162737
834.422	0.0162356
834.500	0.0162633
834.578	0.0162876
834.656	0.0162224
834.734	0.0163660
834.812	0.0161797
834.890	0.0162805
834.968	0.0163727
835.047	0.0163507
835.125	0.0163706
835.203	0.0163696
835.281	0.0163947
835.359	0.0164261
835.437	0.0163739
835.515	0.0163302
835.593	0.0164822
835.672	0.0164574
835.750	0.0163692
835.828	0.0163127
835.906	0.0162794
835.984	0.0161377
836.062	0.0163652
836.140	0.0162650
836.218	0.0161448
836.297	0.0162351
836.375	0.0163078
836.453	0.0160899
836.531	0.0161850
836.609	0.0161875
836.687	0.0160489
836.765	0.0160370
836.843	0.0160744
836.922	0.0161298
837.000	0.0162241
837.078	0.0162177
837.156	0.0160495
837.234	0.0160522
837.312	0.0161237
837.390	0.0159824
837.468	0.0160883
837.547	0.0161499
837.625	0.0161741
837.703	0.0161079
837.781	0.0160230
837.859	0.0160506
837.937	0.0159877
838.015	0.0160243
838.093	0.0160410
838.172	0.0160358
838.250	0.0161525
838.328	0.0160468
838.406	0.0160664
838.484	0.0160406
838.562	0.0160527
838.640	0.0160442
838.718	0.0161584
838.797	0.0160591
838.875	0.0163065
838.953	0.0160491
839.031	0.0160868
839.109	0.0161766
839.187	0.0161109
839.265	0.0161752
839.343	0.0161880
839.422	0.0162037
839.500	0.0162469
839.578	0.0161287
839.656	0.0162054
839.734	0.0163617
839.812	0.0162840
839.890	0.0161590
839.968	0.0161873
840.047	0.0162131
840.125	0.0162358
840.203	0.0161762
840.281	0.0163040
840.359	0.0163206
840.437	0.0161604
840.515	0.0161038
840.593	0.0164032
840.672	0.0163647
840.750	0.0162434
840.828	0.0161770
840.906	0.0161847
840.984	0.0160815
841.062	0.0160667
841.140	0.0161326
841.218	0.0161283
841.297	0.0160864
841.375	0.0160665
841.453	0.0161497
841.531	0.0161732
841.609	0.0161349
841.687	0.0161987
841.765	0.0162453
841.843	0.0161264
841.922	0.0160855
842.000	0.0162130
842.078	0.0163046
842.156	0.0161572
842.234	0.0162153
842.312	0.0161870
842.390	0.0161110
842.468	0.0161068
842.547	0.0160938
842.625	0.0161791
842.703	0.0160832
842.781	0.0161473
842.859	0.0161765
842.937	0.0162856
843.015	0.0161357
843.093	0.0162161
843.172	0.0161522
843.250	0.0162221
843.328	0.0162083
843.406	0.0161701
843.484	0.0161401
843.562	0.0162019
843.640	0.0160400
843.718	0.0161227
843.797	0.0160348
843.875	0.0161075
843.953	0.0160568
844.031	0.0160126
844.109	0.0160252
844.187	0.0160794
844.265	0.0159984
844.343	0.0158367
844.422	0.0159822
844.500	0.0158852
844.578	0.0158923
844.656	0.0161358
844.734	0.0158758
844.812	0.0158137
844.890	0.0160323
844.968	0.0160175
845.047	0.0159470
845.125	0.0160009
845.203	0.0158908
845.281	0.0160604
845.359	0.0161064
845.437	0.0159224
845.515	0.0160010
845.593	0.0160456
845.672	0.0161824
845.750	0.0159592
845.828	0.0158595
845.906	0.0161701
845.984	0.0161569
846.062	0.0160681
846.140	0.0160518
846.218	0.0162228
846.297	0.0161850
846.375	0.0160966
846.453	0.0162878
846.531	0.0161733
846.609	0.0162361
846.687	0.0162261
846.765	0.0162139
846.843	0.0161875
846.922	0.0162455
847.000	0.0161594
847.078	0.0162012
847.156	0.0162386
847.234	0.0163322
847.312	0.0162168
847.390	0.0162457
847.468	0.0162443
847.547	0.0162240
847.625	0.0161147
847.703	0.0162624
847.781	0.0162454
847.859	0.0161646
847.937	0.0161522
848.015	0.0162595
848.093	0.0162576
848.172	0.0163028
848.250	0.0161363
848.328	0.0162169
848.406	0.0162453
848.484	0.0163090
848.562	0.0164192
848.640	0.0162687
848.718	0.0162514
848.797	0.0164301
848.875	0.0162865
848.953	0.0162062
849.031	0.0161735
849.109	0.0162762
849.187	0.0161736
849.265	0.0161455
849.343	0.0160683
849.422	0.0161214
849.500	0.0160043
849.578	0.0160465
849.656	0.0160451
849.734	0.0160295
849.812	0.0159106
849.890	0.0159348
849.968	0.0158141
850.047	0.0157092
850.125	0.0158166
850.203	0.0157302
850.281	0.0157094
850.359	0.0155807
850.437	0.0154697
850.515	0.0155770
850.593	0.0155310
850.672	0.0156395
850.750	0.0156400
850.828	0.0155753
850.906	0.0156717
850.984	0.0156886
851.062	0.0158840
851.140	0.0159150
851.218	0.0158922
851.297	0.0161458
851.375	0.0162930
851.453	0.0164216
851.531	0.0164106
851.609	0.0164635
851.687	0.0165548
851.765	0.0166740
851.843	0.0168658
851.922	0.0170602
852.000	0.0168405
852.078	0.0168679
852.156	0.0170267
852.234	0.0169257
852.312	0.0167947
852.390	0.0167988
852.468	0.0167471
852.547	0.0167121
852.625	0.0167308
852.703	0.0165919
852.781	0.0166273
852.859	0.0163042
852.937	0.0162127
853.015	0.0162971
853.093	0.0161578
853.172	0.0159931
853.250	0.0157597
853.328	0.0157206
853.406	0.0158311
853.484	0.0155981
853.562	0.0153763
853.640	0.0154143
853.718	0.0153563
853.797	0.0151363
853.875	0.0151643
853.953	0.0151488
854.031	0.0150512
854.109	0.0152684
854.187	0.0152769
854.265	0.0152172
854.343	0.0153508
854.422	0.0154753
854.500	0.0155959
854.578	0.0157043
854.656	0.0157737
854.734	0.0157872
854.812	0.0160465
854.890	0.0160892
854.968	0.0162866
855.047	0.0165034
855.125	0.0165989
855.203	0.0167714
855.281	0.0167790
855.359	0.0169377
855.437	0.0171416
855.515	0.0172687
855.593	0.0171980
855.672	0.0172367
855.750	0.0172205
855.828	0.0171510
855.906	0.0171127
855.984	0.0170277
856.062	0.0170645
856.140	0.0168925
856.218	0.0168515
856.297	0.0166901
856.375	0.0166132
856.453	0.0165724
856.531	0.0163506
856.609	0.0162893
856.687	0.0162130
856.765	0.0160020
856.843	0.0159411
856.922	0.0157986
857.000	0.0156458
857.078	0.0156322
857.156	0.0156179
857.234	0.0154841
857.312	0.0154264
857.390	0.0154269
857.468	0.0153346
857.547	0.0154615
857.625	0.0154021
857.703	0.0154324
857.781	0.0152941
857.859	0.0153696
857.937	0.0153706
858.015	0.0154080
858.093	0.0155077
858.172	0.0154880
858.250	0.0155083
858.328	0.0154559
858.406	0.0156359
858.484	0.0157991
858.562	0.0158417
858.640	0.0159229
858.718	0.0161234
858.797	0.0162972
858.875	0.0163088
858.953	0.0162572
859.031	0.0165868
859.109	0.0165453
859.187	0.0165550
859.265	0.0167570
859.343	0.0168467
859.422	0.0169852
859.500	0.0170400
859.578	0.0169875
859.656	0.0170687
859.734	0.0172276
859.812	0.0171397
859.890	0.0170465
859.968	0.0171703
860.047	0.0173053
860.125	0.0171432
860.203	0.0170219
860.281	0.0170381
860.359	0.0170297
860.437	0.0168385
860.515	0.0167574
860.593	0.0166171
860.672	0.0165018
860.750	0.0164461
860.828	0.0162785
860.906	0.0162520
860.984	0.0160138
861.062	0.0159021
861.140	0.0157823
861.218	0.0157659
861.297	0.0155151
861.375	0.0154523
861.453	0.0153349
861.531	0.0153372
861.609	0.0153396
861.687	0.0151706
861.765	0.0150092
861.843	0.0150346
861.922	0.0150745
862.000	0.0150314
862.078	0.0149559
862.156	0.0149914
862.234	0.0151118
862.312	0.0152238
862.390	0.0153170
862.468	0.0154897
862.547	0.0155463
862.625	0.0157494
862.703	0.0158154
862.781	0.0160617
862.859	0.0162872
862.937	0.0164886
863.015	0.0164495
863.093	0.0166019
863.172	0.0167189
863.250	0.0169627
863.328	0.0170609
863.406	0.0170299
863.484	0.0173068
863.562	0.0172386
863.640	0.0172731
863.718	0.0173376
863.797	0.0172089
863.875	0.0172717
863.953	0.0172370
864.031	0.0170837
864.109	0.0169682
864.187	0.0169572
864.265	0.0168373
864.343	0.0168254
864.422	0.0165797
864.500	0.0164149
864.578	0.0164400
864.656	0.0162867
864.734	0.0161522
864.812	0.0159782
864.890	0.0158522
864.968	0.0158131
865.047	0.0156928
865.125	0.0156416
865.203	0.0155707
865.281	0.0153307
865.359	0.0154398
865.437	0.0153649
865.515	0.0153590
865.593	0.0152335
865.672	0.0153826
865.750	0.0151558
865.828	0.0151720
865.906	0.0152779
865.984	0.0153882
866.062	0.0152985
866.140	0.0154443
866.218	0.0155207
866.297	0.0154752
866.375	0.0155310
866.453	0.0158152
866.531	0.0158791
866.609	0.0160595
866.687	0.0162465
866.765	0.0164858
866.843	0.0165011
866.922	0.0166470
867.000	0.0167657
867.078	0.0169240
867.156	0.0169916
867.234	0.0171276
867.312	0.0170271
867.390	0.0171445
867.468	0.0170509
867.547	0.0169644
867.625	0.0171309
867.703	0.0167853
867.781	0.0169334
867.859	0.0167802
867.937	0.0166177
868.015	0.0164923
868.093	0.0165790
868.172	0.0164148
868.250	0.0161586
868.328	0.0162461
868.406	0.0160783
868.484	0.0159484
868.562	0.0157981
868.640	0.0155720
868.718	0.0155782
868.797	0.0155025
868.875	0.0154271
868.953	0.0153283
869.031	0.0152730
869.109	0.0153806
869.187	0.0152358
869.265	0.0152445
869.343	0.0152501
869.422	0.0154259
869.500	0.0153552
869.578	0.0155569
869.656	0.0154558
869.734	0.0154765
869.812	0.0156633
869.890	0.0156322
869.968	0.0157621
870.047	0.0158209
870.125	0.0159097
870.203	0.0160228
870.281	0.0160297
870.359	0.0161099
870.437	0.0161522
870.515	0.0162283
870.593	0.0164237
870.672	0.0165231
870.750	0.0162136
870.828	0.0163963
870.906	0.0166183
870.984	0.0164488
871.062	0.0165813
871.140	0.0166618
871.218	0.0166570
871.297	0.0166121
871.375	0.0167953
871.453	0.0166558
871.531	0.0166504
871.609	0.0167651
871.687	0.0167323
871.765	0.0166975
871.843	0.0166248
871.922	0.0165775
872.000	0.0162963
872.078	0.0165178
872.156	0.0164084
872.234	0.0163055
872.312	0.0161617
872.390	0.0159801
872.468	0.0159762
872.547	0.0159422
872.625	0.0157993
872.703	0.0157657
872.781	0.0157303
872.859	0.0156359
872.937	0.0155733
873.015	0.0154073
873.093	0.0155070
873.172	0.0155128
873.250	0.0154710
873.328	0.0155420
873.406	0.0156194
873.484	0.0156054
873.562	0.0157230
873.640	0.0156613
873.718	0.0157362
873.797	0.0156973
873.875	0.0157085
873.953	0.0159193
874.031	0.0160828
874.109	0.0159100
874.187	0.0161084
874.265	0.0161845
874.343	0.0163453
874.422	0.0162321
874.500	0.0162453
874.578	0.0163768
874.656	0.0163574
874.734	0.0164664
874.812	0.0163948
874.890	0.0165022
874.968	0.0165491
875.047	0.0165207
875.125	0.0165436
875.203	0.0165259
875.281	0.0163918
875.359	0.0165086
875.437	0.0163564
875.515	0.0164240
875.593	0.0163407
875.672	0.0164299
875.750	0.0163796
875.828	0.0161994
875.906	0.0162631
875.984	0.0163718
876.062	0.0162707
876.140	0.0162482
876.218	0.0163004
876.297	0.0161953
876.375	0.0162668
876.453	0.0161241
876.531	0.0160319
876.609	0.0160947
876.687	0.0160617
876.765	0.0160638
876.843	0.0160358
876.922	0.0160815
877.000	0.0159338
877.078	0.0159087
877.156	0.0158147
877.234	0.0159172
877.312	0.0159203
877.390	0.0158010
877.468	0.0157141
877.547	0.0156704
877.625	0.0157871
877.703	0.0159519
877.781	0.0158158
877.859	0.0159249
877.937	0.0159091
878.015	0.0158275
878.093	0.0161084
878.172	0.0160422
878.250	0.0160619
878.328	0.0159896
878.406	0.0161434
878.484	0.0161608
878.562	0.0160739
878.640	0.0162270
878.718	0.0162019
878.797	0.0162250
878.875	0.0161575
878.953	0.0161519
879.031	0.0163104
879.109	0.0163195
879.187	0.0163695
879.265	0.0163717
879.343	0.0163008
879.422	0.0162457
879.500	0.0162615
879.578	0.0164133
879.656	0.0165815
879.734	0.0164184
879.812	0.0163913
879.890	0.0164216
879.968	0.0163221
880.047	0.0163430
880.125	0.0163826
880.203	0.0163975
880.281	0.0163509
880.359	0.0164269
880.437	0.0162646
880.515	0.0162291
880.593	0.0162563
880.672	0.0162981
880.750	0.0161898
880.828	0.0161770
880.906	0.0161930
880.984	0.0162247
881.062	0.0162238
881.140	0.0160530
881.218	0.0161050
881.297	0.0160962
881.375	0.0160078
881.453	0.0160300
881.531	0.0159569
881.609	0.0157265
881.687	0.0159019
881.765	0.0160014
881.843	0.0157640
881.922	0.0159008
882.000	0.0159907
882.078	0.0158313
882.156	0.0159350
882.234	0.0159623
882.312	0.0160816
882.390	0.0160725
882.468	0.0160357
882.547	0.0160806
882.625	0.0161628
882.703	0.0161850
882.781	0.0163036
882.859	0.0163621
882.937	0.0163208
883.015	0.0164595
883.093	0.0164821
883.172	0.0163055
883.250	0.0164236
883.328	0.0163573
883.406	0.0162595
883.484	0.0164813
883.562	0.0164684
883.640	0.0163150
883.718	0.0164404
883.797	0.0162741
883.875	0.0164413
883.953	0.0163081
884.031	0.0164433
884.109	0.0161813
884.187	0.0161666
884.265	0.0163169
884.343	0.0161548
884.422	0.0161468
884.500	0.0162215
884.578	0.0160976
884.656	0.0161303
884.734	0.0161304
884.812	0.0161223
884.890	0.0161100
884.968	0.0160161
885.047	0.0160282
885.125	0.0162840
885.203	0.0161487
885.281	0.0160600
885.359	0.0160610
885.437	0.0162415
885.515	0.0160085
885.593	0.0160356
885.672	0.0161519
885.750	0.0160226
885.828	0.0160792
885.906	0.0162450
885.984	0.0160706
886.062	0.0160448
886.140	0.0162166
886.218	0.0160713
886.297	0.0160509
886.375	0.0160660
886.453	0.0161688
886.531	0.0161194
886.609	0.0161055
886.687	0.0162400
886.765	0.0162952
886.843	0.0162030
886.922	0.0163076
887.000	0.0163834
887.078	0.0162534
887.156	0.0164034
887.234	0.0162979
887.312	0.0163297
887.390	0.0164475
887.468	0.0165331
887.547	0.0163924
887.625	0.0161813
887.703	0.0162408
887.781	0.0164478
887.859	0.0164901
887.937	0.0162675
888.015	0.0162263
888.093	0.0162342
888.172	0.0161990
888.250	0.0162786
888.328	0.0161987
888.406	0.0162885
888.484	0.0161614
888.562	0.0161633
888.640	0.0161478
888.718	0.0162473
888.797	0.0160761
888.875	0.0161234
888.953	0.0161466
889.031	0.0160812
889.109	0.0160438
889.187	0.0159311
889.265	0.0160379
889.343	0.0160410
889.422	0.0160732
889.500	0.0160973
889.578	0.0161203
889.656	0.0160918
889.734	0.0159622
889.812	0.0160560
889.890	0.0161460
889.968	0.0159958
890.047	0.0159936
890.125	0.0159180
890.203	0.0160252
890.281	0.0158418
890.359	0.0159803
890.437	0.0159527
890.515	0.0158410
890.593	0.0160551
890.672	0.0160159
890.750	0.0159476
890.828	0.0160860
890.906	0.0161883
890.984	0.0160970
891.062	0.0162872
891.140	0.0162046
891.218	0.0162655
891.297	0.0163250
891.375	0.0163899
891.453	0.0162427
891.531	0.0163565
891.609	0.0163347
891.687	0.0162771
891.765	0.0163372
891.843	0.0162466
891.922	0.0163268
892.000	0.0162944
892.078	0.0161638
892.156	0.0162339
892.234	0.0161703
892.312	0.0162223
892.390	0.0160812
892.468	0.0161646
892.547	0.0160285
892.625	0.0159840
892.703	0.0159490
892.781	0.0159930
892.859	0.0159590
892.937	0.0159634
893.015	0.0160161
893.093	0.0160829
893.172	0.0160935
893.250	0.0158829
893.328	0.0159371
893.406	0.0160687
893.484	0.0159817
893.562	0.0159580
893.640	0.0159523
893.718	0.0160150
893.797	0.0159585
893.875	0.0159857
893.953	0.0160677
894.031	0.0159415
894.109	0.0159211
894.187	0.0160020
894.265	0.0160283
894.343	0.0158974
894.422	0.0157928
894.500	0.0161173
894.578	0.0159861
894.656	0.0160055
894.734	0.0161563
894.812	0.0161053
894.890	0.0161035
894.968	0.0162523
895.047	0.0161584
895.125	0.0162737
895.203	0.0162790
895.281	0.0163981
895.359	0.0164909
895.437	0.0164259
895.515	0.0163700
895.593	0.0164999
895.672	0.0166235
895.750	0.0165398
895.828	0.0163828
895.906	0.0164414
895.984	0.0163576
896.062	0.0163179
896.140	0.0163940
896.218	0.0164513
896.297	0.0162278
896.375	0.0163116
896.453	0.0161025
896.531	0.0161258
896.609	0.0161347
896.687	0.0159896
896.765	0.0161514
896.843	0.0161900
896.922	0.0159137
897.000	0.0160683
897.078	0.0162229
897.156	0.0160369
897.234	0.0159814
897.312	0.0160050
897.390	0.0159350
897.468	0.0159428
897.547	0.0159798
897.625	0.0159625
897.703	0.0157323
897.781	0.0158251
897.859	0.0158158
897.937	0.0158786
898.015	0.0158785
898.093	0.0159173
898.172	0.0158778
898.250	0.0157538
898.328	0.0159155
898.406	0.0159184
898.484	0.0158868
898.562	0.0159705
898.640	0.0160198
898.718	0.0161004
898.797	0.0161023
898.875	0.0161402
898.953	0.0161653
899.031	0.0160632
899.109	0.0162601
899.187	0.0163776
899.265	0.0165015
899.343	0.0163929
899.422	0.0163833
899.500	0.0165506
899.578	0.0165478
899.656	0.0164999
899.734	0.0166135
899.812	0.0164983
899.890	0.0164583
899.968	0.0163880
900.047	0.0164103
900.125	0.0164880
900.203	0.0164531
900.281	0.0164212
900.359	0.0165147
900.437	0.0162389
900.515	0.0163470
900.593	0.0161935
900.672	0.0162743
900.750	0.0160390
900.828	0.0160508
900.906	0.0161035
900.984	0.0160300
901.062	0.0159951
901.140	0.0160551
901.218	0.0159866
901.297	0.0160261
901.375	0.0160279
901.453	0.0159773
901.531	0.0159921
901.609	0.0159736
901.687	0.0159422
901.765	0.0159579
901.843	0.0159666
901.922	0.0159789
902.000	0.0159386
902.078	0.0160666
902.156	0.0160470
902.234	0.0159332
902.312	0.0159754
902.390	0.0159922
902.468	0.0160617
902.547	0.0162395
902.625	0.0162119
902.703	0.0160490
902.781	0.0159887
902.859	0.0161375
902.937	0.0161385
903.015	0.0161872
903.093	0.0162598
903.172	0.0163169
903.250	0.0164445
903.328	0.0162592
903.406	0.0161591
903.484	0.0163845
903.562	0.0163777
903.640	0.0161917
903.718	0.0162642
903.797	0.0162727
903.875	0.0164423
903.953	0.0162533
904.031	0.0162875
904.109	0.0162177
904.187	0.0162756
904.265	0.0161356
904.343	0.0162761
904.422	0.0162360
904.500	0.0162623
904.578	0.0162133
904.656	0.0162619
904.734	0.0161259
904.812	0.0160213
904.890	0.0160586
904.968	0.0162452
905.047	0.0161309
905.125	0.0161761
905.203	0.0162030
905.281	0.0162626
905.359	0.0162311
905.437	0.0161803
905.515	0.0160782
905.593	0.0161641
905.672	0.0163586
905.750	0.0163353
905.828	0.0164275
905.906	0.0162853
905.984	0.0162838
906.062	0.0163750
906.140	0.0163031
906.218	0.0161834
906.297	0.0163465
906.375	0.0162598
906.453	0.0164565
906.531	0.0162559
906.609	0.0163599
906.687	0.0163730
906.765	0.0163153
906.843	0.0161021
906.922	0.0163071
907.000	0.0161736
907.078	0.0163869
907.156	0.0162515
907.234	0.0161559
907.312	0.0160809
907.390	0.0160916
907.468	0.0161069
907.547	0.0161699
907.625	0.0161971
907.703	0.0161171
907.781	0.0161677
907.859	0.0162789
907.937	0.0161945
908.015	0.0162434
908.093	0.0161659
908.172	0.0162016
908.250	0.0162405
908.328	0.0160172
908.406	0.0161834
908.484	0.0161483
908.562	0.0163027
908.640	0.0161076
908.718	0.0161807
908.797	0.0162346
908.875	0.0160840
908.953	0.0161906
909.031	0.0162928
909.109	0.0162492
909.187	0.0161543
909.265	0.0161570
909.343	0.0162040
909.422	0.0162669
909.500	0.0162226
909.578	0.0160417
909.656	0.0162098
909.734	0.0162351
909.812	0.0162411
909.890	0.0162378
909.968	0.0162767
910.047	0.0162251
910.125	0.0162524
910.203	0.0163042
910.281	0.0163358
910.359	0.0161679
910.437	0.0162179
910.515	0.0162366
910.593	0.0163334
910.672	0.0162699
910.750	0.0163251
910.828	0.0163065
910.906	0.0164373
910.984	0.0163383
911.062	0.0163593
911.140	0.0162897
911.218	0.0163038
911.297	0.0163283
911.375	0.0161629
911.453	0.0162326
911.531	0.0162225
911.609	0.0162637
911.687	0.0163298
911.765	0.0162157
911.843	0.0162604
911.922	0.0163102
912.000	0.0162437
912.078	0.0162360
912.156	0.0163686
912.234	0.0163154
912.312	0.0161295
912.390	0.0162318
912.468	0.0162675
912.547	0.0162661
912.625	0.0163247
912.703	0.0162497
912.781	0.0160941
912.859	0.0161507
912.937	0.0161257
913.015	0.0161271
913.093	0.0160940
913.172	0.0161246
913.250	0.0161044
913.328	0.0159271
913.406	0.0161012
913.484	0.0160159
913.562	0.0160561
913.640	0.0159064
913.718	0.0159021
913.797	0.0159700
913.875	0.0160244
913.953	0.0159835
914.031	0.0160524
914.109	0.0160415
914.187	0.0161446
914.265	0.0159742
914.343	0.0159701
914.422	0.0160560
914.500	0.0160660
914.578	0.0161816
914.656	0.0161586
914.734	0.0161303
914.812	0.0161111
914.890	0.0161472
914.968	0.0162815
915.047	0.0161478
915.125	0.0162597
915.203	0.0161752
915.281	0.0160970
915.359	0.0159897
915.437	0.0160742
915.515	0.0160461
915.593	0.0161044
915.672	0.0162550
915.750	0.0161523
915.828	0.0160085
915.906	0.0161549
915.984	0.0163042
916.062	0.0161138
916.140	0.0160882
916.218	0.0161174
916.297	0.0160976
916.375	0.0162963
916.453	0.0162692
916.531	0.0161693
916.609	0.0161561
916.687	0.0161583
916.765	0.0161343
916.843	0.0162572
916.922	0.0163348
917.000	0.0161274
917.078	0.0163173
917.156	0.0163161
917.234	0.0162808
917.312	0.0162392
917.390	0.0160043
917.468	0.0162466
917.547	0.0161118
917.625	0.0161627
917.703	0.0163161
917.781	0.0162482
917.859	0.0161283
917.937	0.0161724
918.015	0.0161710
918.093	0.0161878
918.172	0.0160984
918.250	0.0160740
918.328	0.0161625
918.406	0.0160224
918.484	0.0160997
918.562	0.0161053
918.640	0.0159878
918.718	0.0161593
918.797	0.0160298
918.875	0.0161272
918.953	0.0160522
919.031	0.0161533
919.109	0.0160067
919.187	0.0160387
919.265	0.0161095
919.343	0.0161086
919.422	0.0160563
919.500	0.0160220
919.578	0.0161452
919.656	0.0160876
919.734	0.0162319
919.812	0.0160123
919.890	0.0158212
