06/13/2022	14:28:32	Ver.	4.1	UNKNOWN
Optical Delay	599.968395	Delta X		0.078125	Sweeps	1	Scan Rate	0/0
Coordinates	Axis 1	NaN	Axis 2	NaN	Axis 3	NaN	Axis 4	NaN	Axis 5	NaN	Axis 6	0.000000
TX Power	0.000000	RX Power	0.000000

599.968	0.0152820
600.047	0.0152141
600.125	0.0152155
600.203	0.0152356
600.281	0.0153049
600.359	0.0153598
600.437	0.0152998
600.515	0.0152236
600.593	0.0153216
600.672	0.0152762
600.750	0.0150768
600.828	0.0151901
600.906	0.0153069
600.984	0.0153662
601.062	0.0153790
601.140	0.0152708
601.218	0.0152810
601.297	0.0153330
601.375	0.0152840
601.453	0.0151646
601.531	0.0153231
601.609	0.0152733
601.687	0.0151983
601.765	0.0152778
601.843	0.0152871
601.922	0.0152820
602.000	0.0152088
602.078	0.0154352
602.156	0.0152872
602.234	0.0152743
602.312	0.0154034
602.390	0.0153391
602.468	0.0152439
602.547	0.0153738
602.625	0.0151163
602.703	0.0152950
602.781	0.0153645
602.859	0.0151008
602.937	0.0151696
603.015	0.0152627
603.093	0.0153429
603.172	0.0153076
603.250	0.0150929
603.328	0.0152239
603.406	0.0152235
603.484	0.0153652
603.562	0.0153104
603.640	0.0152213
603.718	0.0151836
603.797	0.0151229
603.875	0.0152267
603.953	0.0152432
604.031	0.0153060
604.109	0.0153387
604.187	0.0152684
604.265	0.0152656
604.343	0.0153824
604.422	0.0152183
604.500	0.0151281
604.578	0.0153319
604.656	0.0153027
604.734	0.0152556
604.812	0.0152092
604.890	0.0151796
604.968	0.0152666
605.047	0.0153949
605.125	0.0152740
605.203	0.0151711
605.281	0.0152399
605.359	0.0153313
605.437	0.0152644
605.515	0.0152234
605.593	0.0153810
605.672	0.0152073
605.750	0.0152549
605.828	0.0153036
605.906	0.0153137
605.984	0.0152097
606.062	0.0152095
606.140	0.0153131
606.218	0.0152298
606.297	0.0152507
606.375	0.0151865
606.453	0.0151852
606.531	0.0153082
606.609	0.0152637
606.687	0.0151734
606.765	0.0151757
606.843	0.0151894
606.922	0.0151472
607.000	0.0152718
607.078	0.0153028
607.156	0.0152259
607.234	0.0151711
607.312	0.0153040
607.390	0.0154099
607.468	0.0151759
607.547	0.0152152
607.625	0.0152772
607.703	0.0152399
607.781	0.0151897
607.859	0.0153528
607.937	0.0152694
608.015	0.0152828
608.093	0.0151282
608.172	0.0151970
608.250	0.0152625
608.328	0.0153378
608.406	0.0152583
608.484	0.0152468
608.562	0.0151073
608.640	0.0152657
608.718	0.0153274
608.797	0.0151973
608.875	0.0152930
608.953	0.0151737
609.031	0.0150271
609.109	0.0152842
609.187	0.0152745
609.265	0.0153242
609.343	0.0152446
609.422	0.0151763
609.500	0.0152002
609.578	0.0152163
609.656	0.0151930
609.734	0.0151508
609.812	0.0152676
609.890	0.0150896
609.968	0.0151244
610.047	0.0152518
610.125	0.0152673
610.203	0.0152062
610.281	0.0151170
610.359	0.0151881
610.437	0.0153286
610.515	0.0151168
610.593	0.0153200
610.672	0.0152588
610.750	0.0152758
610.828	0.0152599
610.906	0.0153178
610.984	0.0152435
611.062	0.0152150
611.140	0.0153101
611.218	0.0152934
611.297	0.0151684
611.375	0.0150806
611.453	0.0152529
611.531	0.0151907
611.609	0.0152607
611.687	0.0154608
611.765	0.0152261
611.843	0.0151827
611.922	0.0152477
612.000	0.0151669
612.078	0.0153005
612.156	0.0152308
612.234	0.0152183
612.312	0.0153006
612.390	0.0152731
612.468	0.0152781
612.547	0.0151760
612.625	0.0152683
612.703	0.0153046
612.781	0.0152016
612.859	0.0151171
612.937	0.0152524
613.015	0.0152322
613.093	0.0152251
613.172	0.0152277
613.250	0.0152311
613.328	0.0152029
613.406	0.0152097
613.484	0.0152008
613.562	0.0152605
613.640	0.0152648
613.718	0.0152504
613.797	0.0152154
613.875	0.0152457
613.953	0.0152801
614.031	0.0152843
614.109	0.0152462
614.187	0.0151835
614.265	0.0153171
614.343	0.0154216
614.422	0.0152584
614.500	0.0152451
614.578	0.0151949
614.656	0.0151696
614.734	0.0151921
614.812	0.0151849
614.890	0.0152711
614.968	0.0152200
615.047	0.0151229
615.125	0.0154259
615.203	0.0151685
615.281	0.0152084
615.359	0.0151281
615.437	0.0152348
615.515	0.0152094
615.593	0.0152635
615.672	0.0152005
615.750	0.0151885
615.828	0.0153200
615.906	0.0153929
615.984	0.0152064
616.062	0.0152377
616.140	0.0151516
616.218	0.0152498
616.297	0.0153030
616.375	0.0152423
616.453	0.0153363
616.531	0.0151347
616.609	0.0153370
616.687	0.0152338
616.765	0.0152661
616.843	0.0151443
616.922	0.0152483
617.000	0.0152467
617.078	0.0152046
617.156	0.0152077
617.234	0.0152687
617.312	0.0152285
617.390	0.0151511
617.468	0.0152905
617.547	0.0153184
617.625	0.0152313
617.703	0.0150459
617.781	0.0152396
617.859	0.0153729
617.937	0.0152054
618.015	0.0153553
618.093	0.0151924
618.172	0.0152008
618.250	0.0152738
618.328	0.0152124
618.406	0.0152525
618.484	0.0153803
618.562	0.0153004
618.640	0.0152311
618.718	0.0152570
618.797	0.0152409
618.875	0.0151102
618.953	0.0151854
619.031	0.0153670
619.109	0.0152303
619.187	0.0152203
619.265	0.0151873
619.343	0.0151711
619.422	0.0153107
619.500	0.0153452
619.578	0.0152856
619.656	0.0152925
619.734	0.0152195
619.812	0.0151897
619.890	0.0151741
619.968	0.0153184
620.047	0.0153047
620.125	0.0153983
620.203	0.0152592
620.281	0.0152561
620.359	0.0152739
620.437	0.0152920
620.515	0.0153939
620.593	0.0152216
620.672	0.0151923
620.750	0.0154669
620.828	0.0152451
620.906	0.0154692
620.984	0.0151494
621.062	0.0151597
621.140	0.0151572
621.218	0.0152264
621.297	0.0153021
621.375	0.0152953
621.453	0.0152982
621.531	0.0151722
621.609	0.0151947
621.687	0.0153465
621.765	0.0153149
621.843	0.0153143
621.922	0.0152583
622.000	0.0153663
622.078	0.0152949
622.156	0.0152000
622.234	0.0153229
622.312	0.0153296
622.390	0.0152518
622.468	0.0151659
622.547	0.0152860
622.625	0.0153753
622.703	0.0151620
622.781	0.0152384
622.859	0.0152618
622.937	0.0152235
623.015	0.0153054
623.093	0.0152166
623.172	0.0153601
623.250	0.0153419
623.328	0.0152850
623.406	0.0152527
623.484	0.0152573
623.562	0.0152293
623.640	0.0153230
623.718	0.0152717
623.797	0.0153568
623.875	0.0151923
623.953	0.0153366
624.031	0.0151598
624.109	0.0152524
624.187	0.0152214
624.265	0.0153645
624.343	0.0152134
624.422	0.0152586
624.500	0.0152477
624.578	0.0153525
624.656	0.0152373
624.734	0.0152993
624.812	0.0152927
624.890	0.0150965
624.968	0.0151457
625.047	0.0152649
625.125	0.0151336
625.203	0.0152529
625.281	0.0152630
625.359	0.0153428
625.437	0.0152247
625.515	0.0152184
625.593	0.0152975
625.672	0.0152440
625.750	0.0152945
625.828	0.0153756
625.906	0.0151644
625.984	0.0153688
626.062	0.0152612
626.140	0.0152849
626.218	0.0152946
626.297	0.0152785
626.375	0.0152237
626.453	0.0151183
626.531	0.0153448
626.609	0.0153863
626.687	0.0153383
626.765	0.0151961
626.843	0.0151849
626.922	0.0151939
627.000	0.0154081
627.078	0.0152984
627.156	0.0152283
627.234	0.0151361
627.312	0.0152239
627.390	0.0152338
627.468	0.0152538
627.547	0.0152221
627.625	0.0152233
627.703	0.0152996
627.781	0.0151440
627.859	0.0152818
627.937	0.0152862
628.015	0.0153047
628.093	0.0151540
628.172	0.0151105
628.250	0.0151955
628.328	0.0151719
628.406	0.0151606
628.484	0.0153261
628.562	0.0152589
628.640	0.0153027
628.718	0.0153397
628.797	0.0151897
628.875	0.0153038
628.953	0.0151772
629.031	0.0153601
629.109	0.0152283
629.187	0.0152615
629.265	0.0152412
629.343	0.0152092
629.422	0.0152071
629.500	0.0152161
629.578	0.0153037
629.656	0.0153709
629.734	0.0153876
629.812	0.0153222
629.890	0.0152071
629.968	0.0152847
630.047	0.0152145
630.125	0.0152694
630.203	0.0152070
630.281	0.0152645
630.359	0.0152724
630.437	0.0153791
630.515	0.0152750
630.593	0.0151630
630.672	0.0153027
630.750	0.0152978
630.828	0.0152685
630.906	0.0152879
630.984	0.0153013
631.062	0.0152401
631.140	0.0154188
631.218	0.0153004
631.297	0.0151643
631.375	0.0152489
631.453	0.0151322
631.531	0.0152497
631.609	0.0153282
631.687	0.0152711
631.765	0.0151788
631.843	0.0152608
631.922	0.0153268
632.000	0.0152359
632.078	0.0152879
632.156	0.0153747
632.234	0.0151845
632.312	0.0152280
632.390	0.0152396
632.468	0.0153419
632.547	0.0153464
632.625	0.0151856
632.703	0.0152445
632.781	0.0151425
632.859	0.0151297
632.937	0.0151954
633.015	0.0153027
633.093	0.0153449
633.172	0.0152528
633.250	0.0152959
633.328	0.0153718
633.406	0.0153593
633.484	0.0151665
633.562	0.0151959
633.640	0.0152532
633.718	0.0152021
633.797	0.0151577
633.875	0.0151518
633.953	0.0151550
634.031	0.0152103
634.109	0.0152190
634.187	0.0152863
634.265	0.0152928
634.343	0.0152353
634.422	0.0153658
634.500	0.0152608
634.578	0.0151730
634.656	0.0152011
634.734	0.0152204
634.812	0.0152538
634.890	0.0151868
634.968	0.0151745
635.047	0.0152222
635.125	0.0152582
635.203	0.0152779
635.281	0.0153049
635.359	0.0152900
635.437	0.0152379
635.515	0.0154036
635.593	0.0153272
635.672	0.0152729
635.750	0.0151064
635.828	0.0152455
635.906	0.0152578
635.984	0.0151804
636.062	0.0152301
636.140	0.0154341
636.218	0.0151990
636.297	0.0151368
636.375	0.0153252
636.453	0.0151660
636.531	0.0151925
636.609	0.0153512
636.687	0.0152333
636.765	0.0153133
636.843	0.0152170
636.922	0.0152306
637.000	0.0153532
637.078	0.0153090
637.156	0.0152011
637.234	0.0152416
637.312	0.0152345
637.390	0.0152702
637.468	0.0152293
637.547	0.0151291
637.625	0.0153503
637.703	0.0153402
637.781	0.0152100
637.859	0.0151512
637.937	0.0151775
638.015	0.0153041
638.093	0.0151060
638.172	0.0153147
638.250	0.0151368
638.328	0.0151369
638.406	0.0152130
638.484	0.0152268
638.562	0.0152404
638.640	0.0152227
638.718	0.0151958
638.797	0.0152938
638.875	0.0152689
638.953	0.0153651
639.031	0.0153066
639.109	0.0152463
639.187	0.0152298
639.265	0.0152279
639.343	0.0153163
639.422	0.0152122
639.500	0.0153372
639.578	0.0152603
639.656	0.0152773
639.734	0.0153149
639.812	0.0151501
639.890	0.0151927
639.968	0.0151112
640.047	0.0153661
640.125	0.0151024
640.203	0.0152982
640.281	0.0153081
640.359	0.0151730
640.437	0.0153535
640.515	0.0151933
640.593	0.0151701
640.672	0.0153552
640.750	0.0152066
640.828	0.0152031
640.906	0.0152023
640.984	0.0151072
641.062	0.0152186
641.140	0.0152422
641.218	0.0152995
641.297	0.0153004
641.375	0.0151984
641.453	0.0153374
641.531	0.0153340
641.609	0.0152748
641.687	0.0153015
641.765	0.0152867
641.843	0.0152599
641.922	0.0152103
642.000	0.0153113
642.078	0.0152346
642.156	0.0152727
642.234	0.0151103
642.312	0.0152142
642.390	0.0153046
642.468	0.0152499
642.547	0.0152616
642.625	0.0152361
642.703	0.0152808
642.781	0.0151296
642.859	0.0153894
642.937	0.0153754
643.015	0.0152586
643.093	0.0153161
643.172	0.0151125
643.250	0.0151822
643.328	0.0153716
643.406	0.0151895
643.484	0.0152350
643.562	0.0152649
643.640	0.0154800
643.718	0.0151930
643.797	0.0152065
643.875	0.0151830
643.953	0.0152647
644.031	0.0152455
644.109	0.0152445
644.187	0.0152468
644.265	0.0152514
644.343	0.0151435
644.422	0.0153070
644.500	0.0152412
644.578	0.0151901
644.656	0.0151761
644.734	0.0153992
644.812	0.0152338
644.890	0.0152502
644.968	0.0151299
645.047	0.0151935
645.125	0.0151971
645.203	0.0152538
645.281	0.0152757
645.359	0.0152674
645.437	0.0153072
645.515	0.0152243
645.593	0.0152031
645.672	0.0152553
645.750	0.0152433
645.828	0.0151620
645.906	0.0150741
645.984	0.0152995
646.062	0.0152578
646.140	0.0151736
646.218	0.0151469
646.297	0.0152344
646.375	0.0154590
646.453	0.0151635
646.531	0.0152156
646.609	0.0153172
646.687	0.0152349
646.765	0.0151643
646.843	0.0151396
646.922	0.0151415
647.000	0.0152670
647.078	0.0154072
647.156	0.0152769
647.234	0.0152074
647.312	0.0153970
647.390	0.0152096
647.468	0.0152424
647.547	0.0154142
647.625	0.0152235
647.703	0.0152367
647.781	0.0153075
647.859	0.0152995
647.937	0.0152499
648.015	0.0153547
648.093	0.0151639
648.172	0.0153385
648.250	0.0152695
648.328	0.0154585
648.406	0.0151853
648.484	0.0154387
648.562	0.0153064
648.640	0.0151225
648.718	0.0153561
648.797	0.0153108
648.875	0.0154246
648.953	0.0153153
649.031	0.0152004
649.109	0.0151782
649.187	0.0152140
649.265	0.0153545
649.343	0.0154515
649.422	0.0150878
649.500	0.0151742
649.578	0.0153782
649.656	0.0152171
649.734	0.0153617
649.812	0.0152930
649.890	0.0152375
649.968	0.0152928
650.047	0.0153671
650.125	0.0153261
650.203	0.0152595
650.281	0.0151502
650.359	0.0151221
650.437	0.0153398
650.515	0.0153265
650.593	0.0151624
650.672	0.0151537
650.750	0.0152299
650.828	0.0152895
650.906	0.0151989
650.984	0.0153022
651.062	0.0153268
651.140	0.0152273
651.218	0.0152965
651.297	0.0152407
651.375	0.0151388
651.453	0.0152892
651.531	0.0153508
651.609	0.0151570
651.687	0.0152686
651.765	0.0151865
651.843	0.0152073
651.922	0.0152219
652.000	0.0152170
652.078	0.0152125
652.156	0.0151987
652.234	0.0153592
652.312	0.0153371
652.390	0.0152996
652.468	0.0152800
652.547	0.0154099
652.625	0.0152634
652.703	0.0152213
652.781	0.0153660
652.859	0.0153295
652.937	0.0153306
653.015	0.0153855
653.093	0.0152103
653.172	0.0153671
653.250	0.0153032
653.328	0.0152437
653.406	0.0152032
653.484	0.0152760
653.562	0.0153070
653.640	0.0153832
653.718	0.0152518
653.797	0.0152737
653.875	0.0153341
653.953	0.0153207
654.031	0.0151368
654.109	0.0152717
654.187	0.0152433
654.265	0.0153362
654.343	0.0153088
654.422	0.0152069
654.500	0.0152467
654.578	0.0152775
654.656	0.0152026
654.734	0.0152207
654.812	0.0152724
654.890	0.0152346
654.968	0.0151144
655.047	0.0151244
655.125	0.0152308
655.203	0.0153286
655.281	0.0152964
655.359	0.0151638
655.437	0.0151944
655.515	0.0153246
655.593	0.0151746
655.672	0.0152417
655.750	0.0151331
655.828	0.0151459
655.906	0.0154111
655.984	0.0152768
656.062	0.0152666
656.140	0.0151933
656.218	0.0152925
656.297	0.0153949
656.375	0.0153443
656.453	0.0151374
656.531	0.0150407
656.609	0.0152776
656.687	0.0152953
656.765	0.0152741
656.843	0.0152982
656.922	0.0153381
657.000	0.0152751
657.078	0.0152661
657.156	0.0152271
657.234	0.0153004
657.312	0.0152483
657.390	0.0150996
657.468	0.0153460
657.547	0.0152670
657.625	0.0151646
657.703	0.0151427
657.781	0.0152943
657.859	0.0153300
657.937	0.0153372
658.015	0.0151970
658.093	0.0151661
658.172	0.0150924
658.250	0.0153308
658.328	0.0154369
658.406	0.0151777
658.484	0.0153004
658.562	0.0153182
658.640	0.0153528
658.718	0.0153422
658.797	0.0152366
658.875	0.0152715
658.953	0.0152648
659.031	0.0151042
659.109	0.0152089
659.187	0.0152666
659.265	0.0154355
659.343	0.0152351
659.422	0.0153127
659.500	0.0152506
659.578	0.0152200
659.656	0.0154068
659.734	0.0151754
659.812	0.0152684
659.890	0.0152741
659.968	0.0151793
660.047	0.0153178
660.125	0.0150887
660.203	0.0153804
660.281	0.0153140
660.359	0.0151913
660.437	0.0152445
660.515	0.0151780
660.593	0.0151566
660.672	0.0152785
660.750	0.0152550
660.828	0.0153019
660.906	0.0152496
660.984	0.0152152
661.062	0.0151592
661.140	0.0151706
661.218	0.0152347
661.297	0.0153024
661.375	0.0152071
661.453	0.0152512
661.531	0.0153248
661.609	0.0152878
661.687	0.0152087
661.765	0.0154288
661.843	0.0151572
661.922	0.0152165
662.000	0.0151752
662.078	0.0153584
662.156	0.0152481
662.234	0.0152953
662.312	0.0151863
662.390	0.0152484
662.468	0.0151953
662.547	0.0152843
662.625	0.0152060
662.703	0.0151776
662.781	0.0152193
662.859	0.0151730
662.937	0.0153622
663.015	0.0152921
663.093	0.0152109
663.172	0.0152950
663.250	0.0152845
663.328	0.0153133
663.406	0.0151452
663.484	0.0152734
663.562	0.0152647
663.640	0.0152853
663.718	0.0153186
663.797	0.0152290
663.875	0.0153522
663.953	0.0152190
664.031	0.0153558
664.109	0.0152191
664.187	0.0152750
664.265	0.0152213
664.343	0.0153361
664.422	0.0152547
664.500	0.0152095
664.578	0.0151784
664.656	0.0152225
664.734	0.0151740
664.812	0.0153342
664.890	0.0152706
664.968	0.0152479
665.047	0.0152104
665.125	0.0152775
665.203	0.0154198
665.281	0.0153208
665.359	0.0152328
665.437	0.0152894
665.515	0.0152536
665.593	0.0152719
665.672	0.0151751
665.750	0.0152208
665.828	0.0153028
665.906	0.0153091
665.984	0.0153004
666.062	0.0152104
666.140	0.0152181
666.218	0.0152670
666.297	0.0152071
666.375	0.0151498
666.453	0.0153259
666.531	0.0153330
666.609	0.0152436
666.687	0.0151385
666.765	0.0153423
666.843	0.0151621
666.922	0.0153285
667.000	0.0152658
667.078	0.0152224
667.156	0.0153172
667.234	0.0152065
667.312	0.0152988
667.390	0.0152609
667.468	0.0152206
667.547	0.0151318
667.625	0.0152180
667.703	0.0152312
667.781	0.0153214
667.859	0.0152647
667.937	0.0151601
668.015	0.0152428
668.093	0.0152348
668.172	0.0152060
668.250	0.0151297
668.328	0.0151421
668.406	0.0153640
668.484	0.0152228
668.562	0.0152007
668.640	0.0152273
668.718	0.0152390
668.797	0.0153732
668.875	0.0152604
668.953	0.0151509
669.031	0.0153606
669.109	0.0151096
669.187	0.0152386
669.265	0.0152898
669.343	0.0151921
669.422	0.0152762
669.500	0.0152835
669.578	0.0151339
669.656	0.0152025
669.734	0.0153809
669.812	0.0151881
669.890	0.0151941
669.968	0.0152721
670.047	0.0153152
670.125	0.0152323
670.203	0.0153014
670.281	0.0152022
670.359	0.0153016
670.437	0.0151998
670.515	0.0152898
670.593	0.0153525
670.672	0.0152177
670.750	0.0150300
670.828	0.0152811
670.906	0.0153482
670.984	0.0150799
671.062	0.0152088
671.140	0.0153010
671.218	0.0152554
671.297	0.0151101
671.375	0.0152332
671.453	0.0151086
671.531	0.0151272
671.609	0.0152673
671.687	0.0152781
671.765	0.0153020
671.843	0.0152700
671.922	0.0150788
672.000	0.0151368
672.078	0.0152135
672.156	0.0152986
672.234	0.0152102
672.312	0.0151675
672.390	0.0152462
672.468	0.0152734
672.547	0.0152419
672.625	0.0151416
672.703	0.0152843
672.781	0.0152518
672.859	0.0152126
672.937	0.0152971
673.015	0.0152750
673.093	0.0152258
673.172	0.0151891
673.250	0.0153186
673.328	0.0152537
673.406	0.0151889
673.484	0.0153247
673.562	0.0152246
673.640	0.0152629
673.718	0.0152293
673.797	0.0152711
673.875	0.0152308
673.953	0.0151436
674.031	0.0152284
674.109	0.0152861
674.187	0.0151662
674.265	0.0153426
674.343	0.0151944
674.422	0.0151184
674.500	0.0151985
674.578	0.0151344
674.656	0.0152462
674.734	0.0152629
674.812	0.0152353
674.890	0.0151672
674.968	0.0152332
675.047	0.0152595
675.125	0.0153470
675.203	0.0152454
675.281	0.0151821
675.359	0.0151665
675.437	0.0152135
675.515	0.0151202
675.593	0.0152461
675.672	0.0152383
675.750	0.0152924
675.828	0.0152463
675.906	0.0151463
675.984	0.0151848
676.062	0.0152237
676.140	0.0151926
676.218	0.0151701
676.297	0.0152647
676.375	0.0151921
676.453	0.0151336
676.531	0.0151419
676.609	0.0151370
676.687	0.0152903
676.765	0.0152865
676.843	0.0152805
676.922	0.0151884
677.000	0.0152964
677.078	0.0152262
677.156	0.0151009
677.234	0.0153394
677.312	0.0153226
677.390	0.0152553
677.468	0.0152994
677.547	0.0152228
677.625	0.0152072
677.703	0.0152092
677.781	0.0151972
677.859	0.0152583
677.937	0.0153153
678.015	0.0153369
678.093	0.0152054
678.172	0.0152347
678.250	0.0152454
678.328	0.0152888
678.406	0.0153004
678.484	0.0151696
678.562	0.0151833
678.640	0.0152366
678.718	0.0153309
678.797	0.0152482
678.875	0.0151704
678.953	0.0152751
679.031	0.0152014
679.109	0.0153799
679.187	0.0152154
679.265	0.0151983
679.343	0.0153278
679.422	0.0152905
679.500	0.0152589
679.578	0.0153579
679.656	0.0151989
679.734	0.0152265
679.812	0.0151886
679.890	0.0153606
679.968	0.0152555
680.047	0.0153362
680.125	0.0152765
680.203	0.0152202
680.281	0.0153955
680.359	0.0151907
680.437	0.0153576
680.515	0.0152805
680.593	0.0151765
680.672	0.0152665
680.750	0.0152799
680.828	0.0151717
680.906	0.0151294
680.984	0.0151934
681.062	0.0152429
681.140	0.0151209
681.218	0.0152611
681.297	0.0151601
681.375	0.0152505
681.453	0.0152906
681.531	0.0153296
681.609	0.0153381
681.687	0.0153908
681.765	0.0151669
681.843	0.0151854
681.922	0.0152616
682.000	0.0152763
682.078	0.0152261
682.156	0.0152325
682.234	0.0151743
682.312	0.0152876
682.390	0.0153420
682.468	0.0153017
682.547	0.0151827
682.625	0.0152366
682.703	0.0152475
682.781	0.0152686
682.859	0.0153273
682.937	0.0152480
683.015	0.0151421
683.093	0.0151173
683.172	0.0153468
683.250	0.0153968
683.328	0.0152603
683.406	0.0153004
683.484	0.0152967
683.562	0.0152830
683.640	0.0153089
683.718	0.0152930
683.797	0.0154249
683.875	0.0152725
683.953	0.0151477
684.031	0.0152811
684.109	0.0151824
684.187	0.0152220
684.265	0.0152589
684.343	0.0152668
684.422	0.0154005
684.500	0.0151707
684.578	0.0153967
684.656	0.0152867
684.734	0.0151369
684.812	0.0151736
684.890	0.0153391
684.968	0.0152985
685.047	0.0152679
685.125	0.0152795
685.203	0.0152176
685.281	0.0153617
685.359	0.0152809
685.437	0.0152638
685.515	0.0150666
685.593	0.0151976
685.672	0.0152547
685.750	0.0152448
685.828	0.0153104
685.906	0.0151226
685.984	0.0152862
686.062	0.0152908
686.140	0.0152081
686.218	0.0152961
686.297	0.0152188
686.375	0.0152937
686.453	0.0152077
686.531	0.0152967
686.609	0.0152984
686.687	0.0152913
686.765	0.0152829
686.843	0.0152876
686.922	0.0152940
687.000	0.0152533
687.078	0.0152359
687.156	0.0153006
687.234	0.0151118
687.312	0.0152990
687.390	0.0153635
687.468	0.0153413
687.547	0.0152448
687.625	0.0153670
687.703	0.0152808
687.781	0.0152994
687.859	0.0153202
687.937	0.0152559
688.015	0.0152122
688.093	0.0152705
688.172	0.0152728
688.250	0.0152544
688.328	0.0152742
688.406	0.0152013
688.484	0.0153191
688.562	0.0153881
688.640	0.0152637
688.718	0.0151501
688.797	0.0153262
688.875	0.0152391
688.953	0.0152628
689.031	0.0153846
689.109	0.0154755
689.187	0.0153442
689.265	0.0153367
689.343	0.0151985
689.422	0.0152332
689.500	0.0152612
689.578	0.0152884
689.656	0.0152785
689.734	0.0153126
689.812	0.0153415
689.890	0.0153664
689.968	0.0153232
690.047	0.0152346
690.125	0.0152684
690.203	0.0152792
690.281	0.0152067
690.359	0.0153349
690.437	0.0152766
690.515	0.0151755
690.593	0.0153843
690.672	0.0152417
690.750	0.0153269
690.828	0.0151665
690.906	0.0152910
690.984	0.0151736
691.062	0.0152692
691.140	0.0151986
691.218	0.0152141
691.297	0.0153693
691.375	0.0151654
691.453	0.0152878
691.531	0.0152622
691.609	0.0151981
691.687	0.0153337
691.765	0.0153265
691.843	0.0152314
691.922	0.0152154
692.000	0.0152067
692.078	0.0152579
692.156	0.0152677
692.234	0.0151590
692.312	0.0153010
692.390	0.0153014
692.468	0.0152849
692.547	0.0153384
692.625	0.0152353
692.703	0.0152993
692.781	0.0152722
692.859	0.0151549
692.937	0.0152149
693.015	0.0151572
693.093	0.0153173
693.172	0.0152782
693.250	0.0151668
693.328	0.0152460
693.406	0.0151172
693.484	0.0152477
693.562	0.0152904
693.640	0.0152370
693.718	0.0153522
693.797	0.0153572
693.875	0.0151816
693.953	0.0152290
694.031	0.0152224
694.109	0.0152637
694.187	0.0152342
694.265	0.0153025
694.343	0.0152868
694.422	0.0152633
694.500	0.0152176
694.578	0.0152185
694.656	0.0151760
694.734	0.0152071
694.812	0.0152970
694.890	0.0152840
694.968	0.0151691
695.047	0.0151887
695.125	0.0153986
695.203	0.0151379
695.281	0.0152474
695.359	0.0153782
695.437	0.0152886
695.515	0.0151914
695.593	0.0152849
695.672	0.0152716
695.750	0.0152525
695.828	0.0153373
695.906	0.0153053
695.984	0.0152779
696.062	0.0151733
696.140	0.0151135
696.218	0.0150774
696.297	0.0151945
696.375	0.0152715
696.453	0.0153378
696.531	0.0153407
696.609	0.0152843
696.687	0.0154133
696.765	0.0153024
696.843	0.0152584
696.922	0.0152408
697.000	0.0152989
697.078	0.0152709
697.156	0.0151427
697.234	0.0152550
697.312	0.0152722
697.390	0.0152855
697.468	0.0153076
697.547	0.0152724
697.625	0.0153174
697.703	0.0151894
697.781	0.0152625
697.859	0.0152256
697.937	0.0152914
698.015	0.0153356
698.093	0.0153092
698.172	0.0152899
698.250	0.0153005
698.328	0.0151837
698.406	0.0153595
698.484	0.0153514
698.562	0.0152042
698.640	0.0151705
698.718	0.0152960
698.797	0.0154690
698.875	0.0153565
698.953	0.0152061
699.031	0.0152108
699.109	0.0152083
699.187	0.0154019
699.265	0.0152365
699.343	0.0152492
699.422	0.0152024
699.500	0.0152278
699.578	0.0152791
699.656	0.0152533
699.734	0.0153020
699.812	0.0152390
699.890	0.0152776
699.968	0.0152443
700.047	0.0152667
700.125	0.0153148
700.203	0.0152052
700.281	0.0152475
700.359	0.0152393
700.437	0.0153102
700.515	0.0153108
700.593	0.0151248
700.672	0.0151826
700.750	0.0152803
700.828	0.0152756
700.906	0.0152505
700.984	0.0152385
701.062	0.0154229
701.140	0.0153173
701.218	0.0151350
701.297	0.0151953
701.375	0.0155220
701.453	0.0153342
701.531	0.0153374
701.609	0.0152640
701.687	0.0151069
701.765	0.0152611
701.843	0.0152119
701.922	0.0153333
702.000	0.0153217
702.078	0.0153386
702.156	0.0152525
702.234	0.0153118
702.312	0.0152132
702.390	0.0152370
702.468	0.0151521
702.547	0.0152098
702.625	0.0152986
702.703	0.0152800
702.781	0.0151516
702.859	0.0154146
702.937	0.0153062
703.015	0.0152914
703.093	0.0152670
703.172	0.0153065
703.250	0.0152698
703.328	0.0153547
703.406	0.0153295
703.484	0.0151678
703.562	0.0153578
703.640	0.0153233
703.718	0.0152313
703.797	0.0153156
703.875	0.0152804
703.953	0.0152772
704.031	0.0152720
704.109	0.0152143
704.187	0.0154060
704.265	0.0153232
704.343	0.0152924
704.422	0.0152307
704.500	0.0152635
704.578	0.0153667
704.656	0.0152575
704.734	0.0152021
704.812	0.0153284
704.890	0.0152268
704.968	0.0153191
705.047	0.0152504
705.125	0.0153107
705.203	0.0152486
705.281	0.0153757
705.359	0.0152751
705.437	0.0152525
705.515	0.0152140
705.593	0.0152954
705.672	0.0153194
705.750	0.0153558
705.828	0.0154176
705.906	0.0153026
705.984	0.0152946
706.062	0.0153407
706.140	0.0152940
706.218	0.0152562
706.297	0.0153520
706.375	0.0153319
706.453	0.0152962
706.531	0.0154208
706.609	0.0153101
706.687	0.0152202
706.765	0.0152083
706.843	0.0152942
706.922	0.0152821
707.000	0.0152215
707.078	0.0151974
707.156	0.0152289
707.234	0.0152344
707.312	0.0151886
707.390	0.0152000
707.468	0.0151920
707.547	0.0151378
707.625	0.0153327
707.703	0.0152523
707.781	0.0152255
707.859	0.0153265
707.937	0.0152482
708.015	0.0152345
708.093	0.0150896
708.172	0.0152148
708.250	0.0152834
708.328	0.0151125
708.406	0.0152417
708.484	0.0152127
708.562	0.0151048
708.640	0.0151706
708.718	0.0153032
708.797	0.0150790
708.875	0.0151989
708.953	0.0152417
709.031	0.0152752
709.109	0.0153600
709.187	0.0151917
709.265	0.0152561
709.343	0.0153241
709.422	0.0152809
709.500	0.0152402
709.578	0.0152367
709.656	0.0152801
709.734	0.0152671
709.812	0.0151549
709.890	0.0153268
709.968	0.0152882
710.047	0.0151456
710.125	0.0152649
710.203	0.0153973
710.281	0.0153394
710.359	0.0151892
710.437	0.0151733
710.515	0.0150833
710.593	0.0153115
710.672	0.0153430
710.750	0.0153047
710.828	0.0153116
710.906	0.0152583
710.984	0.0151755
711.062	0.0151902
711.140	0.0151893
711.218	0.0152725
711.297	0.0152962
711.375	0.0151775
711.453	0.0152446
711.531	0.0151426
711.609	0.0152971
711.687	0.0153189
711.765	0.0152553
711.843	0.0151840
711.922	0.0151731
712.000	0.0152549
712.078	0.0152773
712.156	0.0151464
712.234	0.0152993
712.312	0.0152847
712.390	0.0152351
712.468	0.0153317
712.547	0.0154278
712.625	0.0154214
712.703	0.0152539
712.781	0.0153067
712.859	0.0151552
712.937	0.0152542
713.015	0.0153565
713.093	0.0152504
713.172	0.0152254
713.250	0.0152916
713.328	0.0152962
713.406	0.0152486
713.484	0.0152731
713.562	0.0151785
713.640	0.0151889
713.718	0.0152132
713.797	0.0151848
713.875	0.0152641
713.953	0.0152599
714.031	0.0152874
714.109	0.0152984
714.187	0.0152300
714.265	0.0151359
714.343	0.0153128
714.422	0.0151974
714.500	0.0152779
714.578	0.0151801
714.656	0.0151551
714.734	0.0152532
714.812	0.0149892
714.890	0.0152240
714.968	0.0152885
715.047	0.0153675
715.125	0.0151769
715.203	0.0153721
715.281	0.0152248
715.359	0.0151218
715.437	0.0153520
715.515	0.0151877
715.593	0.0151225
715.672	0.0151875
715.750	0.0152661
715.828	0.0152037
715.906	0.0152055
715.984	0.0151643
716.062	0.0152318
716.140	0.0152304
716.218	0.0151747
716.297	0.0152837
716.375	0.0152251
716.453	0.0152634
716.531	0.0151353
716.609	0.0153097
716.687	0.0151678
716.765	0.0152511
716.843	0.0151320
716.922	0.0153806
717.000	0.0151237
717.078	0.0151801
717.156	0.0151655
717.234	0.0152591
717.312	0.0152120
717.390	0.0151110
717.468	0.0152208
717.547	0.0152408
717.625	0.0152362
717.703	0.0151452
717.781	0.0153833
717.859	0.0152196
717.937	0.0152121
718.015	0.0152920
718.093	0.0152139
718.172	0.0152238
718.250	0.0152596
718.328	0.0151497
718.406	0.0152708
718.484	0.0152040
718.562	0.0151353
718.640	0.0151995
718.718	0.0151743
718.797	0.0152959
718.875	0.0153574
718.953	0.0152097
719.031	0.0151159
719.109	0.0151347
719.187	0.0153438
719.265	0.0153220
719.343	0.0153552
719.422	0.0152063
719.500	0.0152428
719.578	0.0152307
719.656	0.0153996
719.734	0.0153709
719.812	0.0153220
719.890	0.0151199
719.968	0.0152794
720.047	0.0152205
720.125	0.0152180
720.203	0.0153711
720.281	0.0152258
720.359	0.0153159
720.437	0.0152863
720.515	0.0152499
720.593	0.0152954
720.672	0.0152724
720.750	0.0153808
720.828	0.0151276
720.906	0.0151392
720.984	0.0154163
721.062	0.0153587
721.140	0.0152142
721.218	0.0152486
721.297	0.0153900
721.375	0.0152593
721.453	0.0152604
721.531	0.0152352
721.609	0.0151479
721.687	0.0152691
721.765	0.0152993
721.843	0.0152666
721.922	0.0152947
722.000	0.0151665
722.078	0.0151979
722.156	0.0152077
722.234	0.0152649
722.312	0.0153550
722.390	0.0152119
722.468	0.0151966
722.547	0.0152506
722.625	0.0152306
722.703	0.0152724
722.781	0.0152943
722.859	0.0153140
722.937	0.0152820
723.015	0.0153349
723.093	0.0151266
723.172	0.0152280
723.250	0.0152234
723.328	0.0152747
723.406	0.0153588
723.484	0.0153163
723.562	0.0154135
723.640	0.0153260
723.718	0.0153779
723.797	0.0153773
723.875	0.0152309
723.953	0.0152641
724.031	0.0153580
724.109	0.0152174
724.187	0.0152634
724.265	0.0152571
724.343	0.0152937
724.422	0.0153008
724.500	0.0152356
724.578	0.0153654
724.656	0.0152766
724.734	0.0152621
724.812	0.0152087
724.890	0.0151920
724.968	0.0153291
725.047	0.0153178
725.125	0.0152007
725.203	0.0152737
725.281	0.0152010
725.359	0.0153405
725.437	0.0152811
725.515	0.0151661
725.593	0.0152052
725.672	0.0153178
725.750	0.0151290
725.828	0.0152373
725.906	0.0154008
725.984	0.0153415
726.062	0.0152832
726.140	0.0153700
726.218	0.0151175
726.297	0.0151075
726.375	0.0152441
726.453	0.0153014
726.531	0.0153143
726.609	0.0152365
726.687	0.0152142
726.765	0.0152045
726.843	0.0153037
726.922	0.0152110
727.000	0.0151300
727.078	0.0151497
727.156	0.0151634
727.234	0.0152661
727.312	0.0152093
727.390	0.0152173
727.468	0.0151428
727.547	0.0153308
727.625	0.0153094
727.703	0.0153552
727.781	0.0152102
727.859	0.0152448
727.937	0.0151630
728.015	0.0152264
728.093	0.0152696
728.172	0.0150591
728.250	0.0151069
728.328	0.0151023
728.406	0.0152076
728.484	0.0152319
728.562	0.0151843
728.640	0.0151889
728.718	0.0153122
728.797	0.0152296
728.875	0.0152885
728.953	0.0151427
729.031	0.0151562
729.109	0.0153233
729.187	0.0151689
729.265	0.0152038
729.343	0.0151954
729.422	0.0151908
729.500	0.0152628
729.578	0.0152248
729.656	0.0153268
729.734	0.0153160
729.812	0.0151770
729.890	0.0150899
729.968	0.0151905
730.047	0.0152176
730.125	0.0152756
730.203	0.0152647
730.281	0.0152280
730.359	0.0152197
730.437	0.0150737
730.515	0.0153367
730.593	0.0154421
730.672	0.0153716
730.750	0.0151295
730.828	0.0152219
730.906	0.0151256
730.984	0.0152459
731.062	0.0152341
731.140	0.0151955
731.218	0.0151621
731.297	0.0151980
731.375	0.0152654
731.453	0.0152753
731.531	0.0152325
731.609	0.0152187
731.687	0.0152367
731.765	0.0152766
731.843	0.0151796
731.922	0.0151806
732.000	0.0152152
732.078	0.0151703
732.156	0.0151698
732.234	0.0152281
732.312	0.0151340
732.390	0.0151816
732.468	0.0151310
732.547	0.0152050
732.625	0.0151159
732.703	0.0151927
732.781	0.0153243
732.859	0.0152662
732.937	0.0152274
733.015	0.0153051
733.093	0.0152412
733.172	0.0153061
733.250	0.0152771
733.328	0.0153269
733.406	0.0153403
733.484	0.0154031
733.562	0.0153771
733.640	0.0153224
733.718	0.0154067
733.797	0.0153973
733.875	0.0154495
733.953	0.0153293
734.031	0.0152235
734.109	0.0152708
734.187	0.0152338
734.265	0.0152306
734.343	0.0151812
734.422	0.0151975
734.500	0.0152332
734.578	0.0151999
734.656	0.0152847
734.734	0.0152698
734.812	0.0152061
734.890	0.0151501
734.968	0.0152596
735.047	0.0152220
735.125	0.0152711
735.203	0.0152361
735.281	0.0152650
735.359	0.0153513
735.437	0.0154813
735.515	0.0156029
735.593	0.0155971
735.672	0.0154066
735.750	0.0155067
735.828	0.0154330
735.906	0.0153329
735.984	0.0152859
736.062	0.0151091
736.140	0.0149865
736.218	0.0149121
736.297	0.0150126
736.375	0.0150339
736.453	0.0149960
736.531	0.0150592
736.609	0.0150697
736.687	0.0148801
736.765	0.0149758
736.843	0.0149921
736.922	0.0150688
737.000	0.0151122
737.078	0.0150115
737.156	0.0150129
737.234	0.0152454
737.312	0.0153770
737.390	0.0153984
737.468	0.0153522
737.547	0.0154427
737.625	0.0153922
737.703	0.0154866
737.781	0.0155833
737.859	0.0154460
737.937	0.0152887
738.015	0.0153484
738.093	0.0152244
738.172	0.0153183
738.250	0.0154082
738.328	0.0153345
738.406	0.0153030
738.484	0.0154134
738.562	0.0153370
738.640	0.0154164
738.718	0.0153614
738.797	0.0151939
738.875	0.0153136
738.953	0.0153466
739.031	0.0150890
739.109	0.0149491
739.187	0.0149011
739.265	0.0149117
739.343	0.0147065
739.422	0.0148212
739.500	0.0146507
739.578	0.0149124
739.656	0.0149131
739.734	0.0149335
739.812	0.0149999
739.890	0.0151054
739.968	0.0152140
740.047	0.0151791
740.125	0.0153033
740.203	0.0151402
740.281	0.0153681
740.359	0.0152952
740.437	0.0153796
740.515	0.0154407
740.593	0.0152324
740.672	0.0152264
740.750	0.0153752
740.828	0.0153865
740.906	0.0151998
740.984	0.0152930
741.062	0.0152844
741.140	0.0153506
741.218	0.0155434
741.297	0.0154781
741.375	0.0154650
741.453	0.0157349
741.531	0.0157130
741.609	0.0155770
741.687	0.0156552
741.765	0.0157825
741.843	0.0156014
741.922	0.0155122
742.000	0.0154788
742.078	0.0154720
742.156	0.0153947
742.234	0.0152288
742.312	0.0150487
742.390	0.0149972
742.468	0.0148451
742.547	0.0148045
742.625	0.0147008
742.703	0.0147093
742.781	0.0145499
742.859	0.0146897
742.937	0.0146788
743.015	0.0145554
743.093	0.0147501
743.172	0.0149363
743.250	0.0149800
743.328	0.0150095
743.406	0.0153295
743.484	0.0154462
743.562	0.0155643
743.640	0.0155676
743.718	0.0156918
743.797	0.0156841
743.875	0.0157525
743.953	0.0156459
744.031	0.0158286
744.109	0.0156371
744.187	0.0155779
744.265	0.0156039
744.343	0.0156467
744.422	0.0156441
744.500	0.0153883
744.578	0.0153417
744.656	0.0153233
744.734	0.0152573
744.812	0.0152632
744.890	0.0151844
744.968	0.0152463
745.047	0.0151841
745.125	0.0151842
745.203	0.0152203
745.281	0.0152645
745.359	0.0150243
745.437	0.0151054
745.515	0.0151505
745.593	0.0150549
745.672	0.0150130
745.750	0.0151878
745.828	0.0150921
745.906	0.0151205
745.984	0.0152327
746.062	0.0150907
746.140	0.0152685
746.218	0.0150978
746.297	0.0149796
746.375	0.0149481
746.453	0.0150627
746.531	0.0150140
746.609	0.0149920
746.687	0.0149239
746.765	0.0150444
746.843	0.0150922
746.922	0.0151312
747.000	0.0150451
747.078	0.0152298
747.156	0.0152457
747.234	0.0151542
747.312	0.0151889
747.390	0.0152641
747.468	0.0153395
747.547	0.0151392
747.625	0.0152737
747.703	0.0151645
747.781	0.0152078
747.859	0.0152505
747.937	0.0152879
748.015	0.0152809
748.093	0.0153065
748.172	0.0154415
748.250	0.0153001
748.328	0.0153642
748.406	0.0152982
748.484	0.0153941
748.562	0.0155191
748.640	0.0154546
748.718	0.0153793
748.797	0.0155115
748.875	0.0153653
748.953	0.0154868
749.031	0.0155008
749.109	0.0154420
749.187	0.0154720
749.265	0.0155550
749.343	0.0154406
749.422	0.0155835
749.500	0.0153918
749.578	0.0155563
749.656	0.0154637
749.734	0.0153120
749.812	0.0154337
749.890	0.0154601
749.968	0.0153114
750.047	0.0151208
750.125	0.0152060
750.203	0.0150964
750.281	0.0150888
750.359	0.0150056
750.437	0.0149481
750.515	0.0150320
750.593	0.0150327
750.672	0.0150788
750.750	0.0150780
750.828	0.0150626
750.906	0.0151749
750.984	0.0151173
751.062	0.0151051
751.140	0.0151482
751.218	0.0153484
751.297	0.0154062
751.375	0.0152707
751.453	0.0152571
751.531	0.0153870
751.609	0.0154538
751.687	0.0152834
751.765	0.0153622
751.843	0.0153783
751.922	0.0152764
752.000	0.0153160
752.078	0.0152807
752.156	0.0152847
752.234	0.0152953
752.312	0.0152226
752.390	0.0152121
752.468	0.0151666
752.547	0.0152327
752.625	0.0152108
752.703	0.0152983
752.781	0.0151278
752.859	0.0151593
752.937	0.0152869
753.015	0.0153380
753.093	0.0153093
753.172	0.0152993
753.250	0.0153184
753.328	0.0152857
753.406	0.0152107
753.484	0.0153034
753.562	0.0153613
753.640	0.0152914
753.718	0.0154337
753.797	0.0154037
753.875	0.0154293
753.953	0.0155067
754.031	0.0155212
754.109	0.0157332
754.187	0.0156099
754.265	0.0157962
754.343	0.0157122
754.422	0.0157684
754.500	0.0155589
754.578	0.0156140
754.656	0.0155863
754.734	0.0153877
754.812	0.0153527
754.890	0.0152859
754.968	0.0151089
755.047	0.0151498
755.125	0.0150864
755.203	0.0150317
755.281	0.0147811
755.359	0.0150008
755.437	0.0149976
755.515	0.0149619
755.593	0.0148165
755.672	0.0149173
755.750	0.0147816
755.828	0.0148465
755.906	0.0148907
755.984	0.0147365
756.062	0.0149188
756.140	0.0149921
756.218	0.0149108
756.297	0.0150270
756.375	0.0150481
756.453	0.0149703
756.531	0.0150755
756.609	0.0150890
756.687	0.0152140
756.765	0.0151471
756.843	0.0151713
756.922	0.0153227
757.000	0.0151307
757.078	0.0152350
757.156	0.0153904
757.234	0.0154092
757.312	0.0154083
757.390	0.0155025
757.468	0.0154929
757.547	0.0156034
757.625	0.0155978
757.703	0.0154642
757.781	0.0154784
757.859	0.0154566
757.937	0.0153437
758.015	0.0153795
758.093	0.0153452
758.172	0.0154230
758.250	0.0152062
758.328	0.0150911
758.406	0.0150494
758.484	0.0152328
758.562	0.0151911
758.640	0.0151918
758.718	0.0152199
758.797	0.0151999
758.875	0.0153044
758.953	0.0152792
759.031	0.0153812
759.109	0.0153561
759.187	0.0153994
759.265	0.0154471
759.343	0.0153836
759.422	0.0154155
759.500	0.0155101
759.578	0.0154445
759.656	0.0154630
759.734	0.0152787
759.812	0.0154127
759.890	0.0153603
759.968	0.0153105
760.047	0.0151778
760.125	0.0151281
760.203	0.0151941
760.281	0.0151857
760.359	0.0151110
760.437	0.0152183
760.515	0.0152348
760.593	0.0153202
760.672	0.0153018
760.750	0.0151196
760.828	0.0151166
760.906	0.0151984
760.984	0.0150742
761.062	0.0151378
761.140	0.0151872
761.218	0.0150236
761.297	0.0150680
761.375	0.0150817
761.453	0.0150642
761.531	0.0150610
761.609	0.0150514
761.687	0.0150465
761.765	0.0152161
761.843	0.0151069
761.922	0.0152188
762.000	0.0153164
762.078	0.0152390
762.156	0.0153448
762.234	0.0153634
762.312	0.0153845
762.390	0.0153363
762.468	0.0152464
762.547	0.0153822
762.625	0.0155092
762.703	0.0154938
762.781	0.0154769
762.859	0.0154738
762.937	0.0155976
763.015	0.0155596
763.093	0.0156573
763.172	0.0156223
763.250	0.0155585
763.328	0.0155533
763.406	0.0155183
763.484	0.0154676
763.562	0.0155186
763.640	0.0153163
763.718	0.0152058
763.797	0.0151920
763.875	0.0150004
763.953	0.0152093
764.031	0.0152313
764.109	0.0148932
764.187	0.0148908
764.265	0.0148811
764.343	0.0148127
764.422	0.0148464
764.500	0.0148309
764.578	0.0148228
764.656	0.0149799
764.734	0.0150169
764.812	0.0149931
764.890	0.0149573
764.968	0.0151561
765.047	0.0151781
765.125	0.0152589
765.203	0.0152831
765.281	0.0152101
765.359	0.0154382
765.437	0.0153967
765.515	0.0155238
765.593	0.0153976
765.672	0.0154027
765.750	0.0154674
765.828	0.0156239
765.906	0.0153657
765.984	0.0152968
766.062	0.0152493
766.140	0.0152674
766.218	0.0153439
766.297	0.0151752
766.375	0.0151965
766.453	0.0152009
766.531	0.0149739
766.609	0.0149434
766.687	0.0150569
766.765	0.0151880
766.843	0.0150677
766.922	0.0149989
767.000	0.0151884
767.078	0.0151811
767.156	0.0152776
767.234	0.0152251
767.312	0.0152327
767.390	0.0153539
767.468	0.0154835
767.547	0.0152832
767.625	0.0152821
767.703	0.0152486
767.781	0.0154462
767.859	0.0153371
767.937	0.0152927
768.015	0.0152570
768.093	0.0153567
768.172	0.0153052
768.250	0.0151907
768.328	0.0153098
768.406	0.0152575
768.484	0.0152187
768.562	0.0152699
768.640	0.0152830
768.718	0.0151992
768.797	0.0151205
768.875	0.0151917
768.953	0.0153983
769.031	0.0153230
769.109	0.0152402
769.187	0.0152354
769.265	0.0153710
769.343	0.0154787
769.422	0.0154329
769.500	0.0154333
769.578	0.0154589
769.656	0.0155251
769.734	0.0153076
769.812	0.0153414
769.890	0.0153117
769.968	0.0152834
770.047	0.0152128
770.125	0.0151960
770.203	0.0150951
770.281	0.0153238
770.359	0.0150943
770.437	0.0152719
770.515	0.0151717
770.593	0.0151882
770.672	0.0153268
770.750	0.0153210
770.828	0.0150912
770.906	0.0152799
770.984	0.0153632
771.062	0.0153371
771.140	0.0152974
771.218	0.0151324
771.297	0.0152602
771.375	0.0152904
771.453	0.0152454
771.531	0.0151252
771.609	0.0151364
771.687	0.0151756
771.765	0.0151524
771.843	0.0150614
771.922	0.0151427
772.000	0.0151806
772.078	0.0151401
772.156	0.0151290
772.234	0.0151408
772.312	0.0150694
772.390	0.0151662
772.468	0.0151848
772.547	0.0152734
772.625	0.0152059
772.703	0.0151803
772.781	0.0151819
772.859	0.0152235
772.937	0.0153112
773.015	0.0153354
773.093	0.0153069
773.172	0.0153651
773.250	0.0152919
773.328	0.0151794
773.406	0.0151117
773.484	0.0152576
773.562	0.0152525
773.640	0.0152817
773.718	0.0152502
773.797	0.0151570
773.875	0.0152175
773.953	0.0151186
774.031	0.0151913
774.109	0.0152898
774.187	0.0151608
774.265	0.0151678
774.343	0.0151527
774.422	0.0152968
774.500	0.0152191
774.578	0.0152913
774.656	0.0152453
774.734	0.0153638
774.812	0.0153556
774.890	0.0153795
774.968	0.0154562
775.047	0.0154282
775.125	0.0154005
775.203	0.0153534
775.281	0.0153175
775.359	0.0153833
775.437	0.0154104
775.515	0.0154108
775.593	0.0152327
775.672	0.0151523
775.750	0.0153684
775.828	0.0152280
775.906	0.0150913
775.984	0.0152399
776.062	0.0151872
776.140	0.0152441
776.218	0.0151650
776.297	0.0150146
776.375	0.0151272
776.453	0.0151653
776.531	0.0150507
776.609	0.0151369
776.687	0.0152637
776.765	0.0153956
776.843	0.0153329
776.922	0.0152363
777.000	0.0152770
777.078	0.0153912
777.156	0.0152482
777.234	0.0152344
777.312	0.0152415
777.390	0.0151723
777.468	0.0153061
777.547	0.0151139
777.625	0.0150921
777.703	0.0151644
777.781	0.0153900
777.859	0.0153049
777.937	0.0152441
778.015	0.0151910
778.093	0.0152583
778.172	0.0151882
778.250	0.0153380
778.328	0.0153616
778.406	0.0152882
778.484	0.0152497
778.562	0.0152750
778.640	0.0152594
778.718	0.0152248
778.797	0.0152383
778.875	0.0152564
778.953	0.0152691
779.031	0.0151853
779.109	0.0152926
779.187	0.0151642
779.265	0.0152544
779.343	0.0151134
779.422	0.0150809
779.500	0.0151844
779.578	0.0151206
779.656	0.0150256
779.734	0.0152166
779.812	0.0151550
779.890	0.0153117
779.968	0.0151823
780.047	0.0152714
780.125	0.0153220
780.203	0.0153747
780.281	0.0154210
780.359	0.0155172
780.437	0.0154235
780.515	0.0154508
780.593	0.0155505
780.672	0.0155869
780.750	0.0155027
780.828	0.0153667
780.906	0.0154500
780.984	0.0153426
781.062	0.0154232
781.140	0.0150573
781.218	0.0154789
781.297	0.0153433
781.375	0.0151566
781.453	0.0151693
781.531	0.0151181
781.609	0.0151698
781.687	0.0151199
781.765	0.0152190
781.843	0.0150536
781.922	0.0151933
782.000	0.0150122
782.078	0.0150151
782.156	0.0153079
782.234	0.0152413
782.312	0.0151149
782.390	0.0152106
782.468	0.0152910
782.547	0.0152714
782.625	0.0151476
782.703	0.0152470
782.781	0.0152823
782.859	0.0152946
782.937	0.0152885
783.015	0.0153152
783.093	0.0152280
783.172	0.0153473
783.250	0.0153155
783.328	0.0153931
783.406	0.0151757
783.484	0.0152615
783.562	0.0150461
783.640	0.0151806
783.718	0.0152456
783.797	0.0152087
783.875	0.0152526
783.953	0.0152263
784.031	0.0152511
784.109	0.0151258
784.187	0.0151757
784.265	0.0152200
784.343	0.0152071
784.422	0.0152618
784.500	0.0152702
784.578	0.0151386
784.656	0.0153243
784.734	0.0152325
784.812	0.0152901
784.890	0.0153596
784.968	0.0155173
785.047	0.0153427
785.125	0.0153495
785.203	0.0153686
785.281	0.0153055
785.359	0.0155032
785.437	0.0151925
785.515	0.0154137
785.593	0.0152901
785.672	0.0153734
785.750	0.0153625
785.828	0.0151796
785.906	0.0151769
785.984	0.0152438
786.062	0.0153397
786.140	0.0151337
786.218	0.0152489
786.297	0.0152200
786.375	0.0151543
786.453	0.0151648
786.531	0.0152657
786.609	0.0151461
786.687	0.0150694
786.765	0.0151190
786.843	0.0151334
786.922	0.0152860
787.000	0.0150870
787.078	0.0150182
787.156	0.0151256
787.234	0.0151492
787.312	0.0151412
787.390	0.0151814
787.468	0.0151965
787.547	0.0150678
787.625	0.0151865
787.703	0.0153210
787.781	0.0151910
787.859	0.0151887
787.937	0.0151188
788.015	0.0152631
788.093	0.0151616
788.172	0.0151575
788.250	0.0152106
788.328	0.0151643
788.406	0.0151629
788.484	0.0151408
788.562	0.0151043
788.640	0.0151719
788.718	0.0153762
788.797	0.0152398
788.875	0.0152702
788.953	0.0152116
789.031	0.0153849
789.109	0.0153380
789.187	0.0153119
789.265	0.0152871
789.343	0.0152629
789.422	0.0153718
789.500	0.0154083
789.578	0.0153811
789.656	0.0153163
789.734	0.0153316
789.812	0.0153522
789.890	0.0153449
789.968	0.0153027
790.047	0.0153606
790.125	0.0153322
790.203	0.0153532
790.281	0.0152306
790.359	0.0152614
790.437	0.0151662
790.515	0.0152181
790.593	0.0153773
790.672	0.0151896
790.750	0.0152628
790.828	0.0151640
790.906	0.0152708
790.984	0.0152921
791.062	0.0151792
791.140	0.0152351
791.218	0.0152588
791.297	0.0152429
791.375	0.0153294
791.453	0.0153135
791.531	0.0151758
791.609	0.0151665
791.687	0.0150902
791.765	0.0152892
791.843	0.0152936
791.922	0.0151389
792.000	0.0151875
792.078	0.0151801
792.156	0.0152410
792.234	0.0152294
792.312	0.0151525
792.390	0.0152359
792.468	0.0152604
792.547	0.0152065
792.625	0.0154858
792.703	0.0151327
792.781	0.0153036
792.859	0.0153682
792.937	0.0151389
793.015	0.0153007
793.093	0.0153394
793.172	0.0152177
793.250	0.0152998
793.328	0.0152178
793.406	0.0153265
793.484	0.0151196
793.562	0.0152361
793.640	0.0152429
793.718	0.0151828
793.797	0.0151772
793.875	0.0151440
793.953	0.0151831
794.031	0.0151762
794.109	0.0153019
794.187	0.0150123
794.265	0.0150848
794.343	0.0152941
794.422	0.0151062
794.500	0.0151456
794.578	0.0152151
794.656	0.0151131
794.734	0.0153040
794.812	0.0152347
794.890	0.0151579
794.968	0.0152728
795.047	0.0153988
795.125	0.0152066
795.203	0.0153889
795.281	0.0154654
795.359	0.0152621
795.437	0.0152901
795.515	0.0151696
795.593	0.0152401
795.672	0.0152798
795.750	0.0153508
795.828	0.0153014
795.906	0.0151613
795.984	0.0151009
796.062	0.0153204
796.140	0.0152928
796.218	0.0150900
796.297	0.0152383
796.375	0.0152306
796.453	0.0152027
796.531	0.0152528
796.609	0.0153558
796.687	0.0151952
796.765	0.0151798
796.843	0.0152799
796.922	0.0153917
797.000	0.0152970
797.078	0.0152631
797.156	0.0152907
797.234	0.0154013
797.312	0.0153450
797.390	0.0152790
797.468	0.0153072
797.547	0.0153149
797.625	0.0153064
797.703	0.0154974
797.781	0.0153889
797.859	0.0153787
797.937	0.0154327
798.015	0.0152067
798.093	0.0151559
798.172	0.0153120
798.250	0.0153725
798.328	0.0152444
798.406	0.0151578
798.484	0.0153802
798.562	0.0152730
798.640	0.0151831
798.718	0.0151986
798.797	0.0152158
798.875	0.0152004
798.953	0.0151109
799.031	0.0152343
799.109	0.0152047
799.187	0.0151937
799.265	0.0151660
799.343	0.0150713
799.422	0.0149380
799.500	0.0151746
799.578	0.0151385
799.656	0.0151579
799.734	0.0150802
799.812	0.0152250
799.890	0.0152694
799.968	0.0151538
800.047	0.0151711
800.125	0.0151372
800.203	0.0152177
800.281	0.0152679
800.359	0.0153164
800.437	0.0153770
800.515	0.0153199
800.593	0.0153206
800.672	0.0152883
800.750	0.0153889
800.828	0.0154076
800.906	0.0154121
800.984	0.0154470
801.062	0.0154166
801.140	0.0153041
801.218	0.0154416
801.297	0.0153664
801.375	0.0153674
801.453	0.0153051
801.531	0.0152799
801.609	0.0151743
801.687	0.0152230
801.765	0.0152831
801.843	0.0152772
801.922	0.0151575
802.000	0.0153474
802.078	0.0152943
802.156	0.0152500
802.234	0.0150812
802.312	0.0151501
802.390	0.0152623
802.468	0.0152332
802.547	0.0153490
802.625	0.0151661
802.703	0.0152914
802.781	0.0153308
802.859	0.0151729
802.937	0.0150992
803.015	0.0149231
803.093	0.0150757
803.172	0.0150877
803.250	0.0150534
803.328	0.0150057
803.406	0.0150710
803.484	0.0152084
803.562	0.0151008
803.640	0.0151679
803.718	0.0152578
803.797	0.0153329
803.875	0.0152825
803.953	0.0152851
804.031	0.0151750
804.109	0.0152527
804.187	0.0153965
804.265	0.0154964
804.343	0.0153897
804.422	0.0153094
804.500	0.0151819
804.578	0.0152755
804.656	0.0153403
804.734	0.0151774
804.812	0.0152873
804.890	0.0152126
804.968	0.0150701
805.047	0.0152340
805.125	0.0151592
805.203	0.0151565
805.281	0.0151588
805.359	0.0152011
805.437	0.0151176
805.515	0.0152129
805.593	0.0152499
805.672	0.0152348
805.750	0.0152550
805.828	0.0151872
805.906	0.0151728
805.984	0.0151363
806.062	0.0153814
806.140	0.0153422
806.218	0.0153294
806.297	0.0152010
806.375	0.0152966
806.453	0.0153944
806.531	0.0153595
806.609	0.0153033
806.687	0.0152711
806.765	0.0153881
806.843	0.0151247
806.922	0.0151936
807.000	0.0152412
807.078	0.0152551
807.156	0.0150346
807.234	0.0152496
807.312	0.0152582
807.390	0.0152152
807.468	0.0151736
807.547	0.0151118
807.625	0.0152559
807.703	0.0150983
807.781	0.0150813
807.859	0.0152512
807.937	0.0151728
808.015	0.0151997
808.093	0.0152603
808.172	0.0151389
808.250	0.0150942
808.328	0.0153716
808.406	0.0152159
808.484	0.0153355
808.562	0.0153256
808.640	0.0152311
808.718	0.0153716
808.797	0.0151862
808.875	0.0150941
808.953	0.0152225
809.031	0.0152737
809.109	0.0152336
809.187	0.0152100
809.265	0.0153017
809.343	0.0152135
809.422	0.0151488
809.500	0.0153764
809.578	0.0151233
809.656	0.0152803
809.734	0.0153228
809.812	0.0152412
809.890	0.0152399
809.968	0.0153352
810.047	0.0152601
810.125	0.0152380
810.203	0.0152543
810.281	0.0152171
810.359	0.0152093
810.437	0.0151685
810.515	0.0152912
810.593	0.0152547
810.672	0.0153274
810.750	0.0152020
810.828	0.0151253
810.906	0.0150907
810.984	0.0151100
811.062	0.0151628
811.140	0.0152534
811.218	0.0151564
811.297	0.0152219
811.375	0.0150501
811.453	0.0150214
811.531	0.0151255
811.609	0.0152209
811.687	0.0150536
811.765	0.0150836
811.843	0.0151815
811.922	0.0152302
812.000	0.0152719
812.078	0.0153284
812.156	0.0150669
812.234	0.0150940
812.312	0.0153478
812.390	0.0152882
812.468	0.0153074
812.547	0.0152547
812.625	0.0153784
812.703	0.0151511
812.781	0.0153235
812.859	0.0151707
812.937	0.0153048
813.015	0.0152488
813.093	0.0152728
813.172	0.0152726
813.250	0.0152262
813.328	0.0151876
813.406	0.0151673
813.484	0.0150990
813.562	0.0151694
813.640	0.0152290
813.718	0.0151638
813.797	0.0152421
813.875	0.0151823
813.953	0.0150878
814.031	0.0151114
814.109	0.0152411
814.187	0.0152717
814.265	0.0152024
814.343	0.0151544
814.422	0.0151427
814.500	0.0151244
814.578	0.0152366
814.656	0.0152832
814.734	0.0152795
814.812	0.0152723
814.890	0.0151065
814.968	0.0150842
815.047	0.0152943
815.125	0.0152892
815.203	0.0152457
815.281	0.0152071
815.359	0.0152419
815.437	0.0151537
815.515	0.0152728
815.593	0.0152576
815.672	0.0153362
815.750	0.0152425
815.828	0.0152737
815.906	0.0152371
815.984	0.0153139
816.062	0.0151997
816.140	0.0153873
816.218	0.0152313
816.297	0.0152304
816.375	0.0152451
816.453	0.0152860
816.531	0.0154540
816.609	0.0152570
816.687	0.0152416
816.765	0.0152943
816.843	0.0152553
816.922	0.0153533
817.000	0.0153019
817.078	0.0153143
817.156	0.0152756
817.234	0.0152920
817.312	0.0153458
817.390	0.0151175
817.468	0.0151825
817.547	0.0150957
817.625	0.0152574
817.703	0.0153136
817.781	0.0149719
817.859	0.0150227
817.937	0.0150017
818.015	0.0150321
818.093	0.0151341
818.172	0.0151160
818.250	0.0150635
818.328	0.0150500
818.406	0.0150575
818.484	0.0151170
818.562	0.0151922
818.640	0.0152551
818.718	0.0153031
818.797	0.0152497
818.875	0.0151802
818.953	0.0151971
819.031	0.0153016
819.109	0.0153481
819.187	0.0152470
819.265	0.0152634
819.343	0.0153282
819.422	0.0153362
819.500	0.0153558
819.578	0.0151804
819.656	0.0152663
819.734	0.0151537
819.812	0.0152495
819.890	0.0151731
819.968	0.0151530
820.047	0.0152562
820.125	0.0153236
820.203	0.0153037
820.281	0.0152739
820.359	0.0152514
820.437	0.0150911
820.515	0.0153828
820.593	0.0151982
820.672	0.0152303
820.750	0.0154558
820.828	0.0152937
820.906	0.0152197
820.984	0.0153917
821.062	0.0154008
821.140	0.0152145
821.218	0.0153680
821.297	0.0153802
821.375	0.0151678
821.453	0.0153342
821.531	0.0152969
821.609	0.0153014
821.687	0.0152419
821.765	0.0152755
821.843	0.0153096
821.922	0.0152393
822.000	0.0151968
822.078	0.0152680
822.156	0.0151962
822.234	0.0152709
822.312	0.0151675
822.390	0.0150914
822.468	0.0152222
822.547	0.0152637
822.625	0.0152341
822.703	0.0151642
822.781	0.0151661
822.859	0.0151661
822.937	0.0152109
823.015	0.0154283
823.093	0.0152531
823.172	0.0152473
823.250	0.0152995
823.328	0.0152129
823.406	0.0152801
823.484	0.0151419
823.562	0.0152814
823.640	0.0151757
823.718	0.0152331
823.797	0.0151295
823.875	0.0151711
823.953	0.0151999
824.031	0.0152998
824.109	0.0151730
824.187	0.0153417
824.265	0.0151949
824.343	0.0151972
824.422	0.0152425
824.500	0.0153615
824.578	0.0153008
824.656	0.0152014
824.734	0.0152873
824.812	0.0152650
824.890	0.0154572
824.968	0.0152058
825.047	0.0151431
825.125	0.0152676
825.203	0.0153295
825.281	0.0151884
825.359	0.0152290
825.437	0.0152616
825.515	0.0151981
825.593	0.0151305
825.672	0.0151788
825.750	0.0151981
825.828	0.0151896
825.906	0.0151854
825.984	0.0152329
826.062	0.0151893
826.140	0.0152676
826.218	0.0154025
826.297	0.0152365
826.375	0.0151564
826.453	0.0151512
826.531	0.0151182
826.609	0.0153386
826.687	0.0154198
826.765	0.0151032
826.843	0.0151860
826.922	0.0151824
827.000	0.0151964
827.078	0.0152182
827.156	0.0152388
827.234	0.0152118
827.312	0.0151617
827.390	0.0153754
827.468	0.0153513
827.547	0.0152848
827.625	0.0152274
827.703	0.0152386
827.781	0.0152805
827.859	0.0153228
827.937	0.0152852
828.015	0.0153413
828.093	0.0152979
828.172	0.0154313
828.250	0.0152495
828.328	0.0152213
828.406	0.0152843
828.484	0.0152687
828.562	0.0152271
828.640	0.0153532
828.718	0.0153705
828.797	0.0153308
828.875	0.0152896
828.953	0.0152861
829.031	0.0152361
829.109	0.0151746
829.187	0.0151257
829.265	0.0151874
829.343	0.0153254
829.422	0.0152969
829.500	0.0151748
829.578	0.0152821
829.656	0.0152175
829.734	0.0152822
829.812	0.0152329
829.890	0.0152688
829.968	0.0151981
830.047	0.0151897
830.125	0.0152792
830.203	0.0154311
830.281	0.0152997
830.359	0.0153261
830.437	0.0153526
830.515	0.0151531
830.593	0.0152811
830.672	0.0153554
830.750	0.0152921
830.828	0.0152987
830.906	0.0152272
830.984	0.0152664
831.062	0.0152255
831.140	0.0153427
831.218	0.0152094
831.297	0.0151945
831.375	0.0152697
831.453	0.0151882
831.531	0.0151813
831.609	0.0152257
831.687	0.0151640
831.765	0.0152054
831.843	0.0153805
831.922	0.0152514
832.000	0.0150362
832.078	0.0151957
832.156	0.0153386
832.234	0.0153037
832.312	0.0152172
832.390	0.0152420
832.468	0.0152644
832.547	0.0153039
832.625	0.0153497
832.703	0.0151286
832.781	0.0153316
832.859	0.0154165
832.937	0.0153008
833.015	0.0152621
833.093	0.0153226
833.172	0.0153071
833.250	0.0152097
833.328	0.0152365
833.406	0.0151961
833.484	0.0151437
833.562	0.0151440
833.640	0.0152062
833.718	0.0151015
833.797	0.0152494
833.875	0.0151923
833.953	0.0152493
834.031	0.0152451
834.109	0.0152349
834.187	0.0152557
834.265	0.0153784
834.343	0.0153102
834.422	0.0153303
834.500	0.0153508
834.578	0.0153395
834.656	0.0152456
834.734	0.0152766
834.812	0.0152966
834.890	0.0154523
834.968	0.0152250
835.047	0.0152178
835.125	0.0152325
835.203	0.0152614
835.281	0.0153703
835.359	0.0152133
835.437	0.0152765
835.515	0.0151514
835.593	0.0152875
835.672	0.0153464
835.750	0.0153698
835.828	0.0152791
835.906	0.0152996
835.984	0.0153360
836.062	0.0152002
836.140	0.0151128
836.218	0.0151619
836.297	0.0152843
836.375	0.0151045
836.453	0.0151286
836.531	0.0152020
836.609	0.0152365
836.687	0.0153641
836.765	0.0152111
836.843	0.0152173
836.922	0.0153214
837.000	0.0153366
837.078	0.0153041
837.156	0.0151431
837.234	0.0152261
837.312	0.0152919
837.390	0.0153444
837.468	0.0152344
837.547	0.0153074
837.625	0.0153790
837.703	0.0153259
837.781	0.0153050
837.859	0.0152557
837.937	0.0152769
838.015	0.0153181
838.093	0.0153397
838.172	0.0154220
838.250	0.0153542
838.328	0.0152920
838.406	0.0151923
838.484	0.0153623
838.562	0.0153899
838.640	0.0152439
838.718	0.0151417
838.797	0.0151981
838.875	0.0152709
838.953	0.0151847
839.031	0.0151453
839.109	0.0151485
839.187	0.0152048
839.265	0.0152239
839.343	0.0151991
839.422	0.0153169
839.500	0.0152931
839.578	0.0153407
839.656	0.0151886
839.734	0.0151729
839.812	0.0152319
839.890	0.0152559
839.968	0.0151860
840.047	0.0152496
840.125	0.0152775
840.203	0.0152244
840.281	0.0152322
840.359	0.0152373
840.437	0.0152110
840.515	0.0151108
840.593	0.0151991
840.672	0.0152294
840.750	0.0152349
840.828	0.0153108
840.906	0.0152905
840.984	0.0151494
841.062	0.0152710
841.140	0.0154292
841.218	0.0153411
841.297	0.0153767
841.375	0.0153348
841.453	0.0153054
841.531	0.0152377
841.609	0.0153819
841.687	0.0153899
841.765	0.0152058
841.843	0.0152676
841.922	0.0153398
842.000	0.0153021
842.078	0.0152481
842.156	0.0153360
842.234	0.0152466
842.312	0.0152242
842.390	0.0152663
842.468	0.0153294
842.547	0.0152551
842.625	0.0151367
842.703	0.0152721
842.781	0.0152409
842.859	0.0152096
842.937	0.0152740
843.015	0.0152744
843.093	0.0151822
843.172	0.0152351
843.250	0.0152676
843.328	0.0152080
843.406	0.0152442
843.484	0.0153349
843.562	0.0152554
843.640	0.0152421
843.718	0.0152287
843.797	0.0152238
843.875	0.0152184
843.953	0.0150863
844.031	0.0152456
844.109	0.0151073
844.187	0.0151210
844.265	0.0151356
844.343	0.0152616
844.422	0.0152353
844.500	0.0153120
844.578	0.0153333
844.656	0.0152498
844.734	0.0152032
844.812	0.0153350
844.890	0.0152964
844.968	0.0151666
845.047	0.0152589
845.125	0.0152765
845.203	0.0153719
845.281	0.0152906
845.359	0.0153214
845.437	0.0154316
845.515	0.0153011
845.593	0.0154185
845.672	0.0153162
845.750	0.0153619
845.828	0.0154129
845.906	0.0153756
845.984	0.0153756
846.062	0.0152932
846.140	0.0152444
846.218	0.0152120
846.297	0.0151692
846.375	0.0152392
846.453	0.0153051
846.531	0.0150823
846.609	0.0150480
846.687	0.0152138
846.765	0.0151862
846.843	0.0152431
846.922	0.0152314
847.000	0.0151937
847.078	0.0151422
847.156	0.0150603
847.234	0.0151337
847.312	0.0151411
847.390	0.0151585
847.468	0.0151482
847.547	0.0151924
847.625	0.0152386
847.703	0.0152589
847.781	0.0152444
847.859	0.0153270
847.937	0.0152397
848.015	0.0151783
848.093	0.0152573
848.172	0.0153169
848.250	0.0151895
848.328	0.0152980
848.406	0.0153242
848.484	0.0153942
848.562	0.0151450
848.640	0.0151288
848.718	0.0151381
848.797	0.0151669
848.875	0.0151454
848.953	0.0151643
849.031	0.0152058
849.109	0.0151742
849.187	0.0153633
849.265	0.0152849
849.343	0.0152916
849.422	0.0153359
849.500	0.0152218
849.578	0.0151833
849.656	0.0152507
849.734	0.0152910
849.812	0.0153713
849.890	0.0152950
849.968	0.0153694
850.047	0.0153247
850.125	0.0151287
850.203	0.0152847
850.281	0.0151576
850.359	0.0153259
850.437	0.0153651
850.515	0.0152407
850.593	0.0152413
850.672	0.0154080
850.750	0.0152252
850.828	0.0152021
850.906	0.0152607
850.984	0.0152913
851.062	0.0152179
851.140	0.0152348
851.218	0.0151740
851.297	0.0152673
851.375	0.0152995
851.453	0.0151694
851.531	0.0151753
851.609	0.0153088
851.687	0.0151334
851.765	0.0152225
851.843	0.0151452
851.922	0.0152936
852.000	0.0152999
852.078	0.0152105
852.156	0.0151595
852.234	0.0152225
852.312	0.0153492
852.390	0.0152296
852.468	0.0152522
852.547	0.0152306
852.625	0.0151760
852.703	0.0151461
852.781	0.0151653
852.859	0.0152523
852.937	0.0153830
853.015	0.0152503
853.093	0.0150231
853.172	0.0152473
853.250	0.0152104
853.328	0.0154382
853.406	0.0153759
853.484	0.0152699
853.562	0.0152820
853.640	0.0152631
853.718	0.0152724
853.797	0.0152883
853.875	0.0154192
853.953	0.0153151
854.031	0.0151991
854.109	0.0153581
854.187	0.0152865
854.265	0.0152275
854.343	0.0153596
854.422	0.0151963
854.500	0.0153163
854.578	0.0152157
854.656	0.0152902
854.734	0.0151667
854.812	0.0153062
854.890	0.0153329
854.968	0.0152308
855.047	0.0151625
855.125	0.0151207
855.203	0.0151515
855.281	0.0153045
855.359	0.0152043
855.437	0.0152514
855.515	0.0152718
855.593	0.0152106
855.672	0.0152472
855.750	0.0153665
855.828	0.0153985
855.906	0.0151424
855.984	0.0151802
856.062	0.0153431
856.140	0.0153545
856.218	0.0152340
856.297	0.0152686
856.375	0.0150872
856.453	0.0152519
856.531	0.0153098
856.609	0.0151369
856.687	0.0152497
856.765	0.0152208
856.843	0.0151199
856.922	0.0151225
857.000	0.0151351
857.078	0.0151198
857.156	0.0151263
857.234	0.0152942
857.312	0.0152695
857.390	0.0152955
857.468	0.0153896
857.547	0.0153001
857.625	0.0153143
857.703	0.0153202
857.781	0.0153610
857.859	0.0153355
857.937	0.0153682
858.015	0.0155553
858.093	0.0153944
858.172	0.0152735
858.250	0.0153812
858.328	0.0152755
858.406	0.0152352
858.484	0.0151465
858.562	0.0153830
858.640	0.0152293
858.718	0.0153802
858.797	0.0151920
858.875	0.0151138
858.953	0.0151033
859.031	0.0151318
859.109	0.0152599
859.187	0.0152077
859.265	0.0151514
859.343	0.0153175
859.422	0.0151733
859.500	0.0152398
859.578	0.0152650
859.656	0.0154111
859.734	0.0152439
859.812	0.0151096
859.890	0.0151886
859.968	0.0153231
860.047	0.0152034
860.125	0.0151471
860.203	0.0151923
860.281	0.0153240
860.359	0.0151841
860.437	0.0152580
860.515	0.0152895
860.593	0.0151486
860.672	0.0152530
860.750	0.0151239
860.828	0.0150644
860.906	0.0150639
860.984	0.0150890
861.062	0.0152632
861.140	0.0151826
861.218	0.0151383
861.297	0.0151559
861.375	0.0151971
861.453	0.0151391
861.531	0.0153988
861.609	0.0152262
861.687	0.0152419
861.765	0.0152583
861.843	0.0153976
861.922	0.0153268
862.000	0.0151865
862.078	0.0153295
862.156	0.0153703
862.234	0.0152533
862.312	0.0152576
862.390	0.0154531
862.468	0.0152967
862.547	0.0153831
862.625	0.0152724
862.703	0.0152349
862.781	0.0153284
862.859	0.0151572
862.937	0.0154044
863.015	0.0152558
863.093	0.0154103
863.172	0.0153014
863.250	0.0153436
863.328	0.0153135
863.406	0.0152381
863.484	0.0153279
863.562	0.0151886
863.640	0.0152256
863.718	0.0154659
863.797	0.0152441
863.875	0.0150771
863.953	0.0151168
864.031	0.0152313
864.109	0.0152326
864.187	0.0151844
864.265	0.0151346
864.343	0.0151222
864.422	0.0151014
864.500	0.0151072
864.578	0.0151073
864.656	0.0151216
864.734	0.0152119
864.812	0.0152483
864.890	0.0151418
864.968	0.0151549
865.047	0.0152835
865.125	0.0152227
865.203	0.0152388
865.281	0.0152399
865.359	0.0154050
865.437	0.0153725
865.515	0.0153201
865.593	0.0154012
865.672	0.0153751
865.750	0.0153829
865.828	0.0154689
865.906	0.0153510
865.984	0.0154832
866.062	0.0154417
866.140	0.0154324
866.218	0.0152936
866.297	0.0153088
866.375	0.0153796
866.453	0.0152541
866.531	0.0152348
866.609	0.0151591
866.687	0.0152160
866.765	0.0150737
866.843	0.0151561
866.922	0.0153056
867.000	0.0151719
867.078	0.0152775
867.156	0.0150741
867.234	0.0151508
867.312	0.0152216
867.390	0.0151031
867.468	0.0149880
867.547	0.0152116
867.625	0.0152392
867.703	0.0151257
867.781	0.0151233
867.859	0.0151602
867.937	0.0152431
868.015	0.0153265
868.093	0.0153156
868.172	0.0152264
868.250	0.0152167
868.328	0.0152144
868.406	0.0152283
868.484	0.0152532
868.562	0.0154249
868.640	0.0152444
868.718	0.0152272
868.797	0.0151909
868.875	0.0151701
868.953	0.0152877
869.031	0.0151818
869.109	0.0152940
869.187	0.0153123
869.265	0.0152743
869.343	0.0152974
869.422	0.0153544
869.500	0.0152730
869.578	0.0152193
869.656	0.0152816
869.734	0.0153191
869.812	0.0153160
869.890	0.0153469
869.968	0.0151587
870.047	0.0153030
870.125	0.0153751
870.203	0.0151891
870.281	0.0151575
870.359	0.0152148
870.437	0.0152984
870.515	0.0151842
870.593	0.0151646
870.672	0.0150737
870.750	0.0152774
870.828	0.0152172
870.906	0.0152399
870.984	0.0152071
871.062	0.0152441
871.140	0.0152694
871.218	0.0153124
871.297	0.0152264
871.375	0.0152699
871.453	0.0152706
871.531	0.0151438
871.609	0.0151965
871.687	0.0152726
871.765	0.0151839
871.843	0.0153477
871.922	0.0153970
872.000	0.0153128
872.078	0.0152670
872.156	0.0152219
872.234	0.0151791
872.312	0.0153949
872.390	0.0152904
872.468	0.0152785
872.547	0.0152557
872.625	0.0152478
872.703	0.0153203
872.781	0.0154492
872.859	0.0151227
872.937	0.0152340
873.015	0.0152192
873.093	0.0153568
873.172	0.0153194
873.250	0.0152767
873.328	0.0153082
873.406	0.0152698
873.484	0.0152837
873.562	0.0152744
873.640	0.0152371
873.718	0.0152336
873.797	0.0152736
873.875	0.0152567
873.953	0.0153800
874.031	0.0151765
874.109	0.0152608
874.187	0.0152013
874.265	0.0152876
874.343	0.0151746
874.422	0.0153398
874.500	0.0152995
874.578	0.0152521
874.656	0.0152286
874.734	0.0151638
874.812	0.0151208
874.890	0.0152833
874.968	0.0152975
875.047	0.0151820
875.125	0.0152596
875.203	0.0151955
875.281	0.0151107
875.359	0.0150789
875.437	0.0152567
875.515	0.0151456
875.593	0.0151840
875.672	0.0150488
875.750	0.0151332
875.828	0.0150389
875.906	0.0150943
875.984	0.0152521
876.062	0.0153141
876.140	0.0153322
876.218	0.0153987
876.297	0.0154189
876.375	0.0152391
876.453	0.0154212
876.531	0.0153762
876.609	0.0154321
876.687	0.0155343
876.765	0.0153656
876.843	0.0154399
876.922	0.0155223
877.000	0.0155954
877.078	0.0155016
877.156	0.0153440
877.234	0.0154846
877.312	0.0154376
877.390	0.0154150
877.468	0.0154250
877.547	0.0153336
877.625	0.0153639
877.703	0.0155134
877.781	0.0153398
877.859	0.0152554
877.937	0.0153335
878.015	0.0152673
878.093	0.0153246
878.172	0.0151899
878.250	0.0152495
878.328	0.0153162
878.406	0.0152174
878.484	0.0152012
878.562	0.0151526
878.640	0.0152234
878.718	0.0152557
878.797	0.0151572
878.875	0.0150967
878.953	0.0151262
879.031	0.0152399
879.109	0.0151141
879.187	0.0149837
879.265	0.0150632
879.343	0.0151447
879.422	0.0150880
879.500	0.0152473
879.578	0.0151387
879.656	0.0152058
879.734	0.0150812
879.812	0.0150167
879.890	0.0151703
879.968	0.0151910
880.047	0.0152866
880.125	0.0151707
880.203	0.0152071
880.281	0.0152102
880.359	0.0152126
880.437	0.0152545
880.515	0.0154051
880.593	0.0154510
880.672	0.0153681
880.750	0.0153909
880.828	0.0154526
880.906	0.0154698
880.984	0.0154400
881.062	0.0155233
881.140	0.0154824
881.218	0.0154929
881.297	0.0154590
881.375	0.0153474
881.453	0.0153497
881.531	0.0153572
881.609	0.0153726
881.687	0.0152695
881.765	0.0154153
881.843	0.0153294
881.922	0.0153470
882.000	0.0152520
882.078	0.0153289
882.156	0.0153042
882.234	0.0152065
882.312	0.0151473
882.390	0.0153551
882.468	0.0150954
882.547	0.0152563
882.625	0.0152143
882.703	0.0151086
882.781	0.0151840
882.859	0.0151715
882.937	0.0152968
883.015	0.0151038
883.093	0.0150542
883.172	0.0152357
883.250	0.0153425
883.328	0.0152857
883.406	0.0152295
883.484	0.0152100
883.562	0.0152605
883.640	0.0151075
883.718	0.0150516
883.797	0.0150984
883.875	0.0150783
883.953	0.0151279
884.031	0.0152082
884.109	0.0152188
884.187	0.0152245
884.265	0.0152066
884.343	0.0152624
884.422	0.0151546
884.500	0.0153548
884.578	0.0153526
884.656	0.0152612
884.734	0.0152207
884.812	0.0153493
884.890	0.0153181
884.968	0.0153189
885.047	0.0153387
885.125	0.0153749
885.203	0.0152661
885.281	0.0153019
885.359	0.0152308
885.437	0.0152629
885.515	0.0153762
885.593	0.0152567
885.672	0.0152531
885.750	0.0152415
885.828	0.0151929
885.906	0.0153074
885.984	0.0152511
886.062	0.0151525
886.140	0.0152742
886.218	0.0151804
886.297	0.0151276
886.375	0.0152841
886.453	0.0152985
886.531	0.0152014
886.609	0.0152263
886.687	0.0152322
886.765	0.0153378
886.843	0.0152467
886.922	0.0153625
887.000	0.0152876
887.078	0.0151730
887.156	0.0153036
887.234	0.0153359
887.312	0.0151928
887.390	0.0152378
887.468	0.0153011
887.547	0.0153172
887.625	0.0153147
887.703	0.0154060
887.781	0.0153944
887.859	0.0153599
887.937	0.0154169
888.015	0.0153625
888.093	0.0154142
888.172	0.0153593
888.250	0.0152583
888.328	0.0153838
888.406	0.0153134
888.484	0.0153378
888.562	0.0154934
888.640	0.0152925
888.718	0.0152710
888.797	0.0154567
888.875	0.0152552
888.953	0.0153168
889.031	0.0152240
889.109	0.0153294
889.187	0.0152260
889.265	0.0152349
889.343	0.0151878
889.422	0.0150822
889.500	0.0151626
889.578	0.0152870
889.656	0.0153002
889.734	0.0151699
889.812	0.0150702
889.890	0.0150932
889.968	0.0152056
890.047	0.0151073
890.125	0.0150732
890.203	0.0150341
890.281	0.0150732
890.359	0.0150818
890.437	0.0150121
890.515	0.0150804
890.593	0.0151585
890.672	0.0151574
890.750	0.0150360
890.828	0.0150797
890.906	0.0151013
890.984	0.0151810
891.062	0.0151729
891.140	0.0151966
891.218	0.0151177
891.297	0.0153697
891.375	0.0152788
891.453	0.0151573
891.531	0.0152287
891.609	0.0152132
891.687	0.0154007
891.765	0.0153767
891.843	0.0153345
891.922	0.0154692
892.000	0.0152257
892.078	0.0154848
892.156	0.0153104
892.234	0.0154245
892.312	0.0153801
892.390	0.0155251
892.468	0.0153184
892.547	0.0155173
892.625	0.0153048
892.703	0.0153325
892.781	0.0154305
892.859	0.0153888
892.937	0.0153751
893.015	0.0155357
893.093	0.0154395
893.172	0.0153188
893.250	0.0154315
893.328	0.0153940
893.406	0.0155007
893.484	0.0154356
893.562	0.0153077
893.640	0.0153862
893.718	0.0153406
893.797	0.0152303
893.875	0.0151948
893.953	0.0151891
894.031	0.0151720
894.109	0.0152141
894.187	0.0152004
894.265	0.0151669
894.343	0.0151867
894.422	0.0150340
894.500	0.0150684
894.578	0.0151839
894.656	0.0152107
894.734	0.0152393
894.812	0.0152447
894.890	0.0151769
894.968	0.0151936
895.047	0.0152685
895.125	0.0152430
895.203	0.0151288
895.281	0.0153077
895.359	0.0151115
895.437	0.0151687
895.515	0.0152966
895.593	0.0151719
895.672	0.0154151
895.750	0.0153747
895.828	0.0152239
895.906	0.0152937
895.984	0.0152645
896.062	0.0152178
896.140	0.0152787
896.218	0.0153655
896.297	0.0153728
896.375	0.0152473
896.453	0.0152596
896.531	0.0153510
896.609	0.0151658
896.687	0.0151575
896.765	0.0151148
896.843	0.0152726
896.922	0.0152920
897.000	0.0153472
897.078	0.0151498
897.156	0.0151488
897.234	0.0151620
897.312	0.0153636
897.390	0.0153128
897.468	0.0152926
897.547	0.0153694
897.625	0.0152622
897.703	0.0151896
897.781	0.0151585
897.859	0.0152732
897.937	0.0151936
898.015	0.0151698
898.093	0.0153976
898.172	0.0152483
898.250	0.0152585
898.328	0.0154299
898.406	0.0153117
898.484	0.0153484
898.562	0.0153856
898.640	0.0152807
898.718	0.0152236
898.797	0.0153932
898.875	0.0153799
898.953	0.0152611
899.031	0.0152931
899.109	0.0154227
899.187	0.0153589
899.265	0.0152259
899.343	0.0153485
899.422	0.0152917
899.500	0.0151523
899.578	0.0154245
899.656	0.0152603
899.734	0.0152724
899.812	0.0152254
899.890	0.0153751
899.968	0.0152919
900.047	0.0153838
900.125	0.0151743
900.203	0.0152745
900.281	0.0151299
900.359	0.0150594
900.437	0.0151418
900.515	0.0151511
900.593	0.0150346
900.672	0.0151775
900.750	0.0151658
900.828	0.0150597
900.906	0.0151720
900.984	0.0152373
901.062	0.0152164
901.140	0.0151551
901.218	0.0152047
901.297	0.0151154
901.375	0.0151220
901.453	0.0152169
901.531	0.0152453
901.609	0.0153076
901.687	0.0152737
901.765	0.0152505
901.843	0.0152343
901.922	0.0151722
902.000	0.0152725
902.078	0.0151187
902.156	0.0152574
902.234	0.0152959
902.312	0.0151831
902.390	0.0151774
902.468	0.0153240
902.547	0.0153512
902.625	0.0152474
902.703	0.0149924
902.781	0.0151258
902.859	0.0154463
902.937	0.0153611
903.015	0.0153342
903.093	0.0153422
903.172	0.0152448
903.250	0.0153307
903.328	0.0152915
903.406	0.0152379
903.484	0.0151560
903.562	0.0151923
903.640	0.0153361
903.718	0.0153235
903.797	0.0154285
903.875	0.0153974
903.953	0.0154814
904.031	0.0152430
904.109	0.0152822
904.187	0.0154071
904.265	0.0152757
904.343	0.0153564
904.422	0.0153677
904.500	0.0153706
904.578	0.0153143
904.656	0.0152016
904.734	0.0152216
904.812	0.0152363
904.890	0.0152269
904.968	0.0152654
905.047	0.0151849
905.125	0.0153313
905.203	0.0152220
905.281	0.0152695
905.359	0.0152184
905.437	0.0151813
905.515	0.0151504
905.593	0.0151112
905.672	0.0152089
905.750	0.0151240
905.828	0.0151918
905.906	0.0151170
905.984	0.0152058
906.062	0.0152238
906.140	0.0150415
906.218	0.0152842
906.297	0.0152916
906.375	0.0152118
906.453	0.0150822
906.531	0.0151990
906.609	0.0150823
906.687	0.0151946
906.765	0.0152662
906.843	0.0152950
906.922	0.0152497
907.000	0.0152393
907.078	0.0150986
907.156	0.0151789
907.234	0.0152186
907.312	0.0152608
907.390	0.0153523
907.468	0.0152048
907.547	0.0153287
907.625	0.0153169
907.703	0.0152843
907.781	0.0153256
907.859	0.0153326
907.937	0.0155515
908.015	0.0154055
908.093	0.0152738
908.172	0.0153429
908.250	0.0154093
908.328	0.0153145
908.406	0.0152724
908.484	0.0153757
908.562	0.0153212
908.640	0.0152426
908.718	0.0154272
908.797	0.0153712
908.875	0.0152961
908.953	0.0152742
909.031	0.0151540
909.109	0.0152104
909.187	0.0152155
909.265	0.0152185
909.343	0.0152933
909.422	0.0151603
909.500	0.0150331
909.578	0.0152437
909.656	0.0151971
909.734	0.0153155
909.812	0.0153159
909.890	0.0151380
909.968	0.0153091
910.047	0.0152557
910.125	0.0152143
910.203	0.0152259
910.281	0.0151733
910.359	0.0153934
910.437	0.0152137
910.515	0.0153382
910.593	0.0152605
910.672	0.0152290
910.750	0.0151034
910.828	0.0153151
910.906	0.0152398
910.984	0.0151339
911.062	0.0151800
911.140	0.0152312
911.218	0.0151772
911.297	0.0151546
911.375	0.0152235
911.453	0.0152126
911.531	0.0151498
911.609	0.0150927
911.687	0.0152464
911.765	0.0151788
911.843	0.0152647
911.922	0.0151629
912.000	0.0152843
912.078	0.0152542
912.156	0.0152885
912.234	0.0152042
912.312	0.0152947
912.390	0.0152534
912.468	0.0152536
912.547	0.0153141
912.625	0.0152757
912.703	0.0153268
912.781	0.0153201
912.859	0.0151574
912.937	0.0152322
913.015	0.0153135
913.093	0.0152326
913.172	0.0152996
913.250	0.0152906
913.328	0.0151865
913.406	0.0152929
913.484	0.0152840
913.562	0.0152611
913.640	0.0152879
913.718	0.0153668
913.797	0.0153665
913.875	0.0152785
913.953	0.0152879
914.031	0.0153552
914.109	0.0153266
914.187	0.0153365
914.265	0.0153218
914.343	0.0152591
914.422	0.0152948
914.500	0.0153125
914.578	0.0151536
914.656	0.0153493
914.734	0.0153784
914.812	0.0152347
914.890	0.0150800
914.968	0.0151418
915.047	0.0152056
915.125	0.0152634
915.203	0.0152041
915.281	0.0150217
915.359	0.0149755
915.437	0.0151821
915.515	0.0151279
915.593	0.0152146
915.672	0.0151004
915.750	0.0152655
915.828	0.0151825
915.906	0.0150397
915.984	0.0151778
916.062	0.0151388
916.140	0.0150821
916.218	0.0153091
916.297	0.0152310
916.375	0.0150913
916.453	0.0150979
916.531	0.0152361
916.609	0.0151729
916.687	0.0152160
916.765	0.0152467
916.843	0.0151118
916.922	0.0152043
917.000	0.0152405
917.078	0.0152392
917.156	0.0151651
917.234	0.0151762
917.312	0.0151859
917.390	0.0152279
917.468	0.0153022
917.547	0.0151398
917.625	0.0153844
917.703	0.0151823
917.781	0.0152571
917.859	0.0151622
917.937	0.0152586
918.015	0.0152274
918.093	0.0153281
918.172	0.0152074
918.250	0.0152157
918.328	0.0152808
918.406	0.0153212
918.484	0.0152202
918.562	0.0151630
918.640	0.0152284
918.718	0.0151743
918.797	0.0151557
918.875	0.0154285
918.953	0.0153761
919.031	0.0151749
919.109	0.0152954
919.187	0.0153666
919.265	0.0151740
919.343	0.0153841
919.422	0.0152018
919.500	0.0153512
919.578	0.0152777
919.656	0.0153037
919.734	0.0153205
919.812	0.0153181
919.890	0.0152143
