06/13/2022	14:42:58	Ver.	4.1	UNKNOWN
Optical Delay	599.968395	Delta X		0.078125	Sweeps	1	Scan Rate	0/0
Coordinates	Axis 1	NaN	Axis 2	NaN	Axis 3	NaN	Axis 4	NaN	Axis 5	NaN	Axis 6	0.000000
TX Power	0.000000	RX Power	0.000000

599.968	0.0153998
600.047	0.0153974
600.125	0.0154369
600.203	0.0153051
600.281	0.0152791
600.359	0.0154438
600.437	0.0153357
600.515	0.0154197
600.593	0.0154233
600.672	0.0154504
600.750	0.0153311
600.828	0.0154000
600.906	0.0153394
600.984	0.0153323
601.062	0.0153008
601.140	0.0152500
601.218	0.0153398
601.297	0.0154754
601.375	0.0154690
601.453	0.0153949
601.531	0.0152666
601.609	0.0153909
601.687	0.0154390
601.765	0.0153774
601.843	0.0153826
601.922	0.0155444
602.000	0.0153281
602.078	0.0153916
602.156	0.0154262
602.234	0.0154440
602.312	0.0155402
602.390	0.0153145
602.468	0.0153386
602.547	0.0154359
602.625	0.0153675
602.703	0.0154377
602.781	0.0154015
602.859	0.0153413
602.937	0.0154375
603.015	0.0155457
603.093	0.0152612
603.172	0.0152902
603.250	0.0153914
603.328	0.0154713
603.406	0.0152278
603.484	0.0152097
603.562	0.0155566
603.640	0.0153902
603.718	0.0154948
603.797	0.0152892
603.875	0.0153459
603.953	0.0154150
604.031	0.0153458
604.109	0.0153271
604.187	0.0153876
604.265	0.0154662
604.343	0.0154085
604.422	0.0153297
604.500	0.0152616
604.578	0.0153716
604.656	0.0153265
604.734	0.0153625
604.812	0.0153407
604.890	0.0154185
604.968	0.0154727
605.047	0.0153075
605.125	0.0153241
605.203	0.0154552
605.281	0.0153719
605.359	0.0151982
605.437	0.0153619
605.515	0.0153880
605.593	0.0154106
605.672	0.0154138
605.750	0.0154031
605.828	0.0153631
605.906	0.0151801
605.984	0.0152988
606.062	0.0153898
606.140	0.0152754
606.218	0.0152217
606.297	0.0153339
606.375	0.0153640
606.453	0.0153819
606.531	0.0153979
606.609	0.0153414
606.687	0.0153557
606.765	0.0153945
606.843	0.0153490
606.922	0.0153094
607.000	0.0153423
607.078	0.0154467
607.156	0.0154333
607.234	0.0151788
607.312	0.0152508
607.390	0.0154176
607.468	0.0153148
607.547	0.0155088
607.625	0.0154072
607.703	0.0154271
607.781	0.0153404
607.859	0.0153885
607.937	0.0152240
608.015	0.0152634
608.093	0.0154787
608.172	0.0155556
608.250	0.0154281
608.328	0.0153582
608.406	0.0153504
608.484	0.0153478
608.562	0.0153818
608.640	0.0152892
608.718	0.0154290
608.797	0.0154166
608.875	0.0153963
608.953	0.0154388
609.031	0.0153906
609.109	0.0152955
609.187	0.0153390
609.265	0.0153603
609.343	0.0153040
609.422	0.0153522
609.500	0.0154308
609.578	0.0152477
609.656	0.0153590
609.734	0.0153349
609.812	0.0153360
609.890	0.0153900
609.968	0.0153522
610.047	0.0152931
610.125	0.0155149
610.203	0.0153959
610.281	0.0153101
610.359	0.0154026
610.437	0.0153121
610.515	0.0154196
610.593	0.0153750
610.672	0.0153989
610.750	0.0153880
610.828	0.0153249
610.906	0.0152547
610.984	0.0154942
611.062	0.0154223
611.140	0.0153738
611.218	0.0152441
611.297	0.0152612
611.375	0.0153583
611.453	0.0154416
611.531	0.0153950
611.609	0.0153330
611.687	0.0152975
611.765	0.0153739
611.843	0.0153416
611.922	0.0153397
612.000	0.0154063
612.078	0.0153166
612.156	0.0154215
612.234	0.0154278
612.312	0.0154610
612.390	0.0153997
612.468	0.0153001
612.547	0.0152533
612.625	0.0153145
612.703	0.0153128
612.781	0.0152122
612.859	0.0155078
612.937	0.0154396
613.015	0.0153566
613.093	0.0152393
613.172	0.0152445
613.250	0.0153641
613.328	0.0154668
613.406	0.0152921
613.484	0.0153457
613.562	0.0152627
613.640	0.0153700
613.718	0.0153324
613.797	0.0153141
613.875	0.0154288
613.953	0.0152241
614.031	0.0152711
614.109	0.0154366
614.187	0.0153468
614.265	0.0155809
614.343	0.0152951
614.422	0.0152706
614.500	0.0152283
614.578	0.0153407
614.656	0.0153622
614.734	0.0153569
614.812	0.0151958
614.890	0.0151936
614.968	0.0154230
615.047	0.0153013
615.125	0.0153897
615.203	0.0153303
615.281	0.0153439
615.359	0.0154282
615.437	0.0154404
615.515	0.0154345
615.593	0.0153473
615.672	0.0153878
615.750	0.0154658
615.828	0.0153326
615.906	0.0153712
615.984	0.0154676
616.062	0.0152888
616.140	0.0153621
616.218	0.0153931
616.297	0.0155006
616.375	0.0153253
616.453	0.0153387
616.531	0.0152483
616.609	0.0153674
616.687	0.0152787
616.765	0.0152826
616.843	0.0152924
616.922	0.0153383
617.000	0.0153635
617.078	0.0154233
617.156	0.0154052
617.234	0.0154359
617.312	0.0154313
617.390	0.0152992
617.468	0.0153810
617.547	0.0154466
617.625	0.0153369
617.703	0.0154114
617.781	0.0153183
617.859	0.0153949
617.937	0.0154228
618.015	0.0153970
618.093	0.0153599
618.172	0.0154096
618.250	0.0152972
618.328	0.0153322
618.406	0.0153580
618.484	0.0153913
618.562	0.0154814
618.640	0.0153139
618.718	0.0152707
618.797	0.0153422
618.875	0.0154891
618.953	0.0154291
619.031	0.0153629
619.109	0.0154009
619.187	0.0153139
619.265	0.0152166
619.343	0.0155055
619.422	0.0153561
619.500	0.0153972
619.578	0.0153784
619.656	0.0153863
619.734	0.0152733
619.812	0.0153064
619.890	0.0152900
619.968	0.0153011
620.047	0.0153506
620.125	0.0153067
620.203	0.0152201
620.281	0.0152693
620.359	0.0152628
620.437	0.0152811
620.515	0.0153427
620.593	0.0151814
620.672	0.0154463
620.750	0.0154175
620.828	0.0153855
620.906	0.0152503
620.984	0.0153378
621.062	0.0153579
621.140	0.0152674
621.218	0.0153028
621.297	0.0153457
621.375	0.0153416
621.453	0.0152558
621.531	0.0152987
621.609	0.0154202
621.687	0.0153635
621.765	0.0154279
621.843	0.0153723
621.922	0.0152900
622.000	0.0153271
622.078	0.0154015
622.156	0.0152798
622.234	0.0153637
622.312	0.0153069
622.390	0.0153080
622.468	0.0153504
622.547	0.0153725
622.625	0.0153693
622.703	0.0153254
622.781	0.0154151
622.859	0.0152525
622.937	0.0152628
623.015	0.0152892
623.093	0.0153820
623.172	0.0152420
623.250	0.0152452
623.328	0.0153065
623.406	0.0152850
623.484	0.0153785
623.562	0.0153115
623.640	0.0153180
623.718	0.0154167
623.797	0.0152222
623.875	0.0152543
623.953	0.0153247
624.031	0.0153831
624.109	0.0154385
624.187	0.0153555
624.265	0.0153918
624.343	0.0154164
624.422	0.0154093
624.500	0.0152447
624.578	0.0153564
624.656	0.0152531
624.734	0.0152965
624.812	0.0152670
624.890	0.0154412
624.968	0.0152138
625.047	0.0151723
625.125	0.0154482
625.203	0.0153963
625.281	0.0152961
625.359	0.0152947
625.437	0.0153658
625.515	0.0154528
625.593	0.0153976
625.672	0.0153633
625.750	0.0152609
625.828	0.0154660
625.906	0.0153268
625.984	0.0153110
626.062	0.0153967
626.140	0.0154292
626.218	0.0153817
626.297	0.0153987
626.375	0.0152819
626.453	0.0152853
626.531	0.0154820
626.609	0.0153783
626.687	0.0152836
626.765	0.0153973
626.843	0.0153182
626.922	0.0154266
627.000	0.0153889
627.078	0.0153039
627.156	0.0151198
627.234	0.0152517
627.312	0.0153692
627.390	0.0153828
627.468	0.0154803
627.547	0.0154134
627.625	0.0153370
627.703	0.0152900
627.781	0.0152895
627.859	0.0153069
627.937	0.0153149
628.015	0.0153607
628.093	0.0153382
628.172	0.0153454
628.250	0.0154140
628.328	0.0154008
628.406	0.0151994
628.484	0.0153513
628.562	0.0153911
628.640	0.0153861
628.718	0.0153793
628.797	0.0152765
628.875	0.0154512
628.953	0.0154366
629.031	0.0153154
629.109	0.0152753
629.187	0.0153874
629.265	0.0152950
629.343	0.0152970
629.422	0.0155217
629.500	0.0152755
629.578	0.0153705
629.656	0.0153442
629.734	0.0153277
629.812	0.0154767
629.890	0.0153471
629.968	0.0152657
630.047	0.0153230
630.125	0.0152975
630.203	0.0153288
630.281	0.0154285
630.359	0.0153530
630.437	0.0153446
630.515	0.0153149
630.593	0.0153581
630.672	0.0154366
630.750	0.0153275
630.828	0.0152861
630.906	0.0153293
630.984	0.0153529
631.062	0.0153041
631.140	0.0153939
631.218	0.0152462
631.297	0.0152958
631.375	0.0153692
631.453	0.0154263
631.531	0.0153888
631.609	0.0153423
631.687	0.0152729
631.765	0.0152403
631.843	0.0154470
631.922	0.0153970
632.000	0.0153221
632.078	0.0153674
632.156	0.0153519
632.234	0.0152793
632.312	0.0152505
632.390	0.0153419
632.468	0.0153217
632.547	0.0152874
632.625	0.0152795
632.703	0.0153329
632.781	0.0152344
632.859	0.0151451
632.937	0.0152747
633.015	0.0153864
633.093	0.0153760
633.172	0.0153182
633.250	0.0152832
633.328	0.0153641
633.406	0.0153707
633.484	0.0153957
633.562	0.0153464
633.640	0.0152745
633.718	0.0153204
633.797	0.0152558
633.875	0.0152165
633.953	0.0152955
634.031	0.0154161
634.109	0.0153212
634.187	0.0152045
634.265	0.0152805
634.343	0.0154394
634.422	0.0153445
634.500	0.0153550
634.578	0.0153892
634.656	0.0152828
634.734	0.0153593
634.812	0.0153093
634.890	0.0154361
634.968	0.0152620
635.047	0.0153071
635.125	0.0153205
635.203	0.0152554
635.281	0.0153719
635.359	0.0151716
635.437	0.0153005
635.515	0.0153522
635.593	0.0153907
635.672	0.0151949
635.750	0.0153240
635.828	0.0153406
635.906	0.0153386
635.984	0.0152962
636.062	0.0154421
636.140	0.0153971
636.218	0.0154306
636.297	0.0152409
636.375	0.0153745
636.453	0.0152955
636.531	0.0153155
636.609	0.0152983
636.687	0.0153129
636.765	0.0152576
636.843	0.0153384
636.922	0.0154502
637.000	0.0153988
637.078	0.0153986
637.156	0.0154171
637.234	0.0152153
637.312	0.0152496
637.390	0.0152615
637.468	0.0153436
637.547	0.0154057
637.625	0.0153824
637.703	0.0153720
637.781	0.0153861
637.859	0.0154769
637.937	0.0153664
638.015	0.0152814
638.093	0.0153235
638.172	0.0153820
638.250	0.0154098
638.328	0.0153275
638.406	0.0152789
638.484	0.0152824
638.562	0.0153077
638.640	0.0153428
638.718	0.0153648
638.797	0.0154648
638.875	0.0153744
638.953	0.0153607
639.031	0.0154922
639.109	0.0152991
639.187	0.0154163
639.265	0.0152705
639.343	0.0152831
639.422	0.0152879
639.500	0.0153024
639.578	0.0154088
639.656	0.0153014
639.734	0.0153553
639.812	0.0153218
639.890	0.0153661
639.968	0.0153885
640.047	0.0152084
640.125	0.0153396
640.203	0.0153101
640.281	0.0151927
640.359	0.0154100
640.437	0.0154583
640.515	0.0152160
640.593	0.0153970
640.672	0.0152758
640.750	0.0152330
640.828	0.0153917
640.906	0.0154247
640.984	0.0154256
641.062	0.0154103
641.140	0.0153202
641.218	0.0152336
641.297	0.0154317
641.375	0.0154110
641.453	0.0153347
641.531	0.0153123
641.609	0.0154801
641.687	0.0153191
641.765	0.0152479
641.843	0.0151820
641.922	0.0152818
642.000	0.0153408
642.078	0.0155261
642.156	0.0155134
642.234	0.0153304
642.312	0.0153015
642.390	0.0153767
642.468	0.0153490
642.547	0.0153271
642.625	0.0153915
642.703	0.0153764
642.781	0.0152898
642.859	0.0153693
642.937	0.0152803
643.015	0.0152010
643.093	0.0154364
643.172	0.0154033
643.250	0.0153541
643.328	0.0153061
643.406	0.0153407
643.484	0.0152713
643.562	0.0152609
643.640	0.0152830
643.718	0.0154367
643.797	0.0155083
643.875	0.0153622
643.953	0.0152163
644.031	0.0153265
644.109	0.0152864
644.187	0.0154282
644.265	0.0153641
644.343	0.0153048
644.422	0.0153000
644.500	0.0153474
644.578	0.0152919
644.656	0.0152210
644.734	0.0153575
644.812	0.0153634
644.890	0.0154527
644.968	0.0153613
645.047	0.0153490
645.125	0.0153753
645.203	0.0154958
645.281	0.0153467
645.359	0.0153690
645.437	0.0154514
645.515	0.0154753
645.593	0.0153928
645.672	0.0154092
645.750	0.0153629
645.828	0.0152767
645.906	0.0153281
645.984	0.0153494
646.062	0.0153390
646.140	0.0153144
646.218	0.0152731
646.297	0.0152959
646.375	0.0153089
646.453	0.0153666
646.531	0.0154594
646.609	0.0151902
646.687	0.0152875
646.765	0.0154386
646.843	0.0154072
646.922	0.0152911
647.000	0.0152258
647.078	0.0154527
647.156	0.0154569
647.234	0.0152535
647.312	0.0153197
647.390	0.0152840
647.468	0.0153291
647.547	0.0153970
647.625	0.0152561
647.703	0.0153326
647.781	0.0154180
647.859	0.0154325
647.937	0.0152985
648.015	0.0152275
648.093	0.0153575
648.172	0.0152930
648.250	0.0152862
648.328	0.0153082
648.406	0.0154045
648.484	0.0152990
648.562	0.0152941
648.640	0.0154676
648.718	0.0153952
648.797	0.0154034
648.875	0.0154417
648.953	0.0153956
649.031	0.0153806
649.109	0.0152759
649.187	0.0153305
649.265	0.0153290
649.343	0.0154745
649.422	0.0153902
649.500	0.0152583
649.578	0.0153956
649.656	0.0152581
649.734	0.0153955
649.812	0.0153319
649.890	0.0154950
649.968	0.0153636
650.047	0.0153002
650.125	0.0152497
650.203	0.0152837
650.281	0.0151688
650.359	0.0153789
650.437	0.0154226
650.515	0.0153552
650.593	0.0152944
650.672	0.0153309
650.750	0.0153211
650.828	0.0154328
650.906	0.0153148
650.984	0.0154467
651.062	0.0153489
651.140	0.0154517
651.218	0.0152266
651.297	0.0152615
651.375	0.0153081
651.453	0.0154698
651.531	0.0154308
651.609	0.0154438
651.687	0.0153352
651.765	0.0153696
651.843	0.0154095
651.922	0.0153992
652.000	0.0153337
652.078	0.0154002
652.156	0.0154649
652.234	0.0152694
652.312	0.0152528
652.390	0.0153765
652.468	0.0153799
652.547	0.0154115
652.625	0.0153485
652.703	0.0152439
652.781	0.0154299
652.859	0.0154242
652.937	0.0153368
653.015	0.0151982
653.093	0.0153238
653.172	0.0151767
653.250	0.0154128
653.328	0.0154671
653.406	0.0153864
653.484	0.0153842
653.562	0.0154443
653.640	0.0153781
653.718	0.0152919
653.797	0.0153133
653.875	0.0153461
653.953	0.0154430
654.031	0.0154346
654.109	0.0152469
654.187	0.0153616
654.265	0.0153880
654.343	0.0153165
654.422	0.0155319
654.500	0.0153731
654.578	0.0153170
654.656	0.0153942
654.734	0.0154131
654.812	0.0153561
654.890	0.0153974
654.968	0.0152481
655.047	0.0154155
655.125	0.0153107
655.203	0.0152705
655.281	0.0153416
655.359	0.0155053
655.437	0.0154121
655.515	0.0152901
655.593	0.0153249
655.672	0.0153029
655.750	0.0152261
655.828	0.0153076
655.906	0.0154183
655.984	0.0154198
656.062	0.0152969
656.140	0.0152740
656.218	0.0153259
656.297	0.0153579
656.375	0.0154359
656.453	0.0154108
656.531	0.0153611
656.609	0.0153893
656.687	0.0153241
656.765	0.0154173
656.843	0.0154899
656.922	0.0153406
657.000	0.0153952
657.078	0.0152576
657.156	0.0153566
657.234	0.0154415
657.312	0.0154692
657.390	0.0154447
657.468	0.0153529
657.547	0.0153937
657.625	0.0154202
657.703	0.0153687
657.781	0.0153763
657.859	0.0154163
657.937	0.0153088
658.015	0.0154546
658.093	0.0153974
658.172	0.0153302
658.250	0.0152313
658.328	0.0153101
658.406	0.0153798
658.484	0.0152812
658.562	0.0153076
658.640	0.0154781
658.718	0.0152921
658.797	0.0153602
658.875	0.0154011
658.953	0.0152567
659.031	0.0154218
659.109	0.0152885
659.187	0.0153349
659.265	0.0154305
659.343	0.0152539
659.422	0.0153658
659.500	0.0155170
659.578	0.0154520
659.656	0.0153904
659.734	0.0152402
659.812	0.0153384
659.890	0.0151982
659.968	0.0153804
660.047	0.0154209
660.125	0.0155652
660.203	0.0153873
660.281	0.0153442
660.359	0.0154027
660.437	0.0153185
660.515	0.0153848
660.593	0.0154171
660.672	0.0152933
660.750	0.0153149
660.828	0.0154913
660.906	0.0152857
660.984	0.0153524
661.062	0.0153970
661.140	0.0152618
661.218	0.0153057
661.297	0.0152676
661.375	0.0153368
661.453	0.0152937
661.531	0.0152392
661.609	0.0154527
661.687	0.0153568
661.765	0.0153116
661.843	0.0154510
661.922	0.0152870
662.000	0.0153380
662.078	0.0153693
662.156	0.0152715
662.234	0.0152943
662.312	0.0153430
662.390	0.0153469
662.468	0.0154388
662.547	0.0153930
662.625	0.0153161
662.703	0.0152512
662.781	0.0153176
662.859	0.0153228
662.937	0.0152702
663.015	0.0154218
663.093	0.0152640
663.172	0.0152692
663.250	0.0154349
663.328	0.0153243
663.406	0.0152592
663.484	0.0152260
663.562	0.0153289
663.640	0.0153683
663.718	0.0153931
663.797	0.0153666
663.875	0.0153535
663.953	0.0152597
664.031	0.0153901
664.109	0.0154672
664.187	0.0154105
664.265	0.0153529
664.343	0.0153394
664.422	0.0153593
664.500	0.0153745
664.578	0.0154248
664.656	0.0152639
664.734	0.0153229
664.812	0.0153084
664.890	0.0152953
664.968	0.0154396
665.047	0.0153525
665.125	0.0153615
665.203	0.0153967
665.281	0.0153114
665.359	0.0152678
665.437	0.0152452
665.515	0.0152557
665.593	0.0152245
665.672	0.0152322
665.750	0.0152716
665.828	0.0152634
665.906	0.0153587
665.984	0.0152338
666.062	0.0153463
666.140	0.0151695
666.218	0.0152428
666.297	0.0152932
666.375	0.0153965
666.453	0.0152085
666.531	0.0152685
666.609	0.0152795
666.687	0.0153234
666.765	0.0153634
666.843	0.0152900
666.922	0.0154060
667.000	0.0153785
667.078	0.0153011
667.156	0.0153383
667.234	0.0151728
667.312	0.0152397
667.390	0.0152697
667.468	0.0152397
667.547	0.0153218
667.625	0.0152896
667.703	0.0152377
667.781	0.0152097
667.859	0.0152675
667.937	0.0153251
668.015	0.0151376
668.093	0.0153599
668.172	0.0153061
668.250	0.0152782
668.328	0.0153283
668.406	0.0152882
668.484	0.0153145
668.562	0.0152648
668.640	0.0155096
668.718	0.0153035
668.797	0.0152950
668.875	0.0154039
668.953	0.0153502
669.031	0.0153938
669.109	0.0154049
669.187	0.0152713
669.265	0.0153679
669.343	0.0154573
669.422	0.0153506
669.500	0.0153159
669.578	0.0155128
669.656	0.0153691
669.734	0.0153118
669.812	0.0154620
669.890	0.0152853
669.968	0.0153837
670.047	0.0152932
670.125	0.0154132
670.203	0.0153668
670.281	0.0153104
670.359	0.0153288
670.437	0.0154272
670.515	0.0152734
670.593	0.0154237
670.672	0.0154070
670.750	0.0152901
670.828	0.0153968
670.906	0.0153066
670.984	0.0154706
671.062	0.0154184
671.140	0.0152999
671.218	0.0153677
671.297	0.0153697
671.375	0.0153855
671.453	0.0154076
671.531	0.0154828
671.609	0.0153683
671.687	0.0154498
671.765	0.0152573
671.843	0.0153815
671.922	0.0153813
672.000	0.0153791
672.078	0.0154057
672.156	0.0153760
672.234	0.0153644
672.312	0.0154527
672.390	0.0152785
672.468	0.0153245
672.547	0.0154096
672.625	0.0154256
672.703	0.0153841
672.781	0.0153046
672.859	0.0153017
672.937	0.0154877
673.015	0.0153197
673.093	0.0152528
673.172	0.0153782
673.250	0.0153699
673.328	0.0153591
673.406	0.0155933
673.484	0.0153122
673.562	0.0154008
673.640	0.0153632
673.718	0.0153203
673.797	0.0154038
673.875	0.0154046
673.953	0.0152410
674.031	0.0154829
674.109	0.0153304
674.187	0.0152721
674.265	0.0153254
674.343	0.0153793
674.422	0.0154108
674.500	0.0153731
674.578	0.0153253
674.656	0.0153929
674.734	0.0153494
674.812	0.0154295
674.890	0.0153793
674.968	0.0153518
675.047	0.0153671
675.125	0.0153947
675.203	0.0153340
675.281	0.0153228
675.359	0.0153415
675.437	0.0153222
675.515	0.0152613
675.593	0.0154248
675.672	0.0154698
675.750	0.0153701
675.828	0.0154375
675.906	0.0153224
675.984	0.0153156
676.062	0.0152872
676.140	0.0153856
676.218	0.0153366
676.297	0.0152660
676.375	0.0152869
676.453	0.0154052
676.531	0.0152755
676.609	0.0153069
676.687	0.0153040
676.765	0.0153873
676.843	0.0153733
676.922	0.0153382
677.000	0.0153530
677.078	0.0153085
677.156	0.0154552
677.234	0.0153484
677.312	0.0153835
677.390	0.0152550
677.468	0.0152883
677.547	0.0154129
677.625	0.0153222
677.703	0.0152719
677.781	0.0152995
677.859	0.0152962
677.937	0.0153655
678.015	0.0152217
678.093	0.0154246
678.172	0.0152501
678.250	0.0154015
678.328	0.0153561
678.406	0.0153641
678.484	0.0152706
678.562	0.0152137
678.640	0.0153271
678.718	0.0153778
678.797	0.0153893
678.875	0.0153025
678.953	0.0153406
679.031	0.0154208
679.109	0.0152679
679.187	0.0152083
679.265	0.0152807
679.343	0.0153462
679.422	0.0154141
679.500	0.0152465
679.578	0.0153519
679.656	0.0153815
679.734	0.0153362
679.812	0.0153747
679.890	0.0152943
679.968	0.0153323
680.047	0.0153368
680.125	0.0152403
680.203	0.0152131
680.281	0.0153671
680.359	0.0152256
680.437	0.0153131
680.515	0.0154282
680.593	0.0153834
680.672	0.0151526
680.750	0.0153017
680.828	0.0154092
680.906	0.0151794
680.984	0.0152737
681.062	0.0154379
681.140	0.0153067
681.218	0.0152726
681.297	0.0153787
681.375	0.0153949
681.453	0.0152786
681.531	0.0152431
681.609	0.0151560
681.687	0.0152532
681.765	0.0153767
681.843	0.0154104
681.922	0.0153201
682.000	0.0152525
682.078	0.0153769
682.156	0.0154170
682.234	0.0153298
682.312	0.0152916
682.390	0.0153706
682.468	0.0153749
682.547	0.0153818
682.625	0.0153000
682.703	0.0152165
682.781	0.0153513
682.859	0.0153859
682.937	0.0152316
683.015	0.0152892
683.093	0.0153020
683.172	0.0153658
683.250	0.0154095
683.328	0.0152104
683.406	0.0152583
683.484	0.0152637
683.562	0.0152673
683.640	0.0152180
683.718	0.0152318
683.797	0.0154084
683.875	0.0153519
683.953	0.0152419
684.031	0.0153461
684.109	0.0152782
684.187	0.0152676
684.265	0.0153223
684.343	0.0154615
684.422	0.0153527
684.500	0.0151776
684.578	0.0153145
684.656	0.0152151
684.734	0.0154063
684.812	0.0153833
684.890	0.0152567
684.968	0.0153336
685.047	0.0153865
685.125	0.0153992
685.203	0.0153542
685.281	0.0153138
685.359	0.0153413
685.437	0.0153461
685.515	0.0154336
685.593	0.0153006
685.672	0.0154812
685.750	0.0154878
685.828	0.0152394
685.906	0.0152154
685.984	0.0154025
686.062	0.0154460
686.140	0.0153664
686.218	0.0154584
686.297	0.0153250
686.375	0.0154607
686.453	0.0152699
686.531	0.0153875
686.609	0.0154175
686.687	0.0152728
686.765	0.0153425
686.843	0.0153334
686.922	0.0153867
687.000	0.0153568
687.078	0.0152920
687.156	0.0153851
687.234	0.0153216
687.312	0.0152554
687.390	0.0152945
687.468	0.0153271
687.547	0.0152266
687.625	0.0152264
687.703	0.0152734
687.781	0.0153047
687.859	0.0152845
687.937	0.0153205
688.015	0.0155041
688.093	0.0153090
688.172	0.0152205
688.250	0.0153759
688.328	0.0153684
688.406	0.0153834
688.484	0.0154633
688.562	0.0153018
688.640	0.0152536
688.718	0.0154640
688.797	0.0153041
688.875	0.0152632
688.953	0.0154140
689.031	0.0153040
689.109	0.0153193
689.187	0.0153886
689.265	0.0153120
689.343	0.0153255
689.422	0.0153046
689.500	0.0152425
689.578	0.0153053
689.656	0.0153797
689.734	0.0154599
689.812	0.0152749
689.890	0.0154443
689.968	0.0155035
690.047	0.0153378
690.125	0.0154007
690.203	0.0153609
690.281	0.0153244
690.359	0.0152034
690.437	0.0153757
690.515	0.0153246
690.593	0.0154387
690.672	0.0153182
690.750	0.0153699
690.828	0.0153156
690.906	0.0154630
690.984	0.0153304
691.062	0.0153657
691.140	0.0153589
691.218	0.0153544
691.297	0.0153656
691.375	0.0153646
691.453	0.0153218
691.531	0.0153297
691.609	0.0152047
691.687	0.0152484
691.765	0.0153322
691.843	0.0153303
691.922	0.0152693
692.000	0.0153882
692.078	0.0154453
692.156	0.0153561
692.234	0.0152564
692.312	0.0154362
692.390	0.0153170
692.468	0.0154451
692.547	0.0153361
692.625	0.0154308
692.703	0.0152949
692.781	0.0152799
692.859	0.0154278
692.937	0.0153688
693.015	0.0153085
693.093	0.0153733
693.172	0.0151962
693.250	0.0154634
693.328	0.0154092
693.406	0.0153512
693.484	0.0153214
693.562	0.0153625
693.640	0.0152312
693.718	0.0154008
693.797	0.0153679
693.875	0.0153523
693.953	0.0153160
694.031	0.0153147
694.109	0.0153874
694.187	0.0153759
694.265	0.0153400
694.343	0.0154967
694.422	0.0153794
694.500	0.0153098
694.578	0.0153584
694.656	0.0153392
694.734	0.0154031
694.812	0.0154295
694.890	0.0152997
694.968	0.0153344
695.047	0.0151653
695.125	0.0154742
695.203	0.0155357
695.281	0.0154630
695.359	0.0153830
695.437	0.0153656
695.515	0.0155223
695.593	0.0153041
695.672	0.0152601
695.750	0.0154057
695.828	0.0154777
695.906	0.0153846
695.984	0.0153922
696.062	0.0152596
696.140	0.0153104
696.218	0.0153325
696.297	0.0152880
696.375	0.0154305
696.453	0.0154022
696.531	0.0154353
696.609	0.0153200
696.687	0.0153721
696.765	0.0154093
696.843	0.0153508
696.922	0.0153742
697.000	0.0152905
697.078	0.0154668
697.156	0.0154318
697.234	0.0154252
697.312	0.0152686
697.390	0.0153060
697.468	0.0153652
697.547	0.0152873
697.625	0.0154171
697.703	0.0153759
697.781	0.0152747
697.859	0.0152578
697.937	0.0155118
698.015	0.0153780
698.093	0.0153449
698.172	0.0153091
698.250	0.0154417
698.328	0.0153334
698.406	0.0152394
698.484	0.0153773
698.562	0.0153786
698.640	0.0154429
698.718	0.0154145
698.797	0.0154721
698.875	0.0153995
698.953	0.0153065
699.031	0.0153742
699.109	0.0154810
699.187	0.0153564
699.265	0.0154124
699.343	0.0153668
699.422	0.0151817
699.500	0.0153107
699.578	0.0154252
699.656	0.0154261
699.734	0.0153857
699.812	0.0153239
699.890	0.0153448
699.968	0.0153516
700.047	0.0154120
700.125	0.0153511
700.203	0.0154086
700.281	0.0153008
700.359	0.0153621
700.437	0.0152762
700.515	0.0154246
700.593	0.0153333
700.672	0.0153128
700.750	0.0153075
700.828	0.0153999
700.906	0.0152968
700.984	0.0152116
701.062	0.0153908
701.140	0.0153801
701.218	0.0153376
701.297	0.0153449
701.375	0.0152534
701.453	0.0153794
701.531	0.0153235
701.609	0.0152573
701.687	0.0152030
701.765	0.0152373
701.843	0.0154571
701.922	0.0154000
702.000	0.0152178
702.078	0.0153985
702.156	0.0152712
702.234	0.0154796
702.312	0.0153396
702.390	0.0153725
702.468	0.0152564
702.547	0.0152887
702.625	0.0154601
702.703	0.0154914
702.781	0.0153089
702.859	0.0153896
702.937	0.0153954
703.015	0.0152763
703.093	0.0154472
703.172	0.0154849
703.250	0.0153287
703.328	0.0154269
703.406	0.0153474
703.484	0.0152659
703.562	0.0153621
703.640	0.0154501
703.718	0.0154209
703.797	0.0154761
703.875	0.0154378
703.953	0.0154755
704.031	0.0153996
704.109	0.0154455
704.187	0.0154766
704.265	0.0153761
704.343	0.0153635
704.422	0.0154518
704.500	0.0155029
704.578	0.0153833
704.656	0.0152905
704.734	0.0154152
704.812	0.0153215
704.890	0.0153471
704.968	0.0154031
705.047	0.0153674
705.125	0.0153513
705.203	0.0154679
705.281	0.0154552
705.359	0.0153824
705.437	0.0154283
705.515	0.0153684
705.593	0.0154139
705.672	0.0153488
705.750	0.0153294
705.828	0.0154741
705.906	0.0154094
705.984	0.0152998
706.062	0.0153416
706.140	0.0152534
706.218	0.0153181
706.297	0.0153490
706.375	0.0153150
706.453	0.0154879
706.531	0.0153094
706.609	0.0152845
706.687	0.0153402
706.765	0.0154773
706.843	0.0155112
706.922	0.0155756
707.000	0.0154530
707.078	0.0154674
707.156	0.0153409
707.234	0.0153281
707.312	0.0154230
707.390	0.0153655
707.468	0.0154792
707.547	0.0153839
707.625	0.0154657
707.703	0.0154906
707.781	0.0153216
707.859	0.0153938
707.937	0.0154559
708.015	0.0153514
708.093	0.0153781
708.172	0.0153829
708.250	0.0154000
708.328	0.0155363
708.406	0.0155670
708.484	0.0154774
708.562	0.0153227
708.640	0.0153752
708.718	0.0154983
708.797	0.0154219
708.875	0.0154633
708.953	0.0154240
709.031	0.0154424
709.109	0.0153895
709.187	0.0153944
709.265	0.0154196
709.343	0.0153210
709.422	0.0155045
709.500	0.0153948
709.578	0.0155553
709.656	0.0155306
709.734	0.0154378
709.812	0.0154568
709.890	0.0153334
709.968	0.0152782
710.047	0.0154127
710.125	0.0153683
710.203	0.0155410
710.281	0.0152953
710.359	0.0155217
710.437	0.0152600
710.515	0.0153001
710.593	0.0154160
710.672	0.0153642
710.750	0.0154109
710.828	0.0152485
710.906	0.0154044
710.984	0.0152268
711.062	0.0152664
711.140	0.0153868
711.218	0.0154033
711.297	0.0154140
711.375	0.0154391
711.453	0.0154402
711.531	0.0154798
711.609	0.0154259
711.687	0.0152740
711.765	0.0153127
711.843	0.0152997
711.922	0.0153197
712.000	0.0154253
712.078	0.0153839
712.156	0.0155048
712.234	0.0152643
712.312	0.0152718
712.390	0.0152608
712.468	0.0154567
712.547	0.0155150
712.625	0.0153214
712.703	0.0153701
712.781	0.0153303
712.859	0.0153011
712.937	0.0151910
713.015	0.0154047
713.093	0.0153593
713.172	0.0153210
713.250	0.0154588
713.328	0.0154053
713.406	0.0154589
713.484	0.0155282
713.562	0.0153127
713.640	0.0153925
713.718	0.0153686
713.797	0.0153520
713.875	0.0152699
713.953	0.0153261
714.031	0.0153785
714.109	0.0153449
714.187	0.0153893
714.265	0.0154469
714.343	0.0152913
714.422	0.0152332
714.500	0.0153633
714.578	0.0154946
714.656	0.0153815
714.734	0.0153615
714.812	0.0153957
714.890	0.0152505
714.968	0.0152430
715.047	0.0153845
715.125	0.0153861
715.203	0.0152728
715.281	0.0153664
715.359	0.0153497
715.437	0.0152151
715.515	0.0153297
715.593	0.0153552
715.672	0.0154916
715.750	0.0153106
715.828	0.0153686
715.906	0.0153516
715.984	0.0153401
716.062	0.0152378
716.140	0.0153670
716.218	0.0153181
716.297	0.0153518
716.375	0.0153662
716.453	0.0152509
716.531	0.0152714
716.609	0.0152881
716.687	0.0153497
716.765	0.0152391
716.843	0.0151180
716.922	0.0153795
717.000	0.0154308
717.078	0.0153752
717.156	0.0154040
717.234	0.0153333
717.312	0.0152070
717.390	0.0153600
717.468	0.0153972
717.547	0.0152573
717.625	0.0154010
717.703	0.0153814
717.781	0.0153199
717.859	0.0153745
717.937	0.0151822
718.015	0.0152914
718.093	0.0152943
718.172	0.0153726
718.250	0.0152855
718.328	0.0152827
718.406	0.0153864
718.484	0.0153076
718.562	0.0152368
718.640	0.0153161
718.718	0.0152996
718.797	0.0153210
718.875	0.0153297
718.953	0.0153632
719.031	0.0153805
719.109	0.0153331
719.187	0.0153532
719.265	0.0152673
719.343	0.0152597
719.422	0.0154713
719.500	0.0154412
719.578	0.0153545
719.656	0.0153529
719.734	0.0153785
719.812	0.0151757
719.890	0.0152917
719.968	0.0152920
720.047	0.0153329
720.125	0.0152760
720.203	0.0153559
720.281	0.0152151
720.359	0.0152088
720.437	0.0154260
720.515	0.0153829
720.593	0.0154031
720.672	0.0154034
720.750	0.0151743
720.828	0.0152842
720.906	0.0154971
720.984	0.0153363
721.062	0.0152511
721.140	0.0154082
721.218	0.0154313
721.297	0.0153408
721.375	0.0152549
721.453	0.0152959
721.531	0.0154381
721.609	0.0153245
721.687	0.0153489
721.765	0.0151938
721.843	0.0152052
721.922	0.0153722
722.000	0.0153717
722.078	0.0152728
722.156	0.0154019
722.234	0.0154040
722.312	0.0152637
722.390	0.0153580
722.468	0.0153604
722.547	0.0152705
722.625	0.0152434
722.703	0.0154849
722.781	0.0152344
722.859	0.0154322
722.937	0.0154780
723.015	0.0153841
723.093	0.0152544
723.172	0.0154772
723.250	0.0155051
723.328	0.0153025
723.406	0.0154037
723.484	0.0153806
723.562	0.0153500
723.640	0.0154223
723.718	0.0153226
723.797	0.0152257
723.875	0.0153611
723.953	0.0153788
724.031	0.0153135
724.109	0.0153379
724.187	0.0154110
724.265	0.0154494
724.343	0.0153172
724.422	0.0154097
724.500	0.0154324
724.578	0.0153959
724.656	0.0153448
724.734	0.0154123
724.812	0.0152547
724.890	0.0153783
724.968	0.0155144
725.047	0.0152798
725.125	0.0152819
725.203	0.0153817
725.281	0.0154934
725.359	0.0153416
725.437	0.0153387
725.515	0.0152608
725.593	0.0152573
725.672	0.0155749
725.750	0.0154093
725.828	0.0153253
725.906	0.0153159
725.984	0.0153444
726.062	0.0153374
726.140	0.0153992
726.218	0.0155466
726.297	0.0153043
726.375	0.0153319
726.453	0.0153344
726.531	0.0153401
726.609	0.0155323
726.687	0.0153022
726.765	0.0152431
726.843	0.0152772
726.922	0.0153667
727.000	0.0153884
727.078	0.0154695
727.156	0.0153878
727.234	0.0154952
727.312	0.0154152
727.390	0.0153520
727.468	0.0152468
727.547	0.0153402
727.625	0.0153302
727.703	0.0152657
727.781	0.0154125
727.859	0.0156097
727.937	0.0153980
728.015	0.0152916
728.093	0.0154699
728.172	0.0155151
728.250	0.0154817
728.328	0.0154527
728.406	0.0154565
728.484	0.0154063
728.562	0.0154996
728.640	0.0154530
728.718	0.0152950
728.797	0.0154314
728.875	0.0152856
728.953	0.0154321
729.031	0.0154266
729.109	0.0153449
729.187	0.0154874
729.265	0.0154977
729.343	0.0153802
729.422	0.0153959
729.500	0.0156058
729.578	0.0153693
729.656	0.0153057
729.734	0.0156020
729.812	0.0154949
729.890	0.0154393
729.968	0.0153334
730.047	0.0154105
730.125	0.0154452
730.203	0.0154168
730.281	0.0153310
730.359	0.0153120
730.437	0.0155006
730.515	0.0154900
730.593	0.0153291
730.672	0.0152818
730.750	0.0154356
730.828	0.0153836
730.906	0.0155692
730.984	0.0154057
731.062	0.0153996
731.140	0.0153522
731.218	0.0154525
731.297	0.0153892
731.375	0.0154923
731.453	0.0153616
731.531	0.0153349
731.609	0.0154654
731.687	0.0154648
731.765	0.0155134
731.843	0.0155031
731.922	0.0154381
732.000	0.0153939
732.078	0.0153865
732.156	0.0154084
732.234	0.0154870
732.312	0.0153458
732.390	0.0153239
732.468	0.0153514
732.547	0.0154855
732.625	0.0155109
732.703	0.0155521
732.781	0.0155186
732.859	0.0153300
732.937	0.0152489
733.015	0.0154128
733.093	0.0154221
733.172	0.0153535
733.250	0.0153618
733.328	0.0152753
733.406	0.0153492
733.484	0.0153950
733.562	0.0153881
733.640	0.0153895
733.718	0.0152589
733.797	0.0153343
733.875	0.0155122
733.953	0.0154858
734.031	0.0153883
734.109	0.0153145
734.187	0.0153885
734.265	0.0154073
734.343	0.0153394
734.422	0.0153106
734.500	0.0153031
734.578	0.0153712
734.656	0.0154346
734.734	0.0152169
734.812	0.0154836
734.890	0.0152146
734.968	0.0152698
735.047	0.0152638
735.125	0.0152058
735.203	0.0153323
735.281	0.0155090
735.359	0.0154105
735.437	0.0152849
735.515	0.0153815
735.593	0.0153793
735.672	0.0153069
735.750	0.0153008
735.828	0.0153330
735.906	0.0152629
735.984	0.0153091
736.062	0.0154003
736.140	0.0151875
736.218	0.0151820
736.297	0.0153072
736.375	0.0153827
736.453	0.0153276
736.531	0.0151936
736.609	0.0152585
736.687	0.0151553
736.765	0.0154155
736.843	0.0153313
736.922	0.0153183
737.000	0.0152391
737.078	0.0153041
737.156	0.0154492
737.234	0.0153024
737.312	0.0153469
737.390	0.0153926
737.468	0.0153377
737.547	0.0153345
737.625	0.0153226
737.703	0.0153036
737.781	0.0152523
737.859	0.0153151
737.937	0.0151778
738.015	0.0152766
738.093	0.0151648
738.172	0.0151786
738.250	0.0152022
738.328	0.0152034
738.406	0.0151283
738.484	0.0152326
738.562	0.0152480
738.640	0.0153274
738.718	0.0153246
738.797	0.0153864
738.875	0.0153355
738.953	0.0153116
739.031	0.0153576
739.109	0.0152404
739.187	0.0153069
739.265	0.0152798
739.343	0.0152975
739.422	0.0151345
739.500	0.0151646
739.578	0.0151980
739.656	0.0151246
739.734	0.0150406
739.812	0.0150951
739.890	0.0151994
739.968	0.0152387
740.047	0.0152146
740.125	0.0152747
740.203	0.0152728
740.281	0.0152299
740.359	0.0153133
740.437	0.0152938
740.515	0.0152364
740.593	0.0152522
740.672	0.0152112
740.750	0.0151937
740.828	0.0152459
740.906	0.0153046
740.984	0.0151566
741.062	0.0151931
741.140	0.0151659
741.218	0.0153571
741.297	0.0153079
741.375	0.0152181
741.453	0.0152046
741.531	0.0151565
741.609	0.0152878
741.687	0.0152419
741.765	0.0151617
741.843	0.0152663
741.922	0.0154079
742.000	0.0154237
742.078	0.0153081
742.156	0.0151655
742.234	0.0154324
742.312	0.0153857
742.390	0.0154485
742.468	0.0154124
742.547	0.0153706
742.625	0.0152914
742.703	0.0153691
742.781	0.0153011
742.859	0.0151062
742.937	0.0152698
743.015	0.0150771
743.093	0.0152129
743.172	0.0151874
743.250	0.0150085
743.328	0.0151463
743.406	0.0150066
743.484	0.0151854
743.562	0.0152377
743.640	0.0152144
743.718	0.0153441
743.797	0.0153986
743.875	0.0153243
743.953	0.0153151
744.031	0.0155775
744.109	0.0155345
744.187	0.0154525
744.265	0.0154069
744.343	0.0154533
744.422	0.0154523
744.500	0.0154313
744.578	0.0153250
744.656	0.0152785
744.734	0.0151492
744.812	0.0152265
744.890	0.0151841
744.968	0.0152290
745.047	0.0151939
745.125	0.0152106
745.203	0.0153531
745.281	0.0154384
745.359	0.0154191
745.437	0.0154084
745.515	0.0153985
745.593	0.0155086
745.672	0.0156392
745.750	0.0155956
745.828	0.0155371
745.906	0.0154107
745.984	0.0154415
746.062	0.0153902
746.140	0.0153400
746.218	0.0154016
746.297	0.0153023
746.375	0.0152624
746.453	0.0152985
746.531	0.0152161
746.609	0.0151189
746.687	0.0153478
746.765	0.0153545
746.843	0.0153770
746.922	0.0152354
747.000	0.0152221
747.078	0.0154095
747.156	0.0152630
747.234	0.0154276
747.312	0.0153186
747.390	0.0154709
747.468	0.0155840
747.547	0.0154798
747.625	0.0155199
747.703	0.0155473
747.781	0.0154595
747.859	0.0155682
747.937	0.0153584
748.015	0.0152587
748.093	0.0153030
748.172	0.0152081
748.250	0.0150816
748.328	0.0151208
748.406	0.0151534
748.484	0.0151422
748.562	0.0151299
748.640	0.0150973
748.718	0.0152882
748.797	0.0151440
748.875	0.0153108
748.953	0.0155000
749.031	0.0154250
749.109	0.0154961
749.187	0.0156966
749.265	0.0158389
749.343	0.0157814
749.422	0.0157675
749.500	0.0157089
749.578	0.0156991
749.656	0.0159442
749.734	0.0156918
749.812	0.0156651
749.890	0.0155460
749.968	0.0153815
750.047	0.0152938
750.125	0.0151882
750.203	0.0151970
750.281	0.0150550
750.359	0.0151465
750.437	0.0151335
750.515	0.0151514
750.593	0.0149663
750.672	0.0150256
750.750	0.0150577
750.828	0.0150317
750.906	0.0151965
750.984	0.0153294
751.062	0.0153299
751.140	0.0154993
751.218	0.0154728
751.297	0.0153584
751.375	0.0153870
751.453	0.0151684
751.531	0.0153001
751.609	0.0152491
751.687	0.0149606
751.765	0.0149265
751.843	0.0150935
751.922	0.0150234
752.000	0.0150167
752.078	0.0151031
752.156	0.0152930
752.234	0.0152209
752.312	0.0153304
752.390	0.0155304
752.468	0.0155417
752.547	0.0158144
752.625	0.0159212
752.703	0.0160030
752.781	0.0161050
752.859	0.0161349
752.937	0.0162398
753.015	0.0160959
753.093	0.0161614
753.172	0.0159911
753.250	0.0159539
753.328	0.0157741
753.406	0.0158041
753.484	0.0158420
753.562	0.0155894
753.640	0.0156172
753.718	0.0154871
753.797	0.0154478
753.875	0.0153578
753.953	0.0152750
754.031	0.0151546
754.109	0.0151093
754.187	0.0150735
754.265	0.0149825
754.343	0.0149085
754.422	0.0148091
754.500	0.0149143
754.578	0.0149048
754.656	0.0147686
754.734	0.0147764
754.812	0.0148681
754.890	0.0146719
754.968	0.0146095
755.047	0.0145246
755.125	0.0144746
755.203	0.0144131
755.281	0.0144682
755.359	0.0144039
755.437	0.0144480
755.515	0.0146031
755.593	0.0147114
755.672	0.0148840
755.750	0.0150622
755.828	0.0150588
755.906	0.0152494
755.984	0.0155515
756.062	0.0158815
756.140	0.0159587
756.218	0.0159624
756.297	0.0164448
756.375	0.0165554
756.453	0.0167926
756.531	0.0167965
756.609	0.0167289
756.687	0.0166727
756.765	0.0166553
756.843	0.0165706
756.922	0.0165020
757.000	0.0163318
757.078	0.0160102
757.156	0.0158883
757.234	0.0155912
757.312	0.0155785
757.390	0.0157291
757.468	0.0155254
757.547	0.0156076
757.625	0.0155898
757.703	0.0156880
757.781	0.0157594
757.859	0.0157158
757.937	0.0158341
758.015	0.0158562
758.093	0.0157144
758.172	0.0154480
758.250	0.0153629
758.328	0.0150239
758.406	0.0146504
758.484	0.0143267
758.562	0.0141431
758.640	0.0138501
758.718	0.0137165
758.797	0.0134541
758.875	0.0131886
758.953	0.0132352
759.031	0.0130355
759.109	0.0130473
759.187	0.0131587
759.265	0.0132991
759.343	0.0135658
759.422	0.0139621
759.500	0.0141141
759.578	0.0142507
759.656	0.0147540
759.734	0.0151184
759.812	0.0153727
759.890	0.0155920
759.968	0.0156903
760.047	0.0159555
760.125	0.0159368
760.203	0.0160804
760.281	0.0160594
760.359	0.0161112
760.437	0.0160858
760.515	0.0163635
760.593	0.0164585
760.672	0.0166515
760.750	0.0168256
760.828	0.0168877
760.906	0.0171231
760.984	0.0172021
761.062	0.0172597
761.140	0.0172546
761.218	0.0172956
761.297	0.0174471
761.375	0.0173409
761.453	0.0174097
761.531	0.0174467
761.609	0.0173915
761.687	0.0174127
761.765	0.0173018
761.843	0.0171523
761.922	0.0169686
762.000	0.0167634
762.078	0.0167038
762.156	0.0166318
762.234	0.0163909
762.312	0.0160799
762.390	0.0159133
762.468	0.0156738
762.547	0.0153898
762.625	0.0150037
762.703	0.0147007
762.781	0.0143336
762.859	0.0136091
762.937	0.0130974
763.015	0.0124755
763.093	0.0118344
763.172	0.0112012
763.250	0.0104517
763.328	0.0101563
763.406	0.00978615
763.484	0.00960831
763.562	0.00950378
763.640	0.00940659
763.718	0.00946999
763.797	0.00995834
763.875	0.0101692
763.953	0.0107387
764.031	0.0114185
764.109	0.0121003
764.187	0.0131381
764.265	0.0140859
764.343	0.0150746
764.422	0.0159333
764.500	0.0170188
764.578	0.0179661
764.656	0.0187835
764.734	0.0195872
764.812	0.0202976
764.890	0.0208501
764.968	0.0215405
765.047	0.0218532
765.125	0.0220966
765.203	0.0220654
765.281	0.0219576
765.359	0.0219022
765.437	0.0215785
765.515	0.0211346
765.593	0.0208517
765.672	0.0202543
765.750	0.0198671
765.828	0.0192018
765.906	0.0184936
765.984	0.0177619
766.062	0.0171009
766.140	0.0163491
766.218	0.0155759
766.297	0.0147576
766.375	0.0140462
766.453	0.0132793
766.531	0.0126320
766.609	0.0121038
766.687	0.0114925
766.765	0.0111410
766.843	0.0109956
766.922	0.0110073
767.000	0.0108282
767.078	0.0109012
767.156	0.0110256
767.234	0.0112880
767.312	0.0115091
767.390	0.0118861
767.468	0.0119799
767.547	0.0123562
767.625	0.0125802
767.703	0.0127405
767.781	0.0128017
767.859	0.0128964
767.937	0.0128053
768.015	0.0126826
768.093	0.0125668
768.172	0.0126383
768.250	0.0127498
768.328	0.0127354
768.406	0.0127892
768.484	0.0129452
768.562	0.0135101
768.640	0.0139111
768.718	0.0144560
768.797	0.0150693
768.875	0.0157034
768.953	0.0162928
769.031	0.0170251
769.109	0.0177197
769.187	0.0184529
769.265	0.0191843
769.343	0.0197349
769.422	0.0202582
769.500	0.0206246
769.578	0.0210751
769.656	0.0212541
769.734	0.0215115
769.812	0.0215420
769.890	0.0212323
769.968	0.0209547
770.047	0.0206897
770.125	0.0200205
770.203	0.0193584
770.281	0.0186214
770.359	0.0180538
770.437	0.0173454
770.515	0.0165836
770.593	0.0158306
770.672	0.0151061
770.750	0.0147166
770.828	0.0141165
770.906	0.0139735
770.984	0.0132666
771.062	0.0131606
771.140	0.0130212
771.218	0.0130226
771.297	0.0130170
771.375	0.0130673
771.453	0.0132095
771.531	0.0133286
771.609	0.0134184
771.687	0.0132838
771.765	0.0134209
771.843	0.0133633
771.922	0.0130811
772.000	0.0129942
772.078	0.0131554
772.156	0.0128341
772.234	0.0126723
772.312	0.0123560
772.390	0.0121797
772.468	0.0119630
772.547	0.0116451
772.625	0.0114467
772.703	0.0113567
772.781	0.0114418
772.859	0.0114272
772.937	0.0116833
773.015	0.0119914
773.093	0.0125919
773.172	0.0130367
773.250	0.0135274
773.328	0.0142596
773.406	0.0148200
773.484	0.0153458
773.562	0.0159558
773.640	0.0164851
773.718	0.0168705
773.797	0.0172774
773.875	0.0177549
773.953	0.0181895
774.031	0.0185846
774.109	0.0188976
774.187	0.0191658
774.265	0.0195226
774.343	0.0197545
774.422	0.0200345
774.500	0.0202030
774.578	0.0202086
774.656	0.0202512
774.734	0.0201578
774.812	0.0199503
774.890	0.0196349
774.968	0.0192467
775.047	0.0190777
775.125	0.0185260
775.203	0.0179290
775.281	0.0174453
775.359	0.0168753
775.437	0.0162962
775.515	0.0156174
775.593	0.0149570
775.672	0.0146206
775.750	0.0141562
775.828	0.0136836
775.906	0.0133186
775.984	0.0131269
776.062	0.0130876
776.140	0.0130534
776.218	0.0130409
776.297	0.0132079
776.375	0.0135164
776.453	0.0137196
776.531	0.0138777
776.609	0.0140092
776.687	0.0140427
776.765	0.0142553
776.843	0.0141684
776.922	0.0140296
777.000	0.0138984
777.078	0.0135480
777.156	0.0134270
777.234	0.0130483
777.312	0.0126344
777.390	0.0123161
777.468	0.0119589
777.547	0.0116365
777.625	0.0113355
777.703	0.0113108
777.781	0.0112806
777.859	0.0111717
777.937	0.0114452
778.015	0.0115282
778.093	0.0121479
778.172	0.0127841
778.250	0.0135595
778.328	0.0143623
778.406	0.0150043
778.484	0.0159028
778.562	0.0166528
778.640	0.0175436
778.718	0.0179985
778.797	0.0184348
778.875	0.0187802
778.953	0.0193324
779.031	0.0195741
779.109	0.0198878
779.187	0.0199715
779.265	0.0202249
779.343	0.0203376
779.422	0.0202815
779.500	0.0201292
779.578	0.0200223
779.656	0.0197840
779.734	0.0192978
779.812	0.0190163
779.890	0.0186547
779.968	0.0182639
780.047	0.0179264
780.125	0.0177880
780.203	0.0173189
780.281	0.0169222
780.359	0.0165783
780.437	0.0160961
780.515	0.0158856
780.593	0.0155305
780.672	0.0150162
780.750	0.0146815
780.828	0.0143484
780.906	0.0139121
780.984	0.0136009
781.062	0.0131477
781.140	0.0128234
781.218	0.0125465
781.297	0.0121732
781.375	0.0119427
781.453	0.0115874
781.531	0.0113673
781.609	0.0111900
781.687	0.0110623
781.765	0.0111341
781.843	0.0111057
781.922	0.0111305
782.000	0.0112142
782.078	0.0113879
782.156	0.0116397
782.234	0.0120210
782.312	0.0124100
782.390	0.0126933
782.468	0.0129396
782.547	0.0134622
782.625	0.0138285
782.703	0.0143506
782.781	0.0149110
782.859	0.0156200
782.937	0.0160529
783.015	0.0168080
783.093	0.0173717
783.172	0.0180416
783.250	0.0186578
783.328	0.0192571
783.406	0.0194120
783.484	0.0198342
783.562	0.0200243
783.640	0.0200447
783.718	0.0200037
783.797	0.0197100
783.875	0.0194225
783.953	0.0190997
784.031	0.0185228
784.109	0.0180994
784.187	0.0177551
784.265	0.0171144
784.343	0.0166753
784.422	0.0160958
784.500	0.0156827
784.578	0.0154175
784.656	0.0151189
784.734	0.0148312
784.812	0.0145498
784.890	0.0146545
784.968	0.0146604
785.047	0.0143608
785.125	0.0143294
785.203	0.0142966
785.281	0.0142999
785.359	0.0142381
785.437	0.0140707
785.515	0.0140891
785.593	0.0138406
785.672	0.0137413
785.750	0.0136192
785.828	0.0135123
785.906	0.0134127
785.984	0.0133663
786.062	0.0132414
786.140	0.0132783
786.218	0.0134061
786.297	0.0135327
786.375	0.0137181
786.453	0.0139583
786.531	0.0141895
786.609	0.0143254
786.687	0.0143429
786.765	0.0144055
786.843	0.0146099
786.922	0.0146870
787.000	0.0147179
787.078	0.0148158
787.156	0.0148882
787.234	0.0149265
787.312	0.0148224
787.390	0.0148116
787.468	0.0151336
787.547	0.0151794
787.625	0.0153297
787.703	0.0155193
787.781	0.0157954
787.859	0.0164921
787.937	0.0169400
788.015	0.0174475
788.093	0.0177552
788.172	0.0185226
788.250	0.0186575
788.328	0.0190852
788.406	0.0192397
788.484	0.0192967
788.562	0.0193790
788.640	0.0192484
788.718	0.0189869
788.797	0.0184787
788.875	0.0182618
788.953	0.0178745
789.031	0.0172408
789.109	0.0164563
789.187	0.0160020
789.265	0.0152617
789.343	0.0145627
789.422	0.0138042
789.500	0.0132030
789.578	0.0128036
789.656	0.0123765
789.734	0.0119932
789.812	0.0117268
789.890	0.0115314
789.968	0.0114661
790.047	0.0113583
790.125	0.0115268
790.203	0.0115254
790.281	0.0117398
790.359	0.0117517
790.437	0.0120147
790.515	0.0123441
790.593	0.0127415
790.672	0.0130855
790.750	0.0134821
790.828	0.0138319
790.906	0.0142457
790.984	0.0147565
791.062	0.0150365
791.140	0.0153850
791.218	0.0157011
791.297	0.0160487
791.375	0.0163989
791.453	0.0165826
791.531	0.0166734
791.609	0.0168669
791.687	0.0171094
791.765	0.0170828
791.843	0.0172651
791.922	0.0172079
792.000	0.0172224
792.078	0.0172729
792.156	0.0172593
792.234	0.0170200
792.312	0.0171384
792.390	0.0170737
792.468	0.0170630
792.547	0.0169225
792.625	0.0170380
792.703	0.0172482
792.781	0.0172340
792.859	0.0172896
792.937	0.0173546
793.015	0.0174387
793.093	0.0173485
793.172	0.0175023
793.250	0.0173856
793.328	0.0171661
793.406	0.0170271
793.484	0.0167963
793.562	0.0165021
793.640	0.0162040
793.718	0.0157878
793.797	0.0153956
793.875	0.0150282
793.953	0.0146427
794.031	0.0142442
794.109	0.0136243
794.187	0.0133851
794.265	0.0129857
794.343	0.0126001
794.422	0.0120599
794.500	0.0118891
794.578	0.0117149
794.656	0.0115339
794.734	0.0115776
794.812	0.0113844
794.890	0.0114805
794.968	0.0116441
795.047	0.0118864
795.125	0.0120770
795.203	0.0125759
795.281	0.0130500
795.359	0.0132561
795.437	0.0136843
795.515	0.0141119
795.593	0.0145324
795.672	0.0148425
795.750	0.0154464
795.828	0.0157452
795.906	0.0161786
795.984	0.0164345
796.062	0.0169137
796.140	0.0171622
796.218	0.0174589
796.297	0.0177652
796.375	0.0178568
796.453	0.0179637
796.531	0.0180356
796.609	0.0181138
796.687	0.0180479
796.765	0.0177217
796.843	0.0176019
796.922	0.0174602
797.000	0.0171283
797.078	0.0169727
797.156	0.0166799
797.234	0.0162390
797.312	0.0161958
797.390	0.0160289
797.468	0.0157291
797.547	0.0156405
797.625	0.0156022
797.703	0.0154556
797.781	0.0154164
797.859	0.0153780
797.937	0.0154071
798.015	0.0153090
798.093	0.0153076
798.172	0.0153035
798.250	0.0155125
798.328	0.0155171
798.406	0.0155080
798.484	0.0156612
798.562	0.0158004
798.640	0.0155074
798.718	0.0156442
798.797	0.0154830
798.875	0.0154017
798.953	0.0153483
799.031	0.0149758
799.109	0.0148517
799.187	0.0146112
799.265	0.0142407
799.343	0.0140420
799.422	0.0136888
799.500	0.0135323
799.578	0.0133073
799.656	0.0130185
799.734	0.0128770
799.812	0.0129013
799.890	0.0127842
799.968	0.0129199
800.047	0.0129764
800.125	0.0132679
800.203	0.0135264
800.281	0.0138667
800.359	0.0142166
800.437	0.0146259
800.515	0.0150865
800.593	0.0156530
800.672	0.0160894
800.750	0.0163743
800.828	0.0169495
800.906	0.0173685
800.984	0.0177042
801.062	0.0178237
801.140	0.0179289
801.218	0.0180798
801.297	0.0180630
801.375	0.0178935
801.453	0.0176344
801.531	0.0173036
801.609	0.0171522
801.687	0.0165946
801.765	0.0161407
801.843	0.0157938
801.922	0.0154506
802.000	0.0152718
802.078	0.0148895
802.156	0.0145194
802.234	0.0144553
802.312	0.0140987
802.390	0.0140817
802.468	0.0140661
802.547	0.0140070
802.625	0.0140948
802.703	0.0142592
802.781	0.0142175
802.859	0.0143764
802.937	0.0145019
803.015	0.0148205
803.093	0.0148896
803.172	0.0152708
803.250	0.0154494
803.328	0.0156660
803.406	0.0157798
803.484	0.0158657
803.562	0.0159343
803.640	0.0161831
803.718	0.0161150
803.797	0.0163106
803.875	0.0160774
803.953	0.0161505
804.031	0.0160931
804.109	0.0160237
804.187	0.0159259
804.265	0.0157047
804.343	0.0156030
804.422	0.0154545
804.500	0.0153117
804.578	0.0150509
804.656	0.0149613
804.734	0.0147493
804.812	0.0146521
804.890	0.0146779
804.968	0.0146471
805.047	0.0147282
805.125	0.0147841
805.203	0.0147412
805.281	0.0148248
805.359	0.0150227
805.437	0.0150681
805.515	0.0150610
805.593	0.0151985
805.672	0.0154688
805.750	0.0156472
805.828	0.0159204
805.906	0.0158878
805.984	0.0160723
806.062	0.0161705
806.140	0.0160219
806.218	0.0159966
806.297	0.0161467
806.375	0.0160535
806.453	0.0158788
806.531	0.0157891
806.609	0.0154211
806.687	0.0154527
806.765	0.0154329
806.843	0.0152345
806.922	0.0149433
807.000	0.0151575
807.078	0.0149903
807.156	0.0149279
807.234	0.0147667
807.312	0.0146995
807.390	0.0147065
807.468	0.0147852
807.547	0.0147295
807.625	0.0144660
807.703	0.0146606
807.781	0.0147453
807.859	0.0147866
807.937	0.0149725
808.015	0.0150709
808.093	0.0150756
808.172	0.0151585
808.250	0.0153056
808.328	0.0154996
808.406	0.0156200
808.484	0.0155587
808.562	0.0157870
808.640	0.0158008
808.718	0.0158945
808.797	0.0158061
808.875	0.0158909
808.953	0.0158455
809.031	0.0158894
809.109	0.0158310
809.187	0.0157095
809.265	0.0156786
809.343	0.0155249
809.422	0.0155840
809.500	0.0154735
809.578	0.0153848
809.656	0.0154150
809.734	0.0154278
809.812	0.0152863
809.890	0.0153313
809.968	0.0153308
810.047	0.0153483
810.125	0.0152747
810.203	0.0153560
810.281	0.0152407
810.359	0.0153796
810.437	0.0154381
810.515	0.0153489
810.593	0.0153563
810.672	0.0154597
810.750	0.0156312
810.828	0.0155873
810.906	0.0156059
810.984	0.0156464
811.062	0.0156699
811.140	0.0156770
811.218	0.0154224
811.297	0.0155567
811.375	0.0156183
811.453	0.0154577
811.531	0.0153915
811.609	0.0154539
811.687	0.0155944
811.765	0.0154913
811.843	0.0153347
811.922	0.0152191
812.000	0.0151806
812.078	0.0150402
812.156	0.0150723
812.234	0.0149591
812.312	0.0150352
812.390	0.0147889
812.468	0.0147208
812.547	0.0148531
812.625	0.0147688
812.703	0.0149186
812.781	0.0149207
812.859	0.0148234
812.937	0.0148667
813.015	0.0149237
813.093	0.0149855
813.172	0.0149709
813.250	0.0152275
813.328	0.0152157
813.406	0.0153332
813.484	0.0154953
813.562	0.0156505
813.640	0.0156496
813.718	0.0156339
813.797	0.0156698
813.875	0.0155912
813.953	0.0155209
814.031	0.0155343
814.109	0.0155872
814.187	0.0153778
814.265	0.0154249
814.343	0.0154653
814.422	0.0152127
814.500	0.0154078
814.578	0.0151806
814.656	0.0152786
814.734	0.0152799
814.812	0.0150977
814.890	0.0152634
814.968	0.0153519
815.047	0.0153574
815.125	0.0152409
815.203	0.0153564
815.281	0.0153625
815.359	0.0153976
815.437	0.0153979
815.515	0.0153565
815.593	0.0156243
815.672	0.0153985
815.750	0.0154058
815.828	0.0155340
815.906	0.0156258
815.984	0.0155903
816.062	0.0156744
816.140	0.0155474
816.218	0.0156427
816.297	0.0155968
816.375	0.0155328
816.453	0.0154499
816.531	0.0155339
816.609	0.0153905
816.687	0.0153104
816.765	0.0153793
816.843	0.0152482
816.922	0.0151530
817.000	0.0151402
817.078	0.0151283
817.156	0.0150166
817.234	0.0150898
817.312	0.0150034
817.390	0.0150945
817.468	0.0149638
817.547	0.0150205
817.625	0.0150440
817.703	0.0150453
817.781	0.0150280
817.859	0.0151653
817.937	0.0153089
818.015	0.0151305
818.093	0.0151118
818.172	0.0151782
818.250	0.0152348
818.328	0.0152647
818.406	0.0153352
818.484	0.0152513
818.562	0.0152608
818.640	0.0153175
818.718	0.0152012
818.797	0.0152365
818.875	0.0152816
818.953	0.0154113
819.031	0.0153029
819.109	0.0154642
819.187	0.0156258
819.265	0.0155648
819.343	0.0156034
819.422	0.0157079
819.500	0.0156353
819.578	0.0156403
819.656	0.0157207
819.734	0.0155841
819.812	0.0157075
819.890	0.0155077
819.968	0.0156087
820.047	0.0155090
820.125	0.0155092
820.203	0.0153779
820.281	0.0152807
820.359	0.0153045
820.437	0.0151582
820.515	0.0152535
820.593	0.0151326
820.672	0.0152193
820.750	0.0150846
820.828	0.0150928
820.906	0.0151574
820.984	0.0151809
821.062	0.0151069
821.140	0.0151299
821.218	0.0152402
821.297	0.0152180
821.375	0.0152591
821.453	0.0151890
821.531	0.0152280
821.609	0.0151893
821.687	0.0152248
821.765	0.0150955
821.843	0.0151778
821.922	0.0152384
822.000	0.0151299
822.078	0.0152238
822.156	0.0152637
822.234	0.0151460
822.312	0.0151307
822.390	0.0153307
822.468	0.0153784
822.547	0.0153932
822.625	0.0153712
822.703	0.0153908
822.781	0.0154031
822.859	0.0155054
822.937	0.0154243
823.015	0.0153857
823.093	0.0156560
823.172	0.0154185
823.250	0.0155285
823.328	0.0155074
823.406	0.0154368
823.484	0.0156171
823.562	0.0155861
823.640	0.0155773
823.718	0.0157297
823.797	0.0158312
823.875	0.0157038
823.953	0.0156420
824.031	0.0157380
824.109	0.0157632
824.187	0.0156819
824.265	0.0156772
824.343	0.0157719
824.422	0.0157116
824.500	0.0157150
824.578	0.0155988
824.656	0.0155911
824.734	0.0153291
824.812	0.0154568
824.890	0.0154458
824.968	0.0153353
825.047	0.0153233
825.125	0.0151226
825.203	0.0150450
825.281	0.0150271
825.359	0.0149638
825.437	0.0149980
825.515	0.0149746
825.593	0.0148284
825.672	0.0149834
825.750	0.0151039
825.828	0.0149864
825.906	0.0150954
825.984	0.0149882
826.062	0.0150178
826.140	0.0150095
826.218	0.0151203
826.297	0.0151592
826.375	0.0151386
826.453	0.0151340
826.531	0.0150990
826.609	0.0150996
826.687	0.0154362
826.765	0.0153934
826.843	0.0153696
826.922	0.0155505
827.000	0.0154587
827.078	0.0152245
827.156	0.0153009
827.234	0.0154382
827.312	0.0153198
827.390	0.0153815
827.468	0.0152742
827.547	0.0152403
827.625	0.0151884
827.703	0.0151405
827.781	0.0151933
827.859	0.0153061
827.937	0.0151467
828.015	0.0152106
828.093	0.0152261
828.172	0.0153790
828.250	0.0156071
828.328	0.0154809
828.406	0.0155647
828.484	0.0157392
828.562	0.0157394
828.640	0.0156751
828.718	0.0157334
828.797	0.0158865
828.875	0.0159372
828.953	0.0156844
829.031	0.0157523
829.109	0.0159631
829.187	0.0158443
829.265	0.0157667
829.343	0.0157034
829.422	0.0157082
829.500	0.0156411
829.578	0.0156036
829.656	0.0154945
829.734	0.0154086
829.812	0.0153501
829.890	0.0153300
829.968	0.0154146
830.047	0.0153439
830.125	0.0152565
830.203	0.0152769
830.281	0.0151318
830.359	0.0150536
830.437	0.0151398
830.515	0.0151213
830.593	0.0150111
830.672	0.0150605
830.750	0.0151442
830.828	0.0151925
830.906	0.0151035
830.984	0.0151548
831.062	0.0152164
831.140	0.0153163
831.218	0.0153284
831.297	0.0152391
831.375	0.0152000
831.453	0.0151595
831.531	0.0151573
831.609	0.0150758
831.687	0.0152255
831.765	0.0152422
831.843	0.0150711
831.922	0.0152461
832.000	0.0152110
832.078	0.0152244
832.156	0.0153130
832.234	0.0152093
832.312	0.0154053
832.390	0.0154494
832.468	0.0153806
832.547	0.0155714
832.625	0.0154700
832.703	0.0155418
832.781	0.0156621
832.859	0.0155627
832.937	0.0156346
833.015	0.0157260
833.093	0.0155199
833.172	0.0155534
833.250	0.0156781
833.328	0.0154978
833.406	0.0153600
833.484	0.0153767
833.562	0.0153546
833.640	0.0152791
833.718	0.0150884
833.797	0.0152173
833.875	0.0151102
833.953	0.0152090
834.031	0.0152571
834.109	0.0151035
834.187	0.0150410
834.265	0.0152853
834.343	0.0151922
834.422	0.0152783
834.500	0.0153971
834.578	0.0153759
834.656	0.0154465
834.734	0.0154800
834.812	0.0155253
834.890	0.0155746
834.968	0.0155704
835.047	0.0154202
835.125	0.0155451
835.203	0.0155254
835.281	0.0153743
835.359	0.0154530
835.437	0.0155413
835.515	0.0153624
835.593	0.0154131
835.672	0.0153681
835.750	0.0154232
835.828	0.0155096
835.906	0.0154417
835.984	0.0153983
836.062	0.0153170
836.140	0.0152891
836.218	0.0153133
836.297	0.0155434
836.375	0.0154267
836.453	0.0153434
836.531	0.0154630
836.609	0.0153162
836.687	0.0154427
836.765	0.0152917
836.843	0.0152247
836.922	0.0153463
837.000	0.0153741
837.078	0.0152061
837.156	0.0155023
837.234	0.0153253
837.312	0.0152582
837.390	0.0152251
837.468	0.0151813
837.547	0.0152835
837.625	0.0152972
837.703	0.0152885
837.781	0.0152548
837.859	0.0153804
837.937	0.0151558
838.015	0.0151763
838.093	0.0152741
838.172	0.0152637
838.250	0.0153299
838.328	0.0152280
838.406	0.0151231
838.484	0.0150401
838.562	0.0150627
838.640	0.0152000
838.718	0.0150308
838.797	0.0150679
838.875	0.0151272
838.953	0.0151049
839.031	0.0151885
839.109	0.0151477
839.187	0.0151511
839.265	0.0150091
839.343	0.0151347
839.422	0.0151893
839.500	0.0153526
839.578	0.0152625
839.656	0.0152775
839.734	0.0153510
839.812	0.0154059
839.890	0.0155339
839.968	0.0155109
840.047	0.0154001
840.125	0.0156207
840.203	0.0156174
840.281	0.0156629
840.359	0.0155975
840.437	0.0155775
840.515	0.0156102
840.593	0.0156264
840.672	0.0154245
840.750	0.0154925
840.828	0.0155584
840.906	0.0155047
840.984	0.0155107
841.062	0.0154411
841.140	0.0154630
841.218	0.0153060
841.297	0.0152291
841.375	0.0152220
841.453	0.0152417
841.531	0.0152719
841.609	0.0151579
841.687	0.0151812
841.765	0.0152279
841.843	0.0151174
841.922	0.0153090
842.000	0.0152962
842.078	0.0152790
842.156	0.0153527
842.234	0.0153255
842.312	0.0153056
842.390	0.0152470
842.468	0.0153024
842.547	0.0153507
842.625	0.0152433
842.703	0.0151876
842.781	0.0152238
842.859	0.0153384
842.937	0.0152715
843.015	0.0151344
843.093	0.0151135
843.172	0.0152982
843.250	0.0151994
843.328	0.0151920
843.406	0.0150986
843.484	0.0152917
843.562	0.0152853
843.640	0.0150318
843.718	0.0152269
843.797	0.0154445
843.875	0.0154595
843.953	0.0153455
844.031	0.0153305
844.109	0.0152943
844.187	0.0154315
844.265	0.0154382
844.343	0.0154311
844.422	0.0153692
844.500	0.0154192
844.578	0.0154171
844.656	0.0153383
844.734	0.0153730
844.812	0.0154153
844.890	0.0154824
844.968	0.0153784
845.047	0.0152884
845.125	0.0153539
845.203	0.0153233
845.281	0.0152852
845.359	0.0152261
845.437	0.0152648
845.515	0.0152959
845.593	0.0153497
845.672	0.0152927
845.750	0.0151703
845.828	0.0152702
845.906	0.0152282
845.984	0.0153648
846.062	0.0152240
846.140	0.0152068
846.218	0.0152528
846.297	0.0152599
846.375	0.0153061
846.453	0.0151563
846.531	0.0151829
846.609	0.0152249
846.687	0.0152244
846.765	0.0153442
846.843	0.0152919
846.922	0.0151334
847.000	0.0151880
847.078	0.0152090
847.156	0.0151247
847.234	0.0151529
847.312	0.0152127
847.390	0.0151981
847.468	0.0151354
847.547	0.0150727
847.625	0.0153188
847.703	0.0151412
847.781	0.0152628
847.859	0.0153077
847.937	0.0152660
848.015	0.0153177
848.093	0.0152657
848.172	0.0153118
848.250	0.0153271
848.328	0.0155399
848.406	0.0155322
848.484	0.0154630
848.562	0.0155677
848.640	0.0156626
848.718	0.0155170
848.797	0.0156132
848.875	0.0156454
848.953	0.0155032
849.031	0.0156347
849.109	0.0156122
849.187	0.0154841
849.265	0.0155970
849.343	0.0156106
849.422	0.0154372
849.500	0.0154106
849.578	0.0154135
849.656	0.0155169
849.734	0.0154771
849.812	0.0155029
849.890	0.0153564
849.968	0.0154350
850.047	0.0154253
850.125	0.0153209
850.203	0.0153387
850.281	0.0153885
850.359	0.0151488
850.437	0.0153220
850.515	0.0152058
850.593	0.0153057
850.672	0.0152441
850.750	0.0150552
850.828	0.0152179
850.906	0.0152314
850.984	0.0151138
851.062	0.0152232
851.140	0.0152248
851.218	0.0151582
851.297	0.0150578
851.375	0.0152204
851.453	0.0151602
851.531	0.0151466
851.609	0.0150630
851.687	0.0151483
851.765	0.0150042
851.843	0.0151699
851.922	0.0152557
852.000	0.0153960
852.078	0.0152708
852.156	0.0153381
852.234	0.0153067
852.312	0.0153750
852.390	0.0154726
852.468	0.0154255
852.547	0.0156474
852.625	0.0156110
852.703	0.0156489
852.781	0.0156382
852.859	0.0157104
852.937	0.0156734
853.015	0.0156126
853.093	0.0155582
853.172	0.0157896
853.250	0.0156583
853.328	0.0158204
853.406	0.0157364
853.484	0.0157480
853.562	0.0156101
853.640	0.0154951
853.718	0.0157364
853.797	0.0156442
853.875	0.0155505
853.953	0.0155600
854.031	0.0155237
854.109	0.0154845
854.187	0.0153683
854.265	0.0152703
854.343	0.0153983
854.422	0.0154990
854.500	0.0151569
854.578	0.0152325
854.656	0.0154751
854.734	0.0154514
854.812	0.0153705
854.890	0.0153964
854.968	0.0154881
855.047	0.0154221
855.125	0.0152738
855.203	0.0153497
855.281	0.0152290
855.359	0.0151205
855.437	0.0151324
855.515	0.0152458
855.593	0.0152574
855.672	0.0152541
855.750	0.0150878
855.828	0.0152502
855.906	0.0152416
855.984	0.0151871
856.062	0.0150188
856.140	0.0151913
856.218	0.0150833
856.297	0.0149502
856.375	0.0150117
856.453	0.0152691
856.531	0.0151212
856.609	0.0151265
856.687	0.0151053
856.765	0.0151727
856.843	0.0151919
856.922	0.0152965
857.000	0.0152408
857.078	0.0155210
857.156	0.0154365
857.234	0.0153707
857.312	0.0155961
857.390	0.0156524
857.468	0.0156758
857.547	0.0157132
857.625	0.0156434
857.703	0.0157062
857.781	0.0158721
857.859	0.0157713
857.937	0.0156901
858.015	0.0157502
858.093	0.0158668
858.172	0.0157780
858.250	0.0158090
858.328	0.0158791
858.406	0.0156326
858.484	0.0157211
858.562	0.0155914
858.640	0.0155567
858.718	0.0154472
858.797	0.0154343
858.875	0.0154575
858.953	0.0153678
859.031	0.0153721
859.109	0.0152610
859.187	0.0151277
859.265	0.0151748
859.343	0.0151994
859.422	0.0149296
859.500	0.0151324
859.578	0.0151031
859.656	0.0150396
859.734	0.0150291
859.812	0.0149322
859.890	0.0150000
859.968	0.0149927
860.047	0.0149600
860.125	0.0149387
860.203	0.0148452
860.281	0.0147257
860.359	0.0146829
860.437	0.0146870
860.515	0.0147855
860.593	0.0147295
860.672	0.0145144
860.750	0.0146693
860.828	0.0148244
860.906	0.0149416
860.984	0.0149637
861.062	0.0151022
861.140	0.0152399
861.218	0.0153879
861.297	0.0155400
861.375	0.0157156
861.453	0.0158276
861.531	0.0159010
861.609	0.0160209
861.687	0.0161150
861.765	0.0162612
861.843	0.0162878
861.922	0.0163655
862.000	0.0164171
862.078	0.0164789
862.156	0.0164494
862.234	0.0163042
862.312	0.0162353
862.390	0.0161633
862.468	0.0161211
862.547	0.0159000
862.625	0.0158680
862.703	0.0156629
862.781	0.0154949
862.859	0.0153780
862.937	0.0153284
863.015	0.0151992
863.093	0.0151791
863.172	0.0152333
863.250	0.0148703
863.328	0.0149763
863.406	0.0148140
863.484	0.0147774
863.562	0.0148260
863.640	0.0148415
863.718	0.0148420
863.797	0.0147757
863.875	0.0147666
863.953	0.0147222
864.031	0.0148268
864.109	0.0146966
864.187	0.0147689
864.265	0.0147125
864.343	0.0146727
864.422	0.0147482
864.500	0.0146357
864.578	0.0147353
864.656	0.0147982
864.734	0.0147684
864.812	0.0147610
864.890	0.0148405
864.968	0.0150219
865.047	0.0149770
865.125	0.0150187
865.203	0.0151925
865.281	0.0153460
865.359	0.0153915
865.437	0.0152581
865.515	0.0154034
865.593	0.0154313
865.672	0.0156378
865.750	0.0157723
865.828	0.0157783
865.906	0.0157930
865.984	0.0159436
866.062	0.0159888
866.140	0.0161272
866.218	0.0160992
866.297	0.0161868
866.375	0.0161334
866.453	0.0159587
866.531	0.0160638
866.609	0.0160938
866.687	0.0161093
866.765	0.0161135
866.843	0.0158391
866.922	0.0157595
867.000	0.0157869
867.078	0.0158267
867.156	0.0157198
867.234	0.0157180
867.312	0.0156193
867.390	0.0156402
867.468	0.0154041
867.547	0.0155395
867.625	0.0153369
867.703	0.0152757
867.781	0.0153336
867.859	0.0151978
867.937	0.0150735
868.015	0.0150751
868.093	0.0149960
868.172	0.0150316
868.250	0.0149271
868.328	0.0147398
868.406	0.0147932
868.484	0.0149516
868.562	0.0148870
868.640	0.0147965
868.718	0.0147853
868.797	0.0147758
868.875	0.0146924
868.953	0.0148047
869.031	0.0149096
869.109	0.0148358
869.187	0.0148867
869.265	0.0150393
869.343	0.0147978
869.422	0.0149406
869.500	0.0150104
869.578	0.0151644
869.656	0.0151076
869.734	0.0149850
869.812	0.0151545
869.890	0.0152866
869.968	0.0152094
870.047	0.0154351
870.125	0.0153087
870.203	0.0154359
870.281	0.0154104
870.359	0.0155726
870.437	0.0155962
870.515	0.0156886
870.593	0.0157793
870.672	0.0157922
870.750	0.0160172
870.828	0.0159252
870.906	0.0158080
870.984	0.0159460
871.062	0.0160358
871.140	0.0160711
871.218	0.0159232
871.297	0.0160757
871.375	0.0160248
871.453	0.0161201
871.531	0.0160566
871.609	0.0159857
871.687	0.0160179
871.765	0.0158324
871.843	0.0158090
871.922	0.0159049
872.000	0.0157349
872.078	0.0157819
872.156	0.0155634
872.234	0.0154746
872.312	0.0154176
872.390	0.0153661
872.468	0.0152995
872.547	0.0152166
872.625	0.0149738
872.703	0.0150956
872.781	0.0151987
872.859	0.0149466
872.937	0.0151706
873.015	0.0149736
873.093	0.0150551
873.172	0.0150195
873.250	0.0151324
873.328	0.0149387
873.406	0.0151470
873.484	0.0150314
873.562	0.0150717
873.640	0.0150947
873.718	0.0151285
873.797	0.0151344
873.875	0.0150734
873.953	0.0149172
874.031	0.0150179
874.109	0.0149922
874.187	0.0148601
874.265	0.0150169
874.343	0.0151003
874.422	0.0149483
874.500	0.0148844
874.578	0.0149554
874.656	0.0150021
874.734	0.0148745
874.812	0.0150432
874.890	0.0151228
874.968	0.0151815
875.047	0.0152139
875.125	0.0153120
875.203	0.0152532
875.281	0.0155545
875.359	0.0157887
875.437	0.0158103
875.515	0.0158920
875.593	0.0160967
875.672	0.0160362
875.750	0.0161789
875.828	0.0162424
875.906	0.0162290
875.984	0.0162888
876.062	0.0162624
876.140	0.0162681
876.218	0.0163345
876.297	0.0162235
876.375	0.0162061
876.453	0.0160223
876.531	0.0159696
876.609	0.0158298
876.687	0.0160004
876.765	0.0157448
876.843	0.0156473
876.922	0.0156219
877.000	0.0156363
877.078	0.0154333
877.156	0.0154026
877.234	0.0151954
877.312	0.0152152
877.390	0.0153545
877.468	0.0151828
877.547	0.0150587
877.625	0.0151513
877.703	0.0152136
877.781	0.0151517
877.859	0.0150177
877.937	0.0150224
878.015	0.0150388
878.093	0.0149934
878.172	0.0150641
878.250	0.0149843
878.328	0.0150177
878.406	0.0148924
878.484	0.0149206
878.562	0.0149697
878.640	0.0149283
878.718	0.0149709
878.797	0.0149097
878.875	0.0147536
878.953	0.0148434
879.031	0.0150372
879.109	0.0150051
879.187	0.0149801
879.265	0.0151337
879.343	0.0151013
879.422	0.0149773
879.500	0.0150927
879.578	0.0152796
879.656	0.0153836
879.734	0.0154229
879.812	0.0155485
879.890	0.0156570
879.968	0.0156165
880.047	0.0158080
880.125	0.0159454
880.203	0.0159205
880.281	0.0159093
880.359	0.0158368
880.437	0.0159388
880.515	0.0159980
880.593	0.0160344
880.672	0.0158862
880.750	0.0159048
880.828	0.0158400
880.906	0.0158941
880.984	0.0157381
881.062	0.0157568
881.140	0.0156509
881.218	0.0156477
881.297	0.0155861
881.375	0.0154207
881.453	0.0154000
881.531	0.0154873
881.609	0.0154289
881.687	0.0152905
881.765	0.0152501
881.843	0.0152968
881.922	0.0151096
882.000	0.0151115
882.078	0.0152187
882.156	0.0151742
882.234	0.0150892
882.312	0.0151622
882.390	0.0150902
882.468	0.0151817
882.547	0.0150928
882.625	0.0150446
882.703	0.0150732
882.781	0.0151730
882.859	0.0151539
882.937	0.0149809
883.015	0.0152518
883.093	0.0151833
883.172	0.0153724
883.250	0.0153758
883.328	0.0152965
883.406	0.0154887
883.484	0.0153189
883.562	0.0153829
883.640	0.0153184
883.718	0.0153558
883.797	0.0153846
883.875	0.0153500
883.953	0.0154288
884.031	0.0154153
884.109	0.0154683
884.187	0.0155314
884.265	0.0155819
884.343	0.0154772
884.422	0.0154568
884.500	0.0155068
884.578	0.0155860
884.656	0.0156065
884.734	0.0158421
884.812	0.0158154
884.890	0.0157850
884.968	0.0158625
885.047	0.0157797
885.125	0.0157163
885.203	0.0157329
885.281	0.0156645
885.359	0.0156884
885.437	0.0156110
885.515	0.0156586
885.593	0.0156892
885.672	0.0155920
885.750	0.0154613
885.828	0.0155090
885.906	0.0153411
885.984	0.0152507
886.062	0.0152750
886.140	0.0153934
886.218	0.0151883
886.297	0.0150900
886.375	0.0151633
886.453	0.0150848
886.531	0.0150253
886.609	0.0149293
886.687	0.0149582
886.765	0.0150433
886.843	0.0149008
886.922	0.0148669
887.000	0.0148969
887.078	0.0149599
887.156	0.0150288
887.234	0.0148962
887.312	0.0151211
887.390	0.0150482
887.468	0.0151772
887.547	0.0151130
887.625	0.0150261
887.703	0.0152545
887.781	0.0151693
887.859	0.0152996
887.937	0.0154258
888.015	0.0154083
888.093	0.0154244
888.172	0.0155018
888.250	0.0154895
888.328	0.0156027
888.406	0.0155390
888.484	0.0154037
888.562	0.0155950
888.640	0.0155222
888.718	0.0156404
888.797	0.0155960
888.875	0.0156594
888.953	0.0156770
889.031	0.0157575
889.109	0.0156533
889.187	0.0155488
889.265	0.0154552
889.343	0.0155480
889.422	0.0157425
889.500	0.0158016
889.578	0.0156732
889.656	0.0155727
889.734	0.0156737
889.812	0.0155341
889.890	0.0155947
889.968	0.0154863
890.047	0.0155750
890.125	0.0156008
890.203	0.0154798
890.281	0.0154241
890.359	0.0154701
890.437	0.0154258
890.515	0.0152348
890.593	0.0151518
890.672	0.0153570
890.750	0.0152439
890.828	0.0151445
890.906	0.0150928
890.984	0.0150380
891.062	0.0150777
891.140	0.0150155
891.218	0.0148016
891.297	0.0148533
891.375	0.0150129
891.453	0.0149847
891.531	0.0149695
891.609	0.0149594
891.687	0.0148061
891.765	0.0149630
891.843	0.0150007
891.922	0.0150180
892.000	0.0149453
892.078	0.0150842
892.156	0.0152705
892.234	0.0152753
892.312	0.0152956
892.390	0.0154258
892.468	0.0155143
892.547	0.0154464
892.625	0.0155629
892.703	0.0154684
892.781	0.0156212
892.859	0.0156529
892.937	0.0156638
893.015	0.0156030
893.093	0.0157170
893.172	0.0155334
893.250	0.0154762
893.328	0.0156001
893.406	0.0155637
893.484	0.0154475
893.562	0.0156203
893.640	0.0155289
893.718	0.0157034
893.797	0.0153934
893.875	0.0154976
893.953	0.0154736
894.031	0.0156229
894.109	0.0155927
894.187	0.0153805
894.265	0.0154959
894.343	0.0153960
894.422	0.0154108
894.500	0.0154471
894.578	0.0155151
894.656	0.0154726
894.734	0.0154743
894.812	0.0153545
894.890	0.0154869
894.968	0.0154761
895.047	0.0153876
895.125	0.0155110
895.203	0.0153913
895.281	0.0152577
895.359	0.0153383
895.437	0.0152541
895.515	0.0151384
895.593	0.0152098
895.672	0.0151923
895.750	0.0151702
895.828	0.0151402
895.906	0.0149921
895.984	0.0149974
896.062	0.0151167
896.140	0.0151173
896.218	0.0150186
896.297	0.0152296
896.375	0.0151035
896.453	0.0151788
896.531	0.0150629
896.609	0.0150713
896.687	0.0150283
896.765	0.0152073
896.843	0.0151942
896.922	0.0153149
897.000	0.0153010
897.078	0.0152750
897.156	0.0153790
897.234	0.0154845
897.312	0.0154984
897.390	0.0154575
897.468	0.0155805
897.547	0.0156195
897.625	0.0156332
897.703	0.0156448
897.781	0.0156516
897.859	0.0155939
897.937	0.0156313
898.015	0.0156498
898.093	0.0155962
898.172	0.0155387
898.250	0.0156039
898.328	0.0157022
898.406	0.0155386
898.484	0.0154780
898.562	0.0155655
898.640	0.0154162
898.718	0.0153027
898.797	0.0153661
898.875	0.0152799
898.953	0.0153822
899.031	0.0153394
899.109	0.0153001
899.187	0.0152574
899.265	0.0152153
899.343	0.0152450
899.422	0.0152380
899.500	0.0151431
899.578	0.0151787
899.656	0.0151704
899.734	0.0152637
899.812	0.0152461
899.890	0.0152651
899.968	0.0151419
900.047	0.0151148
900.125	0.0151344
900.203	0.0152523
900.281	0.0152762
900.359	0.0151466
900.437	0.0151984
900.515	0.0152376
900.593	0.0152447
900.672	0.0153643
900.750	0.0152277
900.828	0.0152496
900.906	0.0152792
900.984	0.0152586
901.062	0.0155018
901.140	0.0153429
901.218	0.0154923
901.297	0.0152574
901.375	0.0153113
901.453	0.0152936
901.531	0.0152159
901.609	0.0153979
901.687	0.0153996
901.765	0.0153889
901.843	0.0155302
901.922	0.0154356
902.000	0.0153537
902.078	0.0154598
902.156	0.0154911
902.234	0.0154376
902.312	0.0154687
902.390	0.0153608
902.468	0.0154627
902.547	0.0154450
902.625	0.0153613
902.703	0.0154701
902.781	0.0155325
902.859	0.0154593
902.937	0.0154295
903.015	0.0154751
903.093	0.0154662
903.172	0.0153625
903.250	0.0154144
903.328	0.0153310
903.406	0.0154210
903.484	0.0153846
903.562	0.0152641
903.640	0.0152847
903.718	0.0153392
903.797	0.0154020
903.875	0.0152431
903.953	0.0152776
904.031	0.0151511
904.109	0.0151024
904.187	0.0152229
904.265	0.0153355
904.343	0.0152023
904.422	0.0152438
904.500	0.0153127
904.578	0.0152081
904.656	0.0150266
904.734	0.0152500
904.812	0.0152398
904.890	0.0151788
904.968	0.0152873
905.047	0.0152525
905.125	0.0153099
905.203	0.0151550
905.281	0.0152157
905.359	0.0152667
905.437	0.0152284
905.515	0.0153587
905.593	0.0153047
905.672	0.0152367
905.750	0.0152466
905.828	0.0151817
905.906	0.0153924
905.984	0.0153171
906.062	0.0153347
906.140	0.0153841
906.218	0.0154459
906.297	0.0153708
906.375	0.0154172
906.453	0.0153740
906.531	0.0155720
906.609	0.0155283
906.687	0.0154366
906.765	0.0155640
906.843	0.0156065
906.922	0.0154698
907.000	0.0155757
907.078	0.0155573
907.156	0.0154638
907.234	0.0157085
907.312	0.0155729
907.390	0.0155025
907.468	0.0153589
907.547	0.0155627
907.625	0.0155623
907.703	0.0156407
907.781	0.0156103
907.859	0.0155647
907.937	0.0153247
908.015	0.0155492
908.093	0.0155531
908.172	0.0154897
908.250	0.0153884
908.328	0.0153893
908.406	0.0154475
908.484	0.0153502
908.562	0.0153636
908.640	0.0153612
908.718	0.0153389
908.797	0.0153228
908.875	0.0152496
908.953	0.0151821
909.031	0.0151784
909.109	0.0153384
909.187	0.0152267
909.265	0.0152367
909.343	0.0153513
909.422	0.0152003
909.500	0.0152190
909.578	0.0152052
909.656	0.0150972
909.734	0.0152810
909.812	0.0152548
909.890	0.0152489
909.968	0.0152261
910.047	0.0153433
910.125	0.0152618
910.203	0.0152246
910.281	0.0152197
910.359	0.0152927
910.437	0.0152105
910.515	0.0152872
910.593	0.0153416
910.672	0.0153533
910.750	0.0152563
910.828	0.0152595
910.906	0.0153378
910.984	0.0152260
911.062	0.0152464
911.140	0.0153307
911.218	0.0152327
911.297	0.0152695
911.375	0.0153999
911.453	0.0154000
911.531	0.0153643
911.609	0.0154011
911.687	0.0154580
911.765	0.0156020
911.843	0.0154533
911.922	0.0154070
912.000	0.0156110
912.078	0.0154686
912.156	0.0153764
912.234	0.0154880
912.312	0.0156466
912.390	0.0156903
912.468	0.0155302
912.547	0.0155200
912.625	0.0155301
912.703	0.0155048
912.781	0.0154367
912.859	0.0155718
912.937	0.0155351
913.015	0.0154639
913.093	0.0154869
913.172	0.0154210
913.250	0.0154733
913.328	0.0154517
913.406	0.0153778
913.484	0.0155025
913.562	0.0155383
913.640	0.0152192
913.718	0.0152984
913.797	0.0152834
913.875	0.0152740
913.953	0.0152171
914.031	0.0152939
914.109	0.0151415
914.187	0.0151826
914.265	0.0152399
914.343	0.0152920
914.422	0.0152614
914.500	0.0151788
914.578	0.0152692
914.656	0.0154758
914.734	0.0153571
914.812	0.0151878
914.890	0.0152332
914.968	0.0153429
915.047	0.0153568
915.125	0.0151819
915.203	0.0153009
915.281	0.0153440
915.359	0.0152433
915.437	0.0153180
915.515	0.0152184
915.593	0.0153055
915.672	0.0152424
915.750	0.0151939
915.828	0.0152358
915.906	0.0152795
915.984	0.0152177
916.062	0.0152801
916.140	0.0153925
916.218	0.0154155
916.297	0.0155855
916.375	0.0155032
916.453	0.0153987
916.531	0.0155677
916.609	0.0155238
916.687	0.0155523
916.765	0.0154799
916.843	0.0153910
916.922	0.0154832
917.000	0.0155339
917.078	0.0155482
917.156	0.0154552
917.234	0.0156000
917.312	0.0154211
917.390	0.0154230
917.468	0.0154425
917.547	0.0154403
917.625	0.0154324
917.703	0.0153817
917.781	0.0153920
917.859	0.0154279
917.937	0.0152876
918.015	0.0153413
918.093	0.0152901
918.172	0.0151467
918.250	0.0152908
918.328	0.0152946
918.406	0.0152874
918.484	0.0151701
918.562	0.0152396
918.640	0.0151220
918.718	0.0150960
918.797	0.0150137
918.875	0.0152797
918.953	0.0151789
919.031	0.0151418
919.109	0.0151699
919.187	0.0151857
919.265	0.0152297
919.343	0.0151270
919.422	0.0153729
919.500	0.0153934
919.578	0.0152782
919.656	0.0153764
919.734	0.0152742
919.812	0.0152923
919.890	0.0154156
