06/13/2022	14:48:08	Ver.	4.1	UNKNOWN
Optical Delay	599.968395	Delta X		0.078125	Sweeps	1	Scan Rate	0/0
Coordinates	Axis 1	NaN	Axis 2	NaN	Axis 3	NaN	Axis 4	NaN	Axis 5	NaN	Axis 6	0.000000
TX Power	0.000000	RX Power	0.000000

599.968	0.0166468
600.047	0.0166430
600.125	0.0166367
600.203	0.0166277
600.281	0.0167706
600.359	0.0166095
600.437	0.0166083
600.515	0.0166964
600.593	0.0165681
600.672	0.0166243
600.750	0.0165849
600.828	0.0165425
600.906	0.0166216
600.984	0.0166598
601.062	0.0166535
601.140	0.0166924
601.218	0.0166207
601.297	0.0166708
601.375	0.0166772
601.453	0.0167425
601.531	0.0165840
601.609	0.0166454
601.687	0.0165955
601.765	0.0165643
601.843	0.0166761
601.922	0.0167108
602.000	0.0166668
602.078	0.0165849
602.156	0.0164897
602.234	0.0166640
602.312	0.0166409
602.390	0.0166711
602.468	0.0166325
602.547	0.0165703
602.625	0.0165546
602.703	0.0165579
602.781	0.0166492
602.859	0.0166998
602.937	0.0164809
603.015	0.0165504
603.093	0.0167075
603.172	0.0166550
603.250	0.0166243
603.328	0.0165488
603.406	0.0166142
603.484	0.0166943
603.562	0.0165057
603.640	0.0167438
603.718	0.0166640
603.797	0.0166734
603.875	0.0166139
603.953	0.0166219
604.031	0.0165535
604.109	0.0166308
604.187	0.0165260
604.265	0.0166029
604.343	0.0164685
604.422	0.0165839
604.500	0.0167188
604.578	0.0165748
604.656	0.0166167
604.734	0.0166853
604.812	0.0166873
604.890	0.0167231
604.968	0.0166927
605.047	0.0165435
605.125	0.0166623
605.203	0.0166414
605.281	0.0166740
605.359	0.0165899
605.437	0.0164561
605.515	0.0165234
605.593	0.0166299
605.672	0.0166818
605.750	0.0166718
605.828	0.0165246
605.906	0.0165450
605.984	0.0165675
606.062	0.0165167
606.140	0.0166347
606.218	0.0166639
606.297	0.0167658
606.375	0.0165145
606.453	0.0165698
606.531	0.0166338
606.609	0.0167911
606.687	0.0167292
606.765	0.0166068
606.843	0.0166528
606.922	0.0167043
607.000	0.0167015
607.078	0.0166432
607.156	0.0167406
607.234	0.0166669
607.312	0.0167780
607.390	0.0166371
607.468	0.0165939
607.547	0.0166441
607.625	0.0166444
607.703	0.0166683
607.781	0.0167414
607.859	0.0166934
607.937	0.0166434
608.015	0.0166032
608.093	0.0166528
608.172	0.0166827
608.250	0.0165852
608.328	0.0167464
608.406	0.0168062
608.484	0.0166466
608.562	0.0166718
608.640	0.0167358
608.718	0.0167776
608.797	0.0166257
608.875	0.0166275
608.953	0.0166843
609.031	0.0167324
609.109	0.0164589
609.187	0.0166829
609.265	0.0168408
609.343	0.0166919
609.422	0.0166129
609.500	0.0165553
609.578	0.0166660
609.656	0.0166040
609.734	0.0167516
609.812	0.0168633
609.890	0.0166122
609.968	0.0166954
610.047	0.0166528
610.125	0.0167522
610.203	0.0166423
610.281	0.0165765
610.359	0.0166230
610.437	0.0166319
610.515	0.0166372
610.593	0.0166828
610.672	0.0167306
610.750	0.0167090
610.828	0.0166927
610.906	0.0166364
610.984	0.0165900
611.062	0.0167937
611.140	0.0166375
611.218	0.0167252
611.297	0.0166033
611.375	0.0166773
611.453	0.0166432
611.531	0.0165757
611.609	0.0167405
611.687	0.0167719
611.765	0.0166181
611.843	0.0166737
611.922	0.0165358
612.000	0.0166936
612.078	0.0167943
612.156	0.0166676
612.234	0.0166808
612.312	0.0167837
612.390	0.0166272
612.468	0.0166408
612.547	0.0166855
612.625	0.0166431
612.703	0.0168734
612.781	0.0166080
612.859	0.0166825
612.937	0.0166433
613.015	0.0168309
613.093	0.0165318
613.172	0.0166299
613.250	0.0167789
613.328	0.0167372
613.406	0.0166311
613.484	0.0167354
613.562	0.0165909
613.640	0.0166735
613.718	0.0165959
613.797	0.0168071
613.875	0.0168497
613.953	0.0166325
614.031	0.0166418
614.109	0.0166918
614.187	0.0168181
614.265	0.0167684
614.343	0.0165884
614.422	0.0167670
614.500	0.0167375
614.578	0.0166320
614.656	0.0167655
614.734	0.0166498
614.812	0.0166969
614.890	0.0165858
614.968	0.0165479
615.047	0.0167593
615.125	0.0166314
615.203	0.0167432
615.281	0.0166840
615.359	0.0166935
615.437	0.0166386
615.515	0.0166819
615.593	0.0167383
615.672	0.0165949
615.750	0.0167215
615.828	0.0167271
615.906	0.0166890
615.984	0.0166087
616.062	0.0166307
616.140	0.0166573
616.218	0.0167119
616.297	0.0165656
616.375	0.0166031
616.453	0.0166451
616.531	0.0166335
616.609	0.0166574
616.687	0.0165939
616.765	0.0166756
616.843	0.0166879
616.922	0.0167438
617.000	0.0166054
617.078	0.0165057
617.156	0.0166064
617.234	0.0166827
617.312	0.0167052
617.390	0.0166925
617.468	0.0165530
617.547	0.0166048
617.625	0.0165800
617.703	0.0166507
617.781	0.0165807
617.859	0.0166328
617.937	0.0165988
618.015	0.0166393
618.093	0.0165228
618.172	0.0165331
618.250	0.0165577
618.328	0.0165916
618.406	0.0166914
618.484	0.0166495
618.562	0.0165878
618.640	0.0167788
618.718	0.0166933
618.797	0.0165491
618.875	0.0166791
618.953	0.0165849
619.031	0.0166517
619.109	0.0166446
619.187	0.0165433
619.265	0.0166074
619.343	0.0167667
619.422	0.0166792
619.500	0.0166749
619.578	0.0167116
619.656	0.0166750
619.734	0.0165707
619.812	0.0166291
619.890	0.0166160
619.968	0.0166576
620.047	0.0167446
620.125	0.0167231
620.203	0.0166469
620.281	0.0167317
620.359	0.0167023
620.437	0.0167706
620.515	0.0167934
620.593	0.0165713
620.672	0.0165659
620.750	0.0166510
620.828	0.0165896
620.906	0.0166679
620.984	0.0166219
621.062	0.0167150
621.140	0.0166039
621.218	0.0166217
621.297	0.0166676
621.375	0.0167307
621.453	0.0167782
621.531	0.0166692
621.609	0.0166988
621.687	0.0166672
621.765	0.0165616
621.843	0.0167252
621.922	0.0166886
622.000	0.0167319
622.078	0.0165849
622.156	0.0167636
622.234	0.0167093
622.312	0.0166505
622.390	0.0166450
622.468	0.0166900
622.547	0.0167541
622.625	0.0167901
622.703	0.0167432
622.781	0.0167373
622.859	0.0167308
622.937	0.0166174
623.015	0.0167712
623.093	0.0166888
623.172	0.0166373
623.250	0.0167442
623.328	0.0167245
623.406	0.0166939
623.484	0.0166170
623.562	0.0166672
623.640	0.0165681
623.718	0.0167283
623.797	0.0167020
623.875	0.0166790
623.953	0.0166412
624.031	0.0167879
624.109	0.0167001
624.187	0.0164901
624.265	0.0166675
624.343	0.0166598
624.422	0.0165523
624.500	0.0167920
624.578	0.0168293
624.656	0.0166353
624.734	0.0166628
624.812	0.0167375
624.890	0.0165974
624.968	0.0167049
625.047	0.0165865
625.125	0.0165066
625.203	0.0165458
625.281	0.0166573
625.359	0.0164555
625.437	0.0164867
625.515	0.0167183
625.593	0.0167027
625.672	0.0166140
625.750	0.0165883
625.828	0.0166687
625.906	0.0167394
625.984	0.0165974
626.062	0.0166317
626.140	0.0166823
626.218	0.0167376
626.297	0.0168092
626.375	0.0166854
626.453	0.0165455
626.531	0.0167374
626.609	0.0167661
626.687	0.0167157
626.765	0.0166895
626.843	0.0167128
626.922	0.0167488
627.000	0.0167678
627.078	0.0167281
627.156	0.0167085
627.234	0.0166462
627.312	0.0168029
627.390	0.0166454
627.468	0.0166222
627.547	0.0166463
627.625	0.0164613
627.703	0.0165553
627.781	0.0167161
627.859	0.0166651
627.937	0.0165908
628.015	0.0166746
628.093	0.0165392
628.172	0.0166798
628.250	0.0165585
628.328	0.0166931
628.406	0.0166640
628.484	0.0166474
628.562	0.0166385
628.640	0.0166282
628.718	0.0167442
628.797	0.0166676
628.875	0.0166542
628.953	0.0167066
629.031	0.0166849
629.109	0.0166742
629.187	0.0166798
629.265	0.0165984
629.343	0.0167651
629.422	0.0166086
629.500	0.0166916
629.578	0.0166526
629.656	0.0165873
629.734	0.0165768
629.812	0.0167580
629.890	0.0167046
629.968	0.0166108
630.047	0.0166112
630.125	0.0166360
630.203	0.0166136
630.281	0.0166437
630.359	0.0167103
630.437	0.0165580
630.515	0.0167885
630.593	0.0165796
630.672	0.0165988
630.750	0.0166530
630.828	0.0166088
630.906	0.0165031
630.984	0.0166873
631.062	0.0165783
631.140	0.0166207
631.218	0.0166314
631.297	0.0167106
631.375	0.0167167
631.453	0.0166221
631.531	0.0166920
631.609	0.0166840
631.687	0.0166206
631.765	0.0166847
631.843	0.0166672
631.922	0.0166096
632.000	0.0166012
632.078	0.0167405
632.156	0.0165788
632.234	0.0166447
632.312	0.0167282
632.390	0.0167014
632.468	0.0166261
632.547	0.0166376
632.625	0.0167664
632.703	0.0166005
632.781	0.0165849
632.859	0.0166955
632.937	0.0166502
633.015	0.0166467
633.093	0.0167218
633.172	0.0166963
633.250	0.0166312
633.328	0.0167661
633.406	0.0167068
633.484	0.0165904
633.562	0.0166340
633.640	0.0167568
633.718	0.0166556
633.797	0.0166648
633.875	0.0167715
633.953	0.0166248
634.031	0.0166720
634.109	0.0165520
634.187	0.0165972
634.265	0.0167207
634.343	0.0166494
634.422	0.0168365
634.500	0.0166822
634.578	0.0167523
634.656	0.0166927
634.734	0.0165486
634.812	0.0165675
634.890	0.0167521
634.968	0.0168207
635.047	0.0165936
635.125	0.0166873
635.203	0.0166539
635.281	0.0166419
635.359	0.0166469
635.437	0.0167107
635.515	0.0165399
635.593	0.0167602
635.672	0.0167602
635.750	0.0166386
635.828	0.0167161
635.906	0.0166890
635.984	0.0164716
636.062	0.0164917
636.140	0.0167700
636.218	0.0167641
636.297	0.0165962
636.375	0.0167462
636.453	0.0167232
636.531	0.0167569
636.609	0.0166386
636.687	0.0167165
636.765	0.0165027
636.843	0.0166559
636.922	0.0167623
637.000	0.0167213
637.078	0.0166206
637.156	0.0167193
637.234	0.0167052
637.312	0.0167049
637.390	0.0166115
637.468	0.0166087
637.547	0.0166418
637.625	0.0166512
637.703	0.0167217
637.781	0.0166662
637.859	0.0166607
637.937	0.0167295
638.015	0.0166642
638.093	0.0166539
638.172	0.0165076
638.250	0.0167401
638.328	0.0166774
638.406	0.0166056
638.484	0.0167062
638.562	0.0166628
638.640	0.0166460
638.718	0.0167542
638.797	0.0167581
638.875	0.0167113
638.953	0.0167602
639.031	0.0166740
639.109	0.0167345
639.187	0.0166478
639.265	0.0166240
639.343	0.0165749
639.422	0.0166198
639.500	0.0166378
639.578	0.0167842
639.656	0.0165639
639.734	0.0166939
639.812	0.0166078
639.890	0.0165523
639.968	0.0167959
640.047	0.0164421
640.125	0.0166151
640.203	0.0167485
640.281	0.0168304
640.359	0.0166592
640.437	0.0166396
640.515	0.0166685
640.593	0.0166528
640.672	0.0166221
640.750	0.0166681
640.828	0.0166943
640.906	0.0167625
640.984	0.0166748
641.062	0.0167439
641.140	0.0165717
641.218	0.0166751
641.297	0.0167579
641.375	0.0167500
641.453	0.0166238
641.531	0.0166852
641.609	0.0166680
641.687	0.0168367
641.765	0.0166595
641.843	0.0165009
641.922	0.0165758
642.000	0.0166269
642.078	0.0167332
642.156	0.0167089
642.234	0.0166750
642.312	0.0167295
642.390	0.0166641
642.468	0.0166369
642.547	0.0167541
642.625	0.0165716
642.703	0.0166277
642.781	0.0166470
642.859	0.0165737
642.937	0.0167291
643.015	0.0167097
643.093	0.0166045
643.172	0.0165963
643.250	0.0166272
643.328	0.0166328
643.406	0.0166108
643.484	0.0167570
643.562	0.0167039
643.640	0.0167671
643.718	0.0168534
643.797	0.0165900
643.875	0.0167299
643.953	0.0167896
644.031	0.0166318
644.109	0.0166143
644.187	0.0168230
644.265	0.0168369
644.343	0.0166328
644.422	0.0166793
644.500	0.0166383
644.578	0.0168197
644.656	0.0168189
644.734	0.0167240
644.812	0.0166631
644.890	0.0166054
644.968	0.0166826
645.047	0.0167466
645.125	0.0167467
645.203	0.0167961
645.281	0.0167885
645.359	0.0168420
645.437	0.0167270
645.515	0.0165774
645.593	0.0167439
645.672	0.0167194
645.750	0.0167368
645.828	0.0167466
645.906	0.0166236
645.984	0.0166705
646.062	0.0166918
646.140	0.0166988
646.218	0.0167767
646.297	0.0166934
646.375	0.0166077
646.453	0.0165857
646.531	0.0167065
646.609	0.0165929
646.687	0.0166215
646.765	0.0165954
646.843	0.0168410
646.922	0.0167142
647.000	0.0166692
647.078	0.0166144
647.156	0.0167052
647.234	0.0166387
647.312	0.0165586
647.390	0.0165245
647.468	0.0168462
647.547	0.0166092
647.625	0.0167428
647.703	0.0165983
647.781	0.0164758
647.859	0.0167235
647.937	0.0167828
648.015	0.0166956
648.093	0.0167689
648.172	0.0166367
648.250	0.0166097
648.328	0.0166563
648.406	0.0167678
648.484	0.0167460
648.562	0.0166772
648.640	0.0168128
648.718	0.0166892
648.797	0.0166932
648.875	0.0166438
648.953	0.0167033
649.031	0.0167722
649.109	0.0167577
649.187	0.0167991
649.265	0.0167712
649.343	0.0167622
649.422	0.0167195
649.500	0.0167862
649.578	0.0167581
649.656	0.0167485
649.734	0.0166866
649.812	0.0168121
649.890	0.0169323
649.968	0.0166587
650.047	0.0166822
650.125	0.0167873
650.203	0.0167153
650.281	0.0167462
650.359	0.0168050
650.437	0.0168174
650.515	0.0167280
650.593	0.0168098
650.672	0.0166540
650.750	0.0167341
650.828	0.0167393
650.906	0.0168087
650.984	0.0168511
651.062	0.0168255
651.140	0.0167943
651.218	0.0167501
651.297	0.0167932
651.375	0.0168941
651.453	0.0166777
651.531	0.0166520
651.609	0.0167392
651.687	0.0168382
651.765	0.0167709
651.843	0.0166422
651.922	0.0167313
652.000	0.0168141
652.078	0.0167107
652.156	0.0167231
652.234	0.0166475
652.312	0.0167676
652.390	0.0167092
652.468	0.0166500
652.547	0.0167669
652.625	0.0167371
652.703	0.0168752
652.781	0.0167276
652.859	0.0167182
652.937	0.0165871
653.015	0.0167290
653.093	0.0165796
653.172	0.0165313
653.250	0.0165881
653.328	0.0166232
653.406	0.0166532
653.484	0.0164966
653.562	0.0166674
653.640	0.0166270
653.718	0.0167705
653.797	0.0165554
653.875	0.0166331
653.953	0.0165848
654.031	0.0165268
654.109	0.0165939
654.187	0.0166798
654.265	0.0164684
654.343	0.0165540
654.422	0.0165535
654.500	0.0164507
654.578	0.0165807
654.656	0.0165512
654.734	0.0165514
654.812	0.0163951
654.890	0.0164545
654.968	0.0165083
655.047	0.0165954
655.125	0.0165307
655.203	0.0165897
655.281	0.0166152
655.359	0.0165200
655.437	0.0165197
655.515	0.0164660
655.593	0.0164635
655.672	0.0165221
655.750	0.0163755
655.828	0.0164474
655.906	0.0166949
655.984	0.0167052
656.062	0.0165613
656.140	0.0165395
656.218	0.0164594
656.297	0.0165937
656.375	0.0163748
656.453	0.0165179
656.531	0.0166129
656.609	0.0165988
656.687	0.0166257
656.765	0.0165024
656.843	0.0164675
656.922	0.0165137
657.000	0.0166357
657.078	0.0165623
657.156	0.0165767
657.234	0.0165206
657.312	0.0166262
657.390	0.0166100
657.468	0.0165305
657.547	0.0165599
657.625	0.0165448
657.703	0.0165537
657.781	0.0166455
657.859	0.0166686
657.937	0.0166648
658.015	0.0165314
658.093	0.0166017
658.172	0.0165630
658.250	0.0165606
658.328	0.0165232
658.406	0.0165386
658.484	0.0166504
658.562	0.0165450
658.640	0.0167129
658.718	0.0165201
658.797	0.0165963
658.875	0.0165331
658.953	0.0166511
659.031	0.0167276
659.109	0.0166216
659.187	0.0166771
659.265	0.0166834
659.343	0.0166283
659.422	0.0165971
659.500	0.0167117
659.578	0.0165969
659.656	0.0167686
659.734	0.0165462
659.812	0.0166261
659.890	0.0166338
659.968	0.0165024
660.047	0.0164754
660.125	0.0166077
660.203	0.0166291
660.281	0.0166730
660.359	0.0166072
660.437	0.0164616
660.515	0.0166335
660.593	0.0166560
660.672	0.0165570
660.750	0.0166611
660.828	0.0167233
660.906	0.0164974
660.984	0.0165606
661.062	0.0166035
661.140	0.0166127
661.218	0.0165524
661.297	0.0166663
661.375	0.0166500
661.453	0.0165897
661.531	0.0165629
661.609	0.0167302
661.687	0.0167333
661.765	0.0166188
661.843	0.0165866
661.922	0.0165932
662.000	0.0165792
662.078	0.0165837
662.156	0.0166790
662.234	0.0166545
662.312	0.0165701
662.390	0.0165588
662.468	0.0166192
662.547	0.0165306
662.625	0.0166096
662.703	0.0166076
662.781	0.0165448
662.859	0.0165979
662.937	0.0167342
663.015	0.0167049
663.093	0.0166955
663.172	0.0166570
663.250	0.0166196
663.328	0.0166457
663.406	0.0167107
663.484	0.0168044
663.562	0.0167196
663.640	0.0168178
663.718	0.0166213
663.797	0.0166857
663.875	0.0166576
663.953	0.0165449
664.031	0.0166824
664.109	0.0165881
664.187	0.0165878
664.265	0.0168034
664.343	0.0168208
664.422	0.0167814
664.500	0.0166479
664.578	0.0167685
664.656	0.0166099
664.734	0.0166609
664.812	0.0166788
664.890	0.0167439
664.968	0.0167303
665.047	0.0167178
665.125	0.0166874
665.203	0.0167818
665.281	0.0168321
665.359	0.0168555
665.437	0.0165619
665.515	0.0168777
665.593	0.0168607
665.672	0.0166870
665.750	0.0167329
665.828	0.0167183
665.906	0.0168199
665.984	0.0167805
666.062	0.0167669
666.140	0.0166029
666.218	0.0166686
666.297	0.0166824
666.375	0.0167564
666.453	0.0167371
666.531	0.0167712
666.609	0.0167010
666.687	0.0167564
666.765	0.0166882
666.843	0.0167954
666.922	0.0167681
667.000	0.0167626
667.078	0.0168464
667.156	0.0167826
667.234	0.0166150
667.312	0.0167562
667.390	0.0168695
667.468	0.0168782
667.547	0.0168420
667.625	0.0166876
667.703	0.0167751
667.781	0.0168610
667.859	0.0168991
667.937	0.0168079
668.015	0.0167608
668.093	0.0167758
668.172	0.0169118
668.250	0.0168749
668.328	0.0167262
668.406	0.0168689
668.484	0.0167947
668.562	0.0167561
668.640	0.0166878
668.718	0.0167887
668.797	0.0168554
668.875	0.0168665
668.953	0.0167834
669.031	0.0167062
669.109	0.0167799
669.187	0.0167587
669.265	0.0168877
669.343	0.0166711
669.422	0.0166608
669.500	0.0168606
669.578	0.0167370
669.656	0.0167506
669.734	0.0167021
669.812	0.0167651
669.890	0.0168155
669.968	0.0167112
670.047	0.0168414
670.125	0.0168526
670.203	0.0168324
670.281	0.0168475
670.359	0.0167138
670.437	0.0167841
670.515	0.0168575
670.593	0.0167722
670.672	0.0166657
670.750	0.0166722
670.828	0.0166608
670.906	0.0167636
670.984	0.0167930
671.062	0.0167149
671.140	0.0167958
671.218	0.0167907
671.297	0.0167432
671.375	0.0167587
671.453	0.0167791
671.531	0.0166627
671.609	0.0167105
671.687	0.0168684
671.765	0.0166909
671.843	0.0166886
671.922	0.0167611
672.000	0.0166891
672.078	0.0167767
672.156	0.0167558
672.234	0.0166713
672.312	0.0167651
672.390	0.0167507
672.468	0.0165281
672.547	0.0167245
672.625	0.0167426
672.703	0.0166019
672.781	0.0166408
672.859	0.0167698
672.937	0.0166788
673.015	0.0167000
673.093	0.0166708
673.172	0.0167130
673.250	0.0166442
673.328	0.0165658
673.406	0.0165963
673.484	0.0167370
673.562	0.0166525
673.640	0.0167521
673.718	0.0166885
673.797	0.0166959
673.875	0.0167063
673.953	0.0166552
674.031	0.0167078
674.109	0.0167784
674.187	0.0167403
674.265	0.0166085
674.343	0.0166753
674.422	0.0166768
674.500	0.0165970
674.578	0.0165627
674.656	0.0167113
674.734	0.0167513
674.812	0.0165816
674.890	0.0165318
674.968	0.0166776
675.047	0.0165485
675.125	0.0164200
675.203	0.0166072
675.281	0.0166066
675.359	0.0164926
675.437	0.0164396
675.515	0.0165630
675.593	0.0165917
675.672	0.0165253
675.750	0.0166533
675.828	0.0166140
675.906	0.0165185
675.984	0.0166549
676.062	0.0165485
676.140	0.0165904
676.218	0.0166565
676.297	0.0166430
676.375	0.0165563
676.453	0.0166100
676.531	0.0164117
676.609	0.0165118
676.687	0.0165757
676.765	0.0165328
676.843	0.0165376
676.922	0.0165933
677.000	0.0164433
677.078	0.0164551
677.156	0.0165538
677.234	0.0166044
677.312	0.0164600
677.390	0.0164106
677.468	0.0165424
677.547	0.0166113
677.625	0.0165764
677.703	0.0164668
677.781	0.0164696
677.859	0.0164960
677.937	0.0164084
678.015	0.0165066
678.093	0.0165077
678.172	0.0165651
678.250	0.0164819
678.328	0.0165262
678.406	0.0165742
678.484	0.0164288
678.562	0.0164105
678.640	0.0165140
678.718	0.0164948
678.797	0.0167232
678.875	0.0165240
678.953	0.0164766
679.031	0.0164353
679.109	0.0164641
679.187	0.0165645
679.265	0.0164497
679.343	0.0165426
679.422	0.0166822
679.500	0.0164812
679.578	0.0163652
679.656	0.0164742
679.734	0.0165260
679.812	0.0164377
679.890	0.0164855
679.968	0.0166106
680.047	0.0165221
680.125	0.0165715
680.203	0.0166120
680.281	0.0165088
680.359	0.0164841
680.437	0.0165821
680.515	0.0166328
680.593	0.0165816
680.672	0.0165288
680.750	0.0165386
680.828	0.0165694
680.906	0.0166763
680.984	0.0164899
681.062	0.0166397
681.140	0.0166204
681.218	0.0165431
681.297	0.0166066
681.375	0.0165075
681.453	0.0164342
681.531	0.0166140
681.609	0.0164894
681.687	0.0166412
681.765	0.0166260
681.843	0.0165941
681.922	0.0165850
682.000	0.0166002
682.078	0.0166134
682.156	0.0164941
682.234	0.0165277
682.312	0.0166035
682.390	0.0165434
682.468	0.0164889
682.547	0.0165044
682.625	0.0166499
682.703	0.0164021
682.781	0.0164965
682.859	0.0166418
682.937	0.0165786
683.015	0.0164920
683.093	0.0165652
683.172	0.0165981
683.250	0.0165662
683.328	0.0165981
683.406	0.0165843
683.484	0.0165932
683.562	0.0165710
683.640	0.0166166
683.718	0.0165788
683.797	0.0164891
683.875	0.0166606
683.953	0.0166000
684.031	0.0165562
684.109	0.0167349
684.187	0.0167822
684.265	0.0166213
684.343	0.0165865
684.422	0.0165960
684.500	0.0167049
684.578	0.0168319
684.656	0.0166627
684.734	0.0166446
684.812	0.0167406
684.890	0.0166537
684.968	0.0166909
685.047	0.0167502
685.125	0.0166900
685.203	0.0166378
685.281	0.0166479
685.359	0.0168327
685.437	0.0167677
685.515	0.0167332
685.593	0.0166876
685.672	0.0166531
685.750	0.0167208
685.828	0.0166910
685.906	0.0166914
685.984	0.0168183
686.062	0.0165443
686.140	0.0165560
686.218	0.0166567
686.297	0.0166560
686.375	0.0166055
686.453	0.0167028
686.531	0.0166106
686.609	0.0165905
686.687	0.0167737
686.765	0.0167418
686.843	0.0168764
686.922	0.0168216
687.000	0.0166458
687.078	0.0167596
687.156	0.0168147
687.234	0.0165931
687.312	0.0166122
687.390	0.0166586
687.468	0.0167388
687.547	0.0166537
687.625	0.0166486
687.703	0.0166956
687.781	0.0167831
687.859	0.0167924
687.937	0.0167257
688.015	0.0168499
688.093	0.0167577
688.172	0.0167223
688.250	0.0166687
688.328	0.0167239
688.406	0.0168365
688.484	0.0168578
688.562	0.0168259
688.640	0.0166834
688.718	0.0167524
688.797	0.0167965
688.875	0.0166753
688.953	0.0167081
689.031	0.0167268
689.109	0.0166810
689.187	0.0166615
689.265	0.0167090
689.343	0.0167584
689.422	0.0167432
689.500	0.0167057
689.578	0.0168568
689.656	0.0166461
689.734	0.0167276
689.812	0.0167001
689.890	0.0167358
689.968	0.0166929
690.047	0.0167395
690.125	0.0167024
690.203	0.0167213
690.281	0.0168049
690.359	0.0166817
690.437	0.0167957
690.515	0.0166693
690.593	0.0166414
690.672	0.0167804
690.750	0.0166278
690.828	0.0167160
690.906	0.0166287
690.984	0.0165871
691.062	0.0166721
691.140	0.0165592
691.218	0.0166526
691.297	0.0167696
691.375	0.0166503
691.453	0.0166597
691.531	0.0168413
691.609	0.0166849
691.687	0.0165842
691.765	0.0166647
691.843	0.0166531
691.922	0.0165098
692.000	0.0166256
692.078	0.0167240
692.156	0.0166566
692.234	0.0167156
692.312	0.0165643
692.390	0.0167020
692.468	0.0165752
692.547	0.0167571
692.625	0.0167376
692.703	0.0167107
692.781	0.0167374
692.859	0.0166464
692.937	0.0166226
693.015	0.0167424
693.093	0.0167582
693.172	0.0166586
693.250	0.0166207
693.328	0.0166378
693.406	0.0165368
693.484	0.0167130
693.562	0.0166214
693.640	0.0167276
693.718	0.0166272
693.797	0.0167383
693.875	0.0167015
693.953	0.0166730
694.031	0.0166750
694.109	0.0167305
694.187	0.0167306
694.265	0.0166074
694.343	0.0166649
694.422	0.0167743
694.500	0.0166653
694.578	0.0167185
694.656	0.0166354
694.734	0.0166231
694.812	0.0165957
694.890	0.0167825
694.968	0.0167290
695.047	0.0167538
695.125	0.0166769
695.203	0.0167864
695.281	0.0166728
695.359	0.0167011
695.437	0.0165710
695.515	0.0167480
695.593	0.0167157
695.672	0.0166990
695.750	0.0166386
695.828	0.0166232
695.906	0.0164601
695.984	0.0166691
696.062	0.0166306
696.140	0.0167084
696.218	0.0167163
696.297	0.0166536
696.375	0.0166377
696.453	0.0165466
696.531	0.0165684
696.609	0.0166357
696.687	0.0165931
696.765	0.0167097
696.843	0.0167408
696.922	0.0167094
697.000	0.0167690
697.078	0.0166228
697.156	0.0166180
697.234	0.0166716
697.312	0.0166068
697.390	0.0166889
697.468	0.0166268
697.547	0.0167010
697.625	0.0166582
697.703	0.0166394
697.781	0.0166539
697.859	0.0166556
697.937	0.0166471
698.015	0.0165816
698.093	0.0166567
698.172	0.0166003
698.250	0.0166229
698.328	0.0166437
698.406	0.0167978
698.484	0.0167399
698.562	0.0166621
698.640	0.0165888
698.718	0.0167426
698.797	0.0166100
698.875	0.0165910
698.953	0.0166153
699.031	0.0167374
699.109	0.0167037
699.187	0.0166160
699.265	0.0166909
699.343	0.0167085
699.422	0.0165359
699.500	0.0165228
699.578	0.0166226
699.656	0.0167197
699.734	0.0166772
699.812	0.0165356
699.890	0.0165243
699.968	0.0166167
700.047	0.0165202
700.125	0.0165933
700.203	0.0166214
700.281	0.0166180
700.359	0.0164437
700.437	0.0167096
700.515	0.0167760
700.593	0.0165648
700.672	0.0166512
700.750	0.0167092
700.828	0.0166011
700.906	0.0165141
700.984	0.0167023
701.062	0.0167366
701.140	0.0165353
701.218	0.0165777
701.297	0.0167110
701.375	0.0165652
701.453	0.0165385
701.531	0.0166406
701.609	0.0166189
701.687	0.0166969
701.765	0.0166102
701.843	0.0167074
701.922	0.0165239
702.000	0.0165315
702.078	0.0166279
702.156	0.0167580
702.234	0.0166146
702.312	0.0163955
702.390	0.0165521
702.468	0.0166383
702.547	0.0167191
702.625	0.0165069
702.703	0.0164690
702.781	0.0167049
702.859	0.0167065
702.937	0.0166465
703.015	0.0165571
703.093	0.0166844
703.172	0.0164907
703.250	0.0165891
703.328	0.0166306
703.406	0.0166154
703.484	0.0164516
703.562	0.0164864
703.640	0.0166287
703.718	0.0164836
703.797	0.0165246
703.875	0.0165347
703.953	0.0166422
704.031	0.0166284
704.109	0.0166235
704.187	0.0165696
704.265	0.0165812
704.343	0.0165516
704.422	0.0166826
704.500	0.0166289
704.578	0.0166280
704.656	0.0165728
704.734	0.0167293
704.812	0.0165372
704.890	0.0165679
704.968	0.0167873
705.047	0.0166486
705.125	0.0165081
705.203	0.0165829
705.281	0.0165456
705.359	0.0165545
705.437	0.0166882
705.515	0.0166229
705.593	0.0165609
705.672	0.0165997
705.750	0.0167717
705.828	0.0164400
705.906	0.0166070
705.984	0.0165485
706.062	0.0167119
706.140	0.0166095
706.218	0.0166706
706.297	0.0165974
706.375	0.0166673
706.453	0.0166470
706.531	0.0166348
706.609	0.0167142
706.687	0.0166152
706.765	0.0164904
706.843	0.0167062
706.922	0.0166522
707.000	0.0166559
707.078	0.0166286
707.156	0.0166454
707.234	0.0166475
707.312	0.0164876
707.390	0.0165662
707.468	0.0165997
707.547	0.0166511
707.625	0.0166220
707.703	0.0166367
707.781	0.0165672
707.859	0.0167287
707.937	0.0166286
708.015	0.0166473
708.093	0.0165347
708.172	0.0165441
708.250	0.0165563
708.328	0.0165612
708.406	0.0166225
708.484	0.0165951
708.562	0.0167315
708.640	0.0164959
708.718	0.0165437
708.797	0.0165742
708.875	0.0166870
708.953	0.0167001
709.031	0.0165737
709.109	0.0165785
709.187	0.0165836
709.265	0.0166212
709.343	0.0166971
709.422	0.0167474
709.500	0.0165722
709.578	0.0165516
709.656	0.0166267
709.734	0.0165545
709.812	0.0165965
709.890	0.0165462
709.968	0.0166259
710.047	0.0166911
710.125	0.0166637
710.203	0.0167423
710.281	0.0165652
710.359	0.0166806
710.437	0.0165694
710.515	0.0165788
710.593	0.0166325
710.672	0.0166250
710.750	0.0165723
710.828	0.0166286
710.906	0.0165974
710.984	0.0167084
711.062	0.0167021
711.140	0.0165831
711.218	0.0166046
711.297	0.0167327
711.375	0.0167025
711.453	0.0165736
711.531	0.0165968
711.609	0.0167147
711.687	0.0166964
711.765	0.0167211
711.843	0.0166413
711.922	0.0166228
712.000	0.0166653
712.078	0.0166890
712.156	0.0166203
712.234	0.0166715
712.312	0.0167555
712.390	0.0167166
712.468	0.0166898
712.547	0.0166641
712.625	0.0166574
712.703	0.0166464
712.781	0.0167126
712.859	0.0168240
712.937	0.0167268
713.015	0.0167123
713.093	0.0167306
713.172	0.0167801
713.250	0.0165844
713.328	0.0167606
713.406	0.0166688
713.484	0.0166185
713.562	0.0168475
713.640	0.0167398
713.718	0.0168079
713.797	0.0167154
713.875	0.0167886
713.953	0.0169224
714.031	0.0167525
714.109	0.0166035
714.187	0.0167020
714.265	0.0168288
714.343	0.0168109
714.422	0.0167215
714.500	0.0167165
714.578	0.0166771
714.656	0.0167470
714.734	0.0170067
714.812	0.0167475
714.890	0.0169287
714.968	0.0167507
715.047	0.0167011
715.125	0.0168814
715.203	0.0168685
715.281	0.0168871
715.359	0.0167491
715.437	0.0168495
715.515	0.0167638
715.593	0.0165592
715.672	0.0167504
715.750	0.0168887
715.828	0.0167884
715.906	0.0167508
715.984	0.0166286
716.062	0.0167368
716.140	0.0166759
716.218	0.0167666
716.297	0.0168350
716.375	0.0168009
716.453	0.0167157
716.531	0.0168209
716.609	0.0167265
716.687	0.0167433
716.765	0.0166688
716.843	0.0167222
716.922	0.0167022
717.000	0.0167220
717.078	0.0167200
717.156	0.0166698
717.234	0.0166833
717.312	0.0167237
717.390	0.0167500
717.468	0.0166578
717.547	0.0165971
717.625	0.0167013
717.703	0.0165989
717.781	0.0166547
717.859	0.0166866
717.937	0.0169052
718.015	0.0166713
718.093	0.0168124
718.172	0.0167690
718.250	0.0166646
718.328	0.0166999
718.406	0.0167091
718.484	0.0166995
718.562	0.0166945
718.640	0.0167076
718.718	0.0167274
718.797	0.0168729
718.875	0.0166441
718.953	0.0166933
719.031	0.0167478
719.109	0.0167127
719.187	0.0167348
719.265	0.0168216
719.343	0.0167360
719.422	0.0167284
719.500	0.0166717
719.578	0.0167457
719.656	0.0167561
719.734	0.0167540
719.812	0.0167024
719.890	0.0166383
719.968	0.0166679
720.047	0.0167249
720.125	0.0166257
720.203	0.0167812
720.281	0.0166729
720.359	0.0167361
720.437	0.0168161
720.515	0.0166296
720.593	0.0167601
720.672	0.0167365
720.750	0.0166560
720.828	0.0166778
720.906	0.0165131
720.984	0.0166574
721.062	0.0166857
721.140	0.0167310
721.218	0.0168050
721.297	0.0166433
721.375	0.0166360
721.453	0.0166943
721.531	0.0167695
721.609	0.0166428
721.687	0.0165791
721.765	0.0165995
721.843	0.0166488
721.922	0.0164937
722.000	0.0166253
722.078	0.0166608
722.156	0.0166975
722.234	0.0166751
722.312	0.0166657
722.390	0.0165346
722.468	0.0165904
722.547	0.0165977
722.625	0.0166509
722.703	0.0164773
722.781	0.0167180
722.859	0.0166504
722.937	0.0165208
723.015	0.0165820
723.093	0.0166071
723.172	0.0166721
723.250	0.0166771
723.328	0.0166241
723.406	0.0166002
723.484	0.0165794
723.562	0.0165378
723.640	0.0166614
723.718	0.0166343
723.797	0.0165665
723.875	0.0166385
723.953	0.0166936
724.031	0.0165588
724.109	0.0165032
724.187	0.0166881
724.265	0.0166187
724.343	0.0166904
724.422	0.0166811
724.500	0.0166926
724.578	0.0165602
724.656	0.0166329
724.734	0.0167398
724.812	0.0166548
724.890	0.0166491
724.968	0.0167076
725.047	0.0166163
725.125	0.0166953
725.203	0.0166354
725.281	0.0165510
725.359	0.0165225
725.437	0.0166058
725.515	0.0168185
725.593	0.0165276
725.672	0.0166155
725.750	0.0166827
725.828	0.0166367
725.906	0.0165651
725.984	0.0166898
726.062	0.0165798
726.140	0.0167010
726.218	0.0167746
726.297	0.0167088
726.375	0.0166208
726.453	0.0166679
726.531	0.0167816
726.609	0.0167514
726.687	0.0166578
726.765	0.0167204
726.843	0.0165970
726.922	0.0166631
727.000	0.0168062
727.078	0.0166276
727.156	0.0165316
727.234	0.0166505
727.312	0.0168262
727.390	0.0166750
727.468	0.0166536
727.547	0.0165675
727.625	0.0167631
727.703	0.0167151
727.781	0.0167034
727.859	0.0167464
727.937	0.0166608
728.015	0.0166190
728.093	0.0166589
728.172	0.0168087
728.250	0.0166952
728.328	0.0166938
728.406	0.0165897
728.484	0.0166737
728.562	0.0165786
728.640	0.0166489
728.718	0.0166994
728.797	0.0166069
728.875	0.0166833
728.953	0.0167043
729.031	0.0166694
729.109	0.0166666
729.187	0.0167405
729.265	0.0166422
729.343	0.0168316
729.422	0.0167532
729.500	0.0168063
729.578	0.0166081
729.656	0.0166678
729.734	0.0167934
729.812	0.0167754
729.890	0.0167490
729.968	0.0166719
730.047	0.0166534
730.125	0.0166838
730.203	0.0165852
730.281	0.0166381
730.359	0.0166543
730.437	0.0164746
730.515	0.0166879
730.593	0.0167736
730.672	0.0167343
730.750	0.0166769
730.828	0.0166503
730.906	0.0167036
730.984	0.0166517
731.062	0.0168352
731.140	0.0167942
731.218	0.0167856
731.297	0.0166408
731.375	0.0165611
731.453	0.0166879
731.531	0.0165789
731.609	0.0166886
731.687	0.0166956
731.765	0.0167753
731.843	0.0168663
731.922	0.0166826
732.000	0.0166648
732.078	0.0167920
732.156	0.0168042
732.234	0.0166167
732.312	0.0167097
732.390	0.0165688
732.468	0.0166056
732.547	0.0167080
732.625	0.0167455
732.703	0.0168272
732.781	0.0165762
732.859	0.0168143
732.937	0.0166772
733.015	0.0167157
733.093	0.0167439
733.172	0.0167419
733.250	0.0165819
733.328	0.0166655
733.406	0.0167852
733.484	0.0166737
733.562	0.0166799
733.640	0.0166831
733.718	0.0165797
733.797	0.0166663
733.875	0.0165475
733.953	0.0166502
734.031	0.0167190
734.109	0.0164787
734.187	0.0167262
734.265	0.0167549
734.343	0.0165179
734.422	0.0166609
734.500	0.0166934
734.578	0.0167212
734.656	0.0167883
734.734	0.0167394
734.812	0.0166703
734.890	0.0165685
734.968	0.0166240
735.047	0.0164665
735.125	0.0164717
735.203	0.0166099
735.281	0.0166564
735.359	0.0167052
735.437	0.0164857
735.515	0.0165995
735.593	0.0165614
735.672	0.0164775
735.750	0.0166718
735.828	0.0165767
735.906	0.0165975
735.984	0.0169384
736.062	0.0168600
736.140	0.0166412
736.218	0.0167023
736.297	0.0168206
736.375	0.0168356
736.453	0.0169253
736.531	0.0166560
736.609	0.0167770
736.687	0.0167731
736.765	0.0167617
736.843	0.0166770
736.922	0.0166734
737.000	0.0165930
737.078	0.0167488
737.156	0.0167170
737.234	0.0166497
737.312	0.0167227
737.390	0.0166934
737.468	0.0166750
737.547	0.0165991
737.625	0.0166101
737.703	0.0166956
737.781	0.0167542
737.859	0.0166054
737.937	0.0165883
738.015	0.0166311
738.093	0.0167210
738.172	0.0166226
738.250	0.0167369
738.328	0.0168213
738.406	0.0167603
738.484	0.0167109
738.562	0.0168656
738.640	0.0166811
738.718	0.0166370
738.797	0.0167372
738.875	0.0167038
738.953	0.0165947
739.031	0.0167002
739.109	0.0166747
739.187	0.0166626
739.265	0.0166784
739.343	0.0167715
739.422	0.0167025
739.500	0.0167411
739.578	0.0166502
739.656	0.0168023
739.734	0.0165891
739.812	0.0167427
739.890	0.0167731
739.968	0.0166452
740.047	0.0166946
740.125	0.0167521
740.203	0.0167258
740.281	0.0165267
740.359	0.0166558
740.437	0.0167698
740.515	0.0165001
740.593	0.0165572
740.672	0.0164923
740.750	0.0166301
740.828	0.0165788
740.906	0.0165549
740.984	0.0167168
741.062	0.0168241
741.140	0.0168095
741.218	0.0166982
741.297	0.0166115
741.375	0.0166861
741.453	0.0166528
741.531	0.0166705
741.609	0.0167001
741.687	0.0166390
741.765	0.0166515
741.843	0.0165765
741.922	0.0166795
742.000	0.0166066
742.078	0.0165656
742.156	0.0166032
742.234	0.0165806
742.312	0.0166816
742.390	0.0167267
742.468	0.0166737
742.547	0.0166734
742.625	0.0166815
742.703	0.0167517
742.781	0.0166718
742.859	0.0166472
742.937	0.0167422
743.015	0.0168423
743.093	0.0168119
743.172	0.0167516
743.250	0.0167824
743.328	0.0167517
743.406	0.0168600
743.484	0.0168559
743.562	0.0166018
743.640	0.0165734
743.718	0.0167720
743.797	0.0166859
743.875	0.0166590
743.953	0.0166967
744.031	0.0166897
744.109	0.0164992
744.187	0.0165723
744.265	0.0167258
744.343	0.0166694
744.422	0.0166850
744.500	0.0167173
744.578	0.0166745
744.656	0.0167136
744.734	0.0168256
744.812	0.0167712
744.890	0.0167554
744.968	0.0168780
745.047	0.0167294
745.125	0.0167669
745.203	0.0166836
745.281	0.0168551
745.359	0.0167014
745.437	0.0166557
745.515	0.0165993
745.593	0.0166540
745.672	0.0166417
745.750	0.0165896
745.828	0.0165669
745.906	0.0165495
745.984	0.0167268
746.062	0.0166563
746.140	0.0166154
746.218	0.0164591
746.297	0.0166912
746.375	0.0166138
746.453	0.0167023
746.531	0.0166450
746.609	0.0167061
746.687	0.0167168
746.765	0.0167529
746.843	0.0167295
746.922	0.0168920
747.000	0.0167064
747.078	0.0165103
747.156	0.0166095
747.234	0.0168146
747.312	0.0166866
747.390	0.0165923
747.468	0.0167382
747.547	0.0166315
747.625	0.0165858
747.703	0.0166040
747.781	0.0166747
747.859	0.0166745
747.937	0.0165976
748.015	0.0166663
748.093	0.0165391
748.172	0.0167340
748.250	0.0166602
748.328	0.0165887
748.406	0.0167042
748.484	0.0168006
748.562	0.0167454
748.640	0.0166516
748.718	0.0166354
748.797	0.0167748
748.875	0.0167240
748.953	0.0165710
749.031	0.0165347
749.109	0.0166148
749.187	0.0166985
749.265	0.0166957
749.343	0.0168155
749.422	0.0166613
749.500	0.0165736
749.578	0.0164923
749.656	0.0165656
749.734	0.0166573
749.812	0.0166484
749.890	0.0164724
749.968	0.0168126
750.047	0.0166134
750.125	0.0167167
750.203	0.0167567
750.281	0.0167280
750.359	0.0167451
750.437	0.0166910
750.515	0.0167848
750.593	0.0165849
750.672	0.0166734
750.750	0.0167083
750.828	0.0166805
750.906	0.0165794
750.984	0.0165870
751.062	0.0166486
751.140	0.0166529
751.218	0.0166413
751.297	0.0166922
751.375	0.0166927
751.453	0.0166260
751.531	0.0164874
751.609	0.0166465
751.687	0.0163945
751.765	0.0164567
751.843	0.0165837
751.922	0.0164712
752.000	0.0166906
752.078	0.0168172
752.156	0.0166152
752.234	0.0167948
752.312	0.0168665
752.390	0.0167837
752.468	0.0168499
752.547	0.0170039
752.625	0.0168941
752.703	0.0168385
752.781	0.0168494
752.859	0.0168103
752.937	0.0167326
753.015	0.0166715
753.093	0.0165959
753.172	0.0165416
753.250	0.0164780
753.328	0.0164198
753.406	0.0165984
753.484	0.0165565
753.562	0.0166376
753.640	0.0167227
753.718	0.0166813
753.797	0.0169044
753.875	0.0169553
753.953	0.0169267
754.031	0.0169991
754.109	0.0169602
754.187	0.0170714
754.265	0.0169456
754.343	0.0168900
754.422	0.0166965
754.500	0.0166702
754.578	0.0166817
754.656	0.0165477
754.734	0.0165965
754.812	0.0164675
754.890	0.0165483
754.968	0.0164224
755.047	0.0165016
755.125	0.0165457
755.203	0.0164354
755.281	0.0165585
755.359	0.0164890
755.437	0.0165468
755.515	0.0166263
755.593	0.0166573
755.672	0.0164824
755.750	0.0165192
755.828	0.0165902
755.906	0.0165114
755.984	0.0164690
756.062	0.0165246
756.140	0.0165637
756.218	0.0165680
756.297	0.0166567
756.375	0.0166641
756.453	0.0167868
756.531	0.0169641
756.609	0.0168697
756.687	0.0168380
756.765	0.0170634
756.843	0.0169923
756.922	0.0170087
757.000	0.0170349
757.078	0.0169895
757.156	0.0169147
757.234	0.0169399
757.312	0.0168209
757.390	0.0168373
757.468	0.0167181
757.547	0.0165601
757.625	0.0165776
757.703	0.0164427
757.781	0.0162444
757.859	0.0164185
757.937	0.0161784
758.015	0.0163488
758.093	0.0162676
758.172	0.0163867
758.250	0.0163741
758.328	0.0164948
758.406	0.0164192
758.484	0.0163624
758.562	0.0165069
758.640	0.0165001
758.718	0.0164675
758.797	0.0164780
758.875	0.0164341
758.953	0.0167526
759.031	0.0165729
759.109	0.0166319
759.187	0.0168055
759.265	0.0167210
759.343	0.0167288
759.422	0.0167754
759.500	0.0169728
759.578	0.0169361
759.656	0.0168907
759.734	0.0169487
759.812	0.0168988
759.890	0.0168871
759.968	0.0168492
760.047	0.0168273
760.125	0.0168305
760.203	0.0169183
760.281	0.0167490
760.359	0.0165549
760.437	0.0165052
760.515	0.0162639
760.593	0.0161741
760.672	0.0162152
760.750	0.0162135
760.828	0.0160875
760.906	0.0158686
760.984	0.0159745
761.062	0.0159557
761.140	0.0159698
761.218	0.0159908
761.297	0.0160748
761.375	0.0164175
761.453	0.0165137
761.531	0.0165583
761.609	0.0168415
761.687	0.0171543
761.765	0.0172958
761.843	0.0174708
761.922	0.0175534
762.000	0.0176521
762.078	0.0177293
762.156	0.0177570
762.234	0.0176982
762.312	0.0178825
762.390	0.0179127
762.468	0.0177078
762.547	0.0177027
762.625	0.0176384
762.703	0.0174120
762.781	0.0174972
762.859	0.0172672
762.937	0.0170921
763.015	0.0168842
763.093	0.0166890
763.172	0.0164706
763.250	0.0161031
763.328	0.0157355
763.406	0.0154989
763.484	0.0151911
763.562	0.0149229
763.640	0.0148917
763.718	0.0147785
763.797	0.0147076
763.875	0.0147580
763.953	0.0149940
764.031	0.0151402
764.109	0.0152850
764.187	0.0156229
764.265	0.0159873
764.343	0.0161391
764.422	0.0164519
764.500	0.0167693
764.578	0.0169648
764.656	0.0173298
764.734	0.0174583
764.812	0.0178096
764.890	0.0177762
764.968	0.0179091
765.047	0.0180122
765.125	0.0181490
765.203	0.0180060
765.281	0.0178939
765.359	0.0177483
765.437	0.0177811
765.515	0.0176070
765.593	0.0173156
765.672	0.0172586
765.750	0.0170116
765.828	0.0169042
765.906	0.0169209
765.984	0.0167700
766.062	0.0165089
766.140	0.0166836
766.218	0.0165347
766.297	0.0164265
766.375	0.0165604
766.453	0.0165913
766.531	0.0165210
766.609	0.0164563
766.687	0.0165741
766.765	0.0167269
766.843	0.0166663
766.922	0.0167070
767.000	0.0167620
767.078	0.0167677
767.156	0.0167670
767.234	0.0168330
767.312	0.0167896
767.390	0.0168857
767.468	0.0167457
767.547	0.0168391
767.625	0.0168357
767.703	0.0167751
767.781	0.0166484
767.859	0.0166756
767.937	0.0165774
768.015	0.0165057
768.093	0.0164654
768.172	0.0163188
768.250	0.0161709
768.328	0.0161922
768.406	0.0160518
768.484	0.0160544
768.562	0.0159983
768.640	0.0160091
768.718	0.0162427
768.797	0.0163141
768.875	0.0163119
768.953	0.0163799
769.031	0.0164072
769.109	0.0165096
769.187	0.0165845
769.265	0.0166680
769.343	0.0165475
769.422	0.0165708
769.500	0.0165670
769.578	0.0163348
769.656	0.0164337
769.734	0.0163633
769.812	0.0162505
769.890	0.0161317
769.968	0.0162099
770.047	0.0162417
770.125	0.0160695
770.203	0.0163521
770.281	0.0162263
770.359	0.0164594
770.437	0.0167388
770.515	0.0168163
770.593	0.0169432
770.672	0.0171198
770.750	0.0172688
770.828	0.0173570
770.906	0.0175357
770.984	0.0177531
771.062	0.0179145
771.140	0.0178478
771.218	0.0180097
771.297	0.0179770
771.375	0.0179235
771.453	0.0178636
771.531	0.0179485
771.609	0.0177219
771.687	0.0175996
771.765	0.0174700
771.843	0.0174180
771.922	0.0171825
772.000	0.0170725
772.078	0.0170739
772.156	0.0169017
772.234	0.0168996
772.312	0.0168857
772.390	0.0166648
772.468	0.0167033
772.547	0.0169327
772.625	0.0169498
772.703	0.0168851
772.781	0.0169495
772.859	0.0168328
772.937	0.0168278
773.015	0.0165670
773.093	0.0166569
773.172	0.0162489
773.250	0.0162201
773.328	0.0160336
773.406	0.0156349
773.484	0.0155775
773.562	0.0153819
773.640	0.0152161
773.718	0.0149235
773.797	0.0148928
773.875	0.0148545
773.953	0.0145816
774.031	0.0146764
774.109	0.0146237
774.187	0.0146303
774.265	0.0147128
774.343	0.0148447
774.422	0.0150244
774.500	0.0153207
774.578	0.0156200
774.656	0.0160442
774.734	0.0164836
774.812	0.0168475
774.890	0.0171912
774.968	0.0176237
775.047	0.0176992
775.125	0.0179886
775.203	0.0181083
775.281	0.0181499
775.359	0.0180903
775.437	0.0179038
775.515	0.0179391
775.593	0.0177059
775.672	0.0175542
775.750	0.0177608
775.828	0.0176710
775.906	0.0175837
775.984	0.0174437
776.062	0.0176202
776.140	0.0173971
776.218	0.0173830
776.297	0.0175010
776.375	0.0174413
776.453	0.0174258
776.531	0.0174043
776.609	0.0174972
776.687	0.0176913
776.765	0.0176868
776.843	0.0177972
776.922	0.0178321
777.000	0.0178876
777.078	0.0180499
777.156	0.0179832
777.234	0.0176842
777.312	0.0175577
777.390	0.0172755
777.468	0.0171198
777.547	0.0167663
777.625	0.0164951
777.703	0.0160902
777.781	0.0158176
777.859	0.0157267
777.937	0.0154272
778.015	0.0150286
778.093	0.0149805
778.172	0.0148678
778.250	0.0147491
778.328	0.0147775
778.406	0.0151382
778.484	0.0153510
778.562	0.0153242
778.640	0.0154975
778.718	0.0158529
778.797	0.0159621
778.875	0.0161278
778.953	0.0163219
779.031	0.0162851
779.109	0.0163760
779.187	0.0162740
779.265	0.0161721
779.343	0.0158808
779.422	0.0159099
779.500	0.0157021
779.578	0.0153111
779.656	0.0153345
779.734	0.0152116
779.812	0.0153001
779.890	0.0150919
779.968	0.0151315
780.047	0.0151952
780.125	0.0155952
780.203	0.0158776
780.281	0.0162036
780.359	0.0164869
780.437	0.0167965
780.515	0.0171885
780.593	0.0176953
780.672	0.0181010
780.750	0.0183958
780.828	0.0186696
780.906	0.0188576
780.984	0.0188809
781.062	0.0189761
781.140	0.0188248
781.218	0.0184526
781.297	0.0183972
781.375	0.0180928
781.453	0.0178545
781.531	0.0176003
781.609	0.0174512
781.687	0.0174098
781.765	0.0173546
781.843	0.0172392
781.922	0.0174634
782.000	0.0174554
782.078	0.0173948
782.156	0.0172675
782.234	0.0173969
782.312	0.0173660
782.390	0.0172265
782.468	0.0173160
782.547	0.0172633
782.625	0.0170217
782.703	0.0168230
782.781	0.0168858
782.859	0.0168523
782.937	0.0166230
783.015	0.0165666
783.093	0.0164075
783.172	0.0164840
783.250	0.0166314
783.328	0.0166301
783.406	0.0166051
783.484	0.0165802
783.562	0.0165754
783.640	0.0162691
783.718	0.0164787
783.797	0.0161978
783.875	0.0160430
783.953	0.0158425
784.031	0.0157430
784.109	0.0154833
784.187	0.0152893
784.265	0.0150727
784.343	0.0147417
784.422	0.0144283
784.500	0.0143160
784.578	0.0142673
784.656	0.0142364
784.734	0.0142564
784.812	0.0141692
784.890	0.0143337
784.968	0.0145806
785.047	0.0147433
785.125	0.0150578
785.203	0.0153162
785.281	0.0153925
785.359	0.0156634
785.437	0.0161467
785.515	0.0161646
785.593	0.0164365
785.672	0.0164165
785.750	0.0165292
785.828	0.0166097
785.906	0.0167764
785.984	0.0168480
786.062	0.0170159
786.140	0.0172503
786.218	0.0174371
786.297	0.0177380
786.375	0.0179893
786.453	0.0183163
786.531	0.0188279
786.609	0.0188605
786.687	0.0193181
786.765	0.0196754
786.843	0.0198174
786.922	0.0199888
787.000	0.0201263
787.078	0.0199854
787.156	0.0200738
787.234	0.0199097
787.312	0.0196555
787.390	0.0195905
787.468	0.0190888
787.547	0.0186809
787.625	0.0185201
787.703	0.0181033
787.781	0.0175652
787.859	0.0174527
787.937	0.0168558
788.015	0.0164378
788.093	0.0162703
788.172	0.0161417
788.250	0.0155066
788.328	0.0152985
788.406	0.0151130
788.484	0.0149377
788.562	0.0147286
788.640	0.0147532
788.718	0.0147926
788.797	0.0146356
788.875	0.0147077
788.953	0.0146349
789.031	0.0148264
789.109	0.0148583
789.187	0.0149394
789.265	0.0148878
789.343	0.0150384
789.422	0.0150825
789.500	0.0149738
789.578	0.0150951
789.656	0.0150406
789.734	0.0151124
789.812	0.0149586
789.890	0.0150580
789.968	0.0150668
790.047	0.0151122
790.125	0.0150201
790.203	0.0151411
790.281	0.0151941
790.359	0.0154390
790.437	0.0155535
790.515	0.0158395
790.593	0.0159310
790.672	0.0161346
790.750	0.0165228
790.828	0.0167565
790.906	0.0170531
790.984	0.0172124
791.062	0.0175016
791.140	0.0175877
791.218	0.0177435
791.297	0.0179257
791.375	0.0180910
791.453	0.0180162
791.531	0.0180099
791.609	0.0180933
791.687	0.0180721
791.765	0.0181618
791.843	0.0182859
791.922	0.0181805
792.000	0.0183309
792.078	0.0182574
792.156	0.0183263
792.234	0.0182493
792.312	0.0182675
792.390	0.0183498
792.468	0.0184897
792.547	0.0184073
792.625	0.0183605
792.703	0.0183811
792.781	0.0183508
792.859	0.0184383
792.937	0.0184076
793.015	0.0181894
793.093	0.0180447
793.172	0.0180187
793.250	0.0177502
793.328	0.0175357
793.406	0.0173642
793.484	0.0170818
793.562	0.0166142
793.640	0.0163692
793.718	0.0160999
793.797	0.0157998
793.875	0.0156095
793.953	0.0155289
794.031	0.0153133
794.109	0.0151037
794.187	0.0150409
794.265	0.0150606
794.343	0.0150079
794.422	0.0150787
794.500	0.0150207
794.578	0.0150005
794.656	0.0152445
794.734	0.0152013
794.812	0.0153197
794.890	0.0154115
794.968	0.0154042
795.047	0.0156624
795.125	0.0157996
795.203	0.0158003
795.281	0.0158093
795.359	0.0159812
795.437	0.0159608
795.515	0.0158991
795.593	0.0162212
795.672	0.0163402
795.750	0.0163245
795.828	0.0163663
795.906	0.0163331
795.984	0.0163815
796.062	0.0164150
796.140	0.0163853
796.218	0.0162003
796.297	0.0163838
796.375	0.0163117
796.453	0.0162341
796.531	0.0162913
796.609	0.0163100
796.687	0.0164854
796.765	0.0164563
796.843	0.0165398
796.922	0.0167587
797.000	0.0169120
797.078	0.0170090
797.156	0.0170455
797.234	0.0171964
797.312	0.0172241
797.390	0.0175124
797.468	0.0177160
797.547	0.0177557
797.625	0.0179603
797.703	0.0181192
797.781	0.0182966
797.859	0.0184244
797.937	0.0185913
798.015	0.0186230
798.093	0.0186880
798.172	0.0188733
798.250	0.0189574
798.328	0.0188744
798.406	0.0188289
798.484	0.0186291
798.562	0.0185435
798.640	0.0183295
798.718	0.0179827
798.797	0.0177831
798.875	0.0173820
798.953	0.0171838
799.031	0.0168045
799.109	0.0164051
799.187	0.0160978
799.265	0.0157937
799.343	0.0154454
799.422	0.0152016
799.500	0.0149540
799.578	0.0147159
799.656	0.0144971
799.734	0.0145338
799.812	0.0144649
799.890	0.0146052
799.968	0.0149067
800.047	0.0148334
800.125	0.0150554
800.203	0.0153347
800.281	0.0155476
800.359	0.0159196
800.437	0.0162251
800.515	0.0162987
800.593	0.0166145
800.672	0.0169009
800.750	0.0171169
800.828	0.0171091
800.906	0.0171684
800.984	0.0171711
801.062	0.0171861
801.140	0.0169888
801.218	0.0167758
801.297	0.0166629
801.375	0.0164445
801.453	0.0162698
801.531	0.0161700
801.609	0.0161232
801.687	0.0159802
801.765	0.0157468
801.843	0.0155861
801.922	0.0155442
802.000	0.0155838
802.078	0.0156366
802.156	0.0156241
802.234	0.0157561
802.312	0.0158279
802.390	0.0161457
802.468	0.0163319
802.547	0.0165877
802.625	0.0167234
802.703	0.0168752
802.781	0.0170290
802.859	0.0171246
802.937	0.0172236
803.015	0.0173080
803.093	0.0174983
803.172	0.0174829
803.250	0.0173309
803.328	0.0175589
803.406	0.0176498
803.484	0.0175988
803.562	0.0176694
803.640	0.0176339
803.718	0.0178232
803.797	0.0179868
803.875	0.0179523
803.953	0.0179070
804.031	0.0178848
804.109	0.0178339
804.187	0.0177001
804.265	0.0176740
804.343	0.0174977
804.422	0.0175726
804.500	0.0173384
804.578	0.0172002
804.656	0.0169344
804.734	0.0168591
804.812	0.0167986
804.890	0.0165784
804.968	0.0162939
805.047	0.0161867
805.125	0.0160165
805.203	0.0159292
805.281	0.0158238
805.359	0.0156145
805.437	0.0156113
805.515	0.0155146
805.593	0.0154760
805.672	0.0156650
805.750	0.0155818
805.828	0.0156606
805.906	0.0156861
805.984	0.0158772
806.062	0.0158866
806.140	0.0161108
806.218	0.0163766
806.297	0.0163289
806.375	0.0163564
806.453	0.0166010
806.531	0.0166766
806.609	0.0168116
806.687	0.0169715
806.765	0.0170670
806.843	0.0169601
806.922	0.0169007
807.000	0.0170180
807.078	0.0171018
807.156	0.0168811
807.234	0.0169544
807.312	0.0169072
807.390	0.0168744
807.468	0.0167731
807.547	0.0165759
807.625	0.0165479
807.703	0.0163987
807.781	0.0161427
807.859	0.0162735
807.937	0.0161057
808.015	0.0159004
808.093	0.0160203
808.172	0.0159052
808.250	0.0158597
808.328	0.0159814
808.406	0.0159736
808.484	0.0159686
808.562	0.0162499
808.640	0.0162671
808.718	0.0162976
808.797	0.0164637
808.875	0.0165487
808.953	0.0166119
809.031	0.0167729
809.109	0.0168672
809.187	0.0169856
809.265	0.0172009
809.343	0.0173434
809.422	0.0172914
809.500	0.0174153
809.578	0.0176075
809.656	0.0175642
809.734	0.0177479
809.812	0.0177448
809.890	0.0178436
809.968	0.0178353
810.047	0.0178622
810.125	0.0178506
810.203	0.0178288
810.281	0.0178808
810.359	0.0176624
810.437	0.0175942
810.515	0.0174811
810.593	0.0174937
810.672	0.0172969
810.750	0.0171761
810.828	0.0169304
810.906	0.0167889
810.984	0.0168477
811.062	0.0166846
811.140	0.0166644
811.218	0.0165438
811.297	0.0164502
811.375	0.0163113
811.453	0.0163281
811.531	0.0162980
811.609	0.0162061
811.687	0.0161549
811.765	0.0161118
811.843	0.0160849
811.922	0.0160532
812.000	0.0161658
812.078	0.0161137
812.156	0.0160336
812.234	0.0161808
812.312	0.0160196
812.390	0.0161053
812.468	0.0161716
812.547	0.0162320
812.625	0.0161714
812.703	0.0160155
812.781	0.0159497
812.859	0.0161008
812.937	0.0158982
813.015	0.0160078
813.093	0.0159608
813.172	0.0159270
813.250	0.0160824
813.328	0.0160647
813.406	0.0160191
813.484	0.0161561
813.562	0.0161215
813.640	0.0161868
813.718	0.0162122
813.797	0.0162820
813.875	0.0163720
813.953	0.0163805
814.031	0.0164736
814.109	0.0165715
814.187	0.0168362
814.265	0.0168334
814.343	0.0169060
814.422	0.0170177
814.500	0.0170625
814.578	0.0170247
814.656	0.0170308
814.734	0.0172291
814.812	0.0173212
814.890	0.0175791
814.968	0.0176018
815.047	0.0175873
815.125	0.0177828
815.203	0.0178261
815.281	0.0179142
815.359	0.0178115
815.437	0.0178123
815.515	0.0178017
815.593	0.0178165
815.672	0.0176309
815.750	0.0175943
815.828	0.0176321
815.906	0.0174120
815.984	0.0170808
816.062	0.0171606
816.140	0.0169922
816.218	0.0169389
816.297	0.0167309
816.375	0.0165167
816.453	0.0164257
816.531	0.0163049
816.609	0.0163230
816.687	0.0161690
816.765	0.0161214
816.843	0.0160970
816.922	0.0160961
817.000	0.0160590
817.078	0.0161524
817.156	0.0161887
817.234	0.0162627
817.312	0.0161294
817.390	0.0160932
817.468	0.0161730
817.547	0.0162904
817.625	0.0163194
817.703	0.0161982
817.781	0.0163084
817.859	0.0163034
817.937	0.0163303
818.015	0.0163047
818.093	0.0163178
818.172	0.0163088
818.250	0.0162256
818.328	0.0162251
818.406	0.0161267
818.484	0.0162357
818.562	0.0160989
818.640	0.0162334
818.718	0.0161969
818.797	0.0161314
818.875	0.0160546
818.953	0.0160715
819.031	0.0163312
819.109	0.0163612
819.187	0.0163554
819.265	0.0165647
819.343	0.0167783
819.422	0.0167422
819.500	0.0170195
819.578	0.0170343
819.656	0.0172150
819.734	0.0172491
819.812	0.0174261
819.890	0.0173665
819.968	0.0175441
820.047	0.0175426
820.125	0.0173332
820.203	0.0173127
820.281	0.0173373
820.359	0.0171700
820.437	0.0173796
820.515	0.0171962
820.593	0.0169740
820.672	0.0170849
820.750	0.0170280
820.828	0.0168591
820.906	0.0167427
820.984	0.0168266
821.062	0.0167882
821.140	0.0167371
821.218	0.0165298
821.297	0.0164980
821.375	0.0164943
821.453	0.0164733
821.531	0.0163068
821.609	0.0162893
821.687	0.0162870
821.765	0.0164397
821.843	0.0163282
821.922	0.0163596
822.000	0.0162371
822.078	0.0162921
822.156	0.0163793
822.234	0.0166178
822.312	0.0165847
822.390	0.0166242
822.468	0.0166913
822.547	0.0167292
822.625	0.0167817
822.703	0.0168047
822.781	0.0166972
822.859	0.0167239
822.937	0.0168114
823.015	0.0167683
823.093	0.0166461
823.172	0.0165051
823.250	0.0166386
823.328	0.0163663
823.406	0.0163253
823.484	0.0162916
823.562	0.0161787
823.640	0.0162514
823.718	0.0162379
823.797	0.0161746
823.875	0.0161413
823.953	0.0161374
824.031	0.0162436
824.109	0.0162987
824.187	0.0162827
824.265	0.0164353
824.343	0.0164748
824.422	0.0163323
824.500	0.0165906
824.578	0.0165263
824.656	0.0166190
824.734	0.0167320
824.812	0.0168329
824.890	0.0167900
824.968	0.0167706
825.047	0.0168729
825.125	0.0169618
825.203	0.0168952
825.281	0.0170558
825.359	0.0170333
825.437	0.0170172
825.515	0.0172242
825.593	0.0173437
825.672	0.0173233
825.750	0.0172220
825.828	0.0174342
825.906	0.0174505
825.984	0.0174586
826.062	0.0174632
826.140	0.0174142
826.218	0.0172339
826.297	0.0171346
826.375	0.0170473
826.453	0.0170136
826.531	0.0168052
826.609	0.0166423
826.687	0.0165284
826.765	0.0164285
826.843	0.0163319
826.922	0.0162083
827.000	0.0162592
827.078	0.0161360
827.156	0.0159622
827.234	0.0162760
827.312	0.0161472
827.390	0.0161459
827.468	0.0162264
827.547	0.0162294
827.625	0.0163672
827.703	0.0164864
827.781	0.0165691
827.859	0.0166131
827.937	0.0167789
828.015	0.0167678
828.093	0.0168261
828.172	0.0168597
828.250	0.0169352
828.328	0.0168161
828.406	0.0167213
828.484	0.0166866
828.562	0.0167648
828.640	0.0165544
828.718	0.0165691
828.797	0.0167671
828.875	0.0166384
828.953	0.0166489
829.031	0.0166991
829.109	0.0166671
829.187	0.0167460
829.265	0.0165711
829.343	0.0165903
829.422	0.0165813
829.500	0.0167573
829.578	0.0166789
829.656	0.0165643
829.734	0.0167264
829.812	0.0167001
829.890	0.0166250
829.968	0.0166256
830.047	0.0167995
830.125	0.0166855
830.203	0.0166335
830.281	0.0166423
830.359	0.0167014
830.437	0.0166502
830.515	0.0167301
830.593	0.0168629
830.672	0.0168043
830.750	0.0168708
830.828	0.0169693
830.906	0.0170998
830.984	0.0171037
831.062	0.0170633
831.140	0.0172270
831.218	0.0172492
831.297	0.0173270
831.375	0.0172295
831.453	0.0174541
831.531	0.0175504
831.609	0.0173997
831.687	0.0172972
831.765	0.0172952
831.843	0.0171361
831.922	0.0169172
832.000	0.0168589
832.078	0.0167493
832.156	0.0168239
832.234	0.0166658
832.312	0.0164223
832.390	0.0161166
832.468	0.0161276
832.547	0.0160749
832.625	0.0159628
832.703	0.0160008
832.781	0.0158669
832.859	0.0160318
832.937	0.0158956
833.015	0.0160477
833.093	0.0162222
833.172	0.0162331
833.250	0.0162828
833.328	0.0162766
833.406	0.0163429
833.484	0.0166257
833.562	0.0166566
833.640	0.0167917
833.718	0.0167828
833.797	0.0168102
833.875	0.0167865
833.953	0.0168507
834.031	0.0167703
834.109	0.0167539
834.187	0.0168744
834.265	0.0167463
834.343	0.0165867
834.422	0.0166050
834.500	0.0167245
834.578	0.0164700
834.656	0.0164676
834.734	0.0165955
834.812	0.0166727
834.890	0.0167887
834.968	0.0166668
835.047	0.0167035
835.125	0.0167820
835.203	0.0167667
835.281	0.0167266
835.359	0.0167328
835.437	0.0169324
835.515	0.0167274
835.593	0.0166156
835.672	0.0166293
835.750	0.0166573
835.828	0.0165687
835.906	0.0164790
835.984	0.0164539
836.062	0.0164973
836.140	0.0165082
836.218	0.0166575
836.297	0.0166380
836.375	0.0165063
836.453	0.0167273
836.531	0.0169356
836.609	0.0169607
836.687	0.0169124
836.765	0.0170471
836.843	0.0170775
836.922	0.0171105
837.000	0.0171616
837.078	0.0174141
837.156	0.0173358
837.234	0.0172746
837.312	0.0172482
837.390	0.0172035
837.468	0.0170787
837.547	0.0170605
837.625	0.0170282
837.703	0.0168152
837.781	0.0167162
837.859	0.0165029
837.937	0.0161886
838.015	0.0161593
838.093	0.0159859
838.172	0.0159815
838.250	0.0159086
838.328	0.0158492
838.406	0.0158518
838.484	0.0158167
838.562	0.0159217
838.640	0.0160744
838.718	0.0159764
838.797	0.0160046
838.875	0.0161035
838.953	0.0162570
839.031	0.0163459
839.109	0.0164584
839.187	0.0165586
839.265	0.0165681
839.343	0.0168294
839.422	0.0167625
839.500	0.0168236
839.578	0.0168691
839.656	0.0166279
839.734	0.0167846
839.812	0.0168112
839.890	0.0166545
839.968	0.0166810
840.047	0.0168003
840.125	0.0166910
840.203	0.0166160
840.281	0.0165778
840.359	0.0165948
840.437	0.0167062
840.515	0.0166268
840.593	0.0166254
840.672	0.0164878
840.750	0.0165332
840.828	0.0167834
840.906	0.0166822
840.984	0.0167512
841.062	0.0167463
841.140	0.0165355
841.218	0.0165308
841.297	0.0165596
841.375	0.0164577
841.453	0.0164735
841.531	0.0162606
841.609	0.0161716
841.687	0.0163968
841.765	0.0162985
841.843	0.0163702
841.922	0.0162888
842.000	0.0164117
842.078	0.0167661
842.156	0.0166490
842.234	0.0168227
842.312	0.0169024
842.390	0.0168801
842.468	0.0169865
842.547	0.0172516
842.625	0.0172072
842.703	0.0173631
842.781	0.0173808
842.859	0.0174089
842.937	0.0175007
843.015	0.0175809
843.093	0.0174879
843.172	0.0173093
843.250	0.0172353
843.328	0.0173322
843.406	0.0170725
843.484	0.0169299
843.562	0.0168523
843.640	0.0166339
843.718	0.0164561
843.797	0.0164369
843.875	0.0162685
843.953	0.0162622
844.031	0.0160461
844.109	0.0160889
844.187	0.0161945
844.265	0.0160092
844.343	0.0159756
844.422	0.0160647
844.500	0.0160192
844.578	0.0159895
844.656	0.0162660
844.734	0.0161388
844.812	0.0163781
844.890	0.0164806
844.968	0.0166142
845.047	0.0165845
845.125	0.0165613
845.203	0.0165751
845.281	0.0166383
845.359	0.0167982
845.437	0.0167531
845.515	0.0167281
845.593	0.0166486
845.672	0.0166685
845.750	0.0166827
845.828	0.0167105
845.906	0.0166614
845.984	0.0167439
846.062	0.0166527
846.140	0.0166962
846.218	0.0166774
846.297	0.0166913
846.375	0.0167645
846.453	0.0168222
846.531	0.0168863
846.609	0.0168348
846.687	0.0168940
846.765	0.0167532
846.843	0.0166811
846.922	0.0166718
847.000	0.0166793
847.078	0.0166035
847.156	0.0165998
847.234	0.0165737
847.312	0.0165052
847.390	0.0163326
847.468	0.0162914
847.547	0.0164321
847.625	0.0164948
847.703	0.0164681
847.781	0.0165907
847.859	0.0165455
847.937	0.0166541
848.015	0.0167789
848.093	0.0170613
848.172	0.0169427
848.250	0.0170546
848.328	0.0171467
848.406	0.0172234
848.484	0.0172784
848.562	0.0174989
848.640	0.0175154
848.718	0.0174515
848.797	0.0174779
848.875	0.0173425
848.953	0.0172548
849.031	0.0173366
849.109	0.0172401
849.187	0.0170767
849.265	0.0168939
849.343	0.0165650
849.422	0.0165862
849.500	0.0164619
849.578	0.0164192
849.656	0.0163213
849.734	0.0162349
849.812	0.0161189
849.890	0.0161352
849.968	0.0163044
850.047	0.0160694
850.125	0.0161547
850.203	0.0162888
850.281	0.0163763
850.359	0.0163982
850.437	0.0164174
850.515	0.0165242
850.593	0.0166383
850.672	0.0167138
850.750	0.0168044
850.828	0.0168046
850.906	0.0168190
850.984	0.0167041
851.062	0.0167886
851.140	0.0167857
851.218	0.0166782
851.297	0.0167359
851.375	0.0168434
851.453	0.0164964
851.531	0.0164861
851.609	0.0166825
851.687	0.0166595
851.765	0.0165207
851.843	0.0165009
851.922	0.0165069
852.000	0.0166817
852.078	0.0167072
852.156	0.0167195
852.234	0.0165919
852.312	0.0167390
852.390	0.0167171
852.468	0.0167395
852.547	0.0166932
852.625	0.0167210
852.703	0.0167094
852.781	0.0167044
852.859	0.0165365
852.937	0.0166181
853.015	0.0165044
853.093	0.0165070
853.172	0.0165511
853.250	0.0164295
853.328	0.0164588
853.406	0.0164808
853.484	0.0162876
853.562	0.0163743
853.640	0.0165357
853.718	0.0164441
853.797	0.0165882
853.875	0.0166454
853.953	0.0167405
854.031	0.0169376
854.109	0.0169559
854.187	0.0170452
854.265	0.0170165
854.343	0.0170801
854.422	0.0172634
854.500	0.0174632
854.578	0.0173592
854.656	0.0171969
854.734	0.0172172
854.812	0.0171687
854.890	0.0169600
854.968	0.0168712
855.047	0.0169112
855.125	0.0167074
855.203	0.0166409
855.281	0.0165331
855.359	0.0163796
855.437	0.0162383
855.515	0.0162222
855.593	0.0162735
855.672	0.0162481
855.750	0.0163425
855.828	0.0163261
855.906	0.0163208
855.984	0.0165582
856.062	0.0165297
856.140	0.0166017
856.218	0.0168152
856.297	0.0167357
856.375	0.0167377
856.453	0.0169250
856.531	0.0169429
856.609	0.0168480
856.687	0.0170287
856.765	0.0167041
856.843	0.0167113
856.922	0.0167493
857.000	0.0167492
857.078	0.0167442
857.156	0.0167207
857.234	0.0165481
857.312	0.0165365
857.390	0.0163950
857.468	0.0163458
857.547	0.0164075
857.625	0.0163203
857.703	0.0164503
857.781	0.0164843
857.859	0.0165133
857.937	0.0165372
858.015	0.0166428
858.093	0.0166181
858.172	0.0168082
858.250	0.0166376
858.328	0.0168386
858.406	0.0169123
858.484	0.0168441
858.562	0.0167380
858.640	0.0167467
858.718	0.0167212
858.797	0.0165846
858.875	0.0165615
858.953	0.0166882
859.031	0.0167204
859.109	0.0165299
859.187	0.0165253
859.265	0.0165659
859.343	0.0165382
859.422	0.0164824
859.500	0.0165262
859.578	0.0164690
859.656	0.0166160
859.734	0.0165673
859.812	0.0166985
859.890	0.0168069
859.968	0.0167934
860.047	0.0168954
860.125	0.0170646
860.203	0.0168424
860.281	0.0169444
860.359	0.0170398
860.437	0.0168944
860.515	0.0168462
860.593	0.0168498
860.672	0.0167007
860.750	0.0167284
860.828	0.0165921
860.906	0.0165388
860.984	0.0165443
861.062	0.0165555
861.140	0.0165405
861.218	0.0163741
861.297	0.0164417
861.375	0.0164587
861.453	0.0165289
861.531	0.0163880
861.609	0.0163984
861.687	0.0166245
861.765	0.0165938
861.843	0.0165706
861.922	0.0165882
862.000	0.0167251
862.078	0.0167063
862.156	0.0166734
862.234	0.0168498
862.312	0.0167329
862.390	0.0168228
862.468	0.0168475
862.547	0.0168366
862.625	0.0167636
862.703	0.0166855
862.781	0.0168126
862.859	0.0168140
862.937	0.0167312
863.015	0.0167522
863.093	0.0166314
863.172	0.0167249
863.250	0.0167560
863.328	0.0165924
863.406	0.0166209
863.484	0.0165729
863.562	0.0166914
863.640	0.0166783
863.718	0.0168088
863.797	0.0166631
863.875	0.0166768
863.953	0.0167215
864.031	0.0167321
864.109	0.0166280
864.187	0.0167517
864.265	0.0165816
864.343	0.0164148
864.422	0.0166029
864.500	0.0165903
864.578	0.0164963
864.656	0.0165281
864.734	0.0163713
864.812	0.0162666
864.890	0.0161967
864.968	0.0163880
865.047	0.0162368
865.125	0.0161479
865.203	0.0162603
865.281	0.0163763
865.359	0.0162780
865.437	0.0164189
865.515	0.0163982
865.593	0.0166004
865.672	0.0167554
865.750	0.0168358
865.828	0.0168713
865.906	0.0169062
865.984	0.0167845
866.062	0.0170304
866.140	0.0170148
866.218	0.0170620
866.297	0.0171011
866.375	0.0170118
866.453	0.0170448
866.531	0.0171004
866.609	0.0169482
866.687	0.0171412
866.765	0.0169155
866.843	0.0169700
866.922	0.0168272
867.000	0.0169201
867.078	0.0167990
867.156	0.0167057
867.234	0.0168129
867.312	0.0166470
867.390	0.0166837
867.468	0.0167010
867.547	0.0166125
867.625	0.0165816
867.703	0.0165499
867.781	0.0164596
867.859	0.0164285
867.937	0.0164844
868.015	0.0164260
868.093	0.0164894
868.172	0.0164856
868.250	0.0163949
868.328	0.0163555
868.406	0.0162068
868.484	0.0162695
868.562	0.0163987
868.640	0.0164529
868.718	0.0164155
868.797	0.0164340
868.875	0.0165987
868.953	0.0165753
869.031	0.0165639
869.109	0.0165430
869.187	0.0164006
869.265	0.0166933
869.343	0.0166444
869.422	0.0166753
869.500	0.0167355
869.578	0.0167190
869.656	0.0167953
869.734	0.0167247
869.812	0.0168822
869.890	0.0166374
869.968	0.0167220
870.047	0.0164947
870.125	0.0164292
870.203	0.0164323
870.281	0.0163428
870.359	0.0162949
870.437	0.0163404
870.515	0.0161182
870.593	0.0162747
870.672	0.0160867
870.750	0.0161784
870.828	0.0163133
870.906	0.0161899
870.984	0.0162821
871.062	0.0164390
871.140	0.0163657
871.218	0.0163722
871.297	0.0165409
871.375	0.0166876
871.453	0.0168317
871.531	0.0168163
871.609	0.0167989
871.687	0.0169226
871.765	0.0171335
871.843	0.0171459
871.922	0.0171951
872.000	0.0172171
872.078	0.0172714
872.156	0.0172495
872.234	0.0173779
872.312	0.0172036
872.390	0.0172589
872.468	0.0172853
872.547	0.0172684
872.625	0.0171075
872.703	0.0170589
872.781	0.0172146
872.859	0.0171125
872.937	0.0170506
873.015	0.0168314
873.093	0.0170112
873.172	0.0168573
873.250	0.0168968
873.328	0.0168220
873.406	0.0167183
873.484	0.0166863
873.562	0.0166399
873.640	0.0165047
873.718	0.0164886
873.797	0.0164989
873.875	0.0164964
873.953	0.0162682
874.031	0.0162346
874.109	0.0162224
874.187	0.0162460
874.265	0.0162479
874.343	0.0162286
874.422	0.0162259
874.500	0.0162730
874.578	0.0163789
874.656	0.0163901
874.734	0.0162314
874.812	0.0164832
874.890	0.0164302
874.968	0.0163378
875.047	0.0164971
875.125	0.0164554
875.203	0.0165311
875.281	0.0166080
875.359	0.0164183
875.437	0.0164886
875.515	0.0166010
875.593	0.0164772
875.672	0.0165631
875.750	0.0165759
875.828	0.0164439
875.906	0.0164015
875.984	0.0163795
876.062	0.0163540
876.140	0.0162659
876.218	0.0162422
876.297	0.0163794
876.375	0.0163319
876.453	0.0162657
876.531	0.0162877
876.609	0.0162939
876.687	0.0163962
876.765	0.0165134
876.843	0.0165962
876.922	0.0166505
877.000	0.0166862
877.078	0.0167043
877.156	0.0167383
877.234	0.0169100
877.312	0.0168208
877.390	0.0168194
877.468	0.0170573
877.547	0.0170489
877.625	0.0170137
877.703	0.0171010
877.781	0.0171879
877.859	0.0171404
877.937	0.0171677
878.015	0.0173048
878.093	0.0172420
878.172	0.0171954
878.250	0.0171038
878.328	0.0173472
878.406	0.0171245
878.484	0.0171043
878.562	0.0170299
878.640	0.0170480
878.718	0.0169607
878.797	0.0170171
878.875	0.0170415
878.953	0.0168461
879.031	0.0168372
879.109	0.0167902
879.187	0.0167455
879.265	0.0166231
879.343	0.0166485
879.422	0.0166220
879.500	0.0166543
879.578	0.0166422
879.656	0.0165694
879.734	0.0165598
879.812	0.0165971
879.890	0.0164730
879.968	0.0164375
880.047	0.0163019
880.125	0.0163739
880.203	0.0164231
880.281	0.0163637
880.359	0.0163926
880.437	0.0163380
880.515	0.0164107
880.593	0.0164000
880.672	0.0164147
880.750	0.0163030
880.828	0.0163847
880.906	0.0164566
880.984	0.0163616
881.062	0.0164013
881.140	0.0162898
881.218	0.0162831
881.297	0.0162222
881.375	0.0163872
881.453	0.0163435
881.531	0.0162055
881.609	0.0163330
881.687	0.0164276
881.765	0.0162978
881.843	0.0163018
881.922	0.0162558
882.000	0.0161637
882.078	0.0162510
882.156	0.0162141
882.234	0.0162444
882.312	0.0162557
882.390	0.0163158
882.468	0.0162542
882.547	0.0162365
882.625	0.0164825
882.703	0.0164561
882.781	0.0165087
882.859	0.0165051
882.937	0.0165775
883.015	0.0167018
883.093	0.0167416
883.172	0.0169626
883.250	0.0170570
883.328	0.0170240
883.406	0.0171539
883.484	0.0172186
883.562	0.0173470
883.640	0.0172398
883.718	0.0172754
883.797	0.0172581
883.875	0.0173779
883.953	0.0172561
884.031	0.0175042
884.109	0.0174769
884.187	0.0172903
884.265	0.0172446
884.343	0.0172058
884.422	0.0172494
884.500	0.0171184
884.578	0.0171061
884.656	0.0168724
884.734	0.0169928
884.812	0.0170627
884.890	0.0168227
884.968	0.0167477
885.047	0.0166920
885.125	0.0166247
885.203	0.0167139
885.281	0.0166026
885.359	0.0163940
885.437	0.0165932
885.515	0.0163805
885.593	0.0163754
885.672	0.0164730
885.750	0.0165778
885.828	0.0164838
885.906	0.0162208
885.984	0.0163515
886.062	0.0162838
886.140	0.0163904
886.218	0.0162377
886.297	0.0163027
886.375	0.0163314
886.453	0.0164102
886.531	0.0163921
886.609	0.0163638
886.687	0.0162842
886.765	0.0163590
886.843	0.0164401
886.922	0.0163649
887.000	0.0164474
887.078	0.0163261
887.156	0.0163383
887.234	0.0161476
887.312	0.0162638
887.390	0.0163927
887.468	0.0163995
887.547	0.0163567
887.625	0.0164654
887.703	0.0164613
887.781	0.0164740
887.859	0.0164970
887.937	0.0165489
888.015	0.0166578
888.093	0.0165778
888.172	0.0165945
888.250	0.0167197
888.328	0.0167041
888.406	0.0166391
888.484	0.0167915
888.562	0.0167465
888.640	0.0167743
888.718	0.0167720
888.797	0.0168400
888.875	0.0167654
888.953	0.0168242
889.031	0.0168709
889.109	0.0169590
889.187	0.0171048
889.265	0.0170033
889.343	0.0170532
889.422	0.0171570
889.500	0.0170983
889.578	0.0170995
889.656	0.0170254
889.734	0.0170099
889.812	0.0171340
889.890	0.0170393
889.968	0.0169720
890.047	0.0169936
890.125	0.0170297
890.203	0.0169432
890.281	0.0169166
890.359	0.0169592
890.437	0.0168040
890.515	0.0169756
890.593	0.0168469
890.672	0.0167841
890.750	0.0166801
890.828	0.0166978
890.906	0.0168782
890.984	0.0166356
891.062	0.0165694
891.140	0.0166341
891.218	0.0166127
891.297	0.0166179
891.375	0.0166463
891.453	0.0166365
891.531	0.0164886
891.609	0.0166034
891.687	0.0165983
891.765	0.0167376
891.843	0.0166349
891.922	0.0165758
892.000	0.0165274
892.078	0.0166296
892.156	0.0165109
892.234	0.0166540
892.312	0.0164872
892.390	0.0165703
892.468	0.0164958
892.547	0.0164545
892.625	0.0164225
892.703	0.0164784
892.781	0.0164037
892.859	0.0162950
892.937	0.0162985
893.015	0.0164250
893.093	0.0164041
893.172	0.0163055
893.250	0.0163390
893.328	0.0163379
893.406	0.0164194
893.484	0.0164383
893.562	0.0165448
893.640	0.0164600
893.718	0.0164619
893.797	0.0166058
893.875	0.0167025
893.953	0.0166755
894.031	0.0167121
894.109	0.0167953
894.187	0.0168657
894.265	0.0167937
894.343	0.0167874
894.422	0.0167122
894.500	0.0169047
894.578	0.0168591
894.656	0.0170696
894.734	0.0168816
894.812	0.0167957
894.890	0.0169650
894.968	0.0170204
895.047	0.0169171
895.125	0.0169129
895.203	0.0169316
895.281	0.0167999
895.359	0.0168548
895.437	0.0168303
895.515	0.0168080
895.593	0.0168112
895.672	0.0169022
895.750	0.0167142
895.828	0.0168903
895.906	0.0167557
895.984	0.0168397
896.062	0.0168118
896.140	0.0168236
896.218	0.0167776
896.297	0.0168880
896.375	0.0168033
896.453	0.0167680
896.531	0.0168438
896.609	0.0168262
896.687	0.0169269
896.765	0.0166356
896.843	0.0167896
896.922	0.0168520
897.000	0.0167686
897.078	0.0166482
897.156	0.0167165
897.234	0.0167061
897.312	0.0168330
897.390	0.0168018
897.468	0.0167944
897.547	0.0167867
897.625	0.0167017
897.703	0.0167150
897.781	0.0167876
897.859	0.0167751
897.937	0.0166647
898.015	0.0167275
898.093	0.0167680
898.172	0.0164755
898.250	0.0166285
898.328	0.0165752
898.406	0.0164516
898.484	0.0164920
898.562	0.0164660
898.640	0.0164088
898.718	0.0164168
898.797	0.0163623
898.875	0.0164131
898.953	0.0162547
899.031	0.0161593
899.109	0.0162639
899.187	0.0163046
899.265	0.0162897
899.343	0.0162314
899.422	0.0163099
899.500	0.0164039
899.578	0.0164445
899.656	0.0165182
899.734	0.0165115
899.812	0.0165221
899.890	0.0165894
899.968	0.0166132
900.047	0.0165037
900.125	0.0166446
900.203	0.0168135
900.281	0.0165857
900.359	0.0167147
900.437	0.0167867
900.515	0.0167883
900.593	0.0166949
900.672	0.0167301
900.750	0.0167968
900.828	0.0167223
900.906	0.0168282
900.984	0.0166197
901.062	0.0165128
901.140	0.0165765
901.218	0.0166599
901.297	0.0166936
901.375	0.0166388
901.453	0.0165630
901.531	0.0164551
901.609	0.0166250
901.687	0.0167221
901.765	0.0167258
901.843	0.0166328
901.922	0.0166882
902.000	0.0166680
902.078	0.0166943
902.156	0.0167311
902.234	0.0166433
902.312	0.0168584
902.390	0.0168550
902.468	0.0168202
902.547	0.0168432
902.625	0.0168129
902.703	0.0169130
902.781	0.0169676
902.859	0.0168351
902.937	0.0168240
903.015	0.0168098
903.093	0.0169223
903.172	0.0168632
903.250	0.0168707
903.328	0.0169313
903.406	0.0167843
903.484	0.0168763
903.562	0.0169186
903.640	0.0168447
903.718	0.0168901
903.797	0.0166768
903.875	0.0168375
903.953	0.0168571
904.031	0.0168895
904.109	0.0166429
904.187	0.0164604
904.265	0.0165569
904.343	0.0165527
904.422	0.0164520
904.500	0.0163168
904.578	0.0164201
904.656	0.0164069
904.734	0.0164292
904.812	0.0162859
904.890	0.0163853
904.968	0.0164167
905.047	0.0165883
905.125	0.0164724
905.203	0.0164294
905.281	0.0166251
905.359	0.0165671
905.437	0.0165392
905.515	0.0164912
905.593	0.0166410
905.672	0.0166720
905.750	0.0167661
905.828	0.0167384
905.906	0.0166352
905.984	0.0166160
906.062	0.0167332
906.140	0.0167698
906.218	0.0164913
906.297	0.0167008
906.375	0.0166943
906.453	0.0165403
906.531	0.0165894
906.609	0.0166933
906.687	0.0167365
906.765	0.0166247
906.843	0.0165160
906.922	0.0167356
907.000	0.0166743
907.078	0.0166141
907.156	0.0167948
907.234	0.0166344
907.312	0.0167458
907.390	0.0166154
907.468	0.0167455
907.547	0.0166676
907.625	0.0168332
907.703	0.0167823
907.781	0.0167030
907.859	0.0169353
907.937	0.0169836
908.015	0.0168739
908.093	0.0169862
908.172	0.0169015
908.250	0.0170404
908.328	0.0169899
908.406	0.0171344
908.484	0.0169756
908.562	0.0170865
908.640	0.0169942
908.718	0.0169655
908.797	0.0171052
908.875	0.0170842
908.953	0.0169003
909.031	0.0169455
909.109	0.0168719
909.187	0.0169242
909.265	0.0168240
909.343	0.0166952
909.422	0.0167995
909.500	0.0166379
909.578	0.0166708
909.656	0.0166624
909.734	0.0165202
909.812	0.0165110
909.890	0.0164339
909.968	0.0166005
910.047	0.0165493
910.125	0.0164149
910.203	0.0164514
910.281	0.0165110
910.359	0.0165152
910.437	0.0163374
910.515	0.0165728
910.593	0.0164820
910.672	0.0163813
910.750	0.0165419
910.828	0.0165097
910.906	0.0164897
910.984	0.0165190
911.062	0.0164416
911.140	0.0165506
911.218	0.0165100
911.297	0.0166537
911.375	0.0166238
911.453	0.0165887
911.531	0.0167126
911.609	0.0165892
911.687	0.0166136
911.765	0.0167098
911.843	0.0166666
911.922	0.0165333
912.000	0.0168256
912.078	0.0167147
912.156	0.0167030
912.234	0.0167804
912.312	0.0167992
912.390	0.0166245
912.468	0.0166851
912.547	0.0167039
912.625	0.0166499
912.703	0.0165696
912.781	0.0166732
912.859	0.0166209
912.937	0.0166049
913.015	0.0165887
913.093	0.0165386
913.172	0.0166518
913.250	0.0165440
913.328	0.0166763
913.406	0.0166771
913.484	0.0165441
913.562	0.0166933
913.640	0.0166959
913.718	0.0167401
913.797	0.0167377
913.875	0.0167308
913.953	0.0168011
914.031	0.0167622
914.109	0.0167625
914.187	0.0170056
914.265	0.0169262
914.343	0.0168327
914.422	0.0167867
914.500	0.0168052
914.578	0.0168056
914.656	0.0167895
914.734	0.0167251
914.812	0.0168150
914.890	0.0167009
914.968	0.0166387
915.047	0.0166853
915.125	0.0165583
915.203	0.0165763
915.281	0.0165958
915.359	0.0164749
915.437	0.0166521
915.515	0.0165205
915.593	0.0165784
915.672	0.0166109
915.750	0.0166042
915.828	0.0165320
915.906	0.0165721
915.984	0.0165241
916.062	0.0164893
916.140	0.0165787
916.218	0.0165849
916.297	0.0165771
916.375	0.0165610
916.453	0.0166216
916.531	0.0166914
916.609	0.0167157
916.687	0.0166617
916.765	0.0165948
916.843	0.0166296
916.922	0.0166484
917.000	0.0165962
917.078	0.0166116
917.156	0.0165611
917.234	0.0165678
917.312	0.0166706
917.390	0.0166187
917.468	0.0166243
917.547	0.0166927
917.625	0.0165675
917.703	0.0167596
917.781	0.0166107
917.859	0.0164587
917.937	0.0165770
918.015	0.0165407
918.093	0.0165644
918.172	0.0165602
918.250	0.0165456
918.328	0.0165261
918.406	0.0165442
918.484	0.0165532
918.562	0.0166467
918.640	0.0166294
918.718	0.0166601
918.797	0.0166423
918.875	0.0166015
918.953	0.0168609
919.031	0.0168565
919.109	0.0167886
919.187	0.0166683
919.265	0.0167631
919.343	0.0169319
919.422	0.0167924
919.500	0.0168451
919.578	0.0169704
919.656	0.0169197
919.734	0.0168480
919.812	0.0169407
919.890	0.0169889
