06/13/2022	14:58:34	Ver.	4.1	UNKNOWN
Optical Delay	599.961724	Delta X		0.078125	Sweeps	1	Scan Rate	0/0
Coordinates	Axis 1	NaN	Axis 2	NaN	Axis 3	NaN	Axis 4	NaN	Axis 5	NaN	Axis 6	0.000000
TX Power	0.000000	RX Power	0.000000

599.962	0.0162153
600.040	0.0162045
600.118	0.0162777
600.196	0.0162151
600.274	0.0162109
600.352	0.0162727
600.430	0.0161194
600.509	0.0161880
600.587	0.0161023
600.665	0.0162615
600.743	0.0162235
600.821	0.0161879
600.899	0.0162909
600.977	0.0161574
601.055	0.0162475
601.134	0.0162695
601.212	0.0160780
601.290	0.0163090
601.368	0.0161028
601.446	0.0161713
601.524	0.0161259
601.602	0.0161005
601.680	0.0161569
601.759	0.0161874
601.837	0.0162451
601.915	0.0162674
601.993	0.0163644
602.071	0.0160719
602.149	0.0160276
602.227	0.0163483
602.305	0.0160899
602.384	0.0161775
602.462	0.0161931
602.540	0.0161482
602.618	0.0162871
602.696	0.0161209
602.774	0.0160852
602.852	0.0159850
602.930	0.0161806
603.009	0.0161202
603.087	0.0161886
603.165	0.0161927
603.243	0.0161576
603.321	0.0159728
603.399	0.0162027
603.477	0.0163792
603.555	0.0161777
603.634	0.0161700
603.712	0.0160872
603.790	0.0162115
603.868	0.0161671
603.946	0.0160509
604.024	0.0161338
604.102	0.0161790
604.180	0.0162655
604.259	0.0160926
604.337	0.0162109
604.415	0.0161569
604.493	0.0161988
604.571	0.0160935
604.649	0.0161923
604.727	0.0162174
604.805	0.0163065
604.884	0.0161620
604.962	0.0162493
605.040	0.0162054
605.118	0.0161005
605.196	0.0160925
605.274	0.0162909
605.352	0.0163034
605.430	0.0161674
605.509	0.0161716
605.587	0.0161543
605.665	0.0162341
605.743	0.0161468
605.821	0.0162869
605.899	0.0160651
605.977	0.0161430
606.055	0.0162070
606.134	0.0162199
606.212	0.0162404
606.290	0.0161950
606.368	0.0161839
606.446	0.0160581
606.524	0.0162046
606.602	0.0161932
606.680	0.0161127
606.759	0.0161082
606.837	0.0162663
606.915	0.0161099
606.993	0.0161542
607.071	0.0161808
607.149	0.0161130
607.227	0.0163337
607.305	0.0163651
607.384	0.0161037
607.462	0.0162669
607.540	0.0161538
607.618	0.0161774
607.696	0.0160481
607.774	0.0161875
607.852	0.0161461
607.930	0.0162053
608.009	0.0161460
608.087	0.0159540
608.165	0.0162811
608.243	0.0161166
608.321	0.0162535
608.399	0.0162492
608.477	0.0161522
608.555	0.0161876
608.634	0.0160748
608.712	0.0161785
608.790	0.0162647
608.868	0.0161687
608.946	0.0161314
609.024	0.0162720
609.102	0.0163007
609.180	0.0160042
609.259	0.0161797
609.337	0.0161984
609.415	0.0162154
609.493	0.0161317
609.571	0.0161234
609.649	0.0162241
609.727	0.0162579
609.805	0.0163404
609.884	0.0160870
609.962	0.0161230
610.040	0.0160931
610.118	0.0160823
610.196	0.0161280
610.274	0.0162727
610.352	0.0160789
610.430	0.0161507
610.509	0.0161266
610.587	0.0161433
610.665	0.0161524
610.743	0.0160342
610.821	0.0161743
610.899	0.0162389
610.977	0.0161044
611.055	0.0161884
611.134	0.0162248
611.212	0.0160976
611.290	0.0162220
611.368	0.0160604
611.446	0.0161201
611.524	0.0160598
611.602	0.0161605
611.680	0.0160667
611.759	0.0160691
611.837	0.0161459
611.915	0.0160926
611.993	0.0162886
612.071	0.0162183
612.149	0.0161143
612.227	0.0161620
612.305	0.0160677
612.384	0.0160951
612.462	0.0162040
612.540	0.0161506
612.618	0.0162149
612.696	0.0162917
612.774	0.0161803
612.852	0.0162075
612.930	0.0160898
613.009	0.0160950
613.087	0.0160827
613.165	0.0161517
613.243	0.0162006
613.321	0.0160519
613.399	0.0161658
613.477	0.0161622
613.555	0.0161052
613.634	0.0162183
613.712	0.0160368
613.790	0.0160969
613.868	0.0160696
613.946	0.0162610
614.024	0.0160841
614.102	0.0161253
614.180	0.0161535
614.259	0.0161131
614.337	0.0161792
614.415	0.0162575
614.493	0.0160980
614.571	0.0160726
614.649	0.0161067
614.727	0.0162370
614.805	0.0161103
614.884	0.0159852
614.962	0.0160817
615.040	0.0161911
615.118	0.0160839
615.196	0.0161368
615.274	0.0161258
615.352	0.0160417
615.430	0.0161298
615.509	0.0160780
615.587	0.0161390
615.665	0.0161122
615.743	0.0162238
615.821	0.0162048
615.899	0.0161954
615.977	0.0160272
616.055	0.0161092
616.134	0.0161481
616.212	0.0161795
616.290	0.0162158
616.368	0.0160757
616.446	0.0162851
616.524	0.0162323
616.602	0.0161642
616.680	0.0161726
616.759	0.0160852
616.837	0.0162061
616.915	0.0161723
616.993	0.0161770
617.071	0.0161662
617.149	0.0162320
617.227	0.0161414
617.305	0.0161723
617.384	0.0161517
617.462	0.0161824
617.540	0.0161881
617.618	0.0163717
617.696	0.0161801
617.774	0.0162097
617.852	0.0162000
617.930	0.0161415
618.009	0.0161582
618.087	0.0161668
618.165	0.0161954
618.243	0.0160032
618.321	0.0160825
618.399	0.0161041
618.477	0.0161843
618.555	0.0160975
618.634	0.0161052
618.712	0.0161017
618.790	0.0161082
618.868	0.0161918
618.946	0.0162914
619.024	0.0161292
619.102	0.0161379
619.180	0.0162312
619.259	0.0162078
619.337	0.0162666
619.415	0.0162103
619.493	0.0161868
619.571	0.0160255
619.649	0.0162687
619.727	0.0162636
619.805	0.0161703
619.884	0.0162489
619.962	0.0162515
620.040	0.0161565
620.118	0.0161728
620.196	0.0162626
620.274	0.0162823
620.352	0.0163206
620.430	0.0162261
620.509	0.0162364
620.587	0.0162399
620.665	0.0162037
620.743	0.0163057
620.821	0.0161514
620.899	0.0162455
620.977	0.0163346
621.055	0.0160008
621.134	0.0161346
621.212	0.0161771
621.290	0.0162373
621.368	0.0161548
621.446	0.0162193
621.524	0.0161818
621.602	0.0161697
621.680	0.0162038
621.759	0.0161615
621.837	0.0163316
621.915	0.0162304
621.993	0.0161572
622.071	0.0162982
622.149	0.0160760
622.227	0.0162505
622.305	0.0160926
622.384	0.0162055
622.462	0.0161893
622.540	0.0160493
622.618	0.0163821
622.696	0.0161807
622.774	0.0162057
622.852	0.0162128
622.930	0.0163322
623.009	0.0161765
623.087	0.0162961
623.165	0.0161821
623.243	0.0163154
623.321	0.0163034
623.399	0.0161446
623.477	0.0161953
623.555	0.0163025
623.634	0.0162867
623.712	0.0162062
623.790	0.0162228
623.868	0.0160453
623.946	0.0162049
624.024	0.0163749
624.102	0.0162421
624.180	0.0163176
624.259	0.0162531
624.337	0.0162483
624.415	0.0162615
624.493	0.0161363
624.571	0.0161517
624.649	0.0161582
624.727	0.0162067
624.805	0.0160775
624.884	0.0162488
624.962	0.0162417
625.040	0.0162592
625.118	0.0161883
625.196	0.0161295
625.274	0.0162157
625.352	0.0161878
625.430	0.0161911
625.509	0.0162653
625.587	0.0161243
625.665	0.0162593
625.743	0.0161489
625.821	0.0161862
625.899	0.0162228
625.977	0.0161842
626.055	0.0161366
626.134	0.0161819
626.212	0.0162981
626.290	0.0163081
626.368	0.0162054
626.446	0.0163030
626.524	0.0161277
626.602	0.0160787
626.680	0.0162517
626.759	0.0162564
626.837	0.0161485
626.915	0.0162460
626.993	0.0162283
627.071	0.0161944
627.149	0.0160709
627.227	0.0161861
627.305	0.0161726
627.384	0.0163770
627.462	0.0163284
627.540	0.0161981
627.618	0.0162052
627.696	0.0162858
627.774	0.0161797
627.852	0.0162376
627.930	0.0163158
628.009	0.0162163
628.087	0.0161954
628.165	0.0162204
628.243	0.0162084
628.321	0.0162390
628.399	0.0160979
628.477	0.0162431
628.555	0.0162904
628.634	0.0162405
628.712	0.0162744
628.790	0.0161363
628.868	0.0162354
628.946	0.0160503
629.024	0.0159946
629.102	0.0162765
629.180	0.0162026
629.259	0.0162276
629.337	0.0163332
629.415	0.0161861
629.493	0.0161027
629.571	0.0162313
629.649	0.0162649
629.727	0.0160675
629.805	0.0160967
629.884	0.0161497
629.962	0.0162766
630.040	0.0162691
630.118	0.0160257
630.196	0.0161452
630.274	0.0161922
630.352	0.0162210
630.430	0.0162128
630.509	0.0161935
630.587	0.0162067
630.665	0.0159813
630.743	0.0161419
630.821	0.0162907
630.899	0.0162423
630.977	0.0161526
631.055	0.0161366
631.134	0.0161565
631.212	0.0162418
631.290	0.0161977
631.368	0.0161189
631.446	0.0162097
631.524	0.0161067
631.602	0.0162149
631.680	0.0162225
631.759	0.0162580
631.837	0.0161648
631.915	0.0162212
631.993	0.0161735
632.071	0.0162032
632.149	0.0161725
632.227	0.0160469
632.305	0.0162378
632.384	0.0161480
632.462	0.0161672
632.540	0.0161909
632.618	0.0161818
632.696	0.0160715
632.774	0.0161029
632.852	0.0162492
632.930	0.0160966
633.009	0.0160118
633.087	0.0161359
633.165	0.0162612
633.243	0.0160712
633.321	0.0160251
633.399	0.0161550
633.477	0.0163088
633.555	0.0162155
633.634	0.0160870
633.712	0.0161821
633.790	0.0161761
633.868	0.0163493
633.946	0.0162231
634.024	0.0161760
634.102	0.0161147
634.180	0.0162601
634.259	0.0162241
634.337	0.0162051
634.415	0.0161821
634.493	0.0162339
634.571	0.0162572
634.649	0.0161457
634.727	0.0161543
634.805	0.0161901
634.884	0.0162176
634.962	0.0162153
635.040	0.0162249
635.118	0.0163064
635.196	0.0161738
635.274	0.0161750
635.352	0.0160590
635.430	0.0160579
635.509	0.0161453
635.587	0.0161103
635.665	0.0161790
635.743	0.0160210
635.821	0.0161499
635.899	0.0162694
635.977	0.0161881
636.055	0.0162021
636.134	0.0162650
636.212	0.0161686
636.290	0.0163739
636.368	0.0161526
636.446	0.0162627
636.524	0.0162613
636.602	0.0161662
636.680	0.0161221
636.759	0.0162825
636.837	0.0161795
636.915	0.0162077
636.993	0.0161274
637.071	0.0162471
637.149	0.0162385
637.227	0.0161355
637.305	0.0161823
637.384	0.0162719
637.462	0.0161568
637.540	0.0162128
637.618	0.0162765
637.696	0.0160493
637.774	0.0161704
637.852	0.0162054
637.930	0.0162309
638.009	0.0162185
638.087	0.0162234
638.165	0.0163041
638.243	0.0162184
638.321	0.0162598
638.399	0.0161394
638.477	0.0161215
638.555	0.0161636
638.634	0.0161921
638.712	0.0161813
638.790	0.0161685
638.868	0.0161711
638.946	0.0161644
639.024	0.0161950
639.102	0.0160388
639.180	0.0162218
639.259	0.0161255
639.337	0.0161902
639.415	0.0160781
639.493	0.0162578
639.571	0.0162486
639.649	0.0160818
639.727	0.0160824
639.805	0.0162511
639.884	0.0161072
639.962	0.0160970
640.040	0.0162333
640.118	0.0161989
640.196	0.0161081
640.274	0.0159897
640.352	0.0161221
640.430	0.0162141
640.509	0.0160090
640.587	0.0161085
640.665	0.0162019
640.743	0.0161720
640.821	0.0161887
640.899	0.0163097
640.977	0.0161887
641.055	0.0161378
641.134	0.0161288
641.212	0.0161009
641.290	0.0161699
641.368	0.0160403
641.446	0.0160558
641.524	0.0162730
641.602	0.0162271
641.680	0.0162026
641.759	0.0161418
641.837	0.0161565
641.915	0.0160983
641.993	0.0160748
642.071	0.0161606
642.149	0.0160870
642.227	0.0161288
642.305	0.0161600
642.384	0.0161664
642.462	0.0161443
642.540	0.0160574
642.618	0.0160923
642.696	0.0161054
642.774	0.0160782
642.852	0.0161311
642.930	0.0162631
643.009	0.0161500
643.087	0.0161966
643.165	0.0161590
643.243	0.0161875
643.321	0.0162156
643.399	0.0161858
643.477	0.0161531
643.555	0.0161328
643.634	0.0161802
643.712	0.0161808
643.790	0.0162165
643.868	0.0162190
643.946	0.0162262
644.024	0.0162836
644.102	0.0160628
644.180	0.0162065
644.259	0.0162215
644.337	0.0161444
644.415	0.0161631
644.493	0.0163086
644.571	0.0159828
644.649	0.0162721
644.727	0.0162136
644.805	0.0160735
644.884	0.0162260
644.962	0.0162471
645.040	0.0162411
645.118	0.0161300
645.196	0.0162138
645.274	0.0162086
645.352	0.0161965
645.430	0.0161658
645.509	0.0162832
645.587	0.0162311
645.665	0.0161878
645.743	0.0161612
645.821	0.0161169
645.899	0.0161064
645.977	0.0162946
646.055	0.0161845
646.134	0.0161792
646.212	0.0162980
646.290	0.0161430
646.368	0.0162069
646.446	0.0163379
646.524	0.0162315
646.602	0.0162523
646.680	0.0160455
646.759	0.0161872
646.837	0.0161545
646.915	0.0161834
646.993	0.0162716
647.071	0.0162151
647.149	0.0162581
647.227	0.0162695
647.305	0.0162666
647.384	0.0163100
647.462	0.0161791
647.540	0.0162604
647.618	0.0163161
647.696	0.0161921
647.774	0.0161340
647.852	0.0162749
647.930	0.0162393
648.009	0.0162460
648.087	0.0161930
648.165	0.0162478
648.243	0.0162408
648.321	0.0162189
648.399	0.0161995
648.477	0.0160870
648.555	0.0162630
648.634	0.0163088
648.712	0.0162574
648.790	0.0161577
648.868	0.0161906
648.946	0.0162798
649.024	0.0161109
649.102	0.0162632
649.180	0.0163861
649.259	0.0162090
649.337	0.0162789
649.415	0.0163075
649.493	0.0162522
649.571	0.0162745
649.649	0.0162280
649.727	0.0162679
649.805	0.0161730
649.884	0.0161908
649.962	0.0162155
650.040	0.0161436
650.118	0.0161663
650.196	0.0163175
650.274	0.0162180
650.352	0.0162794
650.430	0.0161956
650.509	0.0162434
650.587	0.0161962
650.665	0.0162560
650.743	0.0162666
650.821	0.0162831
650.899	0.0162354
650.977	0.0161504
651.055	0.0162309
651.134	0.0161864
651.212	0.0162837
651.290	0.0162206
651.368	0.0162734
651.446	0.0161954
651.524	0.0162029
651.602	0.0161734
651.680	0.0162579
651.759	0.0161706
651.837	0.0161366
651.915	0.0161616
651.993	0.0161328
652.071	0.0162526
652.149	0.0162968
652.227	0.0161006
652.305	0.0162373
652.384	0.0161829
652.462	0.0162706
652.540	0.0161810
652.618	0.0162329
652.696	0.0163176
652.774	0.0160770
652.852	0.0161051
652.930	0.0160839
653.009	0.0161908
653.087	0.0161998
653.165	0.0160051
653.243	0.0161517
653.321	0.0162206
653.399	0.0161488
653.477	0.0162025
653.555	0.0162302
653.634	0.0161248
653.712	0.0162168
653.790	0.0160696
653.868	0.0161685
653.946	0.0160943
654.024	0.0161214
654.102	0.0161201
654.180	0.0163084
654.259	0.0161745
654.337	0.0162212
654.415	0.0161343
654.493	0.0161492
654.571	0.0161879
654.649	0.0162493
654.727	0.0162242
654.805	0.0161747
654.884	0.0161895
654.962	0.0160455
655.040	0.0161389
655.118	0.0162859
655.196	0.0162724
655.274	0.0162270
655.352	0.0161819
655.430	0.0160589
655.509	0.0163351
655.587	0.0162021
655.665	0.0161789
655.743	0.0161216
655.821	0.0160619
655.899	0.0162016
655.977	0.0160661
656.055	0.0161627
656.134	0.0163344
656.212	0.0162211
656.290	0.0162756
656.368	0.0161582
656.446	0.0161515
656.524	0.0162682
656.602	0.0160770
656.680	0.0162161
656.759	0.0160821
656.837	0.0160455
656.915	0.0162133
656.993	0.0162051
657.071	0.0162142
657.149	0.0161567
657.227	0.0160989
657.305	0.0161642
657.384	0.0161314
657.462	0.0161729
657.540	0.0160628
657.618	0.0162392
657.696	0.0161359
657.774	0.0161222
657.852	0.0161441
657.930	0.0160294
658.009	0.0161988
658.087	0.0161252
658.165	0.0160597
658.243	0.0161913
658.321	0.0161288
658.399	0.0162310
658.477	0.0161656
658.555	0.0162784
658.634	0.0160344
658.712	0.0161926
658.790	0.0163326
658.868	0.0161878
658.946	0.0162166
659.024	0.0162474
659.102	0.0161126
659.180	0.0161778
659.259	0.0162922
659.337	0.0161929
659.415	0.0161275
659.493	0.0160947
659.571	0.0162289
659.649	0.0159838
659.727	0.0161144
659.805	0.0162529
659.884	0.0161086
659.962	0.0161253
660.040	0.0161628
660.118	0.0161588
660.196	0.0161390
660.274	0.0161484
660.352	0.0161855
660.430	0.0163734
660.509	0.0162545
660.587	0.0161511
660.665	0.0162362
660.743	0.0163403
660.821	0.0163027
660.899	0.0161999
660.977	0.0161273
661.055	0.0162589
661.134	0.0161320
661.212	0.0162277
661.290	0.0163020
661.368	0.0162820
661.446	0.0161073
661.524	0.0162125
661.602	0.0162502
661.680	0.0164829
661.759	0.0163395
661.837	0.0160804
661.915	0.0162458
661.993	0.0162718
662.071	0.0162973
662.149	0.0161406
662.227	0.0162334
662.305	0.0162079
662.384	0.0162157
662.462	0.0163063
662.540	0.0161586
662.618	0.0162086
662.696	0.0161421
662.774	0.0160850
662.852	0.0163374
662.930	0.0163330
663.009	0.0162110
663.087	0.0163963
663.165	0.0163009
663.243	0.0160139
663.321	0.0162759
663.399	0.0160921
663.477	0.0163160
663.555	0.0161508
663.634	0.0161811
663.712	0.0162579
663.790	0.0162065
663.868	0.0162708
663.946	0.0162936
664.024	0.0163437
664.102	0.0163331
664.180	0.0163184
664.259	0.0162878
664.337	0.0162711
664.415	0.0162801
664.493	0.0161619
664.571	0.0162240
664.649	0.0163329
664.727	0.0163010
664.805	0.0162251
664.884	0.0162774
664.962	0.0161684
665.040	0.0160917
665.118	0.0162006
665.196	0.0162904
665.274	0.0161597
665.352	0.0161206
665.430	0.0162072
665.509	0.0163008
665.587	0.0161776
665.665	0.0163309
665.743	0.0163283
665.821	0.0161520
665.899	0.0162106
665.977	0.0161574
666.055	0.0162773
666.134	0.0163554
666.212	0.0162198
666.290	0.0162166
666.368	0.0162465
666.446	0.0161149
666.524	0.0162032
666.602	0.0161693
666.680	0.0162833
666.759	0.0163283
666.837	0.0162111
666.915	0.0160909
666.993	0.0161951
667.071	0.0162538
667.149	0.0162011
667.227	0.0162543
667.305	0.0161710
667.384	0.0161729
667.462	0.0163013
667.540	0.0163422
667.618	0.0161753
667.696	0.0162842
667.774	0.0162573
667.852	0.0162154
667.930	0.0162634
668.009	0.0162255
668.087	0.0161411
668.165	0.0162782
668.243	0.0162862
668.321	0.0162479
668.399	0.0163097
668.477	0.0161667
668.555	0.0161357
668.634	0.0162348
668.712	0.0162328
668.790	0.0161775
668.868	0.0161967
668.946	0.0161839
669.024	0.0163715
669.102	0.0160719
669.180	0.0161583
669.259	0.0161968
669.337	0.0162088
669.415	0.0162080
669.493	0.0161848
669.571	0.0162528
669.649	0.0163558
669.727	0.0162486
669.805	0.0162217
669.884	0.0161823
669.962	0.0162624
670.040	0.0162581
670.118	0.0162173
670.196	0.0162417
670.274	0.0161883
670.352	0.0161749
670.430	0.0162797
670.509	0.0162743
670.587	0.0161174
670.665	0.0162167
670.743	0.0161678
670.821	0.0161675
670.899	0.0163048
670.977	0.0160930
671.055	0.0160666
671.134	0.0162409
671.212	0.0162808
671.290	0.0162714
671.368	0.0162457
671.446	0.0162663
671.524	0.0162142
671.602	0.0161558
671.680	0.0162478
671.759	0.0161943
671.837	0.0161933
671.915	0.0162324
671.993	0.0163138
672.071	0.0161114
672.149	0.0161746
672.227	0.0161160
672.305	0.0162846
672.384	0.0161930
672.462	0.0162578
672.540	0.0162980
672.618	0.0161478
672.696	0.0160921
672.774	0.0162146
672.852	0.0164027
672.930	0.0163000
673.009	0.0162115
673.087	0.0162381
673.165	0.0160986
673.243	0.0162761
673.321	0.0162673
673.399	0.0160994
673.477	0.0162140
673.555	0.0163451
673.634	0.0161829
673.712	0.0161264
673.790	0.0162148
673.868	0.0161940
673.946	0.0163078
674.024	0.0162531
674.102	0.0162151
674.180	0.0162314
674.259	0.0161648
674.337	0.0162087
674.415	0.0161031
674.493	0.0162276
674.571	0.0161479
674.649	0.0162789
674.727	0.0164124
674.805	0.0162170
674.884	0.0162685
674.962	0.0163602
675.040	0.0161825
675.118	0.0160612
675.196	0.0162254
675.274	0.0162093
675.352	0.0162294
675.430	0.0162020
675.509	0.0162476
675.587	0.0162442
675.665	0.0161439
675.743	0.0162214
675.821	0.0161797
675.899	0.0160798
675.977	0.0162535
676.055	0.0162548
676.134	0.0161957
676.212	0.0161996
676.290	0.0161065
676.368	0.0160872
676.446	0.0162393
676.524	0.0162204
676.602	0.0161911
676.680	0.0162128
676.759	0.0163441
676.837	0.0163065
676.915	0.0162119
676.993	0.0162630
677.071	0.0161835
677.149	0.0161345
677.227	0.0163171
677.305	0.0161302
677.384	0.0160739
677.462	0.0162467
677.540	0.0161521
677.618	0.0162575
677.696	0.0161158
677.774	0.0161346
677.852	0.0161236
677.930	0.0161235
678.009	0.0162109
678.087	0.0161932
678.165	0.0163483
678.243	0.0161739
678.321	0.0162363
678.399	0.0161489
678.477	0.0160749
678.555	0.0162954
678.634	0.0161910
678.712	0.0160670
678.790	0.0162695
678.868	0.0162086
678.946	0.0160256
679.024	0.0161321
679.102	0.0161472
679.180	0.0162791
679.259	0.0161597
679.337	0.0162177
679.415	0.0161788
679.493	0.0161016
679.571	0.0162241
679.649	0.0163332
679.727	0.0161412
679.805	0.0159557
679.884	0.0162130
679.962	0.0161942
680.040	0.0161939
680.118	0.0162506
680.196	0.0161970
680.274	0.0161439
680.352	0.0162971
680.430	0.0161316
680.509	0.0162272
680.587	0.0161587
680.665	0.0161710
680.743	0.0162052
680.821	0.0162241
680.899	0.0161951
680.977	0.0161526
681.055	0.0162741
681.134	0.0161610
681.212	0.0161966
681.290	0.0161946
681.368	0.0161873
681.446	0.0160896
681.524	0.0161436
681.602	0.0162341
681.680	0.0162025
681.759	0.0162379
681.837	0.0162503
681.915	0.0163132
681.993	0.0162611
682.071	0.0161790
682.149	0.0160467
682.227	0.0162210
682.305	0.0162510
682.384	0.0161305
682.462	0.0161765
682.540	0.0162617
682.618	0.0163380
682.696	0.0162342
682.774	0.0162070
682.852	0.0161154
682.930	0.0161794
683.009	0.0161063
683.087	0.0161485
683.165	0.0161759
683.243	0.0162715
683.321	0.0161272
683.399	0.0161176
683.477	0.0162060
683.555	0.0162281
683.634	0.0161338
683.712	0.0161494
683.790	0.0162051
683.868	0.0162035
683.946	0.0162209
684.024	0.0161588
684.102	0.0162481
684.180	0.0161432
684.259	0.0162293
684.337	0.0162544
684.415	0.0161844
684.493	0.0164220
684.571	0.0161626
684.649	0.0161385
684.727	0.0161647
684.805	0.0163151
684.884	0.0162410
684.962	0.0160946
685.040	0.0161339
685.118	0.0161777
685.196	0.0163069
685.274	0.0162138
685.352	0.0161708
685.430	0.0162418
685.509	0.0161125
685.587	0.0162818
685.665	0.0162174
685.743	0.0161022
685.821	0.0162855
685.899	0.0162259
685.977	0.0162381
686.055	0.0161282
686.134	0.0162072
686.212	0.0161980
686.290	0.0161864
686.368	0.0162743
686.446	0.0163210
686.524	0.0162217
686.602	0.0162707
686.680	0.0161213
686.759	0.0162119
686.837	0.0163355
686.915	0.0163277
686.993	0.0161948
687.071	0.0162460
687.149	0.0161911
687.227	0.0162937
687.305	0.0161760
687.384	0.0162396
687.462	0.0163460
687.540	0.0162833
687.618	0.0162383
687.696	0.0161925
687.774	0.0162766
687.852	0.0163191
687.930	0.0160895
688.009	0.0162273
688.087	0.0162375
688.165	0.0161414
688.243	0.0162714
688.321	0.0162907
688.399	0.0161392
688.477	0.0162790
688.555	0.0163598
688.634	0.0163229
688.712	0.0161581
688.790	0.0161911
688.868	0.0161696
688.946	0.0163172
689.024	0.0161893
689.102	0.0161284
689.180	0.0162186
689.259	0.0161909
689.337	0.0162383
689.415	0.0162833
689.493	0.0161924
689.571	0.0161962
689.649	0.0163124
689.727	0.0163142
689.805	0.0162617
689.884	0.0162846
689.962	0.0162124
690.040	0.0162149
690.118	0.0162355
690.196	0.0161618
690.274	0.0162078
690.352	0.0161886
690.430	0.0162361
690.509	0.0162533
690.587	0.0163177
690.665	0.0162289
690.743	0.0161844
690.821	0.0162511
690.899	0.0161581
690.977	0.0163361
691.055	0.0163017
691.134	0.0161493
691.212	0.0161961
691.290	0.0163035
691.368	0.0162677
691.446	0.0161216
691.524	0.0162083
691.602	0.0163435
691.680	0.0163270
691.759	0.0162444
691.837	0.0162760
691.915	0.0161945
691.993	0.0161128
692.071	0.0161241
692.149	0.0161960
692.227	0.0162868
692.305	0.0162952
692.384	0.0161752
692.462	0.0161174
692.540	0.0160920
692.618	0.0161343
692.696	0.0162623
692.774	0.0161633
692.852	0.0162296
692.930	0.0160569
693.009	0.0161893
693.087	0.0161581
693.165	0.0162395
693.243	0.0161816
693.321	0.0161833
693.399	0.0162435
693.477	0.0161691
693.555	0.0162495
693.634	0.0161833
693.712	0.0161322
693.790	0.0162046
693.868	0.0160767
693.946	0.0160124
694.024	0.0162234
694.102	0.0161800
694.180	0.0162891
694.259	0.0162031
694.337	0.0160449
694.415	0.0161503
694.493	0.0161509
694.571	0.0162012
694.649	0.0160635
694.727	0.0161413
694.805	0.0162111
694.884	0.0161745
694.962	0.0160530
695.040	0.0162672
695.118	0.0161771
695.196	0.0161061
695.274	0.0161797
695.352	0.0161309
695.430	0.0161472
695.509	0.0161887
695.587	0.0162040
695.665	0.0160858
695.743	0.0162131
695.821	0.0161378
695.899	0.0160142
695.977	0.0160796
696.055	0.0162538
696.134	0.0161593
696.212	0.0161961
696.290	0.0161392
696.368	0.0160951
696.446	0.0160314
696.524	0.0161777
696.602	0.0161390
696.680	0.0161017
696.759	0.0160880
696.837	0.0161168
696.915	0.0161875
696.993	0.0162013
697.071	0.0162745
697.149	0.0161632
697.227	0.0161841
697.305	0.0160283
697.384	0.0162585
697.462	0.0161527
697.540	0.0163134
697.618	0.0161703
697.696	0.0160555
697.774	0.0162411
697.852	0.0160505
697.930	0.0161652
698.009	0.0161468
698.087	0.0162638
698.165	0.0161999
698.243	0.0161589
698.321	0.0161246
698.399	0.0161712
698.477	0.0162522
698.555	0.0161588
698.634	0.0159902
698.712	0.0162657
698.790	0.0162894
698.868	0.0161845
698.946	0.0161523
699.024	0.0162431
699.102	0.0161357
699.180	0.0163003
699.259	0.0161464
699.337	0.0162643
699.415	0.0163833
699.493	0.0161840
699.571	0.0162943
699.649	0.0162705
699.727	0.0161955
699.805	0.0162509
699.884	0.0162520
699.962	0.0162566
700.040	0.0162233
700.118	0.0162431
700.196	0.0162883
700.274	0.0162136
700.352	0.0161951
700.430	0.0162074
700.509	0.0162743
700.587	0.0161667
700.665	0.0161117
700.743	0.0161801
700.821	0.0162367
700.899	0.0162036
700.977	0.0163833
701.055	0.0161523
701.134	0.0162212
701.212	0.0162981
701.290	0.0161742
701.368	0.0163097
701.446	0.0162067
701.524	0.0161006
701.602	0.0162145
701.680	0.0163091
701.759	0.0162892
701.837	0.0163007
701.915	0.0163055
701.993	0.0163451
702.071	0.0162605
702.149	0.0163994
702.227	0.0162246
702.305	0.0162246
702.384	0.0162567
702.462	0.0162639
702.540	0.0163266
702.618	0.0161822
702.696	0.0163000
702.774	0.0162460
702.852	0.0161768
702.930	0.0162524
703.009	0.0162277
703.087	0.0162876
703.165	0.0162225
703.243	0.0162985
703.321	0.0163354
703.399	0.0161205
703.477	0.0160658
703.555	0.0162566
703.634	0.0162591
703.712	0.0161771
703.790	0.0163273
703.868	0.0161617
703.946	0.0161984
704.024	0.0161142
704.102	0.0162478
704.180	0.0162482
704.259	0.0160781
704.337	0.0162060
704.415	0.0163360
704.493	0.0160522
704.571	0.0161646
704.649	0.0163712
704.727	0.0161916
704.805	0.0162847
704.884	0.0161651
704.962	0.0162041
705.040	0.0161536
705.118	0.0161652
705.196	0.0161826
705.274	0.0162859
705.352	0.0161982
705.430	0.0161514
705.509	0.0162221
705.587	0.0162305
705.665	0.0160768
705.743	0.0161495
705.821	0.0161560
705.899	0.0161418
705.977	0.0162324
706.055	0.0162896
706.134	0.0160659
706.212	0.0162601
706.290	0.0161949
706.368	0.0161499
706.446	0.0162806
706.524	0.0162799
706.602	0.0161877
706.680	0.0161887
706.759	0.0162321
706.837	0.0161193
706.915	0.0162117
706.993	0.0162384
707.071	0.0161508
707.149	0.0161720
707.227	0.0161587
707.305	0.0162584
707.384	0.0161765
707.462	0.0161301
707.540	0.0161559
707.618	0.0161442
707.696	0.0163027
707.774	0.0162056
707.852	0.0161011
707.930	0.0161543
708.009	0.0161623
708.087	0.0162843
708.165	0.0162475
708.243	0.0162877
708.321	0.0162257
708.399	0.0161742
708.477	0.0161334
708.555	0.0162388
708.634	0.0161303
708.712	0.0161956
708.790	0.0161926
708.868	0.0162812
708.946	0.0163329
709.024	0.0160987
709.102	0.0161783
709.180	0.0160854
709.259	0.0161246
709.337	0.0162297
709.415	0.0163205
709.493	0.0162099
709.571	0.0160934
709.649	0.0162351
709.727	0.0162076
709.805	0.0163479
709.884	0.0162356
709.962	0.0160610
710.040	0.0161983
710.118	0.0161343
710.196	0.0162277
710.274	0.0161334
710.352	0.0161396
710.430	0.0163175
710.509	0.0162848
710.587	0.0161914
710.665	0.0161893
710.743	0.0160824
710.821	0.0160723
710.899	0.0162659
710.977	0.0162734
711.055	0.0161279
711.134	0.0161234
711.212	0.0163079
711.290	0.0162296
711.368	0.0161639
711.446	0.0163633
711.524	0.0161647
711.602	0.0161843
711.680	0.0162288
711.759	0.0161475
711.837	0.0162498
711.915	0.0160838
711.993	0.0162436
712.071	0.0161922
712.149	0.0162278
712.227	0.0161101
712.305	0.0162041
712.384	0.0160964
712.462	0.0160900
712.540	0.0161885
712.618	0.0161626
712.696	0.0161266
712.774	0.0161301
712.852	0.0160188
712.930	0.0160911
713.009	0.0161118
713.087	0.0160982
713.165	0.0162313
713.243	0.0161654
713.321	0.0161336
713.399	0.0161463
713.477	0.0160886
713.555	0.0161949
713.634	0.0162171
713.712	0.0161612
713.790	0.0160835
713.868	0.0161546
713.946	0.0161602
714.024	0.0161190
714.102	0.0161232
714.180	0.0161268
714.259	0.0162716
714.337	0.0161137
714.415	0.0162214
714.493	0.0161863
714.571	0.0160309
714.649	0.0161016
714.727	0.0163312
714.805	0.0162383
714.884	0.0160797
714.962	0.0161154
715.040	0.0162206
715.118	0.0161607
715.196	0.0161935
715.274	0.0161952
715.352	0.0162103
715.430	0.0161530
715.509	0.0160223
715.587	0.0160996
715.665	0.0161849
715.743	0.0160885
715.821	0.0161055
715.899	0.0162464
715.977	0.0162166
716.055	0.0159414
716.134	0.0161322
716.212	0.0160795
716.290	0.0161141
716.368	0.0161722
716.446	0.0160587
716.524	0.0161835
716.602	0.0160826
716.680	0.0160350
716.759	0.0161628
716.837	0.0161542
716.915	0.0160709
716.993	0.0160629
717.071	0.0161597
717.149	0.0162241
717.227	0.0161578
717.305	0.0163129
717.384	0.0161559
717.462	0.0161754
717.540	0.0159974
717.618	0.0160354
717.696	0.0160892
717.774	0.0161031
717.852	0.0160755
717.930	0.0161286
718.009	0.0160546
718.087	0.0161060
718.165	0.0160661
718.243	0.0160860
718.321	0.0161123
718.399	0.0163037
718.477	0.0161903
718.555	0.0160551
718.634	0.0161075
718.712	0.0161791
718.790	0.0161327
718.868	0.0161566
718.946	0.0160847
719.024	0.0161864
719.102	0.0160090
719.180	0.0160133
719.259	0.0160255
719.337	0.0160983
719.415	0.0161192
719.493	0.0161413
719.571	0.0161801
719.649	0.0162317
719.727	0.0158802
719.805	0.0161217
719.884	0.0162695
719.962	0.0161836
720.040	0.0160777
720.118	0.0159717
720.196	0.0160307
720.274	0.0161119
720.352	0.0163073
720.430	0.0161391
720.509	0.0161120
720.587	0.0160088
720.665	0.0161422
720.743	0.0160800
720.821	0.0161385
720.899	0.0160807
720.977	0.0160581
721.055	0.0162040
721.134	0.0161404
721.212	0.0159602
721.290	0.0161662
721.368	0.0161243
721.446	0.0161162
721.524	0.0160828
721.602	0.0161758
721.680	0.0160262
721.759	0.0159962
721.837	0.0161175
721.915	0.0161874
721.993	0.0161957
722.071	0.0161740
722.149	0.0161588
722.227	0.0160131
722.305	0.0162841
722.384	0.0161777
722.462	0.0160861
722.540	0.0161516
722.618	0.0161040
722.696	0.0162585
722.774	0.0162223
722.852	0.0161892
722.930	0.0162511
723.009	0.0160194
723.087	0.0161286
723.165	0.0162516
723.243	0.0161716
723.321	0.0161328
723.399	0.0161753
723.477	0.0163109
723.555	0.0161955
723.634	0.0159801
723.712	0.0159805
723.790	0.0161115
723.868	0.0162075
723.946	0.0161578
724.024	0.0161531
724.102	0.0161671
724.180	0.0160744
724.259	0.0161531
724.337	0.0160624
724.415	0.0161579
724.493	0.0161465
724.571	0.0162164
724.649	0.0161095
724.727	0.0162907
724.805	0.0162585
724.884	0.0161541
724.962	0.0163255
725.040	0.0162067
725.118	0.0162536
725.196	0.0162248
725.274	0.0161813
725.352	0.0161507
725.430	0.0162650
725.509	0.0162249
725.587	0.0162405
725.665	0.0162736
725.743	0.0162115
725.821	0.0162437
725.899	0.0161967
725.977	0.0162109
726.055	0.0162286
726.134	0.0162778
726.212	0.0161962
726.290	0.0162352
726.368	0.0163181
726.446	0.0162169
726.524	0.0162556
726.602	0.0163197
726.680	0.0163836
726.759	0.0162001
726.837	0.0161925
726.915	0.0164415
726.993	0.0163709
727.071	0.0162161
727.149	0.0163071
727.227	0.0162723
727.305	0.0162742
727.384	0.0163886
727.462	0.0163094
727.540	0.0162113
727.618	0.0162064
727.696	0.0162547
727.774	0.0161771
727.852	0.0161627
727.930	0.0161047
728.009	0.0162804
728.087	0.0162074
728.165	0.0161522
728.243	0.0162318
728.321	0.0162794
728.399	0.0162857
728.477	0.0161773
728.555	0.0161746
728.634	0.0161833
728.712	0.0162035
728.790	0.0164085
728.868	0.0163113
728.946	0.0162087
729.024	0.0163547
729.102	0.0162456
729.180	0.0161420
729.259	0.0161440
729.337	0.0160805
729.415	0.0162514
729.493	0.0161785
729.571	0.0161277
729.649	0.0161696
729.727	0.0161495
729.805	0.0162521
729.884	0.0161092
729.962	0.0162459
730.040	0.0163231
730.118	0.0161989
730.196	0.0163161
730.274	0.0161473
730.352	0.0162488
730.430	0.0163014
730.509	0.0163310
730.587	0.0162553
730.665	0.0162286
730.743	0.0161874
730.821	0.0162176
730.899	0.0162266
730.977	0.0163414
731.055	0.0163220
731.134	0.0161165
731.212	0.0161182
731.290	0.0160590
731.368	0.0160734
731.446	0.0160873
731.524	0.0161580
731.602	0.0161774
731.680	0.0162921
731.759	0.0161637
731.837	0.0161471
731.915	0.0161449
731.993	0.0160672
732.071	0.0163186
732.149	0.0163125
732.227	0.0161646
732.305	0.0162507
732.384	0.0162881
732.462	0.0162694
732.540	0.0162988
732.618	0.0162976
732.696	0.0162798
732.774	0.0161830
732.852	0.0161872
732.930	0.0162460
733.009	0.0161329
733.087	0.0160912
733.165	0.0161897
733.243	0.0163771
733.321	0.0161251
733.399	0.0161559
733.477	0.0161955
733.555	0.0161646
733.634	0.0161994
733.712	0.0161456
733.790	0.0162561
733.868	0.0161517
733.946	0.0162103
734.024	0.0162344
734.102	0.0161536
734.180	0.0162305
734.259	0.0162355
734.337	0.0160528
734.415	0.0161620
734.493	0.0160844
734.571	0.0160592
734.649	0.0161954
734.727	0.0161680
734.805	0.0160678
734.884	0.0161301
734.962	0.0161707
735.040	0.0161060
735.118	0.0160984
735.196	0.0161883
735.274	0.0161283
735.352	0.0159721
735.430	0.0161131
735.509	0.0161631
735.587	0.0161752
735.665	0.0161846
735.743	0.0160486
735.821	0.0161778
735.899	0.0162101
735.977	0.0161169
736.055	0.0159713
736.134	0.0159589
736.212	0.0161087
736.290	0.0160274
736.368	0.0160570
736.446	0.0160326
736.524	0.0159817
736.602	0.0159933
736.680	0.0161574
736.759	0.0161536
736.837	0.0160359
736.915	0.0161926
736.993	0.0160189
737.071	0.0161518
737.149	0.0160929
737.227	0.0160693
737.305	0.0162356
737.384	0.0161754
737.462	0.0160741
737.540	0.0160563
737.618	0.0161467
737.696	0.0160767
737.774	0.0160909
737.852	0.0159862
737.930	0.0159332
738.009	0.0160703
738.087	0.0160910
738.165	0.0160869
738.243	0.0160866
738.321	0.0161076
738.399	0.0160898
738.477	0.0160902
738.555	0.0161034
738.634	0.0160500
738.712	0.0161620
738.790	0.0160069
738.868	0.0159814
738.946	0.0161426
739.024	0.0160436
739.102	0.0160725
739.180	0.0161892
739.259	0.0161501
739.337	0.0160306
739.415	0.0160714
739.493	0.0160838
739.571	0.0161025
739.649	0.0161001
739.727	0.0162014
739.805	0.0162859
739.884	0.0160781
739.962	0.0162890
740.040	0.0161987
740.118	0.0162040
740.196	0.0161346
740.274	0.0162712
740.352	0.0162600
740.430	0.0162286
740.509	0.0161132
740.587	0.0161662
740.665	0.0163265
740.743	0.0161881
740.821	0.0161167
740.899	0.0162309
740.977	0.0162782
741.055	0.0161596
741.134	0.0162319
741.212	0.0161835
741.290	0.0161388
741.368	0.0162573
741.446	0.0161933
741.524	0.0161475
741.602	0.0161268
741.680	0.0161868
741.759	0.0161864
741.837	0.0162838
741.915	0.0161671
741.993	0.0162254
742.071	0.0160878
742.149	0.0161200
742.227	0.0161813
742.305	0.0163312
742.384	0.0162506
742.462	0.0161011
742.540	0.0163430
742.618	0.0161959
742.696	0.0161595
742.774	0.0160605
742.852	0.0161837
742.930	0.0162501
743.009	0.0161580
743.087	0.0162009
743.165	0.0162407
743.243	0.0161224
743.321	0.0160634
743.399	0.0162052
743.477	0.0162203
743.555	0.0162061
743.634	0.0160376
743.712	0.0160920
743.790	0.0161043
743.868	0.0162997
743.946	0.0163936
744.024	0.0159592
744.102	0.0161143
744.180	0.0161951
744.259	0.0162415
744.337	0.0161658
744.415	0.0161314
744.493	0.0162681
744.571	0.0162152
744.649	0.0161373
744.727	0.0161736
744.805	0.0161280
744.884	0.0162335
744.962	0.0161841
745.040	0.0161701
745.118	0.0162443
745.196	0.0162568
745.274	0.0162846
745.352	0.0162584
745.430	0.0162643
745.509	0.0162492
745.587	0.0161476
745.665	0.0161890
745.743	0.0162529
745.821	0.0162463
745.899	0.0161250
745.977	0.0161842
746.055	0.0163068
746.134	0.0162094
746.212	0.0162628
746.290	0.0160989
746.368	0.0162437
746.446	0.0162110
746.524	0.0162793
746.602	0.0161861
746.680	0.0161349
746.759	0.0162296
746.837	0.0161969
746.915	0.0161652
746.993	0.0160560
747.071	0.0162224
747.149	0.0162482
747.227	0.0160580
747.305	0.0161357
747.384	0.0162250
747.462	0.0162145
747.540	0.0162477
747.618	0.0163789
747.696	0.0163294
747.774	0.0162259
747.852	0.0162385
747.930	0.0162241
748.009	0.0162331
748.087	0.0161443
748.165	0.0162564
748.243	0.0162717
748.321	0.0163143
748.399	0.0163114
748.477	0.0161669
748.555	0.0163036
748.634	0.0162511
748.712	0.0163042
748.790	0.0162547
748.868	0.0162472
748.946	0.0161879
749.024	0.0162285
749.102	0.0161363
749.180	0.0161864
749.259	0.0161433
749.337	0.0162247
749.415	0.0162116
749.493	0.0161805
749.571	0.0162184
749.649	0.0161264
749.727	0.0161780
749.805	0.0160737
749.884	0.0161788
749.962	0.0161974
750.040	0.0161007
750.118	0.0162509
750.196	0.0163000
750.274	0.0160843
750.352	0.0161887
750.430	0.0161061
750.509	0.0160664
750.587	0.0162054
750.665	0.0161168
750.743	0.0161997
750.821	0.0163519
750.899	0.0159900
750.977	0.0161546
751.055	0.0163286
751.134	0.0162201
751.212	0.0162424
751.290	0.0162717
751.368	0.0161732
751.446	0.0161952
751.524	0.0161967
751.602	0.0162294
751.680	0.0163027
751.759	0.0161864
751.837	0.0162258
751.915	0.0162154
751.993	0.0161012
752.071	0.0162141
752.149	0.0161067
752.227	0.0162773
752.305	0.0161907
752.384	0.0161298
752.462	0.0162022
752.540	0.0162958
752.618	0.0162090
752.696	0.0163440
752.774	0.0162534
752.852	0.0161343
752.930	0.0162146
753.009	0.0161824
753.087	0.0164332
753.165	0.0163551
753.243	0.0161442
753.321	0.0160806
753.399	0.0164142
753.477	0.0162697
753.555	0.0162765
753.634	0.0162683
753.712	0.0162469
753.790	0.0162678
753.868	0.0161560
753.946	0.0161975
754.024	0.0162028
754.102	0.0162220
754.180	0.0162247
754.259	0.0162683
754.337	0.0162908
754.415	0.0161889
754.493	0.0161940
754.571	0.0161876
754.649	0.0162202
754.727	0.0160568
754.805	0.0162099
754.884	0.0161311
754.962	0.0161114
755.040	0.0162204
755.118	0.0161203
755.196	0.0162382
755.274	0.0162170
755.352	0.0163529
755.430	0.0163889
755.509	0.0163657
755.587	0.0163742
755.665	0.0164798
755.743	0.0162784
755.821	0.0164178
755.899	0.0162619
755.977	0.0163004
756.055	0.0162757
756.134	0.0163744
756.212	0.0163183
756.290	0.0162801
756.368	0.0163522
756.446	0.0163081
756.524	0.0162736
756.602	0.0163551
756.680	0.0162646
756.759	0.0160677
756.837	0.0162184
756.915	0.0162078
756.993	0.0162145
757.071	0.0161142
757.149	0.0161957
757.227	0.0161743
757.305	0.0162700
757.384	0.0161948
757.462	0.0162297
757.540	0.0161404
757.618	0.0161697
757.696	0.0161440
757.774	0.0161095
757.852	0.0162653
757.930	0.0162753
758.009	0.0162326
758.087	0.0161717
758.165	0.0161509
758.243	0.0162323
758.321	0.0162235
758.399	0.0162417
758.477	0.0161142
758.555	0.0161656
758.634	0.0162477
758.712	0.0161941
758.790	0.0162242
758.868	0.0162910
758.946	0.0161460
759.024	0.0162331
759.102	0.0163693
759.180	0.0162529
759.259	0.0164807
759.337	0.0161942
759.415	0.0162858
759.493	0.0162646
759.571	0.0161099
759.649	0.0161185
759.727	0.0161310
759.805	0.0162739
759.884	0.0160627
759.962	0.0160705
760.040	0.0160761
760.118	0.0161873
760.196	0.0162336
760.274	0.0161632
760.352	0.0162189
760.430	0.0162574
760.509	0.0163349
760.587	0.0163087
760.665	0.0161687
760.743	0.0161319
760.821	0.0161636
760.899	0.0161923
760.977	0.0160587
761.055	0.0161526
761.134	0.0161234
761.212	0.0160835
761.290	0.0160696
761.368	0.0160680
761.446	0.0162053
761.524	0.0162133
761.602	0.0162018
761.680	0.0162634
761.759	0.0164070
761.837	0.0163641
761.915	0.0164184
761.993	0.0162994
762.071	0.0163867
762.149	0.0163942
762.227	0.0162601
762.305	0.0162511
762.384	0.0161619
762.462	0.0162529
762.540	0.0162288
762.618	0.0161409
762.696	0.0161970
762.774	0.0162621
762.852	0.0160907
762.930	0.0161327
763.009	0.0160514
763.087	0.0159703
763.165	0.0159642
763.243	0.0160035
763.321	0.0158511
763.399	0.0157938
763.477	0.0159182
763.555	0.0158395
763.634	0.0160890
763.712	0.0161319
763.790	0.0162337
763.868	0.0161069
763.946	0.0161099
764.024	0.0161743
764.102	0.0162830
764.180	0.0161857
764.259	0.0161721
764.337	0.0161651
764.415	0.0162329
764.493	0.0161289
764.571	0.0160806
764.649	0.0161554
764.727	0.0161732
764.805	0.0161068
764.884	0.0161706
764.962	0.0161209
765.040	0.0162267
765.118	0.0162242
765.196	0.0160505
765.274	0.0161306
765.352	0.0162628
765.430	0.0163253
765.509	0.0163309
765.587	0.0163224
765.665	0.0162846
765.743	0.0164027
765.821	0.0164121
765.899	0.0165324
765.977	0.0165118
766.055	0.0164556
766.134	0.0163658
766.212	0.0164068
766.290	0.0162807
766.368	0.0163741
766.446	0.0162045
766.524	0.0161330
766.602	0.0159850
766.680	0.0159845
766.759	0.0160178
766.837	0.0159272
766.915	0.0158357
766.993	0.0159583
767.071	0.0158879
767.149	0.0158649
767.227	0.0158615
767.305	0.0159245
767.384	0.0161033
767.462	0.0160479
767.540	0.0159414
767.618	0.0161540
767.696	0.0162542
767.774	0.0162363
767.852	0.0162615
767.930	0.0162768
768.009	0.0163893
768.087	0.0163550
768.165	0.0162196
768.243	0.0164185
768.321	0.0162778
768.399	0.0163042
768.477	0.0161994
768.555	0.0160738
768.634	0.0161440
768.712	0.0160019
768.790	0.0160066
768.868	0.0160387
768.946	0.0159080
769.024	0.0158858
769.102	0.0162102
769.180	0.0160199
769.259	0.0159045
769.337	0.0160468
769.415	0.0159676
769.493	0.0159763
769.571	0.0160857
769.649	0.0161184
769.727	0.0162729
769.805	0.0163026
769.884	0.0163344
769.962	0.0164186
770.040	0.0164091
770.118	0.0164772
770.196	0.0165223
770.274	0.0165250
770.352	0.0166110
770.430	0.0166377
770.509	0.0165135
770.587	0.0163024
770.665	0.0163004
770.743	0.0162385
770.821	0.0162341
770.899	0.0162971
770.977	0.0160791
771.055	0.0160178
771.134	0.0161173
771.212	0.0161926
771.290	0.0160128
771.368	0.0161411
771.446	0.0160139
771.524	0.0160951
771.602	0.0161256
771.680	0.0160412
771.759	0.0160251
771.837	0.0161809
771.915	0.0161242
771.993	0.0160848
772.071	0.0160987
772.149	0.0161077
772.227	0.0161286
772.305	0.0162487
772.384	0.0162889
772.462	0.0160979
772.540	0.0162109
772.618	0.0161628
772.696	0.0162154
772.774	0.0162598
772.852	0.0161662
772.930	0.0161206
773.009	0.0161208
773.087	0.0160876
773.165	0.0161031
773.243	0.0159428
773.321	0.0160329
773.399	0.0161297
773.477	0.0159190
773.555	0.0160046
773.634	0.0160177
773.712	0.0159868
773.790	0.0159402
773.868	0.0159399
773.946	0.0161902
774.024	0.0160860
774.102	0.0159950
774.180	0.0160655
774.259	0.0161301
774.337	0.0161143
774.415	0.0160359
774.493	0.0162683
774.571	0.0163618
774.649	0.0163654
774.727	0.0162782
774.805	0.0165078
774.884	0.0165807
774.962	0.0167000
775.040	0.0166717
775.118	0.0169536
775.196	0.0169168
775.274	0.0168757
775.352	0.0169671
775.430	0.0169275
775.509	0.0166866
775.587	0.0166247
775.665	0.0166816
775.743	0.0166668
775.821	0.0164790
775.899	0.0163943
775.977	0.0163692
776.055	0.0162644
776.134	0.0161541
776.212	0.0160297
776.290	0.0160725
776.368	0.0160863
776.446	0.0159082
776.524	0.0160529
776.602	0.0159717
776.680	0.0158945
776.759	0.0159608
776.837	0.0159990
776.915	0.0161037
776.993	0.0160353
777.071	0.0160651
777.149	0.0159890
777.227	0.0160384
777.305	0.0161272
777.384	0.0160643
777.462	0.0160674
777.540	0.0161378
777.618	0.0159247
777.696	0.0160244
777.774	0.0158904
777.852	0.0159463
777.930	0.0159720
778.009	0.0159093
778.087	0.0159825
778.165	0.0159484
778.243	0.0159558
778.321	0.0160123
778.399	0.0160649
778.477	0.0160075
778.555	0.0162639
778.634	0.0161913
778.712	0.0162511
778.790	0.0162489
778.868	0.0162480
778.946	0.0164001
779.024	0.0164316
779.102	0.0164343
779.180	0.0162980
779.259	0.0163845
779.337	0.0165702
779.415	0.0164246
779.493	0.0165652
779.571	0.0164990
779.649	0.0165466
779.727	0.0166319
779.805	0.0165791
779.884	0.0163654
779.962	0.0165811
780.040	0.0164122
780.118	0.0162431
780.196	0.0163545
780.274	0.0161554
780.352	0.0163583
780.430	0.0163277
780.509	0.0162398
780.587	0.0161926
780.665	0.0161096
780.743	0.0162149
780.821	0.0161514
780.899	0.0163975
780.977	0.0162899
781.055	0.0163468
781.134	0.0162729
781.212	0.0162646
781.290	0.0161420
781.368	0.0160875
781.446	0.0160497
781.524	0.0162952
781.602	0.0161312
781.680	0.0160813
781.759	0.0159833
781.837	0.0159005
781.915	0.0157698
781.993	0.0158482
782.071	0.0158047
782.149	0.0158862
782.227	0.0157639
782.305	0.0156722
782.384	0.0157618
782.462	0.0157484
782.540	0.0157830
782.618	0.0158966
782.696	0.0158002
782.774	0.0158784
782.852	0.0159815
782.930	0.0159915
783.009	0.0158697
783.087	0.0158355
783.165	0.0159670
783.243	0.0159741
783.321	0.0161040
783.399	0.0161116
783.477	0.0160526
783.555	0.0161444
783.634	0.0163568
783.712	0.0162877
783.790	0.0164939
783.868	0.0164173
783.946	0.0164220
784.024	0.0164970
784.102	0.0166240
784.180	0.0167867
784.259	0.0167017
784.337	0.0166592
784.415	0.0169186
784.493	0.0171095
784.571	0.0170639
784.649	0.0169849
784.727	0.0169453
784.805	0.0168554
784.884	0.0166369
784.962	0.0167030
785.040	0.0166718
785.118	0.0165334
785.196	0.0165521
785.274	0.0163416
785.352	0.0161320
785.430	0.0159644
785.509	0.0159278
785.587	0.0156941
785.665	0.0154501
785.743	0.0154521
785.821	0.0154201
785.899	0.0151320
785.977	0.0150557
786.055	0.0150121
786.134	0.0151162
786.212	0.0150760
786.290	0.0152036
786.368	0.0152047
786.446	0.0152368
786.524	0.0153173
786.602	0.0154448
786.680	0.0155406
786.759	0.0158059
786.837	0.0157304
786.915	0.0159066
786.993	0.0160526
787.071	0.0161534
787.149	0.0163667
787.227	0.0164458
787.305	0.0164355
787.384	0.0165338
787.462	0.0165163
787.540	0.0165594
787.618	0.0164344
787.696	0.0165770
787.774	0.0166164
787.852	0.0166145
787.930	0.0165272
788.009	0.0164405
788.087	0.0165882
788.165	0.0164863
788.243	0.0164028
788.321	0.0164130
788.399	0.0165278
788.477	0.0164580
788.555	0.0165191
788.634	0.0166391
788.712	0.0164733
788.790	0.0166110
788.868	0.0165662
788.946	0.0165796
789.024	0.0166257
789.102	0.0166203
789.180	0.0165559
789.259	0.0165901
789.337	0.0164380
789.415	0.0163467
789.493	0.0163364
789.571	0.0163857
789.649	0.0162966
789.727	0.0161321
789.805	0.0159734
789.884	0.0159024
789.962	0.0158903
790.040	0.0158668
790.118	0.0158604
790.196	0.0157124
790.274	0.0157383
790.352	0.0159321
790.430	0.0158218
790.509	0.0156581
790.587	0.0156407
790.665	0.0157835
790.743	0.0156686
790.821	0.0157791
790.899	0.0156432
790.977	0.0155178
791.055	0.0158289
791.134	0.0156220
791.212	0.0155096
791.290	0.0155379
791.368	0.0155631
791.446	0.0155235
791.524	0.0155747
791.602	0.0154124
791.680	0.0155617
791.759	0.0156700
791.837	0.0156389
791.915	0.0157706
791.993	0.0156449
792.071	0.0159423
792.149	0.0159452
792.227	0.0160846
792.305	0.0162483
792.384	0.0164516
792.462	0.0166647
792.540	0.0166394
792.618	0.0168909
792.696	0.0171320
792.774	0.0170087
792.852	0.0172404
792.930	0.0173907
793.009	0.0171571
793.087	0.0173948
793.165	0.0173866
793.243	0.0172506
793.321	0.0171077
793.399	0.0171436
793.477	0.0169853
793.555	0.0168616
793.634	0.0167253
793.712	0.0165972
793.790	0.0165897
793.868	0.0163264
793.946	0.0160888
794.024	0.0160032
794.102	0.0157602
794.180	0.0158742
794.259	0.0158266
794.337	0.0156121
794.415	0.0156786
794.493	0.0156071
794.571	0.0155659
794.649	0.0157682
794.727	0.0156249
794.805	0.0156234
794.884	0.0155988
794.962	0.0156625
795.040	0.0155246
795.118	0.0154673
795.196	0.0155281
795.274	0.0154948
795.352	0.0155630
795.430	0.0155093
795.509	0.0157538
795.587	0.0156137
795.665	0.0157269
795.743	0.0158391
795.821	0.0158537
795.899	0.0159525
795.977	0.0159888
796.055	0.0162234
796.134	0.0162254
796.212	0.0162437
796.290	0.0161895
796.368	0.0162403
796.446	0.0164039
796.524	0.0164545
796.602	0.0164063
796.680	0.0163235
796.759	0.0165602
796.837	0.0167045
796.915	0.0166405
796.993	0.0166428
797.071	0.0167231
797.149	0.0167368
797.227	0.0167136
797.305	0.0168920
797.384	0.0166724
797.462	0.0167330
797.540	0.0168160
797.618	0.0165726
797.696	0.0165730
797.774	0.0167320
797.852	0.0165983
797.930	0.0166001
798.009	0.0165762
798.087	0.0164689
798.165	0.0164812
798.243	0.0164539
798.321	0.0163653
798.399	0.0163621
798.477	0.0162658
798.555	0.0162287
798.634	0.0162292
798.712	0.0160759
798.790	0.0159782
798.868	0.0159919
798.946	0.0158521
799.024	0.0158846
799.102	0.0156622
799.180	0.0156860
799.259	0.0155592
799.337	0.0157734
799.415	0.0157664
799.493	0.0156822
799.571	0.0156653
799.649	0.0155859
799.727	0.0157390
799.805	0.0158061
799.884	0.0158126
799.962	0.0158645
800.040	0.0159442
800.118	0.0160892
800.196	0.0161573
800.274	0.0163054
800.352	0.0166147
800.430	0.0163859
800.509	0.0164238
800.587	0.0163729
800.665	0.0163150
800.743	0.0163554
800.821	0.0163470
800.899	0.0162519
800.977	0.0163300
801.055	0.0162199
801.134	0.0160618
801.212	0.0161551
801.290	0.0162076
801.368	0.0161993
801.446	0.0163456
801.524	0.0163857
801.602	0.0164154
801.680	0.0164233
801.759	0.0166200
801.837	0.0165874
801.915	0.0164961
801.993	0.0165619
802.071	0.0165704
802.149	0.0164890
802.227	0.0166074
802.305	0.0166881
802.384	0.0166440
802.462	0.0165459
802.540	0.0165164
802.618	0.0164371
802.696	0.0163425
802.774	0.0162453
802.852	0.0162479
802.930	0.0161812
803.009	0.0160027
803.087	0.0159615
803.165	0.0157882
803.243	0.0157979
803.321	0.0158222
803.399	0.0156541
803.477	0.0157359
803.555	0.0156384
803.634	0.0156024
803.712	0.0156577
803.790	0.0157438
803.868	0.0157466
803.946	0.0156567
804.024	0.0157234
804.102	0.0158141
804.180	0.0159422
804.259	0.0157761
804.337	0.0157675
804.415	0.0159606
804.493	0.0160091
804.571	0.0160862
804.649	0.0161546
804.727	0.0162378
804.805	0.0162601
804.884	0.0162299
804.962	0.0163710
805.040	0.0163732
805.118	0.0164494
805.196	0.0164632
805.274	0.0165314
805.352	0.0165112
805.430	0.0165430
805.509	0.0165297
805.587	0.0165159
805.665	0.0165380
805.743	0.0164450
805.821	0.0163534
805.899	0.0163454
805.977	0.0163883
806.055	0.0162739
806.134	0.0161962
806.212	0.0161383
806.290	0.0161361
806.368	0.0161346
806.446	0.0161116
806.524	0.0161606
806.602	0.0161574
806.680	0.0162305
806.759	0.0161892
806.837	0.0162250
806.915	0.0162623
806.993	0.0163386
807.071	0.0162312
807.149	0.0164923
807.227	0.0165818
807.305	0.0164252
807.384	0.0164510
807.462	0.0164204
807.540	0.0165063
807.618	0.0163772
807.696	0.0165286
807.774	0.0162798
807.852	0.0163492
807.930	0.0162685
808.009	0.0160980
808.087	0.0162243
808.165	0.0160311
808.243	0.0160620
808.321	0.0156827
808.399	0.0156615
808.477	0.0157105
808.555	0.0156750
808.634	0.0155594
808.712	0.0154986
808.790	0.0155544
808.868	0.0154819
808.946	0.0155760
809.024	0.0153454
809.102	0.0153464
809.180	0.0155992
809.259	0.0155778
809.337	0.0156232
809.415	0.0155719
809.493	0.0160570
809.571	0.0159666
809.649	0.0162438
809.727	0.0164297
809.805	0.0164832
809.884	0.0166108
809.962	0.0166982
810.040	0.0168796
810.118	0.0168867
810.196	0.0168050
810.274	0.0169943
810.352	0.0169318
810.430	0.0168098
810.509	0.0167227
810.587	0.0166318
810.665	0.0165040
810.743	0.0164234
810.821	0.0162968
810.899	0.0163303
810.977	0.0161539
811.055	0.0159525
811.134	0.0158895
811.212	0.0157264
811.290	0.0157702
811.368	0.0157128
811.446	0.0156250
811.524	0.0157566
811.602	0.0157063
811.680	0.0157980
811.759	0.0157596
811.837	0.0158952
811.915	0.0159365
811.993	0.0159359
812.071	0.0160814
812.149	0.0161016
812.227	0.0162623
812.305	0.0162582
812.384	0.0162857
812.462	0.0161439
812.540	0.0163239
812.618	0.0164222
812.696	0.0164473
812.774	0.0164275
812.852	0.0165082
812.930	0.0164153
813.009	0.0165773
813.087	0.0165122
813.165	0.0165133
813.243	0.0165376
813.321	0.0165688
813.399	0.0165964
813.477	0.0167199
813.555	0.0165456
813.634	0.0166822
813.712	0.0165707
813.790	0.0164540
813.868	0.0162778
813.946	0.0162012
814.024	0.0160590
814.102	0.0158968
814.180	0.0159368
814.259	0.0158113
814.337	0.0156344
814.415	0.0156585
814.493	0.0153859
814.571	0.0153229
814.649	0.0151675
814.727	0.0152272
814.805	0.0154105
814.884	0.0153533
814.962	0.0153577
815.040	0.0153909
815.118	0.0154584
815.196	0.0154471
815.274	0.0155492
815.352	0.0158395
815.430	0.0159451
815.509	0.0160717
815.587	0.0160892
815.665	0.0162609
815.743	0.0163831
815.821	0.0165309
815.899	0.0166758
815.977	0.0167491
816.055	0.0166182
816.134	0.0167421
816.212	0.0167229
816.290	0.0167019
816.368	0.0168307
816.446	0.0168365
816.524	0.0167747
816.602	0.0165758
816.680	0.0165869
816.759	0.0164700
816.837	0.0164860
816.915	0.0163841
816.993	0.0163950
817.071	0.0163507
817.149	0.0162901
817.227	0.0162070
817.305	0.0161286
817.384	0.0161201
817.462	0.0160393
817.540	0.0159698
817.618	0.0161534
817.696	0.0160556
817.774	0.0160808
817.852	0.0160185
817.930	0.0160534
818.009	0.0161201
818.087	0.0162139
818.165	0.0161364
818.243	0.0161144
818.321	0.0162312
818.399	0.0163505
818.477	0.0162847
818.555	0.0163239
818.634	0.0164220
818.712	0.0164553
818.790	0.0165749
818.868	0.0165218
818.946	0.0165106
819.024	0.0165619
819.102	0.0165514
819.180	0.0164633
819.259	0.0164886
819.337	0.0165450
819.415	0.0164436
819.493	0.0163770
819.571	0.0163847
819.649	0.0162078
819.727	0.0161306
819.805	0.0160818
819.884	0.0160202
819.962	0.0161382
820.040	0.0159002
820.118	0.0159042
820.196	0.0158260
820.274	0.0156134
820.352	0.0156728
820.430	0.0155379
820.509	0.0154454
820.587	0.0154753
820.665	0.0155058
820.743	0.0156426
820.821	0.0156348
820.899	0.0157167
820.977	0.0158064
821.055	0.0159824
821.134	0.0161669
821.212	0.0161036
821.290	0.0160851
821.368	0.0161728
821.446	0.0162975
821.524	0.0163237
821.602	0.0165168
821.680	0.0165938
821.759	0.0165461
821.837	0.0166652
821.915	0.0165810
821.993	0.0166515
822.071	0.0165858
822.149	0.0165671
822.227	0.0165874
822.305	0.0164878
822.384	0.0165570
822.462	0.0164768
822.540	0.0164346
822.618	0.0163197
822.696	0.0164137
822.774	0.0162083
822.852	0.0162215
822.930	0.0161919
823.009	0.0161730
823.087	0.0161058
823.165	0.0161640
823.243	0.0161828
823.321	0.0162846
823.399	0.0162111
823.477	0.0162680
823.555	0.0162488
823.634	0.0162312
823.712	0.0163081
823.790	0.0163584
823.868	0.0162046
823.946	0.0163425
824.024	0.0164357
824.102	0.0163662
824.180	0.0162771
824.259	0.0163982
824.337	0.0163893
824.415	0.0163480
824.493	0.0163359
824.571	0.0163735
824.649	0.0162820
824.727	0.0162454
824.805	0.0161583
824.884	0.0161502
824.962	0.0161587
825.040	0.0162523
825.118	0.0161643
825.196	0.0161060
825.274	0.0160752
825.352	0.0159526
825.430	0.0161499
825.509	0.0159819
825.587	0.0160279
825.665	0.0159397
825.743	0.0159747
825.821	0.0160876
825.899	0.0161181
825.977	0.0159498
826.055	0.0161431
826.134	0.0161423
826.212	0.0160311
826.290	0.0161017
826.368	0.0160553
826.446	0.0160289
826.524	0.0160730
826.602	0.0161198
826.680	0.0160448
826.759	0.0161549
826.837	0.0161904
826.915	0.0162128
826.993	0.0160811
827.071	0.0161652
827.149	0.0162559
827.227	0.0162322
827.305	0.0162633
827.384	0.0163373
827.462	0.0163719
827.540	0.0163641
827.618	0.0165347
827.696	0.0166468
827.774	0.0164425
827.852	0.0165692
827.930	0.0164610
828.009	0.0165718
828.087	0.0167838
828.165	0.0165694
828.243	0.0164861
828.321	0.0166252
828.399	0.0164897
828.477	0.0164603
828.555	0.0165187
828.634	0.0162828
828.712	0.0160994
828.790	0.0162352
828.868	0.0161058
828.946	0.0159985
829.024	0.0159253
829.102	0.0158554
829.180	0.0158462
829.259	0.0157937
829.337	0.0158292
829.415	0.0158752
829.493	0.0158940
829.571	0.0157467
829.649	0.0159781
829.727	0.0159741
829.805	0.0159916
829.884	0.0161753
829.962	0.0162027
830.040	0.0161669
830.118	0.0161961
830.196	0.0161617
830.274	0.0163634
830.352	0.0163160
830.430	0.0163216
830.509	0.0164393
830.587	0.0163239
830.665	0.0163636
830.743	0.0164977
830.821	0.0162701
830.899	0.0164481
830.977	0.0164785
831.055	0.0163955
831.134	0.0164219
831.212	0.0164334
831.290	0.0163831
831.368	0.0163459
831.446	0.0164063
831.524	0.0161652
831.602	0.0163490
831.680	0.0162778
831.759	0.0162537
831.837	0.0163536
831.915	0.0163404
831.993	0.0162560
832.071	0.0162965
832.149	0.0162946
832.227	0.0161842
832.305	0.0161534
832.384	0.0162559
832.462	0.0161189
832.540	0.0161581
832.618	0.0161885
832.696	0.0160676
832.774	0.0159077
832.852	0.0159091
832.930	0.0159893
833.009	0.0159484
833.087	0.0159907
833.165	0.0158614
833.243	0.0160640
833.321	0.0161877
833.399	0.0160593
833.477	0.0160418
833.555	0.0160221
833.634	0.0161451
833.712	0.0162836
833.790	0.0162119
833.868	0.0161446
833.946	0.0161637
834.024	0.0161195
834.102	0.0161293
834.180	0.0160741
834.259	0.0162092
834.337	0.0160978
834.415	0.0161379
834.493	0.0160890
834.571	0.0161996
834.649	0.0161859
834.727	0.0161470
834.805	0.0161034
834.884	0.0161037
834.962	0.0161584
835.040	0.0161952
835.118	0.0159645
835.196	0.0160539
835.274	0.0159985
835.352	0.0160140
835.430	0.0159021
835.509	0.0159086
835.587	0.0160573
835.665	0.0161194
835.743	0.0160289
835.821	0.0161053
835.899	0.0161427
835.977	0.0161635
836.055	0.0162769
836.134	0.0162761
836.212	0.0164595
836.290	0.0163712
836.368	0.0163673
836.446	0.0164188
836.524	0.0165426
836.602	0.0165536
836.680	0.0164901
836.759	0.0165619
836.837	0.0166363
836.915	0.0166162
836.993	0.0166087
837.071	0.0165742
837.149	0.0165005
837.227	0.0164640
837.305	0.0163488
837.384	0.0163184
837.462	0.0163572
837.540	0.0162062
837.618	0.0161155
837.696	0.0160497
837.774	0.0160028
837.852	0.0159613
837.930	0.0160029
838.009	0.0159439
838.087	0.0158902
838.165	0.0160130
838.243	0.0160302
838.321	0.0159613
838.399	0.0158795
838.477	0.0158273
838.555	0.0158958
838.634	0.0158688
838.712	0.0158754
838.790	0.0157735
838.868	0.0158936
838.946	0.0158446
839.024	0.0157492
839.102	0.0158728
839.180	0.0159222
839.259	0.0157871
839.337	0.0159973
839.415	0.0158641
839.493	0.0159475
839.571	0.0158367
839.649	0.0159895
839.727	0.0161089
839.805	0.0160601
839.884	0.0159811
839.962	0.0160001
840.040	0.0161014
840.118	0.0161600
840.196	0.0161062
840.274	0.0160916
840.352	0.0161310
840.430	0.0162035
840.509	0.0160764
840.587	0.0161626
840.665	0.0162971
840.743	0.0161246
840.821	0.0161527
840.899	0.0161782
840.977	0.0161718
841.055	0.0161638
841.134	0.0160151
841.212	0.0161358
841.290	0.0160787
841.368	0.0161319
841.446	0.0159710
841.524	0.0160680
841.602	0.0161028
841.680	0.0162498
841.759	0.0160968
841.837	0.0162347
841.915	0.0161262
841.993	0.0162930
842.071	0.0163692
842.149	0.0162855
842.227	0.0163409
842.305	0.0164868
842.384	0.0163836
842.462	0.0164226
842.540	0.0164766
842.618	0.0164320
842.696	0.0163850
842.774	0.0164357
842.852	0.0164579
842.930	0.0162927
843.009	0.0162999
843.087	0.0162045
843.165	0.0164271
843.243	0.0163696
843.321	0.0163680
843.399	0.0162785
843.477	0.0162662
843.555	0.0162540
843.634	0.0162536
843.712	0.0161257
843.790	0.0161127
843.868	0.0160213
843.946	0.0159473
844.024	0.0159914
844.102	0.0157885
844.180	0.0160052
844.259	0.0159953
844.337	0.0158033
844.415	0.0158337
844.493	0.0158031
844.571	0.0160540
844.649	0.0160461
844.727	0.0159650
844.805	0.0158670
844.884	0.0161367
844.962	0.0161830
845.040	0.0160770
845.118	0.0162992
845.196	0.0163192
845.274	0.0161765
845.352	0.0161607
845.430	0.0163370
845.509	0.0162093
845.587	0.0161674
845.665	0.0162222
845.743	0.0164611
845.821	0.0162394
845.899	0.0162751
845.977	0.0161938
846.055	0.0162471
846.134	0.0162195
846.212	0.0162517
846.290	0.0162964
846.368	0.0160939
846.446	0.0160963
846.524	0.0163157
846.602	0.0161404
846.680	0.0161684
846.759	0.0160792
846.837	0.0161325
846.915	0.0162727
846.993	0.0161681
847.071	0.0161626
847.149	0.0162240
847.227	0.0162356
847.305	0.0161874
847.384	0.0162373
847.462	0.0162765
847.540	0.0164050
847.618	0.0163631
847.696	0.0164099
847.774	0.0164875
847.852	0.0163613
847.930	0.0163228
848.009	0.0164011
848.087	0.0163927
848.165	0.0162108
848.243	0.0164415
848.321	0.0162096
848.399	0.0162617
848.477	0.0163041
848.555	0.0162502
848.634	0.0162946
848.712	0.0162989
848.790	0.0161854
848.868	0.0160682
848.946	0.0160006
849.024	0.0160593
849.102	0.0161201
849.180	0.0160760
849.259	0.0160545
849.337	0.0160393
849.415	0.0159264
849.493	0.0160782
849.571	0.0161902
849.649	0.0161671
849.727	0.0161432
849.805	0.0162410
849.884	0.0163360
849.962	0.0163343
850.040	0.0162131
850.118	0.0164110
850.196	0.0162734
850.274	0.0164087
850.352	0.0163836
850.430	0.0163165
850.509	0.0163899
850.587	0.0164154
850.665	0.0164132
850.743	0.0163408
850.821	0.0164223
850.899	0.0163305
850.977	0.0162622
851.055	0.0161682
851.134	0.0161311
851.212	0.0161512
851.290	0.0161643
851.368	0.0160471
851.446	0.0160847
851.524	0.0160471
851.602	0.0158083
851.680	0.0158275
851.759	0.0159335
851.837	0.0160107
851.915	0.0160023
851.993	0.0159820
852.071	0.0159692
852.149	0.0159850
852.227	0.0160793
852.305	0.0161411
852.384	0.0160627
852.462	0.0161545
852.540	0.0161710
852.618	0.0161797
852.696	0.0162782
852.774	0.0163831
852.852	0.0165395
852.930	0.0163404
853.009	0.0163905
853.087	0.0164515
853.165	0.0164503
853.243	0.0163786
853.321	0.0164315
853.399	0.0164294
853.477	0.0163355
853.555	0.0164072
853.634	0.0164105
853.712	0.0164110
853.790	0.0163499
853.868	0.0162263
853.946	0.0162749
854.024	0.0163188
854.102	0.0163223
854.180	0.0162230
854.259	0.0161706
854.337	0.0160862
854.415	0.0162624
854.493	0.0161738
854.571	0.0159938
854.649	0.0161726
854.727	0.0161716
854.805	0.0160969
854.884	0.0161624
854.962	0.0163585
855.040	0.0161220
855.118	0.0162193
855.196	0.0162648
855.274	0.0160847
855.352	0.0163177
855.430	0.0163997
855.509	0.0163557
855.587	0.0163338
855.665	0.0162567
855.743	0.0163953
855.821	0.0163994
855.899	0.0163226
855.977	0.0161723
856.055	0.0162344
856.134	0.0162788
856.212	0.0161534
856.290	0.0161241
856.368	0.0161735
856.446	0.0160272
856.524	0.0160911
856.602	0.0160483
856.680	0.0160688
856.759	0.0159986
856.837	0.0161112
856.915	0.0160390
856.993	0.0160834
857.071	0.0161324
857.149	0.0160912
857.227	0.0159067
857.305	0.0162423
857.384	0.0160772
857.462	0.0162291
857.540	0.0161813
857.618	0.0162404
857.696	0.0162592
857.774	0.0163937
857.852	0.0163328
857.930	0.0163653
858.009	0.0161931
858.087	0.0161764
858.165	0.0163525
858.243	0.0163148
858.321	0.0163454
858.399	0.0163480
858.477	0.0162553
858.555	0.0162888
858.634	0.0163477
858.712	0.0162016
858.790	0.0160696
858.868	0.0162000
858.946	0.0163639
859.024	0.0162370
859.102	0.0161707
859.180	0.0162489
859.259	0.0162910
859.337	0.0163526
859.415	0.0163017
859.493	0.0161345
859.571	0.0161166
859.649	0.0160184
859.727	0.0162172
859.805	0.0162276
859.884	0.0161864
859.962	0.0161971
860.040	0.0161839
860.118	0.0161369
860.196	0.0163266
860.274	0.0161357
860.352	0.0161108
860.430	0.0161920
860.509	0.0162012
860.587	0.0161550
860.665	0.0161488
860.743	0.0161184
860.821	0.0162093
860.899	0.0160661
860.977	0.0161126
861.055	0.0161341
861.134	0.0160382
861.212	0.0161325
861.290	0.0161373
861.368	0.0160661
861.446	0.0159426
861.524	0.0160677
861.602	0.0160885
861.680	0.0161642
861.759	0.0161674
861.837	0.0159360
861.915	0.0160422
861.993	0.0160464
862.071	0.0159438
862.149	0.0159771
862.227	0.0160294
862.305	0.0160424
862.384	0.0160764
862.462	0.0160661
862.540	0.0161122
862.618	0.0162966
862.696	0.0161325
862.774	0.0161876
862.852	0.0163121
862.930	0.0161916
863.009	0.0161880
863.087	0.0162412
863.165	0.0162538
863.243	0.0161530
863.321	0.0161669
863.399	0.0160476
863.477	0.0160614
863.555	0.0161115
863.634	0.0161544
863.712	0.0159889
863.790	0.0160790
863.868	0.0159289
863.946	0.0158701
864.024	0.0160679
864.102	0.0160712
864.180	0.0160645
864.259	0.0160011
864.337	0.0159224
864.415	0.0159278
864.493	0.0159677
864.571	0.0159724
864.649	0.0159526
864.727	0.0158224
864.805	0.0158138
864.884	0.0159075
864.962	0.0161002
865.040	0.0160712
865.118	0.0159894
865.196	0.0159858
865.274	0.0162645
865.352	0.0161124
865.430	0.0161720
865.509	0.0161255
865.587	0.0161465
865.665	0.0162228
865.743	0.0161877
865.821	0.0161993
865.899	0.0161680
865.977	0.0160379
866.055	0.0159921
866.134	0.0161104
866.212	0.0159766
866.290	0.0159949
866.368	0.0161118
866.446	0.0159947
866.524	0.0160332
866.602	0.0159736
866.680	0.0160035
866.759	0.0160546
866.837	0.0158945
866.915	0.0160166
866.993	0.0159920
867.071	0.0159893
867.149	0.0161627
867.227	0.0161530
867.305	0.0162057
867.384	0.0162289
867.462	0.0161674
867.540	0.0163133
867.618	0.0162740
867.696	0.0162220
867.774	0.0162223
867.852	0.0162013
867.930	0.0163172
868.009	0.0162672
868.087	0.0162382
868.165	0.0161629
868.243	0.0162213
868.321	0.0162195
868.399	0.0160476
868.477	0.0160079
868.555	0.0160845
868.634	0.0160456
868.712	0.0160974
868.790	0.0160740
868.868	0.0162062
868.946	0.0161153
869.024	0.0160521
869.102	0.0161719
869.180	0.0161787
869.259	0.0160157
869.337	0.0160652
869.415	0.0160540
869.493	0.0159543
869.571	0.0160565
869.649	0.0159296
869.727	0.0160556
869.805	0.0159818
869.884	0.0160548
869.962	0.0159547
870.040	0.0161651
870.118	0.0160081
870.196	0.0159215
870.274	0.0160930
870.352	0.0159600
870.430	0.0160513
870.509	0.0160950
870.587	0.0161211
870.665	0.0160229
870.743	0.0160223
870.821	0.0161078
870.899	0.0160014
870.977	0.0161770
871.055	0.0162370
871.134	0.0161822
871.212	0.0161234
871.290	0.0162348
871.368	0.0161321
871.446	0.0162086
871.524	0.0163008
871.602	0.0161794
871.680	0.0161525
871.759	0.0161967
871.837	0.0163480
871.915	0.0161302
871.993	0.0161826
872.071	0.0161759
872.149	0.0163112
872.227	0.0162119
872.305	0.0161901
872.384	0.0161452
872.462	0.0163247
872.540	0.0163310
872.618	0.0162059
872.696	0.0161847
872.774	0.0162011
872.852	0.0162003
872.930	0.0162387
873.009	0.0163441
873.087	0.0162215
873.165	0.0161367
873.243	0.0163404
873.321	0.0163275
873.399	0.0162377
873.477	0.0163907
873.555	0.0162591
873.634	0.0162446
873.712	0.0161538
873.790	0.0160766
873.868	0.0161830
873.946	0.0162133
874.024	0.0161674
874.102	0.0161925
874.180	0.0161503
874.259	0.0162005
874.337	0.0162376
874.415	0.0161301
874.493	0.0160868
874.571	0.0160985
874.649	0.0160918
874.727	0.0161251
874.805	0.0161636
874.884	0.0161478
874.962	0.0161128
875.040	0.0161005
875.118	0.0162199
875.196	0.0162469
875.274	0.0162724
875.352	0.0161977
875.430	0.0162439
875.509	0.0163427
875.587	0.0162853
875.665	0.0161604
875.743	0.0162513
875.821	0.0162331
875.899	0.0161440
875.977	0.0163193
876.055	0.0161366
876.134	0.0162070
876.212	0.0162879
876.290	0.0161578
876.368	0.0163520
876.446	0.0162884
876.524	0.0162204
876.602	0.0162798
876.680	0.0162404
876.759	0.0162102
876.837	0.0161586
876.915	0.0159762
876.993	0.0162036
877.071	0.0161297
877.149	0.0160635
877.227	0.0159464
877.305	0.0160992
877.384	0.0162495
877.462	0.0161452
877.540	0.0162097
877.618	0.0162128
877.696	0.0162213
877.774	0.0162031
877.852	0.0161665
877.930	0.0162176
878.009	0.0163258
878.087	0.0162673
878.165	0.0162882
878.243	0.0162763
878.321	0.0162292
878.399	0.0161638
878.477	0.0161784
878.555	0.0161835
878.634	0.0161562
878.712	0.0160741
878.790	0.0160033
878.868	0.0161631
878.946	0.0161260
879.024	0.0159600
879.102	0.0160283
879.180	0.0160163
879.259	0.0159855
879.337	0.0159267
879.415	0.0160105
879.493	0.0161810
879.571	0.0161474
879.649	0.0162025
879.727	0.0161139
879.805	0.0161565
879.884	0.0160851
879.962	0.0161910
880.040	0.0162522
880.118	0.0163933
880.196	0.0163334
880.274	0.0163000
880.352	0.0161504
880.430	0.0165090
880.509	0.0163204
880.587	0.0163525
880.665	0.0162203
880.743	0.0164218
880.821	0.0162494
880.899	0.0163673
880.977	0.0162975
881.055	0.0162904
881.134	0.0162619
881.212	0.0161954
881.290	0.0161855
881.368	0.0162166
881.446	0.0162247
881.524	0.0161602
881.602	0.0161653
881.680	0.0161937
881.759	0.0162355
881.837	0.0163773
881.915	0.0160136
881.993	0.0161182
882.071	0.0161121
882.149	0.0160706
882.227	0.0160226
882.305	0.0161169
882.384	0.0161214
882.462	0.0160658
882.540	0.0160498
882.618	0.0161221
882.696	0.0161460
882.774	0.0160522
882.852	0.0160133
882.930	0.0160313
883.009	0.0159669
883.087	0.0160143
883.165	0.0161134
883.243	0.0158853
883.321	0.0159708
883.399	0.0159778
883.477	0.0158292
883.555	0.0159963
883.634	0.0161137
883.712	0.0160435
883.790	0.0161356
883.868	0.0161183
883.946	0.0162164
884.024	0.0161358
884.102	0.0162687
884.180	0.0162722
884.259	0.0162646
884.337	0.0162109
884.415	0.0163358
884.493	0.0161916
884.571	0.0161590
884.649	0.0162936
884.727	0.0162141
884.805	0.0162458
884.884	0.0160989
884.962	0.0160686
885.040	0.0161253
885.118	0.0162829
885.196	0.0161066
885.274	0.0160928
885.352	0.0161181
885.430	0.0161021
885.509	0.0160323
885.587	0.0159575
885.665	0.0163151
885.743	0.0161701
885.821	0.0160906
885.899	0.0161710
885.977	0.0161205
886.055	0.0162563
886.134	0.0162308
886.212	0.0162247
886.290	0.0160954
886.368	0.0161868
886.446	0.0162713
886.524	0.0162453
886.602	0.0163139
886.680	0.0162439
886.759	0.0160752
886.837	0.0161163
886.915	0.0162795
886.993	0.0160239
887.071	0.0162352
887.149	0.0161478
887.227	0.0159033
887.305	0.0159138
887.384	0.0161408
887.462	0.0161509
887.540	0.0159757
887.618	0.0159299
887.696	0.0160069
887.774	0.0159320
887.852	0.0159253
887.930	0.0159108
888.009	0.0159953
888.087	0.0159750
888.165	0.0158659
888.243	0.0160323
888.321	0.0159644
888.399	0.0158879
888.477	0.0159468
888.555	0.0160439
888.634	0.0161579
888.712	0.0160875
888.790	0.0160216
888.868	0.0161406
888.946	0.0161198
889.024	0.0161555
889.102	0.0160998
889.180	0.0160851
889.259	0.0161668
889.337	0.0160838
889.415	0.0161893
889.493	0.0161462
889.571	0.0159445
889.649	0.0163004
889.727	0.0164114
889.805	0.0162082
889.884	0.0161900
889.962	0.0162624
890.040	0.0161645
890.118	0.0162541
890.196	0.0163046
890.274	0.0162804
890.352	0.0162157
890.430	0.0163062
890.509	0.0162279
890.587	0.0162170
890.665	0.0162193
890.743	0.0161161
890.821	0.0160389
890.899	0.0160784
890.977	0.0161060
891.055	0.0160344
891.134	0.0161111
891.212	0.0160123
891.290	0.0160030
891.368	0.0160723
891.446	0.0160400
891.524	0.0159772
891.602	0.0159203
891.680	0.0159823
891.759	0.0159901
891.837	0.0160236
891.915	0.0160525
891.993	0.0158739
892.071	0.0162174
892.149	0.0161253
892.227	0.0159969
892.305	0.0161189
892.384	0.0160427
892.462	0.0159113
892.540	0.0161140
892.618	0.0160851
892.696	0.0161687
892.774	0.0161942
892.852	0.0161573
892.930	0.0161071
893.009	0.0162665
893.087	0.0161429
893.165	0.0160439
893.243	0.0161000
893.321	0.0161486
893.399	0.0161839
893.477	0.0160352
893.555	0.0160259
893.634	0.0162467
893.712	0.0162410
893.790	0.0161584
893.868	0.0161648
893.946	0.0161423
894.024	0.0162420
894.102	0.0161265
894.180	0.0162378
894.259	0.0161030
894.337	0.0161926
894.415	0.0161687
894.493	0.0161985
894.571	0.0161295
894.649	0.0162023
894.727	0.0162188
894.805	0.0162173
894.884	0.0161802
894.962	0.0161876
895.040	0.0161840
895.118	0.0162809
895.196	0.0162157
895.274	0.0162799
895.352	0.0163097
895.430	0.0163256
895.509	0.0162239
895.587	0.0161757
895.665	0.0162896
895.743	0.0163393
895.821	0.0162849
895.899	0.0161642
895.977	0.0163054
896.055	0.0163726
896.134	0.0161773
896.212	0.0161388
896.290	0.0161371
896.368	0.0161670
896.446	0.0162042
896.524	0.0163235
896.602	0.0161102
896.680	0.0162585
896.759	0.0161088
896.837	0.0162043
896.915	0.0161880
896.993	0.0161362
897.071	0.0162650
897.149	0.0160913
897.227	0.0161217
897.305	0.0161777
897.384	0.0161551
897.462	0.0161008
897.540	0.0162406
897.618	0.0160854
897.696	0.0161727
897.774	0.0161820
897.852	0.0160570
897.930	0.0160229
898.009	0.0162425
898.087	0.0161042
898.165	0.0162196
898.243	0.0160136
898.321	0.0160000
898.399	0.0161369
898.477	0.0162596
898.555	0.0161156
898.634	0.0160859
898.712	0.0161996
898.790	0.0161639
898.868	0.0163251
898.946	0.0161834
899.024	0.0162031
899.102	0.0163196
899.180	0.0163114
899.259	0.0161436
899.337	0.0161311
899.415	0.0162530
899.493	0.0162421
899.571	0.0162058
899.649	0.0162605
899.727	0.0162097
899.805	0.0162693
899.884	0.0161996
899.962	0.0161085
900.040	0.0160817
900.118	0.0161368
900.196	0.0161746
900.274	0.0162287
900.352	0.0160460
900.430	0.0161111
900.509	0.0162902
900.587	0.0161080
900.665	0.0162150
900.743	0.0161099
900.821	0.0161561
900.899	0.0161037
900.977	0.0161415
901.055	0.0162313
901.134	0.0163059
901.212	0.0160986
901.290	0.0160492
901.368	0.0161195
901.446	0.0163343
901.524	0.0162418
901.602	0.0161263
901.680	0.0161442
901.759	0.0162802
901.837	0.0161861
901.915	0.0163065
901.993	0.0163261
902.071	0.0163808
902.149	0.0162337
902.227	0.0162743
902.305	0.0163437
902.384	0.0162400
902.462	0.0164069
902.540	0.0162542
902.618	0.0161687
902.696	0.0162988
902.774	0.0162649
902.852	0.0162605
902.930	0.0162737
903.009	0.0161716
903.087	0.0160626
903.165	0.0161530
903.243	0.0162370
903.321	0.0160649
903.399	0.0160833
903.477	0.0161552
903.555	0.0161331
903.634	0.0162774
903.712	0.0161772
903.790	0.0160429
903.868	0.0161782
903.946	0.0161320
904.024	0.0161121
904.102	0.0161970
904.180	0.0162831
904.259	0.0162665
904.337	0.0160982
904.415	0.0161425
904.493	0.0162926
904.571	0.0164054
904.649	0.0162056
904.727	0.0162773
904.805	0.0163025
904.884	0.0161560
904.962	0.0161010
905.040	0.0161932
905.118	0.0161832
905.196	0.0161166
905.274	0.0162767
905.352	0.0161971
905.430	0.0161555
905.509	0.0161115
905.587	0.0160647
905.665	0.0161072
905.743	0.0160610
905.821	0.0161069
905.899	0.0161606
905.977	0.0161471
906.055	0.0160772
906.134	0.0161563
906.212	0.0161889
906.290	0.0162191
906.368	0.0162840
906.446	0.0162647
906.524	0.0163003
906.602	0.0164001
906.680	0.0161273
906.759	0.0162196
906.837	0.0162550
906.915	0.0162244
906.993	0.0162205
907.071	0.0163108
907.149	0.0163382
907.227	0.0162305
907.305	0.0161822
907.384	0.0162024
907.462	0.0162686
907.540	0.0162599
907.618	0.0161352
907.696	0.0161188
907.774	0.0162095
907.852	0.0162318
907.930	0.0160626
908.009	0.0159686
908.087	0.0162030
908.165	0.0160943
908.243	0.0160809
908.321	0.0161568
908.399	0.0162315
908.477	0.0161518
908.555	0.0160745
908.634	0.0160764
908.712	0.0161331
908.790	0.0161220
908.868	0.0163412
908.946	0.0163536
909.024	0.0161069
909.102	0.0161479
909.180	0.0161064
909.259	0.0162151
909.337	0.0162175
909.415	0.0162486
909.493	0.0162125
909.571	0.0161437
909.649	0.0162111
909.727	0.0161269
909.805	0.0161215
909.884	0.0162068
909.962	0.0161978
910.040	0.0161636
910.118	0.0161393
910.196	0.0161674
910.274	0.0162351
910.352	0.0162431
910.430	0.0163447
910.509	0.0162643
910.587	0.0160477
910.665	0.0161362
910.743	0.0162698
910.821	0.0161553
910.899	0.0162280
910.977	0.0161153
911.055	0.0161691
911.134	0.0161499
911.212	0.0162333
911.290	0.0161877
911.368	0.0161613
911.446	0.0161022
911.524	0.0161726
911.602	0.0159910
911.680	0.0160699
911.759	0.0161761
911.837	0.0160754
911.915	0.0160097
911.993	0.0160363
912.071	0.0159955
912.149	0.0160757
912.227	0.0161060
912.305	0.0159844
912.384	0.0162178
912.462	0.0161418
912.540	0.0161402
912.618	0.0161679
912.696	0.0162241
912.774	0.0160618
912.852	0.0162053
912.930	0.0162551
913.009	0.0162260
913.087	0.0162701
913.165	0.0162111
913.243	0.0162069
913.321	0.0162836
913.399	0.0162399
913.477	0.0162964
913.555	0.0161736
913.634	0.0161434
913.712	0.0162200
913.790	0.0161738
913.868	0.0162520
913.946	0.0161827
914.024	0.0161600
914.102	0.0162444
914.180	0.0162390
914.259	0.0162523
914.337	0.0162416
914.415	0.0161729
914.493	0.0162731
914.571	0.0163850
914.649	0.0163385
914.727	0.0162687
914.805	0.0164047
914.884	0.0163538
914.962	0.0162442
915.040	0.0163733
915.118	0.0163554
915.196	0.0163225
915.274	0.0161994
915.352	0.0162238
915.430	0.0162790
915.509	0.0162766
915.587	0.0163837
915.665	0.0162877
915.743	0.0161989
915.821	0.0161713
915.899	0.0161978
915.977	0.0161975
916.055	0.0162241
916.134	0.0162032
916.212	0.0161501
916.290	0.0160932
916.368	0.0162447
916.446	0.0160559
916.524	0.0160265
916.602	0.0161533
916.680	0.0160744
916.759	0.0161584
916.837	0.0159215
916.915	0.0160854
916.993	0.0160415
917.071	0.0161421
917.149	0.0161793
917.227	0.0160308
917.305	0.0160905
917.384	0.0161585
917.462	0.0160883
917.540	0.0161851
917.618	0.0161762
917.696	0.0161905
917.774	0.0160661
917.852	0.0163369
917.930	0.0161762
918.009	0.0161816
918.087	0.0161265
918.165	0.0160905
918.243	0.0164186
918.321	0.0164168
918.399	0.0162595
918.477	0.0160814
918.555	0.0164035
918.634	0.0163011
918.712	0.0161926
918.790	0.0162087
918.868	0.0162258
918.946	0.0161607
919.024	0.0160461
919.102	0.0161122
919.180	0.0161861
919.259	0.0161842
919.337	0.0162236
919.415	0.0160677
919.493	0.0160448
919.571	0.0162487
919.649	0.0162586
919.727	0.0161419
919.805	0.0160242
919.884	0.0161144
