05/08/2022	20:13:51	Ver.	4.1	UNKNOWN
Optical Delay	600.015094	Delta X		0.078125	Sweeps	1	Scan Rate	0/0
Coordinates	Axis 1	NaN	Axis 2	NaN	Axis 3	NaN	Axis 4	NaN	Axis 5	NaN	Axis 6	0.000000
TX Power	0.000000	RX Power	0.000000

600.015	0.0139792
600.093	0.0140467
600.171	0.0140173
600.249	0.0139919
600.328	0.0138081
600.406	0.0139026
600.484	0.0139561
600.562	0.0139822
600.640	0.0137679
600.718	0.0138849
600.796	0.0138725
600.874	0.0139748
600.953	0.0138345
601.031	0.0137914
601.109	0.0135985
601.187	0.0137414
601.265	0.0137648
601.343	0.0137456
601.421	0.0136639
601.499	0.0136937
601.578	0.0138570
601.656	0.0136626
601.734	0.0136717
601.812	0.0138591
601.890	0.0137325
601.968	0.0136608
602.046	0.0135612
602.124	0.0135054
602.203	0.0136063
602.281	0.0136630
602.359	0.0137045
602.437	0.0135622
602.515	0.0136324
602.593	0.0135720
602.671	0.0135859
602.749	0.0136285
602.828	0.0135013
602.906	0.0136063
602.984	0.0135362
603.062	0.0135266
603.140	0.0134776
603.218	0.0135197
603.296	0.0134968
603.374	0.0135665
603.453	0.0134894
603.531	0.0136275
603.609	0.0132794
603.687	0.0133822
603.765	0.0134177
603.843	0.0133914
603.921	0.0135183
603.999	0.0134790
604.078	0.0135095
604.156	0.0134873
604.234	0.0133756
604.312	0.0133747
604.390	0.0133965
604.468	0.0135262
604.546	0.0136054
604.624	0.0133734
604.703	0.0134370
604.781	0.0134901
604.859	0.0135623
604.937	0.0134318
605.015	0.0134888
605.093	0.0135568
605.171	0.0134283
605.249	0.0133079
605.328	0.0133445
605.406	0.0134868
605.484	0.0134765
605.562	0.0134519
605.640	0.0134094
605.718	0.0135052
605.796	0.0135413
605.874	0.0135401
605.953	0.0135962
606.031	0.0133972
606.109	0.0133498
606.187	0.0134429
606.265	0.0135226
606.343	0.0134307
606.421	0.0135426
606.499	0.0135718
606.578	0.0134803
606.656	0.0134556
606.734	0.0134535
606.812	0.0135694
606.890	0.0136252
606.968	0.0135720
607.046	0.0134933
607.124	0.0136595
607.203	0.0134022
607.281	0.0136588
607.359	0.0136420
607.437	0.0134992
607.515	0.0135477
607.593	0.0136634
607.671	0.0134338
607.749	0.0135575
607.828	0.0135651
607.906	0.0134200
607.984	0.0136371
608.062	0.0134861
608.140	0.0134787
608.218	0.0135072
608.296	0.0134837
608.374	0.0135566
608.453	0.0135046
608.531	0.0135623
608.609	0.0135505
608.687	0.0134126
608.765	0.0135592
608.843	0.0135456
608.921	0.0135664
608.999	0.0134936
609.078	0.0134534
609.156	0.0134772
609.234	0.0135498
609.312	0.0134441
609.390	0.0134173
609.468	0.0135633
609.546	0.0135320
609.624	0.0135238
609.703	0.0134518
609.781	0.0134907
609.859	0.0135100
609.937	0.0134673
610.015	0.0134721
610.093	0.0134515
610.171	0.0135484
610.249	0.0136736
610.328	0.0135328
610.406	0.0134657
610.484	0.0135849
610.562	0.0135535
610.640	0.0134125
610.718	0.0135682
610.796	0.0134413
610.874	0.0134570
610.953	0.0136070
611.031	0.0135960
611.109	0.0135101
611.187	0.0135674
611.265	0.0136629
611.343	0.0134377
611.421	0.0134867
611.499	0.0136263
611.578	0.0134187
611.656	0.0135851
611.734	0.0135490
611.812	0.0136699
611.890	0.0135351
611.968	0.0135518
612.046	0.0137910
612.124	0.0136762
612.203	0.0136826
612.281	0.0137833
612.359	0.0137114
612.437	0.0136115
612.515	0.0137022
612.593	0.0136241
612.671	0.0137418
612.749	0.0137448
612.828	0.0135876
612.906	0.0137376
612.984	0.0135791
613.062	0.0137514
613.140	0.0137741
613.218	0.0135989
613.296	0.0136817
613.374	0.0138477
613.453	0.0137769
613.531	0.0137570
613.609	0.0139230
613.687	0.0137428
613.765	0.0137944
613.843	0.0137998
613.921	0.0138277
613.999	0.0137675
614.078	0.0137834
614.156	0.0137280
614.234	0.0137605
614.312	0.0137012
614.390	0.0136327
614.468	0.0137483
614.546	0.0136089
614.624	0.0136868
614.703	0.0136919
614.781	0.0138025
614.859	0.0136081
614.937	0.0137253
615.015	0.0137515
615.093	0.0136752
615.171	0.0137176
615.249	0.0137816
615.328	0.0137302
615.406	0.0137003
615.484	0.0136646
615.562	0.0136478
615.640	0.0138101
615.718	0.0136629
615.796	0.0135079
615.874	0.0136937
615.953	0.0136873
616.031	0.0137709
616.109	0.0136410
616.187	0.0135960
616.265	0.0136703
616.343	0.0136698
616.421	0.0137314
616.499	0.0136490
616.578	0.0136635
616.656	0.0136701
616.734	0.0136621
616.812	0.0136800
616.890	0.0137170
616.968	0.0137634
617.046	0.0137082
617.124	0.0137497
617.203	0.0137540
617.281	0.0137145
617.359	0.0136349
617.437	0.0138075
617.515	0.0137167
617.593	0.0136700
617.671	0.0137727
617.749	0.0137749
617.828	0.0136481
617.906	0.0137134
617.984	0.0137340
618.062	0.0137399
618.140	0.0137553
618.218	0.0136607
618.296	0.0137154
618.374	0.0138601
618.453	0.0138842
618.531	0.0136780
618.609	0.0137504
618.687	0.0139404
618.765	0.0138350
618.843	0.0136697
618.921	0.0137148
618.999	0.0137886
619.078	0.0139050
619.156	0.0138347
619.234	0.0137512
619.312	0.0138033
619.390	0.0138248
619.468	0.0136771
619.546	0.0136261
619.624	0.0137184
619.703	0.0137974
619.781	0.0137286
619.859	0.0137324
619.937	0.0138584
620.015	0.0137734
620.093	0.0137395
620.171	0.0137535
620.249	0.0138385
620.328	0.0138493
620.406	0.0137782
620.484	0.0138969
620.562	0.0138342
620.640	0.0138667
620.718	0.0137540
620.796	0.0136958
620.874	0.0137291
620.953	0.0138451
621.031	0.0138213
621.109	0.0137136
621.187	0.0138045
621.265	0.0138353
621.343	0.0140134
621.421	0.0137591
621.499	0.0137070
621.578	0.0135822
621.656	0.0138245
621.734	0.0138237
621.812	0.0137612
621.890	0.0137653
621.968	0.0137704
622.046	0.0137261
622.124	0.0136567
622.203	0.0138035
622.281	0.0137998
622.359	0.0137782
622.437	0.0137028
622.515	0.0137988
622.593	0.0138428
622.671	0.0137665
622.749	0.0137646
622.828	0.0138462
622.906	0.0139086
622.984	0.0138663
623.062	0.0136893
623.140	0.0137800
623.218	0.0138130
623.296	0.0138074
623.374	0.0136894
623.453	0.0137994
623.531	0.0135197
623.609	0.0136615
623.687	0.0138261
623.765	0.0137828
623.843	0.0136749
623.921	0.0136613
623.999	0.0138610
624.078	0.0137614
624.156	0.0136710
624.234	0.0136623
624.312	0.0136031
624.390	0.0136803
624.468	0.0135738
624.546	0.0138370
624.624	0.0136627
624.703	0.0135968
624.781	0.0137961
624.859	0.0137118
624.937	0.0136942
625.015	0.0137936
625.093	0.0137370
625.171	0.0137642
625.249	0.0136321
625.328	0.0136887
625.406	0.0137386
625.484	0.0135524
625.562	0.0136734
625.640	0.0136008
625.718	0.0136662
625.796	0.0136065
625.874	0.0135898
625.953	0.0135775
626.031	0.0135735
626.109	0.0135004
626.187	0.0135893
626.265	0.0134976
626.343	0.0136906
626.421	0.0137566
626.499	0.0136532
626.578	0.0136198
626.656	0.0134705
626.734	0.0135541
626.812	0.0136991
626.890	0.0135720
626.968	0.0134897
627.046	0.0136139
627.124	0.0136125
627.203	0.0137189
627.281	0.0135632
627.359	0.0135786
627.437	0.0134781
627.515	0.0135870
627.593	0.0137077
627.671	0.0137212
627.749	0.0136592
627.828	0.0135703
627.906	0.0135313
627.984	0.0136699
628.062	0.0135575
628.140	0.0135573
628.218	0.0137219
628.296	0.0136885
628.374	0.0135268
628.453	0.0136016
628.531	0.0134246
628.609	0.0135101
628.687	0.0136006
628.765	0.0135909
628.843	0.0135674
628.921	0.0135906
628.999	0.0136256
629.078	0.0134336
629.156	0.0136303
629.234	0.0137160
629.312	0.0136530
629.390	0.0136210
629.468	0.0136308
629.546	0.0137524
629.624	0.0137536
629.703	0.0136501
629.781	0.0134229
629.859	0.0136068
629.937	0.0137357
630.015	0.0135910
630.093	0.0134903
630.171	0.0137069
630.249	0.0135725
630.328	0.0135595
630.406	0.0136388
630.484	0.0135873
630.562	0.0134845
630.640	0.0136530
630.718	0.0137756
630.796	0.0137895
630.874	0.0136157
630.953	0.0136375
631.031	0.0137160
631.109	0.0137125
631.187	0.0136277
631.265	0.0136367
631.343	0.0136013
631.421	0.0135518
631.499	0.0136320
631.578	0.0135054
631.656	0.0135763
631.734	0.0136135
631.812	0.0136475
631.890	0.0136187
631.968	0.0135575
632.046	0.0134317
632.124	0.0136429
632.203	0.0136716
632.281	0.0136269
632.359	0.0136020
632.437	0.0135772
632.515	0.0135918
632.593	0.0133875
632.671	0.0135390
632.749	0.0136898
632.828	0.0136980
632.906	0.0135551
632.984	0.0135558
633.062	0.0135539
633.140	0.0137418
633.218	0.0135688
633.296	0.0135867
633.374	0.0136535
633.453	0.0137080
633.531	0.0136229
633.609	0.0134998
633.687	0.0136193
633.765	0.0136283
633.843	0.0136099
633.921	0.0135938
633.999	0.0135309
634.078	0.0135863
634.156	0.0135458
634.234	0.0134933
634.312	0.0134914
634.390	0.0136519
634.468	0.0135681
634.546	0.0134884
634.624	0.0134547
634.703	0.0135387
634.781	0.0134589
634.859	0.0135187
634.937	0.0136571
635.015	0.0134991
635.093	0.0135704
635.171	0.0134980
635.249	0.0134503
635.328	0.0135209
635.406	0.0135805
635.484	0.0135092
635.562	0.0134674
635.640	0.0136118
635.718	0.0136228
635.796	0.0134254
635.874	0.0135215
635.953	0.0134552
636.031	0.0134583
636.109	0.0135608
636.187	0.0134472
636.265	0.0135497
636.343	0.0135290
636.421	0.0133650
636.499	0.0135499
636.578	0.0135495
636.656	0.0134692
636.734	0.0134341
636.812	0.0135234
636.890	0.0134592
636.968	0.0134993
637.046	0.0135673
637.124	0.0135417
637.203	0.0136398
637.281	0.0134117
637.359	0.0134399
637.437	0.0136130
637.515	0.0135324
637.593	0.0136392
637.671	0.0136890
637.749	0.0135473
637.828	0.0136068
637.906	0.0136562
637.984	0.0136767
638.062	0.0136317
638.140	0.0137663
638.218	0.0138074
638.296	0.0137749
638.374	0.0137733
638.453	0.0136288
638.531	0.0137261
638.609	0.0137757
638.687	0.0138251
638.765	0.0138593
638.843	0.0136207
638.921	0.0138967
638.999	0.0139884
639.078	0.0139200
639.156	0.0138330
639.234	0.0138723
639.312	0.0139347
639.390	0.0140129
639.468	0.0140535
639.546	0.0139684
639.624	0.0140241
639.703	0.0140598
639.781	0.0140027
639.859	0.0141687
639.937	0.0140391
640.015	0.0140453
640.093	0.0140755
640.171	0.0139899
640.249	0.0139976
640.328	0.0138892
640.406	0.0138424
640.484	0.0137775
640.562	0.0138588
640.640	0.0139050
640.718	0.0138910
640.796	0.0138057
640.874	0.0138544
640.953	0.0138706
641.031	0.0137846
641.109	0.0136996
641.187	0.0138764
641.265	0.0141119
641.343	0.0137839
641.421	0.0139275
641.499	0.0140096
641.578	0.0140181
641.656	0.0139700
641.734	0.0138441
641.812	0.0140879
641.890	0.0140134
641.968	0.0140393
642.046	0.0140060
642.124	0.0139916
642.203	0.0140520
642.281	0.0139069
642.359	0.0139561
642.437	0.0139828
642.515	0.0139977
642.593	0.0139489
642.671	0.0138970
642.749	0.0138638
642.828	0.0138135
642.906	0.0137990
642.984	0.0137990
643.062	0.0136833
643.140	0.0136417
643.218	0.0135390
643.296	0.0134494
643.374	0.0133164
643.453	0.0133962
643.531	0.0135101
643.609	0.0133804
643.687	0.0134010
643.765	0.0134975
643.843	0.0135210
643.921	0.0135203
643.999	0.0136288
644.078	0.0135960
644.156	0.0136880
644.234	0.0137537
644.312	0.0138623
644.390	0.0138506
644.468	0.0138591
644.546	0.0138978
644.624	0.0140778
644.703	0.0138863
644.781	0.0139669
644.859	0.0139694
644.937	0.0140634
645.015	0.0140213
645.093	0.0140208
645.171	0.0138151
645.249	0.0139113
645.328	0.0137737
645.406	0.0136714
645.484	0.0134960
645.562	0.0134424
645.640	0.0134127
645.718	0.0133744
645.796	0.0133169
645.874	0.0131803
645.953	0.0131662
646.031	0.0129937
646.109	0.0130965
646.187	0.0131194
646.265	0.0129372
646.343	0.0131975
646.421	0.0132590
646.499	0.0132808
646.578	0.0133148
646.656	0.0135379
646.734	0.0134697
646.812	0.0135290
646.890	0.0136601
646.968	0.0137926
647.046	0.0137596
647.124	0.0137156
647.203	0.0138076
647.281	0.0138984
647.359	0.0140273
647.437	0.0139374
647.515	0.0138090
647.593	0.0141383
647.671	0.0141259
647.749	0.0139087
647.828	0.0139867
647.906	0.0139149
647.984	0.0139805
648.062	0.0139925
648.140	0.0137286
648.218	0.0136432
648.296	0.0135278
648.374	0.0132729
648.453	0.0131702
648.531	0.0131794
648.609	0.0129745
648.687	0.0126994
648.765	0.0128641
648.843	0.0128702
648.921	0.0126292
648.999	0.0127675
649.078	0.0126588
649.156	0.0129464
649.234	0.0130598
649.312	0.0130720
649.390	0.0131901
649.468	0.0134107
649.546	0.0134936
649.624	0.0137428
649.703	0.0138478
649.781	0.0141127
649.859	0.0142971
649.937	0.0143800
650.015	0.0145156
650.093	0.0147396
650.171	0.0147740
650.249	0.0149489
650.328	0.0150719
650.406	0.0151588
650.484	0.0151102
650.562	0.0149470
650.640	0.0148302
650.718	0.0147502
650.796	0.0146732
650.874	0.0142702
650.953	0.0139201
651.031	0.0135675
651.109	0.0132927
651.187	0.0130514
651.265	0.0127897
651.343	0.0124538
651.421	0.0123715
651.499	0.0122445
651.578	0.0120539
651.656	0.0118407
651.734	0.0119240
651.812	0.0119333
651.890	0.0120395
651.968	0.0121763
652.046	0.0124076
652.124	0.0125311
652.203	0.0124858
652.281	0.0127082
652.359	0.0130132
652.437	0.0134323
652.515	0.0135868
652.593	0.0138696
652.671	0.0141505
652.749	0.0144270
652.828	0.0145770
652.906	0.0148177
652.984	0.0150176
653.062	0.0153038
653.140	0.0153545
653.218	0.0153860
653.296	0.0155467
653.374	0.0154797
653.453	0.0154414
653.531	0.0153967
653.609	0.0150900
653.687	0.0150939
653.765	0.0146925
653.843	0.0144295
653.921	0.0142362
653.999	0.0140533
654.078	0.0136412
654.156	0.0134009
654.234	0.0132834
654.312	0.0128619
654.390	0.0128061
654.468	0.0126883
654.546	0.0124883
654.624	0.0124571
654.703	0.0124296
654.781	0.0123501
654.859	0.0122862
654.937	0.0124548
655.015	0.0125304
655.093	0.0126609
655.171	0.0127047
655.249	0.0128202
655.328	0.0129651
655.406	0.0131073
655.484	0.0132732
655.562	0.0132368
655.640	0.0134378
655.718	0.0133344
655.796	0.0134031
655.874	0.0135492
655.953	0.0136718
656.031	0.0137984
656.109	0.0136475
656.187	0.0137739
656.265	0.0137865
656.343	0.0140022
656.421	0.0141211
656.499	0.0141457
656.578	0.0141809
656.656	0.0141808
656.734	0.0143736
656.812	0.0143803
656.890	0.0142970
656.968	0.0143752
657.046	0.0142779
657.124	0.0141779
657.203	0.0141807
657.281	0.0141479
657.359	0.0140430
657.437	0.0140542
657.515	0.0141605
657.593	0.0140814
657.671	0.0140640
657.749	0.0139972
657.828	0.0141598
657.906	0.0141026
657.984	0.0141225
658.062	0.0141351
658.140	0.0140789
658.218	0.0142542
658.296	0.0141283
658.374	0.0141582
658.453	0.0140566
658.531	0.0140739
658.609	0.0142109
658.687	0.0141635
658.765	0.0140466
658.843	0.0141833
658.921	0.0141862
658.999	0.0141173
659.078	0.0141653
659.156	0.0141525
659.234	0.0141029
659.312	0.0138046
659.390	0.0138281
659.468	0.0138454
659.546	0.0137072
659.624	0.0133835
659.703	0.0132438
659.781	0.0128371
659.859	0.0127975
659.937	0.0125942
660.015	0.0125209
660.093	0.0122977
660.171	0.0121140
660.249	0.0119930
660.328	0.0121474
660.406	0.0121136
660.484	0.0120341
660.562	0.0121985
660.640	0.0121278
660.718	0.0121486
660.796	0.0122276
660.874	0.0125824
660.953	0.0127551
661.031	0.0131251
661.109	0.0132807
661.187	0.0136642
661.265	0.0140267
661.343	0.0145648
661.421	0.0147444
661.499	0.0151719
661.578	0.0156100
661.656	0.0158362
661.734	0.0160868
661.812	0.0163529
661.890	0.0165463
661.968	0.0166683
662.046	0.0166628
662.124	0.0166445
662.203	0.0165501
662.281	0.0166019
662.359	0.0163117
662.437	0.0161062
662.515	0.0161096
662.593	0.0157332
662.671	0.0154440
662.749	0.0151375
662.828	0.0147878
662.906	0.0144646
662.984	0.0141188
663.062	0.0138860
663.140	0.0135772
663.218	0.0132918
663.296	0.0132322
663.374	0.0127638
663.453	0.0124345
663.531	0.0123879
663.609	0.0121637
663.687	0.0121934
663.765	0.0120081
663.843	0.0121174
663.921	0.0121104
663.999	0.0122561
664.078	0.0122065
664.156	0.0123415
664.234	0.0126453
664.312	0.0125561
664.390	0.0125880
664.468	0.0126806
664.546	0.0128284
664.624	0.0129497
664.703	0.0130018
664.781	0.0129575
664.859	0.0130918
664.937	0.0131191
665.015	0.0132083
665.093	0.0131676
665.171	0.0133132
665.249	0.0133336
665.328	0.0132485
665.406	0.0131480
665.484	0.0133399
665.562	0.0135182
665.640	0.0135468
665.718	0.0136494
665.796	0.0136700
665.874	0.0136947
665.953	0.0137080
666.031	0.0138569
666.109	0.0140876
666.187	0.0140991
666.265	0.0142303
666.343	0.0144158
666.421	0.0144943
666.499	0.0143629
666.578	0.0146066
666.656	0.0148370
666.734	0.0148605
666.812	0.0149531
666.890	0.0149487
666.968	0.0148869
667.046	0.0150481
667.124	0.0149633
667.203	0.0150676
667.281	0.0152034
667.359	0.0150790
667.437	0.0150983
667.515	0.0149037
667.593	0.0150816
667.671	0.0148328
667.749	0.0147652
667.828	0.0147701
667.906	0.0144257
667.984	0.0142382
668.062	0.0140049
668.140	0.0139319
668.218	0.0138422
668.296	0.0134988
668.374	0.0132449
668.453	0.0132020
668.531	0.0130287
668.609	0.0127512
668.687	0.0126822
668.765	0.0125954
668.843	0.0122444
668.921	0.0120261
668.999	0.0120218
669.078	0.0117928
669.156	0.0116742
669.234	0.0116991
669.312	0.0113858
669.390	0.0114929
669.468	0.0114608
669.546	0.0114818
669.624	0.0113756
669.703	0.0113156
669.781	0.0115714
669.859	0.0117957
669.937	0.0119382
670.015	0.0121014
670.093	0.0122071
670.171	0.0126279
670.249	0.0129247
670.328	0.0131870
670.406	0.0132832
670.484	0.0134915
670.562	0.0139023
670.640	0.0142081
670.718	0.0143198
670.796	0.0145465
670.874	0.0146194
670.953	0.0149161
671.031	0.0149844
671.109	0.0152678
671.187	0.0152374
671.265	0.0154642
671.343	0.0154467
671.421	0.0155135
671.499	0.0157019
671.578	0.0157330
671.656	0.0157693
671.734	0.0158034
671.812	0.0157454
671.890	0.0159131
671.968	0.0157788
672.046	0.0158439
672.124	0.0157429
672.203	0.0156789
672.281	0.0156779
672.359	0.0155434
672.437	0.0156300
672.515	0.0154131
672.593	0.0152972
672.671	0.0151089
672.749	0.0148208
672.828	0.0145777
672.906	0.0146073
672.984	0.0142512
673.062	0.0137614
673.140	0.0135443
673.218	0.0130920
673.296	0.0129966
673.374	0.0128754
673.453	0.0125266
673.531	0.0122446
673.609	0.0120226
673.687	0.0118858
673.765	0.0115503
673.843	0.0112419
673.921	0.0109926
673.999	0.0109445
674.078	0.0107422
674.156	0.0106725
674.234	0.0106001
674.312	0.0104545
674.390	0.0103611
674.468	0.0105282
674.546	0.0105357
674.624	0.0107346
674.703	0.0108625
674.781	0.0112852
674.859	0.0114787
674.937	0.0117027
675.015	0.0119672
675.093	0.0124773
675.171	0.0128580
675.249	0.0133754
675.328	0.0137778
675.406	0.0141517
675.484	0.0146150
675.562	0.0149946
675.640	0.0155548
675.718	0.0160371
675.796	0.0159988
675.874	0.0162947
675.953	0.0165342
676.031	0.0165870
676.109	0.0167953
676.187	0.0166444
676.265	0.0164883
676.343	0.0164917
676.421	0.0163612
676.499	0.0162446
676.578	0.0160635
676.656	0.0159858
676.734	0.0158449
676.812	0.0156686
676.890	0.0156303
676.968	0.0155690
677.046	0.0154828
677.124	0.0152124
677.203	0.0151378
677.281	0.0150504
677.359	0.0148365
677.437	0.0146554
677.515	0.0143422
677.593	0.0141553
677.671	0.0139722
677.749	0.0137304
677.828	0.0132434
677.906	0.0130436
677.984	0.0127758
678.062	0.0125524
678.140	0.0120936
678.218	0.0119136
678.296	0.0117030
678.374	0.0115327
678.453	0.0111930
678.531	0.0111000
678.609	0.0110062
678.687	0.0110216
678.765	0.0109859
678.843	0.0110700
678.921	0.0111651
678.999	0.0113757
679.078	0.0113577
679.156	0.0116956
679.234	0.0119500
679.312	0.0121989
679.390	0.0124620
679.468	0.0126719
679.546	0.0129089
679.624	0.0132197
679.703	0.0133095
679.781	0.0133632
679.859	0.0136818
679.937	0.0138934
680.015	0.0139289
680.093	0.0139304
680.171	0.0139988
680.249	0.0141021
680.328	0.0143797
680.406	0.0142770
680.484	0.0141900
680.562	0.0143650
680.640	0.0143149
680.718	0.0143231
680.796	0.0144202
680.874	0.0144080
680.953	0.0144637
681.031	0.0144649
681.109	0.0144437
681.187	0.0144366
681.265	0.0146475
681.343	0.0145195
681.421	0.0144720
681.499	0.0145219
681.578	0.0147583
681.656	0.0144142
681.734	0.0143734
681.812	0.0143846
681.890	0.0143414
681.968	0.0144092
682.046	0.0142278
682.124	0.0142236
682.203	0.0142728
682.281	0.0143301
682.359	0.0142561
682.437	0.0141013
682.515	0.0141605
682.593	0.0141714
682.671	0.0143163
682.749	0.0143433
682.828	0.0143114
682.906	0.0143610
682.984	0.0142947
683.062	0.0143567
683.140	0.0142202
683.218	0.0141021
683.296	0.0142225
683.374	0.0141886
683.453	0.0141846
683.531	0.0140368
683.609	0.0139555
683.687	0.0138870
683.765	0.0136978
683.843	0.0137107
683.921	0.0138077
683.999	0.0135825
684.078	0.0136564
684.156	0.0134959
684.234	0.0133128
684.312	0.0132547
684.390	0.0132912
684.468	0.0130973
684.546	0.0129977
684.624	0.0128669
684.703	0.0127924
684.781	0.0125081
684.859	0.0125503
684.937	0.0123539
685.015	0.0122454
685.093	0.0119536
685.171	0.0120660
685.249	0.0120883
685.328	0.0118613
685.406	0.0120763
685.484	0.0121399
685.562	0.0121663
685.640	0.0123114
685.718	0.0123742
685.796	0.0125437
685.874	0.0125620
685.953	0.0127870
686.031	0.0129351
686.109	0.0131618
686.187	0.0134059
686.265	0.0136906
686.343	0.0138997
686.421	0.0140962
686.499	0.0143159
686.578	0.0144186
686.656	0.0146416
686.734	0.0147902
686.812	0.0149610
686.890	0.0151888
686.968	0.0151545
687.046	0.0152666
687.124	0.0155308
687.203	0.0155432
687.281	0.0156243
687.359	0.0155936
687.437	0.0154518
687.515	0.0155869
687.593	0.0153566
687.671	0.0152269
687.749	0.0151730
687.828	0.0149213
687.906	0.0148743
687.984	0.0149058
688.062	0.0146469
688.140	0.0144534
688.218	0.0141609
688.296	0.0141424
688.374	0.0137767
688.453	0.0137336
688.531	0.0136118
688.609	0.0133958
688.687	0.0131671
688.765	0.0131113
688.843	0.0128373
688.921	0.0127069
688.999	0.0126091
689.078	0.0124210
689.156	0.0124527
689.234	0.0124277
689.312	0.0122404
689.390	0.0122982
689.468	0.0121124
689.546	0.0122044
689.624	0.0122968
689.703	0.0123263
689.781	0.0123611
689.859	0.0122961
689.937	0.0124161
690.015	0.0126452
690.093	0.0126479
690.171	0.0128091
690.249	0.0129402
690.328	0.0130351
690.406	0.0130924
690.484	0.0132175
690.562	0.0134831
690.640	0.0136813
690.718	0.0135765
690.796	0.0136863
690.874	0.0138136
690.953	0.0139334
691.031	0.0140826
691.109	0.0139548
691.187	0.0142303
691.265	0.0142481
691.343	0.0141196
691.421	0.0141759
691.499	0.0141764
691.578	0.0141907
691.656	0.0141728
691.734	0.0140522
691.812	0.0139905
691.890	0.0140942
691.968	0.0139475
692.046	0.0140083
692.124	0.0138428
692.203	0.0137776
692.281	0.0137212
692.359	0.0135786
692.437	0.0134519
692.515	0.0134987
692.593	0.0134702
692.671	0.0134375
692.749	0.0134576
692.828	0.0135023
692.906	0.0134039
692.984	0.0136794
693.062	0.0136234
693.140	0.0134306
693.218	0.0135928
693.296	0.0136887
693.374	0.0135810
693.453	0.0136954
693.531	0.0137186
693.609	0.0137627
693.687	0.0137212
693.765	0.0138207
693.843	0.0138642
693.921	0.0138573
693.999	0.0138291
694.078	0.0139635
694.156	0.0141059
694.234	0.0141561
694.312	0.0142016
694.390	0.0142173
694.468	0.0143343
694.546	0.0144059
694.624	0.0145173
694.703	0.0146130
694.781	0.0146958
694.859	0.0146623
694.937	0.0146238
695.015	0.0146014
695.093	0.0144793
695.171	0.0145187
695.249	0.0145876
695.328	0.0142674
695.406	0.0140965
695.484	0.0142413
695.562	0.0140273
695.640	0.0138969
695.718	0.0139038
695.796	0.0139529
695.874	0.0136831
695.953	0.0134991
696.031	0.0134106
696.109	0.0133459
696.187	0.0133678
696.265	0.0132799
696.343	0.0133184
696.421	0.0133598
696.499	0.0131549
696.578	0.0132030
696.656	0.0133011
696.734	0.0132613
696.812	0.0129647
696.890	0.0131637
696.968	0.0131932
697.046	0.0130547
697.124	0.0128541
697.203	0.0127763
697.281	0.0128517
697.359	0.0128762
697.437	0.0127747
697.515	0.0126781
697.593	0.0127377
697.671	0.0128288
697.749	0.0128519
697.828	0.0130704
697.906	0.0132247
697.984	0.0132161
698.062	0.0131290
698.140	0.0132523
698.218	0.0133601
698.296	0.0133732
698.374	0.0134334
698.453	0.0136209
698.531	0.0138188
698.609	0.0138484
698.687	0.0138087
698.765	0.0141148
698.843	0.0141463
698.921	0.0143776
698.999	0.0145760
699.078	0.0147277
699.156	0.0149779
699.234	0.0150732
699.312	0.0151871
699.390	0.0150366
699.468	0.0151588
699.546	0.0152786
699.624	0.0151954
699.703	0.0151728
699.781	0.0150976
699.859	0.0150202
699.937	0.0149126
700.015	0.0145901
700.093	0.0145178
700.171	0.0143448
700.249	0.0141489
700.328	0.0141973
700.406	0.0138873
700.484	0.0138123
700.562	0.0136088
700.640	0.0134152
700.718	0.0132470
700.796	0.0131496
700.874	0.0131049
700.953	0.0131174
701.031	0.0131218
701.109	0.0129948
701.187	0.0130485
701.265	0.0131734
701.343	0.0132710
701.421	0.0133418
701.499	0.0133492
701.578	0.0134155
701.656	0.0134466
701.734	0.0135853
701.812	0.0135456
701.890	0.0134348
701.968	0.0135434
702.046	0.0136585
702.124	0.0135665
702.203	0.0135363
702.281	0.0136270
702.359	0.0137399
702.437	0.0137319
702.515	0.0137032
702.593	0.0137132
702.671	0.0137215
702.749	0.0135492
702.828	0.0135605
702.906	0.0136269
702.984	0.0136203
703.062	0.0134673
703.140	0.0133425
703.218	0.0132390
703.296	0.0132105
703.374	0.0129009
703.453	0.0128009
703.531	0.0126802
703.609	0.0126411
703.687	0.0126405
703.765	0.0124057
703.843	0.0124176
703.921	0.0125811
703.999	0.0125137
704.078	0.0125954
704.156	0.0127638
704.234	0.0126985
704.312	0.0128774
704.390	0.0131190
704.468	0.0131278
704.546	0.0132985
704.624	0.0133981
704.703	0.0135203
704.781	0.0135437
704.859	0.0137006
704.937	0.0138513
705.015	0.0139097
705.093	0.0138902
705.171	0.0141975
705.249	0.0141590
705.328	0.0142437
705.406	0.0143929
705.484	0.0143271
705.562	0.0142986
705.640	0.0143949
705.718	0.0143400
705.796	0.0143299
705.874	0.0144533
705.953	0.0143857
706.031	0.0144307
706.109	0.0143833
706.187	0.0144165
706.265	0.0145997
706.343	0.0143370
706.421	0.0142312
706.499	0.0144184
706.578	0.0144817
706.656	0.0144337
706.734	0.0142621
706.812	0.0141853
706.890	0.0139529
706.968	0.0139198
707.046	0.0139285
707.124	0.0139098
707.203	0.0136960
707.281	0.0134077
707.359	0.0133050
707.437	0.0133007
707.515	0.0132362
707.593	0.0132127
707.671	0.0130930
707.749	0.0128883
707.828	0.0128493
707.906	0.0129159
707.984	0.0129432
708.062	0.0127698
708.140	0.0126537
708.218	0.0126651
708.296	0.0127345
708.374	0.0126756
708.453	0.0124876
708.531	0.0125509
708.609	0.0125685
708.687	0.0126514
708.765	0.0126626
708.843	0.0126173
708.921	0.0128513
708.999	0.0129171
709.078	0.0131115
709.156	0.0131445
709.234	0.0132427
709.312	0.0133234
709.390	0.0133177
709.468	0.0135133
709.546	0.0135183
709.624	0.0135346
709.703	0.0134990
709.781	0.0136555
709.859	0.0137731
709.937	0.0138206
710.015	0.0139216
710.093	0.0140692
710.171	0.0141688
710.249	0.0141992
710.328	0.0142109
710.406	0.0143498
710.484	0.0143680
710.562	0.0142837
710.640	0.0142429
710.718	0.0142953
710.796	0.0142416
710.874	0.0142929
710.953	0.0140368
711.031	0.0139848
711.109	0.0139240
711.187	0.0138526
711.265	0.0139013
711.343	0.0136629
711.421	0.0136536
711.499	0.0135693
711.578	0.0135904
711.656	0.0136357
711.734	0.0138045
711.812	0.0138167
711.890	0.0138543
711.968	0.0138985
712.046	0.0137622
712.124	0.0139204
712.203	0.0140070
712.281	0.0141249
712.359	0.0141091
712.437	0.0141704
712.515	0.0140288
712.593	0.0141515
712.671	0.0139928
712.749	0.0139853
712.828	0.0140153
712.906	0.0140044
712.984	0.0139168
713.062	0.0139032
713.140	0.0139309
713.218	0.0139542
713.296	0.0139234
713.374	0.0138165
713.453	0.0137016
713.531	0.0137749
713.609	0.0135705
713.687	0.0136466
713.765	0.0135387
713.843	0.0136506
713.921	0.0135095
713.999	0.0133932
714.078	0.0134399
714.156	0.0133632
714.234	0.0133528
714.312	0.0134285
714.390	0.0133323
714.468	0.0133076
714.546	0.0133528
714.624	0.0132504
714.703	0.0132213
714.781	0.0131390
714.859	0.0130865
714.937	0.0130492
715.015	0.0130499
715.093	0.0130012
715.171	0.0131051
715.249	0.0129228
715.328	0.0129807
715.406	0.0129816
715.484	0.0130506
715.562	0.0130476
715.640	0.0131279
715.718	0.0132822
715.796	0.0133782
715.874	0.0134437
715.953	0.0133523
716.031	0.0134842
716.109	0.0136314
716.187	0.0137933
716.265	0.0137109
716.343	0.0138179
716.421	0.0138029
716.499	0.0138667
716.578	0.0139164
716.656	0.0140343
716.734	0.0141197
716.812	0.0141217
716.890	0.0143031
716.968	0.0142728
717.046	0.0142989
717.124	0.0145527
717.203	0.0146179
717.281	0.0146859
717.359	0.0146732
717.437	0.0147801
717.515	0.0148170
717.593	0.0149982
717.671	0.0147015
717.749	0.0148482
717.828	0.0149369
717.906	0.0146786
717.984	0.0146954
718.062	0.0146216
718.140	0.0144709
718.218	0.0145492
718.296	0.0144647
718.374	0.0144239
718.453	0.0142530
718.531	0.0141176
718.609	0.0141745
718.687	0.0139756
718.765	0.0138738
718.843	0.0138341
718.921	0.0137080
718.999	0.0137129
719.078	0.0135532
719.156	0.0134483
719.234	0.0136051
719.312	0.0134307
719.390	0.0133573
719.468	0.0135437
719.546	0.0137197
719.624	0.0136325
719.703	0.0133741
719.781	0.0135311
719.859	0.0136099
719.937	0.0135741
720.015	0.0136345
720.093	0.0135773
720.171	0.0135536
720.249	0.0136311
720.328	0.0133059
720.406	0.0133043
720.484	0.0132491
720.562	0.0132214
720.640	0.0133134
720.718	0.0132368
720.796	0.0130384
720.874	0.0130448
720.953	0.0131743
721.031	0.0132183
721.109	0.0131184
721.187	0.0129008
721.265	0.0132591
721.343	0.0132972
721.421	0.0131461
721.499	0.0131155
721.578	0.0133221
721.656	0.0135423
721.734	0.0135387
721.812	0.0135854
721.890	0.0135713
721.968	0.0136981
722.046	0.0137630
722.124	0.0140146
722.203	0.0140403
722.281	0.0138393
722.359	0.0140402
722.437	0.0141531
722.515	0.0143051
722.593	0.0142500
722.671	0.0143154
722.749	0.0143597
722.828	0.0143281
722.906	0.0144165
722.984	0.0143391
723.062	0.0143744
723.140	0.0143460
723.218	0.0144130
723.296	0.0143289
723.374	0.0142446
723.453	0.0140938
723.531	0.0141698
723.609	0.0139751
723.687	0.0138481
723.765	0.0136706
723.843	0.0136615
723.921	0.0136336
723.999	0.0135611
724.078	0.0133496
724.156	0.0133727
724.234	0.0133604
724.312	0.0134182
724.390	0.0132852
724.468	0.0132938
724.546	0.0131974
724.624	0.0131698
724.703	0.0132676
724.781	0.0134116
724.859	0.0134958
724.937	0.0135276
725.015	0.0135316
725.093	0.0133916
725.171	0.0136092
725.249	0.0136593
725.328	0.0137277
725.406	0.0138096
725.484	0.0138333
725.562	0.0139871
725.640	0.0139687
725.718	0.0139555
725.796	0.0141003
725.874	0.0140523
725.953	0.0139963
726.031	0.0140419
726.109	0.0140629
726.187	0.0139989
726.265	0.0138951
726.343	0.0139464
726.421	0.0139153
726.499	0.0138451
726.578	0.0138051
726.656	0.0137537
726.734	0.0137206
726.812	0.0135966
726.890	0.0136359
726.968	0.0134840
727.046	0.0132587
727.124	0.0133945
727.203	0.0132417
727.281	0.0131641
727.359	0.0131483
727.437	0.0131027
727.515	0.0130727
727.593	0.0132018
727.671	0.0131152
727.749	0.0130073
727.828	0.0131431
727.906	0.0132199
727.984	0.0131717
728.062	0.0133080
728.140	0.0134178
728.218	0.0134274
728.296	0.0134406
728.374	0.0135609
728.453	0.0136510
728.531	0.0136311
728.609	0.0138293
728.687	0.0138356
728.765	0.0138995
728.843	0.0140205
728.921	0.0141525
728.999	0.0141760
729.078	0.0142058
729.156	0.0142930
729.234	0.0143443
729.312	0.0142391
729.390	0.0143427
729.468	0.0143295
729.546	0.0145438
729.624	0.0144728
729.703	0.0143269
729.781	0.0143380
729.859	0.0142697
729.937	0.0143155
730.015	0.0143356
730.093	0.0142142
730.171	0.0141946
730.249	0.0141611
730.328	0.0140567
730.406	0.0139334
730.484	0.0139774
730.562	0.0138538
730.640	0.0137080
730.718	0.0136714
730.796	0.0136087
730.874	0.0136055
730.953	0.0135512
731.031	0.0133582
731.109	0.0133057
731.187	0.0131968
731.265	0.0131059
731.343	0.0130209
731.421	0.0129902
731.499	0.0130943
731.578	0.0129382
731.656	0.0128506
731.734	0.0130076
731.812	0.0129613
731.890	0.0130000
731.968	0.0131489
732.046	0.0132410
732.124	0.0131261
732.203	0.0129712
732.281	0.0132315
732.359	0.0134590
732.437	0.0134032
732.515	0.0133685
732.593	0.0134725
732.671	0.0134047
732.749	0.0134492
732.828	0.0135135
732.906	0.0135002
732.984	0.0135567
733.062	0.0134807
733.140	0.0136338
733.218	0.0134459
733.296	0.0133427
733.374	0.0135558
733.453	0.0134223
733.531	0.0135046
733.609	0.0137246
733.687	0.0136547
733.765	0.0136365
733.843	0.0136992
733.921	0.0136959
733.999	0.0137874
734.078	0.0137983
734.156	0.0139247
734.234	0.0139529
734.312	0.0139379
734.390	0.0139483
734.468	0.0140626
734.546	0.0140316
734.624	0.0139769
734.703	0.0138857
734.781	0.0141206
734.859	0.0140425
734.937	0.0140622
735.015	0.0141531
735.093	0.0141141
735.171	0.0141000
735.249	0.0142091
735.328	0.0140777
735.406	0.0140026
735.484	0.0139668
735.562	0.0138718
735.640	0.0139783
735.718	0.0140367
735.796	0.0139954
735.874	0.0139423
735.953	0.0139117
736.031	0.0138298
736.109	0.0139216
736.187	0.0139523
736.265	0.0139146
736.343	0.0138548
736.421	0.0139362
736.499	0.0138137
736.578	0.0137824
736.656	0.0135696
736.734	0.0136633
736.812	0.0135776
736.890	0.0136172
736.968	0.0135004
737.046	0.0133876
737.124	0.0134692
737.203	0.0135406
737.281	0.0135074
737.359	0.0134109
737.437	0.0134645
737.515	0.0134067
737.593	0.0134132
737.671	0.0134643
737.749	0.0133683
737.828	0.0135767
737.906	0.0135490
737.984	0.0136053
738.062	0.0136111
738.140	0.0135114
738.218	0.0135500
738.296	0.0136802
738.374	0.0137801
738.453	0.0135674
738.531	0.0135555
738.609	0.0136154
738.687	0.0136953
738.765	0.0136333
738.843	0.0137137
738.921	0.0136462
738.999	0.0136597
739.078	0.0137793
739.156	0.0138486
739.234	0.0138129
739.312	0.0139153
739.390	0.0139485
739.468	0.0139276
739.546	0.0139728
739.624	0.0139326
739.703	0.0139945
739.781	0.0140691
739.859	0.0142164
739.937	0.0141399
740.015	0.0141812
740.093	0.0141727
740.171	0.0141267
740.249	0.0142984
740.328	0.0142111
740.406	0.0141982
740.484	0.0142021
740.562	0.0141379
740.640	0.0141111
740.718	0.0141158
740.796	0.0142263
740.874	0.0140450
740.953	0.0140675
741.031	0.0139644
741.109	0.0140991
741.187	0.0141319
741.265	0.0139706
741.343	0.0139423
741.421	0.0141200
741.499	0.0139277
741.578	0.0138993
741.656	0.0139672
741.734	0.0138817
741.812	0.0139722
741.890	0.0139414
741.968	0.0139359
742.046	0.0138435
742.124	0.0140045
742.203	0.0139360
742.281	0.0139169
742.359	0.0138129
742.437	0.0138758
742.515	0.0139305
742.593	0.0138586
742.671	0.0138542
742.749	0.0138689
742.828	0.0138304
742.906	0.0136062
742.984	0.0135564
743.062	0.0137265
743.140	0.0136382
743.218	0.0137015
743.296	0.0136316
743.374	0.0137514
743.453	0.0136233
743.531	0.0136308
743.609	0.0135419
743.687	0.0135620
743.765	0.0135073
743.843	0.0135557
743.921	0.0136395
743.999	0.0134814
744.078	0.0133868
744.156	0.0133510
744.234	0.0134242
744.312	0.0134517
744.390	0.0133471
744.468	0.0133797
744.546	0.0134866
744.624	0.0135055
744.703	0.0134911
744.781	0.0134932
744.859	0.0133354
744.937	0.0134709
745.015	0.0133710
745.093	0.0133193
745.171	0.0133592
745.249	0.0135558
745.328	0.0135532
745.406	0.0134943
745.484	0.0135605
745.562	0.0135497
745.640	0.0136514
745.718	0.0137723
745.796	0.0136845
745.874	0.0138922
745.953	0.0138625
746.031	0.0139288
746.109	0.0138802
746.187	0.0138933
746.265	0.0140183
746.343	0.0139309
746.421	0.0138715
746.499	0.0138644
746.578	0.0138783
746.656	0.0138065
746.734	0.0139160
746.812	0.0138667
746.890	0.0137130
746.968	0.0137538
747.046	0.0137262
747.124	0.0137849
747.203	0.0138413
747.281	0.0138117
747.359	0.0137758
747.437	0.0138028
747.515	0.0137849
747.593	0.0136784
747.671	0.0136564
747.749	0.0136652
747.828	0.0138075
747.906	0.0135955
747.984	0.0135987
748.062	0.0136694
748.140	0.0136039
748.218	0.0136066
748.296	0.0135212
748.374	0.0135320
748.453	0.0134406
748.531	0.0133562
748.609	0.0133614
748.687	0.0133367
748.765	0.0133913
748.843	0.0133724
748.921	0.0133411
748.999	0.0133862
749.078	0.0134908
749.156	0.0133052
749.234	0.0134832
749.312	0.0136436
749.390	0.0135381
749.468	0.0135775
749.546	0.0137253
749.624	0.0138731
749.703	0.0137857
749.781	0.0138712
749.859	0.0139293
749.937	0.0140648
750.015	0.0140393
750.093	0.0139639
750.171	0.0141518
750.249	0.0142197
750.328	0.0142010
750.406	0.0141736
750.484	0.0140634
750.562	0.0141413
750.640	0.0140961
750.718	0.0140299
750.796	0.0141418
750.874	0.0140177
750.953	0.0139355
751.031	0.0139173
751.109	0.0138975
751.187	0.0138985
751.265	0.0138416
751.343	0.0138271
751.421	0.0137219
751.499	0.0135565
751.578	0.0136329
751.656	0.0136139
751.734	0.0135218
751.812	0.0134750
751.890	0.0133611
751.968	0.0134659
752.046	0.0133269
752.124	0.0135514
752.203	0.0133778
752.281	0.0134521
752.359	0.0134968
752.437	0.0134676
752.515	0.0136513
752.593	0.0136842
752.671	0.0137460
752.749	0.0136900
752.828	0.0137930
752.906	0.0138830
752.984	0.0139185
753.062	0.0139545
753.140	0.0139611
753.218	0.0138342
753.296	0.0139336
753.374	0.0140122
753.453	0.0138546
753.531	0.0139223
753.609	0.0140136
753.687	0.0138674
753.765	0.0138157
753.843	0.0138902
753.921	0.0137753
753.999	0.0138073
754.078	0.0138351
754.156	0.0137429
754.234	0.0138291
754.312	0.0138284
754.390	0.0136832
754.468	0.0137106
754.546	0.0137560
754.624	0.0136488
754.703	0.0135786
754.781	0.0136602
754.859	0.0135855
754.937	0.0137446
755.015	0.0137518
755.093	0.0135554
755.171	0.0136216
755.249	0.0135403
755.328	0.0136832
755.406	0.0137060
755.484	0.0137651
755.562	0.0137043
755.640	0.0137837
755.718	0.0137123
755.796	0.0138799
755.874	0.0137193
755.953	0.0135888
756.031	0.0137259
756.109	0.0135450
756.187	0.0136972
756.265	0.0138980
756.343	0.0138746
756.421	0.0136883
756.499	0.0136069
756.578	0.0136426
756.656	0.0136774
756.734	0.0136047
756.812	0.0136266
756.890	0.0136637
756.968	0.0135976
757.046	0.0134265
757.124	0.0135070
757.203	0.0134270
757.281	0.0133940
757.359	0.0133913
757.437	0.0133428
757.515	0.0134030
757.593	0.0133966
757.671	0.0132576
757.749	0.0133838
757.828	0.0135215
757.906	0.0134004
757.984	0.0132421
758.062	0.0133517
758.140	0.0133289
758.218	0.0134461
758.296	0.0135428
758.374	0.0135174
758.453	0.0137405
758.531	0.0136147
758.609	0.0136684
758.687	0.0136477
758.765	0.0137215
758.843	0.0138323
758.921	0.0138477
758.999	0.0138914
759.078	0.0138736
759.156	0.0139339
759.234	0.0140807
759.312	0.0140768
759.390	0.0140054
759.468	0.0140136
759.546	0.0139792
759.624	0.0139660
759.703	0.0139028
759.781	0.0140616
759.859	0.0138886
759.937	0.0138731
760.015	0.0139535
760.093	0.0137762
760.171	0.0136779
760.249	0.0139925
760.328	0.0137177
760.406	0.0137436
760.484	0.0138432
760.562	0.0137750
760.640	0.0138937
760.718	0.0138692
760.796	0.0138899
760.874	0.0138650
760.953	0.0137833
761.031	0.0137555
761.109	0.0136590
761.187	0.0135681
761.265	0.0136497
761.343	0.0138018
761.421	0.0135565
761.499	0.0136768
761.578	0.0135796
761.656	0.0136652
761.734	0.0138001
761.812	0.0138032
761.890	0.0137725
761.968	0.0138308
762.046	0.0138984
762.124	0.0138275
762.203	0.0137834
762.281	0.0138664
762.359	0.0137576
762.437	0.0138540
762.515	0.0139635
762.593	0.0138172
762.671	0.0139773
762.749	0.0138409
762.828	0.0137708
762.906	0.0138588
762.984	0.0138601
763.062	0.0138723
763.140	0.0137746
763.218	0.0138158
763.296	0.0137016
763.374	0.0136930
763.453	0.0138441
763.531	0.0135952
763.609	0.0136489
763.687	0.0137140
763.765	0.0137736
763.843	0.0137685
763.921	0.0137867
763.999	0.0138295
764.078	0.0138795
764.156	0.0139221
764.234	0.0138126
764.312	0.0139634
764.390	0.0141084
764.468	0.0140315
764.546	0.0139047
764.624	0.0137982
764.703	0.0138541
764.781	0.0137576
764.859	0.0137249
764.937	0.0136336
765.015	0.0138390
765.093	0.0137183
765.171	0.0137373
765.249	0.0138628
765.328	0.0136251
765.406	0.0135017
765.484	0.0134718
765.562	0.0136407
765.640	0.0135793
765.718	0.0135927
765.796	0.0135300
765.874	0.0134086
765.953	0.0134959
766.031	0.0135374
766.109	0.0135786
766.187	0.0134670
766.265	0.0135119
766.343	0.0135944
766.421	0.0135206
766.499	0.0135499
766.578	0.0136153
766.656	0.0135681
766.734	0.0136637
766.812	0.0136512
766.890	0.0134271
766.968	0.0136819
767.046	0.0135783
767.124	0.0135847
767.203	0.0136732
767.281	0.0135799
767.359	0.0135668
767.437	0.0137075
767.515	0.0136334
767.593	0.0136347
767.671	0.0135136
767.749	0.0136427
767.828	0.0136169
767.906	0.0137649
767.984	0.0136958
768.062	0.0137617
768.140	0.0138108
768.218	0.0139591
768.296	0.0138560
768.374	0.0139104
768.453	0.0139954
768.531	0.0139084
768.609	0.0139053
768.687	0.0139413
768.765	0.0138910
768.843	0.0140160
768.921	0.0137554
768.999	0.0138367
769.078	0.0138161
769.156	0.0138229
769.234	0.0138461
769.312	0.0138844
769.390	0.0138484
769.468	0.0139130
769.546	0.0138486
769.624	0.0138356
769.703	0.0139163
769.781	0.0137720
769.859	0.0138454
769.937	0.0137475
770.015	0.0137410
770.093	0.0137570
770.171	0.0136803
770.249	0.0136665
770.328	0.0134528
770.406	0.0135268
770.484	0.0134004
770.562	0.0134436
770.640	0.0132813
770.718	0.0131751
770.796	0.0132012
770.874	0.0131303
770.953	0.0133823
771.031	0.0132752
771.109	0.0133032
771.187	0.0133754
771.265	0.0133553
771.343	0.0134608
771.421	0.0133860
771.499	0.0135562
771.578	0.0134586
771.656	0.0135146
771.734	0.0136134
771.812	0.0135876
771.890	0.0136488
771.968	0.0135503
772.046	0.0135843
772.124	0.0137022
772.203	0.0138023
772.281	0.0137020
772.359	0.0137433
772.437	0.0137094
772.515	0.0138465
772.593	0.0138387
772.671	0.0136845
772.749	0.0137486
772.828	0.0137881
772.906	0.0138200
772.984	0.0135439
773.062	0.0139516
773.140	0.0138907
773.218	0.0138170
773.296	0.0139431
773.374	0.0138521
773.453	0.0139340
773.531	0.0140009
773.609	0.0141225
773.687	0.0140463
773.765	0.0140556
773.843	0.0140148
773.921	0.0140433
773.999	0.0140265
774.078	0.0139410
774.156	0.0139815
774.234	0.0141592
774.312	0.0140008
774.390	0.0138403
774.468	0.0138783
774.546	0.0138711
774.624	0.0138002
774.703	0.0137374
774.781	0.0136062
774.859	0.0136140
774.937	0.0136431
775.015	0.0135371
775.093	0.0135491
775.171	0.0134861
775.249	0.0134891
775.328	0.0134332
775.406	0.0135175
775.484	0.0135168
775.562	0.0135981
775.640	0.0136198
775.718	0.0134972
775.796	0.0135877
775.874	0.0137029
775.953	0.0136094
776.031	0.0134946
776.109	0.0136547
776.187	0.0135998
776.265	0.0135548
776.343	0.0137423
776.421	0.0136572
776.499	0.0134515
776.578	0.0135355
776.656	0.0135534
776.734	0.0134377
776.812	0.0134695
776.890	0.0136697
776.968	0.0136137
777.046	0.0137132
777.124	0.0138002
777.203	0.0136234
777.281	0.0136433
777.359	0.0137899
777.437	0.0137186
777.515	0.0136516
777.593	0.0136824
777.671	0.0138898
777.749	0.0137938
777.828	0.0138462
777.906	0.0137637
777.984	0.0136485
778.062	0.0136711
778.140	0.0137394
778.218	0.0138157
778.296	0.0138311
778.374	0.0137436
778.453	0.0137429
778.531	0.0136856
778.609	0.0137962
778.687	0.0138492
778.765	0.0138617
778.843	0.0138208
778.921	0.0137669
778.999	0.0140154
779.078	0.0139561
779.156	0.0137609
779.234	0.0138940
779.312	0.0138382
779.390	0.0137975
779.468	0.0139669
779.546	0.0138982
779.624	0.0139560
779.703	0.0138700
779.781	0.0139854
779.859	0.0139606
779.937	0.0139204
780.015	0.0137706
780.093	0.0139584
780.171	0.0139775
780.249	0.0140685
780.328	0.0138248
780.406	0.0137865
780.484	0.0139263
780.562	0.0137906
780.640	0.0138449
780.718	0.0138516
780.796	0.0138266
780.874	0.0138255
780.953	0.0137460
781.031	0.0136370
781.109	0.0137476
781.187	0.0137260
781.265	0.0136944
781.343	0.0135474
781.421	0.0135934
781.499	0.0136941
781.578	0.0135641
781.656	0.0133978
781.734	0.0134247
781.812	0.0134973
781.890	0.0134209
781.968	0.0134144
782.046	0.0135133
782.124	0.0132974
782.203	0.0133735
782.281	0.0134117
782.359	0.0135057
782.437	0.0134729
782.515	0.0135997
782.593	0.0136333
782.671	0.0134669
782.749	0.0134735
782.828	0.0136395
782.906	0.0136718
782.984	0.0135517
783.062	0.0137642
783.140	0.0136910
783.218	0.0137113
783.296	0.0138300
783.374	0.0138480
783.453	0.0138976
783.531	0.0138396
783.609	0.0137185
783.687	0.0138395
783.765	0.0138779
783.843	0.0138345
783.921	0.0141370
783.999	0.0139774
784.078	0.0139307
784.156	0.0140611
784.234	0.0140117
784.312	0.0140481
784.390	0.0140737
784.468	0.0140694
784.546	0.0140475
784.624	0.0139022
784.703	0.0141159
784.781	0.0140090
784.859	0.0140679
784.937	0.0140380
785.015	0.0140491
785.093	0.0140733
785.171	0.0139750
785.249	0.0140237
785.328	0.0140723
785.406	0.0139067
785.484	0.0137786
785.562	0.0138500
785.640	0.0138236
785.718	0.0137149
785.796	0.0137035
785.874	0.0135930
785.953	0.0136517
786.031	0.0134819
786.109	0.0134606
786.187	0.0135168
786.265	0.0135270
786.343	0.0132600
786.421	0.0132862
786.499	0.0133485
786.578	0.0134184
786.656	0.0133527
786.734	0.0133273
786.812	0.0132903
786.890	0.0132549
786.968	0.0132632
787.046	0.0133700
787.124	0.0133979
787.203	0.0132712
787.281	0.0133610
787.359	0.0133671
787.437	0.0133930
787.515	0.0134417
787.593	0.0135242
787.671	0.0134238
787.749	0.0134975
787.828	0.0135529
787.906	0.0135244
787.984	0.0135504
788.062	0.0137317
788.140	0.0137910
788.218	0.0136711
788.296	0.0137511
788.374	0.0137315
788.453	0.0137756
788.531	0.0138286
788.609	0.0137909
788.687	0.0138708
788.765	0.0138842
788.843	0.0138245
788.921	0.0138617
788.999	0.0139092
789.078	0.0137168
789.156	0.0136861
789.234	0.0136676
789.312	0.0138556
789.390	0.0136819
789.468	0.0136883
789.546	0.0137106
789.624	0.0137076
789.703	0.0136868
789.781	0.0137206
789.859	0.0138237
789.937	0.0136321
790.015	0.0137852
790.093	0.0138281
790.171	0.0136726
790.249	0.0136882
790.328	0.0136306
790.406	0.0137489
790.484	0.0137112
790.562	0.0136189
790.640	0.0136814
790.718	0.0135889
790.796	0.0136766
790.874	0.0137963
790.953	0.0137765
791.031	0.0137775
791.109	0.0137458
791.187	0.0136810
791.265	0.0137836
791.343	0.0137679
791.421	0.0137798
791.499	0.0139017
791.578	0.0138215
791.656	0.0138152
791.734	0.0138890
791.812	0.0138774
791.890	0.0136566
791.968	0.0136692
792.046	0.0138624
792.124	0.0139301
792.203	0.0137045
792.281	0.0137038
792.359	0.0136143
792.437	0.0137148
792.515	0.0135622
792.593	0.0134850
792.671	0.0135168
792.749	0.0136178
792.828	0.0136671
792.906	0.0135466
792.984	0.0135342
793.062	0.0135793
793.140	0.0134818
793.218	0.0135497
793.296	0.0135720
793.374	0.0135129
793.453	0.0135662
793.531	0.0134933
793.609	0.0136015
793.687	0.0136071
793.765	0.0137924
793.843	0.0135691
793.921	0.0135993
793.999	0.0137141
794.078	0.0137385
794.156	0.0137254
794.234	0.0137134
794.312	0.0136443
794.390	0.0138204
794.468	0.0136243
794.546	0.0135995
794.624	0.0137156
794.703	0.0138007
794.781	0.0139461
794.859	0.0137391
794.937	0.0139040
795.015	0.0138229
795.093	0.0137370
795.171	0.0138288
795.249	0.0138270
795.328	0.0137130
795.406	0.0137036
795.484	0.0137882
795.562	0.0138377
795.640	0.0138103
795.718	0.0138052
795.796	0.0138449
795.874	0.0138873
795.953	0.0140226
796.031	0.0140025
796.109	0.0138733
796.187	0.0139292
796.265	0.0139829
796.343	0.0140129
796.421	0.0139376
796.499	0.0140546
796.578	0.0141777
796.656	0.0139756
796.734	0.0140253
796.812	0.0139899
796.890	0.0140516
796.968	0.0140824
797.046	0.0141299
797.124	0.0141933
797.203	0.0141553
797.281	0.0141962
797.359	0.0142888
797.437	0.0140611
797.515	0.0142805
797.593	0.0141096
797.671	0.0138860
797.749	0.0138880
797.828	0.0140559
797.906	0.0139661
797.984	0.0138654
798.062	0.0137094
798.140	0.0137482
798.218	0.0136387
798.296	0.0135927
798.374	0.0136847
798.453	0.0136752
798.531	0.0136804
798.609	0.0135555
798.687	0.0136543
798.765	0.0137766
798.843	0.0135664
798.921	0.0136623
798.999	0.0138325
799.078	0.0138229
799.156	0.0138277
799.234	0.0139283
799.312	0.0139063
799.390	0.0138454
799.468	0.0138913
799.546	0.0139114
799.624	0.0137053
799.703	0.0137508
799.781	0.0138541
799.859	0.0137553
799.937	0.0137875
800.015	0.0136475
800.093	0.0137128
800.171	0.0137379
800.249	0.0137237
800.328	0.0136948
800.406	0.0135972
800.484	0.0134626
800.562	0.0136422
800.640	0.0135252
800.718	0.0134871
800.796	0.0135310
800.874	0.0134766
800.953	0.0134192
801.031	0.0135217
801.109	0.0135218
801.187	0.0135350
801.265	0.0134806
801.343	0.0134534
801.421	0.0136003
801.499	0.0133967
801.578	0.0134444
801.656	0.0134467
801.734	0.0134189
801.812	0.0134282
801.890	0.0134740
801.968	0.0135036
802.046	0.0134341
802.124	0.0134942
802.203	0.0135751
802.281	0.0136671
802.359	0.0136961
802.437	0.0136957
802.515	0.0137489
802.593	0.0138585
802.671	0.0139397
802.749	0.0138663
802.828	0.0139419
802.906	0.0139513
802.984	0.0139343
803.062	0.0138485
803.140	0.0138564
803.218	0.0138650
803.296	0.0137901
803.374	0.0138171
803.453	0.0138653
803.531	0.0138050
803.609	0.0136708
803.687	0.0137540
803.765	0.0136675
803.843	0.0138399
803.921	0.0137601
803.999	0.0137426
804.078	0.0139075
804.156	0.0138888
804.234	0.0139500
804.312	0.0137930
804.390	0.0138803
804.468	0.0137558
804.546	0.0138248
804.624	0.0139539
804.703	0.0136408
804.781	0.0136820
804.859	0.0137846
804.937	0.0135763
805.015	0.0135146
805.093	0.0134050
805.171	0.0135432
805.249	0.0134494
805.328	0.0134701
805.406	0.0134812
805.484	0.0134289
805.562	0.0135666
805.640	0.0136092
805.718	0.0135327
805.796	0.0135992
805.874	0.0137875
805.953	0.0136835
806.031	0.0136309
806.109	0.0138063
806.187	0.0137913
806.265	0.0139760
806.343	0.0139629
806.421	0.0138943
806.499	0.0137203
806.578	0.0139703
806.656	0.0138979
806.734	0.0138704
806.812	0.0138819
806.890	0.0137822
806.968	0.0137102
807.046	0.0136949
807.124	0.0137305
807.203	0.0136030
807.281	0.0137859
807.359	0.0136874
807.437	0.0137854
807.515	0.0138631
807.593	0.0138269
807.671	0.0137183
807.749	0.0136483
807.828	0.0136519
807.906	0.0137007
807.984	0.0135721
808.062	0.0137300
808.140	0.0136578
808.218	0.0137358
808.296	0.0136121
808.374	0.0136846
808.453	0.0136877
808.531	0.0138062
808.609	0.0137657
808.687	0.0137005
808.765	0.0135954
808.843	0.0137683
808.921	0.0137819
808.999	0.0139120
809.078	0.0137569
809.156	0.0138112
809.234	0.0138440
809.312	0.0138795
809.390	0.0138008
809.468	0.0138374
809.546	0.0140569
809.624	0.0139322
809.703	0.0140199
809.781	0.0139606
809.859	0.0138261
809.937	0.0138634
810.015	0.0139373
810.093	0.0138317
810.171	0.0138380
810.249	0.0139337
810.328	0.0137886
810.406	0.0138044
810.484	0.0139114
810.562	0.0137003
810.640	0.0138491
810.718	0.0138203
810.796	0.0136681
810.874	0.0137480
810.953	0.0138003
811.031	0.0138389
811.109	0.0136119
811.187	0.0137674
811.265	0.0136652
811.343	0.0136919
811.421	0.0136439
811.499	0.0135511
811.578	0.0135006
811.656	0.0135350
811.734	0.0134792
811.812	0.0134508
811.890	0.0135815
811.968	0.0134524
812.046	0.0134449
812.124	0.0134079
812.203	0.0135062
812.281	0.0134359
812.359	0.0134294
812.437	0.0134894
812.515	0.0135432
812.593	0.0136053
812.671	0.0135415
812.749	0.0136624
812.828	0.0136377
812.906	0.0136378
812.984	0.0136856
813.062	0.0137299
813.140	0.0137114
813.218	0.0136023
813.296	0.0138477
813.374	0.0138216
813.453	0.0138033
813.531	0.0138990
813.609	0.0138474
813.687	0.0137744
813.765	0.0138919
813.843	0.0140707
813.921	0.0140121
813.999	0.0138232
814.078	0.0138870
814.156	0.0138161
814.234	0.0138811
814.312	0.0138290
814.390	0.0138535
814.468	0.0139254
814.546	0.0138908
814.624	0.0139413
814.703	0.0137022
814.781	0.0137991
814.859	0.0138741
814.937	0.0137010
815.015	0.0136663
815.093	0.0136783
815.171	0.0136179
815.249	0.0135111
815.328	0.0136755
815.406	0.0136936
815.484	0.0136276
815.562	0.0135305
815.640	0.0135835
815.718	0.0136966
815.796	0.0136916
815.874	0.0135752
815.953	0.0137599
816.031	0.0137100
816.109	0.0136997
816.187	0.0136634
816.265	0.0136251
816.343	0.0136745
816.421	0.0136131
816.499	0.0137376
816.578	0.0136729
816.656	0.0135406
816.734	0.0135842
816.812	0.0137265
816.890	0.0135335
816.968	0.0137099
817.046	0.0136256
817.124	0.0136443
817.203	0.0135299
817.281	0.0136364
817.359	0.0135995
817.437	0.0135265
817.515	0.0136149
817.593	0.0136280
817.671	0.0137027
817.749	0.0137249
817.828	0.0137957
817.906	0.0136304
817.984	0.0135087
818.062	0.0136434
818.140	0.0137202
818.218	0.0137135
818.296	0.0137563
818.374	0.0139402
818.453	0.0137956
818.531	0.0138201
818.609	0.0138592
818.687	0.0138092
818.765	0.0138203
818.843	0.0138400
818.921	0.0138383
818.999	0.0137708
819.078	0.0140060
819.156	0.0139334
819.234	0.0138808
819.312	0.0138988
819.390	0.0139781
819.468	0.0138598
819.546	0.0140090
819.624	0.0140501
819.703	0.0140125
819.781	0.0139352
819.859	0.0138834
819.937	0.0139486
820.015	0.0137645
820.093	0.0139216
820.171	0.0139302
820.249	0.0137834
820.328	0.0137185
820.406	0.0137481
820.484	0.0136074
820.562	0.0136940
820.640	0.0136823
820.718	0.0136685
820.796	0.0136660
820.874	0.0135810
820.953	0.0137374
821.031	0.0136647
821.109	0.0136382
821.187	0.0136190
821.265	0.0136578
821.343	0.0136668
821.421	0.0137186
821.499	0.0138520
821.578	0.0137682
821.656	0.0136777
821.734	0.0138029
821.812	0.0138398
821.890	0.0137670
821.968	0.0138644
822.046	0.0137332
822.124	0.0137743
822.203	0.0139030
822.281	0.0136897
822.359	0.0137686
822.437	0.0137524
822.515	0.0137217
822.593	0.0136533
822.671	0.0136944
822.749	0.0137567
822.828	0.0136900
822.906	0.0135979
822.984	0.0135861
823.062	0.0136723
823.140	0.0136273
823.218	0.0136495
823.296	0.0137936
823.374	0.0137994
823.453	0.0137025
823.531	0.0137487
823.609	0.0137156
823.687	0.0137526
823.765	0.0137424
823.843	0.0138010
823.921	0.0137347
823.999	0.0137211
824.078	0.0136632
824.156	0.0137531
824.234	0.0138049
824.312	0.0138779
824.390	0.0138542
824.468	0.0138792
824.546	0.0139809
824.624	0.0137980
824.703	0.0137598
824.781	0.0137229
824.859	0.0138490
824.937	0.0137814
825.015	0.0137332
825.093	0.0138445
825.171	0.0137300
825.249	0.0137432
825.328	0.0138705
825.406	0.0138443
825.484	0.0139369
825.562	0.0139977
825.640	0.0138717
825.718	0.0138554
825.796	0.0140083
825.874	0.0139851
825.953	0.0141058
826.031	0.0141166
826.109	0.0140257
826.187	0.0139034
826.265	0.0139872
826.343	0.0140639
826.421	0.0138895
826.499	0.0138105
826.578	0.0139552
826.656	0.0138213
826.734	0.0138453
826.812	0.0138966
826.890	0.0138573
826.968	0.0138944
827.046	0.0139447
827.124	0.0139306
827.203	0.0137938
827.281	0.0138979
827.359	0.0139056
827.437	0.0139165
827.515	0.0137877
827.593	0.0138850
827.671	0.0138868
827.749	0.0137036
827.828	0.0136411
827.906	0.0136179
827.984	0.0136488
828.062	0.0136115
828.140	0.0136689
828.218	0.0136116
828.296	0.0136932
828.374	0.0136725
828.453	0.0137641
828.531	0.0137820
828.609	0.0137942
828.687	0.0136919
828.765	0.0137193
828.843	0.0137421
828.921	0.0139554
828.999	0.0138435
829.078	0.0137643
829.156	0.0139087
829.234	0.0139322
829.312	0.0138119
829.390	0.0137070
829.468	0.0138219
829.546	0.0140086
829.624	0.0139909
829.703	0.0139508
829.781	0.0139819
829.859	0.0138724
829.937	0.0139022
830.015	0.0137784
830.093	0.0139113
830.171	0.0138335
830.249	0.0137367
830.328	0.0136233
830.406	0.0137439
830.484	0.0136525
830.562	0.0137286
830.640	0.0137001
830.718	0.0136530
830.796	0.0136597
830.874	0.0136990
830.953	0.0136989
831.031	0.0135435
831.109	0.0135775
831.187	0.0135706
831.265	0.0136146
831.343	0.0135953
831.421	0.0134203
831.499	0.0136500
831.578	0.0136710
831.656	0.0136443
831.734	0.0135236
831.812	0.0135489
831.890	0.0136053
831.968	0.0136022
832.046	0.0136266
832.124	0.0136371
832.203	0.0136169
832.281	0.0137276
832.359	0.0136799
832.437	0.0137392
832.515	0.0136197
832.593	0.0137682
832.671	0.0135648
832.749	0.0136893
832.828	0.0138134
832.906	0.0137106
832.984	0.0136546
833.062	0.0136417
833.140	0.0137598
833.218	0.0136276
833.296	0.0138318
833.374	0.0137937
833.453	0.0136808
833.531	0.0138766
833.609	0.0137234
833.687	0.0137014
833.765	0.0136387
833.843	0.0136627
833.921	0.0137659
833.999	0.0136365
834.078	0.0136093
834.156	0.0137762
834.234	0.0135656
834.312	0.0135580
834.390	0.0135889
834.468	0.0136392
834.546	0.0136864
834.624	0.0137122
834.703	0.0136133
834.781	0.0136395
834.859	0.0136498
834.937	0.0135805
835.015	0.0135767
835.093	0.0136895
835.171	0.0136460
835.249	0.0136520
835.328	0.0135480
835.406	0.0135206
835.484	0.0135975
835.562	0.0135831
835.640	0.0135536
835.718	0.0134896
835.796	0.0134364
835.874	0.0134267
835.953	0.0135746
836.031	0.0135972
836.109	0.0136267
836.187	0.0134722
836.265	0.0135547
836.343	0.0136079
836.421	0.0135583
836.499	0.0135946
836.578	0.0136057
836.656	0.0136737
836.734	0.0137112
836.812	0.0135640
836.890	0.0136673
836.968	0.0137530
837.046	0.0135048
837.124	0.0135451
837.203	0.0136075
837.281	0.0136449
837.359	0.0135606
837.437	0.0136984
837.515	0.0136496
837.593	0.0134293
837.671	0.0136235
837.749	0.0138296
837.828	0.0137608
837.906	0.0136531
837.984	0.0136911
838.062	0.0137679
838.140	0.0137120
838.218	0.0138423
838.296	0.0139175
838.374	0.0138692
838.453	0.0139829
838.531	0.0139052
838.609	0.0140109
838.687	0.0139861
838.765	0.0139206
838.843	0.0140185
838.921	0.0140028
838.999	0.0139938
839.078	0.0140338
839.156	0.0139188
839.234	0.0138899
839.312	0.0137156
839.390	0.0138519
839.468	0.0139273
839.546	0.0139028
839.624	0.0138540
839.703	0.0138436
839.781	0.0137979
839.859	0.0137714
839.937	0.0137956
840.015	0.0137933
840.093	0.0138132
840.171	0.0137965
840.249	0.0137904
840.328	0.0136940
840.406	0.0139004
840.484	0.0139072
840.562	0.0137812
840.640	0.0138631
840.718	0.0137357
840.796	0.0137225
840.874	0.0137086
840.953	0.0138120
841.031	0.0138248
841.109	0.0137292
841.187	0.0137919
841.265	0.0137689
841.343	0.0137310
841.421	0.0137270
841.499	0.0137475
841.578	0.0137172
841.656	0.0137642
841.734	0.0138104
841.812	0.0136880
841.890	0.0136723
841.968	0.0137444
842.046	0.0136736
842.124	0.0136211
842.203	0.0137351
842.281	0.0137681
842.359	0.0137590
842.437	0.0139480
842.515	0.0138511
842.593	0.0138905
842.671	0.0138546
842.749	0.0138748
842.828	0.0139582
842.906	0.0140108
842.984	0.0139799
843.062	0.0137885
843.140	0.0139240
843.218	0.0138219
843.296	0.0138840
843.374	0.0138400
843.453	0.0137694
843.531	0.0137284
843.609	0.0138597
843.687	0.0137195
843.765	0.0136737
843.843	0.0136823
843.921	0.0137109
843.999	0.0137940
844.078	0.0137083
844.156	0.0136729
844.234	0.0137469
844.312	0.0137247
844.390	0.0138010
844.468	0.0137796
844.546	0.0137372
844.624	0.0138291
844.703	0.0136040
844.781	0.0137584
844.859	0.0138549
844.937	0.0137005
845.015	0.0137663
845.093	0.0138510
845.171	0.0138001
845.249	0.0138339
845.328	0.0137768
845.406	0.0135874
845.484	0.0135805
845.562	0.0135971
845.640	0.0136091
845.718	0.0135162
845.796	0.0133908
845.874	0.0135326
845.953	0.0134280
846.031	0.0135793
846.109	0.0134689
846.187	0.0133981
846.265	0.0135825
846.343	0.0134295
846.421	0.0132117
846.499	0.0135065
846.578	0.0136448
846.656	0.0134311
846.734	0.0134514
846.812	0.0135223
846.890	0.0136097
846.968	0.0136037
847.046	0.0135746
847.124	0.0136207
847.203	0.0136086
847.281	0.0137465
847.359	0.0138186
847.437	0.0137395
847.515	0.0137944
847.593	0.0137764
847.671	0.0137215
847.749	0.0139007
847.828	0.0138869
847.906	0.0137614
847.984	0.0135168
848.062	0.0137759
848.140	0.0137988
848.218	0.0137379
848.296	0.0135976
848.374	0.0137166
848.453	0.0136299
848.531	0.0136967
848.609	0.0137822
848.687	0.0137250
848.765	0.0137762
848.843	0.0137642
848.921	0.0137874
848.999	0.0136306
849.078	0.0138122
849.156	0.0136417
849.234	0.0136621
849.312	0.0137431
849.390	0.0138037
849.468	0.0137690
849.546	0.0137192
849.624	0.0137721
849.703	0.0137347
849.781	0.0139407
849.859	0.0137582
849.937	0.0137283
850.015	0.0139249
850.093	0.0138592
850.171	0.0136547
850.249	0.0137936
850.328	0.0138622
850.406	0.0137271
850.484	0.0138240
850.562	0.0138217
850.640	0.0137305
850.718	0.0138419
850.796	0.0137575
850.874	0.0137296
850.953	0.0138235
851.031	0.0137976
851.109	0.0138801
851.187	0.0138694
851.265	0.0137413
851.343	0.0138297
851.421	0.0138872
851.499	0.0138480
851.578	0.0136497
851.656	0.0137626
851.734	0.0136707
851.812	0.0136539
851.890	0.0135686
851.968	0.0137427
852.046	0.0135698
852.124	0.0134763
852.203	0.0136056
852.281	0.0134741
852.359	0.0137250
852.437	0.0136452
852.515	0.0135417
852.593	0.0135406
852.671	0.0136499
852.749	0.0136651
852.828	0.0136764
852.906	0.0137265
852.984	0.0137179
853.062	0.0137534
853.140	0.0138792
853.218	0.0139594
853.296	0.0139690
853.374	0.0139469
853.453	0.0139932
853.531	0.0140168
853.609	0.0140747
853.687	0.0139973
853.765	0.0141296
853.843	0.0141624
853.921	0.0141228
853.999	0.0138580
854.078	0.0140678
854.156	0.0140032
854.234	0.0140100
854.312	0.0139552
854.390	0.0139015
854.468	0.0139108
854.546	0.0138600
854.624	0.0138010
854.703	0.0138136
854.781	0.0137887
854.859	0.0137547
854.937	0.0138430
855.015	0.0137145
855.093	0.0135719
855.171	0.0134457
855.249	0.0134772
855.328	0.0134709
855.406	0.0136026
855.484	0.0135017
855.562	0.0132704
855.640	0.0134900
855.718	0.0135032
855.796	0.0134850
855.874	0.0133468
855.953	0.0132796
856.031	0.0133447
856.109	0.0134702
856.187	0.0134304
856.265	0.0133837
856.343	0.0135838
856.421	0.0135697
856.499	0.0135990
856.578	0.0135616
856.656	0.0134533
856.734	0.0135915
856.812	0.0135407
856.890	0.0137803
856.968	0.0136707
857.046	0.0136786
857.124	0.0137106
857.203	0.0137700
857.281	0.0136897
857.359	0.0138038
857.437	0.0138360
857.515	0.0137361
857.593	0.0139274
857.671	0.0139775
857.749	0.0140093
857.828	0.0139783
857.906	0.0139857
857.984	0.0138715
858.062	0.0140388
858.140	0.0140411
858.218	0.0141317
858.296	0.0140942
858.374	0.0140904
858.453	0.0141162
858.531	0.0142949
858.609	0.0140990
858.687	0.0140734
858.765	0.0139651
858.843	0.0139391
858.921	0.0139171
858.999	0.0139329
859.078	0.0139613
859.156	0.0136629
859.234	0.0137082
859.312	0.0136317
859.390	0.0137273
859.468	0.0135797
859.546	0.0137132
859.624	0.0134736
859.703	0.0135838
859.781	0.0134428
859.859	0.0135588
859.937	0.0136004
860.015	0.0135352
860.093	0.0135953
860.171	0.0135007
860.249	0.0136958
860.328	0.0136176
860.406	0.0136670
860.484	0.0137029
860.562	0.0137160
860.640	0.0136856
860.718	0.0137878
860.796	0.0137157
860.874	0.0137470
860.953	0.0137532
861.031	0.0136400
861.109	0.0136581
861.187	0.0136269
861.265	0.0136021
861.343	0.0135255
861.421	0.0135624
861.499	0.0136034
861.578	0.0135677
861.656	0.0135671
861.734	0.0136174
861.812	0.0136327
861.890	0.0135458
861.968	0.0136265
862.046	0.0135940
862.124	0.0135423
862.203	0.0135632
862.281	0.0137631
862.359	0.0137799
862.437	0.0135574
862.515	0.0136806
862.593	0.0137112
862.671	0.0137128
862.749	0.0138129
862.828	0.0137955
862.906	0.0137008
862.984	0.0138691
863.062	0.0138465
863.140	0.0138166
863.218	0.0139031
863.296	0.0137659
863.374	0.0139280
863.453	0.0138586
863.531	0.0138913
863.609	0.0138503
863.687	0.0137895
863.765	0.0140203
863.843	0.0138939
863.921	0.0138631
863.999	0.0138126
864.078	0.0138689
864.156	0.0137929
864.234	0.0138000
864.312	0.0137263
864.390	0.0138058
864.468	0.0137358
864.546	0.0137123
864.624	0.0137054
864.703	0.0135963
864.781	0.0137146
864.859	0.0137051
864.937	0.0136865
865.015	0.0135898
865.093	0.0137524
865.171	0.0136774
865.249	0.0135667
865.328	0.0136562
865.406	0.0136327
865.484	0.0134895
865.562	0.0134943
865.640	0.0136674
865.718	0.0135542
865.796	0.0134888
865.874	0.0135781
865.953	0.0134462
866.031	0.0133406
866.109	0.0133770
866.187	0.0136073
866.265	0.0134899
866.343	0.0135677
866.421	0.0136472
866.499	0.0135262
866.578	0.0135735
866.656	0.0136873
866.734	0.0136185
866.812	0.0136370
866.890	0.0136585
866.968	0.0136446
867.046	0.0135583
867.124	0.0136576
867.203	0.0136459
867.281	0.0137115
867.359	0.0137481
867.437	0.0136462
867.515	0.0139012
867.593	0.0138876
867.671	0.0137518
867.749	0.0136883
867.828	0.0137723
867.906	0.0137939
867.984	0.0137795
868.062	0.0137384
868.140	0.0137007
868.218	0.0137769
868.296	0.0137233
868.374	0.0138174
868.453	0.0136913
868.531	0.0136232
868.609	0.0136111
868.687	0.0135674
868.765	0.0137133
868.843	0.0136658
868.921	0.0136650
868.999	0.0136424
869.078	0.0136481
869.156	0.0137583
869.234	0.0135384
869.312	0.0136525
869.390	0.0136881
869.468	0.0135648
869.546	0.0134555
869.624	0.0136132
869.703	0.0135861
869.781	0.0134849
869.859	0.0135455
869.937	0.0135336
870.015	0.0134824
870.093	0.0134950
870.171	0.0134735
870.249	0.0134625
870.328	0.0136483
870.406	0.0134338
870.484	0.0137088
870.562	0.0136650
870.640	0.0135555
870.718	0.0134650
870.796	0.0137061
870.874	0.0135989
870.953	0.0137233
871.031	0.0136973
871.109	0.0135948
871.187	0.0136803
871.265	0.0135511
871.343	0.0135564
871.421	0.0137627
871.499	0.0138730
871.578	0.0136505
871.656	0.0138307
871.734	0.0137026
871.812	0.0136371
871.890	0.0138028
871.968	0.0136708
872.046	0.0135496
872.124	0.0136234
872.203	0.0135629
872.281	0.0136066
872.359	0.0135351
872.437	0.0134947
872.515	0.0135227
872.593	0.0135350
872.671	0.0135542
872.749	0.0135753
872.828	0.0135036
872.906	0.0134324
872.984	0.0135979
873.062	0.0135497
873.140	0.0136287
873.218	0.0135739
873.296	0.0135767
873.374	0.0135428
873.453	0.0135277
873.531	0.0135464
873.609	0.0135786
873.687	0.0134951
873.765	0.0136279
873.843	0.0136614
873.921	0.0133820
873.999	0.0134309
874.078	0.0135629
874.156	0.0135207
874.234	0.0135194
874.312	0.0134640
874.390	0.0135412
874.468	0.0135376
874.546	0.0134872
874.624	0.0135608
874.703	0.0136787
874.781	0.0135873
874.859	0.0135409
874.937	0.0137769
875.015	0.0137257
875.093	0.0136569
875.171	0.0136983
875.249	0.0136999
875.328	0.0137720
875.406	0.0137613
875.484	0.0137749
875.562	0.0137758
875.640	0.0137190
875.718	0.0136207
875.796	0.0137933
875.874	0.0137033
875.953	0.0138515
876.031	0.0136792
876.109	0.0135995
876.187	0.0136909
876.265	0.0137810
876.343	0.0137778
876.421	0.0137346
876.499	0.0138280
876.578	0.0137829
876.656	0.0139515
876.734	0.0138004
876.812	0.0136070
876.890	0.0136337
876.968	0.0136640
877.046	0.0136863
877.124	0.0136594
877.203	0.0136117
877.281	0.0135830
877.359	0.0135148
877.437	0.0135320
877.515	0.0134229
877.593	0.0134820
877.671	0.0134234
877.749	0.0134676
877.828	0.0134873
877.906	0.0136234
877.984	0.0135856
878.062	0.0134872
878.140	0.0136929
878.218	0.0135915
878.296	0.0137191
878.374	0.0137172
878.453	0.0139635
878.531	0.0138849
878.609	0.0137440
878.687	0.0137285
878.765	0.0137794
878.843	0.0137859
878.921	0.0138847
878.999	0.0137290
879.078	0.0136495
879.156	0.0137875
879.234	0.0137902
879.312	0.0136413
879.390	0.0136434
879.468	0.0137358
879.546	0.0137524
879.624	0.0134889
879.703	0.0135680
879.781	0.0136420
879.859	0.0134839
879.937	0.0133508
880.015	0.0135403
880.093	0.0136073
880.171	0.0135965
880.249	0.0134896
880.328	0.0134619
880.406	0.0134704
880.484	0.0134557
880.562	0.0134254
880.640	0.0134007
880.718	0.0134460
880.796	0.0134803
880.874	0.0135809
880.953	0.0134193
881.031	0.0135638
881.109	0.0136717
881.187	0.0135241
881.265	0.0135946
881.343	0.0135942
881.421	0.0135899
881.499	0.0137115
881.578	0.0136827
881.656	0.0136839
881.734	0.0137167
881.812	0.0136941
881.890	0.0136810
881.968	0.0136971
882.046	0.0137226
882.124	0.0137107
882.203	0.0137309
882.281	0.0136840
882.359	0.0139088
882.437	0.0140155
882.515	0.0137302
882.593	0.0139519
882.671	0.0140308
882.749	0.0139460
882.828	0.0139236
882.906	0.0138200
882.984	0.0139590
883.062	0.0139857
883.140	0.0138466
883.218	0.0139187
883.296	0.0138731
883.374	0.0136752
883.453	0.0138914
883.531	0.0137577
883.609	0.0137732
883.687	0.0137188
883.765	0.0137808
883.843	0.0136150
883.921	0.0136310
883.999	0.0137492
884.078	0.0136872
884.156	0.0137393
884.234	0.0136552
884.312	0.0135543
884.390	0.0136040
884.468	0.0134428
884.546	0.0135155
884.624	0.0136192
884.703	0.0133907
884.781	0.0135091
884.859	0.0136372
884.937	0.0135774
885.015	0.0135974
885.093	0.0136343
885.171	0.0136148
885.249	0.0135452
885.328	0.0135803
885.406	0.0136441
885.484	0.0136971
885.562	0.0136643
885.640	0.0135914
885.718	0.0136222
885.796	0.0136133
885.874	0.0136699
885.953	0.0138071
886.031	0.0137735
886.109	0.0136448
886.187	0.0138802
886.265	0.0138069
886.343	0.0137736
886.421	0.0136956
886.499	0.0138749
886.578	0.0138135
886.656	0.0138245
886.734	0.0137325
886.812	0.0137808
886.890	0.0137340
886.968	0.0138183
887.046	0.0137888
887.124	0.0138209
887.203	0.0137423
887.281	0.0137973
887.359	0.0139422
887.437	0.0137312
887.515	0.0138762
887.593	0.0137637
887.671	0.0137603
887.749	0.0136954
887.828	0.0139034
887.906	0.0137547
887.984	0.0137694
888.062	0.0138984
888.140	0.0138400
888.218	0.0137711
888.296	0.0138943
888.374	0.0139548
888.453	0.0140352
888.531	0.0138535
888.609	0.0138551
888.687	0.0138347
888.765	0.0139745
888.843	0.0138009
888.921	0.0138027
888.999	0.0137560
889.078	0.0137119
889.156	0.0136995
889.234	0.0138136
889.312	0.0137846
889.390	0.0137878
889.468	0.0136192
889.546	0.0135690
889.624	0.0136459
889.703	0.0135040
889.781	0.0136034
889.859	0.0136689
889.937	0.0135464
890.015	0.0134755
890.093	0.0135220
890.171	0.0135288
890.249	0.0134427
890.328	0.0136880
890.406	0.0135205
890.484	0.0136126
890.562	0.0138149
890.640	0.0136621
890.718	0.0137107
890.796	0.0137106
890.874	0.0139008
890.953	0.0137225
891.031	0.0136912
891.109	0.0137366
891.187	0.0137500
891.265	0.0136086
891.343	0.0136951
891.421	0.0136217
891.499	0.0136934
891.578	0.0135820
891.656	0.0137114
891.734	0.0136413
891.812	0.0134579
891.890	0.0135435
891.968	0.0133469
892.046	0.0134027
892.124	0.0134814
892.203	0.0134033
892.281	0.0132366
892.359	0.0132725
892.437	0.0132150
892.515	0.0132881
892.593	0.0133949
892.671	0.0133247
892.749	0.0133425
892.828	0.0133987
892.906	0.0134391
892.984	0.0133579
893.062	0.0134531
893.140	0.0135279
893.218	0.0134745
893.296	0.0136546
893.374	0.0136989
893.453	0.0134635
893.531	0.0136921
893.609	0.0135829
893.687	0.0134937
893.765	0.0136762
893.843	0.0136932
893.921	0.0137345
893.999	0.0137371
894.078	0.0137681
894.156	0.0137371
894.234	0.0137796
894.312	0.0137282
894.390	0.0137308
894.468	0.0135789
894.546	0.0136314
894.624	0.0136831
894.703	0.0134760
894.781	0.0135357
894.859	0.0135730
894.937	0.0135258
895.015	0.0135912
895.093	0.0134460
895.171	0.0134143
895.249	0.0134196
895.328	0.0134763
895.406	0.0134525
895.484	0.0133566
895.562	0.0134546
895.640	0.0133846
895.718	0.0133209
895.796	0.0133930
895.874	0.0133075
895.953	0.0132800
896.031	0.0134702
896.109	0.0135776
896.187	0.0134871
896.265	0.0135505
896.343	0.0134399
896.421	0.0135284
896.499	0.0136816
896.578	0.0136820
896.656	0.0136401
896.734	0.0136995
896.812	0.0136642
896.890	0.0136609
896.968	0.0137572
897.046	0.0138454
897.124	0.0136883
897.203	0.0137130
897.281	0.0138537
897.359	0.0137746
897.437	0.0136404
897.515	0.0136127
897.593	0.0137981
897.671	0.0138391
897.749	0.0138747
897.828	0.0137720
897.906	0.0138303
897.984	0.0139015
898.062	0.0138129
898.140	0.0137958
898.218	0.0137861
898.296	0.0137247
898.374	0.0137218
898.453	0.0136244
898.531	0.0136289
898.609	0.0137040
898.687	0.0136454
898.765	0.0136594
898.843	0.0136286
898.921	0.0134208
898.999	0.0134502
899.078	0.0134014
899.156	0.0132922
899.234	0.0134250
899.312	0.0134234
899.390	0.0135301
899.468	0.0135480
899.546	0.0135590
899.624	0.0135242
899.703	0.0134853
899.781	0.0134891
899.859	0.0134177
899.937	0.0134672
900.015	0.0135869
900.093	0.0136140
900.171	0.0135329
900.249	0.0135635
900.328	0.0134935
900.406	0.0136085
900.484	0.0138718
900.562	0.0137791
900.640	0.0137352
900.718	0.0137099
900.796	0.0137238
900.874	0.0137424
900.953	0.0138741
901.031	0.0139347
901.109	0.0138444
901.187	0.0136985
901.265	0.0139496
901.343	0.0140426
901.421	0.0138847
901.499	0.0139926
901.578	0.0140011
901.656	0.0138681
901.734	0.0140675
901.812	0.0138892
901.890	0.0139207
901.968	0.0139949
902.046	0.0140313
902.124	0.0140046
902.203	0.0138042
902.281	0.0137710
902.359	0.0137619
902.437	0.0138556
902.515	0.0138895
902.593	0.0139515
902.671	0.0138470
902.749	0.0138347
902.828	0.0138727
902.906	0.0137584
902.984	0.0137367
903.062	0.0136742
903.140	0.0136942
903.218	0.0136597
903.296	0.0136772
903.374	0.0138332
903.453	0.0136352
903.531	0.0135944
903.609	0.0136379
903.687	0.0137119
903.765	0.0135589
903.843	0.0136694
903.921	0.0136429
903.999	0.0135886
904.078	0.0136388
904.156	0.0136008
904.234	0.0135073
904.312	0.0135540
904.390	0.0135548
904.468	0.0135749
904.546	0.0134158
904.624	0.0135674
904.703	0.0135567
904.781	0.0136440
904.859	0.0135440
904.937	0.0136234
905.015	0.0135744
905.093	0.0136312
905.171	0.0136346
905.249	0.0135760
905.328	0.0135888
905.406	0.0136113
905.484	0.0136819
905.562	0.0136294
905.640	0.0138602
905.718	0.0137664
905.796	0.0138210
905.874	0.0136729
905.953	0.0138853
906.031	0.0137074
906.109	0.0139014
906.187	0.0139407
906.265	0.0138531
906.343	0.0139230
906.421	0.0139549
906.499	0.0138387
906.578	0.0137541
906.656	0.0137312
906.734	0.0137357
906.812	0.0139833
906.890	0.0139371
906.968	0.0138474
907.046	0.0138406
907.124	0.0138349
907.203	0.0138996
907.281	0.0137347
907.359	0.0138952
907.437	0.0139973
907.515	0.0138998
907.593	0.0138507
907.671	0.0139130
907.749	0.0137485
907.828	0.0137698
907.906	0.0137776
907.984	0.0137151
908.062	0.0135420
908.140	0.0137804
908.218	0.0136676
908.296	0.0136715
908.374	0.0136426
908.453	0.0136458
908.531	0.0136242
908.609	0.0137687
908.687	0.0137011
908.765	0.0137344
908.843	0.0136568
908.921	0.0137176
908.999	0.0135789
909.078	0.0137051
909.156	0.0138136
909.234	0.0137312
909.312	0.0138520
909.390	0.0138937
909.468	0.0137754
909.546	0.0137543
909.624	0.0139021
909.703	0.0138538
909.781	0.0136991
909.859	0.0137366
909.937	0.0139041
910.015	0.0138617
910.093	0.0138194
910.171	0.0139073
910.249	0.0138248
910.328	0.0137275
910.406	0.0137672
910.484	0.0138123
910.562	0.0137190
910.640	0.0139176
910.718	0.0136709
910.796	0.0136878
910.874	0.0138259
910.953	0.0138211
911.031	0.0137605
911.109	0.0137480
911.187	0.0137049
911.265	0.0136615
911.343	0.0138164
911.421	0.0137779
911.499	0.0137791
911.578	0.0136944
911.656	0.0136623
911.734	0.0137305
911.812	0.0136498
911.890	0.0136848
911.968	0.0137408
912.046	0.0137425
912.124	0.0137318
912.203	0.0137584
912.281	0.0137209
912.359	0.0137746
912.437	0.0137436
912.515	0.0136986
912.593	0.0135569
912.671	0.0136423
912.749	0.0135981
912.828	0.0135867
912.906	0.0136008
912.984	0.0136475
913.062	0.0136411
913.140	0.0136790
913.218	0.0135215
913.296	0.0135100
913.374	0.0136385
913.453	0.0137827
913.531	0.0136667
913.609	0.0137418
913.687	0.0137701
913.765	0.0136752
913.843	0.0138497
913.921	0.0137640
913.999	0.0137122
914.078	0.0137575
914.156	0.0138264
914.234	0.0138236
914.312	0.0137931
914.390	0.0137557
914.468	0.0139644
914.546	0.0138873
914.624	0.0138243
914.703	0.0139633
914.781	0.0139332
914.859	0.0138039
914.937	0.0138818
915.015	0.0138580
915.093	0.0138623
915.171	0.0138939
915.249	0.0139074
915.328	0.0138489
915.406	0.0138281
915.484	0.0137257
915.562	0.0137874
915.640	0.0136583
915.718	0.0136366
915.796	0.0137231
915.874	0.0135075
915.953	0.0136729
916.031	0.0137582
916.109	0.0137318
916.187	0.0137105
916.265	0.0135680
916.343	0.0136752
916.421	0.0137086
916.499	0.0134973
916.578	0.0135496
916.656	0.0136044
916.734	0.0135954
916.812	0.0136230
916.890	0.0135989
916.968	0.0135689
917.046	0.0135325
917.124	0.0135275
917.203	0.0135017
917.281	0.0135101
917.359	0.0135760
917.437	0.0135274
917.515	0.0134968
917.593	0.0134003
917.671	0.0136125
917.749	0.0135169
917.828	0.0134428
917.906	0.0136207
917.984	0.0135683
918.062	0.0136031
918.140	0.0135940
918.218	0.0136611
918.296	0.0135488
918.374	0.0137664
918.453	0.0138257
918.531	0.0136885
918.609	0.0137392
918.687	0.0138047
918.765	0.0137846
918.843	0.0136978
918.921	0.0137399
918.999	0.0137198
919.078	0.0139261
919.156	0.0138037
919.234	0.0137027
919.312	0.0137920
919.390	0.0139048
919.468	0.0137078
919.546	0.0138042
919.624	0.0139677
919.703	0.0140233
919.781	0.0139536
919.859	0.0138784
919.937	0.0139139
