05/08/2022	20:15:12	Ver.	4.1	UNKNOWN
Optical Delay	600.015094	Delta X		0.078125	Sweeps	1	Scan Rate	0/0
Coordinates	Axis 1	NaN	Axis 2	NaN	Axis 3	NaN	Axis 4	NaN	Axis 5	NaN	Axis 6	0.000000
TX Power	0.000000	RX Power	0.000000

600.015	0.0131804
600.093	0.0131967
600.171	0.0131855
600.249	0.0133398
600.328	0.0132526
600.406	0.0131894
600.484	0.0132696
600.562	0.0131806
600.640	0.0131364
600.718	0.0132039
600.796	0.0130971
600.874	0.0132057
600.953	0.0132271
601.031	0.0132990
601.109	0.0131608
601.187	0.0131425
601.265	0.0132650
601.343	0.0130612
601.421	0.0132132
601.499	0.0132035
601.578	0.0132848
601.656	0.0133125
601.734	0.0132545
601.812	0.0131756
601.890	0.0133254
601.968	0.0132449
602.046	0.0132126
602.124	0.0131544
602.203	0.0132662
602.281	0.0132887
602.359	0.0132885
602.437	0.0132237
602.515	0.0132722
602.593	0.0131907
602.671	0.0132066
602.749	0.0132767
602.828	0.0132097
602.906	0.0131995
602.984	0.0133501
603.062	0.0132025
603.140	0.0133232
603.218	0.0132678
603.296	0.0132873
603.374	0.0131657
603.453	0.0130879
603.531	0.0130779
603.609	0.0132788
603.687	0.0132484
603.765	0.0132648
603.843	0.0132929
603.921	0.0132835
603.999	0.0132202
604.078	0.0132188
604.156	0.0131755
604.234	0.0132166
604.312	0.0133363
604.390	0.0132278
604.468	0.0131531
604.546	0.0132886
604.624	0.0131988
604.703	0.0132133
604.781	0.0133136
604.859	0.0132042
604.937	0.0132899
605.015	0.0132468
605.093	0.0133094
605.171	0.0132724
605.249	0.0133935
605.328	0.0133261
605.406	0.0131590
605.484	0.0132700
605.562	0.0134525
605.640	0.0133907
605.718	0.0133871
605.796	0.0134108
605.874	0.0133687
605.953	0.0134013
606.031	0.0133094
606.109	0.0135182
606.187	0.0134287
606.265	0.0133733
606.343	0.0133708
606.421	0.0133690
606.499	0.0135016
606.578	0.0134058
606.656	0.0133968
606.734	0.0133923
606.812	0.0133833
606.890	0.0133997
606.968	0.0133913
607.046	0.0135636
607.124	0.0135419
607.203	0.0134409
607.281	0.0135318
607.359	0.0135066
607.437	0.0134205
607.515	0.0134258
607.593	0.0134315
607.671	0.0134937
607.749	0.0135011
607.828	0.0135320
607.906	0.0135691
607.984	0.0135047
608.062	0.0134162
608.140	0.0133944
608.218	0.0133720
608.296	0.0133453
608.374	0.0132542
608.453	0.0134138
608.531	0.0133569
608.609	0.0133370
608.687	0.0134705
608.765	0.0133606
608.843	0.0134165
608.921	0.0134576
608.999	0.0134043
609.078	0.0134119
609.156	0.0133044
609.234	0.0132713
609.312	0.0133661
609.390	0.0133308
609.468	0.0132507
609.546	0.0131288
609.624	0.0132445
609.703	0.0134065
609.781	0.0133074
609.859	0.0131935
609.937	0.0132542
610.015	0.0133328
610.093	0.0131994
610.171	0.0132229
610.249	0.0132762
610.328	0.0132816
610.406	0.0133148
610.484	0.0132291
610.562	0.0131616
610.640	0.0133065
610.718	0.0132450
610.796	0.0133208
610.874	0.0131980
610.953	0.0132967
611.031	0.0132492
611.109	0.0131921
611.187	0.0132259
611.265	0.0133084
611.343	0.0132301
611.421	0.0132212
611.499	0.0132936
611.578	0.0133038
611.656	0.0132037
611.734	0.0132117
611.812	0.0132508
611.890	0.0132023
611.968	0.0134007
612.046	0.0133027
612.124	0.0132980
612.203	0.0132331
612.281	0.0133116
612.359	0.0131631
612.437	0.0132497
612.515	0.0133317
612.593	0.0132148
612.671	0.0131194
612.749	0.0132812
612.828	0.0132339
612.906	0.0133604
612.984	0.0131934
613.062	0.0132520
613.140	0.0132128
613.218	0.0132069
613.296	0.0131832
613.374	0.0131763
613.453	0.0132470
613.531	0.0131432
613.609	0.0130492
613.687	0.0131608
613.765	0.0132446
613.843	0.0131466
613.921	0.0131746
613.999	0.0132227
614.078	0.0132884
614.156	0.0132498
614.234	0.0132430
614.312	0.0130893
614.390	0.0131670
614.468	0.0132203
614.546	0.0130603
614.624	0.0131126
614.703	0.0131992
614.781	0.0131587
614.859	0.0131209
614.937	0.0130607
615.015	0.0133186
615.093	0.0131294
615.171	0.0132275
615.249	0.0131926
615.328	0.0130495
615.406	0.0130680
615.484	0.0130946
615.562	0.0132525
615.640	0.0130540
615.718	0.0131166
615.796	0.0131091
615.874	0.0131397
615.953	0.0130547
616.031	0.0131467
616.109	0.0130500
616.187	0.0130987
616.265	0.0131499
616.343	0.0130949
616.421	0.0130979
616.499	0.0129966
616.578	0.0130933
616.656	0.0130399
616.734	0.0131079
616.812	0.0131296
616.890	0.0131081
616.968	0.0133076
617.046	0.0131029
617.124	0.0131512
617.203	0.0131091
617.281	0.0130287
617.359	0.0131167
617.437	0.0131102
617.515	0.0129428
617.593	0.0129540
617.671	0.0130824
617.749	0.0132276
617.828	0.0130108
617.906	0.0130037
617.984	0.0131384
618.062	0.0130788
618.140	0.0130572
618.218	0.0131403
618.296	0.0130849
618.374	0.0132320
618.453	0.0130798
618.531	0.0131227
618.609	0.0132626
618.687	0.0131020
618.765	0.0129929
618.843	0.0132084
618.921	0.0131590
618.999	0.0130836
619.078	0.0130869
619.156	0.0130334
619.234	0.0131883
619.312	0.0131128
619.390	0.0131663
619.468	0.0131341
619.546	0.0130446
619.624	0.0132313
619.703	0.0130773
619.781	0.0131934
619.859	0.0131563
619.937	0.0132978
620.015	0.0131374
620.093	0.0131797
620.171	0.0132124
620.249	0.0131793
620.328	0.0132771
620.406	0.0132789
620.484	0.0131469
620.562	0.0131264
620.640	0.0133044
620.718	0.0132066
620.796	0.0132045
620.874	0.0131969
620.953	0.0132330
621.031	0.0131005
621.109	0.0131890
621.187	0.0132007
621.265	0.0132212
621.343	0.0132439
621.421	0.0132738
621.499	0.0132395
621.578	0.0131849
621.656	0.0132823
621.734	0.0132555
621.812	0.0132268
621.890	0.0133694
621.968	0.0133263
622.046	0.0132720
622.124	0.0131344
622.203	0.0132287
622.281	0.0132163
622.359	0.0132784
622.437	0.0132527
622.515	0.0133804
622.593	0.0132389
622.671	0.0132946
622.749	0.0132289
622.828	0.0133282
622.906	0.0132948
622.984	0.0132893
623.062	0.0133808
623.140	0.0132880
623.218	0.0132253
623.296	0.0132722
623.374	0.0132393
623.453	0.0132890
623.531	0.0131873
623.609	0.0131631
623.687	0.0133788
623.765	0.0131404
623.843	0.0131350
623.921	0.0133443
623.999	0.0132195
624.078	0.0132677
624.156	0.0133581
624.234	0.0132961
624.312	0.0132046
624.390	0.0132594
624.468	0.0132767
624.546	0.0131619
624.624	0.0133289
624.703	0.0132628
624.781	0.0133109
624.859	0.0131859
624.937	0.0133392
625.015	0.0131643
625.093	0.0131261
625.171	0.0131061
625.249	0.0131557
625.328	0.0132304
625.406	0.0132219
625.484	0.0131149
625.562	0.0130592
625.640	0.0131749
625.718	0.0129880
625.796	0.0132057
625.874	0.0130848
625.953	0.0130093
626.031	0.0131377
626.109	0.0130222
626.187	0.0131723
626.265	0.0131619
626.343	0.0131742
626.421	0.0133852
626.499	0.0131819
626.578	0.0132169
626.656	0.0132276
626.734	0.0132518
626.812	0.0131300
626.890	0.0132172
626.968	0.0132674
627.046	0.0132258
627.124	0.0132236
627.203	0.0133209
627.281	0.0133467
627.359	0.0132950
627.437	0.0132191
627.515	0.0133884
627.593	0.0134133
627.671	0.0133646
627.749	0.0134386
627.828	0.0134842
627.906	0.0135153
627.984	0.0135038
628.062	0.0132941
628.140	0.0134172
628.218	0.0134442
628.296	0.0133879
628.374	0.0133815
628.453	0.0133437
628.531	0.0134543
628.609	0.0135757
628.687	0.0134440
628.765	0.0134197
628.843	0.0132954
628.921	0.0132837
628.999	0.0135314
629.078	0.0133094
629.156	0.0133411
629.234	0.0134217
629.312	0.0134160
629.390	0.0133944
629.468	0.0134310
629.546	0.0132892
629.624	0.0133615
629.703	0.0133806
629.781	0.0133972
629.859	0.0134127
629.937	0.0132930
630.015	0.0132858
630.093	0.0133947
630.171	0.0132795
630.249	0.0133340
630.328	0.0133124
630.406	0.0133228
630.484	0.0133949
630.562	0.0132851
630.640	0.0131522
630.718	0.0132578
630.796	0.0133936
630.874	0.0132810
630.953	0.0131779
631.031	0.0132227
631.109	0.0132733
631.187	0.0132896
631.265	0.0132341
631.343	0.0133641
631.421	0.0133685
631.499	0.0133118
631.578	0.0132338
631.656	0.0131450
631.734	0.0133768
631.812	0.0132570
631.890	0.0132584
631.968	0.0132927
632.046	0.0133936
632.124	0.0132996
632.203	0.0131606
632.281	0.0131882
632.359	0.0132508
632.437	0.0133696
632.515	0.0133954
632.593	0.0132481
632.671	0.0133320
632.749	0.0133325
632.828	0.0133173
632.906	0.0133274
632.984	0.0133946
633.062	0.0131886
633.140	0.0133350
633.218	0.0134315
633.296	0.0132471
633.374	0.0133894
633.453	0.0132855
633.531	0.0134718
633.609	0.0133299
633.687	0.0133128
633.765	0.0134156
633.843	0.0132529
633.921	0.0133485
633.999	0.0133907
634.078	0.0132891
634.156	0.0132895
634.234	0.0133234
634.312	0.0132935
634.390	0.0133669
634.468	0.0132700
634.546	0.0132544
634.624	0.0132680
634.703	0.0132388
634.781	0.0132539
634.859	0.0133353
634.937	0.0132440
635.015	0.0132255
635.093	0.0133085
635.171	0.0132338
635.249	0.0131882
635.328	0.0132364
635.406	0.0132663
635.484	0.0131643
635.562	0.0132237
635.640	0.0131733
635.718	0.0132830
635.796	0.0132242
635.874	0.0132243
635.953	0.0131470
636.031	0.0133068
636.109	0.0131689
636.187	0.0132100
636.265	0.0130077
636.343	0.0130904
636.421	0.0131937
636.499	0.0131923
636.578	0.0132050
636.656	0.0132473
636.734	0.0133214
636.812	0.0132326
636.890	0.0132047
636.968	0.0131578
637.046	0.0131201
637.124	0.0132281
637.203	0.0132010
637.281	0.0132165
637.359	0.0131348
637.437	0.0133027
637.515	0.0133536
637.593	0.0131686
637.671	0.0130757
637.749	0.0132392
637.828	0.0133475
637.906	0.0131650
637.984	0.0131578
638.062	0.0132445
638.140	0.0130604
638.218	0.0132455
638.296	0.0132418
638.374	0.0132552
638.453	0.0132513
638.531	0.0133904
638.609	0.0132254
638.687	0.0133008
638.765	0.0133661
638.843	0.0133985
638.921	0.0132679
638.999	0.0134041
639.078	0.0133041
639.156	0.0132845
639.234	0.0132780
639.312	0.0131425
639.390	0.0133155
639.468	0.0131782
639.546	0.0132933
639.624	0.0131960
639.703	0.0131767
639.781	0.0133114
639.859	0.0131381
639.937	0.0133008
640.015	0.0132021
640.093	0.0133524
640.171	0.0133202
640.249	0.0133514
640.328	0.0134923
640.406	0.0134338
640.484	0.0133437
640.562	0.0134199
640.640	0.0133218
640.718	0.0132413
640.796	0.0134093
640.874	0.0133045
640.953	0.0133053
641.031	0.0132323
641.109	0.0133985
641.187	0.0132983
641.265	0.0134885
641.343	0.0132397
641.421	0.0134059
641.499	0.0133723
641.578	0.0134155
641.656	0.0132803
641.734	0.0132871
641.812	0.0132441
641.890	0.0132643
641.968	0.0131668
642.046	0.0132121
642.124	0.0131725
642.203	0.0130854
642.281	0.0130137
642.359	0.0129825
642.437	0.0128328
642.515	0.0128616
642.593	0.0128503
642.671	0.0128872
642.749	0.0127052
642.828	0.0130003
642.906	0.0129748
642.984	0.0129507
643.062	0.0130489
643.140	0.0132643
643.218	0.0131420
643.296	0.0132493
643.374	0.0133035
643.453	0.0134179
643.531	0.0135664
643.609	0.0135069
643.687	0.0134035
643.765	0.0135783
643.843	0.0136149
643.921	0.0134917
643.999	0.0134151
644.078	0.0135579
644.156	0.0134679
644.234	0.0136421
644.312	0.0135234
644.390	0.0136074
644.468	0.0134945
644.546	0.0134684
644.624	0.0132358
644.703	0.0133131
644.781	0.0132597
644.859	0.0132070
644.937	0.0129809
645.015	0.0128638
645.093	0.0127231
645.171	0.0126904
645.249	0.0126575
645.328	0.0126767
645.406	0.0126932
645.484	0.0126828
645.562	0.0128022
645.640	0.0129127
645.718	0.0129726
645.796	0.0130969
645.874	0.0131509
645.953	0.0134924
646.031	0.0133878
646.109	0.0133876
646.187	0.0134969
646.265	0.0136297
646.343	0.0136848
646.421	0.0135950
646.499	0.0137638
646.578	0.0135888
646.656	0.0136706
646.734	0.0136886
646.812	0.0139347
646.890	0.0139870
646.968	0.0139181
647.046	0.0138986
647.124	0.0139846
647.203	0.0138585
647.281	0.0135927
647.359	0.0135151
647.437	0.0135485
647.515	0.0133733
647.593	0.0132404
647.671	0.0129504
647.749	0.0128062
647.828	0.0128598
647.906	0.0126909
647.984	0.0125378
648.062	0.0124047
648.140	0.0122050
648.218	0.0124748
648.296	0.0124893
648.374	0.0122923
648.453	0.0126978
648.531	0.0126352
648.609	0.0127852
648.687	0.0131233
648.765	0.0130463
648.843	0.0133801
648.921	0.0135616
648.999	0.0138412
649.078	0.0139931
649.156	0.0142860
649.234	0.0143478
649.312	0.0144570
649.390	0.0146105
649.468	0.0146826
649.546	0.0148594
649.624	0.0148557
649.703	0.0147991
649.781	0.0146851
649.859	0.0146064
649.937	0.0144022
650.015	0.0143607
650.093	0.0142132
650.171	0.0139362
650.249	0.0135676
650.328	0.0135051
650.406	0.0129967
650.484	0.0127930
650.562	0.0124857
650.640	0.0122852
650.718	0.0120435
650.796	0.0119928
650.874	0.0117455
650.953	0.0117595
651.031	0.0116713
651.109	0.0116573
651.187	0.0118867
651.265	0.0121198
651.343	0.0121882
651.421	0.0122550
651.499	0.0126231
651.578	0.0129650
651.656	0.0131689
651.734	0.0134807
651.812	0.0137799
651.890	0.0140694
651.968	0.0141871
652.046	0.0143839
652.124	0.0145844
652.203	0.0148526
652.281	0.0150964
652.359	0.0151601
652.437	0.0152811
652.515	0.0152582
652.593	0.0153730
652.671	0.0151093
652.749	0.0152067
652.828	0.0150559
652.906	0.0150758
652.984	0.0146363
653.062	0.0144121
653.140	0.0140196
653.218	0.0139287
653.296	0.0135860
653.374	0.0133843
653.453	0.0129963
653.531	0.0126321
653.609	0.0124065
653.687	0.0122161
653.765	0.0119509
653.843	0.0117579
653.921	0.0116649
653.999	0.0116899
654.078	0.0115704
654.156	0.0115997
654.234	0.0116119
654.312	0.0119042
654.390	0.0117918
654.468	0.0119924
654.546	0.0121920
654.624	0.0122253
654.703	0.0124553
654.781	0.0126174
654.859	0.0127453
654.937	0.0128580
655.015	0.0131222
655.093	0.0131834
655.171	0.0134126
655.249	0.0135545
655.328	0.0137619
655.406	0.0137304
655.484	0.0140031
655.562	0.0140394
655.640	0.0141766
655.718	0.0143076
655.796	0.0143114
655.874	0.0142648
655.953	0.0142783
656.031	0.0143465
656.109	0.0142049
656.187	0.0140973
656.265	0.0139761
656.343	0.0138542
656.421	0.0136694
656.499	0.0135261
656.578	0.0134008
656.656	0.0132896
656.734	0.0129218
656.812	0.0129763
656.890	0.0129089
656.968	0.0129948
657.046	0.0129808
657.124	0.0129498
657.203	0.0130121
657.281	0.0130714
657.359	0.0131485
657.437	0.0132312
657.515	0.0135052
657.593	0.0135567
657.671	0.0135896
657.749	0.0138861
657.828	0.0139276
657.906	0.0141026
657.984	0.0142237
658.062	0.0142754
658.140	0.0144470
658.218	0.0143748
658.296	0.0145721
658.374	0.0145757
658.453	0.0143457
658.531	0.0142117
658.609	0.0142417
658.687	0.0140736
658.765	0.0138358
658.843	0.0135295
658.921	0.0132572
658.999	0.0129807
659.078	0.0127308
659.156	0.0123682
659.234	0.0120657
659.312	0.0117680
659.390	0.0115146
659.468	0.0113303
659.546	0.0111368
659.624	0.0112287
659.703	0.0110095
659.781	0.0111056
659.859	0.0111764
659.937	0.0113304
660.015	0.0113982
660.093	0.0116474
660.171	0.0119283
660.249	0.0121522
660.328	0.0125064
660.406	0.0127885
660.484	0.0130439
660.562	0.0133697
660.640	0.0136350
660.718	0.0140316
660.796	0.0143723
660.874	0.0145798
660.953	0.0151578
661.031	0.0151723
661.109	0.0154153
661.187	0.0156599
661.265	0.0156180
661.343	0.0156888
661.421	0.0158891
661.499	0.0159077
661.578	0.0155910
661.656	0.0155842
661.734	0.0154460
661.812	0.0153654
661.890	0.0150533
661.968	0.0147681
662.046	0.0144894
662.124	0.0141557
662.203	0.0138699
662.281	0.0137074
662.359	0.0133030
662.437	0.0131673
662.515	0.0128297
662.593	0.0127077
662.671	0.0125481
662.749	0.0125034
662.828	0.0123212
662.906	0.0122284
662.984	0.0121419
663.062	0.0121449
663.140	0.0121265
663.218	0.0121108
663.296	0.0121845
663.374	0.0121876
663.453	0.0122366
663.531	0.0123122
663.609	0.0122968
663.687	0.0123383
663.765	0.0124332
663.843	0.0122886
663.921	0.0122888
663.999	0.0123985
664.078	0.0122978
664.156	0.0123365
664.234	0.0123402
664.312	0.0123560
664.390	0.0122997
664.468	0.0123278
664.546	0.0123743
664.624	0.0122816
664.703	0.0123724
664.781	0.0124899
664.859	0.0125536
664.937	0.0127222
665.015	0.0127751
665.093	0.0129396
665.171	0.0133170
665.249	0.0135219
665.328	0.0137650
665.406	0.0139143
665.484	0.0142518
665.562	0.0144299
665.640	0.0148478
665.718	0.0148921
665.796	0.0149273
665.874	0.0151315
665.953	0.0151811
666.031	0.0151450
666.109	0.0152505
666.187	0.0151987
666.265	0.0151667
666.343	0.0148903
666.421	0.0150257
666.499	0.0151070
666.578	0.0147362
666.656	0.0146314
666.734	0.0146503
666.812	0.0143056
666.890	0.0141634
666.968	0.0139780
667.046	0.0137840
667.124	0.0135904
667.203	0.0134085
667.281	0.0132305
667.359	0.0129199
667.437	0.0127779
667.515	0.0124638
667.593	0.0122476
667.671	0.0120311
667.749	0.0119514
667.828	0.0119093
667.906	0.0116071
667.984	0.0114878
668.062	0.0114751
668.140	0.0113661
668.218	0.0113005
668.296	0.0114541
668.374	0.0113813
668.453	0.0114387
668.531	0.0113632
668.609	0.0114114
668.687	0.0114303
668.765	0.0115668
668.843	0.0118138
668.921	0.0116511
668.999	0.0117242
669.078	0.0118690
669.156	0.0120628
669.234	0.0121209
669.312	0.0122054
669.390	0.0123795
669.468	0.0124609
669.546	0.0125372
669.624	0.0127975
669.703	0.0129215
669.781	0.0128370
669.859	0.0130023
669.937	0.0133234
670.015	0.0135830
670.093	0.0137246
670.171	0.0138058
670.249	0.0140615
670.328	0.0142783
670.406	0.0144321
670.484	0.0145925
670.562	0.0149886
670.640	0.0151747
670.718	0.0151453
670.796	0.0154131
670.874	0.0154878
670.953	0.0156165
671.031	0.0155436
671.109	0.0153595
671.187	0.0155160
671.265	0.0152988
671.343	0.0153527
671.421	0.0152311
671.499	0.0148537
671.578	0.0147344
671.656	0.0147350
671.734	0.0144207
671.812	0.0141904
671.890	0.0142393
671.968	0.0139332
672.046	0.0138313
672.124	0.0135657
672.203	0.0133353
672.281	0.0131596
672.359	0.0130444
672.437	0.0129425
672.515	0.0126882
672.593	0.0126691
672.671	0.0125845
672.749	0.0124495
672.828	0.0122621
672.906	0.0122034
672.984	0.0119540
673.062	0.0118845
673.140	0.0116935
673.218	0.0116018
673.296	0.0114265
673.374	0.0112321
673.453	0.0111274
673.531	0.0109359
673.609	0.0107762
673.687	0.0108418
673.765	0.0109764
673.843	0.0107497
673.921	0.0108249
673.999	0.0109946
674.078	0.0111240
674.156	0.0112553
674.234	0.0112907
674.312	0.0114779
674.390	0.0116413
674.468	0.0118623
674.546	0.0118976
674.624	0.0122455
674.703	0.0125829
674.781	0.0127289
674.859	0.0132169
674.937	0.0133540
675.015	0.0136820
675.093	0.0140266
675.171	0.0142989
675.249	0.0146526
675.328	0.0149298
675.406	0.0151193
675.484	0.0152129
675.562	0.0153332
675.640	0.0155454
675.718	0.0156446
675.796	0.0155911
675.874	0.0156956
675.953	0.0158460
676.031	0.0159988
676.109	0.0158821
676.187	0.0159026
676.265	0.0160100
676.343	0.0160167
676.421	0.0158948
676.499	0.0159332
676.578	0.0159720
676.656	0.0157574
676.734	0.0155871
676.812	0.0154658
676.890	0.0151244
676.968	0.0151137
677.046	0.0147955
677.124	0.0143644
677.203	0.0139287
677.281	0.0136727
677.359	0.0132883
677.437	0.0130186
677.515	0.0127263
677.593	0.0123550
677.671	0.0120141
677.749	0.0117205
677.828	0.0114587
677.906	0.0110944
677.984	0.0107893
678.062	0.0106110
678.140	0.0103934
678.218	0.0102813
678.296	0.0100639
678.374	0.0102140
678.453	0.0101526
678.531	0.0100891
678.609	0.0102436
678.687	0.0103794
678.765	0.0105572
678.843	0.0106580
678.921	0.0108627
678.999	0.0110709
679.078	0.0113499
679.156	0.0116324
679.234	0.0118917
679.312	0.0122071
679.390	0.0124551
679.468	0.0126239
679.546	0.0130174
679.624	0.0132484
679.703	0.0135870
679.781	0.0137085
679.859	0.0138734
679.937	0.0140813
680.015	0.0143709
680.093	0.0144843
680.171	0.0146661
680.249	0.0149485
680.328	0.0150771
680.406	0.0151768
680.484	0.0152535
680.562	0.0152284
680.640	0.0154158
680.718	0.0154509
680.796	0.0154058
680.874	0.0154482
680.953	0.0154497
681.031	0.0154417
681.109	0.0153188
681.187	0.0152694
681.265	0.0152003
681.343	0.0150980
681.421	0.0148351
681.499	0.0148571
681.578	0.0148531
681.656	0.0146076
681.734	0.0144953
681.812	0.0144287
681.890	0.0142706
681.968	0.0140169
682.046	0.0139596
682.124	0.0138465
682.203	0.0137926
682.281	0.0137618
682.359	0.0134975
682.437	0.0134544
682.515	0.0133124
682.593	0.0132819
682.671	0.0131043
682.749	0.0129356
682.828	0.0128761
682.906	0.0126793
682.984	0.0125929
683.062	0.0124135
683.140	0.0122736
683.218	0.0118917
683.296	0.0117498
683.374	0.0116829
683.453	0.0115319
683.531	0.0116291
683.609	0.0113538
683.687	0.0115244
683.765	0.0115163
683.843	0.0113516
683.921	0.0115755
683.999	0.0117397
684.078	0.0119991
684.156	0.0123121
684.234	0.0124284
684.312	0.0126453
684.390	0.0127747
684.468	0.0129105
684.546	0.0130363
684.624	0.0132664
684.703	0.0132766
684.781	0.0133406
684.859	0.0135153
684.937	0.0135874
685.015	0.0135419
685.093	0.0134421
685.171	0.0133147
685.249	0.0135021
685.328	0.0133436
685.406	0.0133401
685.484	0.0134256
685.562	0.0133271
685.640	0.0134167
685.718	0.0136030
685.796	0.0134720
685.874	0.0135619
685.953	0.0137625
686.031	0.0137070
686.109	0.0136865
686.187	0.0137035
686.265	0.0139473
686.343	0.0139207
686.421	0.0140452
686.499	0.0140628
686.578	0.0140825
686.656	0.0143223
686.734	0.0143623
686.812	0.0143549
686.890	0.0144842
686.968	0.0145794
687.046	0.0145511
687.124	0.0144884
687.203	0.0143695
687.281	0.0145114
687.359	0.0144478
687.437	0.0143942
687.515	0.0143269
687.593	0.0144433
687.671	0.0144284
687.749	0.0144917
687.828	0.0143046
687.906	0.0142966
687.984	0.0140999
688.062	0.0140183
688.140	0.0138838
688.218	0.0137978
688.296	0.0136788
688.374	0.0135275
688.453	0.0132481
688.531	0.0131656
688.609	0.0131372
688.687	0.0128161
688.765	0.0125012
688.843	0.0123924
688.921	0.0122381
688.999	0.0119935
689.078	0.0119565
689.156	0.0117999
689.234	0.0116636
689.312	0.0115550
689.390	0.0115511
689.468	0.0115173
689.546	0.0114979
689.624	0.0115707
689.703	0.0115721
689.781	0.0116788
689.859	0.0117611
689.937	0.0119083
690.015	0.0117802
690.093	0.0120103
690.171	0.0123327
690.249	0.0124368
690.328	0.0126446
690.406	0.0126908
690.484	0.0128519
690.562	0.0131947
690.640	0.0133362
690.718	0.0135183
690.796	0.0136865
690.874	0.0139728
690.953	0.0142290
691.031	0.0142116
691.109	0.0142377
691.187	0.0143744
691.265	0.0145264
691.343	0.0144118
691.421	0.0144915
691.499	0.0145019
691.578	0.0143414
691.656	0.0141264
691.734	0.0140065
691.812	0.0139457
691.890	0.0139649
691.968	0.0137691
692.046	0.0135477
692.124	0.0135993
692.203	0.0134972
692.281	0.0132381
692.359	0.0132971
692.437	0.0132128
692.515	0.0133548
692.593	0.0132932
692.671	0.0132151
692.749	0.0132978
692.828	0.0132414
692.906	0.0132302
692.984	0.0133186
693.062	0.0133430
693.140	0.0134550
693.218	0.0133752
693.296	0.0133552
693.374	0.0135382
693.453	0.0135322
693.531	0.0134476
693.609	0.0133005
693.687	0.0133301
693.765	0.0133758
693.843	0.0132260
693.921	0.0133000
693.999	0.0132310
694.078	0.0131650
694.156	0.0131399
694.234	0.0128776
694.312	0.0129022
694.390	0.0127318
694.468	0.0124599
694.546	0.0123844
694.624	0.0123840
694.703	0.0121658
694.781	0.0121563
694.859	0.0122260
694.937	0.0123020
695.015	0.0124493
695.093	0.0125874
695.171	0.0125954
695.249	0.0127795
695.328	0.0128464
695.406	0.0129929
695.484	0.0130942
695.562	0.0131573
695.640	0.0132899
695.718	0.0134531
695.796	0.0132818
695.874	0.0135477
695.953	0.0135208
696.031	0.0134075
696.109	0.0133776
696.187	0.0133186
696.265	0.0132988
696.343	0.0131789
696.421	0.0131503
696.499	0.0132091
696.578	0.0129287
696.656	0.0128716
696.734	0.0128753
696.812	0.0127940
696.890	0.0126888
696.968	0.0127660
697.046	0.0127160
697.124	0.0126227
697.203	0.0124409
697.281	0.0125107
697.359	0.0124314
697.437	0.0123526
697.515	0.0124133
697.593	0.0123373
697.671	0.0124898
697.749	0.0125698
697.828	0.0126112
697.906	0.0127112
697.984	0.0128527
698.062	0.0130140
698.140	0.0132065
698.218	0.0134791
698.296	0.0135733
698.374	0.0138507
698.453	0.0141373
698.531	0.0141520
698.609	0.0144522
698.687	0.0145539
698.765	0.0146015
698.843	0.0145877
698.921	0.0147006
698.999	0.0145577
699.078	0.0147011
699.156	0.0144250
699.234	0.0143444
699.312	0.0142609
699.390	0.0142988
699.468	0.0140972
699.546	0.0137914
699.624	0.0137173
699.703	0.0136730
699.781	0.0135453
699.859	0.0133436
699.937	0.0132514
700.015	0.0131599
700.093	0.0130078
700.171	0.0127323
700.249	0.0127673
700.328	0.0127055
700.406	0.0124236
700.484	0.0122736
700.562	0.0122459
700.640	0.0121434
700.718	0.0120409
700.796	0.0119768
700.874	0.0121256
700.953	0.0121326
701.031	0.0120894
701.109	0.0120731
701.187	0.0124171
701.265	0.0125614
701.343	0.0126997
701.421	0.0129085
701.499	0.0130272
701.578	0.0132582
701.656	0.0134835
701.734	0.0136820
701.812	0.0138115
701.890	0.0139693
701.968	0.0140307
702.046	0.0140356
702.124	0.0143043
702.203	0.0144175
702.281	0.0141796
702.359	0.0141019
702.437	0.0142152
702.515	0.0142008
702.593	0.0139572
702.671	0.0137587
702.749	0.0137505
702.828	0.0137850
702.906	0.0136301
702.984	0.0135007
703.062	0.0134864
703.140	0.0132416
703.218	0.0131918
703.296	0.0130289
703.374	0.0129256
703.453	0.0129506
703.531	0.0128735
703.609	0.0128786
703.687	0.0126382
703.765	0.0124128
703.843	0.0124603
703.921	0.0125728
703.999	0.0125002
704.078	0.0124725
704.156	0.0125436
704.234	0.0126677
704.312	0.0127135
704.390	0.0127848
704.468	0.0127654
704.546	0.0131902
704.624	0.0130371
704.703	0.0131679
704.781	0.0134457
704.859	0.0134712
704.937	0.0136695
705.015	0.0136671
705.093	0.0137100
705.171	0.0138003
705.249	0.0138644
705.328	0.0137955
705.406	0.0138981
705.484	0.0140421
705.562	0.0140884
705.640	0.0139413
705.718	0.0141080
705.796	0.0140245
705.874	0.0139818
705.953	0.0141322
706.031	0.0141413
706.109	0.0141295
706.187	0.0141975
706.265	0.0142020
706.343	0.0143420
706.421	0.0144746
706.499	0.0143578
706.578	0.0145108
706.656	0.0145511
706.734	0.0145451
706.812	0.0144678
706.890	0.0143038
706.968	0.0142444
707.046	0.0141196
707.124	0.0141959
707.203	0.0140314
707.281	0.0137861
707.359	0.0136620
707.437	0.0134498
707.515	0.0133379
707.593	0.0131698
707.671	0.0130103
707.749	0.0126505
707.828	0.0126972
707.906	0.0126163
707.984	0.0123949
708.062	0.0123611
708.140	0.0123833
708.218	0.0122382
708.296	0.0120683
708.374	0.0122012
708.453	0.0122005
708.531	0.0123699
708.609	0.0122554
708.687	0.0124998
708.765	0.0124091
708.843	0.0124789
708.921	0.0124701
708.999	0.0126469
709.078	0.0127153
709.156	0.0127441
709.234	0.0129366
709.312	0.0130508
709.390	0.0130521
709.468	0.0130116
709.546	0.0130914
709.624	0.0131959
709.703	0.0133172
709.781	0.0131849
709.859	0.0131610
709.937	0.0133604
710.015	0.0134028
710.093	0.0134480
710.171	0.0136427
710.249	0.0136174
710.328	0.0135863
710.406	0.0136549
710.484	0.0136932
710.562	0.0139975
710.640	0.0139459
710.718	0.0139407
710.796	0.0138354
710.874	0.0140232
710.953	0.0140338
711.031	0.0140338
711.109	0.0140899
711.187	0.0139560
711.265	0.0140065
711.343	0.0138467
711.421	0.0138467
711.499	0.0137938
711.578	0.0136893
711.656	0.0137227
711.734	0.0135908
711.812	0.0133725
711.890	0.0132395
711.968	0.0131562
712.046	0.0132462
712.124	0.0130418
712.203	0.0129688
712.281	0.0130052
712.359	0.0129229
712.437	0.0129532
712.515	0.0129958
712.593	0.0129682
712.671	0.0129762
712.749	0.0128574
712.828	0.0129266
712.906	0.0128790
712.984	0.0129448
713.062	0.0127635
713.140	0.0129278
713.218	0.0128281
713.296	0.0128805
713.374	0.0128474
713.453	0.0126878
713.531	0.0129675
713.609	0.0129160
713.687	0.0130172
713.765	0.0130213
713.843	0.0132181
713.921	0.0132710
713.999	0.0133805
714.078	0.0135543
714.156	0.0134768
714.234	0.0135981
714.312	0.0135320
714.390	0.0135503
714.468	0.0136807
714.546	0.0135561
714.624	0.0135884
714.703	0.0135450
714.781	0.0134336
714.859	0.0135325
714.937	0.0134090
715.015	0.0134209
715.093	0.0133787
715.171	0.0133550
715.249	0.0132829
715.328	0.0130791
715.406	0.0129699
715.484	0.0129451
715.562	0.0128389
715.640	0.0127267
715.718	0.0128486
715.796	0.0126357
715.874	0.0128490
715.953	0.0126894
716.031	0.0126221
716.109	0.0125668
716.187	0.0126407
716.265	0.0127001
716.343	0.0128458
716.421	0.0129358
716.499	0.0128680
716.578	0.0129478
716.656	0.0130398
716.734	0.0131837
716.812	0.0130361
716.890	0.0133141
716.968	0.0135228
717.046	0.0136694
717.124	0.0135287
717.203	0.0136293
717.281	0.0136333
717.359	0.0136693
717.437	0.0138656
717.515	0.0138116
717.593	0.0139481
717.671	0.0138097
717.749	0.0138950
717.828	0.0139519
717.906	0.0138763
717.984	0.0139234
718.062	0.0138750
718.140	0.0138515
718.218	0.0137225
718.296	0.0138639
718.374	0.0137244
718.453	0.0136906
718.531	0.0137345
718.609	0.0136112
718.687	0.0136081
718.765	0.0135495
718.843	0.0134849
718.921	0.0134785
718.999	0.0133135
719.078	0.0130878
719.156	0.0130695
719.234	0.0128658
719.312	0.0128104
719.390	0.0128055
719.468	0.0127965
719.546	0.0125723
719.624	0.0127294
719.703	0.0126302
719.781	0.0126659
719.859	0.0125805
719.937	0.0126340
720.015	0.0126271
720.093	0.0127260
720.171	0.0128505
720.249	0.0128011
720.328	0.0128224
720.406	0.0127312
720.484	0.0127703
720.562	0.0129176
720.640	0.0127515
720.718	0.0128414
720.796	0.0127898
720.874	0.0129576
720.953	0.0128863
721.031	0.0128154
721.109	0.0129384
721.187	0.0131119
721.265	0.0129531
721.343	0.0129572
721.421	0.0130225
721.499	0.0130923
721.578	0.0131242
721.656	0.0131364
721.734	0.0131093
721.812	0.0131534
721.890	0.0132912
721.968	0.0133566
722.046	0.0134557
722.124	0.0134892
722.203	0.0135501
722.281	0.0135274
722.359	0.0134969
722.437	0.0135773
722.515	0.0135464
722.593	0.0136479
722.671	0.0136972
722.749	0.0135954
722.828	0.0135991
722.906	0.0134795
722.984	0.0135070
723.062	0.0135706
723.140	0.0134486
723.218	0.0134758
723.296	0.0134378
723.374	0.0133295
723.453	0.0133837
723.531	0.0133592
723.609	0.0132863
723.687	0.0133004
723.765	0.0133003
723.843	0.0132275
723.921	0.0132487
723.999	0.0132618
724.078	0.0133254
724.156	0.0132400
724.234	0.0133540
724.312	0.0133038
724.390	0.0132762
724.468	0.0134293
724.546	0.0135169
724.624	0.0134501
724.703	0.0133272
724.781	0.0135326
724.859	0.0134178
724.937	0.0132935
725.015	0.0134568
725.093	0.0134566
725.171	0.0134882
725.249	0.0134552
725.328	0.0135140
725.406	0.0133086
725.484	0.0133341
725.562	0.0135275
725.640	0.0135587
725.718	0.0135375
725.796	0.0134910
725.874	0.0135842
725.953	0.0134371
726.031	0.0136481
726.109	0.0135715
726.187	0.0135522
726.265	0.0135413
726.343	0.0134784
726.421	0.0133881
726.499	0.0134122
726.578	0.0132101
726.656	0.0131371
726.734	0.0132941
726.812	0.0129726
726.890	0.0130267
726.968	0.0129335
727.046	0.0127892
727.124	0.0127683
727.203	0.0127853
727.281	0.0127170
727.359	0.0129299
727.437	0.0127122
727.515	0.0127190
727.593	0.0127439
727.671	0.0127846
727.749	0.0129002
727.828	0.0127951
727.906	0.0129426
727.984	0.0126457
728.062	0.0129808
728.140	0.0127914
728.218	0.0129755
728.296	0.0132144
728.374	0.0132315
728.453	0.0133882
728.531	0.0133508
728.609	0.0135580
728.687	0.0136952
728.765	0.0135629
728.843	0.0136001
728.921	0.0139468
728.999	0.0138800
729.078	0.0140080
729.156	0.0141316
729.234	0.0139111
729.312	0.0140051
729.390	0.0141547
729.468	0.0141048
729.546	0.0138972
729.624	0.0139647
729.703	0.0140409
729.781	0.0138857
729.859	0.0138899
729.937	0.0139147
730.015	0.0137509
730.093	0.0138171
730.171	0.0136205
730.249	0.0135979
730.328	0.0137479
730.406	0.0136175
730.484	0.0134915
730.562	0.0135548
730.640	0.0134396
730.718	0.0133059
730.796	0.0133547
730.874	0.0133018
730.953	0.0132022
731.031	0.0130679
731.109	0.0130439
731.187	0.0130796
731.265	0.0130661
731.343	0.0131484
731.421	0.0131004
731.499	0.0131145
731.578	0.0131894
731.656	0.0131763
731.734	0.0132676
731.812	0.0132437
731.890	0.0132252
731.968	0.0132896
732.046	0.0133488
732.124	0.0132664
732.203	0.0133390
732.281	0.0132935
732.359	0.0133154
732.437	0.0132699
732.515	0.0132321
732.593	0.0131128
732.671	0.0132455
732.749	0.0130515
732.828	0.0131033
732.906	0.0131162
732.984	0.0131208
733.062	0.0130323
733.140	0.0129048
733.218	0.0128959
733.296	0.0130762
733.374	0.0130281
733.453	0.0128820
733.531	0.0130173
733.609	0.0130174
733.687	0.0129732
733.765	0.0128810
733.843	0.0129918
733.921	0.0129762
733.999	0.0130683
734.078	0.0130711
734.156	0.0129561
734.234	0.0129480
734.312	0.0130004
734.390	0.0131714
734.468	0.0131123
734.546	0.0131845
734.624	0.0132059
734.703	0.0131588
734.781	0.0132956
734.859	0.0132629
734.937	0.0133561
735.015	0.0134351
735.093	0.0135365
735.171	0.0135162
735.249	0.0136248
735.328	0.0135814
735.406	0.0137123
735.484	0.0136794
735.562	0.0136809
735.640	0.0137176
735.718	0.0136217
735.796	0.0136744
735.874	0.0135667
735.953	0.0135594
736.031	0.0134341
736.109	0.0135117
736.187	0.0134930
736.265	0.0134769
736.343	0.0133368
736.421	0.0134298
736.499	0.0134412
736.578	0.0132429
736.656	0.0130797
736.734	0.0132387
736.812	0.0133258
736.890	0.0132851
736.968	0.0132023
737.046	0.0131824
737.124	0.0131154
737.203	0.0131102
737.281	0.0130923
737.359	0.0129345
737.437	0.0130139
737.515	0.0130194
737.593	0.0129989
737.671	0.0129955
737.749	0.0129266
737.828	0.0129326
737.906	0.0130474
737.984	0.0128902
738.062	0.0128328
738.140	0.0130061
738.218	0.0129892
738.296	0.0129903
738.374	0.0129387
738.453	0.0130024
738.531	0.0130056
738.609	0.0129768
738.687	0.0129966
738.765	0.0130791
738.843	0.0130239
738.921	0.0130152
738.999	0.0129710
739.078	0.0131507
739.156	0.0131511
739.234	0.0132039
739.312	0.0133219
739.390	0.0131567
739.468	0.0133982
739.546	0.0134216
739.624	0.0133874
739.703	0.0132863
739.781	0.0132774
739.859	0.0133659
739.937	0.0134367
740.015	0.0134263
740.093	0.0133595
740.171	0.0135850
740.249	0.0135734
740.328	0.0135159
740.406	0.0134577
740.484	0.0135221
740.562	0.0135596
740.640	0.0134801
740.718	0.0135664
740.796	0.0135951
740.874	0.0134494
740.953	0.0134592
741.031	0.0134068
741.109	0.0132531
741.187	0.0133148
741.265	0.0135802
741.343	0.0134290
741.421	0.0135613
741.499	0.0135223
741.578	0.0134943
741.656	0.0134320
741.734	0.0137721
741.812	0.0136005
741.890	0.0135519
741.968	0.0138321
742.046	0.0137036
742.124	0.0135849
742.203	0.0137907
742.281	0.0137511
742.359	0.0137381
742.437	0.0136791
742.515	0.0136327
742.593	0.0136031
742.671	0.0135629
742.749	0.0135818
742.828	0.0133846
742.906	0.0134782
742.984	0.0134123
743.062	0.0132253
743.140	0.0132783
743.218	0.0130774
743.296	0.0130962
743.374	0.0130627
743.453	0.0129287
743.531	0.0129845
743.609	0.0129684
743.687	0.0130024
743.765	0.0129382
743.843	0.0129595
743.921	0.0129732
743.999	0.0129252
744.078	0.0130564
744.156	0.0130442
744.234	0.0130005
744.312	0.0129349
744.390	0.0129121
744.468	0.0128729
744.546	0.0129498
744.624	0.0131738
744.703	0.0131493
744.781	0.0129920
744.859	0.0130259
744.937	0.0129449
745.015	0.0130194
745.093	0.0129246
745.171	0.0131538
745.249	0.0129712
745.328	0.0129183
745.406	0.0130175
745.484	0.0130970
745.562	0.0130800
745.640	0.0131293
745.718	0.0131450
745.796	0.0133320
745.874	0.0133362
745.953	0.0132961
746.031	0.0133987
746.109	0.0133755
746.187	0.0135107
746.265	0.0134379
746.343	0.0134151
746.421	0.0135080
746.499	0.0135726
746.578	0.0134045
746.656	0.0134695
746.734	0.0134763
746.812	0.0133089
746.890	0.0134054
746.968	0.0132968
747.046	0.0132489
747.124	0.0131877
747.203	0.0131593
747.281	0.0132607
747.359	0.0134465
747.437	0.0131512
747.515	0.0131458
747.593	0.0130875
747.671	0.0130906
747.749	0.0130015
747.828	0.0129328
747.906	0.0131867
747.984	0.0130771
748.062	0.0129784
748.140	0.0131738
748.218	0.0132884
748.296	0.0132741
748.374	0.0133389
748.453	0.0132864
748.531	0.0132731
748.609	0.0133828
748.687	0.0133276
748.765	0.0133006
748.843	0.0133969
748.921	0.0134735
748.999	0.0134808
749.078	0.0134611
749.156	0.0134885
749.234	0.0134745
749.312	0.0132304
749.390	0.0134350
749.468	0.0135095
749.546	0.0134830
749.624	0.0135223
749.703	0.0135069
749.781	0.0134470
749.859	0.0134985
749.937	0.0134599
750.015	0.0134359
750.093	0.0133595
750.171	0.0134084
750.249	0.0133525
750.328	0.0133688
750.406	0.0135143
750.484	0.0133696
750.562	0.0131768
750.640	0.0132795
750.718	0.0131471
750.796	0.0131660
750.874	0.0130940
750.953	0.0131594
751.031	0.0131496
751.109	0.0130756
751.187	0.0129934
751.265	0.0131079
751.343	0.0130846
751.421	0.0131244
751.499	0.0132503
751.578	0.0132684
751.656	0.0131331
751.734	0.0133191
751.812	0.0132726
751.890	0.0133366
751.968	0.0133811
752.046	0.0133784
752.124	0.0133750
752.203	0.0135201
752.281	0.0133220
752.359	0.0133172
752.437	0.0132799
752.515	0.0134466
752.593	0.0133857
752.671	0.0134294
752.749	0.0134577
752.828	0.0133867
752.906	0.0132735
752.984	0.0133685
753.062	0.0133195
753.140	0.0133594
753.218	0.0134311
753.296	0.0133875
753.374	0.0133470
753.453	0.0134071
753.531	0.0133413
753.609	0.0134290
753.687	0.0134909
753.765	0.0134063
753.843	0.0133601
753.921	0.0133599
753.999	0.0132635
754.078	0.0134980
754.156	0.0134963
754.234	0.0133372
754.312	0.0133851
754.390	0.0133196
754.468	0.0133324
754.546	0.0134405
754.624	0.0134373
754.703	0.0133745
754.781	0.0134196
754.859	0.0132868
754.937	0.0133038
755.015	0.0133653
755.093	0.0133484
755.171	0.0132160
755.249	0.0132214
755.328	0.0132077
755.406	0.0133052
755.484	0.0134434
755.562	0.0133418
755.640	0.0132677
755.718	0.0134417
755.796	0.0133840
755.874	0.0133831
755.953	0.0133892
756.031	0.0133553
756.109	0.0132479
756.187	0.0132659
756.265	0.0132967
756.343	0.0131863
756.421	0.0131212
756.499	0.0132038
756.578	0.0130567
756.656	0.0130723
756.734	0.0129980
756.812	0.0128302
756.890	0.0129491
756.968	0.0130296
757.046	0.0129771
757.124	0.0129578
757.203	0.0130537
757.281	0.0128837
757.359	0.0130820
757.437	0.0130977
757.515	0.0130390
757.593	0.0130973
757.671	0.0130943
757.749	0.0130354
757.828	0.0131576
757.906	0.0131648
757.984	0.0130112
758.062	0.0131275
758.140	0.0131843
758.218	0.0131815
758.296	0.0131825
758.374	0.0131207
758.453	0.0132614
758.531	0.0132871
758.609	0.0132881
758.687	0.0133943
758.765	0.0133561
758.843	0.0131959
758.921	0.0131161
758.999	0.0131944
759.078	0.0133936
759.156	0.0133150
759.234	0.0132973
759.312	0.0133338
759.390	0.0134250
759.468	0.0133662
759.546	0.0133703
759.624	0.0132839
759.703	0.0132076
759.781	0.0133325
759.859	0.0133063
759.937	0.0132063
760.015	0.0133643
760.093	0.0132152
760.171	0.0130138
760.249	0.0129964
760.328	0.0130616
760.406	0.0130147
760.484	0.0131329
760.562	0.0130850
760.640	0.0131854
760.718	0.0131229
760.796	0.0130842
760.874	0.0130755
760.953	0.0130956
761.031	0.0132659
761.109	0.0133693
761.187	0.0131646
761.265	0.0132922
761.343	0.0133828
761.421	0.0133941
761.499	0.0133883
761.578	0.0132883
761.656	0.0133953
761.734	0.0132702
761.812	0.0131715
761.890	0.0133184
761.968	0.0134046
762.046	0.0132365
762.124	0.0132944
762.203	0.0133432
762.281	0.0133926
762.359	0.0132729
762.437	0.0133253
762.515	0.0133763
762.593	0.0132664
762.671	0.0132639
762.749	0.0133650
762.828	0.0133703
762.906	0.0132331
762.984	0.0130698
763.062	0.0131590
763.140	0.0132607
763.218	0.0132675
763.296	0.0132957
763.374	0.0132802
763.453	0.0131467
763.531	0.0133334
763.609	0.0131023
763.687	0.0130765
763.765	0.0132967
763.843	0.0132832
763.921	0.0132513
763.999	0.0131916
764.078	0.0131849
764.156	0.0131492
764.234	0.0130521
764.312	0.0131698
764.390	0.0131236
764.468	0.0132918
764.546	0.0130540
764.624	0.0129985
764.703	0.0130653
764.781	0.0131220
764.859	0.0129562
764.937	0.0130456
765.015	0.0132028
765.093	0.0129633
765.171	0.0129816
765.249	0.0130313
765.328	0.0130402
765.406	0.0128667
765.484	0.0129084
765.562	0.0129028
765.640	0.0129484
765.718	0.0131012
765.796	0.0129890
765.874	0.0130544
765.953	0.0131032
766.031	0.0131581
766.109	0.0131367
766.187	0.0130415
766.265	0.0131992
766.343	0.0131984
766.421	0.0131893
766.499	0.0131443
766.578	0.0133221
766.656	0.0133710
766.734	0.0132983
766.812	0.0133636
766.890	0.0134093
766.968	0.0133501
767.046	0.0133682
767.124	0.0133402
767.203	0.0134821
767.281	0.0134795
767.359	0.0133822
767.437	0.0134012
767.515	0.0132522
767.593	0.0133904
767.671	0.0134730
767.749	0.0134007
767.828	0.0133329
767.906	0.0133455
767.984	0.0133799
768.062	0.0133286
768.140	0.0131933
768.218	0.0132588
768.296	0.0132259
768.374	0.0132232
768.453	0.0130840
768.531	0.0132936
768.609	0.0133484
768.687	0.0131848
768.765	0.0134110
768.843	0.0132442
768.921	0.0132668
768.999	0.0132635
769.078	0.0133066
769.156	0.0133706
769.234	0.0132462
769.312	0.0133211
769.390	0.0132207
769.468	0.0131956
769.546	0.0132528
769.624	0.0132336
769.703	0.0132026
769.781	0.0131100
769.859	0.0130622
769.937	0.0129893
770.015	0.0130088
770.093	0.0130229
770.171	0.0129477
770.249	0.0129317
770.328	0.0130579
770.406	0.0130862
770.484	0.0129607
770.562	0.0128953
770.640	0.0130508
770.718	0.0129759
770.796	0.0130894
770.874	0.0130701
770.953	0.0130374
771.031	0.0129626
771.109	0.0129679
771.187	0.0129388
771.265	0.0128172
771.343	0.0130437
771.421	0.0129571
771.499	0.0130630
771.578	0.0130034
771.656	0.0131766
771.734	0.0131841
771.812	0.0130453
771.890	0.0131653
771.968	0.0134083
772.046	0.0132465
772.124	0.0130981
772.203	0.0132854
772.281	0.0132372
772.359	0.0133363
772.437	0.0134581
772.515	0.0134694
772.593	0.0134905
772.671	0.0136497
772.749	0.0135764
772.828	0.0137006
772.906	0.0136957
772.984	0.0136726
773.062	0.0136618
773.140	0.0137193
773.218	0.0137669
773.296	0.0136243
773.374	0.0137414
773.453	0.0138170
773.531	0.0136772
773.609	0.0137376
773.687	0.0136483
773.765	0.0136182
773.843	0.0135901
773.921	0.0134622
773.999	0.0135619
774.078	0.0135822
774.156	0.0136137
774.234	0.0137064
774.312	0.0135281
774.390	0.0133537
774.468	0.0134039
774.546	0.0132995
774.624	0.0132320
774.703	0.0129420
774.781	0.0131113
774.859	0.0132479
774.937	0.0128604
775.015	0.0128582
775.093	0.0130264
775.171	0.0129063
775.249	0.0129010
775.328	0.0128519
775.406	0.0128371
775.484	0.0127451
775.562	0.0128057
775.640	0.0128206
775.718	0.0127670
775.796	0.0128021
775.874	0.0127809
775.953	0.0128519
776.031	0.0130520
776.109	0.0128898
776.187	0.0128526
776.265	0.0128329
776.343	0.0130620
776.421	0.0131094
776.499	0.0130249
776.578	0.0131071
776.656	0.0131182
776.734	0.0132800
776.812	0.0130688
776.890	0.0133740
776.968	0.0134221
777.046	0.0133062
777.124	0.0135188
777.203	0.0134903
777.281	0.0134431
777.359	0.0135906
777.437	0.0135933
777.515	0.0136285
777.593	0.0136138
777.671	0.0134703
777.749	0.0135405
777.828	0.0134753
777.906	0.0136983
777.984	0.0136291
778.062	0.0136318
778.140	0.0135224
778.218	0.0135000
778.296	0.0136741
778.374	0.0135038
778.453	0.0134306
778.531	0.0133503
778.609	0.0132463
778.687	0.0132178
778.765	0.0131405
778.843	0.0131226
778.921	0.0130460
778.999	0.0131645
779.078	0.0130064
779.156	0.0131207
779.234	0.0130436
779.312	0.0131013
779.390	0.0131721
779.468	0.0131789
779.546	0.0133257
779.624	0.0132128
779.703	0.0132220
779.781	0.0133215
779.859	0.0132975
779.937	0.0132937
780.015	0.0133407
780.093	0.0133904
780.171	0.0133234
780.249	0.0131065
780.328	0.0132430
780.406	0.0133353
780.484	0.0133854
780.562	0.0133998
780.640	0.0133323
780.718	0.0132638
780.796	0.0132320
780.874	0.0131900
780.953	0.0132205
781.031	0.0130502
781.109	0.0131805
781.187	0.0130364
781.265	0.0130904
781.343	0.0132090
781.421	0.0130464
781.499	0.0130223
781.578	0.0130431
781.656	0.0129052
781.734	0.0130350
781.812	0.0130355
781.890	0.0129433
781.968	0.0129443
782.046	0.0129613
782.124	0.0129468
782.203	0.0130139
782.281	0.0129435
782.359	0.0131060
782.437	0.0129700
782.515	0.0130302
782.593	0.0132508
782.671	0.0131524
782.749	0.0132058
782.828	0.0133141
782.906	0.0132391
782.984	0.0134412
783.062	0.0134479
783.140	0.0135510
783.218	0.0134563
783.296	0.0135874
783.374	0.0135680
783.453	0.0137479
783.531	0.0136353
783.609	0.0135954
783.687	0.0136947
783.765	0.0138272
783.843	0.0136298
783.921	0.0136076
783.999	0.0135747
784.078	0.0135268
784.156	0.0136074
784.234	0.0134300
784.312	0.0133633
784.390	0.0135734
784.468	0.0133912
784.546	0.0133272
784.624	0.0135766
784.703	0.0133099
784.781	0.0133418
784.859	0.0133324
784.937	0.0134104
785.015	0.0133273
785.093	0.0134140
785.171	0.0135666
785.249	0.0134755
785.328	0.0134365
785.406	0.0135037
785.484	0.0135974
785.562	0.0136401
785.640	0.0135091
785.718	0.0134094
785.796	0.0134080
785.874	0.0133006
785.953	0.0133913
786.031	0.0132872
786.109	0.0132939
786.187	0.0132566
786.265	0.0130119
786.343	0.0130493
786.421	0.0130221
786.499	0.0130682
786.578	0.0129411
786.656	0.0128529
786.734	0.0128499
786.812	0.0128925
786.890	0.0129169
786.968	0.0128156
787.046	0.0128432
787.124	0.0127519
787.203	0.0128203
787.281	0.0129856
787.359	0.0128306
787.437	0.0129432
787.515	0.0131387
787.593	0.0131243
787.671	0.0130159
787.749	0.0131885
787.828	0.0132861
787.906	0.0133097
787.984	0.0132448
788.062	0.0133287
788.140	0.0133252
788.218	0.0132492
788.296	0.0132914
788.374	0.0133553
788.453	0.0133392
788.531	0.0133037
788.609	0.0133729
788.687	0.0133394
788.765	0.0135095
788.843	0.0133652
788.921	0.0133885
788.999	0.0134906
789.078	0.0135120
789.156	0.0134315
789.234	0.0134311
789.312	0.0134084
789.390	0.0136045
789.468	0.0135416
789.546	0.0136348
789.624	0.0135165
789.703	0.0136728
789.781	0.0137252
789.859	0.0136431
789.937	0.0134890
790.015	0.0134753
790.093	0.0134736
790.171	0.0134486
790.249	0.0134822
790.328	0.0133792
790.406	0.0135541
790.484	0.0133827
790.562	0.0131720
790.640	0.0132432
790.718	0.0131224
790.796	0.0130242
790.874	0.0130751
790.953	0.0130878
791.031	0.0129158
791.109	0.0129937
791.187	0.0129771
791.265	0.0129264
791.343	0.0130534
791.421	0.0131088
791.499	0.0130784
791.578	0.0129748
791.656	0.0131116
791.734	0.0131488
791.812	0.0131055
791.890	0.0131591
791.968	0.0131464
792.046	0.0132190
792.124	0.0132925
792.203	0.0131345
792.281	0.0132536
792.359	0.0131216
792.437	0.0131528
792.515	0.0131684
792.593	0.0131370
792.671	0.0130768
792.749	0.0130735
792.828	0.0131396
792.906	0.0129945
792.984	0.0131112
793.062	0.0128007
793.140	0.0128270
793.218	0.0130707
793.296	0.0129304
793.374	0.0128789
793.453	0.0128413
793.531	0.0131380
793.609	0.0130067
793.687	0.0130584
793.765	0.0131998
793.843	0.0131437
793.921	0.0131104
793.999	0.0132488
794.078	0.0134721
794.156	0.0134944
794.234	0.0135588
794.312	0.0136785
794.390	0.0135555
794.468	0.0136992
794.546	0.0137624
794.624	0.0138630
794.703	0.0138877
794.781	0.0138635
794.859	0.0137829
794.937	0.0138611
795.015	0.0137627
795.093	0.0139065
795.171	0.0138654
795.249	0.0137038
795.328	0.0137382
795.406	0.0136239
795.484	0.0134679
795.562	0.0134777
795.640	0.0134124
795.718	0.0134206
795.796	0.0133416
795.874	0.0134696
795.953	0.0133717
796.031	0.0132621
796.109	0.0132625
796.187	0.0133120
796.265	0.0132706
796.343	0.0130765
796.421	0.0131094
796.499	0.0132087
796.578	0.0131612
796.656	0.0131260
796.734	0.0133081
796.812	0.0131497
796.890	0.0131572
796.968	0.0132618
797.046	0.0131116
797.124	0.0132957
797.203	0.0131795
797.281	0.0132266
797.359	0.0133929
797.437	0.0134003
797.515	0.0134862
797.593	0.0135403
797.671	0.0134732
797.749	0.0133535
797.828	0.0135453
797.906	0.0134553
797.984	0.0133693
798.062	0.0132695
798.140	0.0134216
798.218	0.0132017
798.296	0.0132678
798.374	0.0131698
798.453	0.0131438
798.531	0.0129865
798.609	0.0131090
798.687	0.0129663
798.765	0.0131340
798.843	0.0131551
798.921	0.0130719
798.999	0.0131558
799.078	0.0131736
799.156	0.0133116
799.234	0.0132726
799.312	0.0134726
799.390	0.0134311
799.468	0.0134335
799.546	0.0134842
799.624	0.0135184
799.703	0.0134438
799.781	0.0135728
799.859	0.0135890
799.937	0.0136053
800.015	0.0135329
800.093	0.0134510
800.171	0.0134731
800.249	0.0133343
800.328	0.0133279
800.406	0.0132896
800.484	0.0131483
800.562	0.0132668
800.640	0.0131330
800.718	0.0132951
800.796	0.0132777
800.874	0.0131407
800.953	0.0131598
801.031	0.0131823
801.109	0.0131499
801.187	0.0131552
801.265	0.0131084
801.343	0.0130585
801.421	0.0131097
801.499	0.0130021
801.578	0.0130238
801.656	0.0129480
801.734	0.0127994
801.812	0.0130090
801.890	0.0131195
801.968	0.0128585
802.046	0.0128947
802.124	0.0130032
802.203	0.0130486
802.281	0.0129650
802.359	0.0131369
802.437	0.0130062
802.515	0.0131220
802.593	0.0131003
802.671	0.0133663
802.749	0.0132942
802.828	0.0132495
802.906	0.0134466
802.984	0.0133871
803.062	0.0133601
803.140	0.0134576
803.218	0.0135281
803.296	0.0135256
803.374	0.0135055
803.453	0.0133913
803.531	0.0135500
803.609	0.0133642
803.687	0.0134663
803.765	0.0134071
803.843	0.0132700
803.921	0.0132980
803.999	0.0133131
804.078	0.0132397
804.156	0.0133032
804.234	0.0132112
804.312	0.0130926
804.390	0.0131273
804.468	0.0130085
804.546	0.0130493
804.624	0.0129999
804.703	0.0129250
804.781	0.0130088
804.859	0.0128553
804.937	0.0129089
805.015	0.0127618
805.093	0.0128373
805.171	0.0129620
805.249	0.0129288
805.328	0.0129105
805.406	0.0128013
805.484	0.0128878
805.562	0.0128493
805.640	0.0129448
805.718	0.0130016
805.796	0.0129742
805.874	0.0130564
805.953	0.0131498
806.031	0.0132346
806.109	0.0132425
806.187	0.0131327
806.265	0.0131823
806.343	0.0131993
806.421	0.0132455
806.499	0.0134182
806.578	0.0133334
806.656	0.0134351
806.734	0.0134220
806.812	0.0134457
806.890	0.0132221
806.968	0.0134264
807.046	0.0133443
807.124	0.0132433
807.203	0.0132722
807.281	0.0132932
807.359	0.0133101
807.437	0.0133141
807.515	0.0132394
807.593	0.0131731
807.671	0.0132814
807.749	0.0132825
807.828	0.0133669
807.906	0.0133237
807.984	0.0133459
808.062	0.0134217
808.140	0.0133825
808.218	0.0133395
808.296	0.0133477
808.374	0.0133559
808.453	0.0132667
808.531	0.0133515
808.609	0.0131905
808.687	0.0132670
808.765	0.0133038
808.843	0.0133766
808.921	0.0132488
808.999	0.0133099
809.078	0.0131917
809.156	0.0133522
809.234	0.0134087
809.312	0.0134100
809.390	0.0135506
809.468	0.0135133
809.546	0.0133824
809.624	0.0135792
809.703	0.0135394
809.781	0.0135281
809.859	0.0135564
809.937	0.0135011
810.015	0.0135946
810.093	0.0136770
810.171	0.0134122
810.249	0.0132955
810.328	0.0133126
810.406	0.0134019
810.484	0.0133114
810.562	0.0132344
810.640	0.0132213
810.718	0.0132138
810.796	0.0133690
810.874	0.0131818
810.953	0.0131602
811.031	0.0134136
811.109	0.0132483
811.187	0.0131181
811.265	0.0132063
811.343	0.0131952
811.421	0.0132273
811.499	0.0130530
811.578	0.0132214
811.656	0.0133171
811.734	0.0131306
811.812	0.0131879
811.890	0.0133611
811.968	0.0132082
812.046	0.0131763
812.124	0.0132454
812.203	0.0133114
812.281	0.0132262
812.359	0.0132700
812.437	0.0131287
812.515	0.0133657
812.593	0.0132295
812.671	0.0130546
812.749	0.0132384
812.828	0.0133962
812.906	0.0132455
812.984	0.0132835
813.062	0.0132954
813.140	0.0133191
813.218	0.0132661
813.296	0.0134173
813.374	0.0134891
813.453	0.0133163
813.531	0.0133670
813.609	0.0134183
813.687	0.0134796
813.765	0.0134975
813.843	0.0133766
813.921	0.0134159
813.999	0.0134911
814.078	0.0135724
814.156	0.0134131
814.234	0.0136537
814.312	0.0135294
814.390	0.0134680
814.468	0.0136252
814.546	0.0136017
814.624	0.0135690
814.703	0.0134779
814.781	0.0135052
814.859	0.0136539
814.937	0.0135222
815.015	0.0136469
815.093	0.0134913
815.171	0.0134969
815.249	0.0136272
815.328	0.0135812
815.406	0.0134229
815.484	0.0134145
815.562	0.0134537
815.640	0.0133500
815.718	0.0133643
815.796	0.0132772
815.874	0.0133603
815.953	0.0133392
816.031	0.0132597
816.109	0.0131738
816.187	0.0133104
816.265	0.0133250
816.343	0.0132677
816.421	0.0131059
816.499	0.0131227
816.578	0.0132961
816.656	0.0131891
816.734	0.0131760
816.812	0.0132441
816.890	0.0132125
816.968	0.0131380
817.046	0.0131685
817.124	0.0132420
817.203	0.0131149
817.281	0.0131643
817.359	0.0131355
817.437	0.0132539
817.515	0.0133167
817.593	0.0132416
817.671	0.0132327
817.749	0.0132609
817.828	0.0131780
817.906	0.0132269
817.984	0.0132333
818.062	0.0133125
818.140	0.0134213
818.218	0.0135148
818.296	0.0134838
818.374	0.0135275
818.453	0.0134972
818.531	0.0134615
818.609	0.0137231
818.687	0.0136289
818.765	0.0136010
818.843	0.0135652
818.921	0.0136037
818.999	0.0135297
819.078	0.0136016
819.156	0.0134422
819.234	0.0133172
819.312	0.0133011
819.390	0.0133855
819.468	0.0132371
819.546	0.0132703
819.624	0.0131600
819.703	0.0131750
819.781	0.0130111
819.859	0.0130078
819.937	0.0130656
820.015	0.0130700
820.093	0.0132417
820.171	0.0130508
820.249	0.0129935
820.328	0.0130910
820.406	0.0131286
820.484	0.0132027
820.562	0.0131348
820.640	0.0130765
820.718	0.0131388
820.796	0.0131383
820.874	0.0130348
820.953	0.0131201
821.031	0.0132095
821.109	0.0130629
821.187	0.0130213
821.265	0.0130837
821.343	0.0132411
821.421	0.0131226
821.499	0.0132274
821.578	0.0130798
821.656	0.0132172
821.734	0.0132194
821.812	0.0131722
821.890	0.0132803
821.968	0.0131464
822.046	0.0132309
822.124	0.0132618
822.203	0.0132866
822.281	0.0132372
822.359	0.0134136
822.437	0.0133268
822.515	0.0131609
822.593	0.0132719
822.671	0.0130226
822.749	0.0132269
822.828	0.0131858
822.906	0.0131011
822.984	0.0129616
823.062	0.0130839
823.140	0.0129413
823.218	0.0129625
823.296	0.0131673
823.374	0.0128843
823.453	0.0130471
823.531	0.0130750
823.609	0.0129358
823.687	0.0132631
823.765	0.0132030
823.843	0.0132600
823.921	0.0132246
823.999	0.0130302
824.078	0.0130526
824.156	0.0130555
824.234	0.0131878
824.312	0.0131775
824.390	0.0130695
824.468	0.0130681
824.546	0.0129238
824.624	0.0131340
824.703	0.0131382
824.781	0.0130347
824.859	0.0133083
824.937	0.0132529
825.015	0.0132922
825.093	0.0131812
825.171	0.0132442
825.249	0.0134270
825.328	0.0133049
825.406	0.0133711
825.484	0.0132838
825.562	0.0132482
825.640	0.0132669
825.718	0.0133249
825.796	0.0131837
825.874	0.0132484
825.953	0.0132572
826.031	0.0132243
826.109	0.0133889
826.187	0.0131406
826.265	0.0133582
826.343	0.0131552
826.421	0.0131793
826.499	0.0132302
826.578	0.0132440
826.656	0.0131066
826.734	0.0130894
826.812	0.0130959
826.890	0.0131359
826.968	0.0130723
827.046	0.0130811
827.124	0.0130573
827.203	0.0129671
827.281	0.0129627
827.359	0.0130318
827.437	0.0132236
827.515	0.0129592
827.593	0.0131080
827.671	0.0131140
827.749	0.0131091
827.828	0.0130634
827.906	0.0130042
827.984	0.0130899
828.062	0.0131234
828.140	0.0130977
828.218	0.0130989
828.296	0.0131691
828.374	0.0132188
828.453	0.0130635
828.531	0.0131845
828.609	0.0132969
828.687	0.0131915
828.765	0.0132987
828.843	0.0133503
828.921	0.0133221
828.999	0.0133497
829.078	0.0132534
829.156	0.0134013
829.234	0.0131506
829.312	0.0131962
829.390	0.0133651
829.468	0.0132508
829.546	0.0132721
829.624	0.0132466
829.703	0.0132877
829.781	0.0132076
829.859	0.0131811
829.937	0.0131047
830.015	0.0132233
830.093	0.0132133
830.171	0.0131902
830.249	0.0131836
830.328	0.0130959
830.406	0.0130952
830.484	0.0130837
830.562	0.0131187
830.640	0.0131319
830.718	0.0131338
830.796	0.0131922
830.874	0.0131987
830.953	0.0132204
831.031	0.0131598
831.109	0.0132636
831.187	0.0132574
831.265	0.0131699
831.343	0.0132719
831.421	0.0133617
831.499	0.0132270
831.578	0.0133121
831.656	0.0134377
831.734	0.0133401
831.812	0.0131872
831.890	0.0133325
831.968	0.0133018
832.046	0.0133945
832.124	0.0131738
832.203	0.0132889
832.281	0.0133133
832.359	0.0132767
832.437	0.0132759
832.515	0.0133394
832.593	0.0133396
832.671	0.0133858
832.749	0.0133181
832.828	0.0134890
832.906	0.0133829
832.984	0.0133039
833.062	0.0133740
833.140	0.0135132
833.218	0.0134879
833.296	0.0134589
833.374	0.0133706
833.453	0.0134279
833.531	0.0135014
833.609	0.0134219
833.687	0.0133068
833.765	0.0135003
833.843	0.0134354
833.921	0.0134326
833.999	0.0134252
834.078	0.0134789
834.156	0.0135325
834.234	0.0135366
834.312	0.0134521
834.390	0.0133476
834.468	0.0132552
834.546	0.0134008
834.624	0.0133894
834.703	0.0132307
834.781	0.0132367
834.859	0.0131313
834.937	0.0131062
835.015	0.0131947
835.093	0.0130791
835.171	0.0130508
835.249	0.0131026
835.328	0.0130308
835.406	0.0130629
835.484	0.0130148
835.562	0.0132150
835.640	0.0131563
835.718	0.0131581
835.796	0.0131489
835.874	0.0132251
835.953	0.0131890
836.031	0.0131399
836.109	0.0134006
836.187	0.0133265
836.265	0.0132884
836.343	0.0134045
836.421	0.0134058
836.499	0.0132677
836.578	0.0133011
836.656	0.0134126
836.734	0.0132608
836.812	0.0131582
836.890	0.0133263
836.968	0.0131775
837.046	0.0133495
837.124	0.0134037
837.203	0.0132590
837.281	0.0133954
837.359	0.0134378
837.437	0.0133475
837.515	0.0133812
837.593	0.0132154
837.671	0.0134468
837.749	0.0135848
837.828	0.0134638
837.906	0.0134763
837.984	0.0135897
838.062	0.0134978
838.140	0.0133559
838.218	0.0134703
838.296	0.0135469
838.374	0.0135674
838.453	0.0134204
838.531	0.0133980
838.609	0.0135206
838.687	0.0135906
838.765	0.0136330
838.843	0.0133949
838.921	0.0133900
838.999	0.0133771
839.078	0.0135493
839.156	0.0132259
839.234	0.0133352
839.312	0.0133668
839.390	0.0133813
839.468	0.0133813
839.546	0.0132465
839.624	0.0132198
839.703	0.0132631
839.781	0.0132357
839.859	0.0132954
839.937	0.0132499
840.015	0.0132874
840.093	0.0131777
840.171	0.0132214
840.249	0.0134061
840.328	0.0133305
840.406	0.0133753
840.484	0.0133696
840.562	0.0135329
840.640	0.0134530
840.718	0.0135011
840.796	0.0134169
840.874	0.0135895
840.953	0.0135161
841.031	0.0134985
841.109	0.0135732
841.187	0.0135137
841.265	0.0134498
841.343	0.0135674
841.421	0.0137249
841.499	0.0135572
841.578	0.0134092
841.656	0.0135806
841.734	0.0133586
841.812	0.0132484
841.890	0.0134765
841.968	0.0134125
842.046	0.0133149
842.124	0.0133318
842.203	0.0131743
842.281	0.0131720
842.359	0.0131394
842.437	0.0131596
842.515	0.0130246
842.593	0.0130238
842.671	0.0130209
842.749	0.0131670
842.828	0.0132012
842.906	0.0132085
842.984	0.0130247
843.062	0.0131485
843.140	0.0133282
843.218	0.0133902
843.296	0.0132202
843.374	0.0131911
843.453	0.0132681
843.531	0.0133051
843.609	0.0133063
843.687	0.0133135
843.765	0.0132560
843.843	0.0132623
843.921	0.0132810
843.999	0.0132435
844.078	0.0131686
844.156	0.0133547
844.234	0.0132757
844.312	0.0133389
844.390	0.0133019
844.468	0.0132674
844.546	0.0131301
844.624	0.0131956
844.703	0.0132350
844.781	0.0131057
844.859	0.0131198
844.937	0.0132010
845.015	0.0132340
845.093	0.0130588
845.171	0.0130853
845.249	0.0131069
845.328	0.0130869
845.406	0.0130833
845.484	0.0129306
845.562	0.0128812
845.640	0.0131146
845.718	0.0132047
845.796	0.0130414
845.874	0.0131193
845.953	0.0129563
846.031	0.0132355
846.109	0.0131824
846.187	0.0130135
846.265	0.0131696
846.343	0.0130938
846.421	0.0132602
846.499	0.0133858
846.578	0.0132758
846.656	0.0133145
846.734	0.0133918
846.812	0.0134161
846.890	0.0133199
846.968	0.0134106
847.046	0.0133512
847.124	0.0134157
847.203	0.0133215
847.281	0.0132259
847.359	0.0130883
847.437	0.0131796
847.515	0.0130797
847.593	0.0131972
847.671	0.0131294
847.749	0.0131219
847.828	0.0129680
847.906	0.0129850
847.984	0.0129197
848.062	0.0129725
848.140	0.0130877
848.218	0.0129922
848.296	0.0130931
848.374	0.0130403
848.453	0.0132375
848.531	0.0131123
848.609	0.0131319
848.687	0.0131418
848.765	0.0133096
848.843	0.0133398
848.921	0.0132072
848.999	0.0133502
849.078	0.0134314
849.156	0.0135281
849.234	0.0134232
849.312	0.0132990
849.390	0.0133622
849.468	0.0133326
849.546	0.0133433
849.624	0.0132539
849.703	0.0133185
849.781	0.0133363
849.859	0.0133307
849.937	0.0131934
850.015	0.0132564
850.093	0.0132085
850.171	0.0132709
850.249	0.0130783
850.328	0.0131987
850.406	0.0132472
850.484	0.0132641
850.562	0.0130671
850.640	0.0131970
850.718	0.0130766
850.796	0.0131194
850.874	0.0131889
850.953	0.0132070
851.031	0.0130721
851.109	0.0132124
851.187	0.0131907
851.265	0.0131201
851.343	0.0131936
851.421	0.0131766
851.499	0.0132451
851.578	0.0133565
851.656	0.0132687
851.734	0.0133849
851.812	0.0133701
851.890	0.0132861
851.968	0.0134573
852.046	0.0134065
852.124	0.0134503
852.203	0.0134254
852.281	0.0135044
852.359	0.0135407
852.437	0.0134808
852.515	0.0134056
852.593	0.0135681
852.671	0.0135668
852.749	0.0135032
852.828	0.0135418
852.906	0.0134371
852.984	0.0135747
853.062	0.0135226
853.140	0.0133860
853.218	0.0134057
853.296	0.0134518
853.374	0.0134966
853.453	0.0134386
853.531	0.0133993
853.609	0.0134652
853.687	0.0132495
853.765	0.0133466
853.843	0.0133440
853.921	0.0132931
853.999	0.0132075
854.078	0.0132399
854.156	0.0130005
854.234	0.0131324
854.312	0.0131975
854.390	0.0131284
854.468	0.0130094
854.546	0.0132045
854.624	0.0130708
854.703	0.0130424
854.781	0.0129884
854.859	0.0129460
854.937	0.0130521
855.015	0.0131280
855.093	0.0129849
855.171	0.0129913
855.249	0.0130733
855.328	0.0129776
855.406	0.0130428
855.484	0.0129334
855.562	0.0129546
855.640	0.0130814
855.718	0.0130466
855.796	0.0130442
855.874	0.0131239
855.953	0.0131641
856.031	0.0129836
856.109	0.0130678
856.187	0.0131445
856.265	0.0131103
856.343	0.0132169
856.421	0.0131324
856.499	0.0132411
856.578	0.0132143
856.656	0.0130405
856.734	0.0132861
856.812	0.0130846
856.890	0.0132593
856.968	0.0132243
857.046	0.0133312
857.124	0.0132899
857.203	0.0132231
857.281	0.0133717
857.359	0.0133427
857.437	0.0133730
857.515	0.0134003
857.593	0.0133686
857.671	0.0134280
857.749	0.0134151
857.828	0.0133573
857.906	0.0133521
857.984	0.0133378
858.062	0.0132775
858.140	0.0133463
858.218	0.0132951
858.296	0.0132948
858.374	0.0133831
858.453	0.0132537
858.531	0.0131512
858.609	0.0131563
858.687	0.0131026
858.765	0.0131281
858.843	0.0130286
858.921	0.0130515
858.999	0.0130836
859.078	0.0130477
859.156	0.0130083
859.234	0.0130056
859.312	0.0131010
859.390	0.0131069
859.468	0.0129945
859.546	0.0130291
859.624	0.0131348
859.703	0.0129993
859.781	0.0131619
859.859	0.0131222
859.937	0.0130780
860.015	0.0131871
860.093	0.0130692
860.171	0.0131858
860.249	0.0130786
860.328	0.0130138
860.406	0.0130234
860.484	0.0128802
860.562	0.0129929
860.640	0.0130550
860.718	0.0131282
860.796	0.0130457
860.874	0.0129159
860.953	0.0130206
861.031	0.0130695
861.109	0.0129516
861.187	0.0130666
861.265	0.0129955
861.343	0.0130255
861.421	0.0130441
861.499	0.0128553
861.578	0.0130772
861.656	0.0128996
861.734	0.0129704
861.812	0.0131144
861.890	0.0131871
861.968	0.0130843
862.046	0.0130211
862.124	0.0130864
862.203	0.0132346
862.281	0.0133501
862.359	0.0132771
862.437	0.0130634
862.515	0.0132530
862.593	0.0134054
862.671	0.0133572
862.749	0.0132616
862.828	0.0132667
862.906	0.0133273
862.984	0.0132459
863.062	0.0134338
863.140	0.0135969
863.218	0.0133404
863.296	0.0133437
863.374	0.0133854
863.453	0.0132969
863.531	0.0134927
863.609	0.0133894
863.687	0.0131511
863.765	0.0132321
863.843	0.0132154
863.921	0.0132906
863.999	0.0132074
864.078	0.0133056
864.156	0.0133199
864.234	0.0132336
864.312	0.0132885
864.390	0.0133510
864.468	0.0133558
864.546	0.0133120
864.624	0.0132617
864.703	0.0134038
864.781	0.0130955
864.859	0.0132095
864.937	0.0132185
865.015	0.0132574
865.093	0.0131551
865.171	0.0131989
865.249	0.0131593
865.328	0.0130720
865.406	0.0130817
865.484	0.0131413
865.562	0.0131495
865.640	0.0130802
865.718	0.0130727
865.796	0.0130546
865.874	0.0130145
865.953	0.0130910
866.031	0.0131477
866.109	0.0129782
866.187	0.0129706
866.265	0.0129639
866.343	0.0128209
866.421	0.0128882
866.499	0.0129935
866.578	0.0129322
866.656	0.0129546
866.734	0.0129652
866.812	0.0130750
866.890	0.0130658
866.968	0.0130999
867.046	0.0131648
867.124	0.0130452
867.203	0.0132101
867.281	0.0133182
867.359	0.0132797
867.437	0.0131106
867.515	0.0132750
867.593	0.0131946
867.671	0.0132071
867.749	0.0131329
867.828	0.0130154
867.906	0.0132071
867.984	0.0132980
868.062	0.0131651
868.140	0.0131697
868.218	0.0131573
868.296	0.0132649
868.374	0.0131776
868.453	0.0132320
868.531	0.0131200
868.609	0.0130442
868.687	0.0132122
868.765	0.0133177
868.843	0.0134664
868.921	0.0133561
868.999	0.0132763
869.078	0.0132455
869.156	0.0133303
869.234	0.0133563
869.312	0.0133874
869.390	0.0133539
869.468	0.0132908
869.546	0.0132042
869.624	0.0132204
869.703	0.0133403
869.781	0.0133179
869.859	0.0132578
869.937	0.0132324
870.015	0.0131638
870.093	0.0130761
870.171	0.0130903
870.249	0.0131483
870.328	0.0131068
870.406	0.0130945
870.484	0.0131108
870.562	0.0132000
870.640	0.0129896
870.718	0.0132469
870.796	0.0131425
870.874	0.0133263
870.953	0.0132195
871.031	0.0132907
871.109	0.0132180
871.187	0.0132761
871.265	0.0132338
871.343	0.0132945
871.421	0.0133347
871.499	0.0131580
871.578	0.0133438
871.656	0.0133241
871.734	0.0133731
871.812	0.0133640
871.890	0.0133025
871.968	0.0133905
872.046	0.0132022
872.124	0.0134270
872.203	0.0132457
872.281	0.0132494
872.359	0.0132935
872.437	0.0132499
872.515	0.0132207
872.593	0.0133572
872.671	0.0133167
872.749	0.0132265
872.828	0.0133990
872.906	0.0133128
872.984	0.0131866
873.062	0.0132146
873.140	0.0132385
873.218	0.0132939
873.296	0.0132084
873.374	0.0131685
873.453	0.0132916
873.531	0.0131527
873.609	0.0132853
873.687	0.0133196
873.765	0.0131927
873.843	0.0132513
873.921	0.0132850
873.999	0.0133109
874.078	0.0132369
874.156	0.0134304
874.234	0.0133318
874.312	0.0133839
874.390	0.0134391
874.468	0.0134612
874.546	0.0134264
874.624	0.0134393
874.703	0.0133613
874.781	0.0134166
874.859	0.0133469
874.937	0.0133659
875.015	0.0134789
875.093	0.0134954
875.171	0.0132696
875.249	0.0133347
875.328	0.0134376
875.406	0.0134526
875.484	0.0132808
875.562	0.0134013
875.640	0.0135863
875.718	0.0134351
875.796	0.0134008
875.874	0.0134622
875.953	0.0133683
876.031	0.0135870
876.109	0.0135856
876.187	0.0135281
876.265	0.0135349
876.343	0.0135397
876.421	0.0136422
876.499	0.0135618
876.578	0.0135542
876.656	0.0135448
876.734	0.0135361
876.812	0.0134743
876.890	0.0136021
876.968	0.0136311
877.046	0.0134655
877.124	0.0134958
877.203	0.0133997
877.281	0.0133678
877.359	0.0135631
877.437	0.0135456
877.515	0.0135934
877.593	0.0135461
877.671	0.0135352
877.749	0.0134857
877.828	0.0133749
877.906	0.0132903
877.984	0.0133211
878.062	0.0134016
878.140	0.0134835
878.218	0.0132800
878.296	0.0133040
878.374	0.0132648
878.453	0.0133364
878.531	0.0132584
878.609	0.0132194
878.687	0.0132581
878.765	0.0130431
878.843	0.0131818
878.921	0.0131750
878.999	0.0131238
879.078	0.0130863
879.156	0.0131305
879.234	0.0130687
879.312	0.0129492
879.390	0.0130775
879.468	0.0131709
879.546	0.0130653
879.624	0.0131796
879.703	0.0130827
879.781	0.0130653
879.859	0.0131492
879.937	0.0130151
880.015	0.0128994
880.093	0.0129081
880.171	0.0129303
880.249	0.0131044
880.328	0.0129273
880.406	0.0128374
880.484	0.0128074
880.562	0.0129082
880.640	0.0130378
880.718	0.0129861
880.796	0.0129402
880.874	0.0129400
880.953	0.0129443
881.031	0.0130036
881.109	0.0130310
881.187	0.0131565
881.265	0.0130344
881.343	0.0130114
881.421	0.0132142
881.499	0.0131184
881.578	0.0130685
881.656	0.0131118
881.734	0.0131455
881.812	0.0132278
881.890	0.0132483
881.968	0.0131693
882.046	0.0132463
882.124	0.0132319
882.203	0.0131818
882.281	0.0131995
882.359	0.0132021
882.437	0.0132512
882.515	0.0132224
882.593	0.0132378
882.671	0.0132452
882.749	0.0132625
882.828	0.0131953
882.906	0.0132004
882.984	0.0130830
883.062	0.0131624
883.140	0.0132711
883.218	0.0130127
883.296	0.0131189
883.374	0.0130992
883.453	0.0132227
883.531	0.0130643
883.609	0.0129353
883.687	0.0130701
883.765	0.0130173
883.843	0.0130436
883.921	0.0129812
883.999	0.0131486
884.078	0.0131428
884.156	0.0130485
884.234	0.0130649
884.312	0.0131602
884.390	0.0130706
884.468	0.0131126
884.546	0.0131751
884.624	0.0131859
884.703	0.0131728
884.781	0.0132418
884.859	0.0131892
884.937	0.0130949
885.015	0.0130764
885.093	0.0131480
885.171	0.0131693
885.249	0.0132701
885.328	0.0131390
885.406	0.0130949
885.484	0.0131967
885.562	0.0131967
885.640	0.0133534
885.718	0.0133175
885.796	0.0132526
885.874	0.0131633
885.953	0.0132848
886.031	0.0131937
886.109	0.0132040
886.187	0.0131918
886.265	0.0132331
886.343	0.0131098
886.421	0.0130563
886.499	0.0130775
886.578	0.0130503
886.656	0.0130421
886.734	0.0131744
886.812	0.0130806
886.890	0.0132374
886.968	0.0130740
887.046	0.0131204
887.124	0.0132194
887.203	0.0131094
887.281	0.0132656
887.359	0.0131581
887.437	0.0133247
887.515	0.0131020
887.593	0.0131863
887.671	0.0132120
887.749	0.0132388
887.828	0.0132449
887.906	0.0132334
887.984	0.0132071
888.062	0.0132226
888.140	0.0132984
888.218	0.0132103
888.296	0.0133191
888.374	0.0133328
888.453	0.0132932
888.531	0.0133132
888.609	0.0131570
888.687	0.0132694
888.765	0.0133593
888.843	0.0132562
888.921	0.0132030
888.999	0.0131236
889.078	0.0131738
889.156	0.0131255
889.234	0.0130338
889.312	0.0131714
889.390	0.0133686
889.468	0.0131994
889.546	0.0132660
889.624	0.0132439
889.703	0.0132321
889.781	0.0132053
889.859	0.0133245
889.937	0.0134132
890.015	0.0134669
890.093	0.0135335
890.171	0.0133933
890.249	0.0133482
890.328	0.0134453
890.406	0.0135095
890.484	0.0134498
890.562	0.0134999
890.640	0.0136628
890.718	0.0133932
890.796	0.0133799
890.874	0.0134135
890.953	0.0134155
891.031	0.0134567
891.109	0.0134570
891.187	0.0134138
891.265	0.0133650
891.343	0.0134754
891.421	0.0134402
891.499	0.0133746
891.578	0.0134698
891.656	0.0132861
891.734	0.0134035
891.812	0.0133885
891.890	0.0133194
891.968	0.0133241
892.046	0.0132713
892.124	0.0132697
892.203	0.0132329
892.281	0.0131316
892.359	0.0131036
892.437	0.0130514
892.515	0.0131051
892.593	0.0131579
892.671	0.0131108
892.749	0.0130784
892.828	0.0131460
892.906	0.0131986
892.984	0.0130418
893.062	0.0132120
893.140	0.0132397
893.218	0.0130753
893.296	0.0132182
893.374	0.0131291
893.453	0.0132695
893.531	0.0133449
893.609	0.0132845
893.687	0.0132980
893.765	0.0134504
893.843	0.0133680
893.921	0.0133157
893.999	0.0132772
894.078	0.0132586
894.156	0.0133007
894.234	0.0132972
894.312	0.0132716
894.390	0.0134064
894.468	0.0132256
894.546	0.0132060
894.624	0.0133263
894.703	0.0133074
894.781	0.0132256
894.859	0.0132926
894.937	0.0132742
895.015	0.0132111
895.093	0.0133356
895.171	0.0131784
895.249	0.0131963
895.328	0.0133327
895.406	0.0131979
895.484	0.0132572
895.562	0.0132185
895.640	0.0132333
895.718	0.0134151
895.796	0.0133259
895.874	0.0133418
895.953	0.0133665
896.031	0.0134495
896.109	0.0134029
896.187	0.0133831
896.265	0.0135178
896.343	0.0133630
896.421	0.0135473
896.499	0.0134148
896.578	0.0134517
896.656	0.0135645
896.734	0.0135030
896.812	0.0135375
896.890	0.0134825
896.968	0.0134476
897.046	0.0136153
897.124	0.0134380
897.203	0.0133586
897.281	0.0135399
897.359	0.0135519
897.437	0.0135841
897.515	0.0134340
897.593	0.0134521
897.671	0.0134737
897.749	0.0134416
897.828	0.0135217
897.906	0.0134495
897.984	0.0134498
898.062	0.0134685
898.140	0.0134346
898.218	0.0133730
898.296	0.0133038
898.374	0.0132522
898.453	0.0133779
898.531	0.0134321
898.609	0.0133821
898.687	0.0132333
898.765	0.0132550
898.843	0.0132512
898.921	0.0132379
898.999	0.0133285
899.078	0.0132751
899.156	0.0132721
899.234	0.0132053
899.312	0.0131380
899.390	0.0131445
899.468	0.0132455
899.546	0.0132343
899.624	0.0129528
899.703	0.0131059
899.781	0.0132015
899.859	0.0131947
899.937	0.0131879
900.015	0.0131927
900.093	0.0131374
900.171	0.0132076
900.249	0.0132883
900.328	0.0133175
900.406	0.0132540
900.484	0.0131816
900.562	0.0133120
900.640	0.0132005
900.718	0.0132352
900.796	0.0133987
900.874	0.0132192
900.953	0.0133939
901.031	0.0133598
901.109	0.0134333
901.187	0.0132777
901.265	0.0132908
901.343	0.0132715
901.421	0.0133412
901.499	0.0133380
901.578	0.0133979
901.656	0.0134628
901.734	0.0132085
901.812	0.0133826
901.890	0.0134326
901.968	0.0134859
902.046	0.0134978
902.124	0.0134088
902.203	0.0133447
902.281	0.0133887
902.359	0.0134760
902.437	0.0134913
902.515	0.0133716
902.593	0.0134212
902.671	0.0132591
902.749	0.0133347
902.828	0.0132925
902.906	0.0133540
902.984	0.0132430
903.062	0.0132655
903.140	0.0132745
903.218	0.0133427
903.296	0.0132716
903.374	0.0132888
903.453	0.0131604
903.531	0.0132676
903.609	0.0131796
903.687	0.0132704
903.765	0.0130626
903.843	0.0132482
903.921	0.0131551
903.999	0.0132321
904.078	0.0132062
904.156	0.0132881
904.234	0.0132211
904.312	0.0132278
904.390	0.0131642
904.468	0.0132419
904.546	0.0133690
904.624	0.0132925
904.703	0.0133813
904.781	0.0133667
904.859	0.0135003
904.937	0.0132951
905.015	0.0134331
905.093	0.0133186
905.171	0.0135211
905.249	0.0134459
905.328	0.0133066
905.406	0.0135098
905.484	0.0133351
905.562	0.0134467
905.640	0.0134290
905.718	0.0133934
905.796	0.0134573
905.874	0.0132943
905.953	0.0132674
906.031	0.0131881
906.109	0.0132970
906.187	0.0132778
906.265	0.0131779
906.343	0.0133485
906.421	0.0133179
906.499	0.0133408
906.578	0.0132274
906.656	0.0133292
906.734	0.0130171
906.812	0.0130695
906.890	0.0131561
906.968	0.0131747
907.046	0.0131330
907.124	0.0132008
907.203	0.0130921
907.281	0.0131669
907.359	0.0131039
907.437	0.0131378
907.515	0.0130353
907.593	0.0130358
907.671	0.0130752
907.749	0.0130007
907.828	0.0130138
907.906	0.0130598
907.984	0.0129622
908.062	0.0129173
908.140	0.0131099
908.218	0.0130939
908.296	0.0130621
908.374	0.0129330
908.453	0.0130540
908.531	0.0130706
908.609	0.0132330
908.687	0.0131981
908.765	0.0131827
908.843	0.0132533
908.921	0.0132502
908.999	0.0132643
909.078	0.0133105
909.156	0.0133492
909.234	0.0132706
909.312	0.0133091
909.390	0.0133595
909.468	0.0134886
909.546	0.0134787
909.624	0.0134244
909.703	0.0134321
909.781	0.0134827
909.859	0.0134509
909.937	0.0133761
910.015	0.0134573
910.093	0.0134475
910.171	0.0134454
910.249	0.0135955
910.328	0.0134597
910.406	0.0133022
910.484	0.0135320
910.562	0.0134166
910.640	0.0133231
910.718	0.0133952
910.796	0.0134441
910.874	0.0132686
910.953	0.0133040
911.031	0.0133160
911.109	0.0132195
911.187	0.0132288
911.265	0.0133120
911.343	0.0131882
911.421	0.0132059
911.499	0.0132171
911.578	0.0131618
911.656	0.0130801
911.734	0.0131848
911.812	0.0130192
911.890	0.0131149
911.968	0.0131910
912.046	0.0130708
912.124	0.0131523
912.203	0.0131922
912.281	0.0130502
912.359	0.0130652
912.437	0.0131655
912.515	0.0131017
912.593	0.0132218
912.671	0.0132350
912.749	0.0133007
912.828	0.0133329
912.906	0.0132764
912.984	0.0134045
913.062	0.0133860
913.140	0.0133968
913.218	0.0133269
913.296	0.0133889
913.374	0.0133678
913.453	0.0133267
913.531	0.0133043
913.609	0.0133905
913.687	0.0133156
913.765	0.0133531
913.843	0.0134007
913.921	0.0134167
913.999	0.0134492
914.078	0.0133156
914.156	0.0134371
914.234	0.0134917
914.312	0.0133192
914.390	0.0134782
914.468	0.0132121
914.546	0.0133536
914.624	0.0133831
914.703	0.0132362
914.781	0.0132945
914.859	0.0134218
914.937	0.0133321
915.015	0.0132905
915.093	0.0133917
915.171	0.0133302
915.249	0.0133351
915.328	0.0133967
915.406	0.0132247
915.484	0.0133501
915.562	0.0134122
915.640	0.0133399
915.718	0.0131879
915.796	0.0130999
915.874	0.0133395
915.953	0.0133433
916.031	0.0131176
916.109	0.0131839
916.187	0.0133852
916.265	0.0132920
916.343	0.0132251
916.421	0.0131957
916.499	0.0132523
916.578	0.0131625
916.656	0.0133515
916.734	0.0132941
916.812	0.0130720
916.890	0.0131841
916.968	0.0131079
917.046	0.0131533
917.124	0.0131239
917.203	0.0131748
917.281	0.0132504
917.359	0.0132362
917.437	0.0131302
917.515	0.0132341
917.593	0.0132513
917.671	0.0132016
917.749	0.0133498
917.828	0.0132716
917.906	0.0132175
917.984	0.0131871
918.062	0.0133297
918.140	0.0133626
918.218	0.0134032
918.296	0.0132067
918.374	0.0132803
918.453	0.0133931
918.531	0.0134294
918.609	0.0131958
918.687	0.0132507
918.765	0.0132756
918.843	0.0133770
918.921	0.0133167
918.999	0.0133831
919.078	0.0135126
919.156	0.0133241
919.234	0.0134461
919.312	0.0134008
919.390	0.0134001
919.468	0.0133701
919.546	0.0131919
919.624	0.0134834
919.703	0.0133211
919.781	0.0133767
919.859	0.0134146
919.937	0.0133106
