05/08/2022	20:15:27	Ver.	4.1	UNKNOWN
Optical Delay	600.015094	Delta X		0.078125	Sweeps	1	Scan Rate	0/0
Coordinates	Axis 1	NaN	Axis 2	NaN	Axis 3	NaN	Axis 4	NaN	Axis 5	NaN	Axis 6	0.000000
TX Power	0.000000	RX Power	0.000000

600.015	0.0138931
600.093	0.0140482
600.171	0.0140562
600.249	0.0139307
600.328	0.0139420
600.406	0.0138994
600.484	0.0140660
600.562	0.0141822
600.640	0.0140836
600.718	0.0140289
600.796	0.0140716
600.874	0.0140304
600.953	0.0140898
601.031	0.0139500
601.109	0.0140997
601.187	0.0139423
601.265	0.0140295
601.343	0.0141245
601.421	0.0141611
601.499	0.0141255
601.578	0.0140726
601.656	0.0141199
601.734	0.0140711
601.812	0.0140218
601.890	0.0142139
601.968	0.0141376
602.046	0.0141037
602.124	0.0141113
602.203	0.0142548
602.281	0.0142326
602.359	0.0141955
602.437	0.0141267
602.515	0.0141096
602.593	0.0140512
602.671	0.0141475
602.749	0.0142071
602.828	0.0142192
602.906	0.0141112
602.984	0.0140812
603.062	0.0143421
603.140	0.0140867
603.218	0.0141067
603.296	0.0141491
603.374	0.0142231
603.453	0.0141754
603.531	0.0141100
603.609	0.0141071
603.687	0.0141323
603.765	0.0140247
603.843	0.0142079
603.921	0.0140834
603.999	0.0140697
604.078	0.0141740
604.156	0.0139478
604.234	0.0139355
604.312	0.0141363
604.390	0.0141130
604.468	0.0139555
604.546	0.0140061
604.624	0.0140052
604.703	0.0138871
604.781	0.0140244
604.859	0.0139617
604.937	0.0140951
605.015	0.0139899
605.093	0.0138596
605.171	0.0140556
605.249	0.0139391
605.328	0.0139143
605.406	0.0140614
605.484	0.0141696
605.562	0.0139096
605.640	0.0140150
605.718	0.0139819
605.796	0.0139623
605.874	0.0138787
605.953	0.0138902
606.031	0.0138473
606.109	0.0139464
606.187	0.0138322
606.265	0.0140410
606.343	0.0139891
606.421	0.0139442
606.499	0.0139408
606.578	0.0139331
606.656	0.0139892
606.734	0.0139317
606.812	0.0138923
606.890	0.0140189
606.968	0.0138377
607.046	0.0138836
607.124	0.0139134
607.203	0.0137694
607.281	0.0139540
607.359	0.0140046
607.437	0.0138857
607.515	0.0138618
607.593	0.0138625
607.671	0.0137841
607.749	0.0139146
607.828	0.0139301
607.906	0.0137402
607.984	0.0139366
608.062	0.0138570
608.140	0.0139443
608.218	0.0138392
608.296	0.0138779
608.374	0.0138387
608.453	0.0139113
608.531	0.0137544
608.609	0.0138641
608.687	0.0138380
608.765	0.0138871
608.843	0.0139034
608.921	0.0138683
608.999	0.0137742
609.078	0.0139584
609.156	0.0138499
609.234	0.0137856
609.312	0.0138699
609.390	0.0137441
609.468	0.0136562
609.546	0.0138679
609.624	0.0137527
609.703	0.0137335
609.781	0.0139503
609.859	0.0139546
609.937	0.0138748
610.015	0.0138179
610.093	0.0139335
610.171	0.0140405
610.249	0.0137767
610.328	0.0138004
610.406	0.0138640
610.484	0.0139165
610.562	0.0138384
610.640	0.0139067
610.718	0.0138719
610.796	0.0137439
610.874	0.0138171
610.953	0.0137145
611.031	0.0137986
611.109	0.0138331
611.187	0.0138710
611.265	0.0138970
611.343	0.0139746
611.421	0.0139815
611.499	0.0138274
611.578	0.0139581
611.656	0.0139117
611.734	0.0139330
611.812	0.0139237
611.890	0.0138432
611.968	0.0140270
612.046	0.0139336
612.124	0.0138212
612.203	0.0139440
612.281	0.0141193
612.359	0.0139198
612.437	0.0138113
612.515	0.0139080
612.593	0.0139156
612.671	0.0139077
612.749	0.0138893
612.828	0.0137776
612.906	0.0139494
612.984	0.0139272
613.062	0.0138806
613.140	0.0139257
613.218	0.0139982
613.296	0.0139040
613.374	0.0138731
613.453	0.0139510
613.531	0.0139529
613.609	0.0140568
613.687	0.0138920
613.765	0.0139014
613.843	0.0139003
613.921	0.0140584
613.999	0.0140777
614.078	0.0139264
614.156	0.0139496
614.234	0.0139252
614.312	0.0138633
614.390	0.0139595
614.468	0.0139013
614.546	0.0138057
614.624	0.0139857
614.703	0.0138732
614.781	0.0138293
614.859	0.0138030
614.937	0.0138752
615.015	0.0139487
615.093	0.0139305
615.171	0.0138651
615.249	0.0138497
615.328	0.0139381
615.406	0.0138096
615.484	0.0139634
615.562	0.0138008
615.640	0.0138970
615.718	0.0140002
615.796	0.0139325
615.874	0.0138634
615.953	0.0139413
616.031	0.0140593
616.109	0.0138351
616.187	0.0138263
616.265	0.0138651
616.343	0.0139319
616.421	0.0140952
616.499	0.0139401
616.578	0.0139467
616.656	0.0140265
616.734	0.0140442
616.812	0.0140214
616.890	0.0137415
616.968	0.0139699
617.046	0.0140221
617.124	0.0139285
617.203	0.0140085
617.281	0.0139876
617.359	0.0138663
617.437	0.0139443
617.515	0.0139094
617.593	0.0140224
617.671	0.0139960
617.749	0.0138277
617.828	0.0138475
617.906	0.0140546
617.984	0.0139235
618.062	0.0138731
618.140	0.0138745
618.218	0.0138746
618.296	0.0137788
618.374	0.0138101
618.453	0.0138717
618.531	0.0138398
618.609	0.0138656
618.687	0.0139696
618.765	0.0138598
618.843	0.0140370
618.921	0.0138055
618.999	0.0139555
619.078	0.0138997
619.156	0.0138692
619.234	0.0138290
619.312	0.0138457
619.390	0.0136855
619.468	0.0139075
619.546	0.0139893
619.624	0.0138486
619.703	0.0137370
619.781	0.0139037
619.859	0.0139651
619.937	0.0137894
620.015	0.0138078
620.093	0.0137876
620.171	0.0137289
620.249	0.0139698
620.328	0.0137869
620.406	0.0137792
620.484	0.0137521
620.562	0.0137438
620.640	0.0138936
620.718	0.0138397
620.796	0.0138627
620.874	0.0138247
620.953	0.0139232
621.031	0.0138219
621.109	0.0138156
621.187	0.0139368
621.265	0.0139987
621.343	0.0139497
621.421	0.0138905
621.499	0.0138802
621.578	0.0138153
621.656	0.0139557
621.734	0.0139063
621.812	0.0139780
621.890	0.0140260
621.968	0.0140365
622.046	0.0140877
622.124	0.0139915
622.203	0.0140644
622.281	0.0141266
622.359	0.0140443
622.437	0.0139719
622.515	0.0141140
622.593	0.0141296
622.671	0.0141061
622.749	0.0141042
622.828	0.0141032
622.906	0.0142833
622.984	0.0141422
623.062	0.0141199
623.140	0.0140910
623.218	0.0142410
623.296	0.0143070
623.374	0.0143003
623.453	0.0142793
623.531	0.0141377
623.609	0.0140955
623.687	0.0140153
623.765	0.0141831
623.843	0.0140794
623.921	0.0141372
623.999	0.0139724
624.078	0.0140649
624.156	0.0142474
624.234	0.0140216
624.312	0.0141743
624.390	0.0141065
624.468	0.0140204
624.546	0.0141019
624.624	0.0141388
624.703	0.0141270
624.781	0.0140239
624.859	0.0142242
624.937	0.0140795
625.015	0.0139371
625.093	0.0140376
625.171	0.0139919
625.249	0.0141272
625.328	0.0139783
625.406	0.0140997
625.484	0.0139634
625.562	0.0139151
625.640	0.0138741
625.718	0.0138168
625.796	0.0139095
625.874	0.0140543
625.953	0.0138541
626.031	0.0139005
626.109	0.0140587
626.187	0.0140387
626.265	0.0139066
626.343	0.0138435
626.421	0.0137772
626.499	0.0140169
626.578	0.0138809
626.656	0.0139549
626.734	0.0139704
626.812	0.0139191
626.890	0.0138493
626.968	0.0140471
627.046	0.0139204
627.124	0.0139591
627.203	0.0139069
627.281	0.0139141
627.359	0.0139022
627.437	0.0140879
627.515	0.0141530
627.593	0.0140923
627.671	0.0142199
627.749	0.0140996
627.828	0.0141096
627.906	0.0140244
627.984	0.0138926
628.062	0.0140022
628.140	0.0141370
628.218	0.0141123
628.296	0.0142308
628.374	0.0140340
628.453	0.0140592
628.531	0.0140973
628.609	0.0140042
628.687	0.0140259
628.765	0.0140187
628.843	0.0140466
628.921	0.0140635
628.999	0.0139841
629.078	0.0139758
629.156	0.0141056
629.234	0.0139607
629.312	0.0139855
629.390	0.0140709
629.468	0.0140036
629.546	0.0139422
629.624	0.0140047
629.703	0.0139273
629.781	0.0139565
629.859	0.0139225
629.937	0.0138811
630.015	0.0138682
630.093	0.0139487
630.171	0.0139066
630.249	0.0139006
630.328	0.0139517
630.406	0.0138582
630.484	0.0137736
630.562	0.0139094
630.640	0.0138297
630.718	0.0137730
630.796	0.0137370
630.874	0.0139306
630.953	0.0139490
631.031	0.0137756
631.109	0.0139537
631.187	0.0139112
631.265	0.0138457
631.343	0.0138795
631.421	0.0140177
631.499	0.0140687
631.578	0.0138663
631.656	0.0138963
631.734	0.0139372
631.812	0.0138593
631.890	0.0139168
631.968	0.0139610
632.046	0.0140562
632.124	0.0138237
632.203	0.0138451
632.281	0.0139392
632.359	0.0139199
632.437	0.0139884
632.515	0.0139525
632.593	0.0139163
632.671	0.0139184
632.749	0.0139437
632.828	0.0139395
632.906	0.0138486
632.984	0.0140949
633.062	0.0139365
633.140	0.0141062
633.218	0.0139137
633.296	0.0139912
633.374	0.0140469
633.453	0.0139257
633.531	0.0139888
633.609	0.0138857
633.687	0.0138743
633.765	0.0140075
633.843	0.0140395
633.921	0.0139111
633.999	0.0139931
634.078	0.0139829
634.156	0.0139326
634.234	0.0139547
634.312	0.0140224
634.390	0.0139668
634.468	0.0139252
634.546	0.0139455
634.624	0.0139789
634.703	0.0140268
634.781	0.0140288
634.859	0.0140736
634.937	0.0139130
635.015	0.0139473
635.093	0.0140018
635.171	0.0139523
635.249	0.0139085
635.328	0.0139407
635.406	0.0138951
635.484	0.0140134
635.562	0.0138342
635.640	0.0140128
635.718	0.0138509
635.796	0.0139729
635.874	0.0140039
635.953	0.0139793
636.031	0.0140041
636.109	0.0138578
636.187	0.0139771
636.265	0.0139529
636.343	0.0138739
636.421	0.0138851
636.499	0.0139907
636.578	0.0138966
636.656	0.0138848
636.734	0.0138554
636.812	0.0139824
636.890	0.0138483
636.968	0.0139687
637.046	0.0139141
637.124	0.0137864
637.203	0.0136934
637.281	0.0138686
637.359	0.0138635
637.437	0.0137508
637.515	0.0136521
637.593	0.0139352
637.671	0.0139291
637.749	0.0138053
637.828	0.0138280
637.906	0.0138219
637.984	0.0138429
638.062	0.0139314
638.140	0.0140274
638.218	0.0138519
638.296	0.0139331
638.374	0.0139218
638.453	0.0137672
638.531	0.0138605
638.609	0.0138300
638.687	0.0138564
638.765	0.0138858
638.843	0.0138560
638.921	0.0138174
638.999	0.0137445
639.078	0.0137826
639.156	0.0137908
639.234	0.0138035
639.312	0.0137381
639.390	0.0138436
639.468	0.0138635
639.546	0.0138232
639.624	0.0138595
639.703	0.0138335
639.781	0.0138850
639.859	0.0139989
639.937	0.0140350
640.015	0.0138922
640.093	0.0139282
640.171	0.0140037
640.249	0.0138697
640.328	0.0138857
640.406	0.0139114
640.484	0.0138361
640.562	0.0139325
640.640	0.0140081
640.718	0.0139821
640.796	0.0139564
640.874	0.0139537
640.953	0.0139993
641.031	0.0140389
641.109	0.0139882
641.187	0.0139928
641.265	0.0140905
641.343	0.0139709
641.421	0.0140063
641.499	0.0138590
641.578	0.0138757
641.656	0.0137749
641.734	0.0137956
641.812	0.0136208
641.890	0.0136018
641.968	0.0137242
642.046	0.0136859
642.124	0.0137148
642.203	0.0136707
642.281	0.0137012
642.359	0.0136800
642.437	0.0138188
642.515	0.0138471
642.593	0.0138213
642.671	0.0140089
642.749	0.0139700
642.828	0.0141724
642.906	0.0141814
642.984	0.0144315
643.062	0.0144811
643.140	0.0142466
643.218	0.0143167
643.296	0.0142986
643.374	0.0144072
643.453	0.0144273
643.531	0.0143900
643.609	0.0143821
643.687	0.0142719
643.765	0.0143363
643.843	0.0142233
643.921	0.0142745
643.999	0.0142293
644.078	0.0141222
644.156	0.0140273
644.234	0.0139866
644.312	0.0138376
644.390	0.0138477
644.468	0.0137574
644.546	0.0136221
644.624	0.0136298
644.703	0.0134808
644.781	0.0133034
644.859	0.0134550
644.937	0.0135014
645.015	0.0135884
645.093	0.0137433
645.171	0.0137513
645.249	0.0139327
645.328	0.0140610
645.406	0.0141263
645.484	0.0142000
645.562	0.0143277
645.640	0.0142400
645.718	0.0145411
645.796	0.0146838
645.874	0.0145727
645.953	0.0146555
646.031	0.0147057
646.109	0.0147134
646.187	0.0145789
646.265	0.0148318
646.343	0.0147012
646.421	0.0147841
646.499	0.0147746
646.578	0.0148820
646.656	0.0148060
646.734	0.0145972
646.812	0.0146735
646.890	0.0144900
646.968	0.0143022
647.046	0.0142127
647.124	0.0139178
647.203	0.0137628
647.281	0.0135596
647.359	0.0134577
647.437	0.0134461
647.515	0.0133797
647.593	0.0130444
647.671	0.0130350
647.749	0.0131927
647.828	0.0131561
647.906	0.0131017
647.984	0.0131488
648.062	0.0133366
648.140	0.0135036
648.218	0.0135934
648.296	0.0139375
648.374	0.0140346
648.453	0.0140462
648.531	0.0143014
648.609	0.0143988
648.687	0.0146534
648.765	0.0147393
648.843	0.0147527
648.921	0.0148867
648.999	0.0150551
649.078	0.0150927
649.156	0.0149819
649.234	0.0149801
649.312	0.0150690
649.390	0.0148627
649.468	0.0148339
649.546	0.0144977
649.624	0.0143064
649.703	0.0142431
649.781	0.0140707
649.859	0.0138210
649.937	0.0136562
650.015	0.0133231
650.093	0.0131895
650.171	0.0129415
650.249	0.0128527
650.328	0.0126926
650.406	0.0126534
650.484	0.0124486
650.562	0.0123949
650.640	0.0123611
650.718	0.0124808
650.796	0.0126047
650.874	0.0126584
650.953	0.0128413
651.031	0.0132217
651.109	0.0134006
651.187	0.0135764
651.265	0.0137001
651.343	0.0141244
651.421	0.0143372
651.499	0.0146069
651.578	0.0147910
651.656	0.0149438
651.734	0.0152140
651.812	0.0154347
651.890	0.0153892
651.968	0.0156466
652.046	0.0157230
652.124	0.0157247
652.203	0.0155573
652.281	0.0157906
652.359	0.0157991
652.437	0.0155562
652.515	0.0156202
652.593	0.0152780
652.671	0.0150174
652.749	0.0147849
652.828	0.0144211
652.906	0.0143363
652.984	0.0141226
653.062	0.0137135
653.140	0.0134949
653.218	0.0132697
653.296	0.0131517
653.374	0.0127561
653.453	0.0125539
653.531	0.0126727
653.609	0.0125093
653.687	0.0124848
653.765	0.0125431
653.843	0.0126616
653.921	0.0128123
653.999	0.0127230
654.078	0.0128657
654.156	0.0130084
654.234	0.0131799
654.312	0.0134624
654.390	0.0136626
654.468	0.0137809
654.546	0.0138162
654.624	0.0140018
654.703	0.0140915
654.781	0.0142595
654.859	0.0143973
654.937	0.0147377
655.015	0.0146971
655.093	0.0147433
655.171	0.0147752
655.249	0.0149188
655.328	0.0149380
655.406	0.0148376
655.484	0.0148785
655.562	0.0148183
655.640	0.0148582
655.718	0.0148866
655.796	0.0147064
655.874	0.0145521
655.953	0.0144331
656.031	0.0142699
656.109	0.0142768
656.187	0.0140762
656.265	0.0138984
656.343	0.0137196
656.421	0.0138320
656.499	0.0135285
656.578	0.0135867
656.656	0.0136697
656.734	0.0136375
656.812	0.0135616
656.890	0.0137775
656.968	0.0138441
657.046	0.0139965
657.124	0.0140990
657.203	0.0142193
657.281	0.0142829
657.359	0.0144307
657.437	0.0145058
657.515	0.0147038
657.593	0.0147810
657.671	0.0147325
657.749	0.0149630
657.828	0.0150610
657.906	0.0149514
657.984	0.0150133
658.062	0.0149671
658.140	0.0149239
658.218	0.0148858
658.296	0.0147049
658.374	0.0144030
658.453	0.0141135
658.531	0.0140266
658.609	0.0136256
658.687	0.0133131
658.765	0.0130528
658.843	0.0127849
658.921	0.0123776
658.999	0.0122163
659.078	0.0121391
659.156	0.0118689
659.234	0.0116785
659.312	0.0118157
659.390	0.0117366
659.468	0.0118475
659.546	0.0120365
659.624	0.0121438
659.703	0.0123554
659.781	0.0126338
659.859	0.0130177
659.937	0.0133115
660.015	0.0135459
660.093	0.0139223
660.171	0.0142519
660.249	0.0144804
660.328	0.0149480
660.406	0.0152046
660.484	0.0153001
660.562	0.0156924
660.640	0.0159691
660.718	0.0159795
660.796	0.0160556
660.874	0.0162771
660.953	0.0162215
661.031	0.0161935
661.109	0.0160906
661.187	0.0159976
661.265	0.0157507
661.343	0.0155603
661.421	0.0154172
661.499	0.0151968
661.578	0.0148693
661.656	0.0144972
661.734	0.0141726
661.812	0.0139952
661.890	0.0136339
661.968	0.0134805
662.046	0.0132356
662.124	0.0130658
662.203	0.0128323
662.281	0.0128045
662.359	0.0125777
662.437	0.0125667
662.515	0.0126197
662.593	0.0125726
662.671	0.0125215
662.749	0.0126176
662.828	0.0126876
662.906	0.0128347
662.984	0.0128569
663.062	0.0129568
663.140	0.0129320
663.218	0.0129714
663.296	0.0129069
663.374	0.0128607
663.453	0.0129962
663.531	0.0129267
663.609	0.0129575
663.687	0.0131631
663.765	0.0130197
663.843	0.0130648
663.921	0.0130727
663.999	0.0129631
664.078	0.0129962
664.156	0.0129963
664.234	0.0130290
664.312	0.0129430
664.390	0.0131554
664.468	0.0132830
664.546	0.0133646
664.624	0.0134052
664.703	0.0136832
664.781	0.0140488
664.859	0.0141700
664.937	0.0144861
665.015	0.0147775
665.093	0.0150137
665.171	0.0152893
665.249	0.0156622
665.328	0.0158287
665.406	0.0159217
665.484	0.0162083
665.562	0.0162256
665.640	0.0162467
665.718	0.0161607
665.796	0.0161492
665.874	0.0158870
665.953	0.0157984
666.031	0.0158726
666.109	0.0156509
666.187	0.0155294
666.265	0.0154659
666.343	0.0152480
666.421	0.0150505
666.499	0.0150088
666.578	0.0148114
666.656	0.0144871
666.734	0.0142011
666.812	0.0139252
666.890	0.0137280
666.968	0.0135052
667.046	0.0129520
667.124	0.0126754
667.203	0.0125038
667.281	0.0122815
667.359	0.0120469
667.437	0.0119035
667.515	0.0119534
667.593	0.0117517
667.671	0.0117113
667.749	0.0116969
667.828	0.0119271
667.906	0.0117769
667.984	0.0119785
668.062	0.0119911
668.140	0.0121140
668.218	0.0121254
668.296	0.0123545
668.374	0.0124658
668.453	0.0125723
668.531	0.0126202
668.609	0.0128289
668.687	0.0130647
668.765	0.0131280
668.843	0.0132882
668.921	0.0136389
668.999	0.0135703
669.078	0.0136452
669.156	0.0138132
669.234	0.0139603
669.312	0.0140177
669.390	0.0139484
669.468	0.0140517
669.546	0.0143102
669.624	0.0142324
669.703	0.0145609
669.781	0.0145058
669.859	0.0147229
669.937	0.0149865
670.015	0.0149583
670.093	0.0151222
670.171	0.0154933
670.249	0.0153876
670.328	0.0154500
670.406	0.0157649
670.484	0.0157721
670.562	0.0159801
670.640	0.0158447
670.718	0.0159802
670.796	0.0158747
670.874	0.0160017
670.953	0.0158810
671.031	0.0157688
671.109	0.0157803
671.187	0.0156535
671.265	0.0154462
671.343	0.0151473
671.421	0.0151437
671.499	0.0149419
671.578	0.0147658
671.656	0.0145194
671.734	0.0142695
671.812	0.0142168
671.890	0.0138762
671.968	0.0137480
672.046	0.0135141
672.124	0.0134160
672.203	0.0131741
672.281	0.0128041
672.359	0.0127283
672.437	0.0125808
672.515	0.0124190
672.593	0.0124185
672.671	0.0122020
672.749	0.0121303
672.828	0.0119019
672.906	0.0119072
672.984	0.0118829
673.062	0.0118937
673.140	0.0120524
673.218	0.0120780
673.296	0.0119390
673.374	0.0120611
673.453	0.0121124
673.531	0.0122383
673.609	0.0124026
673.687	0.0124987
673.765	0.0125648
673.843	0.0126556
673.921	0.0129485
673.999	0.0129779
674.078	0.0129993
674.156	0.0132750
674.234	0.0134578
674.312	0.0136027
674.390	0.0137699
674.468	0.0139732
674.546	0.0140691
674.624	0.0143109
674.703	0.0145196
674.781	0.0147973
674.859	0.0151038
674.937	0.0152046
675.015	0.0154327
675.093	0.0156531
675.171	0.0158241
675.249	0.0157642
675.328	0.0160543
675.406	0.0163146
675.484	0.0162112
675.562	0.0161799
675.640	0.0162540
675.718	0.0163417
675.796	0.0163708
675.874	0.0161830
675.953	0.0163120
676.031	0.0163937
676.109	0.0163825
676.187	0.0163587
676.265	0.0164364
676.343	0.0162230
676.421	0.0162482
676.499	0.0162328
676.578	0.0159347
676.656	0.0159267
676.734	0.0156199
676.812	0.0153278
676.890	0.0150872
676.968	0.0146941
677.046	0.0143126
677.124	0.0138947
677.203	0.0135383
677.281	0.0132169
677.359	0.0125632
677.437	0.0122356
677.515	0.0119818
677.593	0.0116174
677.671	0.0113602
677.749	0.0112128
677.828	0.0111653
677.906	0.0108173
677.984	0.0108349
678.062	0.0107378
678.140	0.0107241
678.218	0.0107078
678.296	0.0108254
678.374	0.0108562
678.453	0.0111706
678.531	0.0113401
678.609	0.0115589
678.687	0.0117033
678.765	0.0119596
678.843	0.0122899
678.921	0.0124225
678.999	0.0128055
679.078	0.0128310
679.156	0.0132423
679.234	0.0135303
679.312	0.0138269
679.390	0.0140811
679.468	0.0143700
679.546	0.0147135
679.624	0.0150240
679.703	0.0153473
679.781	0.0156492
679.859	0.0157089
679.937	0.0159567
680.015	0.0160847
680.093	0.0163874
680.171	0.0164104
680.249	0.0164603
680.328	0.0164973
680.406	0.0165510
680.484	0.0166543
680.562	0.0163350
680.640	0.0161871
680.718	0.0161926
680.796	0.0159461
680.874	0.0159437
680.953	0.0156614
681.031	0.0155553
681.109	0.0154620
681.187	0.0153703
681.265	0.0153001
681.343	0.0151065
681.421	0.0152232
681.499	0.0151671
681.578	0.0151132
681.656	0.0150558
681.734	0.0148122
681.812	0.0147626
681.890	0.0146655
681.968	0.0145477
682.046	0.0141898
682.124	0.0140720
682.203	0.0137105
682.281	0.0137157
682.359	0.0133051
682.437	0.0131512
682.515	0.0129559
682.593	0.0127030
682.671	0.0124561
682.749	0.0123189
682.828	0.0122927
682.906	0.0120540
682.984	0.0119418
683.062	0.0119183
683.140	0.0116750
683.218	0.0115806
683.296	0.0115936
683.374	0.0117208
683.453	0.0117441
683.531	0.0117736
683.609	0.0118758
683.687	0.0121819
683.765	0.0122921
683.843	0.0124209
683.921	0.0129102
683.999	0.0130796
684.078	0.0131063
684.156	0.0133889
684.234	0.0137193
684.312	0.0138405
684.390	0.0140190
684.468	0.0142098
684.546	0.0143728
684.624	0.0144665
684.703	0.0147450
684.781	0.0147279
684.859	0.0148857
684.937	0.0148635
685.015	0.0150539
685.093	0.0152084
685.171	0.0151849
685.249	0.0150227
685.328	0.0150747
685.406	0.0149160
685.484	0.0149341
685.562	0.0148490
685.640	0.0147359
685.718	0.0148000
685.796	0.0145316
685.874	0.0146305
685.953	0.0144733
686.031	0.0144633
686.109	0.0143719
686.187	0.0143458
686.265	0.0143948
686.343	0.0143404
686.421	0.0144349
686.499	0.0143586
686.578	0.0143364
686.656	0.0144585
686.734	0.0144449
686.812	0.0143555
686.890	0.0144910
686.968	0.0144160
687.046	0.0144214
687.124	0.0144523
687.203	0.0144394
687.281	0.0145008
687.359	0.0144460
687.437	0.0143962
687.515	0.0145973
687.593	0.0144401
687.671	0.0144118
687.749	0.0144344
687.828	0.0141988
687.906	0.0141812
687.984	0.0140041
688.062	0.0139333
688.140	0.0138067
688.218	0.0137256
688.296	0.0136024
688.374	0.0136243
688.453	0.0132755
688.531	0.0132327
688.609	0.0132265
688.687	0.0130064
688.765	0.0128426
688.843	0.0128944
688.921	0.0126276
688.999	0.0123785
689.078	0.0123531
689.156	0.0122929
689.234	0.0120994
689.312	0.0118737
689.390	0.0121249
689.468	0.0120619
689.546	0.0121786
689.624	0.0122115
689.703	0.0124144
689.781	0.0124685
689.859	0.0128552
689.937	0.0129166
690.015	0.0130630
690.093	0.0134478
690.171	0.0136207
690.249	0.0136578
690.328	0.0138142
690.406	0.0139647
690.484	0.0140845
690.562	0.0143179
690.640	0.0143546
690.718	0.0145443
690.796	0.0146206
690.874	0.0146442
690.953	0.0147612
691.031	0.0148470
691.109	0.0148203
691.187	0.0149181
691.265	0.0149631
691.343	0.0149719
691.421	0.0147807
691.499	0.0147912
691.578	0.0147852
691.656	0.0147005
691.734	0.0145155
691.812	0.0143256
691.890	0.0142722
691.968	0.0142411
692.046	0.0142400
692.124	0.0140919
692.203	0.0140057
692.281	0.0138445
692.359	0.0138013
692.437	0.0137724
692.515	0.0137689
692.593	0.0137409
692.671	0.0135385
692.749	0.0135721
692.828	0.0136977
692.906	0.0137295
692.984	0.0137806
693.062	0.0137041
693.140	0.0138927
693.218	0.0137404
693.296	0.0139607
693.374	0.0140395
693.453	0.0142215
693.531	0.0140649
693.609	0.0140983
693.687	0.0140305
693.765	0.0140227
693.843	0.0139289
693.921	0.0137569
693.999	0.0135736
694.078	0.0136701
694.156	0.0133035
694.234	0.0132841
694.312	0.0132522
694.390	0.0128711
694.468	0.0129408
694.546	0.0129395
694.624	0.0128899
694.703	0.0129425
694.781	0.0128828
694.859	0.0129586
694.937	0.0129362
695.015	0.0131397
695.093	0.0133472
695.171	0.0133492
695.249	0.0134086
695.328	0.0136468
695.406	0.0137269
695.484	0.0138786
695.562	0.0139612
695.640	0.0140945
695.718	0.0140902
695.796	0.0141682
695.874	0.0141734
695.953	0.0141550
696.031	0.0140533
696.109	0.0140326
696.187	0.0140923
696.265	0.0141127
696.343	0.0138378
696.421	0.0137902
696.499	0.0139559
696.578	0.0137293
696.656	0.0137055
696.734	0.0137524
696.812	0.0137260
696.890	0.0136327
696.968	0.0136468
697.046	0.0138010
697.124	0.0136413
697.203	0.0134985
697.281	0.0134114
697.359	0.0135375
697.437	0.0135028
697.515	0.0135133
697.593	0.0136330
697.671	0.0137122
697.749	0.0138095
697.828	0.0140347
697.906	0.0142939
697.984	0.0144404
698.062	0.0145766
698.140	0.0148933
698.218	0.0150685
698.296	0.0152203
698.374	0.0152915
698.453	0.0155266
698.531	0.0156889
698.609	0.0156316
698.687	0.0156186
698.765	0.0155895
698.843	0.0155595
698.921	0.0155359
698.999	0.0152840
699.078	0.0151829
699.156	0.0151163
699.234	0.0148521
699.312	0.0145970
699.390	0.0144686
699.468	0.0140875
699.546	0.0139345
699.624	0.0137477
699.703	0.0136460
699.781	0.0132717
699.859	0.0132133
699.937	0.0131169
700.015	0.0130156
700.093	0.0129523
700.171	0.0128748
700.249	0.0128595
700.328	0.0128110
700.406	0.0128278
700.484	0.0127213
700.562	0.0129633
700.640	0.0129170
700.718	0.0129460
700.796	0.0130310
700.874	0.0132137
700.953	0.0131013
701.031	0.0133443
701.109	0.0134442
701.187	0.0135654
701.265	0.0135793
701.343	0.0138776
701.421	0.0140669
701.499	0.0141489
701.578	0.0144920
701.656	0.0144627
701.734	0.0145152
701.812	0.0148199
701.890	0.0149423
701.968	0.0150398
702.046	0.0151478
702.124	0.0151666
702.203	0.0151647
702.281	0.0151604
702.359	0.0150655
702.437	0.0149756
702.515	0.0149408
702.593	0.0149561
702.671	0.0147523
702.749	0.0145959
702.828	0.0144962
702.906	0.0144252
702.984	0.0145158
703.062	0.0144155
703.140	0.0142683
703.218	0.0141980
703.296	0.0141226
703.374	0.0139481
703.453	0.0137135
703.531	0.0137374
703.609	0.0135656
703.687	0.0135187
703.765	0.0133453
703.843	0.0132277
703.921	0.0132842
703.999	0.0131422
704.078	0.0131424
704.156	0.0132047
704.234	0.0132385
704.312	0.0131187
704.390	0.0132667
704.468	0.0134250
704.546	0.0133667
704.624	0.0135440
704.703	0.0137368
704.781	0.0138671
704.859	0.0139465
704.937	0.0139898
705.015	0.0141794
705.093	0.0140978
705.171	0.0141307
705.249	0.0142284
705.328	0.0142646
705.406	0.0140631
705.484	0.0141161
705.562	0.0141089
705.640	0.0140620
705.718	0.0143053
705.796	0.0141827
705.874	0.0143129
705.953	0.0143480
706.031	0.0144243
706.109	0.0144375
706.187	0.0144566
706.265	0.0146051
706.343	0.0147282
706.421	0.0145817
706.499	0.0146109
706.578	0.0148596
706.656	0.0149531
706.734	0.0146764
706.812	0.0147002
706.890	0.0146151
706.968	0.0146942
707.046	0.0145885
707.124	0.0144011
707.203	0.0143557
707.281	0.0142673
707.359	0.0141093
707.437	0.0139017
707.515	0.0137543
707.593	0.0136066
707.671	0.0134735
707.749	0.0133447
707.828	0.0133080
707.906	0.0132269
707.984	0.0130865
708.062	0.0130448
708.140	0.0129509
708.218	0.0130277
708.296	0.0129750
708.374	0.0128633
708.453	0.0129597
708.531	0.0131381
708.609	0.0132233
708.687	0.0132314
708.765	0.0130999
708.843	0.0131922
708.921	0.0133157
708.999	0.0133604
709.078	0.0131857
709.156	0.0133572
709.234	0.0134687
709.312	0.0135979
709.390	0.0136096
709.468	0.0135681
709.546	0.0137638
709.624	0.0139599
709.703	0.0140078
709.781	0.0140959
709.859	0.0142896
709.937	0.0143169
710.015	0.0145383
710.093	0.0144430
710.171	0.0146373
710.249	0.0146630
710.328	0.0147147
710.406	0.0147083
710.484	0.0148033
710.562	0.0149049
710.640	0.0148028
710.718	0.0146754
710.796	0.0146140
710.874	0.0147258
710.953	0.0146965
711.031	0.0147746
711.109	0.0146677
711.187	0.0145609
711.265	0.0144978
711.343	0.0144338
711.421	0.0143552
711.499	0.0142973
711.578	0.0142336
711.656	0.0141235
711.734	0.0140341
711.812	0.0140279
711.890	0.0140301
711.968	0.0138824
712.046	0.0137283
712.124	0.0136072
712.203	0.0137773
712.281	0.0135969
712.359	0.0134811
712.437	0.0134502
712.515	0.0133392
712.593	0.0133250
712.671	0.0132379
712.749	0.0132343
712.828	0.0133447
712.906	0.0134320
712.984	0.0132584
713.062	0.0133471
713.140	0.0134230
713.218	0.0134328
713.296	0.0134475
713.374	0.0134811
713.453	0.0135921
713.531	0.0135645
713.609	0.0135462
713.687	0.0137256
713.765	0.0137463
713.843	0.0140457
713.921	0.0139318
713.999	0.0140104
714.078	0.0141659
714.156	0.0141587
714.234	0.0142281
714.312	0.0143864
714.390	0.0143886
714.468	0.0143224
714.546	0.0144469
714.624	0.0143525
714.703	0.0142460
714.781	0.0142241
714.859	0.0139750
714.937	0.0138667
715.015	0.0139426
715.093	0.0138592
715.171	0.0136151
715.249	0.0134667
715.328	0.0135601
715.406	0.0133112
715.484	0.0133947
715.562	0.0133806
715.640	0.0131796
715.718	0.0131530
715.796	0.0131808
715.874	0.0130173
715.953	0.0131693
716.031	0.0131496
716.109	0.0132735
716.187	0.0133421
716.265	0.0133076
716.343	0.0133183
716.421	0.0135071
716.499	0.0136537
716.578	0.0137110
716.656	0.0141824
716.734	0.0140977
716.812	0.0143171
716.890	0.0143150
716.968	0.0145465
717.046	0.0144961
717.124	0.0145895
717.203	0.0144297
717.281	0.0146849
717.359	0.0146417
717.437	0.0146186
717.515	0.0146980
717.593	0.0145597
717.671	0.0146428
717.749	0.0146905
717.828	0.0144596
717.906	0.0145843
717.984	0.0146147
718.062	0.0145918
718.140	0.0144769
718.218	0.0144740
718.296	0.0145677
718.374	0.0144192
718.453	0.0142587
718.531	0.0143106
718.609	0.0142242
718.687	0.0140302
718.765	0.0140204
718.843	0.0139584
718.921	0.0138480
718.999	0.0136655
719.078	0.0135725
719.156	0.0135061
719.234	0.0135258
719.312	0.0134915
719.390	0.0135542
719.468	0.0134770
719.546	0.0132912
719.624	0.0135496
719.703	0.0135674
719.781	0.0135458
719.859	0.0135325
719.937	0.0135937
720.015	0.0136429
720.093	0.0136158
720.171	0.0136232
720.249	0.0137749
720.328	0.0136580
720.406	0.0136858
720.484	0.0137099
720.562	0.0138148
720.640	0.0138256
720.718	0.0140054
720.796	0.0138306
720.874	0.0139068
720.953	0.0137752
721.031	0.0138562
721.109	0.0139005
721.187	0.0138166
721.265	0.0138850
721.343	0.0140643
721.421	0.0139890
721.499	0.0139551
721.578	0.0139185
721.656	0.0139713
721.734	0.0139616
721.812	0.0139371
721.890	0.0139632
721.968	0.0139108
722.046	0.0138538
722.124	0.0139684
722.203	0.0136925
722.281	0.0138813
722.359	0.0141007
722.437	0.0139086
722.515	0.0139272
722.593	0.0138605
722.671	0.0141433
722.749	0.0141111
722.828	0.0139407
722.906	0.0143060
722.984	0.0141784
723.062	0.0141022
723.140	0.0140778
723.218	0.0140997
723.296	0.0142342
723.374	0.0141023
723.453	0.0140294
723.531	0.0141828
723.609	0.0141862
723.687	0.0141630
723.765	0.0141674
723.843	0.0141814
723.921	0.0143722
723.999	0.0141581
724.078	0.0142611
724.156	0.0142675
724.234	0.0142328
724.312	0.0142513
724.390	0.0142573
724.468	0.0143603
724.546	0.0142047
724.624	0.0142138
724.703	0.0142141
724.781	0.0143008
724.859	0.0143436
724.937	0.0143035
725.015	0.0140546
725.093	0.0141287
725.171	0.0140865
725.249	0.0141798
725.328	0.0140910
725.406	0.0139716
725.484	0.0139954
725.562	0.0140206
725.640	0.0139399
725.718	0.0139518
725.796	0.0139621
725.874	0.0138743
725.953	0.0138207
726.031	0.0137872
726.109	0.0139645
726.187	0.0139362
726.265	0.0139055
726.343	0.0138178
726.421	0.0137496
726.499	0.0139182
726.578	0.0137767
726.656	0.0137220
726.734	0.0136329
726.812	0.0135603
726.890	0.0137226
726.968	0.0135770
727.046	0.0135428
727.124	0.0134822
727.203	0.0136128
727.281	0.0134227
727.359	0.0134620
727.437	0.0134483
727.515	0.0135772
727.593	0.0135263
727.671	0.0135221
727.749	0.0134662
727.828	0.0136596
727.906	0.0135981
727.984	0.0137022
728.062	0.0139091
728.140	0.0137518
728.218	0.0138268
728.296	0.0140234
728.374	0.0140063
728.453	0.0141290
728.531	0.0142534
728.609	0.0141020
728.687	0.0140952
728.765	0.0142210
728.843	0.0142684
728.921	0.0142522
728.999	0.0142689
729.078	0.0142476
729.156	0.0142849
729.234	0.0141185
729.312	0.0141127
729.390	0.0141003
729.468	0.0141966
729.546	0.0140524
729.624	0.0142233
729.703	0.0140135
729.781	0.0139765
729.859	0.0140104
729.937	0.0139760
730.015	0.0140324
730.093	0.0138280
730.171	0.0140042
730.249	0.0139651
730.328	0.0139959
730.406	0.0139222
730.484	0.0139627
730.562	0.0140002
730.640	0.0139816
730.718	0.0139886
730.796	0.0139188
730.874	0.0139154
730.953	0.0139983
731.031	0.0139366
731.109	0.0137995
731.187	0.0137917
731.265	0.0139876
731.343	0.0138742
731.421	0.0137895
731.499	0.0137851
731.578	0.0139756
731.656	0.0140112
731.734	0.0138136
731.812	0.0140472
731.890	0.0139342
731.968	0.0140443
732.046	0.0139211
732.124	0.0140694
732.203	0.0139681
732.281	0.0140198
732.359	0.0139666
732.437	0.0138818
732.515	0.0139326
732.593	0.0137824
732.671	0.0137991
732.749	0.0138203
732.828	0.0135397
732.906	0.0135398
732.984	0.0137077
733.062	0.0134681
733.140	0.0134103
733.218	0.0134962
733.296	0.0134836
733.374	0.0133836
733.453	0.0132744
733.531	0.0133448
733.609	0.0133775
733.687	0.0132927
733.765	0.0133646
733.843	0.0135508
733.921	0.0135459
733.999	0.0135685
734.078	0.0136168
734.156	0.0135002
734.234	0.0136971
734.312	0.0137368
734.390	0.0137789
734.468	0.0139371
734.546	0.0140412
734.624	0.0140288
734.703	0.0140976
734.781	0.0141746
734.859	0.0141654
734.937	0.0141660
735.015	0.0142809
735.093	0.0145797
735.171	0.0143629
735.249	0.0143412
735.328	0.0144469
735.406	0.0143236
735.484	0.0143913
735.562	0.0143153
735.640	0.0142686
735.718	0.0141617
735.796	0.0142384
735.874	0.0142303
735.953	0.0142188
736.031	0.0142055
736.109	0.0141200
736.187	0.0141634
736.265	0.0141836
736.343	0.0141026
736.421	0.0141306
736.499	0.0141298
736.578	0.0141287
736.656	0.0140733
736.734	0.0140431
736.812	0.0139929
736.890	0.0139770
736.968	0.0140533
737.046	0.0139372
737.124	0.0139128
737.203	0.0138068
737.281	0.0137656
737.359	0.0139191
737.437	0.0139130
737.515	0.0138539
737.593	0.0136768
737.671	0.0136526
737.749	0.0137627
737.828	0.0138317
737.906	0.0137968
737.984	0.0137527
738.062	0.0136762
738.140	0.0137566
738.218	0.0137607
738.296	0.0137226
738.374	0.0136123
738.453	0.0136579
738.531	0.0134739
738.609	0.0136895
738.687	0.0136921
738.765	0.0136765
738.843	0.0136672
738.921	0.0137872
738.999	0.0137366
739.078	0.0136481
739.156	0.0138025
739.234	0.0137766
739.312	0.0137708
739.390	0.0138692
739.468	0.0137714
739.546	0.0139291
739.624	0.0140191
739.703	0.0139598
739.781	0.0141091
739.859	0.0139539
739.937	0.0138929
740.015	0.0139125
740.093	0.0140332
740.171	0.0140559
740.249	0.0140408
740.328	0.0138343
740.406	0.0139247
740.484	0.0139971
740.562	0.0140173
740.640	0.0139236
740.718	0.0138691
740.796	0.0138941
740.874	0.0138931
740.953	0.0139602
741.031	0.0138828
741.109	0.0136837
741.187	0.0137752
741.265	0.0138705
741.343	0.0138354
741.421	0.0138825
741.499	0.0139984
741.578	0.0137500
741.656	0.0139530
741.734	0.0140448
741.812	0.0141021
741.890	0.0140235
741.968	0.0138660
742.046	0.0140447
742.124	0.0140365
742.203	0.0140717
742.281	0.0140631
742.359	0.0141581
742.437	0.0141124
742.515	0.0140847
742.593	0.0142056
742.671	0.0140372
742.749	0.0141351
742.828	0.0141366
742.906	0.0138567
742.984	0.0139056
743.062	0.0140195
743.140	0.0138203
743.218	0.0139137
743.296	0.0138470
743.374	0.0138008
743.453	0.0137311
743.531	0.0137373
743.609	0.0137276
743.687	0.0137594
743.765	0.0137563
743.843	0.0136686
743.921	0.0135783
743.999	0.0136407
744.078	0.0136691
744.156	0.0136507
744.234	0.0137199
744.312	0.0138029
744.390	0.0138208
744.468	0.0138168
744.546	0.0137738
744.624	0.0137833
744.703	0.0140179
744.781	0.0137972
744.859	0.0139133
744.937	0.0140622
745.015	0.0139980
745.093	0.0142305
745.171	0.0141370
745.249	0.0141711
745.328	0.0142131
745.406	0.0141836
745.484	0.0143121
745.562	0.0143294
745.640	0.0143462
745.718	0.0144438
745.796	0.0143474
745.874	0.0144202
745.953	0.0142417
746.031	0.0142164
746.109	0.0142373
746.187	0.0142368
746.265	0.0142907
746.343	0.0141218
746.421	0.0141169
746.499	0.0142692
746.578	0.0140881
746.656	0.0141312
746.734	0.0139119
746.812	0.0139711
746.890	0.0139415
746.968	0.0138623
747.046	0.0138284
747.124	0.0138199
747.203	0.0137633
747.281	0.0137695
747.359	0.0138268
747.437	0.0137540
747.515	0.0137186
747.593	0.0138217
747.671	0.0137543
747.749	0.0139346
747.828	0.0138529
747.906	0.0140330
747.984	0.0140891
748.062	0.0141760
748.140	0.0143209
748.218	0.0142164
748.296	0.0142698
748.374	0.0142339
748.453	0.0143176
748.531	0.0144360
748.609	0.0144538
748.687	0.0145472
748.765	0.0144843
748.843	0.0144014
748.921	0.0144288
748.999	0.0144827
749.078	0.0144334
749.156	0.0143867
749.234	0.0142493
749.312	0.0142174
749.390	0.0141904
749.468	0.0141457
749.546	0.0140781
749.624	0.0139828
749.703	0.0139166
749.781	0.0138029
749.859	0.0136572
749.937	0.0138181
750.015	0.0136156
750.093	0.0135703
750.171	0.0136754
750.249	0.0136352
750.328	0.0135471
750.406	0.0135014
750.484	0.0135456
750.562	0.0136208
750.640	0.0135830
750.718	0.0136267
750.796	0.0136679
750.874	0.0137136
750.953	0.0136719
751.031	0.0136927
751.109	0.0136639
751.187	0.0138325
751.265	0.0137825
751.343	0.0138519
751.421	0.0138115
751.499	0.0139186
751.578	0.0139297
751.656	0.0139286
751.734	0.0140088
751.812	0.0140430
751.890	0.0139919
751.968	0.0139829
752.046	0.0139571
752.124	0.0140011
752.203	0.0140530
752.281	0.0139861
752.359	0.0139548
752.437	0.0139277
752.515	0.0139339
752.593	0.0139208
752.671	0.0139578
752.749	0.0140472
752.828	0.0139186
752.906	0.0139436
752.984	0.0140065
753.062	0.0140301
753.140	0.0138145
753.218	0.0138388
753.296	0.0139492
753.374	0.0139359
753.453	0.0138123
753.531	0.0137187
753.609	0.0137722
753.687	0.0137491
753.765	0.0136980
753.843	0.0139166
753.921	0.0137917
753.999	0.0136476
754.078	0.0136471
754.156	0.0138980
754.234	0.0137633
754.312	0.0137551
754.390	0.0138577
754.468	0.0138889
754.546	0.0140177
754.624	0.0138970
754.703	0.0138111
754.781	0.0139291
754.859	0.0140749
754.937	0.0139342
755.015	0.0140842
755.093	0.0139610
755.171	0.0140483
755.249	0.0139616
755.328	0.0139454
755.406	0.0141457
755.484	0.0140156
755.562	0.0138565
755.640	0.0138396
755.718	0.0138264
755.796	0.0138812
755.874	0.0137054
755.953	0.0136774
756.031	0.0137901
756.109	0.0137671
756.187	0.0137292
756.265	0.0135561
756.343	0.0136942
756.421	0.0135449
756.499	0.0135178
756.578	0.0135839
756.656	0.0135065
756.734	0.0135109
756.812	0.0134181
756.890	0.0136234
756.968	0.0136863
757.046	0.0137347
757.124	0.0136774
757.203	0.0136308
757.281	0.0137250
757.359	0.0137171
757.437	0.0137963
757.515	0.0138579
757.593	0.0139934
757.671	0.0139808
757.749	0.0138447
757.828	0.0140189
757.906	0.0139655
757.984	0.0139487
758.062	0.0139404
758.140	0.0140018
758.218	0.0140734
758.296	0.0139825
758.374	0.0139565
758.453	0.0139625
758.531	0.0139810
758.609	0.0138743
758.687	0.0139053
758.765	0.0140206
758.843	0.0138826
758.921	0.0138088
758.999	0.0139940
759.078	0.0138353
759.156	0.0138828
759.234	0.0138431
759.312	0.0139606
759.390	0.0140161
759.468	0.0138120
759.546	0.0139783
759.624	0.0140648
759.703	0.0139454
759.781	0.0139095
759.859	0.0139340
759.937	0.0138531
760.015	0.0138899
760.093	0.0139028
760.171	0.0138535
760.249	0.0139587
760.328	0.0139728
760.406	0.0139314
760.484	0.0139474
760.562	0.0138338
760.640	0.0138540
760.718	0.0139835
760.796	0.0138482
760.874	0.0139604
760.953	0.0140207
761.031	0.0139096
761.109	0.0139708
761.187	0.0139484
761.265	0.0139664
761.343	0.0140711
761.421	0.0141270
761.499	0.0140708
761.578	0.0139216
761.656	0.0140589
761.734	0.0141459
761.812	0.0142311
761.890	0.0139424
761.968	0.0141218
762.046	0.0139909
762.124	0.0140414
762.203	0.0140731
762.281	0.0139308
762.359	0.0139243
762.437	0.0138425
762.515	0.0140030
762.593	0.0139838
762.671	0.0139422
762.749	0.0139254
762.828	0.0140006
762.906	0.0139513
762.984	0.0139507
763.062	0.0141225
763.140	0.0139606
763.218	0.0139117
763.296	0.0138266
763.374	0.0138361
763.453	0.0139477
763.531	0.0140260
763.609	0.0138010
763.687	0.0138996
763.765	0.0137923
763.843	0.0138600
763.921	0.0137528
763.999	0.0138860
764.078	0.0139272
764.156	0.0138676
764.234	0.0137910
764.312	0.0138879
764.390	0.0137470
764.468	0.0138526
764.546	0.0138834
764.624	0.0136942
764.703	0.0139162
764.781	0.0138256
764.859	0.0136967
764.937	0.0138620
765.015	0.0136887
765.093	0.0138544
765.171	0.0139301
765.249	0.0138273
765.328	0.0137313
765.406	0.0136709
765.484	0.0138488
765.562	0.0137814
765.640	0.0138686
765.718	0.0139982
765.796	0.0140758
765.874	0.0141106
765.953	0.0141119
766.031	0.0141122
766.109	0.0138867
766.187	0.0140667
766.265	0.0141898
766.343	0.0141130
766.421	0.0141447
766.499	0.0141759
766.578	0.0142668
766.656	0.0141766
766.734	0.0142921
766.812	0.0142281
766.890	0.0141300
766.968	0.0142918
767.046	0.0144560
767.124	0.0142307
767.203	0.0142243
767.281	0.0142599
767.359	0.0142433
767.437	0.0140500
767.515	0.0142102
767.593	0.0142876
767.671	0.0142590
767.749	0.0142079
767.828	0.0142020
767.906	0.0141872
767.984	0.0140432
768.062	0.0141696
768.140	0.0141888
768.218	0.0141752
768.296	0.0140363
768.374	0.0139887
768.453	0.0140967
768.531	0.0142229
768.609	0.0140313
768.687	0.0139297
768.765	0.0139629
768.843	0.0140849
768.921	0.0138766
768.999	0.0139375
769.078	0.0140344
769.156	0.0141112
769.234	0.0140266
769.312	0.0141608
769.390	0.0139003
769.468	0.0141136
769.546	0.0140476
769.624	0.0140827
769.703	0.0140771
769.781	0.0140764
769.859	0.0140292
769.937	0.0138607
770.015	0.0138259
770.093	0.0137907
770.171	0.0137091
770.249	0.0137296
770.328	0.0135155
770.406	0.0135757
770.484	0.0135493
770.562	0.0134737
770.640	0.0135522
770.718	0.0135901
770.796	0.0134719
770.874	0.0134956
770.953	0.0136217
771.031	0.0137336
771.109	0.0136642
771.187	0.0136065
771.265	0.0137007
771.343	0.0136477
771.421	0.0136580
771.499	0.0136979
771.578	0.0138539
771.656	0.0138263
771.734	0.0139454
771.812	0.0138830
771.890	0.0139289
771.968	0.0140329
772.046	0.0140909
772.124	0.0141614
772.203	0.0141409
772.281	0.0140434
772.359	0.0140512
772.437	0.0144459
772.515	0.0143591
772.593	0.0142120
772.671	0.0143475
772.749	0.0144390
772.828	0.0144071
772.906	0.0145448
772.984	0.0144404
773.062	0.0144558
773.140	0.0143724
773.218	0.0144281
773.296	0.0144196
773.374	0.0142355
773.453	0.0141912
773.531	0.0141645
773.609	0.0140442
773.687	0.0140155
773.765	0.0139764
773.843	0.0137611
773.921	0.0138363
773.999	0.0137881
774.078	0.0138522
774.156	0.0138081
774.234	0.0138024
774.312	0.0136449
774.390	0.0136329
774.468	0.0137976
774.546	0.0136633
774.624	0.0137110
774.703	0.0137223
774.781	0.0137590
774.859	0.0136028
774.937	0.0134972
775.015	0.0134259
775.093	0.0135431
775.171	0.0134880
775.249	0.0133901
775.328	0.0134692
775.406	0.0134811
775.484	0.0135284
775.562	0.0134834
775.640	0.0134875
775.718	0.0135955
775.796	0.0135938
775.874	0.0135783
775.953	0.0135944
776.031	0.0137182
776.109	0.0137721
776.187	0.0138245
776.265	0.0137850
776.343	0.0137949
776.421	0.0139265
776.499	0.0139777
776.578	0.0139075
776.656	0.0139927
776.734	0.0140277
776.812	0.0140918
776.890	0.0140215
776.968	0.0139996
777.046	0.0140362
777.124	0.0140160
777.203	0.0140152
777.281	0.0141207
777.359	0.0141180
777.437	0.0142239
777.515	0.0141281
777.593	0.0142441
777.671	0.0141886
777.749	0.0143410
777.828	0.0142863
777.906	0.0143130
777.984	0.0143229
778.062	0.0141918
778.140	0.0143108
778.218	0.0142216
778.296	0.0141492
778.374	0.0140692
778.453	0.0140067
778.531	0.0140512
778.609	0.0140031
778.687	0.0138841
778.765	0.0139700
778.843	0.0139108
778.921	0.0138400
778.999	0.0139460
779.078	0.0140063
779.156	0.0138907
779.234	0.0138006
779.312	0.0141703
779.390	0.0140786
779.468	0.0139454
779.546	0.0140907
779.624	0.0142554
779.703	0.0141876
779.781	0.0140982
779.859	0.0140179
779.937	0.0141037
780.015	0.0140627
780.093	0.0141357
780.171	0.0141335
780.249	0.0139794
780.328	0.0140678
780.406	0.0140433
780.484	0.0141092
780.562	0.0140817
780.640	0.0139812
780.718	0.0139687
780.796	0.0138432
780.874	0.0138574
780.953	0.0138433
781.031	0.0138919
781.109	0.0136975
781.187	0.0138818
781.265	0.0139283
781.343	0.0137568
781.421	0.0138631
781.499	0.0139443
781.578	0.0138626
781.656	0.0137713
781.734	0.0138116
781.812	0.0138338
781.890	0.0138752
781.968	0.0137617
782.046	0.0139098
782.124	0.0138057
782.203	0.0137330
782.281	0.0138727
782.359	0.0137657
782.437	0.0137524
782.515	0.0138807
782.593	0.0138274
782.671	0.0139043
782.749	0.0138988
782.828	0.0138633
782.906	0.0139793
782.984	0.0140070
783.062	0.0139884
783.140	0.0140302
783.218	0.0142049
783.296	0.0141526
783.374	0.0141505
783.453	0.0142705
783.531	0.0140793
783.609	0.0141478
783.687	0.0143127
783.765	0.0144000
783.843	0.0143050
783.921	0.0143098
783.999	0.0141591
784.078	0.0141907
784.156	0.0141749
784.234	0.0141673
784.312	0.0141570
784.390	0.0140945
784.468	0.0140531
784.546	0.0141785
784.624	0.0140327
784.703	0.0138950
784.781	0.0138894
784.859	0.0139368
784.937	0.0142034
785.015	0.0140501
785.093	0.0140591
785.171	0.0140792
785.249	0.0140079
785.328	0.0141453
785.406	0.0142532
785.484	0.0141363
785.562	0.0140656
785.640	0.0140601
785.718	0.0139774
785.796	0.0140080
785.874	0.0139306
785.953	0.0139818
786.031	0.0138043
786.109	0.0137506
786.187	0.0137270
786.265	0.0136689
786.343	0.0136614
786.421	0.0135442
786.499	0.0135873
786.578	0.0135105
786.656	0.0133798
786.734	0.0133885
786.812	0.0134003
786.890	0.0133799
786.968	0.0134188
787.046	0.0135314
787.124	0.0135130
787.203	0.0136678
787.281	0.0137047
787.359	0.0137284
787.437	0.0137089
787.515	0.0137225
787.593	0.0138361
787.671	0.0139343
787.749	0.0140488
787.828	0.0140707
787.906	0.0140858
787.984	0.0139735
788.062	0.0139995
788.140	0.0140552
788.218	0.0142740
788.296	0.0140172
788.374	0.0141404
788.453	0.0142075
788.531	0.0140359
788.609	0.0140884
788.687	0.0140996
788.765	0.0140884
788.843	0.0141098
788.921	0.0140656
788.999	0.0140903
789.078	0.0139709
789.156	0.0140971
789.234	0.0140981
789.312	0.0140730
789.390	0.0141126
789.468	0.0142218
789.546	0.0141325
789.624	0.0140575
789.703	0.0140656
789.781	0.0142982
789.859	0.0142014
789.937	0.0140763
790.015	0.0141182
790.093	0.0143136
790.171	0.0142400
790.249	0.0141660
790.328	0.0143095
790.406	0.0143039
790.484	0.0142673
790.562	0.0141734
790.640	0.0140797
790.718	0.0141448
790.796	0.0141724
790.874	0.0142081
790.953	0.0141433
791.031	0.0142258
791.109	0.0141584
791.187	0.0141362
791.265	0.0141167
791.343	0.0142764
791.421	0.0141553
791.499	0.0141064
791.578	0.0140656
791.656	0.0142301
791.734	0.0141732
791.812	0.0140829
791.890	0.0139756
791.968	0.0139893
792.046	0.0138966
792.124	0.0138711
792.203	0.0137095
792.281	0.0137596
792.359	0.0138028
792.437	0.0137754
792.515	0.0135703
792.593	0.0136646
792.671	0.0136382
792.749	0.0136274
792.828	0.0136621
792.906	0.0137635
792.984	0.0136966
793.062	0.0136732
793.140	0.0138689
793.218	0.0137613
793.296	0.0137553
793.374	0.0138480
793.453	0.0139326
793.531	0.0139247
793.609	0.0140055
793.687	0.0141542
793.765	0.0141022
793.843	0.0142403
793.921	0.0141750
793.999	0.0141261
794.078	0.0142165
794.156	0.0142231
794.234	0.0144062
794.312	0.0141785
794.390	0.0142818
794.468	0.0143403
794.546	0.0143837
794.624	0.0143912
794.703	0.0143576
794.781	0.0143804
794.859	0.0143023
794.937	0.0143987
795.015	0.0143990
795.093	0.0143765
795.171	0.0142944
795.249	0.0142376
795.328	0.0141814
795.406	0.0142593
795.484	0.0141904
795.562	0.0140585
795.640	0.0138382
795.718	0.0138508
795.796	0.0138165
795.874	0.0138568
795.953	0.0137662
796.031	0.0136522
796.109	0.0135797
796.187	0.0136881
796.265	0.0136171
796.343	0.0136602
796.421	0.0136503
796.499	0.0137521
796.578	0.0137061
796.656	0.0137460
796.734	0.0136909
796.812	0.0136262
796.890	0.0136527
796.968	0.0136950
797.046	0.0136057
797.124	0.0136413
797.203	0.0137841
797.281	0.0138046
797.359	0.0136892
797.437	0.0137121
797.515	0.0138044
797.593	0.0138625
797.671	0.0138071
797.749	0.0137625
797.828	0.0136793
797.906	0.0135817
797.984	0.0135435
798.062	0.0136005
798.140	0.0135088
798.218	0.0134634
798.296	0.0135015
798.374	0.0135398
798.453	0.0136023
798.531	0.0135472
798.609	0.0133590
798.687	0.0134761
798.765	0.0135513
798.843	0.0136459
798.921	0.0136941
798.999	0.0137064
799.078	0.0137621
799.156	0.0137639
799.234	0.0137263
799.312	0.0137744
799.390	0.0137786
799.468	0.0140507
799.546	0.0140840
799.624	0.0140035
799.703	0.0140406
799.781	0.0139289
799.859	0.0140427
799.937	0.0140388
800.015	0.0140948
800.093	0.0141272
800.171	0.0140487
800.249	0.0139285
800.328	0.0139630
800.406	0.0139349
800.484	0.0140842
800.562	0.0139507
800.640	0.0139724
800.718	0.0141023
800.796	0.0139281
800.874	0.0139325
800.953	0.0139694
801.031	0.0137947
801.109	0.0137720
801.187	0.0138524
801.265	0.0136916
801.343	0.0137472
801.421	0.0137572
801.499	0.0136999
801.578	0.0138316
801.656	0.0138476
801.734	0.0139291
801.812	0.0137670
801.890	0.0138271
801.968	0.0138727
802.046	0.0138693
802.124	0.0138892
802.203	0.0139069
802.281	0.0138901
802.359	0.0139630
802.437	0.0138974
802.515	0.0139400
802.593	0.0139709
802.671	0.0140038
802.749	0.0140509
802.828	0.0139571
802.906	0.0139805
802.984	0.0142088
803.062	0.0141808
803.140	0.0140918
803.218	0.0142551
803.296	0.0142315
803.374	0.0142332
803.453	0.0143240
803.531	0.0141647
803.609	0.0141809
803.687	0.0141247
803.765	0.0141201
803.843	0.0140448
803.921	0.0140754
803.999	0.0140849
804.078	0.0138671
804.156	0.0138288
804.234	0.0137753
804.312	0.0138152
804.390	0.0138513
804.468	0.0137316
804.546	0.0138194
804.624	0.0137369
804.703	0.0138465
804.781	0.0137643
804.859	0.0139199
804.937	0.0138486
805.015	0.0138696
805.093	0.0139017
805.171	0.0139748
805.249	0.0141508
805.328	0.0141282
805.406	0.0140353
805.484	0.0141360
805.562	0.0141109
805.640	0.0141054
805.718	0.0140965
805.796	0.0141360
805.874	0.0140554
805.953	0.0143536
806.031	0.0143020
806.109	0.0142244
806.187	0.0143198
806.265	0.0143002
806.343	0.0143636
806.421	0.0142761
806.499	0.0144481
806.578	0.0144076
806.656	0.0142628
806.734	0.0142871
806.812	0.0143400
806.890	0.0143613
806.968	0.0142300
807.046	0.0141399
807.124	0.0142190
807.203	0.0141302
807.281	0.0142881
807.359	0.0142081
807.437	0.0140535
807.515	0.0141724
807.593	0.0140820
807.671	0.0141605
807.749	0.0140469
807.828	0.0139694
807.906	0.0140828
807.984	0.0143226
808.062	0.0141129
808.140	0.0141948
808.218	0.0140587
808.296	0.0141355
808.374	0.0139379
808.453	0.0139866
808.531	0.0139310
808.609	0.0139425
808.687	0.0140370
808.765	0.0140273
808.843	0.0138383
808.921	0.0139426
808.999	0.0139730
809.078	0.0140229
809.156	0.0138858
809.234	0.0140248
809.312	0.0139079
809.390	0.0139967
809.468	0.0140762
809.546	0.0140955
809.624	0.0141023
809.703	0.0139139
809.781	0.0139491
809.859	0.0140203
809.937	0.0140595
810.015	0.0139441
810.093	0.0138615
810.171	0.0138501
810.249	0.0138612
810.328	0.0138670
810.406	0.0137846
810.484	0.0138326
810.562	0.0138228
810.640	0.0137530
810.718	0.0137275
810.796	0.0137151
810.874	0.0138141
810.953	0.0137842
811.031	0.0139717
811.109	0.0136685
811.187	0.0138430
811.265	0.0137949
811.343	0.0137748
811.421	0.0137471
811.499	0.0139371
811.578	0.0140108
811.656	0.0139381
811.734	0.0139384
811.812	0.0140306
811.890	0.0140942
811.968	0.0141652
812.046	0.0139700
812.124	0.0139349
812.203	0.0140095
812.281	0.0140538
812.359	0.0141419
812.437	0.0140332
812.515	0.0139497
812.593	0.0139650
812.671	0.0140406
812.749	0.0140138
812.828	0.0140277
812.906	0.0141129
812.984	0.0141071
813.062	0.0140100
813.140	0.0142474
813.218	0.0140978
813.296	0.0140854
813.374	0.0140661
813.453	0.0139600
813.531	0.0141057
813.609	0.0140891
813.687	0.0140298
813.765	0.0140454
813.843	0.0139442
813.921	0.0141358
813.999	0.0141398
814.078	0.0139590
814.156	0.0140371
814.234	0.0141879
814.312	0.0141666
814.390	0.0141035
814.468	0.0140379
814.546	0.0141296
814.624	0.0142115
814.703	0.0141460
814.781	0.0141088
814.859	0.0142423
814.937	0.0140177
815.015	0.0139879
815.093	0.0140252
815.171	0.0139830
815.249	0.0138327
815.328	0.0138554
815.406	0.0137970
815.484	0.0137748
815.562	0.0137617
815.640	0.0136694
815.718	0.0136907
815.796	0.0135445
815.874	0.0135135
815.953	0.0135374
816.031	0.0136253
816.109	0.0135015
816.187	0.0136630
816.265	0.0135616
816.343	0.0133560
816.421	0.0133953
816.499	0.0135851
816.578	0.0133979
816.656	0.0135259
816.734	0.0136421
816.812	0.0135399
816.890	0.0134563
816.968	0.0133932
817.046	0.0135696
817.124	0.0136593
817.203	0.0136427
817.281	0.0136517
817.359	0.0139243
817.437	0.0137914
817.515	0.0137832
817.593	0.0138483
817.671	0.0139903
817.749	0.0139588
817.828	0.0138223
817.906	0.0139267
817.984	0.0140728
818.062	0.0141095
818.140	0.0140085
818.218	0.0140878
818.296	0.0140604
818.374	0.0139729
818.453	0.0140450
818.531	0.0140404
818.609	0.0138404
818.687	0.0138615
818.765	0.0139632
818.843	0.0139216
818.921	0.0138757
818.999	0.0137790
819.078	0.0137013
819.156	0.0138642
819.234	0.0137261
819.312	0.0135572
819.390	0.0136390
819.468	0.0136671
819.546	0.0136800
819.624	0.0136047
819.703	0.0136925
819.781	0.0136586
819.859	0.0135787
819.937	0.0137009
820.015	0.0136522
820.093	0.0136293
820.171	0.0135921
820.249	0.0136665
820.328	0.0136876
820.406	0.0137802
820.484	0.0136634
820.562	0.0136015
820.640	0.0137931
820.718	0.0136703
820.796	0.0136726
820.874	0.0137161
820.953	0.0136758
821.031	0.0139240
821.109	0.0138281
821.187	0.0137033
821.265	0.0137547
821.343	0.0137910
821.421	0.0138290
821.499	0.0138760
821.578	0.0137790
821.656	0.0138979
821.734	0.0139014
821.812	0.0136869
821.890	0.0138614
821.968	0.0138680
822.046	0.0139049
822.124	0.0139143
822.203	0.0139170
822.281	0.0139481
822.359	0.0140683
822.437	0.0139960
822.515	0.0139394
822.593	0.0138609
822.671	0.0137922
822.749	0.0139727
822.828	0.0140209
822.906	0.0139820
822.984	0.0139043
823.062	0.0138963
823.140	0.0137834
823.218	0.0139240
823.296	0.0139041
823.374	0.0137071
823.453	0.0139019
823.531	0.0138409
823.609	0.0139257
823.687	0.0139157
823.765	0.0139543
823.843	0.0138622
823.921	0.0138985
823.999	0.0139773
824.078	0.0140063
824.156	0.0139533
824.234	0.0141369
824.312	0.0139835
824.390	0.0139878
824.468	0.0140239
824.546	0.0140603
824.624	0.0139758
824.703	0.0139548
824.781	0.0140153
824.859	0.0138728
824.937	0.0140440
825.015	0.0140629
825.093	0.0139405
825.171	0.0139808
825.249	0.0139304
825.328	0.0138555
825.406	0.0140010
825.484	0.0140453
825.562	0.0140571
825.640	0.0140041
825.718	0.0139768
825.796	0.0141570
825.874	0.0141668
825.953	0.0141024
826.031	0.0141554
826.109	0.0139825
826.187	0.0140831
826.265	0.0140423
826.343	0.0137515
826.421	0.0137220
826.499	0.0137847
826.578	0.0139478
826.656	0.0137790
826.734	0.0137780
826.812	0.0137451
826.890	0.0137634
826.968	0.0137321
827.046	0.0138702
827.124	0.0139349
827.203	0.0137965
827.281	0.0137822
827.359	0.0139030
827.437	0.0139152
827.515	0.0139140
827.593	0.0138854
827.671	0.0138541
827.749	0.0140229
827.828	0.0139858
827.906	0.0139666
827.984	0.0138636
828.062	0.0139085
828.140	0.0139586
828.218	0.0140628
828.296	0.0138255
828.374	0.0139543
828.453	0.0140826
828.531	0.0139024
828.609	0.0140104
828.687	0.0141262
828.765	0.0141095
828.843	0.0141682
828.921	0.0142124
828.999	0.0140923
829.078	0.0140875
829.156	0.0142315
829.234	0.0141742
829.312	0.0141772
829.390	0.0140953
829.468	0.0139737
829.546	0.0139674
829.624	0.0138428
829.703	0.0140379
829.781	0.0139419
829.859	0.0138940
829.937	0.0138519
830.015	0.0138972
830.093	0.0138626
830.171	0.0139672
830.249	0.0138854
830.328	0.0137835
830.406	0.0138728
830.484	0.0139755
830.562	0.0138499
830.640	0.0139075
830.718	0.0138432
830.796	0.0139449
830.874	0.0140280
830.953	0.0140359
831.031	0.0139508
831.109	0.0140286
831.187	0.0139817
831.265	0.0140061
831.343	0.0140238
831.421	0.0139404
831.499	0.0140310
831.578	0.0139383
831.656	0.0139570
831.734	0.0140886
831.812	0.0140433
831.890	0.0139540
831.968	0.0138097
832.046	0.0140101
832.124	0.0138123
832.203	0.0140425
832.281	0.0140579
832.359	0.0139623
832.437	0.0139984
832.515	0.0139290
832.593	0.0141866
832.671	0.0141538
832.749	0.0140049
832.828	0.0141035
832.906	0.0141555
832.984	0.0140950
833.062	0.0141465
833.140	0.0142287
833.218	0.0142027
833.296	0.0141228
833.374	0.0141247
833.453	0.0142816
833.531	0.0141901
833.609	0.0142957
833.687	0.0142022
833.765	0.0141336
833.843	0.0140652
833.921	0.0141570
833.999	0.0140344
834.078	0.0141443
834.156	0.0141263
834.234	0.0140690
834.312	0.0138811
834.390	0.0138699
834.468	0.0138134
834.546	0.0137765
834.624	0.0137099
834.703	0.0136980
834.781	0.0138079
834.859	0.0138659
834.937	0.0137656
835.015	0.0137602
835.093	0.0137727
835.171	0.0138023
835.249	0.0137785
835.328	0.0138792
835.406	0.0138332
835.484	0.0137811
835.562	0.0141011
835.640	0.0139421
835.718	0.0138946
835.796	0.0140017
835.874	0.0139691
835.953	0.0139536
836.031	0.0140570
836.109	0.0139052
836.187	0.0139355
836.265	0.0139685
836.343	0.0138819
836.421	0.0139294
836.499	0.0139841
836.578	0.0141126
836.656	0.0139761
836.734	0.0140746
836.812	0.0139417
836.890	0.0141251
836.968	0.0140955
837.046	0.0140666
837.124	0.0140829
837.203	0.0140642
837.281	0.0139298
837.359	0.0140158
837.437	0.0138865
837.515	0.0139611
837.593	0.0140238
837.671	0.0139604
837.749	0.0138613
837.828	0.0139537
837.906	0.0139913
837.984	0.0139072
838.062	0.0137180
838.140	0.0138789
838.218	0.0138390
838.296	0.0137448
838.374	0.0138404
838.453	0.0137521
838.531	0.0138066
838.609	0.0136342
838.687	0.0137452
838.765	0.0137482
838.843	0.0137207
838.921	0.0137043
838.999	0.0137646
839.078	0.0137666
839.156	0.0136938
839.234	0.0136098
839.312	0.0137669
839.390	0.0135009
839.468	0.0135515
839.546	0.0136712
839.624	0.0137036
839.703	0.0135759
839.781	0.0135860
839.859	0.0137254
839.937	0.0137457
840.015	0.0137163
840.093	0.0138448
840.171	0.0138282
840.249	0.0138302
840.328	0.0139218
840.406	0.0140024
840.484	0.0139539
840.562	0.0139646
840.640	0.0141588
840.718	0.0140580
840.796	0.0141207
840.874	0.0141328
840.953	0.0141132
841.031	0.0141380
841.109	0.0140136
841.187	0.0141223
841.265	0.0140102
841.343	0.0140600
841.421	0.0140345
841.499	0.0138988
841.578	0.0140221
841.656	0.0139229
841.734	0.0138252
841.812	0.0137218
841.890	0.0136859
841.968	0.0136802
842.046	0.0136399
842.124	0.0135455
842.203	0.0135375
842.281	0.0134780
842.359	0.0135227
842.437	0.0134261
842.515	0.0134492
842.593	0.0135878
842.671	0.0136275
842.749	0.0137626
842.828	0.0137605
842.906	0.0138239
842.984	0.0138504
843.062	0.0140388
843.140	0.0140591
843.218	0.0140366
843.296	0.0142180
843.374	0.0143176
843.453	0.0142010
843.531	0.0141973
843.609	0.0141801
843.687	0.0141474
843.765	0.0142554
843.843	0.0141709
843.921	0.0141512
843.999	0.0141067
844.078	0.0141753
844.156	0.0140559
844.234	0.0139951
844.312	0.0141250
844.390	0.0139417
844.468	0.0138209
844.546	0.0139642
844.624	0.0139994
844.703	0.0139544
844.781	0.0140415
844.859	0.0139856
844.937	0.0136909
845.015	0.0137421
845.093	0.0138560
845.171	0.0137363
845.249	0.0136373
845.328	0.0137786
845.406	0.0137684
845.484	0.0137619
845.562	0.0138249
845.640	0.0137212
845.718	0.0138681
845.796	0.0138303
845.874	0.0136497
845.953	0.0136814
846.031	0.0138590
846.109	0.0138939
846.187	0.0139505
846.265	0.0139290
846.343	0.0138673
846.421	0.0140249
846.499	0.0141094
846.578	0.0141008
846.656	0.0139983
846.734	0.0142521
846.812	0.0142096
846.890	0.0141631
846.968	0.0141160
847.046	0.0139940
847.124	0.0142239
847.203	0.0142657
847.281	0.0141262
847.359	0.0141185
847.437	0.0141491
847.515	0.0140154
847.593	0.0139754
847.671	0.0140337
847.749	0.0140654
847.828	0.0139782
847.906	0.0138490
847.984	0.0140682
848.062	0.0140430
848.140	0.0140081
848.218	0.0140620
848.296	0.0139805
848.374	0.0139275
848.453	0.0140303
848.531	0.0138988
848.609	0.0139056
848.687	0.0138618
848.765	0.0140546
848.843	0.0138856
848.921	0.0138023
848.999	0.0139414
849.078	0.0139654
849.156	0.0138413
849.234	0.0138465
849.312	0.0138427
849.390	0.0137785
849.468	0.0137905
849.546	0.0138873
849.624	0.0138335
849.703	0.0137488
849.781	0.0137743
849.859	0.0138270
849.937	0.0137836
850.015	0.0138877
850.093	0.0139520
850.171	0.0137801
850.249	0.0138500
850.328	0.0136497
850.406	0.0138548
850.484	0.0136693
850.562	0.0137512
850.640	0.0138266
850.718	0.0137348
850.796	0.0136942
850.874	0.0136991
850.953	0.0136148
851.031	0.0137887
851.109	0.0137946
851.187	0.0137460
851.265	0.0138021
851.343	0.0139696
851.421	0.0139214
851.499	0.0138833
851.578	0.0138594
851.656	0.0140655
851.734	0.0140929
851.812	0.0140364
851.890	0.0140831
851.968	0.0141334
852.046	0.0141098
852.124	0.0140887
852.203	0.0139730
852.281	0.0142125
852.359	0.0142045
852.437	0.0141502
852.515	0.0140836
852.593	0.0139948
852.671	0.0140594
852.749	0.0140744
852.828	0.0140464
852.906	0.0140768
852.984	0.0139918
853.062	0.0139028
853.140	0.0140083
853.218	0.0139397
853.296	0.0138585
853.374	0.0137322
853.453	0.0138805
853.531	0.0138680
853.609	0.0135760
853.687	0.0136266
853.765	0.0136846
853.843	0.0135771
853.921	0.0136997
853.999	0.0136679
854.078	0.0136358
854.156	0.0135920
854.234	0.0135112
854.312	0.0135017
854.390	0.0134480
854.468	0.0136032
854.546	0.0136027
854.624	0.0137344
854.703	0.0136485
854.781	0.0136374
854.859	0.0135847
854.937	0.0135512
855.015	0.0137797
855.093	0.0137016
855.171	0.0137681
855.249	0.0137553
855.328	0.0137531
855.406	0.0136680
855.484	0.0137428
855.562	0.0138134
855.640	0.0137910
855.718	0.0138604
855.796	0.0137527
855.874	0.0138033
855.953	0.0137168
856.031	0.0138422
856.109	0.0138817
856.187	0.0139906
856.265	0.0140124
856.343	0.0138475
856.421	0.0139397
856.499	0.0138238
856.578	0.0139619
856.656	0.0138701
856.734	0.0139493
856.812	0.0139198
856.890	0.0141349
856.968	0.0138965
857.046	0.0138881
857.124	0.0140733
857.203	0.0140125
857.281	0.0139171
857.359	0.0141708
857.437	0.0139492
857.515	0.0138922
857.593	0.0139933
857.671	0.0141117
857.749	0.0139799
857.828	0.0139598
857.906	0.0138524
857.984	0.0139984
858.062	0.0138467
858.140	0.0137293
858.218	0.0138161
858.296	0.0138306
858.374	0.0137810
858.453	0.0137448
858.531	0.0138012
858.609	0.0136469
858.687	0.0136546
858.765	0.0137971
858.843	0.0137614
858.921	0.0137930
858.999	0.0137260
859.078	0.0136073
859.156	0.0137909
859.234	0.0137065
859.312	0.0137498
859.390	0.0137042
859.468	0.0139234
859.546	0.0139046
859.624	0.0139291
859.703	0.0137988
859.781	0.0138136
859.859	0.0139395
859.937	0.0139017
860.015	0.0138457
860.093	0.0137906
860.171	0.0137625
860.249	0.0137116
860.328	0.0137279
860.406	0.0136825
860.484	0.0136887
860.562	0.0137020
860.640	0.0135975
860.718	0.0137029
860.796	0.0137224
860.874	0.0136643
860.953	0.0136511
861.031	0.0137329
861.109	0.0136347
861.187	0.0136681
861.265	0.0135475
861.343	0.0136300
861.421	0.0136446
861.499	0.0137452
861.578	0.0136204
861.656	0.0137633
861.734	0.0137378
861.812	0.0137351
861.890	0.0137266
861.968	0.0137970
862.046	0.0139072
862.124	0.0138630
862.203	0.0137901
862.281	0.0140148
862.359	0.0139880
862.437	0.0140919
862.515	0.0139760
862.593	0.0140374
862.671	0.0140108
862.749	0.0140501
862.828	0.0141045
862.906	0.0141527
862.984	0.0140221
863.062	0.0140409
863.140	0.0139104
863.218	0.0139372
863.296	0.0139018
863.374	0.0139266
863.453	0.0140747
863.531	0.0140594
863.609	0.0138239
863.687	0.0141294
863.765	0.0139929
863.843	0.0140576
863.921	0.0139946
863.999	0.0140237
864.078	0.0141444
864.156	0.0140909
864.234	0.0141309
864.312	0.0141090
864.390	0.0141178
864.468	0.0139960
864.546	0.0140456
864.624	0.0139339
864.703	0.0140611
864.781	0.0139451
864.859	0.0138562
864.937	0.0139400
865.015	0.0138905
865.093	0.0139667
865.171	0.0140276
865.249	0.0139569
865.328	0.0139667
865.406	0.0138073
865.484	0.0139907
865.562	0.0139594
865.640	0.0140816
865.718	0.0140476
865.796	0.0139367
865.874	0.0139111
865.953	0.0139384
866.031	0.0139468
866.109	0.0139111
866.187	0.0139900
866.265	0.0138774
866.343	0.0139719
866.421	0.0138892
866.499	0.0138789
866.578	0.0138921
866.656	0.0139335
866.734	0.0139408
866.812	0.0139094
866.890	0.0139963
866.968	0.0141064
867.046	0.0139465
867.124	0.0140129
867.203	0.0139617
867.281	0.0141398
867.359	0.0140140
867.437	0.0139931
867.515	0.0140401
867.593	0.0140074
867.671	0.0140091
867.749	0.0139404
867.828	0.0138658
867.906	0.0140909
867.984	0.0139572
868.062	0.0140918
868.140	0.0141870
868.218	0.0139704
868.296	0.0140060
868.374	0.0140127
868.453	0.0140411
868.531	0.0139943
868.609	0.0139445
868.687	0.0141107
868.765	0.0139945
868.843	0.0139090
868.921	0.0140159
868.999	0.0140534
869.078	0.0140857
869.156	0.0139998
869.234	0.0139796
869.312	0.0139263
869.390	0.0140604
869.468	0.0139948
869.546	0.0139198
869.624	0.0140778
869.703	0.0138857
869.781	0.0140048
869.859	0.0140308
869.937	0.0139319
870.015	0.0139660
870.093	0.0139646
870.171	0.0140617
870.249	0.0138859
870.328	0.0140273
870.406	0.0140968
870.484	0.0141588
870.562	0.0139822
870.640	0.0139408
870.718	0.0140060
870.796	0.0141039
870.874	0.0141607
870.953	0.0142017
871.031	0.0140118
871.109	0.0139758
871.187	0.0140455
871.265	0.0141605
871.343	0.0141349
871.421	0.0141209
871.499	0.0141807
871.578	0.0141608
871.656	0.0141212
871.734	0.0141142
871.812	0.0140465
871.890	0.0140202
871.968	0.0141795
872.046	0.0141740
872.124	0.0138177
872.203	0.0140571
872.281	0.0140834
872.359	0.0141521
872.437	0.0141853
872.515	0.0140754
872.593	0.0140263
872.671	0.0140126
872.749	0.0139020
872.828	0.0139435
872.906	0.0139542
872.984	0.0139900
873.062	0.0138030
873.140	0.0137885
873.218	0.0139754
873.296	0.0137877
873.374	0.0139053
873.453	0.0139094
873.531	0.0138643
873.609	0.0139191
873.687	0.0138018
873.765	0.0140308
873.843	0.0139387
873.921	0.0136845
873.999	0.0138359
874.078	0.0137415
874.156	0.0137365
874.234	0.0139053
874.312	0.0137022
874.390	0.0138234
874.468	0.0139330
874.546	0.0138503
874.624	0.0137631
874.703	0.0136787
874.781	0.0138445
874.859	0.0138135
874.937	0.0137769
875.015	0.0137292
875.093	0.0136908
875.171	0.0137284
875.249	0.0138284
875.328	0.0138450
875.406	0.0137955
875.484	0.0137949
875.562	0.0137564
875.640	0.0138094
875.718	0.0138564
875.796	0.0138579
875.874	0.0139056
875.953	0.0138583
876.031	0.0139108
876.109	0.0138556
876.187	0.0139273
876.265	0.0139536
876.343	0.0137985
876.421	0.0139716
876.499	0.0140462
876.578	0.0138570
876.656	0.0139450
876.734	0.0140408
876.812	0.0140177
876.890	0.0139507
876.968	0.0139537
877.046	0.0138529
877.124	0.0139180
877.203	0.0138795
877.281	0.0138470
877.359	0.0138797
877.437	0.0138176
877.515	0.0137968
877.593	0.0138739
877.671	0.0136353
877.749	0.0137302
877.828	0.0138860
877.906	0.0137316
877.984	0.0137157
878.062	0.0137193
878.140	0.0136444
878.218	0.0136765
878.296	0.0134400
878.374	0.0134535
878.453	0.0135083
878.531	0.0135901
878.609	0.0134542
878.687	0.0134914
878.765	0.0134795
878.843	0.0135660
878.921	0.0135309
878.999	0.0134244
879.078	0.0134327
879.156	0.0136121
879.234	0.0135679
879.312	0.0135311
879.390	0.0137224
879.468	0.0136076
879.546	0.0137881
879.624	0.0136351
879.703	0.0136887
879.781	0.0138208
879.859	0.0139647
879.937	0.0138845
880.015	0.0139025
880.093	0.0140747
880.171	0.0138557
880.249	0.0139823
880.328	0.0139861
880.406	0.0138918
880.484	0.0139912
880.562	0.0140209
880.640	0.0141613
880.718	0.0141583
880.796	0.0140672
880.874	0.0140609
880.953	0.0140996
881.031	0.0140482
881.109	0.0140864
881.187	0.0140863
881.265	0.0139889
881.343	0.0140334
881.421	0.0141596
881.499	0.0141062
881.578	0.0141776
881.656	0.0140308
881.734	0.0139602
881.812	0.0139799
881.890	0.0140028
881.968	0.0139007
882.046	0.0139752
882.124	0.0139259
882.203	0.0138494
882.281	0.0139775
882.359	0.0138897
882.437	0.0140321
882.515	0.0138918
882.593	0.0139633
882.671	0.0140271
882.749	0.0139243
882.828	0.0139191
882.906	0.0137642
882.984	0.0138262
883.062	0.0139677
883.140	0.0138639
883.218	0.0139259
883.296	0.0138869
883.374	0.0138715
883.453	0.0139671
883.531	0.0141022
883.609	0.0138818
883.687	0.0139115
883.765	0.0139797
883.843	0.0140290
883.921	0.0138152
883.999	0.0139090
884.078	0.0139729
884.156	0.0139391
884.234	0.0140417
884.312	0.0140804
884.390	0.0139517
884.468	0.0139931
884.546	0.0139181
884.624	0.0140323
884.703	0.0139614
884.781	0.0139714
884.859	0.0141082
884.937	0.0139225
885.015	0.0138763
885.093	0.0139008
885.171	0.0140464
885.249	0.0141101
885.328	0.0140321
885.406	0.0139806
885.484	0.0139695
885.562	0.0139668
885.640	0.0141520
885.718	0.0140523
885.796	0.0140405
885.874	0.0140065
885.953	0.0139430
886.031	0.0140117
886.109	0.0141063
886.187	0.0140868
886.265	0.0139490
886.343	0.0140414
886.421	0.0140102
886.499	0.0140483
886.578	0.0141404
886.656	0.0140043
886.734	0.0138937
886.812	0.0140852
886.890	0.0141748
886.968	0.0140640
887.046	0.0141216
887.124	0.0140984
887.203	0.0140982
887.281	0.0141752
887.359	0.0140498
887.437	0.0140826
887.515	0.0141483
887.593	0.0140331
887.671	0.0139876
887.749	0.0140728
887.828	0.0140250
887.906	0.0140861
887.984	0.0139460
888.062	0.0138617
888.140	0.0138957
888.218	0.0140439
888.296	0.0140695
888.374	0.0140094
888.453	0.0140186
888.531	0.0139387
888.609	0.0140950
888.687	0.0139161
888.765	0.0138969
888.843	0.0140354
888.921	0.0138734
888.999	0.0138034
889.078	0.0140025
889.156	0.0139600
889.234	0.0138612
889.312	0.0139265
889.390	0.0138982
889.468	0.0139191
889.546	0.0139743
889.624	0.0139349
889.703	0.0140588
889.781	0.0140217
889.859	0.0140900
889.937	0.0140692
890.015	0.0140832
890.093	0.0141647
890.171	0.0141079
890.249	0.0140848
890.328	0.0140843
890.406	0.0140603
890.484	0.0141380
890.562	0.0141048
890.640	0.0142033
890.718	0.0141271
890.796	0.0141175
890.874	0.0139683
890.953	0.0140535
891.031	0.0142006
891.109	0.0140287
891.187	0.0140266
891.265	0.0139323
891.343	0.0138750
891.421	0.0140371
891.499	0.0139635
891.578	0.0138478
891.656	0.0138749
891.734	0.0138058
891.812	0.0138404
891.890	0.0138874
891.968	0.0139793
892.046	0.0138545
892.124	0.0139558
892.203	0.0139808
892.281	0.0139024
892.359	0.0137892
892.437	0.0139616
892.515	0.0139917
892.593	0.0139870
892.671	0.0140828
892.749	0.0140920
892.828	0.0140139
892.906	0.0139775
892.984	0.0141228
893.062	0.0139922
893.140	0.0141608
893.218	0.0140701
893.296	0.0142278
893.374	0.0142855
893.453	0.0141706
893.531	0.0141830
893.609	0.0141290
893.687	0.0140227
893.765	0.0141314
893.843	0.0142147
893.921	0.0142236
893.999	0.0141070
894.078	0.0141383
894.156	0.0140495
894.234	0.0140870
894.312	0.0141300
894.390	0.0140564
894.468	0.0140558
894.546	0.0140684
894.624	0.0139008
894.703	0.0139917
894.781	0.0140161
894.859	0.0139742
894.937	0.0138856
895.015	0.0138970
895.093	0.0138568
895.171	0.0138364
895.249	0.0139589
895.328	0.0137756
895.406	0.0138669
895.484	0.0137566
895.562	0.0138748
895.640	0.0140443
895.718	0.0138313
895.796	0.0138408
895.874	0.0138441
895.953	0.0138580
896.031	0.0138581
896.109	0.0138025
896.187	0.0138674
896.265	0.0139264
896.343	0.0140099
896.421	0.0140354
896.499	0.0140066
896.578	0.0140638
896.656	0.0141092
896.734	0.0141579
896.812	0.0140884
896.890	0.0140014
896.968	0.0140446
897.046	0.0139087
897.124	0.0140869
897.203	0.0141299
897.281	0.0139835
897.359	0.0139754
897.437	0.0140907
897.515	0.0140238
897.593	0.0138681
897.671	0.0140644
897.749	0.0140273
897.828	0.0140684
897.906	0.0139835
897.984	0.0140047
898.062	0.0139413
898.140	0.0139610
898.218	0.0139639
898.296	0.0140136
898.374	0.0139724
898.453	0.0139883
898.531	0.0139721
898.609	0.0139182
898.687	0.0138575
898.765	0.0140437
898.843	0.0141037
898.921	0.0140879
898.999	0.0140056
899.078	0.0140530
899.156	0.0141174
899.234	0.0140633
899.312	0.0140553
899.390	0.0140615
899.468	0.0141751
899.546	0.0139023
899.624	0.0139122
899.703	0.0139477
899.781	0.0140264
899.859	0.0139860
899.937	0.0139626
900.015	0.0141255
900.093	0.0138884
900.171	0.0140039
900.249	0.0139346
900.328	0.0141550
900.406	0.0139619
900.484	0.0140573
900.562	0.0140769
900.640	0.0138837
900.718	0.0139005
900.796	0.0139908
900.874	0.0140761
900.953	0.0141426
901.031	0.0140168
901.109	0.0139248
901.187	0.0141351
901.265	0.0141043
901.343	0.0140309
901.421	0.0139328
901.499	0.0140364
901.578	0.0140781
901.656	0.0141735
901.734	0.0139870
901.812	0.0140073
901.890	0.0140296
901.968	0.0138943
902.046	0.0140249
902.124	0.0139325
902.203	0.0139234
902.281	0.0138693
902.359	0.0138239
902.437	0.0137431
902.515	0.0139360
902.593	0.0138741
902.671	0.0137989
902.749	0.0138867
902.828	0.0138562
902.906	0.0138120
902.984	0.0138006
903.062	0.0137729
903.140	0.0138086
903.218	0.0138859
903.296	0.0136870
903.374	0.0139040
903.453	0.0137181
903.531	0.0138049
903.609	0.0138390
903.687	0.0139111
903.765	0.0138667
903.843	0.0139357
903.921	0.0140990
903.999	0.0140604
904.078	0.0139799
904.156	0.0137811
904.234	0.0139026
904.312	0.0140156
904.390	0.0139729
904.468	0.0140160
904.546	0.0140773
904.624	0.0140306
904.703	0.0141548
904.781	0.0142143
904.859	0.0143568
904.937	0.0142247
905.015	0.0141733
905.093	0.0142718
905.171	0.0143625
905.249	0.0143429
905.328	0.0143932
905.406	0.0142533
905.484	0.0142388
905.562	0.0140950
905.640	0.0142250
905.718	0.0144022
905.796	0.0140653
905.874	0.0141064
905.953	0.0140322
906.031	0.0140607
906.109	0.0139516
906.187	0.0140132
906.265	0.0139295
906.343	0.0138941
906.421	0.0138834
906.499	0.0138561
906.578	0.0138525
906.656	0.0137072
906.734	0.0138127
906.812	0.0136729
906.890	0.0136997
906.968	0.0137206
907.046	0.0137608
907.124	0.0138235
907.203	0.0137464
907.281	0.0136060
907.359	0.0137734
907.437	0.0137225
907.515	0.0136921
907.593	0.0137158
907.671	0.0136858
907.749	0.0136578
907.828	0.0136720
907.906	0.0137402
907.984	0.0136919
908.062	0.0137025
908.140	0.0135375
908.218	0.0136687
908.296	0.0138508
908.374	0.0137849
908.453	0.0138949
908.531	0.0138190
908.609	0.0139833
908.687	0.0138257
908.765	0.0139060
908.843	0.0138900
908.921	0.0138870
908.999	0.0138882
909.078	0.0139893
909.156	0.0139477
909.234	0.0138541
909.312	0.0139497
909.390	0.0140123
909.468	0.0140017
909.546	0.0138946
909.624	0.0139589
909.703	0.0141242
909.781	0.0141062
909.859	0.0139792
909.937	0.0140208
910.015	0.0141327
910.093	0.0139710
910.171	0.0142481
910.249	0.0140561
910.328	0.0139725
910.406	0.0140472
910.484	0.0139396
910.562	0.0140914
910.640	0.0140120
910.718	0.0140397
910.796	0.0139029
910.874	0.0140822
910.953	0.0139659
911.031	0.0137913
911.109	0.0138707
911.187	0.0138483
911.265	0.0138835
911.343	0.0138873
911.421	0.0138187
911.499	0.0137885
911.578	0.0138518
911.656	0.0137952
911.734	0.0138731
911.812	0.0139736
911.890	0.0138278
911.968	0.0138969
912.046	0.0138203
912.124	0.0137260
912.203	0.0139539
912.281	0.0138685
912.359	0.0138120
912.437	0.0138860
912.515	0.0138005
912.593	0.0138670
912.671	0.0138594
912.749	0.0139471
912.828	0.0139391
912.906	0.0138734
912.984	0.0139869
913.062	0.0140267
913.140	0.0138606
913.218	0.0139456
913.296	0.0140898
913.374	0.0140033
913.453	0.0140919
913.531	0.0140188
913.609	0.0141105
913.687	0.0140742
913.765	0.0140124
913.843	0.0139954
913.921	0.0141792
913.999	0.0140047
914.078	0.0140224
914.156	0.0141573
914.234	0.0139991
914.312	0.0140068
914.390	0.0142519
914.468	0.0139572
914.546	0.0140215
914.624	0.0139592
914.703	0.0138763
914.781	0.0139738
914.859	0.0140368
914.937	0.0139423
915.015	0.0139509
915.093	0.0139488
915.171	0.0140506
915.249	0.0138861
915.328	0.0138393
915.406	0.0139914
915.484	0.0137522
915.562	0.0139156
915.640	0.0139548
915.718	0.0140162
915.796	0.0138643
915.874	0.0138554
915.953	0.0139259
916.031	0.0139225
916.109	0.0138895
916.187	0.0138166
916.265	0.0138013
916.343	0.0137724
916.421	0.0138286
916.499	0.0138248
916.578	0.0137167
916.656	0.0137251
916.734	0.0138587
916.812	0.0138847
916.890	0.0138471
916.968	0.0138544
917.046	0.0139635
917.124	0.0138300
917.203	0.0138488
917.281	0.0137870
917.359	0.0139491
917.437	0.0139785
917.515	0.0140744
917.593	0.0139397
917.671	0.0139924
917.749	0.0139210
917.828	0.0141288
917.906	0.0138998
917.984	0.0140742
918.062	0.0141600
918.140	0.0141734
918.218	0.0141417
918.296	0.0140986
918.374	0.0142645
918.453	0.0140819
918.531	0.0142502
918.609	0.0142200
918.687	0.0142564
918.765	0.0142146
918.843	0.0142612
918.921	0.0142876
918.999	0.0141090
919.078	0.0140380
919.156	0.0141509
919.234	0.0141119
919.312	0.0140384
919.390	0.0140269
919.468	0.0140697
919.546	0.0140279
919.624	0.0139070
919.703	0.0140647
919.781	0.0139744
919.859	0.0141019
919.937	0.0142033
