05/08/2022	20:16:07	Ver.	4.1	UNKNOWN
Optical Delay	600.015094	Delta X		0.078125	Sweeps	1	Scan Rate	0/0
Coordinates	Axis 1	NaN	Axis 2	NaN	Axis 3	NaN	Axis 4	NaN	Axis 5	NaN	Axis 6	0.000000
TX Power	0.000000	RX Power	0.000000

600.015	0.0134695
600.093	0.0133097
600.171	0.0134431
600.249	0.0134258
600.328	0.0133620
600.406	0.0132854
600.484	0.0135117
600.562	0.0134460
600.640	0.0133566
600.718	0.0134571
600.796	0.0135648
600.874	0.0133350
600.953	0.0134899
601.031	0.0134435
601.109	0.0134419
601.187	0.0134365
601.265	0.0134087
601.343	0.0132778
601.421	0.0134651
601.499	0.0133823
601.578	0.0134737
601.656	0.0133662
601.734	0.0133744
601.812	0.0135616
601.890	0.0135044
601.968	0.0133652
602.046	0.0133630
602.124	0.0134850
602.203	0.0134239
602.281	0.0134568
602.359	0.0135045
602.437	0.0135693
602.515	0.0133627
602.593	0.0135136
602.671	0.0134409
602.749	0.0134720
602.828	0.0134428
602.906	0.0134207
602.984	0.0133432
603.062	0.0134273
603.140	0.0134336
603.218	0.0134115
603.296	0.0133022
603.374	0.0132591
603.453	0.0133754
603.531	0.0133875
603.609	0.0133459
603.687	0.0133748
603.765	0.0135216
603.843	0.0131898
603.921	0.0133071
603.999	0.0134045
604.078	0.0133486
604.156	0.0132527
604.234	0.0133079
604.312	0.0134175
604.390	0.0133584
604.468	0.0133314
604.546	0.0134609
604.624	0.0131924
604.703	0.0132304
604.781	0.0134235
604.859	0.0134228
604.937	0.0132907
605.015	0.0132697
605.093	0.0134045
605.171	0.0134746
605.249	0.0134197
605.328	0.0133347
605.406	0.0132021
605.484	0.0132628
605.562	0.0134544
605.640	0.0132752
605.718	0.0133832
605.796	0.0134743
605.874	0.0132458
605.953	0.0133996
606.031	0.0133361
606.109	0.0132822
606.187	0.0132018
606.265	0.0132689
606.343	0.0133761
606.421	0.0133190
606.499	0.0132555
606.578	0.0132974
606.656	0.0132328
606.734	0.0133228
606.812	0.0133146
606.890	0.0134194
606.968	0.0131536
607.046	0.0131329
607.124	0.0132884
607.203	0.0131769
607.281	0.0132307
607.359	0.0132491
607.437	0.0132475
607.515	0.0131696
607.593	0.0133420
607.671	0.0133084
607.749	0.0131192
607.828	0.0132112
607.906	0.0131978
607.984	0.0131850
608.062	0.0131712
608.140	0.0133975
608.218	0.0132479
608.296	0.0132101
608.374	0.0133402
608.453	0.0133701
608.531	0.0132782
608.609	0.0131567
608.687	0.0133022
608.765	0.0132583
608.843	0.0132375
608.921	0.0133559
608.999	0.0131458
609.078	0.0132756
609.156	0.0132413
609.234	0.0132394
609.312	0.0133067
609.390	0.0134020
609.468	0.0132710
609.546	0.0132407
609.624	0.0132327
609.703	0.0132928
609.781	0.0133647
609.859	0.0133055
609.937	0.0134652
610.015	0.0132960
610.093	0.0133453
610.171	0.0134193
610.249	0.0132532
610.328	0.0134049
610.406	0.0133202
610.484	0.0133788
610.562	0.0134917
610.640	0.0132853
610.718	0.0134830
610.796	0.0132434
610.874	0.0132778
610.953	0.0133571
611.031	0.0134099
611.109	0.0134180
611.187	0.0133971
611.265	0.0134026
611.343	0.0132824
611.421	0.0133828
611.499	0.0132986
611.578	0.0133612
611.656	0.0132799
611.734	0.0133222
611.812	0.0134206
611.890	0.0133686
611.968	0.0133031
612.046	0.0134390
612.124	0.0133709
612.203	0.0133279
612.281	0.0132250
612.359	0.0133622
612.437	0.0133019
612.515	0.0133370
612.593	0.0133327
612.671	0.0134278
612.749	0.0132536
612.828	0.0133784
612.906	0.0132458
612.984	0.0133115
613.062	0.0134549
613.140	0.0134243
613.218	0.0133009
613.296	0.0132459
613.374	0.0133706
613.453	0.0133152
613.531	0.0134412
613.609	0.0135187
613.687	0.0133710
613.765	0.0132081
613.843	0.0132866
613.921	0.0133635
613.999	0.0135361
614.078	0.0134232
614.156	0.0134862
614.234	0.0135322
614.312	0.0134766
614.390	0.0134534
614.468	0.0134561
614.546	0.0134760
614.624	0.0135950
614.703	0.0134889
614.781	0.0133861
614.859	0.0133787
614.937	0.0136207
615.015	0.0134209
615.093	0.0133997
615.171	0.0134322
615.249	0.0133878
615.328	0.0135904
615.406	0.0133986
615.484	0.0134058
615.562	0.0135581
615.640	0.0135072
615.718	0.0134989
615.796	0.0133986
615.874	0.0134044
615.953	0.0134993
616.031	0.0134354
616.109	0.0135758
616.187	0.0136037
616.265	0.0135496
616.343	0.0134966
616.421	0.0136384
616.499	0.0134766
616.578	0.0136553
616.656	0.0136171
616.734	0.0136835
616.812	0.0136058
616.890	0.0136435
616.968	0.0136969
617.046	0.0137580
617.124	0.0137462
617.203	0.0136807
617.281	0.0136481
617.359	0.0137014
617.437	0.0135256
617.515	0.0135065
617.593	0.0135865
617.671	0.0134589
617.749	0.0135925
617.828	0.0135102
617.906	0.0134467
617.984	0.0135293
618.062	0.0134990
618.140	0.0135042
618.218	0.0134635
618.296	0.0134864
618.374	0.0135836
618.453	0.0134024
618.531	0.0135282
618.609	0.0136134
618.687	0.0134131
618.765	0.0133553
618.843	0.0134141
618.921	0.0134964
618.999	0.0133720
619.078	0.0133461
619.156	0.0134358
619.234	0.0135047
619.312	0.0134063
619.390	0.0134109
619.468	0.0135298
619.546	0.0135101
619.624	0.0133893
619.703	0.0133571
619.781	0.0136078
619.859	0.0134748
619.937	0.0132994
620.015	0.0134026
620.093	0.0133738
620.171	0.0134142
620.249	0.0133497
620.328	0.0134570
620.406	0.0134357
620.484	0.0135794
620.562	0.0135378
620.640	0.0135152
620.718	0.0134475
620.796	0.0136333
620.874	0.0135917
620.953	0.0134758
621.031	0.0134808
621.109	0.0134952
621.187	0.0134907
621.265	0.0135086
621.343	0.0134872
621.421	0.0135609
621.499	0.0136111
621.578	0.0134477
621.656	0.0134483
621.734	0.0134976
621.812	0.0134872
621.890	0.0134635
621.968	0.0134857
622.046	0.0134987
622.124	0.0135075
622.203	0.0135777
622.281	0.0134762
622.359	0.0133492
622.437	0.0135890
622.515	0.0134725
622.593	0.0135006
622.671	0.0134243
622.749	0.0133443
622.828	0.0133986
622.906	0.0133121
622.984	0.0133911
623.062	0.0134110
623.140	0.0133800
623.218	0.0133545
623.296	0.0132957
623.374	0.0133099
623.453	0.0132676
623.531	0.0132281
623.609	0.0132841
623.687	0.0133543
623.765	0.0133926
623.843	0.0132917
623.921	0.0133395
623.999	0.0133110
624.078	0.0133228
624.156	0.0133894
624.234	0.0133109
624.312	0.0132551
624.390	0.0133770
624.468	0.0133678
624.546	0.0132600
624.624	0.0131108
624.703	0.0132410
624.781	0.0132861
624.859	0.0132207
624.937	0.0132532
625.015	0.0132084
625.093	0.0131956
625.171	0.0132219
625.249	0.0132301
625.328	0.0133694
625.406	0.0132969
625.484	0.0132042
625.562	0.0132066
625.640	0.0132641
625.718	0.0133521
625.796	0.0133807
625.874	0.0133663
625.953	0.0132999
626.031	0.0133761
626.109	0.0132270
626.187	0.0133427
626.265	0.0133486
626.343	0.0133787
626.421	0.0134251
626.499	0.0133703
626.578	0.0133565
626.656	0.0133941
626.734	0.0134718
626.812	0.0134656
626.890	0.0134590
626.968	0.0134696
627.046	0.0132858
627.124	0.0133919
627.203	0.0135769
627.281	0.0134132
627.359	0.0134087
627.437	0.0134504
627.515	0.0134659
627.593	0.0134307
627.671	0.0133346
627.749	0.0134686
627.828	0.0133501
627.906	0.0133592
627.984	0.0134200
628.062	0.0135144
628.140	0.0132978
628.218	0.0133723
628.296	0.0132993
628.374	0.0134438
628.453	0.0134802
628.531	0.0133861
628.609	0.0132321
628.687	0.0132394
628.765	0.0133170
628.843	0.0133274
628.921	0.0135125
628.999	0.0134693
629.078	0.0131880
629.156	0.0133592
629.234	0.0132961
629.312	0.0133211
629.390	0.0133752
629.468	0.0134336
629.546	0.0132787
629.624	0.0134505
629.703	0.0132855
629.781	0.0133189
629.859	0.0134074
629.937	0.0133134
630.015	0.0133875
630.093	0.0132825
630.171	0.0134418
630.249	0.0134277
630.328	0.0132327
630.406	0.0132822
630.484	0.0132879
630.562	0.0134018
630.640	0.0134802
630.718	0.0132603
630.796	0.0132243
630.874	0.0134510
630.953	0.0133777
631.031	0.0133047
631.109	0.0132957
631.187	0.0132315
631.265	0.0133523
631.343	0.0133405
631.421	0.0133241
631.499	0.0133931
631.578	0.0133866
631.656	0.0132590
631.734	0.0133028
631.812	0.0132373
631.890	0.0134857
631.968	0.0133511
632.046	0.0133576
632.124	0.0131988
632.203	0.0132712
632.281	0.0132095
632.359	0.0132341
632.437	0.0132389
632.515	0.0132219
632.593	0.0133049
632.671	0.0132907
632.749	0.0132894
632.828	0.0132170
632.906	0.0132218
632.984	0.0132122
633.062	0.0133924
633.140	0.0134534
633.218	0.0134396
633.296	0.0133665
633.374	0.0131934
633.453	0.0132211
633.531	0.0132721
633.609	0.0132957
633.687	0.0131840
633.765	0.0133314
633.843	0.0132925
633.921	0.0131764
633.999	0.0131267
634.078	0.0132260
634.156	0.0133611
634.234	0.0132678
634.312	0.0134040
634.390	0.0133233
634.468	0.0133100
634.546	0.0133524
634.624	0.0132490
634.703	0.0134123
634.781	0.0132561
634.859	0.0132529
634.937	0.0135836
635.015	0.0133971
635.093	0.0134379
635.171	0.0133248
635.249	0.0133818
635.328	0.0134587
635.406	0.0134194
635.484	0.0134432
635.562	0.0134361
635.640	0.0135474
635.718	0.0134184
635.796	0.0135406
635.874	0.0134163
635.953	0.0133804
636.031	0.0135746
636.109	0.0135203
636.187	0.0134879
636.265	0.0134245
636.343	0.0134283
636.421	0.0134312
636.499	0.0134875
636.578	0.0133866
636.656	0.0134300
636.734	0.0134419
636.812	0.0134026
636.890	0.0135166
636.968	0.0134642
637.046	0.0135107
637.124	0.0135273
637.203	0.0135058
637.281	0.0135979
637.359	0.0135857
637.437	0.0136336
637.515	0.0137347
637.593	0.0135970
637.671	0.0135962
637.749	0.0135661
637.828	0.0135999
637.906	0.0135606
637.984	0.0135223
638.062	0.0135332
638.140	0.0135967
638.218	0.0135028
638.296	0.0136317
638.374	0.0135239
638.453	0.0136604
638.531	0.0137018
638.609	0.0137444
638.687	0.0136514
638.765	0.0137519
638.843	0.0136877
638.921	0.0137277
638.999	0.0136113
639.078	0.0135971
639.156	0.0135816
639.234	0.0136441
639.312	0.0136700
639.390	0.0136181
639.468	0.0135999
639.546	0.0137531
639.624	0.0136679
639.703	0.0136684
639.781	0.0137061
639.859	0.0137460
639.937	0.0138148
640.015	0.0137928
640.093	0.0138438
640.171	0.0137024
640.249	0.0138997
640.328	0.0140116
640.406	0.0137498
640.484	0.0136298
640.562	0.0136827
640.640	0.0137463
640.718	0.0136130
640.796	0.0135450
640.874	0.0135059
640.953	0.0133408
641.031	0.0134042
641.109	0.0134151
641.187	0.0133425
641.265	0.0132667
641.343	0.0130948
641.421	0.0130927
641.499	0.0131818
641.578	0.0132101
641.656	0.0133124
641.734	0.0133498
641.812	0.0132681
641.890	0.0133128
641.968	0.0132925
642.046	0.0135223
642.124	0.0135234
642.203	0.0135119
642.281	0.0136314
642.359	0.0135841
642.437	0.0136407
642.515	0.0135963
642.593	0.0137074
642.671	0.0136857
642.749	0.0136707
642.828	0.0137656
642.906	0.0137428
642.984	0.0138673
643.062	0.0138581
643.140	0.0138164
643.218	0.0137282
643.296	0.0137444
643.374	0.0136300
643.453	0.0136349
643.531	0.0134940
643.609	0.0132538
643.687	0.0132433
643.765	0.0131348
643.843	0.0131614
643.921	0.0130363
643.999	0.0129719
644.078	0.0128663
644.156	0.0128040
644.234	0.0128860
644.312	0.0129438
644.390	0.0128405
644.468	0.0130151
644.546	0.0130751
644.624	0.0131716
644.703	0.0132635
644.781	0.0134710
644.859	0.0133368
644.937	0.0136443
645.015	0.0137228
645.093	0.0138338
645.171	0.0139925
645.249	0.0139494
645.328	0.0141123
645.406	0.0141743
645.484	0.0141501
645.562	0.0141093
645.640	0.0142572
645.718	0.0143649
645.796	0.0143610
645.874	0.0143262
645.953	0.0143385
646.031	0.0142150
646.109	0.0141017
646.187	0.0138480
646.265	0.0137298
646.343	0.0135183
646.421	0.0133746
646.499	0.0131045
646.578	0.0128568
646.656	0.0125786
646.734	0.0125321
646.812	0.0124628
646.890	0.0123824
646.968	0.0122218
647.046	0.0122809
647.124	0.0123174
647.203	0.0124435
647.281	0.0126054
647.359	0.0125655
647.437	0.0127914
647.515	0.0130219
647.593	0.0130754
647.671	0.0134546
647.749	0.0137342
647.828	0.0137340
647.906	0.0139761
647.984	0.0143620
648.062	0.0144119
648.140	0.0146539
648.218	0.0146446
648.296	0.0147763
648.374	0.0147127
648.453	0.0148724
648.531	0.0147797
648.609	0.0145580
648.687	0.0144533
648.765	0.0142979
648.843	0.0141993
648.921	0.0139494
648.999	0.0138950
649.078	0.0135593
649.156	0.0133987
649.234	0.0129902
649.312	0.0129892
649.390	0.0127498
649.468	0.0124027
649.546	0.0122424
649.624	0.0119862
649.703	0.0120369
649.781	0.0117908
649.859	0.0118756
649.937	0.0118732
650.015	0.0118726
650.093	0.0120116
650.171	0.0122069
650.249	0.0123009
650.328	0.0126205
650.406	0.0129572
650.484	0.0130251
650.562	0.0134400
650.640	0.0138342
650.718	0.0138423
650.796	0.0142972
650.874	0.0145583
650.953	0.0148048
651.031	0.0149666
651.109	0.0150459
651.187	0.0152847
651.265	0.0151805
651.343	0.0151810
651.421	0.0152781
651.499	0.0152087
651.578	0.0150011
651.656	0.0149722
651.734	0.0149751
651.812	0.0146307
651.890	0.0143278
651.968	0.0140814
652.046	0.0138301
652.124	0.0135894
652.203	0.0132612
652.281	0.0130231
652.359	0.0127278
652.437	0.0124957
652.515	0.0122364
652.593	0.0121935
652.671	0.0120528
652.749	0.0120304
652.828	0.0119153
652.906	0.0118263
652.984	0.0119256
653.062	0.0119726
653.140	0.0120103
653.218	0.0121062
653.296	0.0123747
653.374	0.0124941
653.453	0.0124400
653.531	0.0126126
653.609	0.0129115
653.687	0.0130405
653.765	0.0131532
653.843	0.0134040
653.921	0.0135657
653.999	0.0136827
654.078	0.0138551
654.156	0.0138660
654.234	0.0140444
654.312	0.0142029
654.390	0.0141240
654.468	0.0141257
654.546	0.0144902
654.624	0.0142671
654.703	0.0143330
654.781	0.0141817
654.859	0.0141640
654.937	0.0140656
655.015	0.0140283
655.093	0.0140012
655.171	0.0137307
655.249	0.0137294
655.328	0.0134501
655.406	0.0132594
655.484	0.0131496
655.562	0.0132043
655.640	0.0130054
655.718	0.0127161
655.796	0.0126809
655.874	0.0127560
655.953	0.0126311
656.031	0.0126829
656.109	0.0126984
656.187	0.0128197
656.265	0.0129239
656.343	0.0129978
656.421	0.0131119
656.499	0.0132915
656.578	0.0133612
656.656	0.0134966
656.734	0.0136938
656.812	0.0138185
656.890	0.0138559
656.968	0.0139725
657.046	0.0140379
657.124	0.0141283
657.203	0.0141444
657.281	0.0142935
657.359	0.0139729
657.437	0.0140498
657.515	0.0139102
657.593	0.0137862
657.671	0.0135525
657.749	0.0134498
657.828	0.0132388
657.906	0.0128911
657.984	0.0127443
658.062	0.0125199
658.140	0.0122037
658.218	0.0120111
658.296	0.0118198
658.374	0.0115997
658.453	0.0113715
658.531	0.0113796
658.609	0.0114475
658.687	0.0114036
658.765	0.0114851
658.843	0.0114785
658.921	0.0116505
658.999	0.0117418
659.078	0.0121996
659.156	0.0125289
659.234	0.0127003
659.312	0.0130804
659.390	0.0133707
659.468	0.0135744
659.546	0.0139420
659.624	0.0142454
659.703	0.0145357
659.781	0.0148122
659.859	0.0149745
659.937	0.0152055
660.015	0.0154826
660.093	0.0156820
660.171	0.0156244
660.249	0.0157607
660.328	0.0156628
660.406	0.0156510
660.484	0.0155029
660.562	0.0150551
660.640	0.0148284
660.718	0.0148273
660.796	0.0144610
660.874	0.0142225
660.953	0.0138375
661.031	0.0136410
661.109	0.0133659
661.187	0.0130244
661.265	0.0128030
661.343	0.0125758
661.421	0.0124158
661.499	0.0123183
661.578	0.0121923
661.656	0.0121450
661.734	0.0121417
661.812	0.0121703
661.890	0.0120741
661.968	0.0122005
662.046	0.0122013
662.124	0.0122963
662.203	0.0124257
662.281	0.0125166
662.359	0.0124432
662.437	0.0125477
662.515	0.0125208
662.593	0.0125062
662.671	0.0126538
662.749	0.0127058
662.828	0.0126257
662.906	0.0126834
662.984	0.0127630
663.062	0.0125784
663.140	0.0127915
663.218	0.0128254
663.296	0.0128613
663.374	0.0127264
663.453	0.0125671
663.531	0.0125863
663.609	0.0127512
663.687	0.0127040
663.765	0.0126866
663.843	0.0128360
663.921	0.0128918
663.999	0.0130863
664.078	0.0131601
664.156	0.0132898
664.234	0.0136448
664.312	0.0139187
664.390	0.0141047
664.468	0.0141965
664.546	0.0145288
664.624	0.0148542
664.703	0.0149482
664.781	0.0152096
664.859	0.0153335
664.937	0.0154889
665.015	0.0155460
665.093	0.0156112
665.171	0.0155975
665.249	0.0156686
665.328	0.0155889
665.406	0.0154878
665.484	0.0153462
665.562	0.0151876
665.640	0.0150970
665.718	0.0150370
665.796	0.0145796
665.874	0.0145053
665.953	0.0142230
666.031	0.0139039
666.109	0.0136968
666.187	0.0133141
666.265	0.0129821
666.343	0.0127521
666.421	0.0125084
666.499	0.0122013
666.578	0.0117265
666.656	0.0116579
666.734	0.0114597
666.812	0.0110890
666.890	0.0109453
666.968	0.0109677
667.046	0.0110098
667.124	0.0109186
667.203	0.0109363
667.281	0.0111401
667.359	0.0111446
667.437	0.0112198
667.515	0.0113240
667.593	0.0115614
667.671	0.0118075
667.749	0.0120383
667.828	0.0123154
667.906	0.0124999
667.984	0.0128406
668.062	0.0129348
668.140	0.0130956
668.218	0.0133180
668.296	0.0134924
668.374	0.0137920
668.453	0.0138692
668.531	0.0138661
668.609	0.0141898
668.687	0.0141867
668.765	0.0142419
668.843	0.0143391
668.921	0.0143924
668.999	0.0145419
669.078	0.0145121
669.156	0.0146699
669.234	0.0144707
669.312	0.0146984
669.390	0.0147795
669.468	0.0148965
669.546	0.0148634
669.624	0.0149749
669.703	0.0151674
669.781	0.0152739
669.859	0.0152688
669.937	0.0151620
670.015	0.0153085
670.093	0.0153245
670.171	0.0153806
670.249	0.0152883
670.328	0.0150146
670.406	0.0152099
670.484	0.0150111
670.562	0.0148699
670.640	0.0147927
670.718	0.0146612
670.796	0.0146691
670.874	0.0144042
670.953	0.0143131
671.031	0.0141212
671.109	0.0138857
671.187	0.0137527
671.265	0.0134444
671.343	0.0133224
671.421	0.0131059
671.499	0.0127611
671.578	0.0124382
671.656	0.0122293
671.734	0.0120377
671.812	0.0116046
671.890	0.0114440
671.968	0.0114209
672.046	0.0112920
672.124	0.0110995
672.203	0.0111591
672.281	0.0109026
672.359	0.0110516
672.437	0.0111509
672.515	0.0112094
672.593	0.0115664
672.671	0.0116789
672.749	0.0119592
672.828	0.0120898
672.906	0.0124912
672.984	0.0126232
673.062	0.0127922
673.140	0.0127711
673.218	0.0130680
673.296	0.0132733
673.374	0.0132088
673.453	0.0133722
673.531	0.0133951
673.609	0.0136036
673.687	0.0137466
673.765	0.0138069
673.843	0.0138422
673.921	0.0140007
673.999	0.0139835
674.078	0.0141747
674.156	0.0142186
674.234	0.0143443
674.312	0.0143121
674.390	0.0144016
674.468	0.0146110
674.546	0.0146682
674.624	0.0147880
674.703	0.0148900
674.781	0.0148894
674.859	0.0150763
674.937	0.0150890
675.015	0.0152261
675.093	0.0152698
675.171	0.0153434
675.249	0.0154665
675.328	0.0153642
675.406	0.0155792
675.484	0.0155223
675.562	0.0155467
675.640	0.0153898
675.718	0.0152092
675.796	0.0152478
675.874	0.0150819
675.953	0.0151203
676.031	0.0150922
676.109	0.0149387
676.187	0.0147876
676.265	0.0145272
676.343	0.0144913
676.421	0.0141826
676.499	0.0140323
676.578	0.0134961
676.656	0.0132266
676.734	0.0130176
676.812	0.0123311
676.890	0.0120564
676.968	0.0117764
677.046	0.0113204
677.124	0.0109876
677.203	0.0109089
677.281	0.0104808
677.359	0.0102544
677.437	0.0102332
677.515	0.0100949
677.593	0.0100893
677.671	0.00995651
677.749	0.0100105
677.828	0.0101784
677.906	0.0103796
677.984	0.0106229
678.062	0.0106690
678.140	0.0108932
678.218	0.0110039
678.296	0.0113871
678.374	0.0116746
678.453	0.0118441
678.531	0.0122176
678.609	0.0124437
678.687	0.0127919
678.765	0.0132247
678.843	0.0135085
678.921	0.0135565
678.999	0.0138586
679.078	0.0143772
679.156	0.0146669
679.234	0.0150081
679.312	0.0152357
679.390	0.0154969
679.468	0.0156499
679.546	0.0159203
679.624	0.0160800
679.703	0.0160564
679.781	0.0161719
679.859	0.0162135
679.937	0.0162166
680.015	0.0162000
680.093	0.0161423
680.171	0.0159739
680.249	0.0155736
680.328	0.0154467
680.406	0.0152840
680.484	0.0149829
680.562	0.0148515
680.640	0.0147324
680.718	0.0145986
680.796	0.0143078
680.874	0.0142807
680.953	0.0141443
681.031	0.0141357
681.109	0.0140852
681.187	0.0138972
681.265	0.0137209
681.343	0.0136165
681.421	0.0134769
681.499	0.0132550
681.578	0.0129185
681.656	0.0127522
681.734	0.0125826
681.812	0.0124477
681.890	0.0121973
681.968	0.0121475
682.046	0.0115732
682.124	0.0116377
682.203	0.0113984
682.281	0.0110609
682.359	0.0110020
682.437	0.0107700
682.515	0.0108028
682.593	0.0106625
682.671	0.0105297
682.749	0.0104778
682.828	0.0104854
682.906	0.0107261
682.984	0.0107947
683.062	0.0108626
683.140	0.0111253
683.218	0.0114823
683.296	0.0115053
683.374	0.0118653
683.453	0.0121551
683.531	0.0123851
683.609	0.0127009
683.687	0.0128561
683.765	0.0130598
683.843	0.0133729
683.921	0.0136610
683.999	0.0137658
684.078	0.0138198
684.156	0.0140945
684.234	0.0143326
684.312	0.0146425
684.390	0.0147408
684.468	0.0148316
684.546	0.0150390
684.624	0.0152464
684.703	0.0151580
684.781	0.0153048
684.859	0.0153075
684.937	0.0154043
685.015	0.0153020
685.093	0.0151301
685.171	0.0148405
685.249	0.0148192
685.328	0.0145992
685.406	0.0145238
685.484	0.0143304
685.562	0.0140517
685.640	0.0138199
685.718	0.0137741
685.796	0.0138274
685.874	0.0134863
685.953	0.0133920
686.031	0.0134322
686.109	0.0133549
686.187	0.0132995
686.265	0.0130328
686.343	0.0131600
686.421	0.0132395
686.499	0.0131493
686.578	0.0132394
686.656	0.0132485
686.734	0.0132106
686.812	0.0132689
686.890	0.0130303
686.968	0.0129222
687.046	0.0128464
687.124	0.0129900
687.203	0.0128968
687.281	0.0129183
687.359	0.0128139
687.437	0.0127638
687.515	0.0128455
687.593	0.0129190
687.671	0.0128509
687.749	0.0129194
687.828	0.0128230
687.906	0.0129143
687.984	0.0129238
688.062	0.0128425
688.140	0.0126826
688.218	0.0125829
688.296	0.0126339
688.374	0.0125571
688.453	0.0124121
688.531	0.0122740
688.609	0.0122290
688.687	0.0122309
688.765	0.0122477
688.843	0.0120426
688.921	0.0119754
688.999	0.0121529
689.078	0.0121252
689.156	0.0123122
689.234	0.0124268
689.312	0.0125094
689.390	0.0126151
689.468	0.0125708
689.546	0.0127837
689.624	0.0129022
689.703	0.0130679
689.781	0.0132690
689.859	0.0134301
689.937	0.0134325
690.015	0.0137289
690.093	0.0137183
690.171	0.0136961
690.249	0.0138680
690.328	0.0139535
690.406	0.0140684
690.484	0.0139906
690.562	0.0140806
690.640	0.0141444
690.718	0.0143521
690.796	0.0142928
690.874	0.0143027
690.953	0.0143887
691.031	0.0143314
691.109	0.0143328
691.187	0.0141830
691.265	0.0144420
691.343	0.0143767
691.421	0.0143696
691.499	0.0143837
691.578	0.0142461
691.656	0.0142990
691.734	0.0141602
691.812	0.0141426
691.890	0.0140131
691.968	0.0140067
692.046	0.0138754
692.124	0.0137702
692.203	0.0137613
692.281	0.0136304
692.359	0.0136384
692.437	0.0133642
692.515	0.0134653
692.593	0.0136440
692.671	0.0135449
692.749	0.0134634
692.828	0.0135149
692.906	0.0135928
692.984	0.0135191
693.062	0.0134261
693.140	0.0134002
693.218	0.0134231
693.296	0.0134191
693.374	0.0134828
693.453	0.0133469
693.531	0.0133363
693.609	0.0132806
693.687	0.0131480
693.765	0.0133673
693.843	0.0132963
693.921	0.0133217
693.999	0.0131174
694.078	0.0129796
694.156	0.0130221
694.234	0.0130328
694.312	0.0131497
694.390	0.0129260
694.468	0.0128782
694.546	0.0129013
694.624	0.0129642
694.703	0.0130014
694.781	0.0130986
694.859	0.0132016
694.937	0.0132219
695.015	0.0132254
695.093	0.0133243
695.171	0.0134679
695.249	0.0133514
695.328	0.0134853
695.406	0.0135480
695.484	0.0136525
695.562	0.0137003
695.640	0.0136429
695.718	0.0137886
695.796	0.0137532
695.874	0.0137221
695.953	0.0136095
696.031	0.0135019
696.109	0.0134841
696.187	0.0133994
696.265	0.0133531
696.343	0.0133435
696.421	0.0132790
696.499	0.0131532
696.578	0.0131481
696.656	0.0132037
696.734	0.0131662
696.812	0.0131963
696.890	0.0132906
696.968	0.0135475
697.046	0.0136421
697.124	0.0135432
697.203	0.0137642
697.281	0.0138354
697.359	0.0138314
697.437	0.0139527
697.515	0.0141156
697.593	0.0140714
697.671	0.0143046
697.749	0.0144497
697.828	0.0144656
697.906	0.0144782
697.984	0.0145557
698.062	0.0146613
698.140	0.0147497
698.218	0.0147565
698.296	0.0146704
698.374	0.0145632
698.453	0.0146082
698.531	0.0145393
698.609	0.0144774
698.687	0.0143685
698.765	0.0142096
698.843	0.0138849
698.921	0.0138419
698.999	0.0135336
699.078	0.0135101
699.156	0.0132220
699.234	0.0130064
699.312	0.0128206
699.390	0.0127462
699.468	0.0126268
699.546	0.0124113
699.624	0.0122804
699.703	0.0120928
699.781	0.0121473
699.859	0.0120598
699.937	0.0118716
700.015	0.0120802
700.093	0.0117971
700.171	0.0118865
700.249	0.0120943
700.328	0.0119264
700.406	0.0121680
700.484	0.0122082
700.562	0.0123349
700.640	0.0123430
700.718	0.0124579
700.796	0.0127309
700.874	0.0129261
700.953	0.0130553
701.031	0.0130051
701.109	0.0132545
701.187	0.0133263
701.265	0.0135872
701.343	0.0135980
701.421	0.0138113
701.499	0.0138636
701.578	0.0140153
701.656	0.0140417
701.734	0.0141316
701.812	0.0142528
701.890	0.0142888
701.968	0.0144291
702.046	0.0144292
702.124	0.0144693
702.203	0.0144964
702.281	0.0146001
702.359	0.0146629
702.437	0.0146006
702.515	0.0145948
702.593	0.0145819
702.671	0.0145226
702.749	0.0143798
702.828	0.0143650
702.906	0.0143935
702.984	0.0140977
703.062	0.0140862
703.140	0.0138474
703.218	0.0136385
703.296	0.0135536
703.374	0.0133974
703.453	0.0133015
703.531	0.0131193
703.609	0.0130064
703.687	0.0129102
703.765	0.0127549
703.843	0.0127763
703.921	0.0127763
703.999	0.0126618
704.078	0.0123571
704.156	0.0125430
704.234	0.0124698
704.312	0.0125395
704.390	0.0124433
704.468	0.0124873
704.546	0.0126805
704.624	0.0126852
704.703	0.0126698
704.781	0.0128281
704.859	0.0129141
704.937	0.0130739
705.015	0.0130341
705.093	0.0131076
705.171	0.0132546
705.249	0.0133004
705.328	0.0131887
705.406	0.0133231
705.484	0.0134758
705.562	0.0134697
705.640	0.0134757
705.718	0.0135168
705.796	0.0134243
705.874	0.0134925
705.953	0.0135492
706.031	0.0135364
706.109	0.0136765
706.187	0.0138235
706.265	0.0137724
706.343	0.0138564
706.421	0.0139312
706.499	0.0139135
706.578	0.0140061
706.656	0.0139915
706.734	0.0138940
706.812	0.0139394
706.890	0.0138084
706.968	0.0138964
707.046	0.0137670
707.124	0.0136041
707.203	0.0136479
707.281	0.0135944
707.359	0.0134245
707.437	0.0133841
707.515	0.0131553
707.593	0.0130479
707.671	0.0131152
707.749	0.0130701
707.828	0.0129936
707.906	0.0127643
707.984	0.0126849
708.062	0.0126703
708.140	0.0125502
708.218	0.0125560
708.296	0.0125459
708.374	0.0123710
708.453	0.0123589
708.531	0.0124627
708.609	0.0124506
708.687	0.0124638
708.765	0.0124003
708.843	0.0124720
708.921	0.0125616
708.999	0.0126785
709.078	0.0127132
709.156	0.0127904
709.234	0.0129507
709.312	0.0131154
709.390	0.0132484
709.468	0.0133992
709.546	0.0135576
709.624	0.0137003
709.703	0.0137904
709.781	0.0138590
709.859	0.0141254
709.937	0.0140343
710.015	0.0140659
710.093	0.0141305
710.171	0.0139426
710.249	0.0141801
710.328	0.0141891
710.406	0.0141500
710.484	0.0140342
710.562	0.0140875
710.640	0.0140034
710.718	0.0139220
710.796	0.0139351
710.874	0.0138808
710.953	0.0138103
711.031	0.0137218
711.109	0.0137218
711.187	0.0135239
711.265	0.0134549
711.343	0.0136160
711.421	0.0134388
711.499	0.0132980
711.578	0.0133206
711.656	0.0133232
711.734	0.0133245
711.812	0.0133078
711.890	0.0133376
711.968	0.0132158
712.046	0.0132790
712.124	0.0130901
712.203	0.0131797
712.281	0.0130663
712.359	0.0130975
712.437	0.0130564
712.515	0.0129963
712.593	0.0130189
712.671	0.0129395
712.749	0.0128872
712.828	0.0130088
712.906	0.0129104
712.984	0.0130400
713.062	0.0131474
713.140	0.0130470
713.218	0.0131894
713.296	0.0134034
713.374	0.0134390
713.453	0.0134409
713.531	0.0135787
713.609	0.0134966
713.687	0.0134370
713.765	0.0135330
713.843	0.0136561
713.921	0.0135850
713.999	0.0136069
714.078	0.0135213
714.156	0.0135818
714.234	0.0136821
714.312	0.0135505
714.390	0.0137057
714.468	0.0135144
714.546	0.0136998
714.624	0.0135458
714.703	0.0135338
714.781	0.0133763
714.859	0.0133317
714.937	0.0132226
715.015	0.0132858
715.093	0.0131557
715.171	0.0130968
715.249	0.0129613
715.328	0.0129726
715.406	0.0130202
715.484	0.0129260
715.562	0.0128537
715.640	0.0128506
715.718	0.0128889
715.796	0.0129351
715.874	0.0130540
715.953	0.0130983
716.031	0.0133311
716.109	0.0133235
716.187	0.0135395
716.265	0.0134032
716.343	0.0135522
716.421	0.0136727
716.499	0.0137219
716.578	0.0137996
716.656	0.0138117
716.734	0.0140240
716.812	0.0138887
716.890	0.0139336
716.968	0.0140417
717.046	0.0140388
717.124	0.0143443
717.203	0.0141230
717.281	0.0140896
717.359	0.0142337
717.437	0.0140722
717.515	0.0141939
717.593	0.0140692
717.671	0.0139868
717.749	0.0139471
717.828	0.0139552
717.906	0.0139683
717.984	0.0138235
718.062	0.0136274
718.140	0.0137346
718.218	0.0135694
718.296	0.0134380
718.374	0.0134789
718.453	0.0134904
718.531	0.0132462
718.609	0.0132397
718.687	0.0132899
718.765	0.0133555
718.843	0.0131433
718.921	0.0131168
718.999	0.0130993
719.078	0.0130714
719.156	0.0130116
719.234	0.0129489
719.312	0.0129887
719.390	0.0129577
719.468	0.0129907
719.546	0.0131331
719.624	0.0130891
719.703	0.0131704
719.781	0.0134001
719.859	0.0134137
719.937	0.0134399
720.015	0.0135197
720.093	0.0133987
720.171	0.0136719
720.249	0.0136697
720.328	0.0135187
720.406	0.0135336
720.484	0.0135003
720.562	0.0136332
720.640	0.0134962
720.718	0.0133289
720.796	0.0135120
720.874	0.0134216
720.953	0.0132818
721.031	0.0134676
721.109	0.0133891
721.187	0.0133436
721.265	0.0132895
721.343	0.0132634
721.421	0.0132943
721.499	0.0132848
721.578	0.0132452
721.656	0.0133565
721.734	0.0133740
721.812	0.0132480
721.890	0.0132757
721.968	0.0131857
722.046	0.0131351
722.124	0.0134480
722.203	0.0132613
722.281	0.0133159
722.359	0.0133247
722.437	0.0134141
722.515	0.0134052
722.593	0.0133299
722.671	0.0133479
722.749	0.0134664
722.828	0.0135682
722.906	0.0135816
722.984	0.0136536
723.062	0.0135777
723.140	0.0135448
723.218	0.0136309
723.296	0.0137317
723.374	0.0136283
723.453	0.0137012
723.531	0.0135944
723.609	0.0135999
723.687	0.0133976
723.765	0.0135015
723.843	0.0136066
723.921	0.0135358
723.999	0.0135363
724.078	0.0135939
724.156	0.0136161
724.234	0.0134801
724.312	0.0135355
724.390	0.0136275
724.468	0.0135022
724.546	0.0135427
724.624	0.0136021
724.703	0.0136543
724.781	0.0135966
724.859	0.0135371
724.937	0.0135857
725.015	0.0134724
725.093	0.0131358
725.171	0.0132847
725.249	0.0133022
725.328	0.0132524
725.406	0.0131963
725.484	0.0130003
725.562	0.0130763
725.640	0.0132433
725.718	0.0132429
725.796	0.0131805
725.874	0.0129997
725.953	0.0129150
726.031	0.0130556
726.109	0.0130894
726.187	0.0129408
726.265	0.0130195
726.343	0.0129417
726.421	0.0130002
726.499	0.0129179
726.578	0.0129645
726.656	0.0130118
726.734	0.0130582
726.812	0.0129291
726.890	0.0129272
726.968	0.0130231
727.046	0.0131469
727.124	0.0131744
727.203	0.0132692
727.281	0.0131770
727.359	0.0132275
727.437	0.0133477
727.515	0.0134707
727.593	0.0134038
727.671	0.0134269
727.749	0.0133571
727.828	0.0134467
727.906	0.0135168
727.984	0.0135292
728.062	0.0132299
728.140	0.0133122
728.218	0.0133488
728.296	0.0133150
728.374	0.0133646
728.453	0.0133070
728.531	0.0133983
728.609	0.0133457
728.687	0.0132034
728.765	0.0133605
728.843	0.0134889
728.921	0.0132134
728.999	0.0132128
729.078	0.0133260
729.156	0.0135064
729.234	0.0133739
729.312	0.0134158
729.390	0.0134141
729.468	0.0133709
729.546	0.0134711
729.624	0.0135093
729.703	0.0135358
729.781	0.0134308
729.859	0.0134999
729.937	0.0135088
730.015	0.0135424
730.093	0.0134639
730.171	0.0134409
730.249	0.0136114
730.328	0.0135702
730.406	0.0136632
730.484	0.0136181
730.562	0.0135488
730.640	0.0135354
730.718	0.0134787
730.796	0.0137166
730.874	0.0135626
730.953	0.0135427
731.031	0.0135128
731.109	0.0136172
731.187	0.0136332
731.265	0.0135484
731.343	0.0136287
731.421	0.0136568
731.499	0.0134943
731.578	0.0135884
731.656	0.0136097
731.734	0.0136418
731.812	0.0136420
731.890	0.0135936
731.968	0.0134588
732.046	0.0135088
732.124	0.0136077
732.203	0.0135961
732.281	0.0134184
732.359	0.0134576
732.437	0.0133906
732.515	0.0132765
732.593	0.0133762
732.671	0.0132399
732.749	0.0131739
732.828	0.0130045
732.906	0.0129510
732.984	0.0130322
733.062	0.0129230
733.140	0.0129952
733.218	0.0128448
733.296	0.0128205
733.374	0.0129109
733.453	0.0130511
733.531	0.0128941
733.609	0.0129335
733.687	0.0128647
733.765	0.0130724
733.843	0.0128692
733.921	0.0127983
733.999	0.0129958
734.078	0.0130849
734.156	0.0131161
734.234	0.0130979
734.312	0.0133321
734.390	0.0133513
734.468	0.0133032
734.546	0.0134272
734.624	0.0136478
734.703	0.0134750
734.781	0.0136758
734.859	0.0136932
734.937	0.0136308
735.015	0.0136434
735.093	0.0137957
735.171	0.0135487
735.249	0.0136581
735.328	0.0137668
735.406	0.0137898
735.484	0.0136875
735.562	0.0137016
735.640	0.0137613
735.718	0.0138342
735.796	0.0137392
735.874	0.0137473
735.953	0.0138015
736.031	0.0137867
736.109	0.0137153
736.187	0.0138322
736.265	0.0138243
736.343	0.0137809
736.421	0.0139817
736.499	0.0136636
736.578	0.0138245
736.656	0.0136633
736.734	0.0135967
736.812	0.0136859
736.890	0.0133138
736.968	0.0133327
737.046	0.0133031
737.124	0.0132658
737.203	0.0132714
737.281	0.0131378
737.359	0.0130146
737.437	0.0132438
737.515	0.0132178
737.593	0.0131865
737.671	0.0132398
737.749	0.0131991
737.828	0.0132381
737.906	0.0131423
737.984	0.0131537
738.062	0.0132760
738.140	0.0132738
738.218	0.0131239
738.296	0.0132477
738.374	0.0134891
738.453	0.0132406
738.531	0.0133519
738.609	0.0132896
738.687	0.0134418
738.765	0.0133604
738.843	0.0134121
738.921	0.0135044
738.999	0.0133923
739.078	0.0133817
739.156	0.0135434
739.234	0.0134673
739.312	0.0134780
739.390	0.0134754
739.468	0.0135338
739.546	0.0135215
739.624	0.0134975
739.703	0.0134241
739.781	0.0135374
739.859	0.0134025
739.937	0.0134409
740.015	0.0134311
740.093	0.0134848
740.171	0.0134572
740.249	0.0134031
740.328	0.0135072
740.406	0.0133923
740.484	0.0134268
740.562	0.0134708
740.640	0.0134924
740.718	0.0134009
740.796	0.0133733
740.874	0.0134107
740.953	0.0134621
741.031	0.0134491
741.109	0.0134592
741.187	0.0134754
741.265	0.0134236
741.343	0.0134650
741.421	0.0134560
741.499	0.0133685
741.578	0.0133167
741.656	0.0133988
741.734	0.0134959
741.812	0.0133749
741.890	0.0134874
741.968	0.0135031
742.046	0.0135661
742.124	0.0134896
742.203	0.0135977
742.281	0.0135564
742.359	0.0135840
742.437	0.0135212
742.515	0.0135273
742.593	0.0136018
742.671	0.0137203
742.749	0.0135065
742.828	0.0135416
742.906	0.0137083
742.984	0.0136089
743.062	0.0137453
743.140	0.0136416
743.218	0.0136752
743.296	0.0136531
743.374	0.0136167
743.453	0.0136168
743.531	0.0133450
743.609	0.0134743
743.687	0.0134399
743.765	0.0135310
743.843	0.0134327
743.921	0.0134717
743.999	0.0132777
744.078	0.0132508
744.156	0.0133493
744.234	0.0134594
744.312	0.0131451
744.390	0.0132491
744.468	0.0131591
744.546	0.0131424
744.624	0.0132153
744.703	0.0132301
744.781	0.0132809
744.859	0.0133379
744.937	0.0133987
745.015	0.0133813
745.093	0.0134231
745.171	0.0134554
745.249	0.0133707
745.328	0.0133913
745.406	0.0132906
745.484	0.0133117
745.562	0.0131827
745.640	0.0132294
745.718	0.0133164
745.796	0.0132317
745.874	0.0132848
745.953	0.0132440
746.031	0.0132055
746.109	0.0130743
746.187	0.0131712
746.265	0.0133104
746.343	0.0131124
746.421	0.0131129
746.499	0.0130950
746.578	0.0129572
746.656	0.0131372
746.734	0.0131605
746.812	0.0131863
746.890	0.0130802
746.968	0.0129161
747.046	0.0131765
747.124	0.0132256
747.203	0.0131052
747.281	0.0131996
747.359	0.0132499
747.437	0.0134757
747.515	0.0134554
747.593	0.0133434
747.671	0.0135857
747.749	0.0135133
747.828	0.0135821
747.906	0.0137836
747.984	0.0138175
748.062	0.0139606
748.140	0.0138497
748.218	0.0139591
748.296	0.0137821
748.374	0.0139409
748.453	0.0137467
748.531	0.0137231
748.609	0.0138246
748.687	0.0137322
748.765	0.0136800
748.843	0.0136188
748.921	0.0134939
748.999	0.0134418
749.078	0.0133441
749.156	0.0132587
749.234	0.0133073
749.312	0.0132379
749.390	0.0131673
749.468	0.0130020
749.546	0.0129350
749.624	0.0128577
749.703	0.0128793
749.781	0.0128461
749.859	0.0128661
749.937	0.0129227
750.015	0.0130338
750.093	0.0130823
750.171	0.0129268
750.249	0.0127618
750.328	0.0130041
750.406	0.0130736
750.484	0.0131120
750.562	0.0131289
750.640	0.0131503
750.718	0.0131872
750.796	0.0131316
750.874	0.0131944
750.953	0.0132938
751.031	0.0133687
751.109	0.0133341
751.187	0.0132503
751.265	0.0134384
751.343	0.0133813
751.421	0.0133968
751.499	0.0132871
751.578	0.0132866
751.656	0.0133160
751.734	0.0133772
751.812	0.0134082
751.890	0.0132993
751.968	0.0133880
752.046	0.0131562
752.124	0.0131990
752.203	0.0132831
752.281	0.0133010
752.359	0.0132849
752.437	0.0132523
752.515	0.0132321
752.593	0.0132397
752.671	0.0133430
752.749	0.0133234
752.828	0.0133894
752.906	0.0132789
752.984	0.0133475
753.062	0.0132613
753.140	0.0133035
753.218	0.0133912
753.296	0.0133574
753.374	0.0135115
753.453	0.0134893
753.531	0.0132866
753.609	0.0136272
753.687	0.0135571
753.765	0.0135676
753.843	0.0137257
753.921	0.0136117
753.999	0.0137365
754.078	0.0137879
754.156	0.0136807
754.234	0.0137433
754.312	0.0138444
754.390	0.0137664
754.468	0.0136720
754.546	0.0137763
754.624	0.0137515
754.703	0.0138351
754.781	0.0136903
754.859	0.0135987
754.937	0.0135242
755.015	0.0134917
755.093	0.0134911
755.171	0.0134235
755.249	0.0134526
755.328	0.0132623
755.406	0.0132221
755.484	0.0134404
755.562	0.0132217
755.640	0.0132518
755.718	0.0132539
755.796	0.0131504
755.874	0.0131920
755.953	0.0130355
756.031	0.0132823
756.109	0.0131530
756.187	0.0131804
756.265	0.0131521
756.343	0.0131503
756.421	0.0131355
756.499	0.0130508
756.578	0.0132203
756.656	0.0133931
756.734	0.0133168
756.812	0.0131931
756.890	0.0132719
756.968	0.0134149
757.046	0.0134743
757.124	0.0134598
757.203	0.0134959
757.281	0.0133904
757.359	0.0135576
757.437	0.0136526
757.515	0.0136117
757.593	0.0135329
757.671	0.0136552
757.749	0.0134564
757.828	0.0135973
757.906	0.0135274
757.984	0.0135007
758.062	0.0136042
758.140	0.0135559
758.218	0.0135172
758.296	0.0134127
758.374	0.0133976
758.453	0.0133601
758.531	0.0134692
758.609	0.0134261
758.687	0.0133970
758.765	0.0134601
758.843	0.0134272
758.921	0.0134779
758.999	0.0133929
759.078	0.0135820
759.156	0.0136010
759.234	0.0134360
759.312	0.0135056
759.390	0.0135696
759.468	0.0135232
759.546	0.0136045
759.624	0.0135902
759.703	0.0135427
759.781	0.0135303
759.859	0.0133601
759.937	0.0133840
760.015	0.0136152
760.093	0.0136133
760.171	0.0135162
760.249	0.0136006
760.328	0.0134288
760.406	0.0135196
760.484	0.0133617
760.562	0.0135777
760.640	0.0136646
760.718	0.0135331
760.796	0.0135179
760.874	0.0135942
760.953	0.0136607
761.031	0.0135162
761.109	0.0136461
761.187	0.0136138
761.265	0.0136893
761.343	0.0136483
761.421	0.0135496
761.499	0.0136128
761.578	0.0135191
761.656	0.0136341
761.734	0.0136227
761.812	0.0136016
761.890	0.0136620
761.968	0.0136924
762.046	0.0135737
762.124	0.0135720
762.203	0.0136467
762.281	0.0135617
762.359	0.0134798
762.437	0.0136652
762.515	0.0135493
762.593	0.0134509
762.671	0.0135573
762.749	0.0133197
762.828	0.0134497
762.906	0.0133006
762.984	0.0132073
763.062	0.0132513
763.140	0.0132018
763.218	0.0132411
763.296	0.0130558
763.374	0.0131672
763.453	0.0130431
763.531	0.0131767
763.609	0.0130773
763.687	0.0132902
763.765	0.0131255
763.843	0.0131232
763.921	0.0132545
763.999	0.0131187
764.078	0.0132536
764.156	0.0131425
764.234	0.0132258
764.312	0.0133206
764.390	0.0132706
764.468	0.0133574
764.546	0.0131111
764.624	0.0133243
764.703	0.0134838
764.781	0.0133543
764.859	0.0133787
764.937	0.0133601
765.015	0.0134657
765.093	0.0132450
765.171	0.0133566
765.249	0.0134594
765.328	0.0133473
765.406	0.0134798
765.484	0.0134207
765.562	0.0135191
765.640	0.0135640
765.718	0.0133298
765.796	0.0135664
765.874	0.0136249
765.953	0.0137108
766.031	0.0136343
766.109	0.0136411
766.187	0.0136743
766.265	0.0136662
766.343	0.0135156
766.421	0.0135247
766.499	0.0134216
766.578	0.0135440
766.656	0.0134953
766.734	0.0134143
766.812	0.0135519
766.890	0.0135877
766.968	0.0134145
767.046	0.0134112
767.124	0.0134006
767.203	0.0133884
767.281	0.0134580
767.359	0.0134592
767.437	0.0133424
767.515	0.0135375
767.593	0.0133131
767.671	0.0134503
767.749	0.0134393
767.828	0.0131804
767.906	0.0131712
767.984	0.0133412
768.062	0.0134193
768.140	0.0133399
768.218	0.0131950
768.296	0.0132235
768.374	0.0132397
768.453	0.0133205
768.531	0.0132025
768.609	0.0132661
768.687	0.0131751
768.765	0.0130898
768.843	0.0132352
768.921	0.0133015
768.999	0.0131487
769.078	0.0132381
769.156	0.0132510
769.234	0.0131849
769.312	0.0129900
769.390	0.0130878
769.468	0.0131402
769.546	0.0131402
769.624	0.0131503
769.703	0.0131588
769.781	0.0132198
769.859	0.0130766
769.937	0.0131084
770.015	0.0132091
770.093	0.0131209
770.171	0.0132695
770.249	0.0132980
770.328	0.0133980
770.406	0.0134065
770.484	0.0133520
770.562	0.0132252
770.640	0.0132569
770.718	0.0133044
770.796	0.0132629
770.874	0.0133820
770.953	0.0133801
771.031	0.0134292
771.109	0.0133836
771.187	0.0132435
771.265	0.0134254
771.343	0.0134348
771.421	0.0134174
771.499	0.0134897
771.578	0.0134963
771.656	0.0134642
771.734	0.0134458
771.812	0.0135079
771.890	0.0135702
771.968	0.0136992
772.046	0.0137669
772.124	0.0137638
772.203	0.0138297
772.281	0.0138622
772.359	0.0138068
772.437	0.0138940
772.515	0.0139061
772.593	0.0139290
772.671	0.0140365
772.749	0.0140642
772.828	0.0139719
772.906	0.0139180
772.984	0.0139982
773.062	0.0138354
773.140	0.0138933
773.218	0.0137242
773.296	0.0138247
773.374	0.0138248
773.453	0.0136755
773.531	0.0136867
773.609	0.0135984
773.687	0.0134878
773.765	0.0133126
773.843	0.0135112
773.921	0.0133243
773.999	0.0132358
774.078	0.0133291
774.156	0.0132263
774.234	0.0130238
774.312	0.0129550
774.390	0.0130107
774.468	0.0131439
774.546	0.0130643
774.624	0.0128500
774.703	0.0131105
774.781	0.0131665
774.859	0.0130043
774.937	0.0130650
775.015	0.0131061
775.093	0.0131832
775.171	0.0131915
775.249	0.0132678
775.328	0.0133921
775.406	0.0133315
775.484	0.0132619
775.562	0.0131564
775.640	0.0132693
775.718	0.0133572
775.796	0.0134912
775.874	0.0135548
775.953	0.0132868
776.031	0.0134551
776.109	0.0134084
776.187	0.0135724
776.265	0.0134094
776.343	0.0135482
776.421	0.0134824
776.499	0.0135504
776.578	0.0135423
776.656	0.0135748
776.734	0.0135539
776.812	0.0133580
776.890	0.0136262
776.968	0.0134936
777.046	0.0133985
777.124	0.0134935
777.203	0.0135577
777.281	0.0136153
777.359	0.0134927
777.437	0.0136136
777.515	0.0136964
777.593	0.0136713
777.671	0.0136753
777.749	0.0137461
777.828	0.0136734
777.906	0.0137398
777.984	0.0137656
778.062	0.0138674
778.140	0.0138447
778.218	0.0136536
778.296	0.0135920
778.374	0.0138251
778.453	0.0135915
778.531	0.0136516
778.609	0.0134284
778.687	0.0135202
778.765	0.0134279
778.843	0.0132686
778.921	0.0132129
778.999	0.0132735
779.078	0.0131308
779.156	0.0131371
779.234	0.0133978
779.312	0.0133704
779.390	0.0132525
779.468	0.0134329
779.546	0.0134187
779.624	0.0134375
779.703	0.0136275
779.781	0.0136559
779.859	0.0136188
779.937	0.0136768
780.015	0.0134357
780.093	0.0136481
780.171	0.0137223
780.249	0.0136373
780.328	0.0135857
780.406	0.0132807
780.484	0.0133025
780.562	0.0133099
780.640	0.0131727
780.718	0.0132462
780.796	0.0131123
780.874	0.0131152
780.953	0.0130485
781.031	0.0130805
781.109	0.0132165
781.187	0.0132091
781.265	0.0130759
781.343	0.0131982
781.421	0.0132210
781.499	0.0131954
781.578	0.0132330
781.656	0.0132034
781.734	0.0134409
781.812	0.0134122
781.890	0.0134161
781.968	0.0133320
782.046	0.0134139
782.124	0.0134470
782.203	0.0134298
782.281	0.0135264
782.359	0.0135050
782.437	0.0134171
782.515	0.0135513
782.593	0.0135699
782.671	0.0136695
782.749	0.0135581
782.828	0.0135537
782.906	0.0134938
782.984	0.0135115
783.062	0.0135105
783.140	0.0135875
783.218	0.0135154
783.296	0.0134429
783.374	0.0136773
783.453	0.0136900
783.531	0.0134930
783.609	0.0136878
783.687	0.0136859
783.765	0.0137132
783.843	0.0136218
783.921	0.0137061
783.999	0.0135862
784.078	0.0135097
784.156	0.0136086
784.234	0.0135192
784.312	0.0135519
784.390	0.0135224
784.468	0.0133643
784.546	0.0134718
784.624	0.0135530
784.703	0.0135615
784.781	0.0136918
784.859	0.0136145
784.937	0.0135567
785.015	0.0136013
785.093	0.0136942
785.171	0.0134106
785.249	0.0135321
785.328	0.0133795
785.406	0.0134467
785.484	0.0132805
785.562	0.0131873
785.640	0.0131809
785.718	0.0131650
785.796	0.0131858
785.874	0.0131371
785.953	0.0132680
786.031	0.0131725
786.109	0.0133636
786.187	0.0132092
786.265	0.0133393
786.343	0.0134615
786.421	0.0136279
786.499	0.0135236
786.578	0.0134854
786.656	0.0136645
786.734	0.0136301
786.812	0.0134809
786.890	0.0135033
786.968	0.0134568
787.046	0.0133897
787.124	0.0134971
787.203	0.0133803
787.281	0.0133336
787.359	0.0133316
787.437	0.0132887
787.515	0.0134399
787.593	0.0133561
787.671	0.0132751
787.749	0.0132164
787.828	0.0134892
787.906	0.0135990
787.984	0.0136021
788.062	0.0136968
788.140	0.0135699
788.218	0.0136959
788.296	0.0137743
788.374	0.0137453
788.453	0.0138402
788.531	0.0135456
788.609	0.0137814
788.687	0.0136407
788.765	0.0136649
788.843	0.0136796
788.921	0.0137256
788.999	0.0134791
789.078	0.0134534
789.156	0.0135551
789.234	0.0134582
789.312	0.0133803
789.390	0.0133593
789.468	0.0133732
789.546	0.0134724
789.624	0.0134448
789.703	0.0133920
789.781	0.0132195
789.859	0.0133762
789.937	0.0133383
790.015	0.0131584
790.093	0.0132909
790.171	0.0131914
790.249	0.0132192
790.328	0.0130854
790.406	0.0132704
790.484	0.0131680
790.562	0.0131661
790.640	0.0131393
790.718	0.0131606
790.796	0.0132933
790.874	0.0133819
790.953	0.0132587
791.031	0.0131460
791.109	0.0132024
791.187	0.0132659
791.265	0.0134013
791.343	0.0131416
791.421	0.0132417
791.499	0.0132298
791.578	0.0133922
791.656	0.0132243
791.734	0.0132895
791.812	0.0131831
791.890	0.0131495
791.968	0.0131672
792.046	0.0130423
792.124	0.0130478
792.203	0.0128902
792.281	0.0129410
792.359	0.0129433
792.437	0.0128751
792.515	0.0129888
792.593	0.0129592
792.671	0.0130644
792.749	0.0129983
792.828	0.0129424
792.906	0.0131963
792.984	0.0132622
793.062	0.0132622
793.140	0.0130770
793.218	0.0132340
793.296	0.0132486
793.374	0.0132458
793.453	0.0134142
793.531	0.0133361
793.609	0.0134253
793.687	0.0134654
793.765	0.0134457
793.843	0.0136918
793.921	0.0135204
793.999	0.0136180
794.078	0.0137657
794.156	0.0138738
794.234	0.0139455
794.312	0.0139981
794.390	0.0139044
794.468	0.0138596
794.546	0.0138605
794.624	0.0138860
794.703	0.0138052
794.781	0.0136594
794.859	0.0135402
794.937	0.0135245
795.015	0.0135340
795.093	0.0135415
795.171	0.0133781
795.249	0.0133176
795.328	0.0133858
795.406	0.0132902
795.484	0.0133652
795.562	0.0131609
795.640	0.0132989
795.718	0.0132605
795.796	0.0132232
795.874	0.0132565
795.953	0.0133083
796.031	0.0133093
796.109	0.0132080
796.187	0.0132443
796.265	0.0133304
796.343	0.0133919
796.421	0.0133481
796.499	0.0134512
796.578	0.0135838
796.656	0.0134977
796.734	0.0134889
796.812	0.0132789
796.890	0.0134551
796.968	0.0135062
797.046	0.0134028
797.124	0.0132600
797.203	0.0132533
797.281	0.0134005
797.359	0.0133363
797.437	0.0132896
797.515	0.0133395
797.593	0.0133299
797.671	0.0133489
797.749	0.0133990
797.828	0.0133257
797.906	0.0131550
797.984	0.0133739
798.062	0.0133050
798.140	0.0134723
798.218	0.0135093
798.296	0.0134821
798.374	0.0134623
798.453	0.0134831
798.531	0.0135375
798.609	0.0135963
798.687	0.0136845
798.765	0.0136378
798.843	0.0137601
798.921	0.0137255
798.999	0.0137976
799.078	0.0137814
799.156	0.0139450
799.234	0.0138715
799.312	0.0139558
799.390	0.0139951
799.468	0.0140165
799.546	0.0139719
799.624	0.0137775
799.703	0.0137952
799.781	0.0138760
799.859	0.0138461
799.937	0.0139036
800.015	0.0139184
800.093	0.0138803
800.171	0.0136927
800.249	0.0136835
800.328	0.0136618
800.406	0.0135091
800.484	0.0135658
800.562	0.0136913
800.640	0.0135629
800.718	0.0134103
800.796	0.0134335
800.874	0.0133913
800.953	0.0133669
801.031	0.0134143
801.109	0.0133302
801.187	0.0132803
801.265	0.0133867
801.343	0.0133985
801.421	0.0133004
801.499	0.0134254
801.578	0.0133509
801.656	0.0134321
801.734	0.0135230
801.812	0.0133324
801.890	0.0135275
801.968	0.0135299
802.046	0.0135360
802.124	0.0134975
802.203	0.0135970
802.281	0.0135162
802.359	0.0136076
802.437	0.0137793
802.515	0.0135445
802.593	0.0136739
802.671	0.0136427
802.749	0.0136288
802.828	0.0137678
802.906	0.0137176
802.984	0.0135814
803.062	0.0137476
803.140	0.0137140
803.218	0.0136510
803.296	0.0136472
803.374	0.0134151
803.453	0.0135753
803.531	0.0134923
803.609	0.0133472
803.687	0.0132882
803.765	0.0132719
803.843	0.0132808
803.921	0.0133729
803.999	0.0133464
804.078	0.0133164
804.156	0.0132623
804.234	0.0132108
804.312	0.0134341
804.390	0.0132525
804.468	0.0132297
804.546	0.0132755
804.624	0.0132944
804.703	0.0133302
804.781	0.0132335
804.859	0.0132146
804.937	0.0132202
805.015	0.0132170
805.093	0.0133624
805.171	0.0132944
805.249	0.0133603
805.328	0.0134133
805.406	0.0133551
805.484	0.0135065
805.562	0.0135535
805.640	0.0135802
805.718	0.0136899
805.796	0.0138438
805.874	0.0135635
805.953	0.0136953
806.031	0.0136703
806.109	0.0136362
806.187	0.0136801
806.265	0.0137568
806.343	0.0135819
806.421	0.0134715
806.499	0.0135561
806.578	0.0135100
806.656	0.0132907
806.734	0.0134523
806.812	0.0133993
806.890	0.0132999
806.968	0.0132597
807.046	0.0134377
807.124	0.0136079
807.203	0.0134556
807.281	0.0133002
807.359	0.0133721
807.437	0.0134544
807.515	0.0135515
807.593	0.0133666
807.671	0.0135658
807.749	0.0134047
807.828	0.0132420
807.906	0.0131591
807.984	0.0133566
808.062	0.0131441
808.140	0.0133192
808.218	0.0130322
808.296	0.0131448
808.374	0.0132116
808.453	0.0132272
808.531	0.0131959
808.609	0.0131281
808.687	0.0132643
808.765	0.0132699
808.843	0.0133072
808.921	0.0131726
808.999	0.0132759
809.078	0.0132892
809.156	0.0133020
809.234	0.0132088
809.312	0.0131934
809.390	0.0133396
809.468	0.0133015
809.546	0.0132582
809.624	0.0131368
809.703	0.0131802
809.781	0.0132558
809.859	0.0131284
809.937	0.0129990
810.015	0.0131498
810.093	0.0131208
810.171	0.0130837
810.249	0.0130213
810.328	0.0131552
810.406	0.0131895
810.484	0.0131433
810.562	0.0129419
810.640	0.0131759
810.718	0.0132338
810.796	0.0130336
810.874	0.0132357
810.953	0.0132415
811.031	0.0131683
811.109	0.0133524
811.187	0.0131926
811.265	0.0132063
811.343	0.0133241
811.421	0.0132808
811.499	0.0132517
811.578	0.0133817
811.656	0.0132493
811.734	0.0132819
811.812	0.0132423
811.890	0.0130843
811.968	0.0132256
812.046	0.0133533
812.124	0.0132934
812.203	0.0131781
812.281	0.0132763
812.359	0.0132382
812.437	0.0133730
812.515	0.0132744
812.593	0.0134032
812.671	0.0133224
812.749	0.0134612
812.828	0.0134912
812.906	0.0134320
812.984	0.0133619
813.062	0.0133455
813.140	0.0134359
813.218	0.0132672
813.296	0.0134136
813.374	0.0134478
813.453	0.0135780
813.531	0.0133615
813.609	0.0134071
813.687	0.0136242
813.765	0.0134220
813.843	0.0133444
813.921	0.0135825
813.999	0.0136961
814.078	0.0134678
814.156	0.0134780
814.234	0.0134829
814.312	0.0135349
814.390	0.0135748
814.468	0.0133879
814.546	0.0133717
814.624	0.0133724
814.703	0.0133256
814.781	0.0133729
814.859	0.0133942
814.937	0.0132121
815.015	0.0132081
815.093	0.0132036
815.171	0.0131874
815.249	0.0132558
815.328	0.0131170
815.406	0.0130501
815.484	0.0131977
815.562	0.0129624
815.640	0.0130219
815.718	0.0129568
815.796	0.0128923
815.874	0.0128706
815.953	0.0129108
816.031	0.0129933
816.109	0.0129659
816.187	0.0130578
816.265	0.0130572
816.343	0.0130178
816.421	0.0131551
816.499	0.0132397
816.578	0.0132700
816.656	0.0131711
816.734	0.0133224
816.812	0.0134632
816.890	0.0136000
816.968	0.0136523
817.046	0.0137744
817.124	0.0137164
817.203	0.0138244
817.281	0.0138021
817.359	0.0137025
817.437	0.0137703
817.515	0.0138126
817.593	0.0137614
817.671	0.0136526
817.749	0.0137614
817.828	0.0137737
817.906	0.0136608
817.984	0.0137383
818.062	0.0136027
818.140	0.0135716
818.218	0.0136353
818.296	0.0135222
818.374	0.0135344
818.453	0.0134935
818.531	0.0135152
818.609	0.0134602
818.687	0.0133573
818.765	0.0133595
818.843	0.0133043
818.921	0.0133751
818.999	0.0132803
819.078	0.0133171
819.156	0.0133708
819.234	0.0132549
819.312	0.0133520
819.390	0.0133509
819.468	0.0133901
819.546	0.0133286
819.624	0.0133955
819.703	0.0131834
819.781	0.0133276
819.859	0.0133674
819.937	0.0133479
820.015	0.0133984
820.093	0.0133145
820.171	0.0135035
820.249	0.0135317
820.328	0.0134943
820.406	0.0133185
820.484	0.0134447
820.562	0.0133288
820.640	0.0133353
820.718	0.0134589
820.796	0.0133030
820.874	0.0133932
820.953	0.0132610
821.031	0.0132674
821.109	0.0134131
821.187	0.0134436
821.265	0.0135110
821.343	0.0136235
821.421	0.0135464
821.499	0.0136198
821.578	0.0134785
821.656	0.0135426
821.734	0.0135725
821.812	0.0136380
821.890	0.0135725
821.968	0.0135655
822.046	0.0135561
822.124	0.0137135
822.203	0.0136327
822.281	0.0134930
822.359	0.0135840
822.437	0.0135700
822.515	0.0134055
822.593	0.0133403
822.671	0.0134264
822.749	0.0133890
822.828	0.0134260
822.906	0.0133478
822.984	0.0133720
823.062	0.0132436
823.140	0.0132782
823.218	0.0131979
823.296	0.0131889
823.374	0.0134588
823.453	0.0133836
823.531	0.0133971
823.609	0.0132604
823.687	0.0135896
823.765	0.0135653
823.843	0.0134370
823.921	0.0134749
823.999	0.0135957
824.078	0.0135932
824.156	0.0135509
824.234	0.0136058
824.312	0.0135658
824.390	0.0135262
824.468	0.0135880
824.546	0.0133931
824.624	0.0135033
824.703	0.0135017
824.781	0.0134996
824.859	0.0135281
824.937	0.0135159
825.015	0.0135361
825.093	0.0134506
825.171	0.0133770
825.249	0.0134451
825.328	0.0135521
825.406	0.0134334
825.484	0.0134604
825.562	0.0135450
825.640	0.0134467
825.718	0.0135165
825.796	0.0134636
825.874	0.0132981
825.953	0.0132600
826.031	0.0131916
826.109	0.0132930
826.187	0.0131706
826.265	0.0133691
826.343	0.0133344
826.421	0.0132481
826.499	0.0131903
826.578	0.0133357
826.656	0.0134332
826.734	0.0133527
826.812	0.0133141
826.890	0.0134291
826.968	0.0133405
827.046	0.0132584
827.124	0.0133794
827.203	0.0135998
827.281	0.0133971
827.359	0.0136008
827.437	0.0135049
827.515	0.0134851
827.593	0.0133618
827.671	0.0135072
827.749	0.0135119
827.828	0.0134467
827.906	0.0134640
827.984	0.0135030
828.062	0.0135730
828.140	0.0135164
828.218	0.0135864
828.296	0.0135332
828.374	0.0135431
828.453	0.0134871
828.531	0.0133773
828.609	0.0134811
828.687	0.0135114
828.765	0.0134105
828.843	0.0134711
828.921	0.0134331
828.999	0.0133289
829.078	0.0132344
829.156	0.0133392
829.234	0.0133144
829.312	0.0131853
829.390	0.0131178
829.468	0.0131548
829.546	0.0132825
829.624	0.0132289
829.703	0.0132113
829.781	0.0131417
829.859	0.0132846
829.937	0.0134492
830.015	0.0133640
830.093	0.0134506
830.171	0.0134510
830.249	0.0135023
830.328	0.0134134
830.406	0.0134803
830.484	0.0135442
830.562	0.0135474
830.640	0.0135986
830.718	0.0135082
830.796	0.0135304
830.874	0.0135517
830.953	0.0134645
831.031	0.0133881
831.109	0.0133827
831.187	0.0132558
831.265	0.0134213
831.343	0.0134260
831.421	0.0133941
831.499	0.0134127
831.578	0.0132861
831.656	0.0133059
831.734	0.0131055
831.812	0.0132661
831.890	0.0132749
831.968	0.0132052
832.046	0.0132111
832.124	0.0133389
832.203	0.0132727
832.281	0.0134245
832.359	0.0133843
832.437	0.0132986
832.515	0.0132796
832.593	0.0133382
832.671	0.0132562
832.749	0.0133179
832.828	0.0133851
832.906	0.0133411
832.984	0.0135176
833.062	0.0134895
833.140	0.0134262
833.218	0.0135374
833.296	0.0135737
833.374	0.0134001
833.453	0.0134908
833.531	0.0132645
833.609	0.0133189
833.687	0.0133480
833.765	0.0133009
833.843	0.0132409
833.921	0.0132713
833.999	0.0132911
834.078	0.0130471
834.156	0.0129414
834.234	0.0132412
834.312	0.0132435
834.390	0.0132013
834.468	0.0130761
834.546	0.0131585
834.624	0.0131814
834.703	0.0133731
834.781	0.0132635
834.859	0.0133047
834.937	0.0131373
835.015	0.0131551
835.093	0.0132083
835.171	0.0131522
835.249	0.0131037
835.328	0.0131548
835.406	0.0132174
835.484	0.0131904
835.562	0.0132592
835.640	0.0132771
835.718	0.0132043
835.796	0.0133446
835.874	0.0133481
835.953	0.0132034
836.031	0.0132896
836.109	0.0135099
836.187	0.0135024
836.265	0.0134830
836.343	0.0134900
836.421	0.0134659
836.499	0.0136737
836.578	0.0135424
836.656	0.0134783
836.734	0.0134608
836.812	0.0135300
836.890	0.0135438
836.968	0.0134542
837.046	0.0135574
837.124	0.0135384
837.203	0.0135770
837.281	0.0135306
837.359	0.0136073
837.437	0.0137000
837.515	0.0134763
837.593	0.0135794
837.671	0.0135118
837.749	0.0134567
837.828	0.0135286
837.906	0.0134575
837.984	0.0133601
838.062	0.0133801
838.140	0.0134592
838.218	0.0133464
838.296	0.0134908
838.374	0.0132486
838.453	0.0132572
838.531	0.0133352
838.609	0.0133556
838.687	0.0132645
838.765	0.0133687
838.843	0.0133261
838.921	0.0135261
838.999	0.0133105
839.078	0.0134045
839.156	0.0135597
839.234	0.0135362
839.312	0.0134078
839.390	0.0135281
839.468	0.0136012
839.546	0.0136826
839.624	0.0137421
839.703	0.0135457
839.781	0.0136588
839.859	0.0137176
839.937	0.0137984
840.015	0.0137575
840.093	0.0137897
840.171	0.0136814
840.249	0.0137405
840.328	0.0137551
840.406	0.0137695
840.484	0.0136425
840.562	0.0136440
840.640	0.0135774
840.718	0.0136574
840.796	0.0136839
840.874	0.0134930
840.953	0.0135232
841.031	0.0134692
841.109	0.0135952
841.187	0.0133837
841.265	0.0133739
841.343	0.0133855
841.421	0.0133575
841.499	0.0132816
841.578	0.0132727
841.656	0.0133182
841.734	0.0133712
841.812	0.0132883
841.890	0.0132924
841.968	0.0131249
842.046	0.0133663
842.124	0.0134271
842.203	0.0133327
842.281	0.0133518
842.359	0.0132112
842.437	0.0134733
842.515	0.0133270
842.593	0.0135180
842.671	0.0136066
842.749	0.0134692
842.828	0.0134307
842.906	0.0135819
842.984	0.0135524
843.062	0.0134248
843.140	0.0134743
843.218	0.0134640
843.296	0.0135349
843.374	0.0133704
843.453	0.0133138
843.531	0.0132792
843.609	0.0131567
843.687	0.0131214
843.765	0.0133359
843.843	0.0132063
843.921	0.0133156
843.999	0.0130615
844.078	0.0132021
844.156	0.0133289
844.234	0.0132375
844.312	0.0133112
844.390	0.0133258
844.468	0.0133280
844.546	0.0132185
844.624	0.0133465
844.703	0.0133276
844.781	0.0131654
844.859	0.0133073
844.937	0.0133224
845.015	0.0133628
845.093	0.0133781
845.171	0.0135003
845.249	0.0133627
845.328	0.0132872
845.406	0.0134116
845.484	0.0135190
845.562	0.0133947
845.640	0.0133645
845.718	0.0133904
845.796	0.0134766
845.874	0.0134681
845.953	0.0133903
846.031	0.0135109
846.109	0.0133521
846.187	0.0133926
846.265	0.0133997
846.343	0.0134567
846.421	0.0134458
846.499	0.0133752
846.578	0.0133270
846.656	0.0134494
846.734	0.0133865
846.812	0.0134233
846.890	0.0133431
846.968	0.0132116
847.046	0.0132031
847.124	0.0132549
847.203	0.0131823
847.281	0.0132810
847.359	0.0131411
847.437	0.0132162
847.515	0.0131941
847.593	0.0132458
847.671	0.0131801
847.749	0.0131424
847.828	0.0131655
847.906	0.0130794
847.984	0.0131634
848.062	0.0130313
848.140	0.0131573
848.218	0.0131145
848.296	0.0132124
848.374	0.0131126
848.453	0.0131930
848.531	0.0131486
848.609	0.0130346
848.687	0.0131345
848.765	0.0132444
848.843	0.0131718
848.921	0.0132112
848.999	0.0132301
849.078	0.0132847
849.156	0.0133286
849.234	0.0133362
849.312	0.0132146
849.390	0.0132575
849.468	0.0132589
849.546	0.0132827
849.624	0.0133122
849.703	0.0132906
849.781	0.0132860
849.859	0.0134262
849.937	0.0132869
850.015	0.0133015
850.093	0.0132572
850.171	0.0132938
850.249	0.0133306
850.328	0.0132169
850.406	0.0133327
850.484	0.0132690
850.562	0.0133648
850.640	0.0132330
850.718	0.0133917
850.796	0.0134792
850.874	0.0135212
850.953	0.0134925
851.031	0.0135844
851.109	0.0135545
851.187	0.0135896
851.265	0.0134660
851.343	0.0135333
851.421	0.0133292
851.499	0.0135184
851.578	0.0134907
851.656	0.0134118
851.734	0.0136995
851.812	0.0134859
851.890	0.0136539
851.968	0.0134978
852.046	0.0136798
852.124	0.0136406
852.203	0.0135795
852.281	0.0135746
852.359	0.0135277
852.437	0.0133668
852.515	0.0134729
852.593	0.0134377
852.671	0.0134429
852.749	0.0133940
852.828	0.0133384
852.906	0.0132427
852.984	0.0131890
853.062	0.0132793
853.140	0.0132952
853.218	0.0130685
853.296	0.0131641
853.374	0.0131389
853.453	0.0131351
853.531	0.0132412
853.609	0.0131622
853.687	0.0131684
853.765	0.0130939
853.843	0.0131561
853.921	0.0129770
853.999	0.0131361
854.078	0.0131973
854.156	0.0132273
854.234	0.0131033
854.312	0.0132378
854.390	0.0133115
854.468	0.0132281
854.546	0.0133087
854.624	0.0131270
854.703	0.0132632
854.781	0.0132599
854.859	0.0133196
854.937	0.0132054
855.015	0.0132827
855.093	0.0133119
855.171	0.0134081
855.249	0.0134121
855.328	0.0134550
855.406	0.0133517
855.484	0.0133183
855.562	0.0132825
855.640	0.0134150
855.718	0.0135071
855.796	0.0134618
855.874	0.0134744
855.953	0.0135883
856.031	0.0135444
856.109	0.0136992
856.187	0.0136999
856.265	0.0136372
856.343	0.0136958
856.421	0.0136606
856.499	0.0136220
856.578	0.0137652
856.656	0.0138640
856.734	0.0138873
856.812	0.0138342
856.890	0.0134878
856.968	0.0135839
857.046	0.0135886
857.124	0.0136521
857.203	0.0135178
857.281	0.0135208
857.359	0.0135480
857.437	0.0135368
857.515	0.0134189
857.593	0.0134579
857.671	0.0133721
857.749	0.0133955
857.828	0.0134529
857.906	0.0133733
857.984	0.0132481
858.062	0.0132523
858.140	0.0133897
858.218	0.0134229
858.296	0.0134479
858.374	0.0132848
858.453	0.0133246
858.531	0.0132781
858.609	0.0135367
858.687	0.0134562
858.765	0.0133098
858.843	0.0133175
858.921	0.0134663
858.999	0.0134703
859.078	0.0133959
859.156	0.0135414
859.234	0.0134674
859.312	0.0135342
859.390	0.0135828
859.468	0.0136328
859.546	0.0134877
859.624	0.0133558
859.703	0.0134425
859.781	0.0134185
859.859	0.0133282
859.937	0.0133575
860.015	0.0134843
860.093	0.0134607
860.171	0.0134969
860.249	0.0134514
860.328	0.0132111
860.406	0.0133099
860.484	0.0133476
860.562	0.0131958
860.640	0.0133727
860.718	0.0133278
860.796	0.0134869
860.874	0.0133681
860.953	0.0133568
861.031	0.0133321
861.109	0.0134693
861.187	0.0134411
861.265	0.0134558
861.343	0.0135552
861.421	0.0133476
861.499	0.0136262
861.578	0.0135979
861.656	0.0134766
861.734	0.0135445
861.812	0.0134768
861.890	0.0135630
861.968	0.0134913
862.046	0.0134612
862.124	0.0134531
862.203	0.0134769
862.281	0.0134481
862.359	0.0134273
862.437	0.0133733
862.515	0.0132778
862.593	0.0133440
862.671	0.0134082
862.749	0.0133849
862.828	0.0135258
862.906	0.0135002
862.984	0.0134653
863.062	0.0133933
863.140	0.0134720
863.218	0.0135145
863.296	0.0135262
863.374	0.0135477
863.453	0.0135464
863.531	0.0136359
863.609	0.0134794
863.687	0.0135344
863.765	0.0136227
863.843	0.0134612
863.921	0.0135851
863.999	0.0134100
864.078	0.0135698
864.156	0.0135188
864.234	0.0134855
864.312	0.0136729
864.390	0.0135579
864.468	0.0135022
864.546	0.0135596
864.624	0.0135854
864.703	0.0135853
864.781	0.0136227
864.859	0.0134235
864.937	0.0134002
865.015	0.0136703
865.093	0.0135250
865.171	0.0135933
865.249	0.0134793
865.328	0.0135744
865.406	0.0133826
865.484	0.0134505
865.562	0.0134924
865.640	0.0133810
865.718	0.0133698
865.796	0.0134698
865.874	0.0131611
865.953	0.0132934
866.031	0.0133304
866.109	0.0131544
866.187	0.0133787
866.265	0.0133129
866.343	0.0132497
866.421	0.0131873
866.499	0.0132567
866.578	0.0134190
866.656	0.0133036
866.734	0.0133478
866.812	0.0134663
866.890	0.0134100
866.968	0.0134980
867.046	0.0134676
867.124	0.0134959
867.203	0.0136055
867.281	0.0134961
867.359	0.0136256
867.437	0.0134550
867.515	0.0135374
867.593	0.0135652
867.671	0.0133935
867.749	0.0136313
867.828	0.0134740
867.906	0.0134196
867.984	0.0134993
868.062	0.0135448
868.140	0.0135139
868.218	0.0135133
868.296	0.0134177
868.374	0.0134763
868.453	0.0134379
868.531	0.0134253
868.609	0.0133762
868.687	0.0134758
868.765	0.0133963
868.843	0.0134435
868.921	0.0134426
868.999	0.0133025
869.078	0.0133232
869.156	0.0132607
869.234	0.0133131
869.312	0.0133490
869.390	0.0133163
869.468	0.0134236
869.546	0.0132788
869.624	0.0133058
869.703	0.0133837
869.781	0.0132623
869.859	0.0132259
869.937	0.0133126
870.015	0.0132338
870.093	0.0132931
870.171	0.0133461
870.249	0.0131980
870.328	0.0132876
870.406	0.0131600
870.484	0.0132717
870.562	0.0132941
870.640	0.0133103
870.718	0.0132851
870.796	0.0132014
870.874	0.0133358
870.953	0.0132324
871.031	0.0132546
871.109	0.0133178
871.187	0.0130902
871.265	0.0131639
871.343	0.0132885
871.421	0.0134225
871.499	0.0132242
871.578	0.0132033
871.656	0.0133405
871.734	0.0132984
871.812	0.0132775
871.890	0.0133331
871.968	0.0133324
872.046	0.0131496
872.124	0.0132139
872.203	0.0132784
872.281	0.0131806
872.359	0.0132265
872.437	0.0132700
872.515	0.0131851
872.593	0.0132530
872.671	0.0132540
872.749	0.0131823
872.828	0.0131791
872.906	0.0132854
872.984	0.0132787
873.062	0.0133580
873.140	0.0132586
873.218	0.0133503
873.296	0.0134096
873.374	0.0133172
873.453	0.0133821
873.531	0.0132995
873.609	0.0133698
873.687	0.0133308
873.765	0.0133780
873.843	0.0133600
873.921	0.0134307
873.999	0.0133709
874.078	0.0131872
874.156	0.0132594
874.234	0.0133319
874.312	0.0133291
874.390	0.0133992
874.468	0.0133331
874.546	0.0133234
874.624	0.0133120
874.703	0.0133300
874.781	0.0134267
874.859	0.0133467
874.937	0.0134599
875.015	0.0134793
875.093	0.0135008
875.171	0.0135934
875.249	0.0136278
875.328	0.0136217
875.406	0.0135148
875.484	0.0136360
875.562	0.0136422
875.640	0.0136085
875.718	0.0135915
875.796	0.0137502
875.874	0.0137144
875.953	0.0136272
876.031	0.0136818
876.109	0.0137315
876.187	0.0136064
876.265	0.0134935
876.343	0.0136204
876.421	0.0136246
876.499	0.0137273
876.578	0.0136561
876.656	0.0137072
876.734	0.0136871
876.812	0.0136703
876.890	0.0136902
876.968	0.0134713
877.046	0.0135957
877.124	0.0135098
877.203	0.0135834
877.281	0.0135667
877.359	0.0135256
877.437	0.0134702
877.515	0.0132874
877.593	0.0131525
877.671	0.0132269
877.749	0.0131642
877.828	0.0132232
877.906	0.0133103
877.984	0.0132549
878.062	0.0131466
878.140	0.0134239
878.218	0.0133391
878.296	0.0132531
878.374	0.0132204
878.453	0.0133659
878.531	0.0132688
878.609	0.0132858
878.687	0.0134061
878.765	0.0135349
878.843	0.0133363
878.921	0.0133298
878.999	0.0133491
879.078	0.0135524
879.156	0.0134310
879.234	0.0133432
879.312	0.0133459
879.390	0.0134961
879.468	0.0136304
879.546	0.0136101
879.624	0.0135919
879.703	0.0136047
879.781	0.0135468
879.859	0.0135355
879.937	0.0135949
880.015	0.0135949
880.093	0.0135862
880.171	0.0135706
880.249	0.0136172
880.328	0.0135405
880.406	0.0136954
880.484	0.0136438
880.562	0.0135349
880.640	0.0133867
880.718	0.0134848
880.796	0.0134233
880.874	0.0133805
880.953	0.0133324
881.031	0.0133126
881.109	0.0134680
881.187	0.0134840
881.265	0.0133885
881.343	0.0134443
881.421	0.0134784
881.499	0.0134608
881.578	0.0134888
881.656	0.0134116
881.734	0.0135712
881.812	0.0134969
881.890	0.0135289
881.968	0.0135019
882.046	0.0134533
882.124	0.0133754
882.203	0.0134111
882.281	0.0135172
882.359	0.0134123
882.437	0.0135120
882.515	0.0134301
882.593	0.0135048
882.671	0.0134880
882.749	0.0134107
882.828	0.0134641
882.906	0.0135332
882.984	0.0133672
883.062	0.0135194
883.140	0.0135056
883.218	0.0134441
883.296	0.0135469
883.374	0.0135435
883.453	0.0135497
883.531	0.0135376
883.609	0.0137138
883.687	0.0137771
883.765	0.0136392
883.843	0.0136243
883.921	0.0135020
883.999	0.0135802
884.078	0.0135664
884.156	0.0134035
884.234	0.0135576
884.312	0.0135045
884.390	0.0135604
884.468	0.0135366
884.546	0.0134190
884.624	0.0134131
884.703	0.0134113
884.781	0.0133514
884.859	0.0134011
884.937	0.0133244
885.015	0.0132442
885.093	0.0135065
885.171	0.0134015
885.249	0.0134550
885.328	0.0135080
885.406	0.0134128
885.484	0.0134613
885.562	0.0135944
885.640	0.0134167
885.718	0.0135065
885.796	0.0135349
885.874	0.0137019
885.953	0.0135399
886.031	0.0135611
886.109	0.0136355
886.187	0.0136246
886.265	0.0137140
886.343	0.0136939
886.421	0.0136182
886.499	0.0135262
886.578	0.0134824
886.656	0.0137067
886.734	0.0135307
886.812	0.0134871
886.890	0.0134900
886.968	0.0135353
887.046	0.0136676
887.124	0.0134505
887.203	0.0134367
887.281	0.0134684
887.359	0.0132861
887.437	0.0134412
887.515	0.0135808
887.593	0.0134253
887.671	0.0133981
887.749	0.0132572
887.828	0.0132233
887.906	0.0133736
887.984	0.0133637
888.062	0.0132958
888.140	0.0132716
888.218	0.0130594
888.296	0.0132285
888.374	0.0132825
888.453	0.0132228
888.531	0.0132678
888.609	0.0133295
888.687	0.0134537
888.765	0.0133508
888.843	0.0134199
888.921	0.0133403
888.999	0.0133392
889.078	0.0133318
889.156	0.0134486
889.234	0.0133870
889.312	0.0133659
889.390	0.0135023
889.468	0.0135461
889.546	0.0135941
889.624	0.0133984
889.703	0.0136375
889.781	0.0134619
889.859	0.0134228
889.937	0.0135101
890.015	0.0135728
890.093	0.0135968
890.171	0.0135829
890.249	0.0134630
890.328	0.0135892
890.406	0.0134647
890.484	0.0134454
890.562	0.0134332
890.640	0.0135207
890.718	0.0137103
890.796	0.0135814
890.874	0.0135075
890.953	0.0134097
891.031	0.0135850
891.109	0.0134794
891.187	0.0134139
891.265	0.0134239
891.343	0.0134542
891.421	0.0134052
891.499	0.0133695
891.578	0.0134128
891.656	0.0133409
891.734	0.0133978
891.812	0.0134940
891.890	0.0134286
891.968	0.0134182
892.046	0.0135639
892.124	0.0135719
892.203	0.0134096
892.281	0.0134789
892.359	0.0135321
892.437	0.0136301
892.515	0.0134743
892.593	0.0134943
892.671	0.0135772
892.749	0.0134409
892.828	0.0135696
892.906	0.0133954
892.984	0.0134768
893.062	0.0136310
893.140	0.0135552
893.218	0.0136318
893.296	0.0135798
893.374	0.0136308
893.453	0.0135746
893.531	0.0135661
893.609	0.0135735
893.687	0.0135728
893.765	0.0136923
893.843	0.0136670
893.921	0.0136684
893.999	0.0135408
894.078	0.0135217
894.156	0.0136019
894.234	0.0136352
894.312	0.0136449
894.390	0.0136315
894.468	0.0135991
894.546	0.0136797
894.624	0.0136386
894.703	0.0135832
894.781	0.0135830
894.859	0.0136710
894.937	0.0136304
895.015	0.0135465
895.093	0.0135817
895.171	0.0136063
895.249	0.0135325
895.328	0.0136336
895.406	0.0135226
895.484	0.0134569
895.562	0.0134388
895.640	0.0134403
895.718	0.0134995
895.796	0.0133001
895.874	0.0133401
895.953	0.0135583
896.031	0.0134441
896.109	0.0133362
896.187	0.0133721
896.265	0.0133309
896.343	0.0132890
896.421	0.0132077
896.499	0.0133569
896.578	0.0134152
896.656	0.0132583
896.734	0.0132336
896.812	0.0132533
896.890	0.0133242
896.968	0.0133051
897.046	0.0133509
897.124	0.0131487
897.203	0.0132630
897.281	0.0133071
897.359	0.0132819
897.437	0.0133083
897.515	0.0134205
897.593	0.0133350
897.671	0.0132640
897.749	0.0134258
897.828	0.0132816
897.906	0.0133734
897.984	0.0134013
898.062	0.0134112
898.140	0.0135305
898.218	0.0134590
898.296	0.0135052
898.374	0.0134932
898.453	0.0135077
898.531	0.0135114
898.609	0.0135319
898.687	0.0136136
898.765	0.0136460
898.843	0.0136254
898.921	0.0135937
898.999	0.0137100
899.078	0.0136406
899.156	0.0135148
899.234	0.0136472
899.312	0.0135908
899.390	0.0134287
899.468	0.0135700
899.546	0.0136176
899.624	0.0135267
899.703	0.0134691
899.781	0.0134189
899.859	0.0133767
899.937	0.0133752
900.015	0.0134085
900.093	0.0135388
900.171	0.0134956
900.249	0.0133614
900.328	0.0132021
900.406	0.0133594
900.484	0.0133936
900.562	0.0133855
900.640	0.0133957
900.718	0.0133026
900.796	0.0133176
900.874	0.0134425
900.953	0.0134501
901.031	0.0132806
901.109	0.0132357
901.187	0.0131609
901.265	0.0132954
901.343	0.0132681
901.421	0.0131949
901.499	0.0131794
901.578	0.0132323
901.656	0.0131610
901.734	0.0133240
901.812	0.0133262
901.890	0.0133138
901.968	0.0132244
902.046	0.0132667
902.124	0.0132191
902.203	0.0132384
902.281	0.0133358
902.359	0.0133321
902.437	0.0133173
902.515	0.0134148
902.593	0.0132423
902.671	0.0134106
902.749	0.0132745
902.828	0.0134615
902.906	0.0134653
902.984	0.0133925
903.062	0.0133309
903.140	0.0134032
903.218	0.0134076
903.296	0.0134085
903.374	0.0135196
903.453	0.0135035
903.531	0.0135493
903.609	0.0133402
903.687	0.0134002
903.765	0.0135650
903.843	0.0134686
903.921	0.0135039
903.999	0.0135915
904.078	0.0134583
904.156	0.0135178
904.234	0.0134847
904.312	0.0135317
904.390	0.0133386
904.468	0.0134880
904.546	0.0133937
904.624	0.0134335
904.703	0.0134818
904.781	0.0135432
904.859	0.0133801
904.937	0.0135339
905.015	0.0134737
905.093	0.0134669
905.171	0.0135146
905.249	0.0135116
905.328	0.0136156
905.406	0.0135454
905.484	0.0133349
905.562	0.0135562
905.640	0.0135921
905.718	0.0135354
905.796	0.0134612
905.874	0.0134093
905.953	0.0133553
906.031	0.0135629
906.109	0.0134440
906.187	0.0133801
906.265	0.0134630
906.343	0.0134231
906.421	0.0134201
906.499	0.0133764
906.578	0.0131825
906.656	0.0133124
906.734	0.0134365
906.812	0.0134618
906.890	0.0133212
906.968	0.0133291
907.046	0.0133223
907.124	0.0132106
907.203	0.0132088
907.281	0.0133263
907.359	0.0132307
907.437	0.0133241
907.515	0.0132753
907.593	0.0133443
907.671	0.0134355
907.749	0.0132402
907.828	0.0133338
907.906	0.0133935
907.984	0.0133264
908.062	0.0133635
908.140	0.0134242
908.218	0.0134344
908.296	0.0134511
908.374	0.0134830
908.453	0.0134407
908.531	0.0136152
908.609	0.0134094
908.687	0.0134411
908.765	0.0133900
908.843	0.0135587
908.921	0.0134079
908.999	0.0135243
909.078	0.0134239
909.156	0.0135437
909.234	0.0136761
909.312	0.0137286
909.390	0.0135226
909.468	0.0134513
909.546	0.0135449
909.624	0.0135131
909.703	0.0136288
909.781	0.0137108
909.859	0.0135891
909.937	0.0137544
910.015	0.0136082
910.093	0.0136359
910.171	0.0134244
910.249	0.0135630
910.328	0.0135876
910.406	0.0136890
910.484	0.0135268
910.562	0.0135757
910.640	0.0136665
910.718	0.0135041
910.796	0.0134517
910.874	0.0135902
910.953	0.0133536
911.031	0.0132915
911.109	0.0133598
911.187	0.0134544
911.265	0.0136401
911.343	0.0134707
911.421	0.0134704
911.499	0.0135407
911.578	0.0136324
911.656	0.0135757
911.734	0.0133316
911.812	0.0134512
911.890	0.0135107
911.968	0.0135448
912.046	0.0136510
912.124	0.0135204
912.203	0.0134753
912.281	0.0135036
912.359	0.0135433
912.437	0.0133959
912.515	0.0133517
912.593	0.0135728
912.671	0.0136370
912.749	0.0135145
912.828	0.0135634
912.906	0.0135572
912.984	0.0134223
913.062	0.0136755
913.140	0.0136883
913.218	0.0135223
913.296	0.0137058
913.374	0.0136218
913.453	0.0135550
913.531	0.0136555
913.609	0.0136327
913.687	0.0136217
913.765	0.0135772
913.843	0.0136790
913.921	0.0135284
913.999	0.0135699
914.078	0.0135963
914.156	0.0136800
914.234	0.0137576
914.312	0.0135994
914.390	0.0135058
914.468	0.0137225
914.546	0.0136777
914.624	0.0135381
914.703	0.0136436
914.781	0.0136463
914.859	0.0136126
914.937	0.0135976
915.015	0.0136698
915.093	0.0135220
915.171	0.0134886
915.249	0.0135350
915.328	0.0134823
915.406	0.0135664
915.484	0.0137038
915.562	0.0134229
915.640	0.0134830
915.718	0.0134872
915.796	0.0134628
915.874	0.0134148
915.953	0.0135409
916.031	0.0135530
916.109	0.0134846
916.187	0.0135510
916.265	0.0133651
916.343	0.0136522
916.421	0.0135909
916.499	0.0134177
916.578	0.0134927
916.656	0.0136184
916.734	0.0134372
916.812	0.0136499
916.890	0.0134715
916.968	0.0134634
917.046	0.0134812
917.124	0.0135465
917.203	0.0136114
917.281	0.0135021
917.359	0.0135756
917.437	0.0135638
917.515	0.0136806
917.593	0.0135306
917.671	0.0135494
917.749	0.0136562
917.828	0.0134972
917.906	0.0135640
917.984	0.0135963
918.062	0.0134718
918.140	0.0134932
918.218	0.0135665
918.296	0.0134653
918.374	0.0134930
918.453	0.0135348
918.531	0.0135552
918.609	0.0135184
918.687	0.0134738
918.765	0.0135220
918.843	0.0135262
918.921	0.0135100
918.999	0.0134379
919.078	0.0134647
919.156	0.0135242
919.234	0.0135626
919.312	0.0135040
919.390	0.0134660
919.468	0.0135550
919.546	0.0135398
919.624	0.0134505
919.703	0.0132640
919.781	0.0134871
919.859	0.0135541
919.937	0.0136786
