05/08/2022	20:16:52	Ver.	4.1	UNKNOWN
Optical Delay	600.015094	Delta X		0.078125	Sweeps	1	Scan Rate	0/0
Coordinates	Axis 1	NaN	Axis 2	NaN	Axis 3	NaN	Axis 4	NaN	Axis 5	NaN	Axis 6	0.000000
TX Power	0.000000	RX Power	0.000000

600.015	0.0137528
600.093	0.0137483
600.171	0.0138038
600.249	0.0139104
600.328	0.0137839
600.406	0.0138415
600.484	0.0138398
600.562	0.0139263
600.640	0.0137630
600.718	0.0139035
600.796	0.0138065
600.874	0.0138869
600.953	0.0137885
601.031	0.0139139
601.109	0.0139454
601.187	0.0137783
601.265	0.0138279
601.343	0.0138141
601.421	0.0137663
601.499	0.0138342
601.578	0.0138830
601.656	0.0139255
601.734	0.0138260
601.812	0.0139179
601.890	0.0137873
601.968	0.0138563
602.046	0.0138959
602.124	0.0139450
602.203	0.0138582
602.281	0.0140060
602.359	0.0139729
602.437	0.0139088
602.515	0.0141173
602.593	0.0140805
602.671	0.0139249
602.749	0.0138898
602.828	0.0138921
602.906	0.0140011
602.984	0.0138975
603.062	0.0140202
603.140	0.0139672
603.218	0.0139190
603.296	0.0139495
603.374	0.0140124
603.453	0.0140771
603.531	0.0140166
603.609	0.0139008
603.687	0.0140932
603.765	0.0140862
603.843	0.0139136
603.921	0.0139661
603.999	0.0138943
604.078	0.0139575
604.156	0.0140086
604.234	0.0139534
604.312	0.0138876
604.390	0.0140303
604.468	0.0139386
604.546	0.0137861
604.624	0.0138501
604.703	0.0139844
604.781	0.0139925
604.859	0.0140133
604.937	0.0139614
605.015	0.0140433
605.093	0.0140110
605.171	0.0140092
605.249	0.0139790
605.328	0.0139004
605.406	0.0139539
605.484	0.0140517
605.562	0.0139907
605.640	0.0140183
605.718	0.0141230
605.796	0.0139776
605.874	0.0140268
605.953	0.0139202
606.031	0.0140585
606.109	0.0140249
606.187	0.0138435
606.265	0.0139870
606.343	0.0141058
606.421	0.0141220
606.499	0.0140744
606.578	0.0139806
606.656	0.0140620
606.734	0.0140145
606.812	0.0139027
606.890	0.0139513
606.968	0.0140082
607.046	0.0139111
607.124	0.0140533
607.203	0.0138956
607.281	0.0140649
607.359	0.0139909
607.437	0.0141443
607.515	0.0139939
607.593	0.0140134
607.671	0.0140939
607.749	0.0140026
607.828	0.0141424
607.906	0.0140906
607.984	0.0140031
608.062	0.0140978
608.140	0.0139600
608.218	0.0139854
608.296	0.0141414
608.374	0.0141042
608.453	0.0139580
608.531	0.0139659
608.609	0.0139293
608.687	0.0140492
608.765	0.0140636
608.843	0.0140060
608.921	0.0140321
608.999	0.0138882
609.078	0.0140315
609.156	0.0139110
609.234	0.0139749
609.312	0.0139468
609.390	0.0138721
609.468	0.0139508
609.546	0.0141480
609.624	0.0139713
609.703	0.0139821
609.781	0.0140497
609.859	0.0139906
609.937	0.0139280
610.015	0.0137885
610.093	0.0139571
610.171	0.0138918
610.249	0.0138161
610.328	0.0139131
610.406	0.0139230
610.484	0.0139458
610.562	0.0139697
610.640	0.0139163
610.718	0.0139975
610.796	0.0139181
610.874	0.0139994
610.953	0.0139389
611.031	0.0139517
611.109	0.0141165
611.187	0.0139193
611.265	0.0138718
611.343	0.0140380
611.421	0.0139965
611.499	0.0138902
611.578	0.0140221
611.656	0.0138526
611.734	0.0136540
611.812	0.0137827
611.890	0.0138221
611.968	0.0137857
612.046	0.0138497
612.124	0.0137798
612.203	0.0136816
612.281	0.0137246
612.359	0.0138161
612.437	0.0137816
612.515	0.0138389
612.593	0.0138668
612.671	0.0136351
612.749	0.0137171
612.828	0.0137434
612.906	0.0137729
612.984	0.0137390
613.062	0.0137025
613.140	0.0137033
613.218	0.0138573
613.296	0.0136527
613.374	0.0136980
613.453	0.0137403
613.531	0.0136874
613.609	0.0136495
613.687	0.0136012
613.765	0.0136478
613.843	0.0136025
613.921	0.0136833
613.999	0.0136301
614.078	0.0136685
614.156	0.0137180
614.234	0.0136250
614.312	0.0137165
614.390	0.0136845
614.468	0.0136829
614.546	0.0137479
614.624	0.0138151
614.703	0.0138061
614.781	0.0137388
614.859	0.0137025
614.937	0.0137041
615.015	0.0137637
615.093	0.0137963
615.171	0.0138417
615.249	0.0139323
615.328	0.0137820
615.406	0.0139507
615.484	0.0138406
615.562	0.0137862
615.640	0.0136864
615.718	0.0138047
615.796	0.0138445
615.874	0.0137711
615.953	0.0136690
616.031	0.0137181
616.109	0.0137370
616.187	0.0136897
616.265	0.0138226
616.343	0.0139724
616.421	0.0139471
616.499	0.0138058
616.578	0.0138645
616.656	0.0139207
616.734	0.0138548
616.812	0.0138163
616.890	0.0137768
616.968	0.0137884
617.046	0.0136777
617.124	0.0138783
617.203	0.0138813
617.281	0.0137495
617.359	0.0136915
617.437	0.0136971
617.515	0.0137678
617.593	0.0138578
617.671	0.0137993
617.749	0.0137408
617.828	0.0137835
617.906	0.0138869
617.984	0.0137852
618.062	0.0137128
618.140	0.0135810
618.218	0.0137133
618.296	0.0139178
618.374	0.0138091
618.453	0.0137805
618.531	0.0137975
618.609	0.0137937
618.687	0.0137162
618.765	0.0137446
618.843	0.0138596
618.921	0.0138851
618.999	0.0137563
619.078	0.0138295
619.156	0.0137650
619.234	0.0137971
619.312	0.0137897
619.390	0.0137115
619.468	0.0138704
619.546	0.0137922
619.624	0.0138310
619.703	0.0138394
619.781	0.0137742
619.859	0.0136685
619.937	0.0136029
620.015	0.0138025
620.093	0.0137986
620.171	0.0137467
620.249	0.0139037
620.328	0.0137933
620.406	0.0138441
620.484	0.0136052
620.562	0.0137028
620.640	0.0137873
620.718	0.0137548
620.796	0.0137041
620.874	0.0137234
620.953	0.0137733
621.031	0.0137125
621.109	0.0137848
621.187	0.0138580
621.265	0.0136739
621.343	0.0138556
621.421	0.0139310
621.499	0.0138464
621.578	0.0138661
621.656	0.0137582
621.734	0.0137780
621.812	0.0138030
621.890	0.0137385
621.968	0.0136113
622.046	0.0137540
622.124	0.0139280
622.203	0.0138235
622.281	0.0136750
622.359	0.0137689
622.437	0.0139502
622.515	0.0138721
622.593	0.0137509
622.671	0.0138494
622.749	0.0138337
622.828	0.0138475
622.906	0.0137164
622.984	0.0137437
623.062	0.0138536
623.140	0.0138634
623.218	0.0137671
623.296	0.0139019
623.374	0.0137733
623.453	0.0137524
623.531	0.0136996
623.609	0.0137559
623.687	0.0138553
623.765	0.0138740
623.843	0.0138279
623.921	0.0137825
623.999	0.0137268
624.078	0.0137797
624.156	0.0137647
624.234	0.0137153
624.312	0.0138188
624.390	0.0138507
624.468	0.0137586
624.546	0.0137608
624.624	0.0139283
624.703	0.0137601
624.781	0.0137955
624.859	0.0137705
624.937	0.0138505
625.015	0.0138929
625.093	0.0138331
625.171	0.0139265
625.249	0.0139690
625.328	0.0138961
625.406	0.0138781
625.484	0.0138493
625.562	0.0139991
625.640	0.0138846
625.718	0.0140096
625.796	0.0141344
625.874	0.0141084
625.953	0.0139742
626.031	0.0140188
626.109	0.0139609
626.187	0.0140505
626.265	0.0140723
626.343	0.0139890
626.421	0.0141202
626.499	0.0141340
626.578	0.0140652
626.656	0.0141264
626.734	0.0141611
626.812	0.0139835
626.890	0.0141740
626.968	0.0140549
627.046	0.0139480
627.124	0.0141747
627.203	0.0140541
627.281	0.0141312
627.359	0.0140707
627.437	0.0141370
627.515	0.0140285
627.593	0.0141594
627.671	0.0141179
627.749	0.0140190
627.828	0.0140553
627.906	0.0139359
627.984	0.0140784
628.062	0.0140965
628.140	0.0140614
628.218	0.0140065
628.296	0.0140755
628.374	0.0140253
628.453	0.0140176
628.531	0.0140780
628.609	0.0139259
628.687	0.0141154
628.765	0.0140802
628.843	0.0140519
628.921	0.0140843
628.999	0.0140634
629.078	0.0140084
629.156	0.0139695
629.234	0.0141760
629.312	0.0140215
629.390	0.0139371
629.468	0.0141588
629.546	0.0140265
629.624	0.0139053
629.703	0.0138562
629.781	0.0138807
629.859	0.0138303
629.937	0.0138894
630.015	0.0137524
630.093	0.0138110
630.171	0.0138527
630.249	0.0138569
630.328	0.0137837
630.406	0.0138093
630.484	0.0137799
630.562	0.0138610
630.640	0.0138461
630.718	0.0138200
630.796	0.0137968
630.874	0.0138520
630.953	0.0138560
631.031	0.0139001
631.109	0.0140224
631.187	0.0140932
631.265	0.0140119
631.343	0.0139346
631.421	0.0139819
631.499	0.0140660
631.578	0.0141620
631.656	0.0140971
631.734	0.0140530
631.812	0.0139197
631.890	0.0139963
631.968	0.0140144
632.046	0.0140115
632.124	0.0139748
632.203	0.0138848
632.281	0.0138701
632.359	0.0139040
632.437	0.0138686
632.515	0.0139695
632.593	0.0138693
632.671	0.0138927
632.749	0.0139306
632.828	0.0138858
632.906	0.0136156
632.984	0.0137274
633.062	0.0137424
633.140	0.0137604
633.218	0.0137854
633.296	0.0137415
633.374	0.0137704
633.453	0.0138047
633.531	0.0138547
633.609	0.0138840
633.687	0.0139693
633.765	0.0140995
633.843	0.0141515
633.921	0.0141150
633.999	0.0140584
634.078	0.0142320
634.156	0.0141871
634.234	0.0140659
634.312	0.0141417
634.390	0.0142113
634.468	0.0140707
634.546	0.0141038
634.624	0.0139840
634.703	0.0139358
634.781	0.0137985
634.859	0.0137868
634.937	0.0138972
635.015	0.0137328
635.093	0.0135193
635.171	0.0136584
635.249	0.0136442
635.328	0.0136493
635.406	0.0136429
635.484	0.0136755
635.562	0.0137016
635.640	0.0136998
635.718	0.0137768
635.796	0.0137776
635.874	0.0138020
635.953	0.0138116
636.031	0.0138293
636.109	0.0138040
636.187	0.0137820
636.265	0.0138144
636.343	0.0138826
636.421	0.0140106
636.499	0.0139127
636.578	0.0140061
636.656	0.0139567
636.734	0.0138736
636.812	0.0139018
636.890	0.0139583
636.968	0.0139137
637.046	0.0140736
637.124	0.0138551
637.203	0.0139312
637.281	0.0139177
637.359	0.0138762
637.437	0.0138736
637.515	0.0138971
637.593	0.0138831
637.671	0.0139482
637.749	0.0139711
637.828	0.0140314
637.906	0.0139973
637.984	0.0141235
638.062	0.0140543
638.140	0.0140469
638.218	0.0139932
638.296	0.0141912
638.374	0.0140980
638.453	0.0140780
638.531	0.0140277
638.609	0.0140966
638.687	0.0139523
638.765	0.0140547
638.843	0.0140732
638.921	0.0140801
638.999	0.0141064
639.078	0.0141254
639.156	0.0142564
639.234	0.0141599
639.312	0.0141596
639.390	0.0142656
639.468	0.0141242
639.546	0.0140589
639.624	0.0140231
639.703	0.0139231
639.781	0.0139095
639.859	0.0138963
639.937	0.0137779
640.015	0.0138115
640.093	0.0138046
640.171	0.0136391
640.249	0.0136515
640.328	0.0135961
640.406	0.0135107
640.484	0.0134897
640.562	0.0135118
640.640	0.0135469
640.718	0.0134998
640.796	0.0135221
640.874	0.0137115
640.953	0.0137399
641.031	0.0137096
641.109	0.0140197
641.187	0.0139711
641.265	0.0139958
641.343	0.0140903
641.421	0.0139664
641.499	0.0142163
641.578	0.0142535
641.656	0.0139736
641.734	0.0141470
641.812	0.0141815
641.890	0.0141728
641.968	0.0141234
642.046	0.0141042
642.124	0.0141518
642.203	0.0140668
642.281	0.0140600
642.359	0.0140573
642.437	0.0139974
642.515	0.0138424
642.593	0.0136893
642.671	0.0135790
642.749	0.0135655
642.828	0.0135688
642.906	0.0134686
642.984	0.0132560
643.062	0.0131993
643.140	0.0131351
643.218	0.0131596
643.296	0.0131556
643.374	0.0132330
643.453	0.0131454
643.531	0.0133015
643.609	0.0134791
643.687	0.0135598
643.765	0.0134095
643.843	0.0136792
643.921	0.0138072
643.999	0.0140269
644.078	0.0140734
644.156	0.0142095
644.234	0.0143307
644.312	0.0145602
644.390	0.0143356
644.468	0.0143188
644.546	0.0143649
644.624	0.0143244
644.703	0.0144653
644.781	0.0142863
644.859	0.0144157
644.937	0.0144159
645.015	0.0143292
645.093	0.0141704
645.171	0.0140663
645.249	0.0139980
645.328	0.0139154
645.406	0.0137190
645.484	0.0135645
645.562	0.0136520
645.640	0.0134233
645.718	0.0132064
645.796	0.0130864
645.874	0.0130354
645.953	0.0128760
646.031	0.0126471
646.109	0.0126828
646.187	0.0127486
646.265	0.0128357
646.343	0.0129427
646.421	0.0129417
646.499	0.0131071
646.578	0.0131390
646.656	0.0134294
646.734	0.0136018
646.812	0.0137691
646.890	0.0139869
646.968	0.0142400
647.046	0.0141915
647.124	0.0144836
647.203	0.0145363
647.281	0.0147278
647.359	0.0146889
647.437	0.0149822
647.515	0.0150053
647.593	0.0148418
647.671	0.0148060
647.749	0.0147970
647.828	0.0147413
647.906	0.0145426
647.984	0.0143224
648.062	0.0141468
648.140	0.0139601
648.218	0.0138070
648.296	0.0137389
648.374	0.0134306
648.453	0.0133193
648.531	0.0131729
648.609	0.0131117
648.687	0.0128236
648.765	0.0126186
648.843	0.0124662
648.921	0.0124027
648.999	0.0124120
649.078	0.0122774
649.156	0.0123399
649.234	0.0123666
649.312	0.0123680
649.390	0.0124951
649.468	0.0126067
649.546	0.0126424
649.624	0.0129013
649.703	0.0131986
649.781	0.0134919
649.859	0.0136456
649.937	0.0138863
650.015	0.0142379
650.093	0.0145564
650.171	0.0147533
650.249	0.0148911
650.328	0.0150037
650.406	0.0152330
650.484	0.0152377
650.562	0.0153636
650.640	0.0153468
650.718	0.0152079
650.796	0.0151500
650.874	0.0151239
650.953	0.0150887
651.031	0.0149506
651.109	0.0146549
651.187	0.0145586
651.265	0.0144137
651.343	0.0140286
651.421	0.0139626
651.499	0.0137780
651.578	0.0135247
651.656	0.0133501
651.734	0.0131698
651.812	0.0129970
651.890	0.0128719
651.968	0.0126477
652.046	0.0126275
652.124	0.0124913
652.203	0.0125892
652.281	0.0125808
652.359	0.0125832
652.437	0.0125930
652.515	0.0126070
652.593	0.0128178
652.671	0.0128693
652.749	0.0130146
652.828	0.0131517
652.906	0.0132948
652.984	0.0134763
653.062	0.0136685
653.140	0.0138270
653.218	0.0139403
653.296	0.0141837
653.374	0.0143346
653.453	0.0144513
653.531	0.0146199
653.609	0.0145879
653.687	0.0147255
653.765	0.0147772
653.843	0.0148673
653.921	0.0149081
653.999	0.0147939
654.078	0.0146570
654.156	0.0145404
654.234	0.0146888
654.312	0.0145522
654.390	0.0144988
654.468	0.0141893
654.546	0.0140537
654.624	0.0140399
654.703	0.0139799
654.781	0.0137956
654.859	0.0136638
654.937	0.0135888
655.015	0.0134254
655.093	0.0135043
655.171	0.0133308
655.249	0.0134158
655.328	0.0134200
655.406	0.0133495
655.484	0.0134840
655.562	0.0137003
655.640	0.0137746
655.718	0.0138795
655.796	0.0140602
655.874	0.0141622
655.953	0.0142307
656.031	0.0143879
656.109	0.0145356
656.187	0.0145140
656.265	0.0145063
656.343	0.0146223
656.421	0.0147965
656.499	0.0147815
656.578	0.0147614
656.656	0.0147790
656.734	0.0146767
656.812	0.0147661
656.890	0.0146265
656.968	0.0143331
657.046	0.0142252
657.124	0.0140551
657.203	0.0137783
657.281	0.0134492
657.359	0.0132802
657.437	0.0129007
657.515	0.0127740
657.593	0.0127277
657.671	0.0124777
657.749	0.0123759
657.828	0.0124655
657.906	0.0123158
657.984	0.0123927
658.062	0.0125069
658.140	0.0126797
658.218	0.0128985
658.296	0.0130848
658.374	0.0133028
658.453	0.0137140
658.531	0.0140092
658.609	0.0139746
658.687	0.0143108
658.765	0.0145805
658.843	0.0147009
658.921	0.0149467
658.999	0.0152197
659.078	0.0152641
659.156	0.0155225
659.234	0.0156082
659.312	0.0158350
659.390	0.0158643
659.468	0.0160190
659.546	0.0160887
659.624	0.0159731
659.703	0.0159993
659.781	0.0159570
659.859	0.0155757
659.937	0.0156040
660.015	0.0152415
660.093	0.0149271
660.171	0.0146413
660.249	0.0141959
660.328	0.0141896
660.406	0.0137302
660.484	0.0134914
660.562	0.0133504
660.640	0.0130537
660.718	0.0128700
660.796	0.0127487
660.874	0.0127186
660.953	0.0126740
661.031	0.0127940
661.109	0.0126855
661.187	0.0126330
661.265	0.0127734
661.343	0.0128901
661.421	0.0128587
661.499	0.0129425
661.578	0.0130669
661.656	0.0130840
661.734	0.0132016
661.812	0.0132882
661.890	0.0132487
661.968	0.0131875
662.046	0.0133488
662.124	0.0134401
662.203	0.0134536
662.281	0.0135110
662.359	0.0135020
662.437	0.0136926
662.515	0.0136301
662.593	0.0137054
662.671	0.0137801
662.749	0.0136914
662.828	0.0136523
662.906	0.0137025
662.984	0.0136269
663.062	0.0138843
663.140	0.0138979
663.218	0.0139540
663.296	0.0139632
663.374	0.0139883
663.453	0.0140626
663.531	0.0142484
663.609	0.0142656
663.687	0.0146478
663.765	0.0146207
663.843	0.0149444
663.921	0.0151183
663.999	0.0151809
664.078	0.0153725
664.156	0.0154790
664.234	0.0155115
664.312	0.0156423
664.390	0.0156575
664.468	0.0157680
664.546	0.0157767
664.624	0.0158121
664.703	0.0158296
664.781	0.0157372
664.859	0.0156239
664.937	0.0156446
665.015	0.0153216
665.093	0.0152171
665.171	0.0150585
665.249	0.0148985
665.328	0.0145673
665.406	0.0142452
665.484	0.0138202
665.562	0.0134438
665.640	0.0130666
665.718	0.0128616
665.796	0.0126061
665.874	0.0124288
665.953	0.0122202
666.031	0.0118894
666.109	0.0117842
666.187	0.0115517
666.265	0.0117146
666.343	0.0115049
666.421	0.0115366
666.499	0.0117244
666.578	0.0117114
666.656	0.0118283
666.734	0.0118877
666.812	0.0120084
666.890	0.0121571
666.968	0.0121106
667.046	0.0122041
667.124	0.0123882
667.203	0.0124912
667.281	0.0126764
667.359	0.0128661
667.437	0.0130585
667.515	0.0131891
667.593	0.0134958
667.671	0.0136492
667.749	0.0138223
667.828	0.0140857
667.906	0.0144098
667.984	0.0144232
668.062	0.0146555
668.140	0.0150396
668.218	0.0150523
668.296	0.0151025
668.374	0.0153117
668.453	0.0152124
668.531	0.0153456
668.609	0.0153699
668.687	0.0154390
668.765	0.0154062
668.843	0.0154257
668.921	0.0153835
668.999	0.0154413
669.078	0.0152715
669.156	0.0152596
669.234	0.0152266
669.312	0.0152808
669.390	0.0152022
669.468	0.0150963
669.546	0.0148438
669.624	0.0148380
669.703	0.0147602
669.781	0.0146030
669.859	0.0146438
669.937	0.0143443
670.015	0.0143187
670.093	0.0143380
670.171	0.0142342
670.249	0.0140198
670.328	0.0140147
670.406	0.0136813
670.484	0.0135670
670.562	0.0133758
670.640	0.0130734
670.718	0.0129914
670.796	0.0128896
670.874	0.0127214
670.953	0.0122546
671.031	0.0120206
671.109	0.0120313
671.187	0.0120384
671.265	0.0118008
671.343	0.0118233
671.421	0.0117027
671.499	0.0114739
671.578	0.0115630
671.656	0.0114529
671.734	0.0115781
671.812	0.0116478
671.890	0.0116543
671.968	0.0117392
672.046	0.0120444
672.124	0.0122904
672.203	0.0125447
672.281	0.0125889
672.359	0.0130052
672.437	0.0131478
672.515	0.0133414
672.593	0.0135656
672.671	0.0138389
672.749	0.0139271
672.828	0.0140878
672.906	0.0142723
672.984	0.0142653
673.062	0.0144791
673.140	0.0145915
673.218	0.0145982
673.296	0.0145699
673.374	0.0146794
673.453	0.0147574
673.531	0.0149166
673.609	0.0149463
673.687	0.0148425
673.765	0.0150393
673.843	0.0150822
673.921	0.0149641
673.999	0.0150476
674.078	0.0152601
674.156	0.0152838
674.234	0.0152254
674.312	0.0152002
674.390	0.0151476
674.468	0.0152534
674.546	0.0152204
674.624	0.0152499
674.703	0.0151287
674.781	0.0151121
674.859	0.0150248
674.937	0.0148737
675.015	0.0149030
675.093	0.0149673
675.171	0.0145547
675.249	0.0146098
675.328	0.0146399
675.406	0.0143791
675.484	0.0142593
675.562	0.0139698
675.640	0.0137921
675.718	0.0137258
675.796	0.0135992
675.874	0.0134153
675.953	0.0131271
676.031	0.0129344
676.109	0.0127077
676.187	0.0125957
676.265	0.0126367
676.343	0.0125150
676.421	0.0122390
676.499	0.0120484
676.578	0.0120872
676.656	0.0119524
676.734	0.0117730
676.812	0.0117458
676.890	0.0116351
676.968	0.0117934
677.046	0.0116508
677.124	0.0116289
677.203	0.0115800
677.281	0.0116074
677.359	0.0118433
677.437	0.0117681
677.515	0.0118555
677.593	0.0118668
677.671	0.0121858
677.749	0.0121603
677.828	0.0122339
677.906	0.0122981
677.984	0.0124530
678.062	0.0126076
678.140	0.0128947
678.218	0.0129470
678.296	0.0132263
678.374	0.0133691
678.453	0.0135989
678.531	0.0137796
678.609	0.0143581
678.687	0.0146480
678.765	0.0148679
678.843	0.0152248
678.921	0.0154897
678.999	0.0157230
679.078	0.0159329
679.156	0.0162648
679.234	0.0161446
679.312	0.0164030
679.390	0.0164986
679.468	0.0165504
679.546	0.0165933
679.624	0.0165611
679.703	0.0165931
679.781	0.0166284
679.859	0.0164880
679.937	0.0164398
680.015	0.0163231
680.093	0.0162127
680.171	0.0159563
680.249	0.0158479
680.328	0.0155354
680.406	0.0152910
680.484	0.0148997
680.562	0.0148038
680.640	0.0145093
680.718	0.0142088
680.796	0.0139706
680.874	0.0137280
680.953	0.0134277
681.031	0.0130108
681.109	0.0129272
681.187	0.0126878
681.265	0.0123426
681.343	0.0122626
681.421	0.0122317
681.499	0.0119181
681.578	0.0119009
681.656	0.0118219
681.734	0.0117058
681.812	0.0116531
681.890	0.0115527
681.968	0.0116917
682.046	0.0117057
682.124	0.0116998
682.203	0.0116696
682.281	0.0117225
682.359	0.0120269
682.437	0.0121095
682.515	0.0122960
682.593	0.0124345
682.671	0.0126654
682.749	0.0126566
682.828	0.0129910
682.906	0.0131467
682.984	0.0133408
683.062	0.0135070
683.140	0.0138439
683.218	0.0138401
683.296	0.0141066
683.374	0.0143697
683.453	0.0144302
683.531	0.0146319
683.609	0.0148209
683.687	0.0149954
683.765	0.0152895
683.843	0.0153637
683.921	0.0155420
683.999	0.0155024
684.078	0.0155918
684.156	0.0156178
684.234	0.0157644
684.312	0.0157482
684.390	0.0157269
684.468	0.0157513
684.546	0.0157224
684.624	0.0158514
684.703	0.0158599
684.781	0.0157935
684.859	0.0157678
684.937	0.0156988
685.015	0.0157174
685.093	0.0157079
685.171	0.0155163
685.249	0.0154720
685.328	0.0152488
685.406	0.0152375
685.484	0.0150115
685.562	0.0148603
685.640	0.0147173
685.718	0.0146124
685.796	0.0144530
685.874	0.0142023
685.953	0.0140229
686.031	0.0138566
686.109	0.0137577
686.187	0.0134610
686.265	0.0132520
686.343	0.0129807
686.421	0.0131306
686.499	0.0130200
686.578	0.0129281
686.656	0.0128446
686.734	0.0127823
686.812	0.0126968
686.890	0.0126785
686.968	0.0126961
687.046	0.0126849
687.124	0.0126466
687.203	0.0127179
687.281	0.0126408
687.359	0.0125285
687.437	0.0124974
687.515	0.0125416
687.593	0.0125225
687.671	0.0125290
687.749	0.0125134
687.828	0.0122701
687.906	0.0125040
687.984	0.0123932
688.062	0.0124250
688.140	0.0126450
688.218	0.0129084
688.296	0.0129894
688.374	0.0130849
688.453	0.0132999
688.531	0.0135162
688.609	0.0138435
688.687	0.0140360
688.765	0.0142089
688.843	0.0144324
688.921	0.0147025
688.999	0.0146784
689.078	0.0148737
689.156	0.0147928
689.234	0.0148041
689.312	0.0148943
689.390	0.0149097
689.468	0.0148003
689.546	0.0149771
689.624	0.0149383
689.703	0.0149306
689.781	0.0150278
689.859	0.0149897
689.937	0.0148730
690.015	0.0149068
690.093	0.0148383
690.171	0.0148844
690.249	0.0148439
690.328	0.0148153
690.406	0.0146830
690.484	0.0145706
690.562	0.0146160
690.640	0.0145091
690.718	0.0145052
690.796	0.0143954
690.874	0.0143078
690.953	0.0141660
691.031	0.0142104
691.109	0.0142646
691.187	0.0141229
691.265	0.0140633
691.343	0.0140702
691.421	0.0140507
691.499	0.0139046
691.578	0.0138529
691.656	0.0139356
691.734	0.0138055
691.812	0.0136479
691.890	0.0137175
691.968	0.0136520
692.046	0.0135472
692.124	0.0136481
692.203	0.0136065
692.281	0.0134232
692.359	0.0134991
692.437	0.0135281
692.515	0.0134325
692.593	0.0134075
692.671	0.0133300
692.749	0.0133520
692.828	0.0131133
692.906	0.0130766
692.984	0.0130670
693.062	0.0130837
693.140	0.0129709
693.218	0.0130900
693.296	0.0131908
693.374	0.0131595
693.453	0.0131100
693.531	0.0131590
693.609	0.0132384
693.687	0.0132338
693.765	0.0135090
693.843	0.0134602
693.921	0.0137141
693.999	0.0136658
694.078	0.0136607
694.156	0.0136015
694.234	0.0135950
694.312	0.0135861
694.390	0.0137318
694.468	0.0136288
694.546	0.0136788
694.624	0.0138589
694.703	0.0137482
694.781	0.0136423
694.859	0.0136860
694.937	0.0136705
695.015	0.0136091
695.093	0.0136655
695.171	0.0136192
695.249	0.0136216
695.328	0.0137071
695.406	0.0136141
695.484	0.0136837
695.562	0.0134446
695.640	0.0135779
695.718	0.0135686
695.796	0.0135070
695.874	0.0135524
695.953	0.0136140
696.031	0.0136215
696.109	0.0135808
696.187	0.0136544
696.265	0.0135519
696.343	0.0136623
696.421	0.0137117
696.499	0.0137902
696.578	0.0139108
696.656	0.0140276
696.734	0.0140311
696.812	0.0142402
696.890	0.0142458
696.968	0.0142353
697.046	0.0143839
697.124	0.0144297
697.203	0.0144846
697.281	0.0144405
697.359	0.0144094
697.437	0.0144359
697.515	0.0145152
697.593	0.0143182
697.671	0.0143948
697.749	0.0143604
697.828	0.0143976
697.906	0.0144681
697.984	0.0143629
698.062	0.0144299
698.140	0.0143508
698.218	0.0145177
698.296	0.0144334
698.374	0.0144324
698.453	0.0141920
698.531	0.0142062
698.609	0.0142080
698.687	0.0139442
698.765	0.0138628
698.843	0.0136793
698.921	0.0136709
698.999	0.0136790
699.078	0.0133804
699.156	0.0134446
699.234	0.0133406
699.312	0.0131235
699.390	0.0131509
699.468	0.0130284
699.546	0.0128756
699.624	0.0128084
699.703	0.0127332
699.781	0.0126512
699.859	0.0123843
699.937	0.0125354
700.015	0.0124953
700.093	0.0124192
700.171	0.0125021
700.249	0.0125774
700.328	0.0124080
700.406	0.0124928
700.484	0.0126280
700.562	0.0127653
700.640	0.0128393
700.718	0.0130518
700.796	0.0131949
700.874	0.0133067
700.953	0.0132063
701.031	0.0135775
701.109	0.0137075
701.187	0.0137561
701.265	0.0140604
701.343	0.0140920
701.421	0.0143537
701.499	0.0144878
701.578	0.0145918
701.656	0.0147627
701.734	0.0148330
701.812	0.0148976
701.890	0.0150160
701.968	0.0149348
702.046	0.0149012
702.124	0.0151195
702.203	0.0151250
702.281	0.0151006
702.359	0.0150850
702.437	0.0149684
702.515	0.0148804
702.593	0.0148507
702.671	0.0148029
702.749	0.0148235
702.828	0.0147542
702.906	0.0146249
702.984	0.0145798
703.062	0.0143475
703.140	0.0143877
703.218	0.0142671
703.296	0.0141026
703.374	0.0141454
703.453	0.0139891
703.531	0.0140604
703.609	0.0138613
703.687	0.0137947
703.765	0.0136357
703.843	0.0136589
703.921	0.0135239
703.999	0.0134689
704.078	0.0134391
704.156	0.0132846
704.234	0.0132424
704.312	0.0131365
704.390	0.0131423
704.468	0.0131422
704.546	0.0131828
704.624	0.0131477
704.703	0.0131867
704.781	0.0132391
704.859	0.0131690
704.937	0.0132536
705.015	0.0132696
705.093	0.0132167
705.171	0.0133633
705.249	0.0133110
705.328	0.0132074
705.406	0.0133221
705.484	0.0132944
705.562	0.0133410
705.640	0.0133656
705.718	0.0133315
705.796	0.0133016
705.874	0.0134249
705.953	0.0135013
706.031	0.0136969
706.109	0.0136905
706.187	0.0139058
706.265	0.0140013
706.343	0.0140669
706.421	0.0141042
706.499	0.0140472
706.578	0.0142947
706.656	0.0142607
706.734	0.0144601
706.812	0.0146089
706.890	0.0146011
706.968	0.0146204
707.046	0.0145847
707.124	0.0146072
707.203	0.0146237
707.281	0.0146351
707.359	0.0145866
707.437	0.0145714
707.515	0.0144412
707.593	0.0142017
707.671	0.0142561
707.749	0.0141922
707.828	0.0141428
707.906	0.0139612
707.984	0.0139995
708.062	0.0137863
708.140	0.0138300
708.218	0.0138367
708.296	0.0137847
708.374	0.0137086
708.453	0.0135986
708.531	0.0136482
708.609	0.0136461
708.687	0.0137376
708.765	0.0136684
708.843	0.0135732
708.921	0.0136014
708.999	0.0136188
709.078	0.0135104
709.156	0.0136309
709.234	0.0136005
709.312	0.0135142
709.390	0.0134641
709.468	0.0137773
709.546	0.0135176
709.624	0.0136438
709.703	0.0137186
709.781	0.0137426
709.859	0.0137708
709.937	0.0138492
710.015	0.0139566
710.093	0.0139590
710.171	0.0139647
710.249	0.0140874
710.328	0.0141457
710.406	0.0141445
710.484	0.0142441
710.562	0.0142116
710.640	0.0141264
710.718	0.0141722
710.796	0.0141092
710.874	0.0141653
710.953	0.0139738
711.031	0.0139867
711.109	0.0138163
711.187	0.0138763
711.265	0.0138118
711.343	0.0136982
711.421	0.0137923
711.499	0.0138319
711.578	0.0137869
711.656	0.0137254
711.734	0.0136949
711.812	0.0138663
711.890	0.0137934
711.968	0.0138024
712.046	0.0139558
712.124	0.0138483
712.203	0.0136971
712.281	0.0139406
712.359	0.0138637
712.437	0.0138561
712.515	0.0139034
712.593	0.0139747
712.671	0.0140555
712.749	0.0140434
712.828	0.0141127
712.906	0.0142120
712.984	0.0141690
713.062	0.0143073
713.140	0.0143515
713.218	0.0144221
713.296	0.0142779
713.374	0.0140645
713.453	0.0140759
713.531	0.0140971
713.609	0.0140187
713.687	0.0138459
713.765	0.0138506
713.843	0.0136847
713.921	0.0136698
713.999	0.0135134
714.078	0.0135400
714.156	0.0135109
714.234	0.0134570
714.312	0.0136790
714.390	0.0133214
714.468	0.0134095
714.546	0.0135574
714.624	0.0134862
714.703	0.0134214
714.781	0.0133154
714.859	0.0134657
714.937	0.0135665
715.015	0.0133680
715.093	0.0134537
715.171	0.0135357
715.249	0.0136546
715.328	0.0134686
715.406	0.0136102
715.484	0.0136983
715.562	0.0136790
715.640	0.0136587
715.718	0.0136101
715.796	0.0137112
715.874	0.0137022
715.953	0.0135989
716.031	0.0139391
716.109	0.0139775
716.187	0.0138062
716.265	0.0139835
716.343	0.0139556
716.421	0.0138070
716.499	0.0140422
716.578	0.0141023
716.656	0.0140665
716.734	0.0142030
716.812	0.0141853
716.890	0.0141891
716.968	0.0143499
717.046	0.0143636
717.124	0.0143143
717.203	0.0144274
717.281	0.0144277
717.359	0.0144843
717.437	0.0142986
717.515	0.0143256
717.593	0.0141922
717.671	0.0140249
717.749	0.0141451
717.828	0.0139360
717.906	0.0138387
717.984	0.0139180
718.062	0.0139140
718.140	0.0138713
718.218	0.0136679
718.296	0.0135134
718.374	0.0135069
718.453	0.0137373
718.531	0.0135933
718.609	0.0135529
718.687	0.0134415
718.765	0.0135101
718.843	0.0136446
718.921	0.0135789
718.999	0.0135693
719.078	0.0135828
719.156	0.0135433
719.234	0.0135326
719.312	0.0135782
719.390	0.0134783
719.468	0.0136649
719.546	0.0134505
719.624	0.0134556
719.703	0.0135524
719.781	0.0136570
719.859	0.0136238
719.937	0.0135294
720.015	0.0136588
720.093	0.0136927
720.171	0.0137797
720.249	0.0136514
720.328	0.0136839
720.406	0.0135727
720.484	0.0135806
720.562	0.0136438
720.640	0.0136418
720.718	0.0136048
720.796	0.0135337
720.874	0.0134576
720.953	0.0134949
721.031	0.0135281
721.109	0.0134183
721.187	0.0135186
721.265	0.0135100
721.343	0.0136040
721.421	0.0136737
721.499	0.0136881
721.578	0.0136479
721.656	0.0136919
721.734	0.0137490
721.812	0.0137459
721.890	0.0139694
721.968	0.0139908
722.046	0.0140134
722.124	0.0139897
722.203	0.0140997
722.281	0.0140894
722.359	0.0141277
722.437	0.0139534
722.515	0.0140615
722.593	0.0141483
722.671	0.0140880
722.749	0.0141964
722.828	0.0141312
722.906	0.0141503
722.984	0.0141756
723.062	0.0140800
723.140	0.0139905
723.218	0.0140823
723.296	0.0140772
723.374	0.0140658
723.453	0.0141290
723.531	0.0139665
723.609	0.0141475
723.687	0.0140885
723.765	0.0140015
723.843	0.0139972
723.921	0.0139720
723.999	0.0141165
724.078	0.0143577
724.156	0.0138890
724.234	0.0140224
724.312	0.0140002
724.390	0.0139408
724.468	0.0139442
724.546	0.0138869
724.624	0.0138217
724.703	0.0137569
724.781	0.0137814
724.859	0.0137308
724.937	0.0136190
725.015	0.0134799
725.093	0.0136446
725.171	0.0136861
725.249	0.0134413
725.328	0.0135899
725.406	0.0134476
725.484	0.0134404
725.562	0.0135338
725.640	0.0135188
725.718	0.0136314
725.796	0.0136407
725.874	0.0136010
725.953	0.0136729
726.031	0.0138914
726.109	0.0137627
726.187	0.0137729
726.265	0.0138219
726.343	0.0139794
726.421	0.0139059
726.499	0.0139577
726.578	0.0138936
726.656	0.0139349
726.734	0.0138327
726.812	0.0139497
726.890	0.0139227
726.968	0.0140143
727.046	0.0137888
727.124	0.0138490
727.203	0.0139422
727.281	0.0139539
727.359	0.0140080
727.437	0.0139093
727.515	0.0137823
727.593	0.0139487
727.671	0.0140044
727.749	0.0139017
727.828	0.0139125
727.906	0.0138285
727.984	0.0138478
728.062	0.0138988
728.140	0.0136868
728.218	0.0136952
728.296	0.0136920
728.374	0.0135923
728.453	0.0136800
728.531	0.0137922
728.609	0.0136842
728.687	0.0137662
728.765	0.0137571
728.843	0.0135400
728.921	0.0137904
728.999	0.0137202
729.078	0.0138590
729.156	0.0138348
729.234	0.0137503
729.312	0.0139920
729.390	0.0140942
729.468	0.0141231
729.546	0.0142300
729.624	0.0141547
729.703	0.0141676
729.781	0.0143682
729.859	0.0142579
729.937	0.0142221
730.015	0.0141440
730.093	0.0143026
730.171	0.0142679
730.249	0.0141589
730.328	0.0142141
730.406	0.0140164
730.484	0.0140576
730.562	0.0140301
730.640	0.0140854
730.718	0.0142194
730.796	0.0140183
730.874	0.0141171
730.953	0.0139945
731.031	0.0140516
731.109	0.0140360
731.187	0.0138322
731.265	0.0138892
731.343	0.0139080
731.421	0.0139339
731.499	0.0138010
731.578	0.0137155
731.656	0.0137576
731.734	0.0137431
731.812	0.0137168
731.890	0.0138699
731.968	0.0136162
732.046	0.0138581
732.124	0.0139303
732.203	0.0137193
732.281	0.0137537
732.359	0.0137861
732.437	0.0136949
732.515	0.0137181
732.593	0.0135956
732.671	0.0137621
732.749	0.0135841
732.828	0.0136312
732.906	0.0137286
732.984	0.0136403
733.062	0.0136453
733.140	0.0136684
733.218	0.0136504
733.296	0.0136538
733.374	0.0137456
733.453	0.0136288
733.531	0.0137456
733.609	0.0136238
733.687	0.0137083
733.765	0.0135232
733.843	0.0136294
733.921	0.0137835
733.999	0.0136514
734.078	0.0136370
734.156	0.0135234
734.234	0.0135630
734.312	0.0136147
734.390	0.0134628
734.468	0.0135873
734.546	0.0136987
734.624	0.0136782
734.703	0.0136587
734.781	0.0136955
734.859	0.0136618
734.937	0.0137827
735.015	0.0138139
735.093	0.0140527
735.171	0.0139100
735.249	0.0139348
735.328	0.0139806
735.406	0.0141493
735.484	0.0141852
735.562	0.0141774
735.640	0.0142541
735.718	0.0141547
735.796	0.0142825
735.874	0.0141199
735.953	0.0141365
736.031	0.0141953
736.109	0.0141245
736.187	0.0140805
736.265	0.0141841
736.343	0.0140987
736.421	0.0139253
736.499	0.0140573
736.578	0.0139328
736.656	0.0137902
736.734	0.0139244
736.812	0.0138505
736.890	0.0138223
736.968	0.0137853
737.046	0.0138107
737.124	0.0137210
737.203	0.0137228
737.281	0.0139700
737.359	0.0137907
737.437	0.0137000
737.515	0.0137595
737.593	0.0136825
737.671	0.0138635
737.749	0.0139388
737.828	0.0139022
737.906	0.0138815
737.984	0.0137493
738.062	0.0138396
738.140	0.0138696
738.218	0.0138941
738.296	0.0139208
738.374	0.0137166
738.453	0.0140047
738.531	0.0139227
738.609	0.0139838
738.687	0.0138580
738.765	0.0138251
738.843	0.0139149
738.921	0.0138439
738.999	0.0138202
739.078	0.0139500
739.156	0.0138745
739.234	0.0136552
739.312	0.0136698
739.390	0.0137029
739.468	0.0138146
739.546	0.0139346
739.624	0.0137085
739.703	0.0135925
739.781	0.0136246
739.859	0.0136178
739.937	0.0137646
740.015	0.0136441
740.093	0.0137057
740.171	0.0137047
740.249	0.0136514
740.328	0.0137006
740.406	0.0136420
740.484	0.0137351
740.562	0.0137715
740.640	0.0135616
740.718	0.0136826
740.796	0.0137785
740.874	0.0138574
740.953	0.0138325
741.031	0.0137785
741.109	0.0138692
741.187	0.0137531
741.265	0.0138373
741.343	0.0138730
741.421	0.0138065
741.499	0.0138609
741.578	0.0138799
741.656	0.0140279
741.734	0.0139963
741.812	0.0139754
741.890	0.0142058
741.968	0.0141831
742.046	0.0141665
742.124	0.0142848
742.203	0.0143931
742.281	0.0141806
742.359	0.0142242
742.437	0.0143160
742.515	0.0144197
742.593	0.0141798
742.671	0.0141850
742.749	0.0142610
742.828	0.0142374
742.906	0.0142922
742.984	0.0141145
743.062	0.0141239
743.140	0.0140528
743.218	0.0140585
743.296	0.0140662
743.374	0.0141179
743.453	0.0140263
743.531	0.0141170
743.609	0.0139962
743.687	0.0138615
743.765	0.0137874
743.843	0.0140106
743.921	0.0138754
743.999	0.0138879
744.078	0.0138478
744.156	0.0137601
744.234	0.0137279
744.312	0.0137746
744.390	0.0136807
744.468	0.0137229
744.546	0.0136016
744.624	0.0134994
744.703	0.0136632
744.781	0.0135571
744.859	0.0136132
744.937	0.0135036
745.015	0.0136328
745.093	0.0136535
745.171	0.0135561
745.249	0.0135672
745.328	0.0135399
745.406	0.0133328
745.484	0.0135172
745.562	0.0135106
745.640	0.0134557
745.718	0.0133492
745.796	0.0133610
745.874	0.0133574
745.953	0.0133896
746.031	0.0133566
746.109	0.0131602
746.187	0.0132099
746.265	0.0133440
746.343	0.0133849
746.421	0.0133314
746.499	0.0134082
746.578	0.0134869
746.656	0.0135015
746.734	0.0136466
746.812	0.0137547
746.890	0.0137813
746.968	0.0139149
747.046	0.0137760
747.124	0.0139552
747.203	0.0140529
747.281	0.0140919
747.359	0.0140575
747.437	0.0139870
747.515	0.0140732
747.593	0.0142008
747.671	0.0141168
747.749	0.0141102
747.828	0.0140144
747.906	0.0140135
747.984	0.0140482
748.062	0.0141221
748.140	0.0141148
748.218	0.0140849
748.296	0.0139420
748.374	0.0140539
748.453	0.0141684
748.531	0.0142129
748.609	0.0139745
748.687	0.0140191
748.765	0.0140660
748.843	0.0139309
748.921	0.0138482
748.999	0.0140034
749.078	0.0140302
749.156	0.0139906
749.234	0.0139616
749.312	0.0138868
749.390	0.0139952
749.468	0.0139489
749.546	0.0139246
749.624	0.0139869
749.703	0.0139005
749.781	0.0138532
749.859	0.0137888
749.937	0.0139117
750.015	0.0140781
750.093	0.0140515
750.171	0.0142020
750.249	0.0140416
750.328	0.0139992
750.406	0.0142052
750.484	0.0140027
750.562	0.0141157
750.640	0.0140334
750.718	0.0140609
750.796	0.0140860
750.874	0.0140905
750.953	0.0138702
751.031	0.0140883
751.109	0.0139001
751.187	0.0138445
751.265	0.0139504
751.343	0.0138403
751.421	0.0138706
751.499	0.0138171
751.578	0.0138635
751.656	0.0137338
751.734	0.0137905
751.812	0.0137673
751.890	0.0137335
751.968	0.0138981
752.046	0.0136968
752.124	0.0137096
752.203	0.0137556
752.281	0.0136253
752.359	0.0137197
752.437	0.0137732
752.515	0.0137251
752.593	0.0138130
752.671	0.0137296
752.749	0.0137880
752.828	0.0138175
752.906	0.0138148
752.984	0.0136929
753.062	0.0138648
753.140	0.0139927
753.218	0.0140424
753.296	0.0140234
753.374	0.0138657
753.453	0.0141475
753.531	0.0140400
753.609	0.0141145
753.687	0.0142061
753.765	0.0140666
753.843	0.0142304
753.921	0.0140945
753.999	0.0142381
754.078	0.0141670
754.156	0.0140498
754.234	0.0141108
754.312	0.0141434
754.390	0.0139235
754.468	0.0138543
754.546	0.0139502
754.624	0.0139260
754.703	0.0136994
754.781	0.0137079
754.859	0.0137428
754.937	0.0136622
755.015	0.0138067
755.093	0.0136736
755.171	0.0136266
755.249	0.0135834
755.328	0.0135963
755.406	0.0135973
755.484	0.0138297
755.562	0.0135973
755.640	0.0137126
755.718	0.0138647
755.796	0.0137980
755.874	0.0138220
755.953	0.0138477
756.031	0.0139815
756.109	0.0139974
756.187	0.0141216
756.265	0.0140778
756.343	0.0139371
756.421	0.0140891
756.499	0.0139262
756.578	0.0139950
756.656	0.0138665
756.734	0.0139118
756.812	0.0138763
756.890	0.0138441
756.968	0.0138013
757.046	0.0137483
757.124	0.0136604
757.203	0.0136652
757.281	0.0136633
757.359	0.0136081
757.437	0.0136683
757.515	0.0136577
757.593	0.0135782
757.671	0.0136750
757.749	0.0137302
757.828	0.0136124
757.906	0.0137350
757.984	0.0138068
758.062	0.0137398
758.140	0.0137458
758.218	0.0139544
758.296	0.0138120
758.374	0.0138077
758.453	0.0137189
758.531	0.0138241
758.609	0.0139450
758.687	0.0137997
758.765	0.0138325
758.843	0.0138833
758.921	0.0138515
758.999	0.0138198
759.078	0.0138668
759.156	0.0139275
759.234	0.0138058
759.312	0.0139146
759.390	0.0140086
759.468	0.0138764
759.546	0.0138484
759.624	0.0139082
759.703	0.0139503
759.781	0.0137965
759.859	0.0139394
759.937	0.0137618
760.015	0.0139260
760.093	0.0139954
760.171	0.0136816
760.249	0.0138985
760.328	0.0138853
760.406	0.0137835
760.484	0.0138612
760.562	0.0138464
760.640	0.0138126
760.718	0.0139484
760.796	0.0139684
760.874	0.0139822
760.953	0.0140432
761.031	0.0139444
761.109	0.0141357
761.187	0.0140721
761.265	0.0141142
761.343	0.0140891
761.421	0.0141334
761.499	0.0142307
761.578	0.0143665
761.656	0.0142925
761.734	0.0141764
761.812	0.0142206
761.890	0.0142601
761.968	0.0142640
762.046	0.0142364
762.124	0.0142997
762.203	0.0141382
762.281	0.0141245
762.359	0.0141158
762.437	0.0139687
762.515	0.0139700
762.593	0.0137705
762.671	0.0137949
762.749	0.0138074
762.828	0.0136733
762.906	0.0135222
762.984	0.0134179
763.062	0.0135835
763.140	0.0136663
763.218	0.0134313
763.296	0.0135796
763.374	0.0134629
763.453	0.0135109
763.531	0.0135135
763.609	0.0136674
763.687	0.0135088
763.765	0.0135489
763.843	0.0136682
763.921	0.0135130
763.999	0.0138345
764.078	0.0137520
764.156	0.0137459
764.234	0.0137571
764.312	0.0137897
764.390	0.0137260
764.468	0.0137625
764.546	0.0138417
764.624	0.0137856
764.703	0.0138164
764.781	0.0139278
764.859	0.0139436
764.937	0.0139100
765.015	0.0138719
765.093	0.0139246
765.171	0.0138610
765.249	0.0139447
765.328	0.0138908
765.406	0.0139803
765.484	0.0140006
765.562	0.0140114
765.640	0.0140462
765.718	0.0140048
765.796	0.0140600
765.874	0.0142562
765.953	0.0140810
766.031	0.0141772
766.109	0.0140919
766.187	0.0141303
766.265	0.0141920
766.343	0.0140057
766.421	0.0141077
766.499	0.0139565
766.578	0.0138784
766.656	0.0140337
766.734	0.0140229
766.812	0.0140386
766.890	0.0140549
766.968	0.0139687
767.046	0.0139237
767.124	0.0139532
767.203	0.0137714
767.281	0.0138880
767.359	0.0138947
767.437	0.0137636
767.515	0.0138083
767.593	0.0137073
767.671	0.0136302
767.749	0.0135273
767.828	0.0136320
767.906	0.0135877
767.984	0.0136465
768.062	0.0137701
768.140	0.0136983
768.218	0.0136613
768.296	0.0136655
768.374	0.0137800
768.453	0.0137559
768.531	0.0137048
768.609	0.0136741
768.687	0.0138209
768.765	0.0137036
768.843	0.0137691
768.921	0.0135941
768.999	0.0136397
769.078	0.0136674
769.156	0.0137141
769.234	0.0137915
769.312	0.0139153
769.390	0.0139825
769.468	0.0139624
769.546	0.0139725
769.624	0.0139729
769.703	0.0139325
769.781	0.0138445
769.859	0.0139908
769.937	0.0138596
770.015	0.0139154
770.093	0.0138656
770.171	0.0139130
770.249	0.0139174
770.328	0.0138020
770.406	0.0138877
770.484	0.0138809
770.562	0.0137749
770.640	0.0138165
770.718	0.0138043
770.796	0.0138742
770.874	0.0138213
770.953	0.0136975
771.031	0.0137733
771.109	0.0138065
771.187	0.0136953
771.265	0.0137595
771.343	0.0138521
771.421	0.0137537
771.499	0.0139172
771.578	0.0139862
771.656	0.0140260
771.734	0.0139815
771.812	0.0141061
771.890	0.0141228
771.968	0.0141743
772.046	0.0141344
772.124	0.0141720
772.203	0.0143089
772.281	0.0143559
772.359	0.0143262
772.437	0.0141936
772.515	0.0142388
772.593	0.0142554
772.671	0.0141199
772.749	0.0141580
772.828	0.0140826
772.906	0.0141607
772.984	0.0139837
773.062	0.0138500
773.140	0.0139680
773.218	0.0137736
773.296	0.0137515
773.374	0.0136977
773.453	0.0137500
773.531	0.0137019
773.609	0.0137337
773.687	0.0137328
773.765	0.0135770
773.843	0.0136967
773.921	0.0136462
773.999	0.0136452
774.078	0.0137187
774.156	0.0136725
774.234	0.0137826
774.312	0.0138092
774.390	0.0137852
774.468	0.0139017
774.546	0.0139027
774.624	0.0140109
774.703	0.0139888
774.781	0.0140014
774.859	0.0140695
774.937	0.0142181
775.015	0.0142282
775.093	0.0142088
775.171	0.0141264
775.249	0.0141509
775.328	0.0142909
775.406	0.0142615
775.484	0.0141521
775.562	0.0141989
775.640	0.0142472
775.718	0.0142384
775.796	0.0141119
775.874	0.0142733
775.953	0.0141817
776.031	0.0142048
776.109	0.0140185
776.187	0.0141014
776.265	0.0142039
776.343	0.0140513
776.421	0.0141888
776.499	0.0141072
776.578	0.0141463
776.656	0.0141801
776.734	0.0143530
776.812	0.0143085
776.890	0.0143031
776.968	0.0142040
777.046	0.0141040
777.124	0.0141212
777.203	0.0141685
777.281	0.0141173
777.359	0.0140532
777.437	0.0139974
777.515	0.0141139
777.593	0.0139699
777.671	0.0140137
777.749	0.0141594
777.828	0.0138824
777.906	0.0138497
777.984	0.0141377
778.062	0.0140319
778.140	0.0140114
778.218	0.0139224
778.296	0.0140206
778.374	0.0138784
778.453	0.0137173
778.531	0.0138175
778.609	0.0137394
778.687	0.0136241
778.765	0.0135278
778.843	0.0134872
778.921	0.0134502
778.999	0.0134451
779.078	0.0134988
779.156	0.0134539
779.234	0.0134107
779.312	0.0133823
779.390	0.0133680
779.468	0.0136108
779.546	0.0135893
779.624	0.0135603
779.703	0.0135070
779.781	0.0137238
779.859	0.0135816
779.937	0.0134373
780.015	0.0136484
780.093	0.0137597
780.171	0.0137304
780.249	0.0138639
780.328	0.0138388
780.406	0.0139534
780.484	0.0138657
780.562	0.0139008
780.640	0.0139906
780.718	0.0139560
780.796	0.0138225
780.874	0.0138049
780.953	0.0137423
781.031	0.0136198
781.109	0.0138233
781.187	0.0136339
781.265	0.0137185
781.343	0.0136343
781.421	0.0136131
781.499	0.0136150
781.578	0.0137428
781.656	0.0138714
781.734	0.0136394
781.812	0.0136618
781.890	0.0137347
781.968	0.0137365
782.046	0.0137215
782.124	0.0138067
782.203	0.0138155
782.281	0.0136296
782.359	0.0137486
782.437	0.0138290
782.515	0.0136552
782.593	0.0137267
782.671	0.0137785
782.749	0.0138004
782.828	0.0138581
782.906	0.0137993
782.984	0.0139022
783.062	0.0138229
783.140	0.0136835
783.218	0.0138921
783.296	0.0137750
783.374	0.0138121
783.453	0.0137649
783.531	0.0137630
783.609	0.0137022
783.687	0.0136337
783.765	0.0137038
783.843	0.0135691
783.921	0.0137265
783.999	0.0136568
784.078	0.0137638
784.156	0.0136432
784.234	0.0136156
784.312	0.0135928
784.390	0.0136918
784.468	0.0135311
784.546	0.0136676
784.624	0.0135395
784.703	0.0134766
784.781	0.0134465
784.859	0.0136229
784.937	0.0136140
785.015	0.0137890
785.093	0.0137227
785.171	0.0138184
785.249	0.0137740
785.328	0.0137896
785.406	0.0137881
785.484	0.0138042
785.562	0.0137611
785.640	0.0138834
785.718	0.0138239
785.796	0.0138858
785.874	0.0138948
785.953	0.0138615
786.031	0.0138609
786.109	0.0137484
786.187	0.0139609
786.265	0.0139237
786.343	0.0139964
786.421	0.0140106
786.499	0.0140440
786.578	0.0140698
786.656	0.0141683
786.734	0.0140781
786.812	0.0142074
786.890	0.0141076
786.968	0.0142841
787.046	0.0141554
787.124	0.0141399
787.203	0.0142462
787.281	0.0141940
787.359	0.0141306
787.437	0.0140848
787.515	0.0139578
787.593	0.0139821
787.671	0.0140128
787.749	0.0140466
787.828	0.0139615
787.906	0.0140130
787.984	0.0140564
788.062	0.0139203
788.140	0.0140837
788.218	0.0140499
788.296	0.0139676
788.374	0.0140798
788.453	0.0141119
788.531	0.0140598
788.609	0.0141962
788.687	0.0141459
788.765	0.0142108
788.843	0.0140665
788.921	0.0139050
788.999	0.0139362
789.078	0.0139575
789.156	0.0138661
789.234	0.0139299
789.312	0.0139438
789.390	0.0138971
789.468	0.0137826
789.546	0.0139528
789.624	0.0138424
789.703	0.0136401
789.781	0.0137688
789.859	0.0139430
789.937	0.0138345
790.015	0.0137777
790.093	0.0138008
790.171	0.0136400
790.249	0.0138126
790.328	0.0138338
790.406	0.0136900
790.484	0.0138249
790.562	0.0135946
790.640	0.0137291
790.718	0.0138129
790.796	0.0137772
790.874	0.0137555
790.953	0.0138789
791.031	0.0137524
791.109	0.0138538
791.187	0.0139407
791.265	0.0139085
791.343	0.0139514
791.421	0.0140934
791.499	0.0140622
791.578	0.0140981
791.656	0.0140083
791.734	0.0140904
791.812	0.0141013
791.890	0.0141132
791.968	0.0140771
792.046	0.0141341
792.124	0.0140034
792.203	0.0139229
792.281	0.0139093
792.359	0.0138284
792.437	0.0138111
792.515	0.0138081
792.593	0.0136715
792.671	0.0137747
792.749	0.0138033
792.828	0.0138629
792.906	0.0139951
792.984	0.0139375
793.062	0.0140968
793.140	0.0139102
793.218	0.0140212
793.296	0.0140520
793.374	0.0141164
793.453	0.0140717
793.531	0.0140804
793.609	0.0142519
793.687	0.0141258
793.765	0.0141779
793.843	0.0142378
793.921	0.0141980
793.999	0.0142127
794.078	0.0142850
794.156	0.0143675
794.234	0.0142959
794.312	0.0142026
794.390	0.0141477
794.468	0.0140759
794.546	0.0142403
794.624	0.0141220
794.703	0.0139736
794.781	0.0140054
794.859	0.0140300
794.937	0.0138805
795.015	0.0138634
795.093	0.0138420
795.171	0.0137391
795.249	0.0137631
795.328	0.0138187
795.406	0.0137217
795.484	0.0134985
795.562	0.0136301
795.640	0.0136189
795.718	0.0134988
795.796	0.0136220
795.874	0.0136057
795.953	0.0134759
796.031	0.0135072
796.109	0.0135504
796.187	0.0135880
796.265	0.0135945
796.343	0.0135412
796.421	0.0137451
796.499	0.0136826
796.578	0.0137267
796.656	0.0136765
796.734	0.0137305
796.812	0.0138765
796.890	0.0139394
796.968	0.0137677
797.046	0.0138432
797.124	0.0137656
797.203	0.0139665
797.281	0.0137742
797.359	0.0136671
797.437	0.0137417
797.515	0.0136508
797.593	0.0136322
797.671	0.0135709
797.749	0.0135194
797.828	0.0134677
797.906	0.0135023
797.984	0.0135895
798.062	0.0135278
798.140	0.0136461
798.218	0.0136859
798.296	0.0136007
798.374	0.0136462
798.453	0.0137641
798.531	0.0139224
798.609	0.0137909
798.687	0.0137801
798.765	0.0138361
798.843	0.0140140
798.921	0.0140561
798.999	0.0140475
799.078	0.0139985
799.156	0.0140080
799.234	0.0140327
799.312	0.0139929
799.390	0.0139127
799.468	0.0139617
799.546	0.0139693
799.624	0.0139581
799.703	0.0139703
799.781	0.0139994
799.859	0.0139546
799.937	0.0138536
800.015	0.0139186
800.093	0.0139668
800.171	0.0139619
800.249	0.0139103
800.328	0.0139733
800.406	0.0139159
800.484	0.0139853
800.562	0.0138152
800.640	0.0137070
800.718	0.0137016
800.796	0.0137244
800.874	0.0137835
800.953	0.0136010
801.031	0.0136151
801.109	0.0137189
801.187	0.0135867
801.265	0.0134530
801.343	0.0135706
801.421	0.0136880
801.499	0.0136732
801.578	0.0135869
801.656	0.0137006
801.734	0.0138237
801.812	0.0139649
801.890	0.0139568
801.968	0.0139919
802.046	0.0140764
802.124	0.0141921
802.203	0.0142154
802.281	0.0141696
802.359	0.0141774
802.437	0.0141189
802.515	0.0140630
802.593	0.0139230
802.671	0.0139278
802.749	0.0138051
802.828	0.0137901
802.906	0.0137511
802.984	0.0135376
803.062	0.0135371
803.140	0.0135757
803.218	0.0137140
803.296	0.0135147
803.374	0.0136520
803.453	0.0134888
803.531	0.0134778
803.609	0.0136437
803.687	0.0135870
803.765	0.0134318
803.843	0.0136169
803.921	0.0136005
803.999	0.0134795
804.078	0.0134834
804.156	0.0135703
804.234	0.0135798
804.312	0.0135595
804.390	0.0135236
804.468	0.0135806
804.546	0.0134261
804.624	0.0135957
804.703	0.0135302
804.781	0.0134985
804.859	0.0135251
804.937	0.0137257
805.015	0.0137732
805.093	0.0138000
805.171	0.0138653
805.249	0.0139959
805.328	0.0138125
805.406	0.0141155
805.484	0.0140635
805.562	0.0141975
805.640	0.0141869
805.718	0.0142155
805.796	0.0141267
805.874	0.0140533
805.953	0.0142174
806.031	0.0142596
806.109	0.0142073
806.187	0.0142635
806.265	0.0141456
806.343	0.0140434
806.421	0.0140051
806.499	0.0140990
806.578	0.0140672
806.656	0.0140094
806.734	0.0139977
806.812	0.0138426
806.890	0.0139093
806.968	0.0138113
807.046	0.0138697
807.124	0.0139304
807.203	0.0138869
807.281	0.0137564
807.359	0.0137822
807.437	0.0138589
807.515	0.0137366
807.593	0.0139059
807.671	0.0138902
807.749	0.0138821
807.828	0.0137399
807.906	0.0138493
807.984	0.0138060
808.062	0.0138704
808.140	0.0138139
808.218	0.0137780
808.296	0.0136579
808.374	0.0134930
808.453	0.0135661
808.531	0.0135249
808.609	0.0135852
808.687	0.0134993
808.765	0.0134718
808.843	0.0135700
808.921	0.0134196
808.999	0.0133379
809.078	0.0134277
809.156	0.0133646
809.234	0.0134715
809.312	0.0135062
809.390	0.0134296
809.468	0.0137117
809.546	0.0135377
809.624	0.0137489
809.703	0.0138351
809.781	0.0137782
809.859	0.0138220
809.937	0.0139570
810.015	0.0139167
810.093	0.0138297
810.171	0.0138614
810.249	0.0139753
810.328	0.0140357
810.406	0.0140488
810.484	0.0139669
810.562	0.0140112
810.640	0.0138323
810.718	0.0140580
810.796	0.0140526
810.874	0.0139932
810.953	0.0141183
811.031	0.0139211
811.109	0.0138536
811.187	0.0139406
811.265	0.0139381
811.343	0.0137467
811.421	0.0137666
811.499	0.0138876
811.578	0.0137731
811.656	0.0137474
811.734	0.0137187
811.812	0.0135828
811.890	0.0136309
811.968	0.0135848
812.046	0.0135433
812.124	0.0135622
812.203	0.0134648
812.281	0.0135686
812.359	0.0135377
812.437	0.0136836
812.515	0.0137192
812.593	0.0137033
812.671	0.0138568
812.749	0.0139081
812.828	0.0140430
812.906	0.0142120
812.984	0.0141726
813.062	0.0141986
813.140	0.0141880
813.218	0.0143975
813.296	0.0143443
813.374	0.0143586
813.453	0.0142225
813.531	0.0141380
813.609	0.0142224
813.687	0.0142131
813.765	0.0142339
813.843	0.0140134
813.921	0.0138896
813.999	0.0139665
814.078	0.0139298
814.156	0.0138306
814.234	0.0136710
814.312	0.0136542
814.390	0.0137105
814.468	0.0137361
814.546	0.0137389
814.624	0.0136545
814.703	0.0136092
814.781	0.0136435
814.859	0.0135869
814.937	0.0136855
815.015	0.0136172
815.093	0.0136320
815.171	0.0136298
815.249	0.0135741
815.328	0.0134882
815.406	0.0135409
815.484	0.0134640
815.562	0.0135004
815.640	0.0137263
815.718	0.0136902
815.796	0.0138522
815.874	0.0137363
815.953	0.0138403
816.031	0.0138463
816.109	0.0140092
816.187	0.0139229
816.265	0.0139481
816.343	0.0140462
816.421	0.0140561
816.499	0.0141060
816.578	0.0140236
816.656	0.0142294
816.734	0.0139936
816.812	0.0140982
816.890	0.0140303
816.968	0.0142426
817.046	0.0141088
817.124	0.0140465
817.203	0.0140784
817.281	0.0141058
817.359	0.0142490
817.437	0.0140453
817.515	0.0140878
817.593	0.0141219
817.671	0.0139782
817.749	0.0140656
817.828	0.0140102
817.906	0.0138906
817.984	0.0137281
818.062	0.0138850
818.140	0.0138191
818.218	0.0138364
818.296	0.0137881
818.374	0.0137920
818.453	0.0138570
818.531	0.0138686
818.609	0.0139342
818.687	0.0138126
818.765	0.0138593
818.843	0.0138216
818.921	0.0136314
818.999	0.0138010
819.078	0.0139087
819.156	0.0137761
819.234	0.0138826
819.312	0.0137826
819.390	0.0135890
819.468	0.0137120
819.546	0.0139754
819.624	0.0138578
819.703	0.0137972
819.781	0.0138136
819.859	0.0138751
819.937	0.0138054
820.015	0.0137958
820.093	0.0138276
820.171	0.0138307
820.249	0.0138029
820.328	0.0138063
820.406	0.0137658
820.484	0.0137566
820.562	0.0136983
820.640	0.0137791
820.718	0.0138882
820.796	0.0137509
820.874	0.0138520
820.953	0.0138556
821.031	0.0140524
821.109	0.0138748
821.187	0.0139017
821.265	0.0138165
821.343	0.0140311
821.421	0.0140749
821.499	0.0139739
821.578	0.0139851
821.656	0.0138955
821.734	0.0138867
821.812	0.0139370
821.890	0.0139581
821.968	0.0138336
822.046	0.0136835
822.124	0.0138456
822.203	0.0138639
822.281	0.0137831
822.359	0.0137772
822.437	0.0136985
822.515	0.0137061
822.593	0.0138181
822.671	0.0137662
822.749	0.0137078
822.828	0.0136703
822.906	0.0136216
822.984	0.0135043
823.062	0.0134610
823.140	0.0135318
823.218	0.0136612
823.296	0.0136890
823.374	0.0135679
823.453	0.0137350
823.531	0.0137850
823.609	0.0137284
823.687	0.0137704
823.765	0.0137004
823.843	0.0137239
823.921	0.0138220
823.999	0.0137913
824.078	0.0138192
824.156	0.0138543
824.234	0.0136584
824.312	0.0136572
824.390	0.0137685
824.468	0.0137479
824.546	0.0137486
824.624	0.0137700
824.703	0.0138370
824.781	0.0137473
824.859	0.0138456
824.937	0.0136620
825.015	0.0137156
825.093	0.0138232
825.171	0.0137304
825.249	0.0137642
825.328	0.0137587
825.406	0.0137778
825.484	0.0137738
825.562	0.0136694
825.640	0.0136620
825.718	0.0137579
825.796	0.0137991
825.874	0.0137433
825.953	0.0136488
826.031	0.0137238
826.109	0.0137142
826.187	0.0138229
826.265	0.0139101
826.343	0.0139479
826.421	0.0139394
826.499	0.0140285
826.578	0.0140944
826.656	0.0139404
826.734	0.0139540
826.812	0.0140408
826.890	0.0140798
826.968	0.0140148
827.046	0.0140079
827.124	0.0140259
827.203	0.0140433
827.281	0.0140549
827.359	0.0141260
827.437	0.0139436
827.515	0.0140614
827.593	0.0140297
827.671	0.0139364
827.749	0.0139881
827.828	0.0140234
827.906	0.0139803
827.984	0.0139588
828.062	0.0138332
828.140	0.0138787
828.218	0.0138731
828.296	0.0137877
828.374	0.0137148
828.453	0.0136964
828.531	0.0137386
828.609	0.0138844
828.687	0.0137503
828.765	0.0140640
828.843	0.0138535
828.921	0.0137947
828.999	0.0138462
829.078	0.0138710
829.156	0.0138419
829.234	0.0138464
829.312	0.0139394
829.390	0.0140761
829.468	0.0138488
829.546	0.0138329
829.624	0.0138662
829.703	0.0137732
829.781	0.0138691
829.859	0.0139375
829.937	0.0140005
830.015	0.0139758
830.093	0.0138223
830.171	0.0140612
830.249	0.0138036
830.328	0.0140282
830.406	0.0139513
830.484	0.0140723
830.562	0.0140794
830.640	0.0141654
830.718	0.0141243
830.796	0.0141962
830.874	0.0141560
830.953	0.0139676
831.031	0.0141286
831.109	0.0139607
831.187	0.0140222
831.265	0.0140214
831.343	0.0141523
831.421	0.0140713
831.499	0.0140412
831.578	0.0138649
831.656	0.0138799
831.734	0.0139236
831.812	0.0139428
831.890	0.0139011
831.968	0.0140494
832.046	0.0140147
832.124	0.0138836
832.203	0.0138342
832.281	0.0139482
832.359	0.0138858
832.437	0.0139680
832.515	0.0138476
832.593	0.0139111
832.671	0.0138654
832.749	0.0139546
832.828	0.0139489
832.906	0.0138959
832.984	0.0138602
833.062	0.0137589
833.140	0.0137774
833.218	0.0137446
833.296	0.0138097
833.374	0.0138354
833.453	0.0135961
833.531	0.0137040
833.609	0.0136781
833.687	0.0136543
833.765	0.0135854
833.843	0.0137372
833.921	0.0136334
833.999	0.0136584
834.078	0.0138062
834.156	0.0137997
834.234	0.0136321
834.312	0.0135065
834.390	0.0137370
834.468	0.0136474
834.546	0.0136030
834.624	0.0136040
834.703	0.0136711
834.781	0.0135928
834.859	0.0136434
834.937	0.0135537
835.015	0.0136182
835.093	0.0136530
835.171	0.0137591
835.249	0.0138293
835.328	0.0138745
835.406	0.0138134
835.484	0.0137717
835.562	0.0138621
835.640	0.0138985
835.718	0.0136909
835.796	0.0138361
835.874	0.0138385
835.953	0.0138114
836.031	0.0138387
836.109	0.0139790
836.187	0.0137498
836.265	0.0137711
836.343	0.0136971
836.421	0.0136933
836.499	0.0138708
836.578	0.0137425
836.656	0.0137442
836.734	0.0137228
836.812	0.0138177
836.890	0.0137410
836.968	0.0136292
837.046	0.0137260
837.124	0.0137456
837.203	0.0136639
837.281	0.0136562
837.359	0.0136304
837.437	0.0135873
837.515	0.0137354
837.593	0.0136372
837.671	0.0136193
837.749	0.0138187
837.828	0.0137528
837.906	0.0137345
837.984	0.0136973
838.062	0.0137405
838.140	0.0138165
838.218	0.0137807
838.296	0.0136066
838.374	0.0138322
838.453	0.0139409
838.531	0.0138867
838.609	0.0137634
838.687	0.0138366
838.765	0.0138378
838.843	0.0138902
838.921	0.0137646
838.999	0.0139688
839.078	0.0139063
839.156	0.0139073
839.234	0.0139600
839.312	0.0140749
839.390	0.0140709
839.468	0.0139604
839.546	0.0141473
839.624	0.0140039
839.703	0.0140419
839.781	0.0139033
839.859	0.0139803
839.937	0.0140273
840.015	0.0139115
840.093	0.0138430
840.171	0.0139245
840.249	0.0139307
840.328	0.0138195
840.406	0.0137959
840.484	0.0137864
840.562	0.0137726
840.640	0.0136803
840.718	0.0135863
840.796	0.0136964
840.874	0.0137033
840.953	0.0137971
841.031	0.0136116
841.109	0.0134248
841.187	0.0136260
841.265	0.0136567
841.343	0.0136120
841.421	0.0135672
841.499	0.0136308
841.578	0.0137395
841.656	0.0136612
841.734	0.0138089
841.812	0.0138190
841.890	0.0138087
841.968	0.0137040
842.046	0.0138428
842.124	0.0137684
842.203	0.0139062
842.281	0.0138191
842.359	0.0137887
842.437	0.0138840
842.515	0.0137597
842.593	0.0137135
842.671	0.0138007
842.749	0.0137850
842.828	0.0137896
842.906	0.0135987
842.984	0.0137740
843.062	0.0139128
843.140	0.0137909
843.218	0.0136768
843.296	0.0139059
843.374	0.0138416
843.453	0.0137089
843.531	0.0138512
843.609	0.0138252
843.687	0.0139318
843.765	0.0137562
843.843	0.0138107
843.921	0.0138259
843.999	0.0136749
844.078	0.0137231
844.156	0.0137317
844.234	0.0138679
844.312	0.0138624
844.390	0.0139557
844.468	0.0138348
844.546	0.0137244
844.624	0.0139526
844.703	0.0139067
844.781	0.0139933
844.859	0.0139421
844.937	0.0139993
845.015	0.0141591
845.093	0.0142316
845.171	0.0140498
845.249	0.0141009
845.328	0.0140897
845.406	0.0140657
845.484	0.0141715
845.562	0.0139792
845.640	0.0141096
845.718	0.0140714
845.796	0.0140794
845.874	0.0139541
845.953	0.0138123
846.031	0.0137659
846.109	0.0138538
846.187	0.0138656
846.265	0.0139436
846.343	0.0138517
846.421	0.0138738
846.499	0.0138586
846.578	0.0136774
846.656	0.0138010
846.734	0.0139026
846.812	0.0137340
846.890	0.0137682
846.968	0.0137505
847.046	0.0138581
847.124	0.0137049
847.203	0.0136961
847.281	0.0137130
847.359	0.0138658
847.437	0.0136947
847.515	0.0138676
847.593	0.0138442
847.671	0.0136552
847.749	0.0138002
847.828	0.0137920
847.906	0.0138435
847.984	0.0137303
848.062	0.0138712
848.140	0.0138179
848.218	0.0137170
848.296	0.0138287
848.374	0.0138735
848.453	0.0138783
848.531	0.0137831
848.609	0.0138049
848.687	0.0137759
848.765	0.0138197
848.843	0.0136468
848.921	0.0137509
848.999	0.0136770
849.078	0.0136628
849.156	0.0138593
849.234	0.0136774
849.312	0.0136774
849.390	0.0137381
849.468	0.0136311
849.546	0.0136121
849.624	0.0137765
849.703	0.0136455
849.781	0.0137546
849.859	0.0137527
849.937	0.0137314
850.015	0.0138922
850.093	0.0140171
850.171	0.0139972
850.249	0.0140691
850.328	0.0141129
850.406	0.0141901
850.484	0.0143060
850.562	0.0142248
850.640	0.0142380
850.718	0.0142502
850.796	0.0143910
850.874	0.0143643
850.953	0.0143148
851.031	0.0142866
851.109	0.0145571
851.187	0.0144147
851.265	0.0142829
851.343	0.0143628
851.421	0.0143435
851.499	0.0143596
851.578	0.0141438
851.656	0.0143293
851.734	0.0141994
851.812	0.0141922
851.890	0.0140298
851.968	0.0138892
852.046	0.0140431
852.124	0.0139913
852.203	0.0138406
852.281	0.0137834
852.359	0.0138886
852.437	0.0137820
852.515	0.0136241
852.593	0.0136806
852.671	0.0136366
852.749	0.0136555
852.828	0.0136237
852.906	0.0135989
852.984	0.0137312
853.062	0.0136191
853.140	0.0136146
853.218	0.0136595
853.296	0.0136587
853.374	0.0138117
853.453	0.0136220
853.531	0.0136572
853.609	0.0136536
853.687	0.0136916
853.765	0.0135366
853.843	0.0135548
853.921	0.0136269
853.999	0.0137502
854.078	0.0137490
854.156	0.0136707
854.234	0.0136871
854.312	0.0137222
854.390	0.0136637
854.468	0.0137994
854.546	0.0138274
854.624	0.0138155
854.703	0.0137910
854.781	0.0138106
854.859	0.0138468
854.937	0.0139069
855.015	0.0139609
855.093	0.0139532
855.171	0.0139663
855.249	0.0139266
855.328	0.0141439
855.406	0.0140845
855.484	0.0141247
855.562	0.0140345
855.640	0.0141422
855.718	0.0142699
855.796	0.0141304
855.874	0.0141027
855.953	0.0140968
856.031	0.0141508
856.109	0.0141642
856.187	0.0142260
856.265	0.0142169
856.343	0.0142871
856.421	0.0142564
856.499	0.0140551
856.578	0.0141368
856.656	0.0140606
856.734	0.0142267
856.812	0.0141766
856.890	0.0139671
856.968	0.0140223
857.046	0.0139745
857.124	0.0139778
857.203	0.0139918
857.281	0.0138527
857.359	0.0138415
857.437	0.0138527
857.515	0.0137294
857.593	0.0137321
857.671	0.0135797
857.749	0.0136855
857.828	0.0137832
857.906	0.0137244
857.984	0.0136752
858.062	0.0137901
858.140	0.0138525
858.218	0.0137364
858.296	0.0137433
858.374	0.0138045
858.453	0.0137562
858.531	0.0138158
858.609	0.0138432
858.687	0.0138792
858.765	0.0137676
858.843	0.0139067
858.921	0.0138644
858.999	0.0136938
859.078	0.0137028
859.156	0.0138639
859.234	0.0135725
859.312	0.0136327
859.390	0.0136041
859.468	0.0137990
859.546	0.0136219
859.624	0.0136802
859.703	0.0136267
859.781	0.0134598
859.859	0.0137007
859.937	0.0136845
860.015	0.0136337
860.093	0.0136199
860.171	0.0137116
860.249	0.0137409
860.328	0.0136771
860.406	0.0138020
860.484	0.0137902
860.562	0.0137540
860.640	0.0138571
860.718	0.0138393
860.796	0.0138371
860.874	0.0138304
860.953	0.0138471
861.031	0.0138052
861.109	0.0139208
861.187	0.0137890
861.265	0.0138037
861.343	0.0138898
861.421	0.0139935
861.499	0.0138457
861.578	0.0137431
861.656	0.0138291
861.734	0.0136772
861.812	0.0137779
861.890	0.0139063
861.968	0.0137562
862.046	0.0136609
862.124	0.0136944
862.203	0.0137365
862.281	0.0138461
862.359	0.0137658
862.437	0.0137178
862.515	0.0137570
862.593	0.0137450
862.671	0.0137135
862.749	0.0137304
862.828	0.0138769
862.906	0.0138515
862.984	0.0137248
863.062	0.0136951
863.140	0.0137452
863.218	0.0138199
863.296	0.0138409
863.374	0.0138110
863.453	0.0137649
863.531	0.0138088
863.609	0.0138942
863.687	0.0139559
863.765	0.0138096
863.843	0.0138725
863.921	0.0138123
863.999	0.0139551
864.078	0.0139929
864.156	0.0139351
864.234	0.0139700
864.312	0.0140202
864.390	0.0139308
864.468	0.0140115
864.546	0.0138132
864.624	0.0138394
864.703	0.0138903
864.781	0.0137059
864.859	0.0137203
864.937	0.0137090
865.015	0.0136929
865.093	0.0139169
865.171	0.0137563
865.249	0.0138271
865.328	0.0138227
865.406	0.0137035
865.484	0.0138973
865.562	0.0138660
865.640	0.0139313
865.718	0.0138833
865.796	0.0139063
865.874	0.0140933
865.953	0.0141102
866.031	0.0140728
866.109	0.0141750
866.187	0.0141419
866.265	0.0142775
866.343	0.0140100
866.421	0.0141628
866.499	0.0140090
866.578	0.0140738
866.656	0.0139814
866.734	0.0142615
866.812	0.0141751
866.890	0.0140910
866.968	0.0140079
867.046	0.0140336
867.124	0.0141518
867.203	0.0140011
867.281	0.0139815
867.359	0.0139954
867.437	0.0139787
867.515	0.0139569
867.593	0.0139197
867.671	0.0139067
867.749	0.0138623
867.828	0.0140100
867.906	0.0140067
867.984	0.0139156
868.062	0.0138012
868.140	0.0138170
868.218	0.0137733
868.296	0.0139021
868.374	0.0136758
868.453	0.0137167
868.531	0.0137531
868.609	0.0136377
868.687	0.0135674
868.765	0.0137421
868.843	0.0136264
868.921	0.0137596
868.999	0.0135960
869.078	0.0137826
869.156	0.0138163
869.234	0.0138973
869.312	0.0138069
869.390	0.0137889
869.468	0.0139239
869.546	0.0137841
869.624	0.0136993
869.703	0.0138179
869.781	0.0138647
869.859	0.0138270
869.937	0.0139103
870.015	0.0139088
870.093	0.0137859
870.171	0.0138877
870.249	0.0137954
870.328	0.0138551
870.406	0.0139072
870.484	0.0138210
870.562	0.0138580
870.640	0.0139556
870.718	0.0139349
870.796	0.0140430
870.874	0.0139360
870.953	0.0139291
871.031	0.0142343
871.109	0.0142315
871.187	0.0141167
871.265	0.0140674
871.343	0.0140694
871.421	0.0141028
871.499	0.0141619
871.578	0.0141447
871.656	0.0141833
871.734	0.0140788
871.812	0.0140988
871.890	0.0141085
871.968	0.0139555
872.046	0.0139847
872.124	0.0140077
872.203	0.0140862
872.281	0.0139023
872.359	0.0139341
872.437	0.0139198
872.515	0.0138428
872.593	0.0137980
872.671	0.0138274
872.749	0.0138081
872.828	0.0138784
872.906	0.0137101
872.984	0.0137917
873.062	0.0138163
873.140	0.0138507
873.218	0.0139327
873.296	0.0138948
873.374	0.0137900
873.453	0.0138823
873.531	0.0138754
873.609	0.0138316
873.687	0.0138601
873.765	0.0139719
873.843	0.0138368
873.921	0.0138767
873.999	0.0140224
874.078	0.0140918
874.156	0.0139111
874.234	0.0140171
874.312	0.0140913
874.390	0.0141158
874.468	0.0140326
874.546	0.0141064
874.624	0.0140175
874.703	0.0141398
874.781	0.0142107
874.859	0.0140828
874.937	0.0141689
875.015	0.0141321
875.093	0.0139413
875.171	0.0141146
875.249	0.0140580
875.328	0.0139862
875.406	0.0140975
875.484	0.0140895
875.562	0.0139925
875.640	0.0139396
875.718	0.0139423
875.796	0.0139581
875.874	0.0139670
875.953	0.0137925
876.031	0.0138142
876.109	0.0139129
876.187	0.0138234
876.265	0.0138423
876.343	0.0138552
876.421	0.0138781
876.499	0.0139198
876.578	0.0138554
876.656	0.0139432
876.734	0.0138870
876.812	0.0138467
876.890	0.0139016
876.968	0.0140064
877.046	0.0138424
877.124	0.0138416
877.203	0.0138519
877.281	0.0138641
877.359	0.0137685
877.437	0.0137769
877.515	0.0138420
877.593	0.0136977
877.671	0.0138124
877.749	0.0138045
877.828	0.0137825
877.906	0.0138329
877.984	0.0137871
878.062	0.0136781
878.140	0.0138457
878.218	0.0139023
878.296	0.0137151
878.374	0.0137926
878.453	0.0138107
878.531	0.0136862
878.609	0.0137965
878.687	0.0139516
878.765	0.0138819
878.843	0.0138559
878.921	0.0138903
878.999	0.0137737
879.078	0.0139351
879.156	0.0138937
879.234	0.0139409
879.312	0.0138560
879.390	0.0139637
879.468	0.0139238
879.546	0.0139019
879.624	0.0138560
879.703	0.0138445
879.781	0.0138876
879.859	0.0139379
879.937	0.0138919
880.015	0.0138952
880.093	0.0138512
880.171	0.0138708
880.249	0.0140472
880.328	0.0137582
880.406	0.0138869
880.484	0.0138641
880.562	0.0139479
880.640	0.0137943
880.718	0.0138107
880.796	0.0138943
880.874	0.0140176
880.953	0.0137379
881.031	0.0137119
881.109	0.0138376
881.187	0.0138512
881.265	0.0138353
881.343	0.0137683
881.421	0.0136517
881.499	0.0137650
881.578	0.0138058
881.656	0.0137081
881.734	0.0138422
881.812	0.0137866
881.890	0.0138118
881.968	0.0139931
882.046	0.0137686
882.124	0.0137041
882.203	0.0138564
882.281	0.0138866
882.359	0.0139024
882.437	0.0139600
882.515	0.0139034
882.593	0.0140220
882.671	0.0138824
882.749	0.0139996
882.828	0.0139275
882.906	0.0139491
882.984	0.0140422
883.062	0.0139619
883.140	0.0138524
883.218	0.0138873
883.296	0.0139321
883.374	0.0139777
883.453	0.0139132
883.531	0.0137608
883.609	0.0139061
883.687	0.0137943
883.765	0.0138656
883.843	0.0138886
883.921	0.0137547
883.999	0.0138876
884.078	0.0137508
884.156	0.0137704
884.234	0.0138828
884.312	0.0138319
884.390	0.0137638
884.468	0.0137543
884.546	0.0137621
884.624	0.0138094
884.703	0.0138400
884.781	0.0139603
884.859	0.0139321
884.937	0.0138747
885.015	0.0137635
885.093	0.0138914
885.171	0.0139323
885.249	0.0139321
885.328	0.0136872
885.406	0.0138844
885.484	0.0138425
885.562	0.0140116
885.640	0.0139301
885.718	0.0138864
885.796	0.0138885
885.874	0.0139970
885.953	0.0138404
886.031	0.0138981
886.109	0.0139550
886.187	0.0140382
886.265	0.0139600
886.343	0.0138332
886.421	0.0139269
886.499	0.0138657
886.578	0.0140118
886.656	0.0137788
886.734	0.0139128
886.812	0.0138631
886.890	0.0136842
886.968	0.0138316
887.046	0.0138267
887.124	0.0137792
887.203	0.0137754
887.281	0.0139475
887.359	0.0138992
887.437	0.0139223
887.515	0.0137677
887.593	0.0137782
887.671	0.0138081
887.749	0.0138223
887.828	0.0138338
887.906	0.0138403
887.984	0.0139088
888.062	0.0138747
888.140	0.0139828
888.218	0.0138782
888.296	0.0138924
888.374	0.0139027
888.453	0.0138398
888.531	0.0139300
888.609	0.0139843
888.687	0.0138485
888.765	0.0138995
888.843	0.0139734
888.921	0.0138490
888.999	0.0140939
889.078	0.0139872
889.156	0.0139449
889.234	0.0138714
889.312	0.0141348
889.390	0.0138947
889.468	0.0139761
889.546	0.0140771
889.624	0.0139978
889.703	0.0140338
889.781	0.0140974
889.859	0.0139018
889.937	0.0140630
890.015	0.0141164
890.093	0.0140736
890.171	0.0139861
890.249	0.0140279
890.328	0.0141068
890.406	0.0139694
890.484	0.0139657
890.562	0.0140059
890.640	0.0141246
890.718	0.0139075
890.796	0.0138787
890.874	0.0140206
890.953	0.0139306
891.031	0.0137903
891.109	0.0138339
891.187	0.0139310
891.265	0.0138578
891.343	0.0139262
891.421	0.0138412
891.499	0.0139532
891.578	0.0139063
891.656	0.0138230
891.734	0.0137662
891.812	0.0137835
891.890	0.0138418
891.968	0.0138772
892.046	0.0136888
892.124	0.0138528
892.203	0.0137440
892.281	0.0139407
892.359	0.0138509
892.437	0.0137422
892.515	0.0136694
892.593	0.0139750
892.671	0.0137562
892.749	0.0137678
892.828	0.0139405
892.906	0.0138928
892.984	0.0138996
893.062	0.0139034
893.140	0.0139940
893.218	0.0139350
893.296	0.0138822
893.374	0.0139994
893.453	0.0141142
893.531	0.0139098
893.609	0.0140630
893.687	0.0140421
893.765	0.0140175
893.843	0.0140004
893.921	0.0140495
893.999	0.0139693
894.078	0.0139896
894.156	0.0140329
894.234	0.0137881
894.312	0.0138257
894.390	0.0138566
894.468	0.0139352
894.546	0.0138892
894.624	0.0139190
894.703	0.0139211
894.781	0.0139864
894.859	0.0139999
894.937	0.0137164
895.015	0.0138287
895.093	0.0138879
895.171	0.0138232
895.249	0.0137793
895.328	0.0137165
895.406	0.0138049
895.484	0.0137273
895.562	0.0136947
895.640	0.0137224
895.718	0.0136950
895.796	0.0137618
895.874	0.0137441
895.953	0.0136874
896.031	0.0136048
896.109	0.0137092
896.187	0.0137650
896.265	0.0138023
896.343	0.0137307
896.421	0.0136127
896.499	0.0137592
896.578	0.0138324
896.656	0.0137013
896.734	0.0137006
896.812	0.0136208
896.890	0.0136959
896.968	0.0137965
897.046	0.0136527
897.124	0.0137083
897.203	0.0136987
897.281	0.0137090
897.359	0.0135568
897.437	0.0137453
897.515	0.0136237
897.593	0.0136709
897.671	0.0136918
897.749	0.0137803
897.828	0.0138216
897.906	0.0137661
897.984	0.0137960
898.062	0.0138888
898.140	0.0139603
898.218	0.0140313
898.296	0.0139896
898.374	0.0140417
898.453	0.0140343
898.531	0.0140919
898.609	0.0141441
898.687	0.0141070
898.765	0.0141392
898.843	0.0142421
898.921	0.0141609
898.999	0.0140929
899.078	0.0142053
899.156	0.0143089
899.234	0.0140977
899.312	0.0141708
899.390	0.0141785
899.468	0.0140919
899.546	0.0139659
899.624	0.0141190
899.703	0.0141321
899.781	0.0140977
899.859	0.0141306
899.937	0.0140278
900.015	0.0140652
900.093	0.0140072
900.171	0.0139545
900.249	0.0139823
900.328	0.0138439
900.406	0.0138345
900.484	0.0139289
900.562	0.0138267
900.640	0.0138021
900.718	0.0139053
900.796	0.0138880
900.874	0.0137881
900.953	0.0138452
901.031	0.0138339
901.109	0.0138750
901.187	0.0138378
901.265	0.0137447
901.343	0.0138096
901.421	0.0138708
901.499	0.0137809
901.578	0.0139228
901.656	0.0139122
901.734	0.0138148
901.812	0.0138842
901.890	0.0139105
901.968	0.0139046
902.046	0.0138914
902.124	0.0139591
902.203	0.0139339
902.281	0.0139849
902.359	0.0140111
902.437	0.0140409
902.515	0.0140698
902.593	0.0139428
902.671	0.0139843
902.749	0.0138538
902.828	0.0138683
902.906	0.0138737
902.984	0.0140528
903.062	0.0140875
903.140	0.0140074
903.218	0.0141988
903.296	0.0143229
903.374	0.0140960
903.453	0.0141630
903.531	0.0142113
903.609	0.0141666
903.687	0.0140316
903.765	0.0141060
903.843	0.0141766
903.921	0.0140927
903.999	0.0143165
904.078	0.0141593
904.156	0.0140948
904.234	0.0140193
904.312	0.0140295
904.390	0.0141199
904.468	0.0141145
904.546	0.0139394
904.624	0.0140323
904.703	0.0139463
904.781	0.0139496
904.859	0.0139229
904.937	0.0138810
905.015	0.0138678
905.093	0.0139703
905.171	0.0137727
905.249	0.0137078
905.328	0.0138396
905.406	0.0137753
905.484	0.0137651
905.562	0.0137694
905.640	0.0137347
905.718	0.0136146
905.796	0.0137446
905.874	0.0137486
905.953	0.0136771
906.031	0.0136172
906.109	0.0137516
906.187	0.0136190
906.265	0.0136852
906.343	0.0136959
906.421	0.0135958
906.499	0.0136756
906.578	0.0136832
906.656	0.0135004
906.734	0.0136762
906.812	0.0135986
906.890	0.0136415
906.968	0.0136264
907.046	0.0137186
907.124	0.0137016
907.203	0.0137122
907.281	0.0137157
907.359	0.0136939
907.437	0.0135464
907.515	0.0137730
907.593	0.0137399
907.671	0.0137133
907.749	0.0138264
907.828	0.0138368
907.906	0.0138757
907.984	0.0139262
908.062	0.0139618
908.140	0.0137669
908.218	0.0139107
908.296	0.0139408
908.374	0.0139585
908.453	0.0140932
908.531	0.0140530
908.609	0.0140863
908.687	0.0140047
908.765	0.0141483
908.843	0.0140837
908.921	0.0141052
908.999	0.0140210
909.078	0.0140952
909.156	0.0139185
909.234	0.0140079
909.312	0.0141872
909.390	0.0141341
909.468	0.0139789
909.546	0.0139139
909.624	0.0140512
909.703	0.0139635
909.781	0.0138898
909.859	0.0139770
909.937	0.0139694
910.015	0.0137629
910.093	0.0137659
910.171	0.0139190
910.249	0.0139027
910.328	0.0138390
910.406	0.0137761
910.484	0.0137622
910.562	0.0138125
910.640	0.0137009
910.718	0.0137375
910.796	0.0137878
910.874	0.0138649
910.953	0.0139014
911.031	0.0139237
911.109	0.0137917
911.187	0.0137323
911.265	0.0138741
911.343	0.0137964
911.421	0.0138374
911.499	0.0138055
911.578	0.0137908
911.656	0.0135464
911.734	0.0137102
911.812	0.0137659
911.890	0.0137038
911.968	0.0138364
912.046	0.0137354
912.124	0.0138010
912.203	0.0137994
912.281	0.0137103
912.359	0.0136777
912.437	0.0137965
912.515	0.0139320
912.593	0.0137992
912.671	0.0137053
912.749	0.0139291
912.828	0.0139769
912.906	0.0137891
912.984	0.0137780
913.062	0.0139319
913.140	0.0138497
913.218	0.0138390
913.296	0.0138900
913.374	0.0139262
913.453	0.0140183
913.531	0.0137943
913.609	0.0138599
913.687	0.0139861
913.765	0.0139035
913.843	0.0140153
913.921	0.0139030
913.999	0.0139409
914.078	0.0139419
914.156	0.0138166
914.234	0.0138937
914.312	0.0139708
914.390	0.0138947
914.468	0.0139011
914.546	0.0140527
914.624	0.0140501
914.703	0.0141065
914.781	0.0139514
914.859	0.0140058
914.937	0.0140119
915.015	0.0139018
915.093	0.0138286
915.171	0.0139243
915.249	0.0138337
915.328	0.0139169
915.406	0.0139922
915.484	0.0138052
915.562	0.0139149
915.640	0.0138657
915.718	0.0137796
915.796	0.0138257
915.874	0.0137795
915.953	0.0137614
916.031	0.0136893
916.109	0.0137753
916.187	0.0136105
916.265	0.0138134
916.343	0.0136249
916.421	0.0136935
916.499	0.0136953
916.578	0.0138161
916.656	0.0138864
916.734	0.0137534
916.812	0.0139532
916.890	0.0136848
916.968	0.0138528
917.046	0.0137436
917.124	0.0139172
917.203	0.0138271
917.281	0.0138213
917.359	0.0139647
917.437	0.0137222
917.515	0.0137257
917.593	0.0139481
917.671	0.0139365
917.749	0.0137785
917.828	0.0138900
917.906	0.0137429
917.984	0.0137563
918.062	0.0138348
918.140	0.0138261
918.218	0.0137437
918.296	0.0138990
918.374	0.0138045
918.453	0.0137640
918.531	0.0138303
918.609	0.0138551
918.687	0.0139256
918.765	0.0138596
918.843	0.0139066
918.921	0.0138674
918.999	0.0137119
919.078	0.0137191
919.156	0.0139851
919.234	0.0138040
919.312	0.0135672
919.390	0.0137155
919.468	0.0137421
919.546	0.0136650
919.624	0.0136439
919.703	0.0137463
919.781	0.0136889
919.859	0.0136447
919.937	0.0138335
