05/08/2022	20:18:32	Ver.	4.1	UNKNOWN
Optical Delay	600.015094	Delta X		0.078125	Sweeps	1	Scan Rate	0/0
Coordinates	Axis 1	NaN	Axis 2	NaN	Axis 3	NaN	Axis 4	NaN	Axis 5	NaN	Axis 6	0.000000
TX Power	0.000000	RX Power	0.000000

600.015	0.0137935
600.093	0.0137086
600.171	0.0137402
600.249	0.0137367
600.328	0.0139050
600.406	0.0136153
600.484	0.0136470
600.562	0.0137224
600.640	0.0136855
600.718	0.0139297
600.796	0.0136668
600.874	0.0136217
600.953	0.0135947
601.031	0.0137550
601.109	0.0135674
601.187	0.0137704
601.265	0.0138061
601.343	0.0137803
601.421	0.0137704
601.499	0.0136893
601.578	0.0137627
601.656	0.0137068
601.734	0.0136584
601.812	0.0137911
601.890	0.0137427
601.968	0.0136578
602.046	0.0136799
602.124	0.0136614
602.203	0.0137968
602.281	0.0138116
602.359	0.0138332
602.437	0.0137549
602.515	0.0137901
602.593	0.0137909
602.671	0.0137659
602.749	0.0139127
602.828	0.0138357
602.906	0.0138332
602.984	0.0138918
603.062	0.0139130
603.140	0.0138515
603.218	0.0137229
603.296	0.0138111
603.374	0.0137791
603.453	0.0137718
603.531	0.0137523
603.609	0.0138116
603.687	0.0137112
603.765	0.0136393
603.843	0.0137235
603.921	0.0137687
603.999	0.0137421
604.078	0.0136269
604.156	0.0137505
604.234	0.0136955
604.312	0.0137690
604.390	0.0137123
604.468	0.0137249
604.546	0.0137196
604.624	0.0138763
604.703	0.0137402
604.781	0.0137962
604.859	0.0137702
604.937	0.0138157
605.015	0.0138286
605.093	0.0137415
605.171	0.0136590
605.249	0.0137374
605.328	0.0137778
605.406	0.0138774
605.484	0.0137843
605.562	0.0137698
605.640	0.0138180
605.718	0.0138239
605.796	0.0137492
605.874	0.0137793
605.953	0.0137152
606.031	0.0138737
606.109	0.0137151
606.187	0.0138078
606.265	0.0136151
606.343	0.0138036
606.421	0.0138514
606.499	0.0137457
606.578	0.0138374
606.656	0.0138031
606.734	0.0138876
606.812	0.0138390
606.890	0.0136620
606.968	0.0137815
607.046	0.0137444
607.124	0.0137089
607.203	0.0138055
607.281	0.0137764
607.359	0.0137974
607.437	0.0137846
607.515	0.0136190
607.593	0.0138466
607.671	0.0138665
607.749	0.0138341
607.828	0.0138734
607.906	0.0137269
607.984	0.0139343
608.062	0.0138141
608.140	0.0137183
608.218	0.0138686
608.296	0.0138422
608.374	0.0138548
608.453	0.0138412
608.531	0.0137632
608.609	0.0138206
608.687	0.0138902
608.765	0.0139637
608.843	0.0138190
608.921	0.0139054
608.999	0.0138776
609.078	0.0138225
609.156	0.0139442
609.234	0.0139434
609.312	0.0138641
609.390	0.0138886
609.468	0.0139105
609.546	0.0139669
609.624	0.0139999
609.703	0.0137638
609.781	0.0139071
609.859	0.0141601
609.937	0.0140740
610.015	0.0138550
610.093	0.0140095
610.171	0.0139478
610.249	0.0139474
610.328	0.0139440
610.406	0.0139388
610.484	0.0139112
610.562	0.0139788
610.640	0.0139996
610.718	0.0139173
610.796	0.0137901
610.874	0.0138378
610.953	0.0140035
611.031	0.0137786
611.109	0.0137212
611.187	0.0138831
611.265	0.0139686
611.343	0.0138280
611.421	0.0139617
611.499	0.0139520
611.578	0.0139115
611.656	0.0137901
611.734	0.0138761
611.812	0.0138010
611.890	0.0137896
611.968	0.0136662
612.046	0.0138764
612.124	0.0139309
612.203	0.0138959
612.281	0.0137921
612.359	0.0139116
612.437	0.0139288
612.515	0.0137894
612.593	0.0138198
612.671	0.0138746
612.749	0.0138490
612.828	0.0139162
612.906	0.0139639
612.984	0.0140927
613.062	0.0140540
613.140	0.0139707
613.218	0.0139532
613.296	0.0140536
613.374	0.0139491
613.453	0.0137983
613.531	0.0140251
613.609	0.0139896
613.687	0.0139906
613.765	0.0138908
613.843	0.0138871
613.921	0.0139862
613.999	0.0139674
614.078	0.0138679
614.156	0.0140195
614.234	0.0140007
614.312	0.0138686
614.390	0.0139218
614.468	0.0139636
614.546	0.0139909
614.624	0.0140591
614.703	0.0140186
614.781	0.0139095
614.859	0.0138746
614.937	0.0140701
615.015	0.0139379
615.093	0.0140631
615.171	0.0139830
615.249	0.0138796
615.328	0.0140163
615.406	0.0140336
615.484	0.0137534
615.562	0.0138920
615.640	0.0140584
615.718	0.0139899
615.796	0.0139699
615.874	0.0139307
615.953	0.0136945
616.031	0.0139680
616.109	0.0138604
616.187	0.0138999
616.265	0.0139514
616.343	0.0137550
616.421	0.0137727
616.499	0.0137897
616.578	0.0138114
616.656	0.0138575
616.734	0.0138963
616.812	0.0138383
616.890	0.0137664
616.968	0.0138960
617.046	0.0138882
617.124	0.0138621
617.203	0.0140508
617.281	0.0140553
617.359	0.0141138
617.437	0.0139998
617.515	0.0141431
617.593	0.0140448
617.671	0.0139474
617.749	0.0140550
617.828	0.0140034
617.906	0.0138474
617.984	0.0140208
618.062	0.0140015
618.140	0.0139502
618.218	0.0139236
618.296	0.0139198
618.374	0.0139931
618.453	0.0138970
618.531	0.0139875
618.609	0.0139314
618.687	0.0137669
618.765	0.0137736
618.843	0.0136865
618.921	0.0136253
618.999	0.0138568
619.078	0.0138367
619.156	0.0138036
619.234	0.0137637
619.312	0.0137704
619.390	0.0138996
619.468	0.0138694
619.546	0.0139127
619.624	0.0138332
619.703	0.0139099
619.781	0.0138784
619.859	0.0138668
619.937	0.0140269
620.015	0.0139797
620.093	0.0137618
620.171	0.0138792
620.249	0.0139423
620.328	0.0138056
620.406	0.0139500
620.484	0.0138583
620.562	0.0138545
620.640	0.0138390
620.718	0.0138986
620.796	0.0139565
620.874	0.0139367
620.953	0.0138887
621.031	0.0138106
621.109	0.0139054
621.187	0.0140466
621.265	0.0138938
621.343	0.0139540
621.421	0.0140202
621.499	0.0139140
621.578	0.0141394
621.656	0.0140405
621.734	0.0138639
621.812	0.0139512
621.890	0.0140376
621.968	0.0139941
622.046	0.0139444
622.124	0.0139734
622.203	0.0140077
622.281	0.0139625
622.359	0.0138802
622.437	0.0140549
622.515	0.0140068
622.593	0.0140489
622.671	0.0140070
622.749	0.0141331
622.828	0.0140492
622.906	0.0140579
622.984	0.0140902
623.062	0.0139578
623.140	0.0139818
623.218	0.0139626
623.296	0.0139923
623.374	0.0140535
623.453	0.0140887
623.531	0.0140573
623.609	0.0139404
623.687	0.0140543
623.765	0.0139991
623.843	0.0141328
623.921	0.0139020
623.999	0.0138213
624.078	0.0139116
624.156	0.0140053
624.234	0.0139762
624.312	0.0140092
624.390	0.0139288
624.468	0.0139902
624.546	0.0139217
624.624	0.0139387
624.703	0.0139713
624.781	0.0139906
624.859	0.0140393
624.937	0.0139243
625.015	0.0139651
625.093	0.0138242
625.171	0.0139591
625.249	0.0139906
625.328	0.0139617
625.406	0.0139835
625.484	0.0139095
625.562	0.0139226
625.640	0.0139899
625.718	0.0138935
625.796	0.0138728
625.874	0.0139855
625.953	0.0139748
626.031	0.0139598
626.109	0.0139017
626.187	0.0140731
626.265	0.0139511
626.343	0.0139675
626.421	0.0139231
626.499	0.0139735
626.578	0.0140845
626.656	0.0138251
626.734	0.0139424
626.812	0.0139491
626.890	0.0140318
626.968	0.0139315
627.046	0.0140021
627.124	0.0138148
627.203	0.0139237
627.281	0.0138624
627.359	0.0138408
627.437	0.0140212
627.515	0.0139428
627.593	0.0137831
627.671	0.0138266
627.749	0.0139814
627.828	0.0139874
627.906	0.0138607
627.984	0.0138745
628.062	0.0137806
628.140	0.0138842
628.218	0.0137379
628.296	0.0138256
628.374	0.0139375
628.453	0.0138677
628.531	0.0138329
628.609	0.0138274
628.687	0.0137561
628.765	0.0138228
628.843	0.0138456
628.921	0.0139648
628.999	0.0138591
629.078	0.0137916
629.156	0.0138965
629.234	0.0139399
629.312	0.0137341
629.390	0.0139254
629.468	0.0137840
629.546	0.0137709
629.624	0.0139440
629.703	0.0139259
629.781	0.0138328
629.859	0.0138439
629.937	0.0138110
630.015	0.0138347
630.093	0.0139053
630.171	0.0138049
630.249	0.0137165
630.328	0.0138457
630.406	0.0137309
630.484	0.0137679
630.562	0.0138831
630.640	0.0137821
630.718	0.0136704
630.796	0.0137497
630.874	0.0138079
630.953	0.0137603
631.031	0.0138313
631.109	0.0138367
631.187	0.0138499
631.265	0.0137588
631.343	0.0138430
631.421	0.0137924
631.499	0.0138479
631.578	0.0137443
631.656	0.0138033
631.734	0.0136987
631.812	0.0137464
631.890	0.0137627
631.968	0.0137170
632.046	0.0139094
632.124	0.0137144
632.203	0.0136522
632.281	0.0137319
632.359	0.0137519
632.437	0.0136835
632.515	0.0136740
632.593	0.0137138
632.671	0.0136366
632.749	0.0138169
632.828	0.0137850
632.906	0.0136353
632.984	0.0135913
633.062	0.0137094
633.140	0.0136285
633.218	0.0137360
633.296	0.0137939
633.374	0.0136555
633.453	0.0136195
633.531	0.0137107
633.609	0.0138068
633.687	0.0137962
633.765	0.0136972
633.843	0.0136849
633.921	0.0136002
633.999	0.0137017
634.078	0.0137522
634.156	0.0137457
634.234	0.0136399
634.312	0.0136595
634.390	0.0135948
634.468	0.0135177
634.546	0.0137023
634.624	0.0136919
634.703	0.0136087
634.781	0.0135722
634.859	0.0135676
634.937	0.0136639
635.015	0.0137730
635.093	0.0136549
635.171	0.0135751
635.249	0.0137828
635.328	0.0138210
635.406	0.0137973
635.484	0.0137603
635.562	0.0137809
635.640	0.0139051
635.718	0.0137962
635.796	0.0137982
635.874	0.0139155
635.953	0.0139265
636.031	0.0137460
636.109	0.0138273
636.187	0.0137117
636.265	0.0137045
636.343	0.0138005
636.421	0.0137597
636.499	0.0136817
636.578	0.0136033
636.656	0.0136861
636.734	0.0135718
636.812	0.0136289
636.890	0.0137475
636.968	0.0136492
637.046	0.0136691
637.124	0.0135821
637.203	0.0136298
637.281	0.0137234
637.359	0.0139031
637.437	0.0137553
637.515	0.0137456
637.593	0.0137736
637.671	0.0138226
637.749	0.0137902
637.828	0.0138705
637.906	0.0137932
637.984	0.0139182
638.062	0.0139935
638.140	0.0137920
638.218	0.0136804
638.296	0.0138219
638.374	0.0138249
638.453	0.0139053
638.531	0.0138669
638.609	0.0140850
638.687	0.0141785
638.765	0.0141075
638.843	0.0141335
638.921	0.0141884
638.999	0.0142472
639.078	0.0141244
639.156	0.0142529
639.234	0.0140584
639.312	0.0141401
639.390	0.0141264
639.468	0.0139636
639.546	0.0139250
639.624	0.0138909
639.703	0.0138955
639.781	0.0138128
639.859	0.0136948
639.937	0.0137911
640.015	0.0137923
640.093	0.0137794
640.171	0.0136880
640.249	0.0137615
640.328	0.0137723
640.406	0.0139007
640.484	0.0140942
640.562	0.0139195
640.640	0.0140761
640.718	0.0141042
640.796	0.0143210
640.874	0.0140929
640.953	0.0141419
641.031	0.0142635
641.109	0.0142645
641.187	0.0142371
641.265	0.0142104
641.343	0.0141770
641.421	0.0141496
641.499	0.0141837
641.578	0.0141022
641.656	0.0141559
641.734	0.0141415
641.812	0.0141712
641.890	0.0142336
641.968	0.0140753
642.046	0.0141016
642.124	0.0140708
642.203	0.0139288
642.281	0.0139733
642.359	0.0138847
642.437	0.0137001
642.515	0.0137701
642.593	0.0136030
642.671	0.0133456
642.749	0.0133797
642.828	0.0133981
642.906	0.0133941
642.984	0.0134025
643.062	0.0133274
643.140	0.0132619
643.218	0.0134756
643.296	0.0136079
643.374	0.0136012
643.453	0.0139075
643.531	0.0139648
643.609	0.0141050
643.687	0.0142892
643.765	0.0143508
643.843	0.0144368
643.921	0.0145648
643.999	0.0146266
644.078	0.0147203
644.156	0.0147767
644.234	0.0145879
644.312	0.0147649
644.390	0.0147250
644.468	0.0145964
644.546	0.0145791
644.624	0.0144622
644.703	0.0143965
644.781	0.0143501
644.859	0.0142145
644.937	0.0141978
645.015	0.0140072
645.093	0.0139062
645.171	0.0138185
645.249	0.0137164
645.328	0.0137655
645.406	0.0134166
645.484	0.0134296
645.562	0.0133971
645.640	0.0133064
645.718	0.0132609
645.796	0.0132529
645.874	0.0133572
645.953	0.0132057
646.031	0.0133620
646.109	0.0134922
646.187	0.0134389
646.265	0.0135843
646.343	0.0137238
646.421	0.0137990
646.499	0.0140083
646.578	0.0141055
646.656	0.0142052
646.734	0.0144857
646.812	0.0145931
646.890	0.0146989
646.968	0.0147215
647.046	0.0149337
647.124	0.0149151
647.203	0.0149801
647.281	0.0149974
647.359	0.0149679
647.437	0.0151102
647.515	0.0150398
647.593	0.0148955
647.671	0.0147365
647.749	0.0146603
647.828	0.0146118
647.906	0.0145328
647.984	0.0140662
648.062	0.0140013
648.140	0.0137538
648.218	0.0137076
648.296	0.0137526
648.374	0.0134270
648.453	0.0133661
648.531	0.0131820
648.609	0.0130262
648.687	0.0130314
648.765	0.0131339
648.843	0.0129559
648.921	0.0129607
648.999	0.0129896
649.078	0.0127458
649.156	0.0129485
649.234	0.0128737
649.312	0.0128676
649.390	0.0130167
649.468	0.0132802
649.546	0.0133443
649.624	0.0135063
649.703	0.0137423
649.781	0.0139519
649.859	0.0141282
649.937	0.0143472
650.015	0.0145731
650.093	0.0147544
650.171	0.0147871
650.249	0.0150978
650.328	0.0150266
650.406	0.0148386
650.484	0.0150261
650.562	0.0151031
650.640	0.0150122
650.718	0.0148226
650.796	0.0146927
650.874	0.0145399
650.953	0.0144582
651.031	0.0143703
651.109	0.0144200
651.187	0.0142509
651.265	0.0141144
651.343	0.0139919
651.421	0.0139127
651.499	0.0136882
651.578	0.0137038
651.656	0.0135456
651.734	0.0133150
651.812	0.0133308
651.890	0.0132350
651.968	0.0130345
652.046	0.0129543
652.124	0.0128371
652.203	0.0128321
652.281	0.0127867
652.359	0.0128761
652.437	0.0128059
652.515	0.0128257
652.593	0.0129207
652.671	0.0128663
652.749	0.0129707
652.828	0.0131065
652.906	0.0132629
652.984	0.0133835
653.062	0.0135415
653.140	0.0136361
653.218	0.0137809
653.296	0.0138752
653.374	0.0139243
653.453	0.0141026
653.531	0.0141673
653.609	0.0142393
653.687	0.0145068
653.765	0.0143443
653.843	0.0144266
653.921	0.0143509
653.999	0.0144550
654.078	0.0145720
654.156	0.0144561
654.234	0.0143283
654.312	0.0142883
654.390	0.0142765
654.468	0.0142371
654.546	0.0140596
654.624	0.0139098
654.703	0.0137405
654.781	0.0138831
654.859	0.0137817
654.937	0.0136066
655.015	0.0136819
655.093	0.0137322
655.171	0.0137544
655.249	0.0136756
655.328	0.0137487
655.406	0.0137979
655.484	0.0137933
655.562	0.0138438
655.640	0.0138087
655.718	0.0139576
655.796	0.0139961
655.874	0.0140709
655.953	0.0139774
656.031	0.0139071
656.109	0.0140977
656.187	0.0140422
656.265	0.0140263
656.343	0.0139497
656.421	0.0138696
656.499	0.0137177
656.578	0.0136884
656.656	0.0137257
656.734	0.0135111
656.812	0.0133138
656.890	0.0132671
656.968	0.0131236
657.046	0.0129833
657.124	0.0128453
657.203	0.0126925
657.281	0.0128156
657.359	0.0125452
657.437	0.0124158
657.515	0.0126050
657.593	0.0124949
657.671	0.0125379
657.749	0.0126333
657.828	0.0128671
657.906	0.0129749
657.984	0.0131950
658.062	0.0133753
658.140	0.0134550
658.218	0.0137648
658.296	0.0141112
658.374	0.0143622
658.453	0.0144128
658.531	0.0145463
658.609	0.0148705
658.687	0.0148336
658.765	0.0148913
658.843	0.0150217
658.921	0.0151305
658.999	0.0151459
659.078	0.0152543
659.156	0.0151811
659.234	0.0152933
659.312	0.0151913
659.390	0.0152338
659.468	0.0149353
659.546	0.0149498
659.624	0.0147273
659.703	0.0146633
659.781	0.0143652
659.859	0.0141135
659.937	0.0141195
660.015	0.0140594
660.093	0.0137304
660.171	0.0134107
660.249	0.0132378
660.328	0.0130917
660.406	0.0129469
660.484	0.0129383
660.562	0.0128465
660.640	0.0127678
660.718	0.0127192
660.796	0.0125606
660.874	0.0124132
660.953	0.0125210
661.031	0.0125320
661.109	0.0124558
661.187	0.0126601
661.265	0.0125636
661.343	0.0126252
661.421	0.0126746
661.499	0.0128342
661.578	0.0129428
661.656	0.0130817
661.734	0.0130402
661.812	0.0132452
661.890	0.0132450
661.968	0.0133138
662.046	0.0134470
662.124	0.0135221
662.203	0.0136237
662.281	0.0137820
662.359	0.0137128
662.437	0.0137537
662.515	0.0138395
662.593	0.0140958
662.671	0.0140097
662.749	0.0140210
662.828	0.0141542
662.906	0.0141437
662.984	0.0141879
663.062	0.0143368
663.140	0.0142138
663.218	0.0142653
663.296	0.0142713
663.374	0.0142954
663.453	0.0144866
663.531	0.0143760
663.609	0.0145079
663.687	0.0146180
663.765	0.0146717
663.843	0.0146916
663.921	0.0148184
663.999	0.0148046
664.078	0.0149793
664.156	0.0148000
664.234	0.0148135
664.312	0.0149031
664.390	0.0147929
664.468	0.0144690
664.546	0.0145332
664.624	0.0143909
664.703	0.0142568
664.781	0.0142089
664.859	0.0140140
664.937	0.0138134
665.015	0.0136115
665.093	0.0135964
665.171	0.0135068
665.249	0.0135033
665.328	0.0132594
665.406	0.0133279
665.484	0.0131862
665.562	0.0131036
665.640	0.0131780
665.718	0.0131853
665.796	0.0131848
665.874	0.0132550
665.953	0.0132545
666.031	0.0132678
666.109	0.0132549
666.187	0.0134196
666.265	0.0132500
666.343	0.0131559
666.421	0.0133034
666.499	0.0132754
666.578	0.0134133
666.656	0.0132019
666.734	0.0130891
666.812	0.0131040
666.890	0.0132330
666.968	0.0132710
667.046	0.0130853
667.124	0.0130833
667.203	0.0131091
667.281	0.0131100
667.359	0.0130046
667.437	0.0130298
667.515	0.0131954
667.593	0.0132499
667.671	0.0132623
667.749	0.0134228
667.828	0.0136056
667.906	0.0136824
667.984	0.0138366
668.062	0.0138803
668.140	0.0140753
668.218	0.0143320
668.296	0.0143926
668.374	0.0146701
668.453	0.0147469
668.531	0.0151309
668.609	0.0151556
668.687	0.0154169
668.765	0.0155366
668.843	0.0157025
668.921	0.0158398
668.999	0.0159551
669.078	0.0160898
669.156	0.0162447
669.234	0.0161887
669.312	0.0160886
669.390	0.0163173
669.468	0.0161150
669.546	0.0159300
669.624	0.0155936
669.703	0.0154205
669.781	0.0154069
669.859	0.0150475
669.937	0.0147936
670.015	0.0144028
670.093	0.0144514
670.171	0.0140684
670.249	0.0137424
670.328	0.0135242
670.406	0.0133212
670.484	0.0130735
670.562	0.0128455
670.640	0.0126111
670.718	0.0122958
670.796	0.0121109
670.874	0.0121400
670.953	0.0118489
671.031	0.0117432
671.109	0.0116312
671.187	0.0116100
671.265	0.0117071
671.343	0.0116193
671.421	0.0117680
671.499	0.0118094
671.578	0.0120077
671.656	0.0121159
671.734	0.0121043
671.812	0.0123629
671.890	0.0125423
671.968	0.0128326
672.046	0.0129006
672.124	0.0131076
672.203	0.0133017
672.281	0.0135539
672.359	0.0137183
672.437	0.0138902
672.515	0.0140633
672.593	0.0142788
672.671	0.0141750
672.749	0.0143962
672.828	0.0144064
672.906	0.0144094
672.984	0.0143942
673.062	0.0145419
673.140	0.0144673
673.218	0.0145215
673.296	0.0146815
673.374	0.0147044
673.453	0.0147673
673.531	0.0149281
673.609	0.0151404
673.687	0.0151966
673.765	0.0153448
673.843	0.0154392
673.921	0.0155783
673.999	0.0156803
674.078	0.0158436
674.156	0.0159602
674.234	0.0159761
674.312	0.0160035
674.390	0.0157883
674.468	0.0160204
674.546	0.0160372
674.624	0.0158106
674.703	0.0157251
674.781	0.0155862
674.859	0.0154097
674.937	0.0151535
675.015	0.0150832
675.093	0.0149728
675.171	0.0146503
675.249	0.0143483
675.328	0.0141784
675.406	0.0139796
675.484	0.0137827
675.562	0.0135511
675.640	0.0132195
675.718	0.0130051
675.796	0.0126968
675.874	0.0123225
675.953	0.0122827
676.031	0.0120832
676.109	0.0118143
676.187	0.0114708
676.265	0.0113393
676.343	0.0112414
676.421	0.0111298
676.499	0.0109568
676.578	0.0109060
676.656	0.0110405
676.734	0.0110976
676.812	0.0110657
676.890	0.0113486
676.968	0.0116969
677.046	0.0117027
677.124	0.0120472
677.203	0.0124268
677.281	0.0127091
677.359	0.0130216
677.437	0.0134554
677.515	0.0137697
677.593	0.0141257
677.671	0.0144131
677.749	0.0145502
677.828	0.0147931
677.906	0.0149989
677.984	0.0150524
678.062	0.0151079
678.140	0.0150761
678.218	0.0150986
678.296	0.0150710
678.374	0.0149319
678.453	0.0149204
678.531	0.0147390
678.609	0.0146911
678.687	0.0147437
678.765	0.0144344
678.843	0.0145539
678.921	0.0146748
678.999	0.0144190
679.078	0.0144888
679.156	0.0143071
679.234	0.0145639
679.312	0.0145312
679.390	0.0145072
679.468	0.0145367
679.546	0.0145821
679.624	0.0145754
679.703	0.0145857
679.781	0.0148682
679.859	0.0148523
679.937	0.0147591
680.015	0.0148808
680.093	0.0150845
680.171	0.0151162
680.249	0.0152786
680.328	0.0151977
680.406	0.0151868
680.484	0.0150944
680.562	0.0150482
680.640	0.0149384
680.718	0.0147576
680.796	0.0146584
680.874	0.0144263
680.953	0.0141746
681.031	0.0138706
681.109	0.0134261
681.187	0.0129744
681.265	0.0126054
681.343	0.0126250
681.421	0.0121082
681.499	0.0116668
681.578	0.0114361
681.656	0.0112587
681.734	0.0110617
681.812	0.0109146
681.890	0.0109718
681.968	0.0108106
682.046	0.0106974
682.124	0.0107318
682.203	0.0109279
682.281	0.0109357
682.359	0.0111793
682.437	0.0114928
682.515	0.0117564
682.593	0.0119859
682.671	0.0121512
682.749	0.0124155
682.828	0.0128342
682.906	0.0132580
682.984	0.0133221
683.062	0.0136193
683.140	0.0139375
683.218	0.0140983
683.296	0.0142756
683.374	0.0144000
683.453	0.0146845
683.531	0.0147329
683.609	0.0148894
683.687	0.0150370
683.765	0.0150838
683.843	0.0151867
683.921	0.0152802
683.999	0.0153961
684.078	0.0154356
684.156	0.0153947
684.234	0.0153940
684.312	0.0153551
684.390	0.0153645
684.468	0.0153884
684.546	0.0152705
684.624	0.0150790
684.703	0.0150772
684.781	0.0150771
684.859	0.0149296
684.937	0.0147305
685.015	0.0147965
685.093	0.0147376
685.171	0.0147710
685.249	0.0146116
685.328	0.0146065
685.406	0.0145309
685.484	0.0145783
685.562	0.0145055
685.640	0.0143800
685.718	0.0144041
685.796	0.0143402
685.874	0.0142071
685.953	0.0143459
686.031	0.0142904
686.109	0.0143166
686.187	0.0140322
686.265	0.0139645
686.343	0.0139841
686.421	0.0140034
686.499	0.0138343
686.578	0.0137165
686.656	0.0137608
686.734	0.0134583
686.812	0.0134134
686.890	0.0132514
686.968	0.0129078
687.046	0.0126434
687.124	0.0126586
687.203	0.0124839
687.281	0.0124405
687.359	0.0125057
687.437	0.0124567
687.515	0.0122405
687.593	0.0121436
687.671	0.0120251
687.749	0.0121131
687.828	0.0121233
687.906	0.0121376
687.984	0.0121616
688.062	0.0121190
688.140	0.0121113
688.218	0.0123010
688.296	0.0123071
688.374	0.0125396
688.453	0.0127296
688.531	0.0127692
688.609	0.0130244
688.687	0.0131529
688.765	0.0134162
688.843	0.0137291
688.921	0.0138745
688.999	0.0139915
689.078	0.0142072
689.156	0.0143621
689.234	0.0145439
689.312	0.0147238
689.390	0.0148292
689.468	0.0150763
689.546	0.0151810
689.624	0.0153418
689.703	0.0153999
689.781	0.0154487
689.859	0.0155380
689.937	0.0157022
690.015	0.0154460
690.093	0.0157375
690.171	0.0154230
690.249	0.0155014
690.328	0.0154633
690.406	0.0154646
690.484	0.0155145
690.562	0.0153617
690.640	0.0153457
690.718	0.0151953
690.796	0.0151340
690.874	0.0152991
690.953	0.0150851
691.031	0.0149729
691.109	0.0150142
691.187	0.0148444
691.265	0.0148722
691.343	0.0146445
691.421	0.0145546
691.499	0.0141378
691.578	0.0140577
691.656	0.0139689
691.734	0.0135944
691.812	0.0135789
691.890	0.0134814
691.968	0.0131872
692.046	0.0129349
692.124	0.0127470
692.203	0.0127004
692.281	0.0123643
692.359	0.0123283
692.437	0.0123183
692.515	0.0121851
692.593	0.0120366
692.671	0.0118807
692.749	0.0118748
692.828	0.0117209
692.906	0.0117560
692.984	0.0120040
693.062	0.0119724
693.140	0.0119317
693.218	0.0121252
693.296	0.0123626
693.374	0.0125821
693.453	0.0126560
693.531	0.0129251
693.609	0.0132284
693.687	0.0134676
693.765	0.0137877
693.843	0.0139310
693.921	0.0140417
693.999	0.0140438
694.078	0.0142558
694.156	0.0143951
694.234	0.0144942
694.312	0.0143872
694.390	0.0144283
694.468	0.0144266
694.546	0.0145554
694.624	0.0146222
694.703	0.0146809
694.781	0.0148805
694.859	0.0147733
694.937	0.0148614
695.015	0.0149609
695.093	0.0147810
695.171	0.0147877
695.249	0.0147710
695.328	0.0147932
695.406	0.0147247
695.484	0.0146115
695.562	0.0145712
695.640	0.0145425
695.718	0.0144627
695.796	0.0144060
695.874	0.0143633
695.953	0.0143002
696.031	0.0142906
696.109	0.0140317
696.187	0.0139613
696.265	0.0138448
696.343	0.0137547
696.421	0.0137464
696.499	0.0137664
696.578	0.0136585
696.656	0.0135697
696.734	0.0134773
696.812	0.0134713
696.890	0.0135824
696.968	0.0134708
697.046	0.0133842
697.124	0.0135846
697.203	0.0134818
697.281	0.0135851
697.359	0.0136083
697.437	0.0136385
697.515	0.0135834
697.593	0.0137291
697.671	0.0137560
697.749	0.0138438
697.828	0.0139097
697.906	0.0139176
697.984	0.0140993
698.062	0.0141666
698.140	0.0141716
698.218	0.0142968
698.296	0.0142210
698.374	0.0142416
698.453	0.0142115
698.531	0.0140678
698.609	0.0141363
698.687	0.0141065
698.765	0.0140538
698.843	0.0140076
698.921	0.0140894
698.999	0.0139407
699.078	0.0139342
699.156	0.0139767
699.234	0.0137683
699.312	0.0138017
699.390	0.0138689
699.468	0.0139748
699.546	0.0137696
699.624	0.0137908
699.703	0.0137276
699.781	0.0136192
699.859	0.0136432
699.937	0.0135704
700.015	0.0137415
700.093	0.0137189
700.171	0.0134786
700.249	0.0135455
700.328	0.0134956
700.406	0.0133818
700.484	0.0133575
700.562	0.0132867
700.640	0.0132977
700.718	0.0133170
700.796	0.0130362
700.874	0.0130447
700.953	0.0130849
701.031	0.0128577
701.109	0.0129634
701.187	0.0130403
701.265	0.0129941
701.343	0.0131044
701.421	0.0133332
701.499	0.0134709
701.578	0.0134888
701.656	0.0135373
701.734	0.0138165
701.812	0.0139782
701.890	0.0140079
701.968	0.0140676
702.046	0.0143079
702.124	0.0142820
702.203	0.0143769
702.281	0.0144255
702.359	0.0144812
702.437	0.0143842
702.515	0.0144966
702.593	0.0145052
702.671	0.0144492
702.749	0.0143161
702.828	0.0143443
702.906	0.0143266
702.984	0.0144160
703.062	0.0144246
703.140	0.0144472
703.218	0.0145332
703.296	0.0141418
703.374	0.0141875
703.453	0.0140199
703.531	0.0141258
703.609	0.0140166
703.687	0.0139865
703.765	0.0138863
703.843	0.0137243
703.921	0.0138144
703.999	0.0138039
704.078	0.0138138
704.156	0.0137474
704.234	0.0137791
704.312	0.0139131
704.390	0.0138302
704.468	0.0138359
704.546	0.0139159
704.624	0.0139660
704.703	0.0137922
704.781	0.0138179
704.859	0.0140379
704.937	0.0139606
705.015	0.0137775
705.093	0.0137976
705.171	0.0139150
705.249	0.0136586
705.328	0.0135295
705.406	0.0133574
705.484	0.0134941
705.562	0.0133069
705.640	0.0131377
705.718	0.0130769
705.796	0.0129539
705.874	0.0127026
705.953	0.0128014
706.031	0.0126807
706.109	0.0126258
706.187	0.0125273
706.265	0.0127032
706.343	0.0126818
706.421	0.0125401
706.499	0.0126044
706.578	0.0127035
706.656	0.0128049
706.734	0.0128147
706.812	0.0129200
706.890	0.0130804
706.968	0.0131949
707.046	0.0133469
707.124	0.0135139
707.203	0.0136259
707.281	0.0136647
707.359	0.0137153
707.437	0.0138029
707.515	0.0139223
707.593	0.0138764
707.671	0.0140533
707.749	0.0141764
707.828	0.0142387
707.906	0.0143854
707.984	0.0144524
708.062	0.0143909
708.140	0.0146500
708.218	0.0147704
708.296	0.0146656
708.374	0.0148609
708.453	0.0148181
708.531	0.0148666
708.609	0.0148283
708.687	0.0147517
708.765	0.0147379
708.843	0.0145946
708.921	0.0143372
708.999	0.0143608
709.078	0.0142253
709.156	0.0141466
709.234	0.0139887
709.312	0.0140497
709.390	0.0140410
709.468	0.0139462
709.546	0.0139141
709.624	0.0139848
709.703	0.0138329
709.781	0.0137804
709.859	0.0137188
709.937	0.0138507
710.015	0.0137016
710.093	0.0136404
710.171	0.0136577
710.249	0.0135574
710.328	0.0135819
710.406	0.0135279
710.484	0.0135554
710.562	0.0135753
710.640	0.0134949
710.718	0.0137357
710.796	0.0137296
710.874	0.0137019
710.953	0.0137776
711.031	0.0136398
711.109	0.0136852
711.187	0.0137820
711.265	0.0136879
711.343	0.0136292
711.421	0.0137101
711.499	0.0136886
711.578	0.0134370
711.656	0.0132917
711.734	0.0133506
711.812	0.0133231
711.890	0.0131514
711.968	0.0132469
712.046	0.0133661
712.124	0.0133366
712.203	0.0133326
712.281	0.0132453
712.359	0.0135452
712.437	0.0134581
712.515	0.0133999
712.593	0.0137067
712.671	0.0136547
712.749	0.0135643
712.828	0.0137491
712.906	0.0138406
712.984	0.0138581
713.062	0.0140144
713.140	0.0139525
713.218	0.0139882
713.296	0.0140036
713.374	0.0141461
713.453	0.0143011
713.531	0.0142937
713.609	0.0143951
713.687	0.0143472
713.765	0.0145090
713.843	0.0145166
713.921	0.0146822
713.999	0.0146705
714.078	0.0147096
714.156	0.0147953
714.234	0.0147096
714.312	0.0145555
714.390	0.0145554
714.468	0.0145564
714.546	0.0146349
714.624	0.0145528
714.703	0.0144572
714.781	0.0146285
714.859	0.0145687
714.937	0.0144781
715.015	0.0146467
715.093	0.0146329
715.171	0.0143571
715.249	0.0141685
715.328	0.0143646
715.406	0.0143261
715.484	0.0142958
715.562	0.0142348
715.640	0.0140679
715.718	0.0140298
715.796	0.0138316
715.874	0.0137643
715.953	0.0136500
716.031	0.0135374
716.109	0.0134930
716.187	0.0134189
716.265	0.0134100
716.343	0.0131982
716.421	0.0131807
716.499	0.0131725
716.578	0.0132323
716.656	0.0130783
716.734	0.0131140
716.812	0.0130706
716.890	0.0130233
716.968	0.0132088
717.046	0.0131638
717.124	0.0132248
717.203	0.0132870
717.281	0.0133054
717.359	0.0135634
717.437	0.0135059
717.515	0.0136620
717.593	0.0137220
717.671	0.0137782
717.749	0.0138415
717.828	0.0138961
717.906	0.0140223
717.984	0.0141540
718.062	0.0140459
718.140	0.0140404
718.218	0.0140053
718.296	0.0141175
718.374	0.0141010
718.453	0.0141709
718.531	0.0140505
718.609	0.0141832
718.687	0.0142828
718.765	0.0143729
718.843	0.0144104
718.921	0.0144452
718.999	0.0144330
719.078	0.0144299
719.156	0.0145143
719.234	0.0143416
719.312	0.0144572
719.390	0.0145230
719.468	0.0143153
719.546	0.0142404
719.624	0.0142102
719.703	0.0139923
719.781	0.0141098
719.859	0.0140483
719.937	0.0140289
720.015	0.0138847
720.093	0.0140251
720.171	0.0138834
720.249	0.0137752
720.328	0.0137996
720.406	0.0138196
720.484	0.0137580
720.562	0.0135165
720.640	0.0134530
720.718	0.0134966
720.796	0.0134191
720.874	0.0134216
720.953	0.0133395
721.031	0.0131709
721.109	0.0130630
721.187	0.0131149
721.265	0.0129602
721.343	0.0128943
721.421	0.0129990
721.499	0.0130215
721.578	0.0129669
721.656	0.0129533
721.734	0.0131809
721.812	0.0131644
721.890	0.0133040
721.968	0.0133844
722.046	0.0136820
722.124	0.0136128
722.203	0.0136931
722.281	0.0138396
722.359	0.0138176
722.437	0.0138100
722.515	0.0139130
722.593	0.0141344
722.671	0.0141647
722.749	0.0141540
722.828	0.0141815
722.906	0.0142210
722.984	0.0143816
723.062	0.0143073
723.140	0.0143186
723.218	0.0143324
723.296	0.0144231
723.374	0.0145404
723.453	0.0144048
723.531	0.0144534
723.609	0.0146440
723.687	0.0145218
723.765	0.0146358
723.843	0.0146186
723.921	0.0143077
723.999	0.0144494
724.078	0.0142680
724.156	0.0143222
724.234	0.0143856
724.312	0.0142725
724.390	0.0141324
724.468	0.0140750
724.546	0.0138686
724.624	0.0139555
724.703	0.0139198
724.781	0.0137323
724.859	0.0135992
724.937	0.0134566
725.015	0.0134722
725.093	0.0134892
725.171	0.0133246
725.249	0.0134234
725.328	0.0134199
725.406	0.0134608
725.484	0.0136311
725.562	0.0135391
725.640	0.0135446
725.718	0.0136726
725.796	0.0135564
725.874	0.0136839
725.953	0.0137476
726.031	0.0137645
726.109	0.0139017
726.187	0.0140010
726.265	0.0137810
726.343	0.0138099
726.421	0.0138416
726.499	0.0138338
726.578	0.0137269
726.656	0.0138940
726.734	0.0139353
726.812	0.0139191
726.890	0.0139468
726.968	0.0138873
727.046	0.0138954
727.124	0.0138206
727.203	0.0139369
727.281	0.0139711
727.359	0.0139004
727.437	0.0138233
727.515	0.0138293
727.593	0.0136265
727.671	0.0136817
727.749	0.0136971
727.828	0.0135761
727.906	0.0137787
727.984	0.0137603
728.062	0.0135896
728.140	0.0136258
728.218	0.0135855
728.296	0.0136663
728.374	0.0136861
728.453	0.0136864
728.531	0.0136715
728.609	0.0137357
728.687	0.0137943
728.765	0.0139190
728.843	0.0138705
728.921	0.0137958
728.999	0.0137482
729.078	0.0137978
729.156	0.0138863
729.234	0.0137880
729.312	0.0138145
729.390	0.0136661
729.468	0.0137621
729.546	0.0137260
729.624	0.0136884
729.703	0.0136244
729.781	0.0136093
729.859	0.0136301
729.937	0.0136600
730.015	0.0135749
730.093	0.0136800
730.171	0.0136692
730.249	0.0138457
730.328	0.0139960
730.406	0.0138673
730.484	0.0139842
730.562	0.0139464
730.640	0.0140083
730.718	0.0140672
730.796	0.0140981
730.874	0.0141956
730.953	0.0141373
731.031	0.0140804
731.109	0.0141807
731.187	0.0140385
731.265	0.0140151
731.343	0.0140773
731.421	0.0139378
731.499	0.0140160
731.578	0.0140640
731.656	0.0139350
731.734	0.0138683
731.812	0.0137762
731.890	0.0138835
731.968	0.0137180
732.046	0.0137739
732.124	0.0136613
732.203	0.0136771
732.281	0.0135646
732.359	0.0135030
732.437	0.0135937
732.515	0.0135979
732.593	0.0134370
732.671	0.0134429
732.749	0.0134404
732.828	0.0133715
732.906	0.0134258
732.984	0.0135802
733.062	0.0134557
733.140	0.0135299
733.218	0.0135132
733.296	0.0135142
733.374	0.0136030
733.453	0.0135213
733.531	0.0137738
733.609	0.0138327
733.687	0.0137819
733.765	0.0137810
733.843	0.0136960
733.921	0.0138352
733.999	0.0138783
734.078	0.0137052
734.156	0.0137859
734.234	0.0138044
734.312	0.0138232
734.390	0.0139008
734.468	0.0138377
734.546	0.0138332
734.624	0.0139642
734.703	0.0139917
734.781	0.0140770
734.859	0.0141753
734.937	0.0141154
735.015	0.0141382
735.093	0.0141731
735.171	0.0142068
735.249	0.0141753
735.328	0.0141985
735.406	0.0140802
735.484	0.0143356
735.562	0.0142421
735.640	0.0140302
735.718	0.0140524
735.796	0.0140463
735.874	0.0140807
735.953	0.0140298
736.031	0.0140331
736.109	0.0139340
736.187	0.0138604
736.265	0.0139081
736.343	0.0139061
736.421	0.0137247
736.499	0.0136822
736.578	0.0138098
736.656	0.0137645
736.734	0.0138602
736.812	0.0138927
736.890	0.0138721
736.968	0.0138098
737.046	0.0139054
737.124	0.0140900
737.203	0.0139732
737.281	0.0138334
737.359	0.0140050
737.437	0.0139104
737.515	0.0138981
737.593	0.0139613
737.671	0.0139615
737.749	0.0138958
737.828	0.0138921
737.906	0.0139632
737.984	0.0140717
738.062	0.0139336
738.140	0.0138464
738.218	0.0139890
738.296	0.0139274
738.374	0.0139886
738.453	0.0140115
738.531	0.0139376
738.609	0.0139364
738.687	0.0138955
738.765	0.0138943
738.843	0.0139056
738.921	0.0138848
738.999	0.0137405
739.078	0.0138504
739.156	0.0139098
739.234	0.0138186
739.312	0.0138415
739.390	0.0139285
739.468	0.0137745
739.546	0.0136993
739.624	0.0136711
739.703	0.0139194
739.781	0.0139019
739.859	0.0138483
739.937	0.0138506
740.015	0.0138503
740.093	0.0138190
740.171	0.0139878
740.249	0.0139054
740.328	0.0138078
740.406	0.0139327
740.484	0.0140227
740.562	0.0138882
740.640	0.0137570
740.718	0.0138084
740.796	0.0138566
740.874	0.0136394
740.953	0.0136755
741.031	0.0138377
741.109	0.0137847
741.187	0.0138300
741.265	0.0138690
741.343	0.0138744
741.421	0.0138813
741.499	0.0138683
741.578	0.0139196
741.656	0.0139275
741.734	0.0141018
741.812	0.0140121
741.890	0.0140484
741.968	0.0140206
742.046	0.0140468
742.124	0.0140244
742.203	0.0139604
742.281	0.0140112
742.359	0.0140150
742.437	0.0140717
742.515	0.0140827
742.593	0.0141307
742.671	0.0140157
742.749	0.0140099
742.828	0.0140955
742.906	0.0140370
742.984	0.0140211
743.062	0.0140376
743.140	0.0141795
743.218	0.0139982
743.296	0.0140791
743.374	0.0141753
743.453	0.0141302
743.531	0.0141375
743.609	0.0140084
743.687	0.0140501
743.765	0.0142099
743.843	0.0142191
743.921	0.0139924
743.999	0.0139362
744.078	0.0140724
744.156	0.0142041
744.234	0.0140338
744.312	0.0139206
744.390	0.0140750
744.468	0.0139823
744.546	0.0139402
744.624	0.0139264
744.703	0.0139039
744.781	0.0139147
744.859	0.0139478
744.937	0.0138489
745.015	0.0138383
745.093	0.0138165
745.171	0.0137623
745.249	0.0137694
745.328	0.0139035
745.406	0.0136507
745.484	0.0135517
745.562	0.0135899
745.640	0.0134790
745.718	0.0136245
745.796	0.0136401
745.874	0.0135743
745.953	0.0135995
746.031	0.0136804
746.109	0.0137711
746.187	0.0137667
746.265	0.0137664
746.343	0.0138291
746.421	0.0139516
746.499	0.0139438
746.578	0.0139358
746.656	0.0140671
746.734	0.0140537
746.812	0.0141094
746.890	0.0139867
746.968	0.0140309
747.046	0.0140424
747.124	0.0140014
747.203	0.0140580
747.281	0.0140299
747.359	0.0140449
747.437	0.0138362
747.515	0.0139658
747.593	0.0138420
747.671	0.0138087
747.749	0.0139286
747.828	0.0137370
747.906	0.0138909
747.984	0.0137936
748.062	0.0137890
748.140	0.0137643
748.218	0.0136232
748.296	0.0137651
748.374	0.0137357
748.453	0.0136447
748.531	0.0137541
748.609	0.0136037
748.687	0.0136796
748.765	0.0135577
748.843	0.0136648
748.921	0.0135104
748.999	0.0134674
749.078	0.0136215
749.156	0.0136001
749.234	0.0136519
749.312	0.0137418
749.390	0.0137673
749.468	0.0137144
749.546	0.0137808
749.624	0.0139693
749.703	0.0137462
749.781	0.0138858
749.859	0.0140217
749.937	0.0141508
750.015	0.0139680
750.093	0.0139783
750.171	0.0141579
750.249	0.0142022
750.328	0.0141591
750.406	0.0142232
750.484	0.0141938
750.562	0.0141002
750.640	0.0142014
750.718	0.0141567
750.796	0.0141099
750.874	0.0141481
750.953	0.0139942
751.031	0.0139900
751.109	0.0140982
751.187	0.0140469
751.265	0.0139618
751.343	0.0139799
751.421	0.0140279
751.499	0.0139805
751.578	0.0139127
751.656	0.0139391
751.734	0.0138692
751.812	0.0138563
751.890	0.0137895
751.968	0.0139626
752.046	0.0137682
752.124	0.0139187
752.203	0.0138178
752.281	0.0137430
752.359	0.0138084
752.437	0.0138172
752.515	0.0137627
752.593	0.0137241
752.671	0.0137277
752.749	0.0137908
752.828	0.0137741
752.906	0.0137915
752.984	0.0139264
753.062	0.0138882
753.140	0.0139169
753.218	0.0137279
753.296	0.0139298
753.374	0.0137594
753.453	0.0138445
753.531	0.0138152
753.609	0.0136871
753.687	0.0138328
753.765	0.0137670
753.843	0.0138407
753.921	0.0137866
753.999	0.0137880
754.078	0.0138414
754.156	0.0138548
754.234	0.0137920
754.312	0.0137976
754.390	0.0137395
754.468	0.0136441
754.546	0.0136537
754.624	0.0137849
754.703	0.0136981
754.781	0.0136291
754.859	0.0136959
754.937	0.0136816
755.015	0.0136741
755.093	0.0137041
755.171	0.0138380
755.249	0.0139095
755.328	0.0138963
755.406	0.0139278
755.484	0.0139024
755.562	0.0141483
755.640	0.0141223
755.718	0.0140870
755.796	0.0142291
755.874	0.0143053
755.953	0.0142939
756.031	0.0142791
756.109	0.0141816
756.187	0.0142022
756.265	0.0142586
756.343	0.0143323
756.421	0.0141104
756.499	0.0141498
756.578	0.0141092
756.656	0.0141967
756.734	0.0141161
756.812	0.0140805
756.890	0.0140414
756.968	0.0139522
757.046	0.0138940
757.124	0.0139901
757.203	0.0138772
757.281	0.0140894
757.359	0.0139943
757.437	0.0138823
757.515	0.0139104
757.593	0.0139994
757.671	0.0139828
757.749	0.0138715
757.828	0.0139845
757.906	0.0139626
757.984	0.0137767
758.062	0.0138548
758.140	0.0139953
758.218	0.0138346
758.296	0.0138445
758.374	0.0137733
758.453	0.0138345
758.531	0.0138023
758.609	0.0137729
758.687	0.0135881
758.765	0.0137157
758.843	0.0137755
758.921	0.0138689
758.999	0.0136040
759.078	0.0136890
759.156	0.0136453
759.234	0.0136560
759.312	0.0136816
759.390	0.0138885
759.468	0.0138060
759.546	0.0139281
759.624	0.0138474
759.703	0.0138497
759.781	0.0138761
759.859	0.0139411
759.937	0.0138266
760.015	0.0138334
760.093	0.0138972
760.171	0.0138911
760.249	0.0136388
760.328	0.0138052
760.406	0.0138489
760.484	0.0137782
760.562	0.0137978
760.640	0.0138446
760.718	0.0137525
760.796	0.0137871
760.874	0.0137572
760.953	0.0137863
761.031	0.0138307
761.109	0.0137335
761.187	0.0137875
761.265	0.0138314
761.343	0.0138531
761.421	0.0136745
761.499	0.0138400
761.578	0.0139339
761.656	0.0140324
761.734	0.0139486
761.812	0.0139416
761.890	0.0139350
761.968	0.0139821
762.046	0.0139814
762.124	0.0140997
762.203	0.0140803
762.281	0.0141621
762.359	0.0141462
762.437	0.0141196
762.515	0.0141686
762.593	0.0140404
762.671	0.0141252
762.749	0.0141543
762.828	0.0141900
762.906	0.0139257
762.984	0.0141008
763.062	0.0141434
763.140	0.0141137
763.218	0.0140792
763.296	0.0140304
763.374	0.0141301
763.453	0.0140815
763.531	0.0140910
763.609	0.0142289
763.687	0.0139897
763.765	0.0140355
763.843	0.0140754
763.921	0.0138903
763.999	0.0139046
764.078	0.0137702
764.156	0.0138575
764.234	0.0139070
764.312	0.0137829
764.390	0.0136675
764.468	0.0136927
764.546	0.0137770
764.624	0.0136633
764.703	0.0136227
764.781	0.0136996
764.859	0.0137200
764.937	0.0136443
765.015	0.0136919
765.093	0.0136308
765.171	0.0136407
765.249	0.0139649
765.328	0.0137719
765.406	0.0136990
765.484	0.0138490
765.562	0.0139397
765.640	0.0139822
765.718	0.0139357
765.796	0.0139929
765.874	0.0139732
765.953	0.0137333
766.031	0.0137852
766.109	0.0138788
766.187	0.0138152
766.265	0.0138911
766.343	0.0138443
766.421	0.0138497
766.499	0.0138676
766.578	0.0138387
766.656	0.0137891
766.734	0.0137312
766.812	0.0138157
766.890	0.0137493
766.968	0.0137988
767.046	0.0137275
767.124	0.0136868
767.203	0.0137679
767.281	0.0136278
767.359	0.0136874
767.437	0.0136754
767.515	0.0137325
767.593	0.0136808
767.671	0.0134714
767.749	0.0136318
767.828	0.0136046
767.906	0.0135583
767.984	0.0136169
768.062	0.0137064
768.140	0.0135159
768.218	0.0136266
768.296	0.0137034
768.374	0.0134933
768.453	0.0134061
768.531	0.0135007
768.609	0.0133941
768.687	0.0133905
768.765	0.0135274
768.843	0.0135076
768.921	0.0134868
768.999	0.0135036
769.078	0.0135070
769.156	0.0135182
769.234	0.0135015
769.312	0.0135169
769.390	0.0137048
769.468	0.0137479
769.546	0.0138276
769.624	0.0139986
769.703	0.0140531
769.781	0.0139832
769.859	0.0139067
769.937	0.0139828
770.015	0.0140763
770.093	0.0140185
770.171	0.0139940
770.249	0.0140649
770.328	0.0140574
770.406	0.0139512
770.484	0.0140749
770.562	0.0141617
770.640	0.0139633
770.718	0.0140742
770.796	0.0141697
770.874	0.0140400
770.953	0.0139941
771.031	0.0140986
771.109	0.0142025
771.187	0.0142928
771.265	0.0142506
771.343	0.0142677
771.421	0.0141609
771.499	0.0143185
771.578	0.0142368
771.656	0.0142201
771.734	0.0141835
771.812	0.0140166
771.890	0.0141248
771.968	0.0139978
772.046	0.0138755
772.124	0.0138397
772.203	0.0138278
772.281	0.0139371
772.359	0.0139178
772.437	0.0138857
772.515	0.0139746
772.593	0.0138005
772.671	0.0139310
772.749	0.0139841
772.828	0.0137604
772.906	0.0137260
772.984	0.0139212
773.062	0.0138520
773.140	0.0138080
773.218	0.0137886
773.296	0.0137662
773.374	0.0138653
773.453	0.0139038
773.531	0.0139664
773.609	0.0137489
773.687	0.0137748
773.765	0.0137563
773.843	0.0136755
773.921	0.0137239
773.999	0.0136916
774.078	0.0138672
774.156	0.0138132
774.234	0.0136590
774.312	0.0137130
774.390	0.0138973
774.468	0.0139023
774.546	0.0138703
774.624	0.0139247
774.703	0.0139199
774.781	0.0139430
774.859	0.0139784
774.937	0.0140041
775.015	0.0140257
775.093	0.0140491
775.171	0.0139874
775.249	0.0140230
775.328	0.0140069
775.406	0.0139153
775.484	0.0139881
775.562	0.0140736
775.640	0.0140838
775.718	0.0140494
775.796	0.0141698
775.874	0.0141042
775.953	0.0140960
776.031	0.0142023
776.109	0.0140288
776.187	0.0140646
776.265	0.0142099
776.343	0.0140927
776.421	0.0140840
776.499	0.0141623
776.578	0.0141657
776.656	0.0140976
776.734	0.0141039
776.812	0.0141994
776.890	0.0141868
776.968	0.0140736
777.046	0.0140578
777.124	0.0141991
777.203	0.0142182
777.281	0.0141011
777.359	0.0141399
777.437	0.0140884
777.515	0.0141644
777.593	0.0141899
777.671	0.0140363
777.749	0.0139729
777.828	0.0139379
777.906	0.0139445
777.984	0.0140532
778.062	0.0139573
778.140	0.0138237
778.218	0.0139176
778.296	0.0139245
778.374	0.0140495
778.453	0.0138622
778.531	0.0139045
778.609	0.0138465
778.687	0.0137983
778.765	0.0138738
778.843	0.0136579
778.921	0.0137016
778.999	0.0136743
779.078	0.0135817
779.156	0.0136265
779.234	0.0134014
779.312	0.0134544
779.390	0.0133534
779.468	0.0134399
779.546	0.0133609
779.624	0.0134596
779.703	0.0134227
779.781	0.0134336
779.859	0.0136694
779.937	0.0135361
780.015	0.0136623
780.093	0.0136632
780.171	0.0137083
780.249	0.0137529
780.328	0.0138097
780.406	0.0137399
780.484	0.0136073
780.562	0.0137153
780.640	0.0136560
780.718	0.0135107
780.796	0.0137183
780.874	0.0137202
780.953	0.0136302
781.031	0.0136348
781.109	0.0137931
781.187	0.0138486
781.265	0.0138867
781.343	0.0139040
781.421	0.0140067
781.499	0.0140498
781.578	0.0140025
781.656	0.0140928
781.734	0.0139697
781.812	0.0139846
781.890	0.0138274
781.968	0.0139352
782.046	0.0139426
782.124	0.0137521
782.203	0.0137968
782.281	0.0137346
782.359	0.0135856
782.437	0.0138045
782.515	0.0138422
782.593	0.0137814
782.671	0.0138896
782.749	0.0139489
782.828	0.0139382
782.906	0.0140479
782.984	0.0140329
783.062	0.0138589
783.140	0.0138495
783.218	0.0138103
783.296	0.0138336
783.374	0.0138280
783.453	0.0137889
783.531	0.0135764
783.609	0.0135130
783.687	0.0135765
783.765	0.0137643
783.843	0.0136350
783.921	0.0136095
783.999	0.0138210
784.078	0.0137190
784.156	0.0137243
784.234	0.0137714
784.312	0.0136827
784.390	0.0138610
784.468	0.0135925
784.546	0.0136441
784.624	0.0136057
784.703	0.0135513
784.781	0.0134241
784.859	0.0135511
784.937	0.0132802
785.015	0.0132746
785.093	0.0133112
785.171	0.0133796
785.249	0.0135692
785.328	0.0134025
785.406	0.0133545
785.484	0.0135239
785.562	0.0135390
785.640	0.0134542
785.718	0.0134774
785.796	0.0137381
785.874	0.0137569
785.953	0.0136427
786.031	0.0136272
786.109	0.0136958
786.187	0.0138465
786.265	0.0137452
786.343	0.0136610
786.421	0.0136941
786.499	0.0138590
786.578	0.0137970
786.656	0.0137228
786.734	0.0139419
786.812	0.0139984
786.890	0.0138624
786.968	0.0139025
787.046	0.0139587
787.124	0.0140665
787.203	0.0141132
787.281	0.0140928
787.359	0.0141709
787.437	0.0140992
787.515	0.0141846
787.593	0.0139852
787.671	0.0140914
787.749	0.0141171
787.828	0.0141335
787.906	0.0139875
787.984	0.0139624
788.062	0.0140181
788.140	0.0139199
788.218	0.0140219
788.296	0.0138774
788.374	0.0138248
788.453	0.0137896
788.531	0.0138564
788.609	0.0138638
788.687	0.0138695
788.765	0.0137321
788.843	0.0137801
788.921	0.0136486
788.999	0.0137722
789.078	0.0137338
789.156	0.0137383
789.234	0.0138255
789.312	0.0136906
789.390	0.0137971
789.468	0.0137898
789.546	0.0137733
789.624	0.0138196
789.703	0.0138038
789.781	0.0137891
789.859	0.0136514
789.937	0.0138485
790.015	0.0137316
790.093	0.0136666
790.171	0.0137720
790.249	0.0137434
790.328	0.0137158
790.406	0.0135686
790.484	0.0138925
790.562	0.0137603
790.640	0.0137266
790.718	0.0137433
790.796	0.0137638
790.874	0.0137990
790.953	0.0136745
791.031	0.0137797
791.109	0.0138221
791.187	0.0138435
791.265	0.0140417
791.343	0.0137226
791.421	0.0136529
791.499	0.0139361
791.578	0.0138264
791.656	0.0138428
791.734	0.0138780
791.812	0.0136920
791.890	0.0138618
791.968	0.0139713
792.046	0.0139442
792.124	0.0140662
792.203	0.0140103
792.281	0.0139953
792.359	0.0139997
792.437	0.0141857
792.515	0.0142210
792.593	0.0139117
792.671	0.0139571
792.749	0.0139443
792.828	0.0139623
792.906	0.0140006
792.984	0.0141108
793.062	0.0139097
793.140	0.0139601
793.218	0.0140273
793.296	0.0140732
793.374	0.0140086
793.453	0.0140488
793.531	0.0141022
793.609	0.0141697
793.687	0.0140196
793.765	0.0140712
793.843	0.0141228
793.921	0.0140765
793.999	0.0140009
794.078	0.0141474
794.156	0.0139770
794.234	0.0139050
794.312	0.0137923
794.390	0.0137848
794.468	0.0137208
794.546	0.0138545
794.624	0.0139180
794.703	0.0139010
794.781	0.0137122
794.859	0.0138094
794.937	0.0139420
795.015	0.0139497
795.093	0.0140176
795.171	0.0139961
795.249	0.0140365
795.328	0.0140165
795.406	0.0139172
795.484	0.0137416
795.562	0.0138223
795.640	0.0137723
795.718	0.0137507
795.796	0.0136096
795.874	0.0136338
795.953	0.0137063
796.031	0.0136225
796.109	0.0135086
796.187	0.0136550
796.265	0.0136714
796.343	0.0136279
796.421	0.0136288
796.499	0.0136525
796.578	0.0137469
796.656	0.0136652
796.734	0.0135941
796.812	0.0135664
796.890	0.0135813
796.968	0.0135341
797.046	0.0135654
797.124	0.0135518
797.203	0.0136718
797.281	0.0136797
797.359	0.0137696
797.437	0.0137703
797.515	0.0137601
797.593	0.0137967
797.671	0.0138782
797.749	0.0138544
797.828	0.0138432
797.906	0.0138724
797.984	0.0140810
798.062	0.0138787
798.140	0.0138848
798.218	0.0139050
798.296	0.0139220
798.374	0.0138515
798.453	0.0137917
798.531	0.0138716
798.609	0.0138056
798.687	0.0136810
798.765	0.0136428
798.843	0.0135997
798.921	0.0135905
798.999	0.0133958
799.078	0.0134634
799.156	0.0135019
799.234	0.0135914
799.312	0.0135405
799.390	0.0136855
799.468	0.0136140
799.546	0.0136478
799.624	0.0136863
799.703	0.0137179
799.781	0.0139066
799.859	0.0138568
799.937	0.0139654
800.015	0.0140209
800.093	0.0141946
800.171	0.0141077
800.249	0.0141653
800.328	0.0142020
800.406	0.0141080
800.484	0.0143233
800.562	0.0140802
800.640	0.0139763
800.718	0.0139801
800.796	0.0140457
800.874	0.0139799
800.953	0.0138655
801.031	0.0138815
801.109	0.0139691
801.187	0.0136607
801.265	0.0137023
801.343	0.0136246
801.421	0.0137534
801.499	0.0137453
801.578	0.0138241
801.656	0.0137534
801.734	0.0136763
801.812	0.0136441
801.890	0.0135521
801.968	0.0137439
802.046	0.0138060
802.124	0.0135396
802.203	0.0136349
802.281	0.0137425
802.359	0.0135902
802.437	0.0136517
802.515	0.0134798
802.593	0.0136154
802.671	0.0135173
802.749	0.0135391
802.828	0.0136550
802.906	0.0136087
802.984	0.0135884
803.062	0.0136567
803.140	0.0136391
803.218	0.0136266
803.296	0.0136331
803.374	0.0136697
803.453	0.0136778
803.531	0.0136575
803.609	0.0137071
803.687	0.0138400
803.765	0.0139275
803.843	0.0139799
803.921	0.0138300
803.999	0.0140398
804.078	0.0139996
804.156	0.0138851
804.234	0.0137681
804.312	0.0138413
804.390	0.0139548
804.468	0.0139361
804.546	0.0137825
804.624	0.0138422
804.703	0.0138895
804.781	0.0137874
804.859	0.0138535
804.937	0.0138902
805.015	0.0138886
805.093	0.0139548
805.171	0.0139802
805.249	0.0138976
805.328	0.0138994
805.406	0.0139729
805.484	0.0138632
805.562	0.0138027
805.640	0.0138118
805.718	0.0139321
805.796	0.0138174
805.874	0.0139271
805.953	0.0137121
806.031	0.0137320
806.109	0.0137076
806.187	0.0136781
806.265	0.0138016
806.343	0.0137612
806.421	0.0138955
806.499	0.0139265
806.578	0.0138200
806.656	0.0138853
806.734	0.0140436
806.812	0.0140079
806.890	0.0139091
806.968	0.0139484
807.046	0.0138921
807.124	0.0140403
807.203	0.0139539
807.281	0.0140579
807.359	0.0139445
807.437	0.0138520
807.515	0.0138802
807.593	0.0140028
807.671	0.0140622
807.749	0.0141924
807.828	0.0141230
807.906	0.0140135
807.984	0.0140057
808.062	0.0137877
808.140	0.0139450
808.218	0.0138987
808.296	0.0137516
808.374	0.0137385
808.453	0.0136674
808.531	0.0135880
808.609	0.0134489
808.687	0.0134607
808.765	0.0135297
808.843	0.0133954
808.921	0.0135146
808.999	0.0133992
809.078	0.0134232
809.156	0.0133769
809.234	0.0134709
809.312	0.0134737
809.390	0.0135992
809.468	0.0134859
809.546	0.0135632
809.624	0.0135478
809.703	0.0136064
809.781	0.0136539
809.859	0.0137202
809.937	0.0137460
810.015	0.0136591
810.093	0.0138037
810.171	0.0138175
810.249	0.0140826
810.328	0.0138716
810.406	0.0139371
810.484	0.0139242
810.562	0.0139320
810.640	0.0139517
810.718	0.0140462
810.796	0.0139776
810.874	0.0140501
810.953	0.0139447
811.031	0.0139348
811.109	0.0140163
811.187	0.0139743
811.265	0.0139790
811.343	0.0139599
811.421	0.0138603
811.499	0.0139317
811.578	0.0138807
811.656	0.0137053
811.734	0.0138827
811.812	0.0139705
811.890	0.0138428
811.968	0.0139214
812.046	0.0137795
812.124	0.0139253
812.203	0.0140304
812.281	0.0139977
812.359	0.0140393
812.437	0.0141341
812.515	0.0141273
812.593	0.0142606
812.671	0.0141116
812.749	0.0141246
812.828	0.0141248
812.906	0.0141389
812.984	0.0142461
813.062	0.0141589
813.140	0.0141196
813.218	0.0143293
813.296	0.0140543
813.374	0.0140376
813.453	0.0141455
813.531	0.0141917
813.609	0.0140475
813.687	0.0139861
813.765	0.0139036
813.843	0.0140402
813.921	0.0139226
813.999	0.0138034
814.078	0.0138801
814.156	0.0138755
814.234	0.0139549
814.312	0.0138885
814.390	0.0138148
814.468	0.0137323
814.546	0.0138218
814.624	0.0137054
814.703	0.0137743
814.781	0.0136179
814.859	0.0136251
814.937	0.0137140
815.015	0.0137861
815.093	0.0137234
815.171	0.0136238
815.249	0.0136854
815.328	0.0137468
815.406	0.0138857
815.484	0.0138085
815.562	0.0138892
815.640	0.0139132
815.718	0.0143050
815.796	0.0142433
815.874	0.0143005
815.953	0.0142384
816.031	0.0142628
816.109	0.0143687
816.187	0.0144379
816.265	0.0142993
816.343	0.0142451
816.421	0.0143415
816.499	0.0141074
816.578	0.0140279
816.656	0.0141292
816.734	0.0140604
816.812	0.0141273
816.890	0.0140655
816.968	0.0140009
817.046	0.0139751
817.124	0.0138773
817.203	0.0141122
817.281	0.0140184
817.359	0.0137761
817.437	0.0138457
817.515	0.0140326
817.593	0.0139872
817.671	0.0138412
817.749	0.0138671
817.828	0.0138518
817.906	0.0139968
817.984	0.0138639
818.062	0.0138956
818.140	0.0138902
818.218	0.0138879
818.296	0.0139000
818.374	0.0138977
818.453	0.0139804
818.531	0.0140088
818.609	0.0138459
818.687	0.0138536
818.765	0.0138630
818.843	0.0138051
818.921	0.0138683
818.999	0.0139221
819.078	0.0138406
819.156	0.0139337
819.234	0.0139019
819.312	0.0138859
819.390	0.0137774
819.468	0.0137835
819.546	0.0138594
819.624	0.0136803
819.703	0.0138103
819.781	0.0137718
819.859	0.0136221
819.937	0.0137328
820.015	0.0137646
820.093	0.0135714
820.171	0.0135771
820.249	0.0134906
820.328	0.0135535
820.406	0.0135713
820.484	0.0137010
820.562	0.0135684
820.640	0.0136502
820.718	0.0137537
820.796	0.0138599
820.874	0.0138442
820.953	0.0137627
821.031	0.0138660
821.109	0.0138770
821.187	0.0139725
821.265	0.0139005
821.343	0.0137740
821.421	0.0138467
821.499	0.0138483
821.578	0.0139121
821.656	0.0139295
821.734	0.0137711
821.812	0.0137247
821.890	0.0138587
821.968	0.0138213
822.046	0.0138483
822.124	0.0137310
822.203	0.0137781
822.281	0.0138052
822.359	0.0137893
822.437	0.0138151
822.515	0.0138954
822.593	0.0137117
822.671	0.0135818
822.749	0.0137015
822.828	0.0136037
822.906	0.0136512
822.984	0.0137310
823.062	0.0136750
823.140	0.0137582
823.218	0.0137926
823.296	0.0138670
823.374	0.0138499
823.453	0.0138306
823.531	0.0138231
823.609	0.0138744
823.687	0.0137630
823.765	0.0138644
823.843	0.0137891
823.921	0.0138597
823.999	0.0137693
824.078	0.0137523
824.156	0.0137827
824.234	0.0137661
824.312	0.0137555
824.390	0.0136663
824.468	0.0136864
824.546	0.0136571
824.624	0.0136979
824.703	0.0135397
824.781	0.0136529
824.859	0.0137464
824.937	0.0135436
825.015	0.0134536
825.093	0.0135891
825.171	0.0135702
825.249	0.0134649
825.328	0.0134754
825.406	0.0134672
825.484	0.0134206
825.562	0.0135261
825.640	0.0136354
825.718	0.0134709
825.796	0.0136462
825.874	0.0136100
825.953	0.0137261
826.031	0.0140012
826.109	0.0137614
826.187	0.0139322
826.265	0.0140137
826.343	0.0138778
826.421	0.0139168
826.499	0.0140087
826.578	0.0140556
826.656	0.0140166
826.734	0.0137070
826.812	0.0138171
826.890	0.0139260
826.968	0.0139187
827.046	0.0138026
827.124	0.0138605
827.203	0.0137301
827.281	0.0139042
827.359	0.0138622
827.437	0.0137379
827.515	0.0138479
827.593	0.0136935
827.671	0.0137720
827.749	0.0138059
827.828	0.0139388
827.906	0.0137144
827.984	0.0137677
828.062	0.0137572
828.140	0.0136614
828.218	0.0137252
828.296	0.0137044
828.374	0.0138568
828.453	0.0138820
828.531	0.0138498
828.609	0.0138181
828.687	0.0138184
828.765	0.0138231
828.843	0.0138998
828.921	0.0139614
828.999	0.0140532
829.078	0.0140006
829.156	0.0139785
829.234	0.0138541
829.312	0.0139165
829.390	0.0137788
829.468	0.0137653
829.546	0.0139578
829.624	0.0138519
829.703	0.0138084
829.781	0.0138496
829.859	0.0138276
829.937	0.0138469
830.015	0.0137625
830.093	0.0138459
830.171	0.0137930
830.249	0.0136521
830.328	0.0137998
830.406	0.0136435
830.484	0.0136130
830.562	0.0136304
830.640	0.0137180
830.718	0.0136765
830.796	0.0136361
830.874	0.0137103
830.953	0.0139514
831.031	0.0138735
831.109	0.0138365
831.187	0.0138783
831.265	0.0139484
831.343	0.0139684
831.421	0.0142271
831.499	0.0142533
831.578	0.0141492
831.656	0.0141077
831.734	0.0141906
831.812	0.0141470
831.890	0.0142123
831.968	0.0141798
832.046	0.0141100
832.124	0.0140137
832.203	0.0140855
832.281	0.0139133
832.359	0.0139043
832.437	0.0139772
832.515	0.0140347
832.593	0.0139797
832.671	0.0138336
832.749	0.0139169
832.828	0.0137823
832.906	0.0137314
832.984	0.0137254
833.062	0.0137792
833.140	0.0136951
833.218	0.0137367
833.296	0.0137050
833.374	0.0136555
833.453	0.0135800
833.531	0.0138778
833.609	0.0138831
833.687	0.0137776
833.765	0.0137310
833.843	0.0139387
833.921	0.0139197
833.999	0.0137636
834.078	0.0138615
834.156	0.0139875
834.234	0.0138766
834.312	0.0139384
834.390	0.0139132
834.468	0.0138167
834.546	0.0138593
834.624	0.0139648
834.703	0.0139375
834.781	0.0138395
834.859	0.0138283
834.937	0.0139516
835.015	0.0138322
835.093	0.0140457
835.171	0.0139872
835.249	0.0139304
835.328	0.0139679
835.406	0.0140797
835.484	0.0140197
835.562	0.0140162
835.640	0.0140330
835.718	0.0139953
835.796	0.0140687
835.874	0.0140896
835.953	0.0139545
836.031	0.0140367
836.109	0.0138896
836.187	0.0140242
836.265	0.0140476
836.343	0.0140639
836.421	0.0140342
836.499	0.0139103
836.578	0.0140826
836.656	0.0141322
836.734	0.0140187
836.812	0.0140913
836.890	0.0139769
836.968	0.0139281
837.046	0.0140644
837.124	0.0139262
837.203	0.0138903
837.281	0.0139422
837.359	0.0138779
837.437	0.0138903
837.515	0.0138484
837.593	0.0138759
837.671	0.0139248
837.749	0.0138141
837.828	0.0138972
837.906	0.0138341
837.984	0.0138583
838.062	0.0138120
838.140	0.0139581
838.218	0.0138898
838.296	0.0141137
838.374	0.0139145
838.453	0.0140238
838.531	0.0139203
838.609	0.0139807
838.687	0.0140196
838.765	0.0140646
838.843	0.0139762
838.921	0.0140904
838.999	0.0142239
839.078	0.0139719
839.156	0.0139967
839.234	0.0139999
839.312	0.0140285
839.390	0.0139604
839.468	0.0141763
839.546	0.0140511
839.624	0.0139584
839.703	0.0140113
839.781	0.0138553
839.859	0.0138219
839.937	0.0139420
840.015	0.0138286
840.093	0.0137685
840.171	0.0137727
840.249	0.0138632
840.328	0.0138361
840.406	0.0138621
840.484	0.0137646
840.562	0.0136982
840.640	0.0138227
840.718	0.0137767
840.796	0.0137774
840.874	0.0138644
840.953	0.0138525
841.031	0.0136902
841.109	0.0137516
841.187	0.0136843
841.265	0.0136987
841.343	0.0137873
841.421	0.0137079
841.499	0.0136679
841.578	0.0138524
841.656	0.0139040
841.734	0.0139015
841.812	0.0139896
841.890	0.0139257
841.968	0.0140797
842.046	0.0140700
842.124	0.0140010
842.203	0.0142256
842.281	0.0141372
842.359	0.0140875
842.437	0.0139727
842.515	0.0139174
842.593	0.0140328
842.671	0.0138324
842.749	0.0138274
842.828	0.0137437
842.906	0.0138277
842.984	0.0138017
843.062	0.0138899
843.140	0.0138242
843.218	0.0137438
843.296	0.0137436
843.374	0.0137164
843.453	0.0137982
843.531	0.0138551
843.609	0.0137241
843.687	0.0137537
843.765	0.0138258
843.843	0.0137604
843.921	0.0137254
843.999	0.0136538
844.078	0.0136892
844.156	0.0137983
844.234	0.0137183
844.312	0.0136847
844.390	0.0136282
844.468	0.0137111
844.546	0.0137076
844.624	0.0136131
844.703	0.0137277
844.781	0.0137547
844.859	0.0138070
844.937	0.0138039
845.015	0.0137381
845.093	0.0139040
845.171	0.0138352
845.249	0.0138792
845.328	0.0139581
845.406	0.0139748
845.484	0.0140695
845.562	0.0139389
845.640	0.0139722
845.718	0.0140624
845.796	0.0140873
845.874	0.0139722
845.953	0.0140139
846.031	0.0140304
846.109	0.0139990
846.187	0.0138287
846.265	0.0139648
846.343	0.0139048
846.421	0.0139225
846.499	0.0138441
846.578	0.0139118
846.656	0.0138432
846.734	0.0137669
846.812	0.0137804
846.890	0.0136790
846.968	0.0137384
847.046	0.0138577
847.124	0.0136649
847.203	0.0137420
847.281	0.0137379
847.359	0.0138962
847.437	0.0137644
847.515	0.0137691
847.593	0.0137226
847.671	0.0137576
847.749	0.0136771
847.828	0.0138820
847.906	0.0138518
847.984	0.0138328
848.062	0.0137553
848.140	0.0137669
848.218	0.0138300
848.296	0.0136419
848.374	0.0137643
848.453	0.0136318
848.531	0.0135262
848.609	0.0134946
848.687	0.0135684
848.765	0.0137312
848.843	0.0135236
848.921	0.0136155
848.999	0.0136104
849.078	0.0136229
849.156	0.0135511
849.234	0.0137160
849.312	0.0135274
849.390	0.0133894
849.468	0.0135511
849.546	0.0134372
849.624	0.0136881
849.703	0.0136189
849.781	0.0135223
849.859	0.0137000
849.937	0.0136861
850.015	0.0138266
850.093	0.0138641
850.171	0.0136755
850.249	0.0137501
850.328	0.0139175
850.406	0.0138956
850.484	0.0138828
850.562	0.0138976
850.640	0.0140718
850.718	0.0140582
850.796	0.0139612
850.874	0.0139863
850.953	0.0140044
851.031	0.0139270
851.109	0.0138984
851.187	0.0139996
851.265	0.0140037
851.343	0.0138889
851.421	0.0139536
851.499	0.0137080
851.578	0.0139194
851.656	0.0138524
851.734	0.0137691
851.812	0.0138403
851.890	0.0137355
851.968	0.0137841
852.046	0.0137422
852.124	0.0136685
852.203	0.0137301
852.281	0.0134694
852.359	0.0135900
852.437	0.0138397
852.515	0.0135728
852.593	0.0135306
852.671	0.0135464
852.749	0.0136064
852.828	0.0136047
852.906	0.0135275
852.984	0.0136237
853.062	0.0136384
853.140	0.0136512
853.218	0.0138347
853.296	0.0137549
853.374	0.0138665
853.453	0.0137627
853.531	0.0137239
853.609	0.0137889
853.687	0.0138358
853.765	0.0139578
853.843	0.0140658
853.921	0.0140331
853.999	0.0139565
854.078	0.0139133
854.156	0.0139204
854.234	0.0140279
854.312	0.0139524
854.390	0.0139983
854.468	0.0140759
854.546	0.0140642
854.624	0.0139433
854.703	0.0139877
854.781	0.0140014
854.859	0.0140504
854.937	0.0139302
855.015	0.0140466
855.093	0.0140946
855.171	0.0139945
855.249	0.0140419
855.328	0.0138432
855.406	0.0139345
855.484	0.0140997
855.562	0.0139290
855.640	0.0138737
855.718	0.0138388
855.796	0.0140553
855.874	0.0138529
855.953	0.0139500
856.031	0.0138323
856.109	0.0138591
856.187	0.0137743
856.265	0.0137386
856.343	0.0138166
856.421	0.0139110
856.499	0.0137532
856.578	0.0138505
856.656	0.0137514
856.734	0.0137134
856.812	0.0139664
856.890	0.0139572
856.968	0.0138024
857.046	0.0136194
857.124	0.0137733
857.203	0.0138601
857.281	0.0138412
857.359	0.0139876
857.437	0.0140361
857.515	0.0137324
857.593	0.0136302
857.671	0.0137507
857.749	0.0138597
857.828	0.0137527
857.906	0.0138275
857.984	0.0139497
858.062	0.0139849
858.140	0.0138980
858.218	0.0138517
858.296	0.0138523
858.374	0.0138046
858.453	0.0137947
858.531	0.0139470
858.609	0.0137563
858.687	0.0138393
858.765	0.0140009
858.843	0.0138030
858.921	0.0137872
858.999	0.0139212
859.078	0.0138480
859.156	0.0138349
859.234	0.0139153
859.312	0.0138322
859.390	0.0137838
859.468	0.0138457
859.546	0.0139758
859.624	0.0137787
859.703	0.0138387
859.781	0.0138492
859.859	0.0139249
859.937	0.0139729
860.015	0.0140358
860.093	0.0139305
860.171	0.0139064
860.249	0.0139680
860.328	0.0137286
860.406	0.0138538
860.484	0.0138617
860.562	0.0138917
860.640	0.0139774
860.718	0.0141048
860.796	0.0141087
860.874	0.0139434
860.953	0.0139809
861.031	0.0140375
861.109	0.0141563
861.187	0.0141012
861.265	0.0139902
861.343	0.0139452
861.421	0.0140169
861.499	0.0139932
861.578	0.0140370
861.656	0.0138692
861.734	0.0137742
861.812	0.0138654
861.890	0.0139181
861.968	0.0138255
862.046	0.0136666
862.124	0.0137637
862.203	0.0137536
862.281	0.0137512
862.359	0.0137644
862.437	0.0137900
862.515	0.0138099
862.593	0.0138868
862.671	0.0136584
862.749	0.0138428
862.828	0.0137549
862.906	0.0138643
862.984	0.0137604
863.062	0.0137655
863.140	0.0138409
863.218	0.0137871
863.296	0.0137579
863.374	0.0138232
863.453	0.0136969
863.531	0.0137190
863.609	0.0137994
863.687	0.0138553
863.765	0.0138712
863.843	0.0139565
863.921	0.0138897
863.999	0.0139407
864.078	0.0139030
864.156	0.0139797
864.234	0.0140442
864.312	0.0138322
864.390	0.0138500
864.468	0.0139502
864.546	0.0138615
864.624	0.0138833
864.703	0.0138339
864.781	0.0137892
864.859	0.0138076
864.937	0.0138875
865.015	0.0138046
865.093	0.0138356
865.171	0.0138284
865.249	0.0138284
865.328	0.0137833
865.406	0.0137433
865.484	0.0138475
865.562	0.0137778
865.640	0.0139492
865.718	0.0140079
865.796	0.0139785
865.874	0.0140155
865.953	0.0140846
866.031	0.0139410
866.109	0.0140758
866.187	0.0140372
866.265	0.0141577
866.343	0.0140405
866.421	0.0140917
866.499	0.0141057
866.578	0.0142065
866.656	0.0141381
866.734	0.0141478
866.812	0.0139925
866.890	0.0140754
866.968	0.0140014
867.046	0.0139936
867.124	0.0141109
867.203	0.0141000
867.281	0.0140318
867.359	0.0139625
867.437	0.0138575
867.515	0.0138680
867.593	0.0139582
867.671	0.0139249
867.749	0.0138052
867.828	0.0137371
867.906	0.0137057
867.984	0.0137741
868.062	0.0137548
868.140	0.0137733
868.218	0.0138017
868.296	0.0137872
868.374	0.0135639
868.453	0.0137230
868.531	0.0135809
868.609	0.0138368
868.687	0.0138358
868.765	0.0138115
868.843	0.0138925
868.921	0.0137267
868.999	0.0136964
869.078	0.0137988
869.156	0.0138723
869.234	0.0139416
869.312	0.0138530
869.390	0.0138715
869.468	0.0140532
869.546	0.0139014
869.624	0.0140327
869.703	0.0138588
869.781	0.0139182
869.859	0.0138751
869.937	0.0141225
870.015	0.0139231
870.093	0.0138660
870.171	0.0138897
870.249	0.0138260
870.328	0.0138928
870.406	0.0139112
870.484	0.0137550
870.562	0.0136768
870.640	0.0138760
870.718	0.0140171
870.796	0.0139539
870.874	0.0139178
870.953	0.0139660
871.031	0.0138450
871.109	0.0138208
871.187	0.0139674
871.265	0.0139149
871.343	0.0138465
871.421	0.0138673
871.499	0.0138696
871.578	0.0139875
871.656	0.0138717
871.734	0.0138702
871.812	0.0138123
871.890	0.0139797
871.968	0.0138821
872.046	0.0137955
872.124	0.0140179
872.203	0.0139097
872.281	0.0137657
872.359	0.0139337
872.437	0.0138954
872.515	0.0138553
872.593	0.0137860
872.671	0.0138137
872.749	0.0137712
872.828	0.0138593
872.906	0.0137743
872.984	0.0138005
873.062	0.0138290
873.140	0.0137360
873.218	0.0137797
873.296	0.0135845
873.374	0.0137075
873.453	0.0136979
873.531	0.0137029
873.609	0.0139243
873.687	0.0137270
873.765	0.0135619
873.843	0.0136663
873.921	0.0138557
873.999	0.0139667
874.078	0.0138175
874.156	0.0138342
874.234	0.0138919
874.312	0.0138222
874.390	0.0138625
874.468	0.0139197
874.546	0.0139153
874.624	0.0139181
874.703	0.0139100
874.781	0.0139232
874.859	0.0139163
874.937	0.0139904
875.015	0.0139589
875.093	0.0137503
875.171	0.0138623
875.249	0.0139376
875.328	0.0139548
875.406	0.0139329
875.484	0.0139164
875.562	0.0138299
875.640	0.0137872
875.718	0.0137598
875.796	0.0138434
875.874	0.0139300
875.953	0.0139974
876.031	0.0138867
876.109	0.0138956
876.187	0.0140659
876.265	0.0139712
876.343	0.0138281
876.421	0.0139302
876.499	0.0138423
876.578	0.0138550
876.656	0.0138881
876.734	0.0138554
876.812	0.0137658
876.890	0.0137578
876.968	0.0136436
877.046	0.0137233
877.124	0.0137152
877.203	0.0135996
877.281	0.0137704
877.359	0.0139106
877.437	0.0137653
877.515	0.0136966
877.593	0.0137426
877.671	0.0138265
877.749	0.0137803
877.828	0.0136820
877.906	0.0137867
877.984	0.0137034
878.062	0.0137917
878.140	0.0137453
878.218	0.0137154
878.296	0.0137981
878.374	0.0137489
878.453	0.0136603
878.531	0.0136823
878.609	0.0135515
878.687	0.0137251
878.765	0.0137587
878.843	0.0136329
878.921	0.0137500
878.999	0.0138044
879.078	0.0138577
879.156	0.0138663
879.234	0.0137475
879.312	0.0137876
879.390	0.0139400
879.468	0.0138286
879.546	0.0137100
879.624	0.0138715
879.703	0.0139374
879.781	0.0137214
879.859	0.0138258
879.937	0.0138387
880.015	0.0136528
880.093	0.0137517
880.171	0.0137421
880.249	0.0137830
880.328	0.0135384
880.406	0.0138063
880.484	0.0136525
880.562	0.0135937
880.640	0.0137237
880.718	0.0136438
880.796	0.0136294
880.874	0.0137074
880.953	0.0136340
881.031	0.0136272
881.109	0.0138028
881.187	0.0136594
881.265	0.0137422
881.343	0.0136647
881.421	0.0136395
881.499	0.0138631
881.578	0.0137954
881.656	0.0138429
881.734	0.0138340
881.812	0.0139592
881.890	0.0137862
881.968	0.0137045
882.046	0.0138012
882.124	0.0137772
882.203	0.0136952
882.281	0.0137040
882.359	0.0138342
882.437	0.0138503
882.515	0.0139162
882.593	0.0138358
882.671	0.0137339
882.749	0.0137205
882.828	0.0138029
882.906	0.0138135
882.984	0.0137434
883.062	0.0137836
883.140	0.0137110
883.218	0.0137643
883.296	0.0137754
883.374	0.0138627
883.453	0.0137712
883.531	0.0137692
883.609	0.0137148
883.687	0.0137086
883.765	0.0138007
883.843	0.0137701
883.921	0.0137211
883.999	0.0137682
884.078	0.0138840
884.156	0.0139125
884.234	0.0137247
884.312	0.0138976
884.390	0.0138681
884.468	0.0139983
884.546	0.0137749
884.624	0.0138123
884.703	0.0138214
884.781	0.0140031
884.859	0.0138813
884.937	0.0139315
885.015	0.0140106
885.093	0.0141625
885.171	0.0140339
885.249	0.0141204
885.328	0.0142451
885.406	0.0142229
885.484	0.0141915
885.562	0.0143577
885.640	0.0144753
885.718	0.0143384
885.796	0.0141473
885.874	0.0142783
885.953	0.0141445
886.031	0.0142473
886.109	0.0141866
886.187	0.0141366
886.265	0.0142638
886.343	0.0141629
886.421	0.0141662
886.499	0.0140166
886.578	0.0141033
886.656	0.0140558
886.734	0.0138632
886.812	0.0139598
886.890	0.0138441
886.968	0.0139801
887.046	0.0139777
887.124	0.0138885
887.203	0.0138826
887.281	0.0139768
887.359	0.0139675
887.437	0.0138772
887.515	0.0139344
887.593	0.0139086
887.671	0.0137565
887.749	0.0138844
887.828	0.0138390
887.906	0.0138097
887.984	0.0137416
888.062	0.0137868
888.140	0.0138571
888.218	0.0138538
888.296	0.0139220
888.374	0.0138757
888.453	0.0138812
888.531	0.0137062
888.609	0.0138000
888.687	0.0139551
888.765	0.0137581
888.843	0.0139079
888.921	0.0140369
888.999	0.0138097
889.078	0.0138273
889.156	0.0138819
889.234	0.0140291
889.312	0.0140910
889.390	0.0139259
889.468	0.0140305
889.546	0.0140440
889.624	0.0138529
889.703	0.0140168
889.781	0.0140192
889.859	0.0140135
889.937	0.0138696
890.015	0.0138187
890.093	0.0139509
890.171	0.0140803
890.249	0.0138834
890.328	0.0139629
890.406	0.0140630
890.484	0.0139459
890.562	0.0140131
890.640	0.0138016
890.718	0.0140382
890.796	0.0139478
890.874	0.0140254
890.953	0.0138388
891.031	0.0140199
891.109	0.0139089
891.187	0.0138295
891.265	0.0138508
891.343	0.0138836
891.421	0.0139239
891.499	0.0139445
891.578	0.0138842
891.656	0.0138336
891.734	0.0138144
891.812	0.0138563
891.890	0.0137630
891.968	0.0137757
892.046	0.0138480
892.124	0.0138287
892.203	0.0139360
892.281	0.0138591
892.359	0.0138528
892.437	0.0138282
892.515	0.0138040
892.593	0.0137730
892.671	0.0138213
892.749	0.0137871
892.828	0.0137811
892.906	0.0137099
892.984	0.0138738
893.062	0.0138551
893.140	0.0139246
893.218	0.0138732
893.296	0.0138189
893.374	0.0138081
893.453	0.0139155
893.531	0.0139477
893.609	0.0139468
893.687	0.0139224
893.765	0.0140741
893.843	0.0140738
893.921	0.0139808
893.999	0.0140351
894.078	0.0140399
894.156	0.0141475
894.234	0.0140702
894.312	0.0141558
894.390	0.0139322
894.468	0.0140131
894.546	0.0138806
894.624	0.0138713
894.703	0.0140077
894.781	0.0137807
894.859	0.0139360
894.937	0.0140761
895.015	0.0139781
895.093	0.0139368
895.171	0.0138586
895.249	0.0138413
895.328	0.0138218
895.406	0.0138392
895.484	0.0139808
895.562	0.0138105
895.640	0.0138266
895.718	0.0139417
895.796	0.0137411
895.874	0.0138357
895.953	0.0136907
896.031	0.0136920
896.109	0.0137807
896.187	0.0138576
896.265	0.0137519
896.343	0.0139386
896.421	0.0138957
896.499	0.0138448
896.578	0.0137454
896.656	0.0138501
896.734	0.0138390
896.812	0.0138686
896.890	0.0138043
896.968	0.0137033
897.046	0.0138311
897.124	0.0138037
897.203	0.0137906
897.281	0.0137312
897.359	0.0136281
897.437	0.0137641
897.515	0.0138006
897.593	0.0137758
897.671	0.0138116
897.749	0.0137876
897.828	0.0137677
897.906	0.0137875
897.984	0.0138329
898.062	0.0138043
898.140	0.0138377
898.218	0.0138783
898.296	0.0138605
898.374	0.0139800
898.453	0.0139830
898.531	0.0138728
898.609	0.0137320
898.687	0.0138313
898.765	0.0140107
898.843	0.0138392
898.921	0.0139297
898.999	0.0138148
899.078	0.0137798
899.156	0.0138753
899.234	0.0140382
899.312	0.0138441
899.390	0.0137224
899.468	0.0138831
899.546	0.0138744
899.624	0.0138563
899.703	0.0138464
899.781	0.0137730
899.859	0.0139371
899.937	0.0138801
900.015	0.0138264
900.093	0.0137656
900.171	0.0137348
900.249	0.0137741
900.328	0.0137315
900.406	0.0137807
900.484	0.0137664
900.562	0.0135369
900.640	0.0135225
900.718	0.0135722
900.796	0.0136348
900.874	0.0136229
900.953	0.0136041
901.031	0.0136603
901.109	0.0135079
901.187	0.0135112
901.265	0.0135035
901.343	0.0135226
901.421	0.0134901
901.499	0.0135546
901.578	0.0136384
901.656	0.0134975
901.734	0.0136515
901.812	0.0135901
901.890	0.0135155
901.968	0.0135073
902.046	0.0136945
902.124	0.0136981
902.203	0.0135152
902.281	0.0137066
902.359	0.0138725
902.437	0.0138723
902.515	0.0137050
902.593	0.0138586
902.671	0.0137669
902.749	0.0139243
902.828	0.0139463
902.906	0.0139591
902.984	0.0139995
903.062	0.0139305
903.140	0.0140228
903.218	0.0139555
903.296	0.0138930
903.374	0.0139639
903.453	0.0138930
903.531	0.0139741
903.609	0.0139405
903.687	0.0139477
903.765	0.0139547
903.843	0.0137317
903.921	0.0139915
903.999	0.0139626
904.078	0.0138602
904.156	0.0139896
904.234	0.0137512
904.312	0.0139530
904.390	0.0139189
904.468	0.0138942
904.546	0.0136649
904.624	0.0136861
904.703	0.0136691
904.781	0.0137633
904.859	0.0138239
904.937	0.0137817
905.015	0.0137012
905.093	0.0136300
905.171	0.0137627
905.249	0.0136798
905.328	0.0137248
905.406	0.0138280
905.484	0.0137267
905.562	0.0136231
905.640	0.0137547
905.718	0.0137126
905.796	0.0136387
905.874	0.0137312
905.953	0.0136859
906.031	0.0135305
906.109	0.0136816
906.187	0.0135921
906.265	0.0136964
906.343	0.0136584
906.421	0.0135550
906.499	0.0137530
906.578	0.0137804
906.656	0.0136897
906.734	0.0136859
906.812	0.0137289
906.890	0.0138642
906.968	0.0136877
907.046	0.0135470
907.124	0.0137715
907.203	0.0137359
907.281	0.0136474
907.359	0.0137400
907.437	0.0136939
907.515	0.0137711
907.593	0.0138359
907.671	0.0135638
907.749	0.0137782
907.828	0.0137099
907.906	0.0137083
907.984	0.0137682
908.062	0.0137169
908.140	0.0136713
908.218	0.0136752
908.296	0.0137260
908.374	0.0138175
908.453	0.0137778
908.531	0.0136938
908.609	0.0137051
908.687	0.0137388
908.765	0.0136911
908.843	0.0137585
908.921	0.0139244
908.999	0.0140052
909.078	0.0138009
909.156	0.0137946
909.234	0.0139000
909.312	0.0139886
909.390	0.0140225
909.468	0.0139259
909.546	0.0140644
909.624	0.0139969
909.703	0.0141312
909.781	0.0141071
909.859	0.0140898
909.937	0.0140840
910.015	0.0139574
910.093	0.0140011
910.171	0.0140469
910.249	0.0141901
910.328	0.0142002
910.406	0.0140980
910.484	0.0141090
910.562	0.0141911
910.640	0.0141904
910.718	0.0141889
910.796	0.0140627
910.874	0.0141616
910.953	0.0141869
911.031	0.0141296
911.109	0.0142706
911.187	0.0141758
911.265	0.0141791
911.343	0.0140565
911.421	0.0141031
911.499	0.0141293
911.578	0.0140092
911.656	0.0140475
911.734	0.0140199
911.812	0.0139635
911.890	0.0139480
911.968	0.0139554
912.046	0.0140811
912.124	0.0137988
912.203	0.0138483
912.281	0.0138815
912.359	0.0138756
912.437	0.0138600
912.515	0.0137794
912.593	0.0137994
912.671	0.0138148
912.749	0.0137592
912.828	0.0137823
912.906	0.0139550
912.984	0.0139661
913.062	0.0139059
913.140	0.0140173
913.218	0.0139867
913.296	0.0138562
913.374	0.0140353
913.453	0.0138816
913.531	0.0138852
913.609	0.0139011
913.687	0.0140035
913.765	0.0139414
913.843	0.0138998
913.921	0.0139887
913.999	0.0139236
914.078	0.0139669
914.156	0.0139434
914.234	0.0139833
914.312	0.0139117
914.390	0.0140055
914.468	0.0139752
914.546	0.0138757
914.624	0.0139871
914.703	0.0138734
914.781	0.0140079
914.859	0.0139909
914.937	0.0138921
915.015	0.0139792
915.093	0.0140134
915.171	0.0139255
915.249	0.0140466
915.328	0.0138660
915.406	0.0138739
915.484	0.0138961
915.562	0.0139086
915.640	0.0139732
915.718	0.0139593
915.796	0.0138795
915.874	0.0140144
915.953	0.0140439
916.031	0.0138953
916.109	0.0138391
916.187	0.0139150
916.265	0.0138541
916.343	0.0138966
916.421	0.0139400
916.499	0.0138733
916.578	0.0138944
916.656	0.0139291
916.734	0.0138179
916.812	0.0138806
916.890	0.0138544
916.968	0.0137933
917.046	0.0138135
917.124	0.0139109
917.203	0.0138494
917.281	0.0137894
917.359	0.0136897
917.437	0.0136357
917.515	0.0139162
917.593	0.0137550
917.671	0.0137590
917.749	0.0138494
917.828	0.0139227
917.906	0.0137700
917.984	0.0137103
918.062	0.0138065
918.140	0.0140375
918.218	0.0139612
918.296	0.0139188
918.374	0.0139040
918.453	0.0137934
918.531	0.0139410
918.609	0.0140790
918.687	0.0139639
918.765	0.0138622
918.843	0.0139176
918.921	0.0140244
918.999	0.0139062
919.078	0.0138910
919.156	0.0138583
919.234	0.0138150
919.312	0.0139834
919.390	0.0137785
919.468	0.0137753
919.546	0.0137447
919.624	0.0137385
919.703	0.0137037
919.781	0.0137062
919.859	0.0136160
919.937	0.0136642
