05/08/2022	20:19:02	Ver.	4.1	UNKNOWN
Optical Delay	600.015094	Delta X		0.078125	Sweeps	1	Scan Rate	0/0
Coordinates	Axis 1	NaN	Axis 2	NaN	Axis 3	NaN	Axis 4	NaN	Axis 5	NaN	Axis 6	0.000000
TX Power	0.000000	RX Power	0.000000

600.015	0.0137418
600.093	0.0137284
600.171	0.0138014
600.249	0.0137019
600.328	0.0137732
600.406	0.0138308
600.484	0.0139449
600.562	0.0138867
600.640	0.0136700
600.718	0.0138232
600.796	0.0138931
600.874	0.0138200
600.953	0.0138708
601.031	0.0139845
601.109	0.0137432
601.187	0.0137380
601.265	0.0138304
601.343	0.0138986
601.421	0.0138147
601.499	0.0137642
601.578	0.0138176
601.656	0.0138693
601.734	0.0138236
601.812	0.0139609
601.890	0.0138960
601.968	0.0138551
602.046	0.0138262
602.124	0.0139025
602.203	0.0139613
602.281	0.0138926
602.359	0.0138682
602.437	0.0138686
602.515	0.0138769
602.593	0.0139040
602.671	0.0138161
602.749	0.0138699
602.828	0.0138832
602.906	0.0138771
602.984	0.0139349
603.062	0.0138776
603.140	0.0138727
603.218	0.0138836
603.296	0.0138774
603.374	0.0137466
603.453	0.0137500
603.531	0.0138293
603.609	0.0138387
603.687	0.0140225
603.765	0.0138019
603.843	0.0138364
603.921	0.0137206
603.999	0.0139174
604.078	0.0137870
604.156	0.0138056
604.234	0.0138441
604.312	0.0138649
604.390	0.0137845
604.468	0.0138251
604.546	0.0137402
604.624	0.0138171
604.703	0.0137403
604.781	0.0137210
604.859	0.0137877
604.937	0.0138248
605.015	0.0138298
605.093	0.0137959
605.171	0.0137874
605.249	0.0137775
605.328	0.0138571
605.406	0.0137859
605.484	0.0137023
605.562	0.0137138
605.640	0.0137820
605.718	0.0137753
605.796	0.0136916
605.874	0.0137410
605.953	0.0136198
606.031	0.0137832
606.109	0.0137541
606.187	0.0138970
606.265	0.0138178
606.343	0.0136897
606.421	0.0137415
606.499	0.0138077
606.578	0.0139038
606.656	0.0138607
606.734	0.0139737
606.812	0.0137865
606.890	0.0138181
606.968	0.0137780
607.046	0.0138116
607.124	0.0137839
607.203	0.0138146
607.281	0.0138568
607.359	0.0137828
607.437	0.0137279
607.515	0.0137819
607.593	0.0137016
607.671	0.0138746
607.749	0.0137796
607.828	0.0138754
607.906	0.0138250
607.984	0.0138974
608.062	0.0138981
608.140	0.0139691
608.218	0.0138656
608.296	0.0139721
608.374	0.0138658
608.453	0.0138595
608.531	0.0138773
608.609	0.0139387
608.687	0.0139381
608.765	0.0138313
608.843	0.0137814
608.921	0.0138020
608.999	0.0138215
609.078	0.0137449
609.156	0.0137081
609.234	0.0137640
609.312	0.0137885
609.390	0.0137912
609.468	0.0138480
609.546	0.0136921
609.624	0.0136425
609.703	0.0137405
609.781	0.0137697
609.859	0.0137141
609.937	0.0138281
610.015	0.0139303
610.093	0.0137051
610.171	0.0138240
610.249	0.0136642
610.328	0.0136116
610.406	0.0137874
610.484	0.0138984
610.562	0.0139603
610.640	0.0138353
610.718	0.0139850
610.796	0.0139195
610.874	0.0138800
610.953	0.0138729
611.031	0.0139991
611.109	0.0139194
611.187	0.0140160
611.265	0.0139084
611.343	0.0139190
611.421	0.0140738
611.499	0.0138558
611.578	0.0138405
611.656	0.0138708
611.734	0.0139130
611.812	0.0140193
611.890	0.0138324
611.968	0.0138590
612.046	0.0139407
612.124	0.0139321
612.203	0.0140941
612.281	0.0138847
612.359	0.0139268
612.437	0.0141650
612.515	0.0140761
612.593	0.0139349
612.671	0.0140132
612.749	0.0141210
612.828	0.0140572
612.906	0.0139384
612.984	0.0140290
613.062	0.0139377
613.140	0.0141511
613.218	0.0140501
613.296	0.0139654
613.374	0.0140475
613.453	0.0138718
613.531	0.0139439
613.609	0.0139626
613.687	0.0139356
613.765	0.0139607
613.843	0.0141479
613.921	0.0138917
613.999	0.0140240
614.078	0.0139237
614.156	0.0138347
614.234	0.0138271
614.312	0.0139570
614.390	0.0138546
614.468	0.0139478
614.546	0.0139431
614.624	0.0139765
614.703	0.0139727
614.781	0.0139827
614.859	0.0138085
614.937	0.0137844
615.015	0.0139030
615.093	0.0138333
615.171	0.0137768
615.249	0.0138736
615.328	0.0139539
615.406	0.0138131
615.484	0.0138979
615.562	0.0137798
615.640	0.0137964
615.718	0.0138711
615.796	0.0138084
615.874	0.0138570
615.953	0.0139839
616.031	0.0138055
616.109	0.0138240
616.187	0.0139497
616.265	0.0139006
616.343	0.0138636
616.421	0.0139187
616.499	0.0138736
616.578	0.0138082
616.656	0.0138880
616.734	0.0138670
616.812	0.0140344
616.890	0.0139303
616.968	0.0140484
617.046	0.0138570
617.124	0.0137782
617.203	0.0138937
617.281	0.0139046
617.359	0.0137892
617.437	0.0138646
617.515	0.0139621
617.593	0.0138185
617.671	0.0138660
617.749	0.0140057
617.828	0.0140480
617.906	0.0138376
617.984	0.0138525
618.062	0.0138914
618.140	0.0138500
618.218	0.0137657
618.296	0.0138248
618.374	0.0138219
618.453	0.0138839
618.531	0.0138982
618.609	0.0139098
618.687	0.0138198
618.765	0.0138687
618.843	0.0137781
618.921	0.0138335
618.999	0.0140553
619.078	0.0138171
619.156	0.0138864
619.234	0.0138515
619.312	0.0138745
619.390	0.0139613
619.468	0.0137761
619.546	0.0137629
619.624	0.0138652
619.703	0.0138242
619.781	0.0138856
619.859	0.0138483
619.937	0.0138499
620.015	0.0138691
620.093	0.0140122
620.171	0.0138254
620.249	0.0139352
620.328	0.0138388
620.406	0.0137637
620.484	0.0138171
620.562	0.0138325
620.640	0.0139422
620.718	0.0140034
620.796	0.0138265
620.874	0.0138306
620.953	0.0138858
621.031	0.0138644
621.109	0.0138699
621.187	0.0137598
621.265	0.0137756
621.343	0.0137931
621.421	0.0137708
621.499	0.0136778
621.578	0.0137604
621.656	0.0138552
621.734	0.0138704
621.812	0.0137711
621.890	0.0136476
621.968	0.0137387
622.046	0.0137070
622.124	0.0137994
622.203	0.0138280
622.281	0.0137104
622.359	0.0138426
622.437	0.0138194
622.515	0.0136891
622.593	0.0137432
622.671	0.0138701
622.749	0.0139117
622.828	0.0137547
622.906	0.0138076
622.984	0.0136544
623.062	0.0137363
623.140	0.0138482
623.218	0.0136766
623.296	0.0137793
623.374	0.0138622
623.453	0.0137335
623.531	0.0136468
623.609	0.0138609
623.687	0.0137482
623.765	0.0136393
623.843	0.0137814
623.921	0.0136603
623.999	0.0136828
624.078	0.0138285
624.156	0.0138387
624.234	0.0136906
624.312	0.0136835
624.390	0.0137717
624.468	0.0138433
624.546	0.0136749
624.624	0.0136296
624.703	0.0137928
624.781	0.0136285
624.859	0.0136812
624.937	0.0137127
625.015	0.0137119
625.093	0.0137379
625.171	0.0137363
625.249	0.0136449
625.328	0.0136456
625.406	0.0137153
625.484	0.0136495
625.562	0.0137478
625.640	0.0136153
625.718	0.0134575
625.796	0.0135002
625.874	0.0136274
625.953	0.0136729
626.031	0.0135986
626.109	0.0136896
626.187	0.0136668
626.265	0.0137910
626.343	0.0136123
626.421	0.0136279
626.499	0.0135311
626.578	0.0137294
626.656	0.0136258
626.734	0.0136479
626.812	0.0135185
626.890	0.0136796
626.968	0.0136253
627.046	0.0136141
627.124	0.0136566
627.203	0.0135680
627.281	0.0136201
627.359	0.0136334
627.437	0.0135937
627.515	0.0136458
627.593	0.0136224
627.671	0.0135984
627.749	0.0135654
627.828	0.0136171
627.906	0.0136781
627.984	0.0135815
628.062	0.0135676
628.140	0.0136871
628.218	0.0137645
628.296	0.0136397
628.374	0.0135491
628.453	0.0135704
628.531	0.0135838
628.609	0.0136578
628.687	0.0136473
628.765	0.0136863
628.843	0.0136347
628.921	0.0135907
628.999	0.0135838
629.078	0.0137502
629.156	0.0137306
629.234	0.0138168
629.312	0.0137254
629.390	0.0136870
629.468	0.0137000
629.546	0.0135117
629.624	0.0137889
629.703	0.0136980
629.781	0.0137371
629.859	0.0137740
629.937	0.0137640
630.015	0.0136813
630.093	0.0137253
630.171	0.0137908
630.249	0.0137399
630.328	0.0136086
630.406	0.0137093
630.484	0.0137254
630.562	0.0137130
630.640	0.0137198
630.718	0.0137798
630.796	0.0137366
630.874	0.0137429
630.953	0.0138179
631.031	0.0138071
631.109	0.0138311
631.187	0.0139693
631.265	0.0139463
631.343	0.0138010
631.421	0.0138493
631.499	0.0139354
631.578	0.0140809
631.656	0.0141119
631.734	0.0140150
631.812	0.0140051
631.890	0.0141341
631.968	0.0141521
632.046	0.0139873
632.124	0.0141121
632.203	0.0141669
632.281	0.0142195
632.359	0.0141936
632.437	0.0142128
632.515	0.0140498
632.593	0.0141312
632.671	0.0141473
632.749	0.0142100
632.828	0.0140807
632.906	0.0139880
632.984	0.0141246
633.062	0.0141093
633.140	0.0140733
633.218	0.0139921
633.296	0.0139379
633.374	0.0138657
633.453	0.0140424
633.531	0.0140226
633.609	0.0139127
633.687	0.0139075
633.765	0.0139737
633.843	0.0140510
633.921	0.0139445
633.999	0.0138809
634.078	0.0138982
634.156	0.0138398
634.234	0.0139354
634.312	0.0139468
634.390	0.0138654
634.468	0.0138815
634.546	0.0139124
634.624	0.0138318
634.703	0.0138903
634.781	0.0138181
634.859	0.0140305
634.937	0.0140082
635.015	0.0138211
635.093	0.0139693
635.171	0.0139947
635.249	0.0140209
635.328	0.0140852
635.406	0.0139877
635.484	0.0140039
635.562	0.0139144
635.640	0.0140034
635.718	0.0139559
635.796	0.0140320
635.874	0.0138583
635.953	0.0139462
636.031	0.0138583
636.109	0.0138283
636.187	0.0138503
636.265	0.0139373
636.343	0.0139964
636.421	0.0138605
636.499	0.0140746
636.578	0.0139552
636.656	0.0138456
636.734	0.0139748
636.812	0.0137814
636.890	0.0138766
636.968	0.0140221
637.046	0.0139017
637.124	0.0139577
637.203	0.0138747
637.281	0.0140493
637.359	0.0139865
637.437	0.0139912
637.515	0.0140108
637.593	0.0139349
637.671	0.0139630
637.749	0.0140762
637.828	0.0139541
637.906	0.0139597
637.984	0.0141759
638.062	0.0140456
638.140	0.0139947
638.218	0.0141924
638.296	0.0141195
638.374	0.0140516
638.453	0.0141117
638.531	0.0139603
638.609	0.0140868
638.687	0.0140243
638.765	0.0139910
638.843	0.0140733
638.921	0.0140118
638.999	0.0138686
639.078	0.0138764
639.156	0.0138114
639.234	0.0139760
639.312	0.0138694
639.390	0.0138660
639.468	0.0137634
639.546	0.0138605
639.624	0.0138494
639.703	0.0140578
639.781	0.0139687
639.859	0.0139658
639.937	0.0140458
640.015	0.0141210
640.093	0.0141918
640.171	0.0141682
640.249	0.0143663
640.328	0.0142214
640.406	0.0142683
640.484	0.0143370
640.562	0.0143721
640.640	0.0143015
640.718	0.0143394
640.796	0.0142757
640.874	0.0141198
640.953	0.0141425
641.031	0.0141765
641.109	0.0142274
641.187	0.0141599
641.265	0.0141998
641.343	0.0140326
641.421	0.0139075
641.499	0.0139264
641.578	0.0138946
641.656	0.0137704
641.734	0.0136684
641.812	0.0135888
641.890	0.0135715
641.968	0.0133517
642.046	0.0132166
642.124	0.0132043
642.203	0.0131391
642.281	0.0131413
642.359	0.0130843
642.437	0.0131022
642.515	0.0131158
642.593	0.0132274
642.671	0.0134366
642.749	0.0132389
642.828	0.0136623
642.906	0.0137310
642.984	0.0139022
643.062	0.0139638
643.140	0.0142608
643.218	0.0143266
643.296	0.0143240
643.374	0.0143616
643.453	0.0144144
643.531	0.0144365
643.609	0.0142813
643.687	0.0143365
643.765	0.0143516
643.843	0.0142667
643.921	0.0142757
643.999	0.0141816
644.078	0.0142582
644.156	0.0140051
644.234	0.0139682
644.312	0.0137552
644.390	0.0138412
644.468	0.0136604
644.546	0.0135564
644.624	0.0134449
644.703	0.0133517
644.781	0.0133527
644.859	0.0131421
644.937	0.0130381
645.015	0.0130270
645.093	0.0130318
645.171	0.0128860
645.249	0.0130466
645.328	0.0131248
645.406	0.0131087
645.484	0.0131529
645.562	0.0132947
645.640	0.0133296
645.718	0.0134354
645.796	0.0136267
645.874	0.0135722
645.953	0.0137251
646.031	0.0138536
646.109	0.0139913
646.187	0.0141833
646.265	0.0140435
646.343	0.0141985
646.421	0.0142764
646.499	0.0144874
646.578	0.0145656
646.656	0.0146429
646.734	0.0146482
646.812	0.0145840
646.890	0.0146046
646.968	0.0146576
647.046	0.0145908
647.124	0.0145309
647.203	0.0143837
647.281	0.0140774
647.359	0.0139429
647.437	0.0137996
647.515	0.0136626
647.593	0.0135793
647.671	0.0133769
647.749	0.0133344
647.828	0.0131001
647.906	0.0131376
647.984	0.0131085
648.062	0.0128326
648.140	0.0128423
648.218	0.0128014
648.296	0.0127259
648.374	0.0126737
648.453	0.0127763
648.531	0.0126936
648.609	0.0129153
648.687	0.0127801
648.765	0.0127767
648.843	0.0129462
648.921	0.0130172
648.999	0.0132529
649.078	0.0133172
649.156	0.0135429
649.234	0.0137725
649.312	0.0138718
649.390	0.0140203
649.468	0.0143532
649.546	0.0145597
649.624	0.0145311
649.703	0.0146887
649.781	0.0148598
649.859	0.0148383
649.937	0.0148962
650.015	0.0148881
650.093	0.0148369
650.171	0.0145628
650.249	0.0145782
650.328	0.0145239
650.406	0.0144209
650.484	0.0144397
650.562	0.0143061
650.640	0.0142210
650.718	0.0142580
650.796	0.0140781
650.874	0.0140804
650.953	0.0140820
651.031	0.0138190
651.109	0.0138113
651.187	0.0136883
651.265	0.0133430
651.343	0.0134314
651.421	0.0132863
651.499	0.0131921
651.578	0.0130252
651.656	0.0129340
651.734	0.0127543
651.812	0.0128782
651.890	0.0126972
651.968	0.0127244
652.046	0.0127727
652.124	0.0127653
652.203	0.0129179
652.281	0.0129662
652.359	0.0129762
652.437	0.0131535
652.515	0.0131907
652.593	0.0133204
652.671	0.0134016
652.749	0.0134865
652.828	0.0135389
652.906	0.0136263
652.984	0.0138438
653.062	0.0140540
653.140	0.0141844
653.218	0.0141277
653.296	0.0144194
653.374	0.0145538
653.453	0.0145759
653.531	0.0145412
653.609	0.0143929
653.687	0.0145925
653.765	0.0146144
653.843	0.0144249
653.921	0.0144781
653.999	0.0144462
654.078	0.0144559
654.156	0.0143116
654.234	0.0141608
654.312	0.0142952
654.390	0.0142880
654.468	0.0142535
654.546	0.0141454
654.624	0.0143108
654.703	0.0142113
654.781	0.0140378
654.859	0.0141180
654.937	0.0139962
655.015	0.0139475
655.093	0.0140935
655.171	0.0138566
655.249	0.0137501
655.328	0.0137801
655.406	0.0138032
655.484	0.0138422
655.562	0.0136191
655.640	0.0134689
655.718	0.0135545
655.796	0.0135150
655.874	0.0134191
655.953	0.0133318
656.031	0.0133855
656.109	0.0131711
656.187	0.0131728
656.265	0.0130407
656.343	0.0128996
656.421	0.0127427
656.499	0.0127020
656.578	0.0127849
656.656	0.0126120
656.734	0.0126454
656.812	0.0124908
656.890	0.0127321
656.968	0.0127890
657.046	0.0126947
657.124	0.0129456
657.203	0.0131052
657.281	0.0130998
657.359	0.0132677
657.437	0.0135682
657.515	0.0139198
657.593	0.0140302
657.671	0.0142861
657.749	0.0145387
657.828	0.0146175
657.906	0.0147823
657.984	0.0149177
658.062	0.0149908
658.140	0.0149757
658.218	0.0150954
658.296	0.0152132
658.374	0.0150702
658.453	0.0151640
658.531	0.0150397
658.609	0.0149845
658.687	0.0149823
658.765	0.0148962
658.843	0.0148773
658.921	0.0148105
658.999	0.0147159
659.078	0.0147346
659.156	0.0145277
659.234	0.0143288
659.312	0.0141926
659.390	0.0139468
659.468	0.0139548
659.546	0.0137878
659.624	0.0133398
659.703	0.0133054
659.781	0.0133096
659.859	0.0128896
659.937	0.0128766
660.015	0.0126198
660.093	0.0126180
660.171	0.0125751
660.249	0.0125623
660.328	0.0126883
660.406	0.0125700
660.484	0.0125262
660.562	0.0126466
660.640	0.0126231
660.718	0.0127676
660.796	0.0127913
660.874	0.0129955
660.953	0.0130511
661.031	0.0132202
661.109	0.0132036
661.187	0.0132560
661.265	0.0133891
661.343	0.0134724
661.421	0.0135123
661.499	0.0137866
661.578	0.0136956
661.656	0.0139510
661.734	0.0139223
661.812	0.0140343
661.890	0.0139292
661.968	0.0141505
662.046	0.0143055
662.124	0.0142830
662.203	0.0144296
662.281	0.0143522
662.359	0.0145140
662.437	0.0146216
662.515	0.0146588
662.593	0.0147164
662.671	0.0147488
662.749	0.0148196
662.828	0.0147491
662.906	0.0150666
662.984	0.0149759
663.062	0.0149205
663.140	0.0149220
663.218	0.0150290
663.296	0.0150792
663.374	0.0148123
663.453	0.0149036
663.531	0.0147858
663.609	0.0147494
663.687	0.0147500
663.765	0.0148344
663.843	0.0145536
663.921	0.0144119
663.999	0.0143373
664.078	0.0141482
664.156	0.0141100
664.234	0.0138390
664.312	0.0136521
664.390	0.0134699
664.468	0.0132156
664.546	0.0131036
664.624	0.0128786
664.703	0.0129741
664.781	0.0128476
664.859	0.0127318
664.937	0.0128665
665.015	0.0127442
665.093	0.0126196
665.171	0.0128152
665.249	0.0127442
665.328	0.0130433
665.406	0.0130740
665.484	0.0133370
665.562	0.0132716
665.640	0.0133901
665.718	0.0136491
665.796	0.0134244
665.874	0.0136436
665.953	0.0137794
666.031	0.0137807
666.109	0.0138635
666.187	0.0139653
666.265	0.0137766
666.343	0.0137316
666.421	0.0138488
666.499	0.0137163
666.578	0.0137639
666.656	0.0137492
666.734	0.0136160
666.812	0.0136176
666.890	0.0133658
666.968	0.0133358
667.046	0.0134000
667.124	0.0134636
667.203	0.0134384
667.281	0.0133754
667.359	0.0133077
667.437	0.0134837
667.515	0.0133478
667.593	0.0134045
667.671	0.0135471
667.749	0.0136146
667.828	0.0135957
667.906	0.0138636
667.984	0.0139378
668.062	0.0143194
668.140	0.0143105
668.218	0.0145215
668.296	0.0147754
668.374	0.0148685
668.453	0.0150470
668.531	0.0152705
668.609	0.0154007
668.687	0.0153651
668.765	0.0156466
668.843	0.0156879
668.921	0.0156949
668.999	0.0157661
669.078	0.0157710
669.156	0.0157117
669.234	0.0155008
669.312	0.0155025
669.390	0.0152309
669.468	0.0150235
669.546	0.0148357
669.624	0.0145870
669.703	0.0142583
669.781	0.0138190
669.859	0.0136411
669.937	0.0131756
670.015	0.0128560
670.093	0.0125363
670.171	0.0123746
670.249	0.0121466
670.328	0.0118249
670.406	0.0116846
670.484	0.0116739
670.562	0.0114985
670.640	0.0113868
670.718	0.0113757
670.796	0.0114729
670.874	0.0113657
670.953	0.0114389
671.031	0.0115547
671.109	0.0115844
671.187	0.0117562
671.265	0.0119289
671.343	0.0120842
671.421	0.0122934
671.499	0.0125076
671.578	0.0127149
671.656	0.0129122
671.734	0.0131948
671.812	0.0133355
671.890	0.0136319
671.968	0.0137767
672.046	0.0140611
672.124	0.0141760
672.203	0.0142043
672.281	0.0142238
672.359	0.0145612
672.437	0.0145696
672.515	0.0144678
672.593	0.0145520
672.671	0.0145786
672.749	0.0144529
672.828	0.0145218
672.906	0.0146399
672.984	0.0147790
673.062	0.0147137
673.140	0.0148447
673.218	0.0151374
673.296	0.0152008
673.374	0.0152039
673.453	0.0152692
673.531	0.0153815
673.609	0.0155372
673.687	0.0155008
673.765	0.0153752
673.843	0.0154688
673.921	0.0153844
673.999	0.0152721
674.078	0.0152419
674.156	0.0151902
674.234	0.0151083
674.312	0.0150021
674.390	0.0149139
674.468	0.0146146
674.546	0.0146420
674.624	0.0145956
674.703	0.0143875
674.781	0.0140731
674.859	0.0138113
674.937	0.0135986
675.015	0.0133471
675.093	0.0130273
675.171	0.0127345
675.249	0.0124548
675.328	0.0121549
675.406	0.0120990
675.484	0.0116730
675.562	0.0116109
675.640	0.0115607
675.718	0.0114402
675.796	0.0112631
675.874	0.0112086
675.953	0.0111058
676.031	0.0112139
676.109	0.0113185
676.187	0.0112611
676.265	0.0114422
676.343	0.0114157
676.421	0.0116617
676.499	0.0118146
676.578	0.0121025
676.656	0.0123060
676.734	0.0125544
676.812	0.0129736
676.890	0.0131527
676.968	0.0134097
677.046	0.0137878
677.124	0.0140795
677.203	0.0143428
677.281	0.0144214
677.359	0.0147834
677.437	0.0150872
677.515	0.0152641
677.593	0.0154365
677.671	0.0155897
677.749	0.0156127
677.828	0.0157864
677.906	0.0158984
677.984	0.0158913
678.062	0.0159270
678.140	0.0158549
678.218	0.0157664
678.296	0.0156423
678.374	0.0154231
678.453	0.0151818
678.531	0.0151568
678.609	0.0150179
678.687	0.0147319
678.765	0.0146715
678.843	0.0145209
678.921	0.0142420
678.999	0.0142515
679.078	0.0142567
679.156	0.0140146
679.234	0.0141958
679.312	0.0141056
679.390	0.0139662
679.468	0.0141803
679.546	0.0141290
679.624	0.0141065
679.703	0.0140625
679.781	0.0141775
679.859	0.0140542
679.937	0.0142461
680.015	0.0140228
680.093	0.0140958
680.171	0.0140096
680.249	0.0139635
680.328	0.0138519
680.406	0.0138079
680.484	0.0137381
680.562	0.0136180
680.640	0.0135452
680.718	0.0134027
680.796	0.0132985
680.874	0.0131058
680.953	0.0130283
681.031	0.0127561
681.109	0.0127605
681.187	0.0125575
681.265	0.0125904
681.343	0.0125535
681.421	0.0124688
681.499	0.0124384
681.578	0.0123380
681.656	0.0122968
681.734	0.0122808
681.812	0.0122803
681.890	0.0122474
681.968	0.0122874
682.046	0.0123344
682.124	0.0124814
682.203	0.0125056
682.281	0.0125118
682.359	0.0129092
682.437	0.0129756
682.515	0.0130681
682.593	0.0132285
682.671	0.0134573
682.749	0.0135309
682.828	0.0138175
682.906	0.0139267
682.984	0.0140527
683.062	0.0141328
683.140	0.0142654
683.218	0.0144027
683.296	0.0144420
683.374	0.0145863
683.453	0.0147567
683.531	0.0148157
683.609	0.0147839
683.687	0.0147639
683.765	0.0148415
683.843	0.0147323
683.921	0.0150637
683.999	0.0150125
684.078	0.0149596
684.156	0.0149851
684.234	0.0151109
684.312	0.0149761
684.390	0.0151522
684.468	0.0148760
684.546	0.0149301
684.624	0.0149171
684.703	0.0147511
684.781	0.0145915
684.859	0.0145970
684.937	0.0145308
685.015	0.0145084
685.093	0.0142763
685.171	0.0141009
685.249	0.0141290
685.328	0.0141093
685.406	0.0141085
685.484	0.0139811
685.562	0.0140454
685.640	0.0140423
685.718	0.0137630
685.796	0.0137985
685.874	0.0138010
685.953	0.0137564
686.031	0.0137005
686.109	0.0136770
686.187	0.0135693
686.265	0.0134190
686.343	0.0133675
686.421	0.0131946
686.499	0.0131788
686.578	0.0129155
686.656	0.0128944
686.734	0.0125587
686.812	0.0126352
686.890	0.0124050
686.968	0.0123860
687.046	0.0125093
687.124	0.0124782
687.203	0.0124279
687.281	0.0124891
687.359	0.0125042
687.437	0.0125516
687.515	0.0125439
687.593	0.0126142
687.671	0.0126891
687.749	0.0126677
687.828	0.0126125
687.906	0.0128502
687.984	0.0127676
688.062	0.0127708
688.140	0.0128462
688.218	0.0129253
688.296	0.0130215
688.374	0.0131350
688.453	0.0132272
688.531	0.0131767
688.609	0.0134708
688.687	0.0135916
688.765	0.0135840
688.843	0.0138956
688.921	0.0140308
688.999	0.0140460
689.078	0.0143305
689.156	0.0145918
689.234	0.0147775
689.312	0.0149594
689.390	0.0148727
689.468	0.0150840
689.546	0.0152042
689.624	0.0153569
689.703	0.0152036
689.781	0.0153780
689.859	0.0153091
689.937	0.0152921
690.015	0.0153268
690.093	0.0152989
690.171	0.0152541
690.249	0.0152032
690.328	0.0154273
690.406	0.0153922
690.484	0.0152662
690.562	0.0152419
690.640	0.0153100
690.718	0.0150796
690.796	0.0151455
690.874	0.0150384
690.953	0.0147145
691.031	0.0146597
691.109	0.0146566
691.187	0.0144301
691.265	0.0141965
691.343	0.0142828
691.421	0.0139758
691.499	0.0137999
691.578	0.0137310
691.656	0.0134931
691.734	0.0134464
691.812	0.0134226
691.890	0.0130142
691.968	0.0128088
692.046	0.0125910
692.124	0.0126267
692.203	0.0123399
692.281	0.0122406
692.359	0.0121242
692.437	0.0120921
692.515	0.0119447
692.593	0.0118214
692.671	0.0118351
692.749	0.0118954
692.828	0.0117664
692.906	0.0117147
692.984	0.0119038
693.062	0.0120122
693.140	0.0121999
693.218	0.0122003
693.296	0.0123530
693.374	0.0124240
693.453	0.0126975
693.531	0.0129365
693.609	0.0131267
693.687	0.0131783
693.765	0.0134428
693.843	0.0136433
693.921	0.0139576
693.999	0.0139899
694.078	0.0142814
694.156	0.0142911
694.234	0.0144948
694.312	0.0146482
694.390	0.0146725
694.468	0.0148421
694.546	0.0149045
694.624	0.0151544
694.703	0.0151617
694.781	0.0151241
694.859	0.0151558
694.937	0.0154305
695.015	0.0152010
695.093	0.0153060
695.171	0.0152647
695.249	0.0153895
695.328	0.0153165
695.406	0.0151978
695.484	0.0149829
695.562	0.0150088
695.640	0.0148880
695.718	0.0146571
695.796	0.0147848
695.874	0.0146646
695.953	0.0144585
696.031	0.0143289
696.109	0.0141429
696.187	0.0139582
696.265	0.0139787
696.343	0.0138716
696.421	0.0137116
696.499	0.0134814
696.578	0.0135512
696.656	0.0134782
696.734	0.0133611
696.812	0.0133150
696.890	0.0131052
696.968	0.0131882
697.046	0.0131187
697.124	0.0129784
697.203	0.0129480
697.281	0.0128828
697.359	0.0128516
697.437	0.0129543
697.515	0.0129070
697.593	0.0128658
697.671	0.0127681
697.749	0.0127763
697.828	0.0130257
697.906	0.0130038
697.984	0.0130248
698.062	0.0130685
698.140	0.0132515
698.218	0.0131665
698.296	0.0132425
698.374	0.0133358
698.453	0.0136443
698.531	0.0137421
698.609	0.0138018
698.687	0.0137892
698.765	0.0138359
698.843	0.0138377
698.921	0.0140358
698.999	0.0139407
699.078	0.0139174
699.156	0.0138556
699.234	0.0140121
699.312	0.0139494
699.390	0.0139555
699.468	0.0140433
699.546	0.0140366
699.624	0.0138245
699.703	0.0140824
699.781	0.0141971
699.859	0.0140671
699.937	0.0141203
700.015	0.0140016
700.093	0.0141039
700.171	0.0139153
700.249	0.0138663
700.328	0.0136572
700.406	0.0137315
700.484	0.0135536
700.562	0.0135336
700.640	0.0133620
700.718	0.0133602
700.796	0.0132130
700.874	0.0133707
700.953	0.0133007
701.031	0.0134134
701.109	0.0133343
701.187	0.0133750
701.265	0.0135470
701.343	0.0138505
701.421	0.0138605
701.499	0.0138127
701.578	0.0136931
701.656	0.0139813
701.734	0.0139928
701.812	0.0139859
701.890	0.0138197
701.968	0.0138311
702.046	0.0137538
702.124	0.0137837
702.203	0.0138156
702.281	0.0139082
702.359	0.0139340
702.437	0.0137321
702.515	0.0138153
702.593	0.0138489
702.671	0.0137698
702.749	0.0138360
702.828	0.0139442
702.906	0.0138728
702.984	0.0140648
703.062	0.0138648
703.140	0.0139661
703.218	0.0140338
703.296	0.0140145
703.374	0.0138983
703.453	0.0138832
703.531	0.0141012
703.609	0.0141461
703.687	0.0141656
703.765	0.0141557
703.843	0.0141996
703.921	0.0143230
703.999	0.0142082
704.078	0.0141354
704.156	0.0141936
704.234	0.0144416
704.312	0.0141806
704.390	0.0140798
704.468	0.0140807
704.546	0.0140453
704.624	0.0139552
704.703	0.0140213
704.781	0.0141409
704.859	0.0140552
704.937	0.0137741
705.015	0.0138351
705.093	0.0136739
705.171	0.0137348
705.249	0.0136649
705.328	0.0136156
705.406	0.0135385
705.484	0.0134507
705.562	0.0133688
705.640	0.0134688
705.718	0.0132411
705.796	0.0132362
705.874	0.0131956
705.953	0.0129724
706.031	0.0128703
706.109	0.0130692
706.187	0.0131123
706.265	0.0130228
706.343	0.0129214
706.421	0.0130167
706.499	0.0130883
706.578	0.0132558
706.656	0.0132948
706.734	0.0132922
706.812	0.0132872
706.890	0.0134215
706.968	0.0135665
707.046	0.0136864
707.124	0.0138055
707.203	0.0138641
707.281	0.0140926
707.359	0.0140401
707.437	0.0141703
707.515	0.0143855
707.593	0.0143924
707.671	0.0145065
707.749	0.0146184
707.828	0.0145582
707.906	0.0147837
707.984	0.0148854
708.062	0.0147472
708.140	0.0147216
708.218	0.0147063
708.296	0.0145388
708.374	0.0145887
708.453	0.0144045
708.531	0.0144032
708.609	0.0143358
708.687	0.0142290
708.765	0.0142557
708.843	0.0141605
708.921	0.0141668
708.999	0.0142185
709.078	0.0141129
709.156	0.0140128
709.234	0.0140018
709.312	0.0139714
709.390	0.0138593
709.468	0.0138009
709.546	0.0137473
709.624	0.0137218
709.703	0.0136008
709.781	0.0136942
709.859	0.0136050
709.937	0.0135657
710.015	0.0136278
710.093	0.0135210
710.171	0.0136077
710.249	0.0136905
710.328	0.0137155
710.406	0.0136978
710.484	0.0137856
710.562	0.0137128
710.640	0.0137509
710.718	0.0137074
710.796	0.0139144
710.874	0.0137263
710.953	0.0136298
711.031	0.0135950
711.109	0.0135783
711.187	0.0136787
711.265	0.0136169
711.343	0.0135464
711.421	0.0133862
711.499	0.0134383
711.578	0.0134361
711.656	0.0134489
711.734	0.0134024
711.812	0.0133803
711.890	0.0131956
711.968	0.0131314
712.046	0.0132584
712.124	0.0132754
712.203	0.0132657
712.281	0.0131851
712.359	0.0132223
712.437	0.0134063
712.515	0.0132167
712.593	0.0132393
712.671	0.0134061
712.749	0.0132748
712.828	0.0133061
712.906	0.0134173
712.984	0.0134059
713.062	0.0134887
713.140	0.0135654
713.218	0.0134735
713.296	0.0137262
713.374	0.0136102
713.453	0.0137904
713.531	0.0137138
713.609	0.0138985
713.687	0.0140675
713.765	0.0141714
713.843	0.0142523
713.921	0.0143793
713.999	0.0143690
714.078	0.0146246
714.156	0.0144686
714.234	0.0146826
714.312	0.0145507
714.390	0.0146719
714.468	0.0147852
714.546	0.0148026
714.624	0.0148253
714.703	0.0148730
714.781	0.0149059
714.859	0.0148687
714.937	0.0148467
715.015	0.0147926
715.093	0.0147576
715.171	0.0147604
715.249	0.0146578
715.328	0.0145071
715.406	0.0145255
715.484	0.0144337
715.562	0.0141826
715.640	0.0141258
715.718	0.0141719
715.796	0.0139796
715.874	0.0139123
715.953	0.0138255
716.031	0.0137186
716.109	0.0136633
716.187	0.0135387
716.265	0.0136205
716.343	0.0135082
716.421	0.0132876
716.499	0.0132551
716.578	0.0133403
716.656	0.0131441
716.734	0.0132224
716.812	0.0132677
716.890	0.0131800
716.968	0.0131158
717.046	0.0131808
717.124	0.0130311
717.203	0.0131033
717.281	0.0132423
717.359	0.0132269
717.437	0.0133746
717.515	0.0132475
717.593	0.0134081
717.671	0.0133540
717.749	0.0133514
717.828	0.0133241
717.906	0.0133413
717.984	0.0134091
718.062	0.0134978
718.140	0.0137448
718.218	0.0137601
718.296	0.0137952
718.374	0.0139679
718.453	0.0140790
718.531	0.0141634
718.609	0.0141846
718.687	0.0143371
718.765	0.0145428
718.843	0.0145159
718.921	0.0145652
718.999	0.0146939
719.078	0.0147079
719.156	0.0145692
719.234	0.0145750
719.312	0.0146150
719.390	0.0146246
719.468	0.0144633
719.546	0.0144407
719.624	0.0144558
719.703	0.0143036
719.781	0.0141698
719.859	0.0141689
719.937	0.0140944
720.015	0.0142696
720.093	0.0140916
720.171	0.0140559
720.249	0.0138969
720.328	0.0138349
720.406	0.0137646
720.484	0.0138772
720.562	0.0137057
720.640	0.0136301
720.718	0.0135831
720.796	0.0135708
720.874	0.0134582
720.953	0.0133892
721.031	0.0135597
721.109	0.0133910
721.187	0.0133331
721.265	0.0132767
721.343	0.0133816
721.421	0.0131876
721.499	0.0132859
721.578	0.0132949
721.656	0.0132824
721.734	0.0131671
721.812	0.0132055
721.890	0.0131924
721.968	0.0133444
722.046	0.0134137
722.124	0.0132955
722.203	0.0133659
722.281	0.0132973
722.359	0.0134405
722.437	0.0136282
722.515	0.0136221
722.593	0.0136024
722.671	0.0136289
722.749	0.0137402
722.828	0.0138124
722.906	0.0136967
722.984	0.0138858
723.062	0.0139275
723.140	0.0140761
723.218	0.0140755
723.296	0.0141566
723.374	0.0141798
723.453	0.0142369
723.531	0.0142337
723.609	0.0143407
723.687	0.0145501
723.765	0.0143143
723.843	0.0143253
723.921	0.0143314
723.999	0.0142948
724.078	0.0142773
724.156	0.0141553
724.234	0.0141432
724.312	0.0140433
724.390	0.0141001
724.468	0.0138925
724.546	0.0138839
724.624	0.0137792
724.703	0.0138153
724.781	0.0137543
724.859	0.0136543
724.937	0.0136965
725.015	0.0134281
725.093	0.0136354
725.171	0.0135744
725.249	0.0136004
725.328	0.0136335
725.406	0.0135079
725.484	0.0135853
725.562	0.0137666
725.640	0.0136475
725.718	0.0136100
725.796	0.0136403
725.874	0.0136635
725.953	0.0137708
726.031	0.0137280
726.109	0.0137359
726.187	0.0136588
726.265	0.0137640
726.343	0.0136991
726.421	0.0137839
726.499	0.0137711
726.578	0.0137810
726.656	0.0138253
726.734	0.0138818
726.812	0.0138809
726.890	0.0139256
726.968	0.0139546
727.046	0.0140159
727.124	0.0139674
727.203	0.0140498
727.281	0.0139287
727.359	0.0138377
727.437	0.0140429
727.515	0.0141005
727.593	0.0139867
727.671	0.0139829
727.749	0.0139653
727.828	0.0139021
727.906	0.0138535
727.984	0.0138065
728.062	0.0138718
728.140	0.0137480
728.218	0.0137812
728.296	0.0137297
728.374	0.0136993
728.453	0.0137611
728.531	0.0137318
728.609	0.0137481
728.687	0.0136924
728.765	0.0136983
728.843	0.0138564
728.921	0.0139119
728.999	0.0138211
729.078	0.0138659
729.156	0.0138974
729.234	0.0139030
729.312	0.0137518
729.390	0.0138210
729.468	0.0139299
729.546	0.0138868
729.624	0.0140263
729.703	0.0139878
729.781	0.0138833
729.859	0.0138574
729.937	0.0139822
730.015	0.0141180
730.093	0.0139863
730.171	0.0140971
730.249	0.0142326
730.328	0.0141545
730.406	0.0140797
730.484	0.0141557
730.562	0.0141389
730.640	0.0142275
730.718	0.0142801
730.796	0.0143333
730.874	0.0140906
730.953	0.0140988
731.031	0.0141820
731.109	0.0140790
731.187	0.0139009
731.265	0.0140293
731.343	0.0138583
731.421	0.0137576
731.499	0.0137328
731.578	0.0137748
731.656	0.0136634
731.734	0.0136178
731.812	0.0135359
731.890	0.0136462
731.968	0.0135801
732.046	0.0135152
732.124	0.0136375
732.203	0.0136131
732.281	0.0135656
732.359	0.0136509
732.437	0.0136468
732.515	0.0136752
732.593	0.0136669
732.671	0.0137611
732.749	0.0136868
732.828	0.0137092
732.906	0.0136578
732.984	0.0136054
733.062	0.0136779
733.140	0.0139194
733.218	0.0136763
733.296	0.0136306
733.374	0.0135875
733.453	0.0136614
733.531	0.0137499
733.609	0.0137130
733.687	0.0138700
733.765	0.0138362
733.843	0.0139399
733.921	0.0139834
733.999	0.0139605
734.078	0.0139648
734.156	0.0139546
734.234	0.0138973
734.312	0.0139404
734.390	0.0140733
734.468	0.0140763
734.546	0.0139852
734.624	0.0141097
734.703	0.0141678
734.781	0.0140614
734.859	0.0141127
734.937	0.0141930
735.015	0.0142358
735.093	0.0143166
735.171	0.0142567
735.249	0.0142635
735.328	0.0142888
735.406	0.0142013
735.484	0.0141639
735.562	0.0140359
735.640	0.0140520
735.718	0.0139953
735.796	0.0141354
735.874	0.0140699
735.953	0.0140115
736.031	0.0139172
736.109	0.0137861
736.187	0.0139344
736.265	0.0135286
736.343	0.0135407
736.421	0.0136132
736.499	0.0137121
736.578	0.0136867
736.656	0.0136834
736.734	0.0136546
736.812	0.0137200
736.890	0.0138122
736.968	0.0136417
737.046	0.0137383
737.124	0.0137353
737.203	0.0138380
737.281	0.0137206
737.359	0.0137612
737.437	0.0138259
737.515	0.0138928
737.593	0.0137225
737.671	0.0138350
737.749	0.0137864
737.828	0.0138079
737.906	0.0138013
737.984	0.0136053
738.062	0.0138572
738.140	0.0138987
738.218	0.0137334
738.296	0.0137692
738.374	0.0138042
738.453	0.0137744
738.531	0.0138306
738.609	0.0138500
738.687	0.0137873
738.765	0.0138352
738.843	0.0137489
738.921	0.0138486
738.999	0.0138442
739.078	0.0137342
739.156	0.0137402
739.234	0.0138078
739.312	0.0135950
739.390	0.0134921
739.468	0.0136378
739.546	0.0136284
739.624	0.0134718
739.703	0.0135741
739.781	0.0134795
739.859	0.0135123
739.937	0.0135512
740.015	0.0135116
740.093	0.0135300
740.171	0.0134927
740.249	0.0135632
740.328	0.0137150
740.406	0.0136510
740.484	0.0136319
740.562	0.0137415
740.640	0.0135953
740.718	0.0136823
740.796	0.0137669
740.874	0.0137579
740.953	0.0136770
741.031	0.0136272
741.109	0.0138411
741.187	0.0137210
741.265	0.0137437
741.343	0.0136381
741.421	0.0136926
741.499	0.0137908
741.578	0.0139593
741.656	0.0138864
741.734	0.0139148
741.812	0.0139990
741.890	0.0139749
741.968	0.0139528
742.046	0.0139400
742.124	0.0141458
742.203	0.0140884
742.281	0.0140825
742.359	0.0141306
742.437	0.0140255
742.515	0.0139629
742.593	0.0141060
742.671	0.0140422
742.749	0.0139810
742.828	0.0139861
742.906	0.0138132
742.984	0.0139691
743.062	0.0137894
743.140	0.0137444
743.218	0.0140217
743.296	0.0139824
743.374	0.0138486
743.453	0.0138668
743.531	0.0139672
743.609	0.0137627
743.687	0.0138276
743.765	0.0139195
743.843	0.0139077
743.921	0.0138616
743.999	0.0138697
744.078	0.0139838
744.156	0.0139416
744.234	0.0138605
744.312	0.0137995
744.390	0.0139543
744.468	0.0137973
744.546	0.0136445
744.624	0.0135495
744.703	0.0135358
744.781	0.0137029
744.859	0.0135258
744.937	0.0135280
745.015	0.0135335
745.093	0.0136377
745.171	0.0134881
745.249	0.0134940
745.328	0.0135407
745.406	0.0134673
745.484	0.0134929
745.562	0.0135645
745.640	0.0136840
745.718	0.0135954
745.796	0.0137593
745.874	0.0138366
745.953	0.0139786
746.031	0.0140582
746.109	0.0140699
746.187	0.0140755
746.265	0.0141531
746.343	0.0140774
746.421	0.0141457
746.499	0.0142526
746.578	0.0142301
746.656	0.0142200
746.734	0.0143748
746.812	0.0142931
746.890	0.0142133
746.968	0.0141365
747.046	0.0142199
747.124	0.0141896
747.203	0.0142446
747.281	0.0140887
747.359	0.0141376
747.437	0.0141730
747.515	0.0139746
747.593	0.0138969
747.671	0.0139225
747.749	0.0138998
747.828	0.0138824
747.906	0.0138266
747.984	0.0138582
748.062	0.0138575
748.140	0.0137474
748.218	0.0138781
748.296	0.0137128
748.374	0.0136270
748.453	0.0137247
748.531	0.0136713
748.609	0.0137581
748.687	0.0136330
748.765	0.0136582
748.843	0.0137080
748.921	0.0137579
748.999	0.0137849
749.078	0.0138638
749.156	0.0137869
749.234	0.0139124
749.312	0.0139458
749.390	0.0139557
749.468	0.0137839
749.546	0.0139453
749.624	0.0140335
749.703	0.0141492
749.781	0.0140263
749.859	0.0140057
749.937	0.0142184
750.015	0.0140729
750.093	0.0140977
750.171	0.0141361
750.249	0.0140716
750.328	0.0141469
750.406	0.0142580
750.484	0.0140356
750.562	0.0141124
750.640	0.0139959
750.718	0.0140010
750.796	0.0141006
750.874	0.0141076
750.953	0.0140606
751.031	0.0139641
751.109	0.0138528
751.187	0.0139345
751.265	0.0138900
751.343	0.0138565
751.421	0.0139059
751.499	0.0137318
751.578	0.0137316
751.656	0.0137029
751.734	0.0136878
751.812	0.0136290
751.890	0.0137051
751.968	0.0136256
752.046	0.0134503
752.124	0.0135752
752.203	0.0135317
752.281	0.0136310
752.359	0.0135069
752.437	0.0136005
752.515	0.0136593
752.593	0.0135873
752.671	0.0136731
752.749	0.0135447
752.828	0.0136352
752.906	0.0137486
752.984	0.0137395
753.062	0.0137495
753.140	0.0135756
753.218	0.0137048
753.296	0.0136164
753.374	0.0137112
753.453	0.0136996
753.531	0.0137543
753.609	0.0137817
753.687	0.0136885
753.765	0.0136987
753.843	0.0137711
753.921	0.0137926
753.999	0.0136957
754.078	0.0136575
754.156	0.0136384
754.234	0.0135308
754.312	0.0136598
754.390	0.0136804
754.468	0.0135901
754.546	0.0135952
754.624	0.0138921
754.703	0.0138560
754.781	0.0136745
754.859	0.0137514
754.937	0.0137993
755.015	0.0138184
755.093	0.0138113
755.171	0.0140062
755.249	0.0140428
755.328	0.0139799
755.406	0.0140941
755.484	0.0141840
755.562	0.0141657
755.640	0.0140894
755.718	0.0140639
755.796	0.0141268
755.874	0.0140012
755.953	0.0140485
756.031	0.0140372
756.109	0.0139423
756.187	0.0137930
756.265	0.0139876
756.343	0.0139317
756.421	0.0139112
756.499	0.0139475
756.578	0.0138099
756.656	0.0137518
756.734	0.0138026
756.812	0.0138574
756.890	0.0138629
756.968	0.0137033
757.046	0.0137955
757.124	0.0137547
757.203	0.0137543
757.281	0.0138647
757.359	0.0137770
757.437	0.0137688
757.515	0.0137111
757.593	0.0138280
757.671	0.0137636
757.749	0.0137422
757.828	0.0139420
757.906	0.0138114
757.984	0.0138512
758.062	0.0138684
758.140	0.0138554
758.218	0.0137974
758.296	0.0138392
758.374	0.0139376
758.453	0.0137909
758.531	0.0137031
758.609	0.0136977
758.687	0.0136023
758.765	0.0136658
758.843	0.0137455
758.921	0.0135571
758.999	0.0134213
759.078	0.0137030
759.156	0.0136797
759.234	0.0136212
759.312	0.0135368
759.390	0.0136712
759.468	0.0136577
759.546	0.0136639
759.624	0.0136435
759.703	0.0136008
759.781	0.0136641
759.859	0.0134874
759.937	0.0136430
760.015	0.0137481
760.093	0.0137617
760.171	0.0136927
760.249	0.0135587
760.328	0.0135872
760.406	0.0137970
760.484	0.0136414
760.562	0.0135917
760.640	0.0135345
760.718	0.0136745
760.796	0.0137598
760.874	0.0135257
760.953	0.0136536
761.031	0.0136197
761.109	0.0137212
761.187	0.0136365
761.265	0.0137038
761.343	0.0136539
761.421	0.0137513
761.499	0.0137515
761.578	0.0136926
761.656	0.0136697
761.734	0.0135685
761.812	0.0136082
761.890	0.0136797
761.968	0.0136705
762.046	0.0137242
762.124	0.0136905
762.203	0.0136829
762.281	0.0137907
762.359	0.0138052
762.437	0.0137546
762.515	0.0136462
762.593	0.0138306
762.671	0.0137194
762.749	0.0137843
762.828	0.0138047
762.906	0.0137547
762.984	0.0138874
763.062	0.0137421
763.140	0.0139449
763.218	0.0137264
763.296	0.0138940
763.374	0.0138856
763.453	0.0139894
763.531	0.0137647
763.609	0.0137461
763.687	0.0137942
763.765	0.0138802
763.843	0.0138155
763.921	0.0138187
763.999	0.0137656
764.078	0.0136812
764.156	0.0137604
764.234	0.0139647
764.312	0.0136739
764.390	0.0136164
764.468	0.0137717
764.546	0.0136584
764.624	0.0137330
764.703	0.0137052
764.781	0.0136819
764.859	0.0136309
764.937	0.0138300
765.015	0.0137759
765.093	0.0138290
765.171	0.0137739
765.249	0.0136998
765.328	0.0137900
765.406	0.0139626
765.484	0.0136941
765.562	0.0138482
765.640	0.0140421
765.718	0.0140573
765.796	0.0140628
765.874	0.0138828
765.953	0.0138885
766.031	0.0139814
766.109	0.0139793
766.187	0.0138161
766.265	0.0138738
766.343	0.0139642
766.421	0.0139612
766.499	0.0139312
766.578	0.0138406
766.656	0.0138498
766.734	0.0138834
766.812	0.0136998
766.890	0.0137534
766.968	0.0136971
767.046	0.0138117
767.124	0.0136918
767.203	0.0134698
767.281	0.0135197
767.359	0.0136706
767.437	0.0136160
767.515	0.0136978
767.593	0.0134409
767.671	0.0136164
767.749	0.0136334
767.828	0.0135635
767.906	0.0135223
767.984	0.0136111
768.062	0.0136580
768.140	0.0135641
768.218	0.0135645
768.296	0.0136143
768.374	0.0136344
768.453	0.0137681
768.531	0.0137058
768.609	0.0137954
768.687	0.0137939
768.765	0.0138454
768.843	0.0138804
768.921	0.0139590
768.999	0.0138824
769.078	0.0139822
769.156	0.0140250
769.234	0.0140231
769.312	0.0140975
769.390	0.0139704
769.468	0.0140526
769.546	0.0141409
769.624	0.0141158
769.703	0.0141463
769.781	0.0141573
769.859	0.0141592
769.937	0.0141680
770.015	0.0141217
770.093	0.0139906
770.171	0.0141657
770.249	0.0141278
770.328	0.0139384
770.406	0.0141093
770.484	0.0141470
770.562	0.0142464
770.640	0.0141798
770.718	0.0141212
770.796	0.0142283
770.874	0.0142765
770.953	0.0141585
771.031	0.0141940
771.109	0.0141665
771.187	0.0139933
771.265	0.0139457
771.343	0.0139182
771.421	0.0140661
771.499	0.0137685
771.578	0.0139561
771.656	0.0138849
771.734	0.0138096
771.812	0.0140263
771.890	0.0139982
771.968	0.0138161
772.046	0.0138187
772.124	0.0137112
772.203	0.0136443
772.281	0.0136721
772.359	0.0135134
772.437	0.0134103
772.515	0.0133135
772.593	0.0132459
772.671	0.0130968
772.749	0.0132315
772.828	0.0132331
772.906	0.0132971
772.984	0.0132178
773.062	0.0133829
773.140	0.0134488
773.218	0.0134846
773.296	0.0133768
773.374	0.0134705
773.453	0.0135582
773.531	0.0136523
773.609	0.0136424
773.687	0.0136669
773.765	0.0136791
773.843	0.0138045
773.921	0.0138447
773.999	0.0137065
774.078	0.0137508
774.156	0.0137978
774.234	0.0140051
774.312	0.0139440
774.390	0.0140051
774.468	0.0139381
774.546	0.0140150
774.624	0.0139378
774.703	0.0139024
774.781	0.0139387
774.859	0.0138712
774.937	0.0138480
775.015	0.0137708
775.093	0.0135913
775.171	0.0136079
775.249	0.0137747
775.328	0.0137840
775.406	0.0135285
775.484	0.0135125
775.562	0.0137295
775.640	0.0135487
775.718	0.0137057
775.796	0.0136929
775.874	0.0137667
775.953	0.0136385
776.031	0.0136990
776.109	0.0137970
776.187	0.0137159
776.265	0.0138566
776.343	0.0137024
776.421	0.0138028
776.499	0.0139261
776.578	0.0137831
776.656	0.0136670
776.734	0.0136036
776.812	0.0138346
776.890	0.0137899
776.968	0.0139619
777.046	0.0138824
777.124	0.0140031
777.203	0.0138689
777.281	0.0140340
777.359	0.0139857
777.437	0.0139265
777.515	0.0138795
777.593	0.0136461
777.671	0.0138092
777.749	0.0138270
777.828	0.0135917
777.906	0.0135927
777.984	0.0135526
778.062	0.0135131
778.140	0.0134934
778.218	0.0135278
778.296	0.0134669
778.374	0.0135960
778.453	0.0134354
778.531	0.0135793
778.609	0.0135294
778.687	0.0134360
778.765	0.0135153
778.843	0.0134689
778.921	0.0136964
778.999	0.0134892
779.078	0.0135001
779.156	0.0134589
779.234	0.0136964
779.312	0.0133756
779.390	0.0134753
779.468	0.0135665
779.546	0.0134977
779.624	0.0136015
779.703	0.0136054
779.781	0.0134637
779.859	0.0135745
779.937	0.0136447
780.015	0.0137477
780.093	0.0137461
780.171	0.0137827
780.249	0.0137706
780.328	0.0138932
780.406	0.0139800
780.484	0.0139803
780.562	0.0138148
780.640	0.0136185
780.718	0.0138545
780.796	0.0138470
780.874	0.0137811
780.953	0.0138773
781.031	0.0137592
781.109	0.0137103
781.187	0.0138207
781.265	0.0138251
781.343	0.0137910
781.421	0.0136056
781.499	0.0136970
781.578	0.0137563
781.656	0.0137886
781.734	0.0138094
781.812	0.0138699
781.890	0.0138818
781.968	0.0139266
782.046	0.0140750
782.124	0.0141053
782.203	0.0140436
782.281	0.0140407
782.359	0.0140324
782.437	0.0140784
782.515	0.0139265
782.593	0.0139544
782.671	0.0139673
782.749	0.0140218
782.828	0.0140047
782.906	0.0138231
782.984	0.0138425
783.062	0.0138007
783.140	0.0137949
783.218	0.0138810
783.296	0.0137677
783.374	0.0139071
783.453	0.0137279
783.531	0.0137819
783.609	0.0138357
783.687	0.0138385
783.765	0.0138397
783.843	0.0137745
783.921	0.0138314
783.999	0.0137744
784.078	0.0136478
784.156	0.0136076
784.234	0.0136356
784.312	0.0136639
784.390	0.0135784
784.468	0.0137425
784.546	0.0137788
784.624	0.0135188
784.703	0.0136214
784.781	0.0135754
784.859	0.0135818
784.937	0.0135632
785.015	0.0134596
785.093	0.0134470
785.171	0.0135822
785.249	0.0135041
785.328	0.0135638
785.406	0.0136697
785.484	0.0137744
785.562	0.0136413
785.640	0.0135430
785.718	0.0137635
785.796	0.0139035
785.874	0.0138538
785.953	0.0138719
786.031	0.0140279
786.109	0.0140736
786.187	0.0139460
786.265	0.0138702
786.343	0.0137797
786.421	0.0138422
786.499	0.0136815
786.578	0.0136178
786.656	0.0138498
786.734	0.0138425
786.812	0.0138988
786.890	0.0138078
786.968	0.0137820
787.046	0.0138475
787.124	0.0138252
787.203	0.0140574
787.281	0.0140367
787.359	0.0140657
787.437	0.0142400
787.515	0.0141605
787.593	0.0141078
787.671	0.0139163
787.749	0.0140514
787.828	0.0138738
787.906	0.0138592
787.984	0.0138924
788.062	0.0137337
788.140	0.0135589
788.218	0.0136024
788.296	0.0135030
788.374	0.0136164
788.453	0.0135304
788.531	0.0134951
788.609	0.0134971
788.687	0.0135112
788.765	0.0135755
788.843	0.0137021
788.921	0.0136703
788.999	0.0135521
789.078	0.0136111
789.156	0.0135490
789.234	0.0137409
789.312	0.0137681
789.390	0.0137027
789.468	0.0136292
789.546	0.0137070
789.624	0.0135749
789.703	0.0135874
789.781	0.0135878
789.859	0.0137136
789.937	0.0136972
790.015	0.0136726
790.093	0.0135979
790.171	0.0137370
790.249	0.0137319
790.328	0.0137606
790.406	0.0137298
790.484	0.0136976
790.562	0.0137881
790.640	0.0136408
790.718	0.0136323
790.796	0.0137527
790.874	0.0136278
790.953	0.0136241
791.031	0.0135937
791.109	0.0136674
791.187	0.0136671
791.265	0.0136300
791.343	0.0137659
791.421	0.0138652
791.499	0.0139011
791.578	0.0137597
791.656	0.0137598
791.734	0.0138782
791.812	0.0140232
791.890	0.0138765
791.968	0.0138812
792.046	0.0138084
792.124	0.0139680
792.203	0.0139225
792.281	0.0138950
792.359	0.0138355
792.437	0.0138660
792.515	0.0136851
792.593	0.0137330
792.671	0.0138593
792.749	0.0136598
792.828	0.0137883
792.906	0.0137692
792.984	0.0136285
793.062	0.0138572
793.140	0.0136582
793.218	0.0137742
793.296	0.0137891
793.374	0.0138274
793.453	0.0138335
793.531	0.0138770
793.609	0.0137493
793.687	0.0138654
793.765	0.0137950
793.843	0.0137893
793.921	0.0138628
793.999	0.0138598
794.078	0.0138576
794.156	0.0138099
794.234	0.0138192
794.312	0.0138265
794.390	0.0138876
794.468	0.0138240
794.546	0.0138274
794.624	0.0138665
794.703	0.0138746
794.781	0.0138467
794.859	0.0137511
794.937	0.0138386
795.015	0.0137492
795.093	0.0137897
795.171	0.0137767
795.249	0.0139043
795.328	0.0139775
795.406	0.0139072
795.484	0.0139078
795.562	0.0138054
795.640	0.0138307
795.718	0.0137088
795.796	0.0137250
795.874	0.0137192
795.953	0.0138091
796.031	0.0135512
796.109	0.0136126
796.187	0.0134392
796.265	0.0135352
796.343	0.0133843
796.421	0.0135452
796.499	0.0135071
796.578	0.0135488
796.656	0.0137473
796.734	0.0136881
796.812	0.0136640
796.890	0.0138644
796.968	0.0137872
797.046	0.0138624
797.124	0.0141255
797.203	0.0140221
797.281	0.0137901
797.359	0.0140555
797.437	0.0140438
797.515	0.0139396
797.593	0.0139568
797.671	0.0139544
797.749	0.0141189
797.828	0.0139428
797.906	0.0141084
797.984	0.0140466
798.062	0.0140774
798.140	0.0141511
798.218	0.0141195
798.296	0.0139707
798.374	0.0139088
798.453	0.0139097
798.531	0.0137670
798.609	0.0135381
798.687	0.0136008
798.765	0.0138061
798.843	0.0136636
798.921	0.0136274
798.999	0.0134068
799.078	0.0134191
799.156	0.0134647
799.234	0.0135037
799.312	0.0134232
799.390	0.0133858
799.468	0.0135553
799.546	0.0136441
799.624	0.0135251
799.703	0.0136298
799.781	0.0137083
799.859	0.0137313
799.937	0.0137743
800.015	0.0138290
800.093	0.0139137
800.171	0.0139296
800.249	0.0140475
800.328	0.0140421
800.406	0.0140384
800.484	0.0139967
800.562	0.0139705
800.640	0.0139208
800.718	0.0139968
800.796	0.0139380
800.874	0.0140632
800.953	0.0140007
801.031	0.0140094
801.109	0.0140524
801.187	0.0139722
801.265	0.0139724
801.343	0.0138226
801.421	0.0139629
801.499	0.0138990
801.578	0.0139218
801.656	0.0139072
801.734	0.0138041
801.812	0.0138769
801.890	0.0138678
801.968	0.0135753
802.046	0.0135069
802.124	0.0135107
802.203	0.0135231
802.281	0.0135522
802.359	0.0133818
802.437	0.0133788
802.515	0.0133180
802.593	0.0133800
802.671	0.0134218
802.749	0.0133750
802.828	0.0134740
802.906	0.0134432
802.984	0.0135323
803.062	0.0135870
803.140	0.0136312
803.218	0.0136864
803.296	0.0137334
803.374	0.0135834
803.453	0.0136840
803.531	0.0138670
803.609	0.0137046
803.687	0.0137056
803.765	0.0137176
803.843	0.0138354
803.921	0.0138921
803.999	0.0138882
804.078	0.0139268
804.156	0.0138976
804.234	0.0138840
804.312	0.0141570
804.390	0.0140694
804.468	0.0141504
804.546	0.0141658
804.624	0.0142690
804.703	0.0142683
804.781	0.0141194
804.859	0.0143069
804.937	0.0138995
805.015	0.0139426
805.093	0.0139165
805.171	0.0138474
805.249	0.0137209
805.328	0.0136424
805.406	0.0135783
805.484	0.0135260
805.562	0.0136571
805.640	0.0136803
805.718	0.0136356
805.796	0.0137769
805.874	0.0138836
805.953	0.0137742
806.031	0.0140242
806.109	0.0142002
806.187	0.0141281
806.265	0.0142386
806.343	0.0142666
806.421	0.0142323
806.499	0.0143031
806.578	0.0142846
806.656	0.0140018
806.734	0.0141274
806.812	0.0140672
806.890	0.0139616
806.968	0.0139056
807.046	0.0140458
807.124	0.0140618
807.203	0.0138749
807.281	0.0138477
807.359	0.0138985
807.437	0.0139748
807.515	0.0139635
807.593	0.0139237
807.671	0.0140582
807.749	0.0138578
807.828	0.0137848
807.906	0.0138714
807.984	0.0136182
808.062	0.0136812
808.140	0.0136298
808.218	0.0135522
808.296	0.0134252
808.374	0.0134219
808.453	0.0136538
808.531	0.0135317
808.609	0.0133958
808.687	0.0135060
808.765	0.0136651
808.843	0.0135329
808.921	0.0135741
808.999	0.0138672
809.078	0.0137634
809.156	0.0139984
809.234	0.0141391
809.312	0.0140551
809.390	0.0141241
809.468	0.0140324
809.546	0.0141339
809.624	0.0142728
809.703	0.0143411
809.781	0.0141625
809.859	0.0141492
809.937	0.0141400
810.015	0.0140354
810.093	0.0140488
810.171	0.0140604
810.249	0.0139599
810.328	0.0138065
810.406	0.0140427
810.484	0.0139216
810.562	0.0138960
810.640	0.0138499
810.718	0.0136889
810.796	0.0136467
810.874	0.0138171
810.953	0.0139175
811.031	0.0138737
811.109	0.0137296
811.187	0.0138110
811.265	0.0138393
811.343	0.0137201
811.421	0.0137972
811.499	0.0138098
811.578	0.0138754
811.656	0.0138851
811.734	0.0140694
811.812	0.0141071
811.890	0.0141198
811.968	0.0141846
812.046	0.0142884
812.124	0.0141858
812.203	0.0142227
812.281	0.0142863
812.359	0.0144042
812.437	0.0145138
812.515	0.0144810
812.593	0.0143784
812.671	0.0142725
812.749	0.0140604
812.828	0.0140809
812.906	0.0140663
812.984	0.0140385
813.062	0.0138437
813.140	0.0137228
813.218	0.0136843
813.296	0.0136112
813.374	0.0135804
813.453	0.0135554
813.531	0.0135328
813.609	0.0133916
813.687	0.0133864
813.765	0.0134808
813.843	0.0134438
813.921	0.0134756
813.999	0.0134628
814.078	0.0134608
814.156	0.0134189
814.234	0.0133327
814.312	0.0134007
814.390	0.0134634
814.468	0.0134210
814.546	0.0134323
814.624	0.0134824
814.703	0.0135840
814.781	0.0134271
814.859	0.0135223
814.937	0.0137402
815.015	0.0137931
815.093	0.0139500
815.171	0.0140308
815.249	0.0139262
815.328	0.0139621
815.406	0.0141785
815.484	0.0138831
815.562	0.0140505
815.640	0.0139982
815.718	0.0140511
815.796	0.0139766
815.874	0.0138859
815.953	0.0139924
816.031	0.0140367
816.109	0.0139993
816.187	0.0138866
816.265	0.0138029
816.343	0.0138042
816.421	0.0137865
816.499	0.0138258
816.578	0.0136817
816.656	0.0137210
816.734	0.0136439
816.812	0.0138263
816.890	0.0137237
816.968	0.0136411
817.046	0.0136328
817.124	0.0136203
817.203	0.0135987
817.281	0.0137252
817.359	0.0135786
817.437	0.0136980
817.515	0.0135584
817.593	0.0136605
817.671	0.0136665
817.749	0.0137256
817.828	0.0136606
817.906	0.0137313
817.984	0.0137814
818.062	0.0137222
818.140	0.0136314
818.218	0.0137781
818.296	0.0137185
818.374	0.0138526
818.453	0.0136913
818.531	0.0137902
818.609	0.0137901
818.687	0.0137437
818.765	0.0135880
818.843	0.0137138
818.921	0.0135762
818.999	0.0136354
819.078	0.0136755
819.156	0.0135219
819.234	0.0134853
819.312	0.0135529
819.390	0.0136365
819.468	0.0135516
819.546	0.0133332
819.624	0.0135935
819.703	0.0135498
819.781	0.0135774
819.859	0.0135886
819.937	0.0136358
820.015	0.0135179
820.093	0.0136733
820.171	0.0136863
820.249	0.0136366
820.328	0.0137525
820.406	0.0136526
820.484	0.0136939
820.562	0.0138464
820.640	0.0138379
820.718	0.0136141
820.796	0.0136334
820.874	0.0138195
820.953	0.0138423
821.031	0.0137801
821.109	0.0137869
821.187	0.0138947
821.265	0.0139110
821.343	0.0138617
821.421	0.0138328
821.499	0.0139655
821.578	0.0139883
821.656	0.0138983
821.734	0.0138974
821.812	0.0140930
821.890	0.0139953
821.968	0.0138815
822.046	0.0140098
822.124	0.0139224
822.203	0.0138829
822.281	0.0138857
822.359	0.0137302
822.437	0.0138617
822.515	0.0139204
822.593	0.0137967
822.671	0.0139070
822.749	0.0139710
822.828	0.0140014
822.906	0.0140517
822.984	0.0138736
823.062	0.0139503
823.140	0.0139654
823.218	0.0139528
823.296	0.0139520
823.374	0.0139988
823.453	0.0138551
823.531	0.0139095
823.609	0.0139739
823.687	0.0139489
823.765	0.0138673
823.843	0.0139448
823.921	0.0138525
823.999	0.0138783
824.078	0.0140028
824.156	0.0138342
824.234	0.0139247
824.312	0.0138319
824.390	0.0139935
824.468	0.0137009
824.546	0.0137818
824.624	0.0137794
824.703	0.0137384
824.781	0.0136542
824.859	0.0138021
824.937	0.0137442
825.015	0.0137955
825.093	0.0136763
825.171	0.0137188
825.249	0.0138087
825.328	0.0137712
825.406	0.0137764
825.484	0.0137740
825.562	0.0140166
825.640	0.0138632
825.718	0.0138844
825.796	0.0139070
825.874	0.0139049
825.953	0.0139274
826.031	0.0140695
826.109	0.0139149
826.187	0.0138052
826.265	0.0137772
826.343	0.0139021
826.421	0.0140230
826.499	0.0138180
826.578	0.0138080
826.656	0.0138277
826.734	0.0139565
826.812	0.0139730
826.890	0.0138082
826.968	0.0138127
827.046	0.0137161
827.124	0.0137517
827.203	0.0137854
827.281	0.0137769
827.359	0.0137182
827.437	0.0137248
827.515	0.0136983
827.593	0.0137322
827.671	0.0137673
827.749	0.0139231
827.828	0.0139525
827.906	0.0138373
827.984	0.0139180
828.062	0.0138400
828.140	0.0137424
828.218	0.0137901
828.296	0.0139530
828.374	0.0139051
828.453	0.0138857
828.531	0.0138300
828.609	0.0138682
828.687	0.0140425
828.765	0.0139256
828.843	0.0138305
828.921	0.0138857
828.999	0.0139417
829.078	0.0138322
829.156	0.0140044
829.234	0.0141503
829.312	0.0141113
829.390	0.0141082
829.468	0.0139594
829.546	0.0140917
829.624	0.0139558
829.703	0.0138749
829.781	0.0138563
829.859	0.0138014
829.937	0.0137320
830.015	0.0137320
830.093	0.0137042
830.171	0.0137362
830.249	0.0137904
830.328	0.0138897
830.406	0.0136415
830.484	0.0137117
830.562	0.0138104
830.640	0.0139207
830.718	0.0139640
830.796	0.0139799
830.874	0.0138496
830.953	0.0139521
831.031	0.0139725
831.109	0.0139294
831.187	0.0138932
831.265	0.0140554
831.343	0.0140296
831.421	0.0140137
831.499	0.0140294
831.578	0.0140585
831.656	0.0139732
831.734	0.0139761
831.812	0.0140688
831.890	0.0141245
831.968	0.0141519
832.046	0.0140357
832.124	0.0140739
832.203	0.0141761
832.281	0.0139921
832.359	0.0139999
832.437	0.0140716
832.515	0.0139806
832.593	0.0139664
832.671	0.0138911
832.749	0.0138896
832.828	0.0138524
832.906	0.0140498
832.984	0.0139720
833.062	0.0137973
833.140	0.0138460
833.218	0.0138303
833.296	0.0137887
833.374	0.0136757
833.453	0.0138508
833.531	0.0137980
833.609	0.0136732
833.687	0.0139408
833.765	0.0138226
833.843	0.0136885
833.921	0.0137499
833.999	0.0137249
834.078	0.0136972
834.156	0.0136244
834.234	0.0137848
834.312	0.0136957
834.390	0.0137701
834.468	0.0136372
834.546	0.0135642
834.624	0.0137211
834.703	0.0138489
834.781	0.0138093
834.859	0.0137857
834.937	0.0138364
835.015	0.0138279
835.093	0.0139471
835.171	0.0138394
835.249	0.0137261
835.328	0.0137775
835.406	0.0137749
835.484	0.0136863
835.562	0.0137217
835.640	0.0137475
835.718	0.0137484
835.796	0.0137795
835.874	0.0137543
835.953	0.0137537
836.031	0.0138234
836.109	0.0138946
836.187	0.0138785
836.265	0.0136903
836.343	0.0138296
836.421	0.0137615
836.499	0.0137753
836.578	0.0136851
836.656	0.0137868
836.734	0.0137991
836.812	0.0138421
836.890	0.0137813
836.968	0.0136609
837.046	0.0136140
837.124	0.0136942
837.203	0.0135681
837.281	0.0136823
837.359	0.0137796
837.437	0.0136087
837.515	0.0135300
837.593	0.0137508
837.671	0.0137833
837.749	0.0138187
837.828	0.0138126
837.906	0.0136470
837.984	0.0136092
838.062	0.0136981
838.140	0.0138225
838.218	0.0138259
838.296	0.0138933
838.374	0.0138755
838.453	0.0137936
838.531	0.0138151
838.609	0.0139478
838.687	0.0139412
838.765	0.0139181
838.843	0.0140060
838.921	0.0139040
838.999	0.0139442
839.078	0.0138296
839.156	0.0137530
839.234	0.0139088
839.312	0.0138505
839.390	0.0134141
839.468	0.0137877
839.546	0.0135959
839.624	0.0137817
839.703	0.0136713
839.781	0.0135075
839.859	0.0135813
839.937	0.0136817
840.015	0.0135294
840.093	0.0134112
840.171	0.0136544
840.249	0.0135466
840.328	0.0135641
840.406	0.0134555
840.484	0.0135661
840.562	0.0136144
840.640	0.0136869
840.718	0.0136653
840.796	0.0137128
840.874	0.0135629
840.953	0.0137611
841.031	0.0137124
841.109	0.0136397
841.187	0.0136629
841.265	0.0137715
841.343	0.0138674
841.421	0.0137233
841.499	0.0137498
841.578	0.0136914
841.656	0.0136496
841.734	0.0138016
841.812	0.0137154
841.890	0.0136845
841.968	0.0137004
842.046	0.0136454
842.124	0.0137951
842.203	0.0138881
842.281	0.0136779
842.359	0.0138432
842.437	0.0136972
842.515	0.0137783
842.593	0.0137395
842.671	0.0138154
842.749	0.0137569
842.828	0.0138933
842.906	0.0138517
842.984	0.0137231
843.062	0.0137761
843.140	0.0137376
843.218	0.0137946
843.296	0.0137300
843.374	0.0136707
843.453	0.0135815
843.531	0.0136155
843.609	0.0137283
843.687	0.0136243
843.765	0.0136300
843.843	0.0136382
843.921	0.0136641
843.999	0.0135162
844.078	0.0134715
844.156	0.0135893
844.234	0.0136391
844.312	0.0135923
844.390	0.0135408
844.468	0.0135251
844.546	0.0136240
844.624	0.0136420
844.703	0.0136209
844.781	0.0136375
844.859	0.0135815
844.937	0.0135935
845.015	0.0136095
845.093	0.0136632
845.171	0.0135814
845.249	0.0136723
845.328	0.0136633
845.406	0.0136319
845.484	0.0137490
845.562	0.0137525
845.640	0.0138122
845.718	0.0137205
845.796	0.0136280
845.874	0.0138291
845.953	0.0136788
846.031	0.0138811
846.109	0.0136769
846.187	0.0137288
846.265	0.0139058
846.343	0.0139254
846.421	0.0139817
846.499	0.0139162
846.578	0.0139459
846.656	0.0140285
846.734	0.0140030
846.812	0.0143551
846.890	0.0141247
846.968	0.0141904
847.046	0.0142947
847.124	0.0141717
847.203	0.0142044
847.281	0.0142233
847.359	0.0141595
847.437	0.0140453
847.515	0.0142349
847.593	0.0142076
847.671	0.0141448
847.749	0.0140668
847.828	0.0140288
847.906	0.0139941
847.984	0.0141431
848.062	0.0139711
848.140	0.0139146
848.218	0.0139789
848.296	0.0138375
848.374	0.0137247
848.453	0.0137939
848.531	0.0138092
848.609	0.0138018
848.687	0.0136247
848.765	0.0135443
848.843	0.0135777
848.921	0.0133536
848.999	0.0136071
849.078	0.0137314
849.156	0.0135678
849.234	0.0136104
849.312	0.0135917
849.390	0.0135423
849.468	0.0135880
849.546	0.0136526
849.624	0.0137025
849.703	0.0138060
849.781	0.0137850
849.859	0.0138056
849.937	0.0137524
850.015	0.0137854
850.093	0.0137588
850.171	0.0139148
850.249	0.0138071
850.328	0.0136884
850.406	0.0139109
850.484	0.0136934
850.562	0.0138503
850.640	0.0138355
850.718	0.0136909
850.796	0.0138379
850.874	0.0139265
850.953	0.0137815
851.031	0.0138698
851.109	0.0138204
851.187	0.0137106
851.265	0.0138098
851.343	0.0139338
851.421	0.0138663
851.499	0.0136815
851.578	0.0137115
851.656	0.0138021
851.734	0.0138459
851.812	0.0139781
851.890	0.0139511
851.968	0.0138112
852.046	0.0139433
852.124	0.0138990
852.203	0.0139115
852.281	0.0138205
852.359	0.0138882
852.437	0.0138882
852.515	0.0138834
852.593	0.0137995
852.671	0.0137202
852.749	0.0139304
852.828	0.0139074
852.906	0.0138842
852.984	0.0138796
853.062	0.0138964
853.140	0.0138742
853.218	0.0139913
853.296	0.0139335
853.374	0.0138740
853.453	0.0138242
853.531	0.0138863
853.609	0.0138564
853.687	0.0140097
853.765	0.0139523
853.843	0.0138066
853.921	0.0138767
853.999	0.0139374
854.078	0.0138885
854.156	0.0138976
854.234	0.0139169
854.312	0.0138821
854.390	0.0138787
854.468	0.0137609
854.546	0.0139086
854.624	0.0138157
854.703	0.0138594
854.781	0.0139445
854.859	0.0138617
854.937	0.0138102
855.015	0.0138743
855.093	0.0138261
855.171	0.0137478
855.249	0.0138891
855.328	0.0137948
855.406	0.0139433
855.484	0.0137842
855.562	0.0137198
855.640	0.0137098
855.718	0.0139270
855.796	0.0139581
855.874	0.0138352
855.953	0.0137700
856.031	0.0139319
856.109	0.0139174
856.187	0.0138366
856.265	0.0136788
856.343	0.0137132
856.421	0.0138657
856.499	0.0137726
856.578	0.0136210
856.656	0.0137896
856.734	0.0138076
856.812	0.0136700
856.890	0.0138103
856.968	0.0136684
857.046	0.0137033
857.124	0.0136735
857.203	0.0136819
857.281	0.0136835
857.359	0.0138070
857.437	0.0137303
857.515	0.0137721
857.593	0.0139028
857.671	0.0137892
857.749	0.0137486
857.828	0.0138838
857.906	0.0139339
857.984	0.0140099
858.062	0.0137643
858.140	0.0136966
858.218	0.0137115
858.296	0.0136765
858.374	0.0137196
858.453	0.0137859
858.531	0.0137836
858.609	0.0135803
858.687	0.0136594
858.765	0.0137258
858.843	0.0136786
858.921	0.0137051
858.999	0.0135676
859.078	0.0136423
859.156	0.0137208
859.234	0.0137033
859.312	0.0137368
859.390	0.0137740
859.468	0.0138065
859.546	0.0136893
859.624	0.0137854
859.703	0.0137305
859.781	0.0137971
859.859	0.0138847
859.937	0.0138375
860.015	0.0137455
860.093	0.0137367
860.171	0.0138862
860.249	0.0138053
860.328	0.0138367
860.406	0.0139182
860.484	0.0138021
860.562	0.0138776
860.640	0.0139685
860.718	0.0139588
860.796	0.0139408
860.874	0.0139100
860.953	0.0139463
861.031	0.0137986
861.109	0.0139238
861.187	0.0140845
861.265	0.0138217
861.343	0.0137906
861.421	0.0138132
861.499	0.0138324
861.578	0.0138126
861.656	0.0138498
861.734	0.0138155
861.812	0.0136793
861.890	0.0137514
861.968	0.0136919
862.046	0.0137798
862.124	0.0136677
862.203	0.0136105
862.281	0.0136993
862.359	0.0137119
862.437	0.0136987
862.515	0.0136443
862.593	0.0134933
862.671	0.0136222
862.749	0.0135456
862.828	0.0135989
862.906	0.0138246
862.984	0.0135746
863.062	0.0136044
863.140	0.0136363
863.218	0.0138050
863.296	0.0137086
863.374	0.0137599
863.453	0.0138231
863.531	0.0136275
863.609	0.0136229
863.687	0.0136458
863.765	0.0136352
863.843	0.0136720
863.921	0.0137463
863.999	0.0137325
864.078	0.0137476
864.156	0.0136395
864.234	0.0137919
864.312	0.0136014
864.390	0.0137139
864.468	0.0137234
864.546	0.0137337
864.624	0.0136792
864.703	0.0137240
864.781	0.0137308
864.859	0.0136117
864.937	0.0136111
865.015	0.0137576
865.093	0.0136807
865.171	0.0135831
865.249	0.0136324
865.328	0.0137710
865.406	0.0137332
865.484	0.0137627
865.562	0.0136635
865.640	0.0136835
865.718	0.0137905
865.796	0.0137597
865.874	0.0138324
865.953	0.0137566
866.031	0.0138210
866.109	0.0137699
866.187	0.0137405
866.265	0.0137733
866.343	0.0139441
866.421	0.0138041
866.499	0.0139497
866.578	0.0139185
866.656	0.0138221
866.734	0.0138963
866.812	0.0138707
866.890	0.0138264
866.968	0.0137372
867.046	0.0136901
867.124	0.0137471
867.203	0.0137137
867.281	0.0137475
867.359	0.0136781
867.437	0.0136147
867.515	0.0137193
867.593	0.0136807
867.671	0.0137797
867.749	0.0137517
867.828	0.0136504
867.906	0.0137788
867.984	0.0136645
868.062	0.0138129
868.140	0.0136904
868.218	0.0137168
868.296	0.0137185
868.374	0.0136898
868.453	0.0137454
868.531	0.0138496
868.609	0.0138356
868.687	0.0138911
868.765	0.0136520
868.843	0.0137580
868.921	0.0136254
868.999	0.0137188
869.078	0.0138177
869.156	0.0137532
869.234	0.0136398
869.312	0.0136835
869.390	0.0138830
869.468	0.0139259
869.546	0.0138699
869.624	0.0137408
869.703	0.0138022
869.781	0.0139423
869.859	0.0138649
869.937	0.0138403
870.015	0.0138547
870.093	0.0138184
870.171	0.0139161
870.249	0.0138023
870.328	0.0136942
870.406	0.0136663
870.484	0.0138819
870.562	0.0139881
870.640	0.0138562
870.718	0.0136906
870.796	0.0139805
870.874	0.0138298
870.953	0.0138862
871.031	0.0137688
871.109	0.0136559
871.187	0.0138775
871.265	0.0138154
871.343	0.0138917
871.421	0.0138905
871.499	0.0138815
871.578	0.0138161
871.656	0.0137881
871.734	0.0139469
871.812	0.0138553
871.890	0.0138097
871.968	0.0139204
872.046	0.0138384
872.124	0.0137449
872.203	0.0137939
872.281	0.0137444
872.359	0.0136761
872.437	0.0137920
872.515	0.0136937
872.593	0.0137939
872.671	0.0137051
872.749	0.0137291
872.828	0.0137590
872.906	0.0137572
872.984	0.0137704
873.062	0.0137548
873.140	0.0136836
873.218	0.0135452
873.296	0.0137318
873.374	0.0138107
873.453	0.0137212
873.531	0.0136993
873.609	0.0137829
873.687	0.0138099
873.765	0.0138209
873.843	0.0138560
873.921	0.0139653
873.999	0.0139465
874.078	0.0138477
874.156	0.0138338
874.234	0.0138111
874.312	0.0137833
874.390	0.0138155
874.468	0.0139474
874.546	0.0137844
874.624	0.0138524
874.703	0.0140083
874.781	0.0138789
874.859	0.0138531
874.937	0.0138519
875.015	0.0138005
875.093	0.0138387
875.171	0.0136630
875.249	0.0137200
875.328	0.0136691
875.406	0.0137601
875.484	0.0137747
875.562	0.0137838
875.640	0.0137619
875.718	0.0138120
875.796	0.0138627
875.874	0.0138351
875.953	0.0137415
876.031	0.0138699
876.109	0.0138082
876.187	0.0136217
876.265	0.0136904
876.343	0.0137679
876.421	0.0138755
876.499	0.0136810
876.578	0.0138779
876.656	0.0137878
876.734	0.0138241
876.812	0.0137817
876.890	0.0138629
876.968	0.0138601
877.046	0.0139442
877.124	0.0137817
877.203	0.0139982
877.281	0.0139062
877.359	0.0139426
877.437	0.0139252
877.515	0.0137922
877.593	0.0140486
877.671	0.0140824
877.749	0.0140143
877.828	0.0139054
877.906	0.0138150
877.984	0.0138921
878.062	0.0140143
878.140	0.0140435
878.218	0.0139722
878.296	0.0138515
878.374	0.0138969
878.453	0.0139324
878.531	0.0139449
878.609	0.0140178
878.687	0.0139713
878.765	0.0140156
878.843	0.0138786
878.921	0.0140192
878.999	0.0139503
879.078	0.0139229
879.156	0.0139571
879.234	0.0139473
879.312	0.0140248
879.390	0.0139426
879.468	0.0139085
879.546	0.0138615
879.624	0.0139311
879.703	0.0140054
879.781	0.0139581
879.859	0.0138349
879.937	0.0138950
880.015	0.0139912
880.093	0.0138488
880.171	0.0138207
880.249	0.0138950
880.328	0.0138977
880.406	0.0138420
880.484	0.0138600
880.562	0.0137327
880.640	0.0137521
880.718	0.0137512
880.796	0.0135580
880.874	0.0137015
880.953	0.0137911
881.031	0.0138231
881.109	0.0136853
881.187	0.0136710
881.265	0.0137348
881.343	0.0137991
881.421	0.0136087
881.499	0.0136539
881.578	0.0138259
881.656	0.0138824
881.734	0.0139767
881.812	0.0139061
881.890	0.0139143
881.968	0.0139343
882.046	0.0140436
882.124	0.0139534
882.203	0.0140896
882.281	0.0138461
882.359	0.0140108
882.437	0.0140808
882.515	0.0139962
882.593	0.0141507
882.671	0.0141007
882.749	0.0140546
882.828	0.0139086
882.906	0.0138853
882.984	0.0137463
883.062	0.0138535
883.140	0.0139156
883.218	0.0138537
883.296	0.0137420
883.374	0.0138124
883.453	0.0139713
883.531	0.0137572
883.609	0.0136397
883.687	0.0138588
883.765	0.0137985
883.843	0.0137565
883.921	0.0138572
883.999	0.0137102
884.078	0.0137330
884.156	0.0136552
884.234	0.0136194
884.312	0.0137508
884.390	0.0136786
884.468	0.0135656
884.546	0.0137611
884.624	0.0136631
884.703	0.0136510
884.781	0.0138229
884.859	0.0137988
884.937	0.0138712
885.015	0.0137882
885.093	0.0139123
885.171	0.0138917
885.249	0.0138143
885.328	0.0138576
885.406	0.0139478
885.484	0.0137082
885.562	0.0137495
885.640	0.0138723
885.718	0.0138101
885.796	0.0139706
885.874	0.0138230
885.953	0.0139310
886.031	0.0138605
886.109	0.0139598
886.187	0.0139398
886.265	0.0139478
886.343	0.0140119
886.421	0.0138672
886.499	0.0139535
886.578	0.0139548
886.656	0.0138764
886.734	0.0137554
886.812	0.0140488
886.890	0.0139541
886.968	0.0139803
887.046	0.0138363
887.124	0.0139597
887.203	0.0139213
887.281	0.0137519
887.359	0.0137692
887.437	0.0138305
887.515	0.0138702
887.593	0.0136803
887.671	0.0137225
887.749	0.0137678
887.828	0.0138660
887.906	0.0137734
887.984	0.0138017
888.062	0.0137920
888.140	0.0138097
888.218	0.0138531
888.296	0.0138383
888.374	0.0137673
888.453	0.0137357
888.531	0.0138444
888.609	0.0137951
888.687	0.0137512
888.765	0.0137404
888.843	0.0137831
888.921	0.0138127
888.999	0.0136834
889.078	0.0138287
889.156	0.0137859
889.234	0.0138265
889.312	0.0137890
889.390	0.0137368
889.468	0.0139391
889.546	0.0137668
889.624	0.0138076
889.703	0.0138143
889.781	0.0137719
889.859	0.0138789
889.937	0.0138052
890.015	0.0139153
890.093	0.0137616
890.171	0.0138290
890.249	0.0139092
890.328	0.0138519
890.406	0.0138259
890.484	0.0137569
890.562	0.0138013
890.640	0.0137801
890.718	0.0138521
890.796	0.0139807
890.874	0.0137811
890.953	0.0135835
891.031	0.0137321
891.109	0.0137463
891.187	0.0138231
891.265	0.0138390
891.343	0.0137232
891.421	0.0137829
891.499	0.0138501
891.578	0.0137732
891.656	0.0138055
891.734	0.0138272
891.812	0.0139324
891.890	0.0138223
891.968	0.0138121
892.046	0.0137611
892.124	0.0136623
892.203	0.0137831
892.281	0.0138041
892.359	0.0137548
892.437	0.0137225
892.515	0.0137550
892.593	0.0138404
892.671	0.0137724
892.749	0.0137677
892.828	0.0137267
892.906	0.0136817
892.984	0.0137078
893.062	0.0136520
893.140	0.0138796
893.218	0.0138848
893.296	0.0139965
893.374	0.0138558
893.453	0.0138528
893.531	0.0137997
893.609	0.0139659
893.687	0.0138290
893.765	0.0138078
893.843	0.0135795
893.921	0.0136520
893.999	0.0138956
894.078	0.0137973
894.156	0.0138078
894.234	0.0137336
894.312	0.0137270
894.390	0.0137190
894.468	0.0137609
894.546	0.0137318
894.624	0.0137526
894.703	0.0135851
894.781	0.0136710
894.859	0.0137604
894.937	0.0136813
895.015	0.0135505
895.093	0.0137247
895.171	0.0137116
895.249	0.0136586
895.328	0.0137235
895.406	0.0137183
895.484	0.0137296
895.562	0.0137334
895.640	0.0138145
895.718	0.0137617
895.796	0.0138280
895.874	0.0138216
895.953	0.0138295
896.031	0.0138248
896.109	0.0138157
896.187	0.0136731
896.265	0.0137351
896.343	0.0138403
896.421	0.0137165
896.499	0.0136660
896.578	0.0138530
896.656	0.0138573
896.734	0.0138583
896.812	0.0139494
896.890	0.0137143
896.968	0.0137125
897.046	0.0138921
897.124	0.0139263
897.203	0.0137951
897.281	0.0139656
897.359	0.0138669
897.437	0.0137513
897.515	0.0138138
897.593	0.0139603
897.671	0.0138876
897.749	0.0137690
897.828	0.0138213
897.906	0.0138191
897.984	0.0139099
898.062	0.0138161
898.140	0.0138490
898.218	0.0138426
898.296	0.0138706
898.374	0.0137173
898.453	0.0136719
898.531	0.0137714
898.609	0.0137679
898.687	0.0139363
898.765	0.0137077
898.843	0.0136732
898.921	0.0138335
898.999	0.0136630
899.078	0.0136275
899.156	0.0137526
899.234	0.0136371
899.312	0.0136124
899.390	0.0136045
899.468	0.0135601
899.546	0.0135486
899.624	0.0134791
899.703	0.0134666
899.781	0.0135425
899.859	0.0135040
899.937	0.0135502
900.015	0.0134189
900.093	0.0134486
900.171	0.0133661
900.249	0.0133788
900.328	0.0134483
900.406	0.0134848
900.484	0.0133164
900.562	0.0133897
900.640	0.0134315
900.718	0.0135635
900.796	0.0136100
900.874	0.0135098
900.953	0.0135854
901.031	0.0135417
901.109	0.0134887
901.187	0.0135249
901.265	0.0135976
901.343	0.0136730
901.421	0.0136954
901.499	0.0136822
901.578	0.0136469
901.656	0.0138300
901.734	0.0136805
901.812	0.0137214
901.890	0.0137249
901.968	0.0138006
902.046	0.0139568
902.124	0.0140362
902.203	0.0140488
902.281	0.0139919
902.359	0.0140700
902.437	0.0139960
902.515	0.0139650
902.593	0.0140269
902.671	0.0141019
902.749	0.0141700
902.828	0.0142813
902.906	0.0140971
902.984	0.0142378
903.062	0.0142421
903.140	0.0141488
903.218	0.0143032
903.296	0.0143406
903.374	0.0141393
903.453	0.0142505
903.531	0.0143082
903.609	0.0143974
903.687	0.0141979
903.765	0.0139761
903.843	0.0140401
903.921	0.0140735
903.999	0.0141006
904.078	0.0139708
904.156	0.0140123
904.234	0.0141637
904.312	0.0139551
904.390	0.0138990
904.468	0.0138638
904.546	0.0139603
904.624	0.0138858
904.703	0.0139486
904.781	0.0138931
904.859	0.0139224
904.937	0.0136839
905.015	0.0138033
905.093	0.0138339
905.171	0.0138165
905.249	0.0136819
905.328	0.0137723
905.406	0.0137522
905.484	0.0138041
905.562	0.0138455
905.640	0.0137153
905.718	0.0138783
905.796	0.0136647
905.874	0.0137492
905.953	0.0137706
906.031	0.0138102
906.109	0.0138475
906.187	0.0136653
906.265	0.0139952
906.343	0.0137958
906.421	0.0139207
906.499	0.0139906
906.578	0.0139284
906.656	0.0139141
906.734	0.0138540
906.812	0.0138481
906.890	0.0138683
906.968	0.0138298
907.046	0.0139114
907.124	0.0139189
907.203	0.0137447
907.281	0.0138464
907.359	0.0138444
907.437	0.0139052
907.515	0.0137761
907.593	0.0137593
907.671	0.0136713
907.749	0.0139120
907.828	0.0137245
907.906	0.0137280
907.984	0.0136894
908.062	0.0136520
908.140	0.0137305
908.218	0.0136820
908.296	0.0135704
908.374	0.0137406
908.453	0.0137898
908.531	0.0137232
908.609	0.0133697
908.687	0.0136372
908.765	0.0136509
908.843	0.0135723
908.921	0.0136097
908.999	0.0136846
909.078	0.0136884
909.156	0.0137598
909.234	0.0137449
909.312	0.0135913
909.390	0.0137056
909.468	0.0136922
909.546	0.0137534
909.624	0.0136935
909.703	0.0137197
909.781	0.0134982
909.859	0.0136736
909.937	0.0137489
910.015	0.0137453
910.093	0.0138280
910.171	0.0138785
910.249	0.0138850
910.328	0.0139290
910.406	0.0140517
910.484	0.0140454
910.562	0.0139835
910.640	0.0139444
910.718	0.0140039
910.796	0.0140682
910.874	0.0139482
910.953	0.0138727
911.031	0.0138462
911.109	0.0140614
911.187	0.0139436
911.265	0.0138346
911.343	0.0138009
911.421	0.0139473
911.499	0.0137087
911.578	0.0138136
911.656	0.0139337
911.734	0.0138007
911.812	0.0137530
911.890	0.0138300
911.968	0.0137714
912.046	0.0138058
912.124	0.0136242
912.203	0.0138251
912.281	0.0137962
912.359	0.0137898
912.437	0.0138081
912.515	0.0137412
912.593	0.0137074
912.671	0.0137934
912.749	0.0137862
912.828	0.0137628
912.906	0.0138834
912.984	0.0137150
913.062	0.0136577
913.140	0.0137447
913.218	0.0136833
913.296	0.0137560
913.374	0.0137622
913.453	0.0137508
913.531	0.0136494
913.609	0.0136879
913.687	0.0137976
913.765	0.0136915
913.843	0.0137260
913.921	0.0137210
913.999	0.0137547
914.078	0.0139262
914.156	0.0139555
914.234	0.0138076
914.312	0.0137901
914.390	0.0139362
914.468	0.0138248
914.546	0.0137981
914.624	0.0138406
914.703	0.0139750
914.781	0.0137415
914.859	0.0138942
914.937	0.0139661
915.015	0.0139501
915.093	0.0139059
915.171	0.0139900
915.249	0.0139949
915.328	0.0140881
915.406	0.0138519
915.484	0.0138868
915.562	0.0139336
915.640	0.0141904
915.718	0.0140744
915.796	0.0139162
915.874	0.0140615
915.953	0.0138770
916.031	0.0139587
916.109	0.0139171
916.187	0.0139256
916.265	0.0138898
916.343	0.0137757
916.421	0.0139248
916.499	0.0138013
916.578	0.0138010
916.656	0.0138271
916.734	0.0139609
916.812	0.0137981
916.890	0.0139505
916.968	0.0137694
917.046	0.0137330
917.124	0.0137926
917.203	0.0138138
917.281	0.0138261
917.359	0.0139304
917.437	0.0139046
917.515	0.0140116
917.593	0.0138884
917.671	0.0139292
917.749	0.0139000
917.828	0.0139392
917.906	0.0138705
917.984	0.0139357
918.062	0.0140128
918.140	0.0140712
918.218	0.0140571
918.296	0.0139373
918.374	0.0140774
918.453	0.0139754
918.531	0.0140260
918.609	0.0140047
918.687	0.0138680
918.765	0.0139536
918.843	0.0140280
918.921	0.0139964
918.999	0.0140285
919.078	0.0139659
919.156	0.0137888
919.234	0.0138146
919.312	0.0137972
919.390	0.0137469
919.468	0.0137632
919.546	0.0137379
919.624	0.0138483
919.703	0.0136866
919.781	0.0136245
919.859	0.0135112
919.937	0.0135446
