05/08/2022	19:34:19	Ver.	4.1	UNKNOWN
Optical Delay	649.989667	Delta X		0.078125	Sweeps	1	Scan Rate	0/0
Coordinates	Axis 1	NaN	Axis 2	NaN	Axis 3	NaN	Axis 4	NaN	Axis 5	NaN	Axis 6	0.000000
TX Power	0.000000	RX Power	0.000000

649.990	0.0135687
650.068	0.0135951
650.146	0.0135004
650.224	0.0136440
650.302	0.0136724
650.380	0.0135572
650.458	0.0136398
650.537	0.0136657
650.615	0.0135641
650.693	0.0136341
650.771	0.0136919
650.849	0.0136293
650.927	0.0136372
651.005	0.0136739
651.083	0.0137041
651.162	0.0136630
651.240	0.0135223
651.318	0.0136494
651.396	0.0134638
651.474	0.0136200
651.552	0.0136683
651.630	0.0136181
651.708	0.0135781
651.787	0.0135590
651.865	0.0137077
651.943	0.0135368
652.021	0.0136111
652.099	0.0135014
652.177	0.0135615
652.255	0.0135258
652.333	0.0135808
652.412	0.0136053
652.490	0.0136198
652.568	0.0136143
652.646	0.0135895
652.724	0.0137064
652.802	0.0136034
652.880	0.0135879
652.958	0.0136171
653.037	0.0136140
653.115	0.0135949
653.193	0.0137356
653.271	0.0135476
653.349	0.0135556
653.427	0.0137212
653.505	0.0136490
653.583	0.0135229
653.662	0.0135875
653.740	0.0135896
653.818	0.0136867
653.896	0.0135371
653.974	0.0135957
654.052	0.0135418
654.130	0.0136444
654.208	0.0135323
654.287	0.0134985
654.365	0.0135461
654.443	0.0136919
654.521	0.0135913
654.599	0.0138049
654.677	0.0136449
654.755	0.0135774
654.833	0.0135859
654.912	0.0136382
654.990	0.0136472
655.068	0.0136585
655.146	0.0137568
655.224	0.0136106
655.302	0.0137679
655.380	0.0136467
655.458	0.0135780
655.537	0.0134917
655.615	0.0136029
655.693	0.0135950
655.771	0.0135806
655.849	0.0135760
655.927	0.0135931
656.005	0.0136810
656.083	0.0136840
656.162	0.0136143
656.240	0.0135679
656.318	0.0136240
656.396	0.0136169
656.474	0.0137817
656.552	0.0137847
656.630	0.0136465
656.708	0.0134863
656.787	0.0136861
656.865	0.0135971
656.943	0.0136752
657.021	0.0135831
657.099	0.0136465
657.177	0.0136167
657.255	0.0135738
657.333	0.0137371
657.412	0.0136461
657.490	0.0136108
657.568	0.0135713
657.646	0.0135939
657.724	0.0135371
657.802	0.0135090
657.880	0.0136674
657.958	0.0137998
658.037	0.0136195
658.115	0.0136694
658.193	0.0137171
658.271	0.0137016
658.349	0.0134445
658.427	0.0135558
658.505	0.0136355
658.583	0.0136239
658.662	0.0136974
658.740	0.0136735
658.818	0.0136269
658.896	0.0135903
658.974	0.0136848
659.052	0.0135668
659.130	0.0137119
659.208	0.0136350
659.287	0.0136794
659.365	0.0135953
659.443	0.0135810
659.521	0.0136897
659.599	0.0135537
659.677	0.0135609
659.755	0.0135050
659.833	0.0136465
659.912	0.0136201
659.990	0.0137313
660.068	0.0136774
660.146	0.0134823
660.224	0.0135288
660.302	0.0135929
660.380	0.0133953
660.458	0.0135802
660.537	0.0135579
660.615	0.0137003
660.693	0.0136530
660.771	0.0135726
660.849	0.0135185
660.927	0.0135130
661.005	0.0135018
661.083	0.0136315
661.162	0.0135854
661.240	0.0134303
661.318	0.0135860
661.396	0.0136028
661.474	0.0135491
661.552	0.0136266
661.630	0.0137492
661.708	0.0136823
661.787	0.0135664
661.865	0.0135214
661.943	0.0135750
662.021	0.0136100
662.099	0.0136031
662.177	0.0136279
662.255	0.0133877
662.333	0.0135547
662.412	0.0135973
662.490	0.0136669
662.568	0.0135629
662.646	0.0135216
662.724	0.0136963
662.802	0.0134141
662.880	0.0137252
662.958	0.0135270
663.037	0.0135266
663.115	0.0136233
663.193	0.0136282
663.271	0.0135206
663.349	0.0135822
663.427	0.0135987
663.505	0.0134805
663.583	0.0134232
663.662	0.0135120
663.740	0.0136671
663.818	0.0135652
663.896	0.0135618
663.974	0.0136003
664.052	0.0135567
664.130	0.0136411
664.208	0.0135631
664.287	0.0134543
664.365	0.0135722
664.443	0.0136780
664.521	0.0134734
664.599	0.0136092
664.677	0.0136208
664.755	0.0134209
664.833	0.0135068
664.912	0.0135981
664.990	0.0135784
665.068	0.0135688
665.146	0.0135720
665.224	0.0134949
665.302	0.0136681
665.380	0.0135323
665.458	0.0135628
665.537	0.0136074
665.615	0.0136037
665.693	0.0136758
665.771	0.0135378
665.849	0.0136954
665.927	0.0135288
666.005	0.0135951
666.083	0.0136151
666.162	0.0135914
666.240	0.0135999
666.318	0.0135757
666.396	0.0135255
666.474	0.0134785
666.552	0.0135101
666.630	0.0135355
666.708	0.0134548
666.787	0.0136150
666.865	0.0136628
666.943	0.0136439
667.021	0.0134806
667.099	0.0135564
667.177	0.0135238
667.255	0.0136453
667.333	0.0136187
667.412	0.0134975
667.490	0.0135670
667.568	0.0135439
667.646	0.0135940
667.724	0.0134986
667.802	0.0135849
667.880	0.0135205
667.958	0.0135794
668.037	0.0135486
668.115	0.0135362
668.193	0.0135152
668.271	0.0135803
668.349	0.0136265
668.427	0.0136035
668.505	0.0136061
668.583	0.0135690
668.662	0.0135624
668.740	0.0136161
668.818	0.0135999
668.896	0.0136694
668.974	0.0136630
669.052	0.0135031
669.130	0.0134367
669.208	0.0134801
669.287	0.0136077
669.365	0.0135426
669.443	0.0135772
669.521	0.0136307
669.599	0.0136322
669.677	0.0136440
669.755	0.0135157
669.833	0.0135617
669.912	0.0136055
669.990	0.0135433
670.068	0.0135336
670.146	0.0136119
670.224	0.0135781
670.302	0.0135875
670.380	0.0135712
670.458	0.0135986
670.537	0.0135342
670.615	0.0136917
670.693	0.0136320
670.771	0.0137163
670.849	0.0135715
670.927	0.0135725
671.005	0.0135880
671.083	0.0138299
671.162	0.0136557
671.240	0.0136724
671.318	0.0137642
671.396	0.0136074
671.474	0.0137685
671.552	0.0136192
671.630	0.0136128
671.708	0.0136906
671.787	0.0137432
671.865	0.0137380
671.943	0.0136102
672.021	0.0135801
672.099	0.0136725
672.177	0.0137630
672.255	0.0137710
672.333	0.0136686
672.412	0.0135949
672.490	0.0137334
672.568	0.0136789
672.646	0.0135737
672.724	0.0136743
672.802	0.0136969
672.880	0.0136870
672.958	0.0136681
673.037	0.0135839
673.115	0.0136806
673.193	0.0137228
673.271	0.0137404
673.349	0.0135900
673.427	0.0136087
673.505	0.0135822
673.583	0.0136588
673.662	0.0136050
673.740	0.0137280
673.818	0.0135870
673.896	0.0135715
673.974	0.0136501
674.052	0.0136987
674.130	0.0135558
674.208	0.0137003
674.287	0.0135959
674.365	0.0135508
674.443	0.0137895
674.521	0.0136539
674.599	0.0136351
674.677	0.0134940
674.755	0.0135339
674.833	0.0138103
674.912	0.0136420
674.990	0.0135106
675.068	0.0133832
675.146	0.0135849
675.224	0.0135719
675.302	0.0136231
675.380	0.0135253
675.458	0.0136340
675.537	0.0134898
675.615	0.0135046
675.693	0.0133257
675.771	0.0135415
675.849	0.0134764
675.927	0.0135463
676.005	0.0134570
676.083	0.0134298
676.162	0.0133566
676.240	0.0134317
676.318	0.0133851
676.396	0.0134647
676.474	0.0135313
676.552	0.0134091
676.630	0.0134217
676.708	0.0135929
676.787	0.0135165
676.865	0.0135001
676.943	0.0134531
677.021	0.0134845
677.099	0.0136015
677.177	0.0135148
677.255	0.0135286
677.333	0.0134888
677.412	0.0133859
677.490	0.0134313
677.568	0.0136289
677.646	0.0137297
677.724	0.0135019
677.802	0.0134787
677.880	0.0134901
677.958	0.0134871
678.037	0.0134972
678.115	0.0133977
678.193	0.0134612
678.271	0.0135975
678.349	0.0135244
678.427	0.0134949
678.505	0.0135158
678.583	0.0135319
678.662	0.0135205
678.740	0.0135621
678.818	0.0134444
678.896	0.0136279
678.974	0.0135950
679.052	0.0136421
679.130	0.0135670
679.208	0.0136345
679.287	0.0137033
679.365	0.0136410
679.443	0.0136556
679.521	0.0135107
679.599	0.0135385
679.677	0.0135491
679.755	0.0135659
679.833	0.0135591
679.912	0.0134758
679.990	0.0134611
680.068	0.0136867
680.146	0.0135427
680.224	0.0136280
680.302	0.0137222
680.380	0.0135489
680.458	0.0135884
680.537	0.0135418
680.615	0.0136936
680.693	0.0135831
680.771	0.0136585
680.849	0.0136826
680.927	0.0135667
681.005	0.0136659
681.083	0.0134809
681.162	0.0136599
681.240	0.0137038
681.318	0.0136810
681.396	0.0136865
681.474	0.0137075
681.552	0.0136155
681.630	0.0137396
681.708	0.0136802
681.787	0.0137202
681.865	0.0136354
681.943	0.0136990
682.021	0.0137449
682.099	0.0136835
682.177	0.0136603
682.255	0.0137781
682.333	0.0136971
682.412	0.0135770
682.490	0.0136400
682.568	0.0135953
682.646	0.0135441
682.724	0.0135130
682.802	0.0136281
682.880	0.0138444
682.958	0.0138005
683.037	0.0138467
683.115	0.0140788
683.193	0.0141592
683.271	0.0139884
683.349	0.0138597
683.427	0.0137093
683.505	0.0133745
683.583	0.0131829
683.662	0.0129603
683.740	0.0128537
683.818	0.0126633
683.896	0.0127779
683.974	0.0131136
684.052	0.0133331
684.130	0.0136474
684.208	0.0140031
684.287	0.0142870
684.365	0.0145164
684.443	0.0147158
684.521	0.0148763
684.599	0.0149445
684.677	0.0145966
684.755	0.0144147
684.833	0.0141792
684.912	0.0139232
684.990	0.0134135
685.068	0.0128765
685.146	0.0124158
685.224	0.0123036
685.302	0.0121176
685.380	0.0119582
685.458	0.0119308
685.537	0.0121869
685.615	0.0124976
685.693	0.0128596
685.771	0.0132627
685.849	0.0138244
685.927	0.0142635
686.005	0.0146016
686.083	0.0149519
686.162	0.0152161
686.240	0.0153773
686.318	0.0152472
686.396	0.0151100
686.474	0.0148631
686.552	0.0143635
686.630	0.0138780
686.708	0.0133457
686.787	0.0130400
686.865	0.0124739
686.943	0.0123942
687.021	0.0123000
687.099	0.0123352
687.177	0.0124074
687.255	0.0127721
687.333	0.0130695
687.412	0.0132201
687.490	0.0134692
687.568	0.0138676
687.646	0.0140273
687.724	0.0142158
687.802	0.0143437
687.880	0.0141217
687.958	0.0140276
688.037	0.0139005
688.115	0.0136096
688.193	0.0133781
688.271	0.0132816
688.349	0.0129288
688.427	0.0128316
688.505	0.0127194
688.583	0.0125723
688.662	0.0127212
688.740	0.0128673
688.818	0.0131676
688.896	0.0132829
688.974	0.0136332
689.052	0.0136449
689.130	0.0139150
689.208	0.0140417
689.287	0.0143063
689.365	0.0143654
689.443	0.0143555
689.521	0.0144096
689.599	0.0143408
689.677	0.0142217
689.755	0.0141694
689.833	0.0143013
689.912	0.0139779
689.990	0.0140083
690.068	0.0135956
690.146	0.0135655
690.224	0.0133715
690.302	0.0133678
690.380	0.0131944
690.458	0.0129712
690.537	0.0130828
690.615	0.0131133
690.693	0.0130809
690.771	0.0131023
690.849	0.0132407
690.927	0.0132395
691.005	0.0133210
691.083	0.0133541
691.162	0.0132161
691.240	0.0133900
691.318	0.0133016
691.396	0.0132012
691.474	0.0131963
691.552	0.0131306
691.630	0.0131445
691.708	0.0128860
691.787	0.0128249
691.865	0.0130086
691.943	0.0131356
692.021	0.0131475
692.099	0.0132429
692.177	0.0134875
692.255	0.0138643
692.333	0.0141257
692.412	0.0143110
692.490	0.0145370
692.568	0.0148018
692.646	0.0151069
692.724	0.0153028
692.802	0.0151550
692.880	0.0151946
692.958	0.0150381
693.037	0.0149129
693.115	0.0145503
693.193	0.0139759
693.271	0.0137048
693.349	0.0134711
693.427	0.0130296
693.505	0.0127977
693.583	0.0126947
693.662	0.0124390
693.740	0.0124722
693.818	0.0123698
693.896	0.0123227
693.974	0.0122602
694.052	0.0126837
694.130	0.0125972
694.208	0.0127657
694.287	0.0128590
694.365	0.0129238
694.443	0.0130290
694.521	0.0133327
694.599	0.0132999
694.677	0.0133241
694.755	0.0135381
694.833	0.0135014
694.912	0.0135563
694.990	0.0135950
695.068	0.0135055
695.146	0.0134197
695.224	0.0134798
695.302	0.0133519
695.380	0.0132979
695.458	0.0132010
695.537	0.0130859
695.615	0.0133764
695.693	0.0133868
695.771	0.0134750
695.849	0.0137135
695.927	0.0138686
696.005	0.0141518
696.083	0.0143728
696.162	0.0146597
696.240	0.0150588
696.318	0.0151082
696.396	0.0154325
696.474	0.0152793
696.552	0.0153510
696.630	0.0152403
696.708	0.0151969
696.787	0.0149864
696.865	0.0146210
696.943	0.0144171
697.021	0.0139775
697.099	0.0136246
697.177	0.0133041
697.255	0.0128930
697.333	0.0127180
697.412	0.0122710
697.490	0.0120926
697.568	0.0118408
697.646	0.0118443
697.724	0.0118710
697.802	0.0118617
697.880	0.0117628
697.958	0.0119912
698.037	0.0121619
698.115	0.0124185
698.193	0.0125439
698.271	0.0128130
698.349	0.0129233
698.427	0.0130515
698.505	0.0133038
698.583	0.0136040
698.662	0.0136383
698.740	0.0138438
698.818	0.0140543
698.896	0.0140984
698.974	0.0140740
699.052	0.0140995
699.130	0.0141271
699.208	0.0142237
699.287	0.0141941
699.365	0.0141724
699.443	0.0141611
699.521	0.0142709
699.599	0.0142252
699.677	0.0141167
699.755	0.0140596
699.833	0.0140362
699.912	0.0141012
699.990	0.0142307
700.068	0.0139978
700.146	0.0143407
700.224	0.0143472
700.302	0.0144632
700.380	0.0142309
700.458	0.0143359
700.537	0.0143835
700.615	0.0145171
700.693	0.0144978
700.771	0.0144778
700.849	0.0142453
700.927	0.0142117
701.005	0.0140121
701.083	0.0138918
701.162	0.0136866
701.240	0.0134969
701.318	0.0133110
701.396	0.0132452
701.474	0.0130163
701.552	0.0127897
701.630	0.0126276
701.708	0.0125948
701.787	0.0125529
701.865	0.0124270
701.943	0.0122606
702.021	0.0122179
702.099	0.0123603
702.177	0.0121639
702.255	0.0121513
702.333	0.0122538
702.412	0.0120995
702.490	0.0122572
702.568	0.0124361
702.646	0.0123938
702.724	0.0123808
702.802	0.0126337
702.880	0.0128482
702.958	0.0129487
703.037	0.0131696
703.115	0.0131598
703.193	0.0135980
703.271	0.0137749
703.349	0.0140055
703.427	0.0140504
703.505	0.0142986
703.583	0.0144821
703.662	0.0145538
703.740	0.0146046
703.818	0.0147894
703.896	0.0148003
703.974	0.0150395
704.052	0.0149848
704.130	0.0150146
704.208	0.0148858
704.287	0.0148787
704.365	0.0145899
704.443	0.0147150
704.521	0.0146479
704.599	0.0143755
704.677	0.0145190
704.755	0.0143665
704.833	0.0142737
704.912	0.0142234
704.990	0.0141654
705.068	0.0139556
705.146	0.0137994
705.224	0.0136228
705.302	0.0135183
705.380	0.0134326
705.458	0.0131412
705.537	0.0130058
705.615	0.0128770
705.693	0.0126566
705.771	0.0124714
705.849	0.0122027
705.927	0.0123629
706.005	0.0123785
706.083	0.0121251
706.162	0.0120770
706.240	0.0121085
706.318	0.0122588
706.396	0.0123557
706.474	0.0123946
706.552	0.0126588
706.630	0.0126533
706.708	0.0127992
706.787	0.0129393
706.865	0.0131347
706.943	0.0132247
707.021	0.0132283
707.099	0.0133135
707.177	0.0134641
707.255	0.0137544
707.333	0.0136807
707.412	0.0139825
707.490	0.0141911
707.568	0.0142832
707.646	0.0145114
707.724	0.0146291
707.802	0.0147074
707.880	0.0147971
707.958	0.0149423
708.037	0.0148362
708.115	0.0148333
708.193	0.0148141
708.271	0.0147869
708.349	0.0148322
708.427	0.0145369
708.505	0.0144358
708.583	0.0143485
708.662	0.0142743
708.740	0.0140644
708.818	0.0139756
708.896	0.0138665
708.974	0.0139491
709.052	0.0136647
709.130	0.0136899
709.208	0.0137634
709.287	0.0137373
709.365	0.0136766
709.443	0.0136491
709.521	0.0134929
709.599	0.0134830
709.677	0.0135894
709.755	0.0135547
709.833	0.0133401
709.912	0.0135023
709.990	0.0135585
710.068	0.0136286
710.146	0.0135315
710.224	0.0136362
710.302	0.0136603
710.380	0.0135468
710.458	0.0135359
710.537	0.0136964
710.615	0.0136292
710.693	0.0135426
710.771	0.0136511
710.849	0.0134711
710.927	0.0132513
711.005	0.0131938
711.083	0.0131757
711.162	0.0131760
711.240	0.0130556
711.318	0.0130776
711.396	0.0131252
711.474	0.0130962
711.552	0.0131467
711.630	0.0130697
711.708	0.0133565
711.787	0.0133464
711.865	0.0133619
711.943	0.0134586
712.021	0.0135473
712.099	0.0138165
712.177	0.0137448
712.255	0.0139230
712.333	0.0137546
712.412	0.0139952
712.490	0.0139429
712.568	0.0139869
712.646	0.0139636
712.724	0.0138698
712.802	0.0139958
712.880	0.0137737
712.958	0.0139270
713.037	0.0137944
713.115	0.0136650
713.193	0.0135926
713.271	0.0137334
713.349	0.0135223
713.427	0.0134281
713.505	0.0135094
713.583	0.0134690
713.662	0.0134619
713.740	0.0134167
713.818	0.0133431
713.896	0.0133602
713.974	0.0134756
714.052	0.0135233
714.130	0.0133875
714.208	0.0133686
714.287	0.0134172
714.365	0.0134426
714.443	0.0134543
714.521	0.0135859
714.599	0.0136327
714.677	0.0137851
714.755	0.0138999
714.833	0.0137630
714.912	0.0138555
714.990	0.0140619
715.068	0.0139662
715.146	0.0140779
715.224	0.0141226
715.302	0.0141531
715.380	0.0140785
715.458	0.0139841
715.537	0.0140107
715.615	0.0138177
715.693	0.0137835
715.771	0.0137899
715.849	0.0135249
715.927	0.0133617
716.005	0.0133707
716.083	0.0132155
716.162	0.0130799
716.240	0.0129897
716.318	0.0131016
716.396	0.0130690
716.474	0.0130339
716.552	0.0129440
716.630	0.0129704
716.708	0.0130665
716.787	0.0130078
716.865	0.0130852
716.943	0.0132108
717.021	0.0130507
717.099	0.0132141
717.177	0.0133466
717.255	0.0133842
717.333	0.0135698
717.412	0.0133837
717.490	0.0134303
717.568	0.0133349
717.646	0.0135507
717.724	0.0135300
717.802	0.0136771
717.880	0.0137386
717.958	0.0136173
718.037	0.0138142
718.115	0.0140105
718.193	0.0139927
718.271	0.0139214
718.349	0.0139227
718.427	0.0141463
718.505	0.0141022
718.583	0.0140736
718.662	0.0140705
718.740	0.0140357
718.818	0.0139497
718.896	0.0139847
718.974	0.0139831
719.052	0.0138882
719.130	0.0135783
719.208	0.0136173
719.287	0.0136834
719.365	0.0136362
719.443	0.0135192
719.521	0.0133926
719.599	0.0133176
719.677	0.0133903
719.755	0.0133169
719.833	0.0133299
719.912	0.0134155
719.990	0.0134517
720.068	0.0133948
720.146	0.0132602
720.224	0.0134329
720.302	0.0135636
720.380	0.0134836
720.458	0.0135754
720.537	0.0135538
720.615	0.0135590
720.693	0.0136938
720.771	0.0136829
720.849	0.0136880
720.927	0.0137923
721.005	0.0137943
721.083	0.0136696
721.162	0.0137328
721.240	0.0137429
721.318	0.0136189
721.396	0.0136727
721.474	0.0135134
721.552	0.0134644
721.630	0.0134794
721.708	0.0134824
721.787	0.0134695
721.865	0.0133542
721.943	0.0131995
722.021	0.0132131
722.099	0.0131450
722.177	0.0132358
722.255	0.0132262
722.333	0.0134366
722.412	0.0133736
722.490	0.0134364
722.568	0.0133490
722.646	0.0132796
722.724	0.0136172
722.802	0.0136314
722.880	0.0135921
722.958	0.0135704
723.037	0.0136737
723.115	0.0136260
723.193	0.0136143
723.271	0.0136651
723.349	0.0136034
723.427	0.0135173
723.505	0.0136382
723.583	0.0136569
723.662	0.0136497
723.740	0.0135072
723.818	0.0137023
723.896	0.0137917
723.974	0.0139692
724.052	0.0138084
724.130	0.0138230
724.208	0.0137750
724.287	0.0137035
724.365	0.0136812
724.443	0.0137080
724.521	0.0136699
724.599	0.0136205
724.677	0.0136980
724.755	0.0135287
724.833	0.0134174
724.912	0.0135071
724.990	0.0134233
725.068	0.0135835
725.146	0.0134516
725.224	0.0134428
725.302	0.0133930
725.380	0.0134106
725.458	0.0134356
725.537	0.0135123
725.615	0.0134377
725.693	0.0137214
725.771	0.0137200
725.849	0.0134998
725.927	0.0136446
726.005	0.0137027
726.083	0.0137839
726.162	0.0137836
726.240	0.0137383
726.318	0.0140323
726.396	0.0138870
726.474	0.0138027
726.552	0.0138007
726.630	0.0138180
726.708	0.0138401
726.787	0.0138655
726.865	0.0137347
726.943	0.0136391
727.021	0.0135319
727.099	0.0135140
727.177	0.0134890
727.255	0.0133507
727.333	0.0133492
727.412	0.0132156
727.490	0.0131213
727.568	0.0132323
727.646	0.0132458
727.724	0.0132221
727.802	0.0131384
727.880	0.0132443
727.958	0.0133584
728.037	0.0132212
728.115	0.0132549
728.193	0.0134165
728.271	0.0133708
728.349	0.0134283
728.427	0.0134693
728.505	0.0135146
728.583	0.0134682
728.662	0.0134818
728.740	0.0134796
728.818	0.0135217
728.896	0.0135762
728.974	0.0135811
729.052	0.0134685
729.130	0.0135578
729.208	0.0134885
729.287	0.0133643
729.365	0.0134808
729.443	0.0134566
729.521	0.0135316
729.599	0.0136958
729.677	0.0137395
729.755	0.0136317
729.833	0.0135889
729.912	0.0136767
729.990	0.0137731
730.068	0.0137054
730.146	0.0138586
730.224	0.0139552
730.302	0.0139211
730.380	0.0137392
730.458	0.0137408
730.537	0.0137897
730.615	0.0136629
730.693	0.0137685
730.771	0.0137830
730.849	0.0136964
730.927	0.0137040
731.005	0.0136114
731.083	0.0136797
731.162	0.0138229
731.240	0.0137755
731.318	0.0138731
731.396	0.0138117
731.474	0.0138542
731.552	0.0138889
731.630	0.0137553
731.708	0.0137743
731.787	0.0137618
731.865	0.0138425
731.943	0.0136980
732.021	0.0136819
732.099	0.0135393
732.177	0.0134901
732.255	0.0136703
732.333	0.0135907
732.412	0.0136473
732.490	0.0137379
732.568	0.0137452
732.646	0.0135783
732.724	0.0136188
732.802	0.0136437
732.880	0.0137190
732.958	0.0137266
733.037	0.0138589
733.115	0.0136771
733.193	0.0138078
733.271	0.0138306
733.349	0.0137777
733.427	0.0138660
733.505	0.0137259
733.583	0.0137225
733.662	0.0136141
733.740	0.0136983
733.818	0.0135159
733.896	0.0135788
733.974	0.0135491
734.052	0.0135539
734.130	0.0135017
734.208	0.0134637
734.287	0.0133965
734.365	0.0132681
734.443	0.0133613
734.521	0.0132679
734.599	0.0132184
734.677	0.0132398
734.755	0.0132848
734.833	0.0132069
734.912	0.0131635
734.990	0.0133031
735.068	0.0132420
735.146	0.0132343
735.224	0.0133129
735.302	0.0135324
735.380	0.0134859
735.458	0.0133744
735.537	0.0134795
735.615	0.0137794
735.693	0.0137995
735.771	0.0136762
735.849	0.0137440
735.927	0.0139639
736.005	0.0137762
736.083	0.0137739
736.162	0.0138961
736.240	0.0139060
736.318	0.0140190
736.396	0.0139296
736.474	0.0139495
736.552	0.0139055
736.630	0.0140504
736.708	0.0139475
736.787	0.0139957
736.865	0.0140739
736.943	0.0138257
737.021	0.0139948
737.099	0.0140281
737.177	0.0139577
737.255	0.0139774
737.333	0.0141724
737.412	0.0139759
737.490	0.0138258
737.568	0.0137740
737.646	0.0137624
737.724	0.0137317
737.802	0.0135435
737.880	0.0136443
737.958	0.0136050
738.037	0.0135875
738.115	0.0135728
738.193	0.0134943
738.271	0.0135573
738.349	0.0134809
738.427	0.0134486
738.505	0.0134620
738.583	0.0135300
738.662	0.0135883
738.740	0.0134589
738.818	0.0134973
738.896	0.0134132
738.974	0.0133118
739.052	0.0132294
739.130	0.0134162
739.208	0.0134206
739.287	0.0134228
739.365	0.0133237
739.443	0.0134740
739.521	0.0133856
739.599	0.0134834
739.677	0.0133917
739.755	0.0133711
739.833	0.0133623
739.912	0.0134036
739.990	0.0136156
740.068	0.0135297
740.146	0.0134434
740.224	0.0135544
740.302	0.0136158
740.380	0.0135754
740.458	0.0135659
740.537	0.0137006
740.615	0.0138001
740.693	0.0136224
740.771	0.0137402
740.849	0.0136398
740.927	0.0136266
741.005	0.0136781
741.083	0.0136961
741.162	0.0135924
741.240	0.0136211
741.318	0.0135784
741.396	0.0137021
741.474	0.0137125
741.552	0.0137248
741.630	0.0138360
741.708	0.0136407
741.787	0.0136086
741.865	0.0135993
741.943	0.0136841
742.021	0.0135706
742.099	0.0136004
742.177	0.0136409
742.255	0.0136658
742.333	0.0135724
742.412	0.0135169
742.490	0.0136447
742.568	0.0137073
742.646	0.0136235
742.724	0.0135857
742.802	0.0136256
742.880	0.0136948
742.958	0.0137849
743.037	0.0138785
743.115	0.0137560
743.193	0.0137341
743.271	0.0139136
743.349	0.0137447
743.427	0.0138218
743.505	0.0139695
743.583	0.0138258
743.662	0.0139740
743.740	0.0140143
743.818	0.0140472
743.896	0.0139304
743.974	0.0136758
744.052	0.0136930
744.130	0.0138171
744.208	0.0137415
744.287	0.0136393
744.365	0.0134764
744.443	0.0133106
744.521	0.0135455
744.599	0.0134365
744.677	0.0135075
744.755	0.0134090
744.833	0.0131902
744.912	0.0133066
744.990	0.0133295
745.068	0.0133091
745.146	0.0133424
745.224	0.0131767
745.302	0.0132668
745.380	0.0133395
745.458	0.0131835
745.537	0.0133545
745.615	0.0134582
745.693	0.0133880
745.771	0.0135544
745.849	0.0136576
745.927	0.0135498
746.005	0.0136690
746.083	0.0136583
746.162	0.0137315
746.240	0.0136864
746.318	0.0137286
746.396	0.0137622
746.474	0.0138219
746.552	0.0136845
746.630	0.0137591
746.708	0.0136704
746.787	0.0135714
746.865	0.0135321
746.943	0.0134650
747.021	0.0135033
747.099	0.0132664
747.177	0.0134105
747.255	0.0134465
747.333	0.0132957
747.412	0.0133242
747.490	0.0133799
747.568	0.0132401
747.646	0.0134500
747.724	0.0135331
747.802	0.0133974
747.880	0.0134662
747.958	0.0136713
748.037	0.0136608
748.115	0.0135343
748.193	0.0135828
748.271	0.0137099
748.349	0.0137653
748.427	0.0137340
748.505	0.0138007
748.583	0.0139895
748.662	0.0139238
748.740	0.0138718
748.818	0.0138759
748.896	0.0139117
748.974	0.0139555
749.052	0.0139313
749.130	0.0138728
749.208	0.0138664
749.287	0.0139465
749.365	0.0139615
749.443	0.0139149
749.521	0.0138592
749.599	0.0137466
749.677	0.0140088
749.755	0.0138235
749.833	0.0137744
749.912	0.0138587
749.990	0.0136359
750.068	0.0137780
750.146	0.0138336
750.224	0.0137419
750.302	0.0135582
750.380	0.0134482
750.458	0.0135119
750.537	0.0136407
750.615	0.0134993
750.693	0.0134469
750.771	0.0133114
750.849	0.0135282
750.927	0.0133164
751.005	0.0132793
751.083	0.0132319
751.162	0.0132536
751.240	0.0132595
751.318	0.0131684
751.396	0.0131679
751.474	0.0132274
751.552	0.0133019
751.630	0.0133843
751.708	0.0132909
751.787	0.0132983
751.865	0.0135359
751.943	0.0134083
752.021	0.0133065
752.099	0.0134850
752.177	0.0134095
752.255	0.0134315
752.333	0.0134405
752.412	0.0137258
752.490	0.0135842
752.568	0.0136969
752.646	0.0135651
752.724	0.0134315
752.802	0.0136765
752.880	0.0137407
752.958	0.0137380
753.037	0.0136299
753.115	0.0136697
753.193	0.0136538
753.271	0.0136301
753.349	0.0137912
753.427	0.0137473
753.505	0.0136979
753.583	0.0137907
753.662	0.0136621
753.740	0.0137363
753.818	0.0137773
753.896	0.0136815
753.974	0.0135626
754.052	0.0136941
754.130	0.0134309
754.208	0.0135976
754.287	0.0136302
754.365	0.0137499
754.443	0.0135526
754.521	0.0135725
754.599	0.0134955
754.677	0.0135831
754.755	0.0135771
754.833	0.0137047
754.912	0.0136152
754.990	0.0135726
755.068	0.0135064
755.146	0.0134769
755.224	0.0135492
755.302	0.0136217
755.380	0.0134945
755.458	0.0136648
755.537	0.0136013
755.615	0.0135719
755.693	0.0135534
755.771	0.0136942
755.849	0.0136427
755.927	0.0137047
756.005	0.0137311
756.083	0.0136253
756.162	0.0136326
756.240	0.0136163
756.318	0.0136178
756.396	0.0136689
756.474	0.0135510
756.552	0.0135820
756.630	0.0135828
756.708	0.0135879
756.787	0.0135724
756.865	0.0135503
756.943	0.0135904
757.021	0.0135143
757.099	0.0135725
757.177	0.0135873
757.255	0.0134837
757.333	0.0134254
757.412	0.0134115
757.490	0.0134751
757.568	0.0135937
757.646	0.0134380
757.724	0.0133157
757.802	0.0134815
757.880	0.0135228
757.958	0.0135846
758.037	0.0134980
758.115	0.0134837
758.193	0.0136206
758.271	0.0136961
758.349	0.0137050
758.427	0.0137048
758.505	0.0137663
758.583	0.0137181
758.662	0.0137274
758.740	0.0137711
758.818	0.0137198
758.896	0.0136790
758.974	0.0137216
759.052	0.0137952
759.130	0.0138009
759.208	0.0138496
759.287	0.0138813
759.365	0.0138857
759.443	0.0138778
759.521	0.0136919
759.599	0.0136646
759.677	0.0137776
759.755	0.0137668
759.833	0.0136633
759.912	0.0136062
759.990	0.0136687
760.068	0.0137969
760.146	0.0136226
760.224	0.0135990
760.302	0.0135341
760.380	0.0135290
760.458	0.0134460
760.537	0.0135191
760.615	0.0134420
760.693	0.0134157
760.771	0.0134635
760.849	0.0134280
760.927	0.0134002
761.005	0.0134209
761.083	0.0134209
761.162	0.0135398
761.240	0.0136898
761.318	0.0135926
761.396	0.0134016
761.474	0.0135095
761.552	0.0136781
761.630	0.0136056
761.708	0.0136890
761.787	0.0136800
761.865	0.0136773
761.943	0.0138196
762.021	0.0137383
762.099	0.0137583
762.177	0.0137172
762.255	0.0138292
762.333	0.0138129
762.412	0.0138409
762.490	0.0138274
762.568	0.0137988
762.646	0.0136667
762.724	0.0137454
762.802	0.0137694
762.880	0.0138396
762.958	0.0139749
763.037	0.0137164
763.115	0.0137592
763.193	0.0137411
763.271	0.0139335
763.349	0.0137846
763.427	0.0139006
763.505	0.0138140
763.583	0.0137909
763.662	0.0135859
763.740	0.0136820
763.818	0.0137280
763.896	0.0135561
763.974	0.0134657
764.052	0.0134782
764.130	0.0132652
764.208	0.0133232
764.287	0.0130733
764.365	0.0130878
764.443	0.0131977
764.521	0.0131880
764.599	0.0130188
764.677	0.0129723
764.755	0.0130302
764.833	0.0130462
764.912	0.0131641
764.990	0.0131545
765.068	0.0132819
765.146	0.0132451
765.224	0.0131758
765.302	0.0134245
765.380	0.0133331
765.458	0.0134275
765.537	0.0134724
765.615	0.0134738
765.693	0.0137309
765.771	0.0136703
765.849	0.0136939
765.927	0.0137791
766.005	0.0136722
766.083	0.0138596
766.162	0.0136895
766.240	0.0136760
766.318	0.0138417
766.396	0.0136574
766.474	0.0136071
766.552	0.0137537
766.630	0.0137353
766.708	0.0136786
766.787	0.0136659
766.865	0.0138094
766.943	0.0136470
767.021	0.0138120
767.099	0.0138530
767.177	0.0138152
767.255	0.0136944
767.333	0.0137431
767.412	0.0138053
767.490	0.0138416
767.568	0.0138242
767.646	0.0137888
767.724	0.0137395
767.802	0.0137365
767.880	0.0136896
767.958	0.0137058
768.037	0.0137436
768.115	0.0137028
768.193	0.0136032
768.271	0.0137148
768.349	0.0137045
768.427	0.0137176
768.505	0.0135632
768.583	0.0135422
768.662	0.0136559
768.740	0.0136514
768.818	0.0136092
768.896	0.0136188
768.974	0.0137130
769.052	0.0134620
769.130	0.0137915
769.208	0.0135327
769.287	0.0135435
769.365	0.0137794
769.443	0.0138042
769.521	0.0137851
769.599	0.0137685
769.677	0.0137685
769.755	0.0137861
769.833	0.0136400
769.912	0.0136759
769.990	0.0136676
770.068	0.0136044
770.146	0.0134916
770.224	0.0134362
770.302	0.0133839
770.380	0.0134548
770.458	0.0134448
770.537	0.0133877
770.615	0.0133814
770.693	0.0133682
770.771	0.0134260
770.849	0.0135009
770.927	0.0134278
771.005	0.0135031
771.083	0.0135085
771.162	0.0136286
771.240	0.0136955
771.318	0.0135487
771.396	0.0137706
771.474	0.0137547
771.552	0.0136455
771.630	0.0137105
771.708	0.0138014
771.787	0.0137829
771.865	0.0137917
771.943	0.0138413
772.021	0.0139936
772.099	0.0140638
772.177	0.0138398
772.255	0.0137491
772.333	0.0139255
772.412	0.0139185
772.490	0.0137406
772.568	0.0137011
772.646	0.0137733
772.724	0.0137157
772.802	0.0136906
772.880	0.0135813
772.958	0.0137810
773.037	0.0136922
773.115	0.0136484
773.193	0.0136887
773.271	0.0136153
773.349	0.0135172
773.427	0.0135899
773.505	0.0136848
773.583	0.0136067
773.662	0.0134237
773.740	0.0134907
773.818	0.0134973
773.896	0.0135272
773.974	0.0135970
774.052	0.0136607
774.130	0.0136106
774.208	0.0135818
774.287	0.0135659
774.365	0.0135685
774.443	0.0137425
774.521	0.0136570
774.599	0.0136056
774.677	0.0136411
774.755	0.0135048
774.833	0.0136919
774.912	0.0136430
774.990	0.0136587
775.068	0.0134696
775.146	0.0134428
775.224	0.0134445
775.302	0.0133386
775.380	0.0135328
775.458	0.0134483
775.537	0.0133434
775.615	0.0133543
775.693	0.0133990
775.771	0.0134488
775.849	0.0133086
775.927	0.0134126
776.005	0.0136401
776.083	0.0135956
776.162	0.0134957
776.240	0.0135744
776.318	0.0137078
776.396	0.0137343
776.474	0.0138327
776.552	0.0136662
776.630	0.0136983
776.708	0.0138921
776.787	0.0138099
776.865	0.0136938
776.943	0.0137978
777.021	0.0136987
777.099	0.0138302
777.177	0.0137495
777.255	0.0137682
777.333	0.0137875
777.412	0.0137566
777.490	0.0138081
777.568	0.0136828
777.646	0.0137688
777.724	0.0135567
777.802	0.0138061
777.880	0.0137726
777.958	0.0137115
778.037	0.0135992
778.115	0.0134876
778.193	0.0135384
778.271	0.0135688
778.349	0.0136852
778.427	0.0135096
778.505	0.0135213
778.583	0.0133485
778.662	0.0136452
778.740	0.0135231
778.818	0.0132688
778.896	0.0134830
778.974	0.0134800
779.052	0.0133356
779.130	0.0135720
779.208	0.0135101
779.287	0.0133379
779.365	0.0133650
779.443	0.0135792
779.521	0.0135516
779.599	0.0135943
779.677	0.0136682
779.755	0.0135571
779.833	0.0136622
779.912	0.0137445
779.990	0.0135703
780.068	0.0138129
780.146	0.0137621
780.224	0.0137030
780.302	0.0137504
780.380	0.0138238
780.458	0.0137868
780.537	0.0138057
780.615	0.0137269
780.693	0.0137360
780.771	0.0137049
780.849	0.0136225
780.927	0.0137920
781.005	0.0136327
781.083	0.0136711
781.162	0.0136028
781.240	0.0136163
781.318	0.0137013
781.396	0.0135987
781.474	0.0136877
781.552	0.0137363
781.630	0.0136604
781.708	0.0137786
781.787	0.0137010
781.865	0.0137016
781.943	0.0136269
782.021	0.0137760
782.099	0.0137235
782.177	0.0136971
782.255	0.0138287
782.333	0.0137515
782.412	0.0136227
782.490	0.0136981
782.568	0.0135622
782.646	0.0135873
782.724	0.0135387
782.802	0.0135828
782.880	0.0136639
782.958	0.0136790
783.037	0.0136238
783.115	0.0137027
783.193	0.0135692
783.271	0.0135719
783.349	0.0137281
783.427	0.0137119
783.505	0.0135235
783.583	0.0135767
783.662	0.0134155
783.740	0.0135555
783.818	0.0136018
783.896	0.0135065
783.974	0.0135258
784.052	0.0133704
784.130	0.0134835
784.208	0.0136908
784.287	0.0133051
784.365	0.0132718
784.443	0.0135273
784.521	0.0134538
784.599	0.0133347
784.677	0.0134245
784.755	0.0134417
784.833	0.0133962
784.912	0.0134465
784.990	0.0134812
785.068	0.0134428
785.146	0.0134621
785.224	0.0134775
785.302	0.0135754
785.380	0.0136790
785.458	0.0135821
785.537	0.0136010
785.615	0.0136713
785.693	0.0136799
785.771	0.0135841
785.849	0.0136405
785.927	0.0138289
786.005	0.0135800
786.083	0.0136115
786.162	0.0136008
786.240	0.0135708
786.318	0.0136578
786.396	0.0134858
786.474	0.0134717
786.552	0.0135432
786.630	0.0134051
786.708	0.0135668
786.787	0.0135204
786.865	0.0134845
786.943	0.0135677
787.021	0.0134858
787.099	0.0134673
787.177	0.0135191
787.255	0.0134488
787.333	0.0134274
787.412	0.0134636
787.490	0.0134445
787.568	0.0135291
787.646	0.0135049
787.724	0.0135823
787.802	0.0135259
787.880	0.0134926
787.958	0.0135973
788.037	0.0135082
788.115	0.0136039
788.193	0.0136941
788.271	0.0136224
788.349	0.0136024
788.427	0.0137122
788.505	0.0137711
788.583	0.0136642
788.662	0.0137625
788.740	0.0136761
788.818	0.0137442
788.896	0.0136921
788.974	0.0137117
789.052	0.0135880
789.130	0.0136828
789.208	0.0135864
789.287	0.0135369
789.365	0.0136304
789.443	0.0136906
789.521	0.0137370
789.599	0.0137245
789.677	0.0136349
789.755	0.0135709
789.833	0.0134034
789.912	0.0134677
789.990	0.0137045
790.068	0.0135936
790.146	0.0135133
790.224	0.0135323
790.302	0.0134942
790.380	0.0133772
790.458	0.0135236
790.537	0.0135096
790.615	0.0135305
790.693	0.0133889
790.771	0.0135520
790.849	0.0135095
790.927	0.0135332
791.005	0.0134914
791.083	0.0134121
791.162	0.0134499
791.240	0.0136603
791.318	0.0134398
791.396	0.0134699
791.474	0.0136490
791.552	0.0136871
791.630	0.0134734
791.708	0.0135444
791.787	0.0135782
791.865	0.0137782
791.943	0.0137826
792.021	0.0137186
792.099	0.0137378
792.177	0.0137037
792.255	0.0138272
792.333	0.0138514
792.412	0.0137419
792.490	0.0137326
792.568	0.0136851
792.646	0.0137806
792.724	0.0137313
792.802	0.0136065
792.880	0.0137292
792.958	0.0136749
793.037	0.0136861
793.115	0.0138282
793.193	0.0137460
793.271	0.0138162
793.349	0.0138406
793.427	0.0136996
793.505	0.0136630
793.583	0.0137868
793.662	0.0136890
793.740	0.0136961
793.818	0.0137057
793.896	0.0135882
793.974	0.0135526
794.052	0.0135403
794.130	0.0133746
794.208	0.0135750
794.287	0.0135135
794.365	0.0134670
794.443	0.0134866
794.521	0.0135650
794.599	0.0135809
794.677	0.0133732
794.755	0.0134393
794.833	0.0134981
794.912	0.0135189
794.990	0.0133666
795.068	0.0135980
795.146	0.0135306
795.224	0.0135601
795.302	0.0134936
795.380	0.0135070
795.458	0.0135611
795.537	0.0135427
795.615	0.0134222
795.693	0.0135580
795.771	0.0135344
795.849	0.0134436
795.927	0.0135909
796.005	0.0135423
796.083	0.0135597
796.162	0.0134933
796.240	0.0134503
796.318	0.0133379
796.396	0.0134465
796.474	0.0134583
796.552	0.0134547
796.630	0.0133698
796.708	0.0133961
796.787	0.0134119
796.865	0.0132516
796.943	0.0134173
797.021	0.0132963
797.099	0.0133955
797.177	0.0133008
797.255	0.0133817
797.333	0.0134476
797.412	0.0133852
797.490	0.0133934
797.568	0.0133453
797.646	0.0134821
797.724	0.0136205
797.802	0.0135536
797.880	0.0134898
797.958	0.0133839
798.037	0.0135191
798.115	0.0135235
798.193	0.0136201
798.271	0.0135857
798.349	0.0135486
798.427	0.0133575
798.505	0.0134901
798.583	0.0136781
798.662	0.0135932
798.740	0.0138252
798.818	0.0136145
798.896	0.0135937
798.974	0.0137360
799.052	0.0137386
799.130	0.0137578
799.208	0.0138242
799.287	0.0137125
799.365	0.0138354
799.443	0.0137565
799.521	0.0137414
799.599	0.0138885
799.677	0.0138818
799.755	0.0137895
799.833	0.0138876
799.912	0.0138644
799.990	0.0139973
800.068	0.0140324
800.146	0.0139801
800.224	0.0140170
800.302	0.0138717
800.380	0.0139138
800.458	0.0138730
800.537	0.0138648
800.615	0.0138840
800.693	0.0137478
800.771	0.0137210
800.849	0.0136593
800.927	0.0136700
801.005	0.0135789
801.083	0.0136300
801.162	0.0133691
801.240	0.0133400
801.318	0.0134255
801.396	0.0133780
801.474	0.0133716
801.552	0.0135052
801.630	0.0134558
801.708	0.0133089
801.787	0.0133141
801.865	0.0132651
801.943	0.0134093
802.021	0.0134225
802.099	0.0132435
802.177	0.0134998
802.255	0.0133602
802.333	0.0133913
802.412	0.0135010
802.490	0.0133869
802.568	0.0134462
802.646	0.0134559
802.724	0.0134194
802.802	0.0134238
802.880	0.0134939
802.958	0.0134407
803.037	0.0135090
803.115	0.0134872
803.193	0.0135101
803.271	0.0135704
803.349	0.0134754
803.427	0.0136134
803.505	0.0135790
803.583	0.0135519
803.662	0.0136291
803.740	0.0136467
803.818	0.0137503
803.896	0.0136501
803.974	0.0135381
804.052	0.0135712
804.130	0.0136513
804.208	0.0135202
804.287	0.0135535
804.365	0.0136166
804.443	0.0134662
804.521	0.0135561
804.599	0.0135423
804.677	0.0136501
804.755	0.0136819
804.833	0.0135043
804.912	0.0136821
804.990	0.0136608
805.068	0.0135862
805.146	0.0134951
805.224	0.0135902
805.302	0.0135836
805.380	0.0134621
805.458	0.0135172
805.537	0.0135554
805.615	0.0134029
805.693	0.0134715
805.771	0.0134691
805.849	0.0134907
805.927	0.0135152
806.005	0.0135979
806.083	0.0136472
806.162	0.0135748
806.240	0.0134785
806.318	0.0135096
806.396	0.0135596
806.474	0.0135920
806.552	0.0133898
806.630	0.0134641
806.708	0.0135924
806.787	0.0134525
806.865	0.0137061
806.943	0.0135441
807.021	0.0134550
807.099	0.0135654
807.177	0.0136980
807.255	0.0135641
807.333	0.0136059
807.412	0.0135458
807.490	0.0135162
807.568	0.0135381
807.646	0.0134857
807.724	0.0136942
807.802	0.0136143
807.880	0.0136442
807.958	0.0136766
808.037	0.0136648
808.115	0.0136459
808.193	0.0137694
808.271	0.0135600
808.349	0.0137580
808.427	0.0137127
808.505	0.0137156
808.583	0.0137704
808.662	0.0137179
808.740	0.0137260
808.818	0.0136133
808.896	0.0136292
808.974	0.0136176
809.052	0.0136459
809.130	0.0136396
809.208	0.0137190
809.287	0.0137112
809.365	0.0135899
809.443	0.0137186
809.521	0.0136216
809.599	0.0135966
809.677	0.0136200
809.755	0.0136233
809.833	0.0135995
809.912	0.0136879
809.990	0.0135600
810.068	0.0135130
810.146	0.0135977
810.224	0.0136552
810.302	0.0136633
810.380	0.0135789
810.458	0.0135743
810.537	0.0135856
810.615	0.0134567
810.693	0.0136705
810.771	0.0136693
810.849	0.0136012
810.927	0.0136455
811.005	0.0137259
811.083	0.0136678
811.162	0.0136976
811.240	0.0137454
811.318	0.0136890
811.396	0.0135600
811.474	0.0136187
811.552	0.0136306
811.630	0.0137390
811.708	0.0137072
811.787	0.0136013
811.865	0.0137341
811.943	0.0136115
812.021	0.0136252
812.099	0.0135805
812.177	0.0133767
812.255	0.0134291
812.333	0.0133691
812.412	0.0133546
812.490	0.0134460
812.568	0.0134157
812.646	0.0134291
812.724	0.0134195
812.802	0.0134811
812.880	0.0133521
812.958	0.0134409
813.037	0.0133341
813.115	0.0133261
813.193	0.0134314
813.271	0.0134786
813.349	0.0133913
813.427	0.0135140
813.505	0.0135306
813.583	0.0135516
813.662	0.0134914
813.740	0.0134592
813.818	0.0135580
813.896	0.0133882
813.974	0.0136063
814.052	0.0135858
814.130	0.0134262
814.208	0.0136559
814.287	0.0136237
814.365	0.0136160
814.443	0.0135895
814.521	0.0135477
814.599	0.0135177
814.677	0.0135995
814.755	0.0136720
814.833	0.0136724
814.912	0.0135170
814.990	0.0134827
815.068	0.0136557
815.146	0.0135398
815.224	0.0136719
815.302	0.0135448
815.380	0.0136035
815.458	0.0135844
815.537	0.0135521
815.615	0.0136646
815.693	0.0136756
815.771	0.0137206
815.849	0.0136675
815.927	0.0136990
816.005	0.0136198
816.083	0.0136669
816.162	0.0137566
816.240	0.0137408
816.318	0.0136810
816.396	0.0136716
816.474	0.0136923
816.552	0.0135129
816.630	0.0136164
816.708	0.0135988
816.787	0.0135242
816.865	0.0135912
816.943	0.0137201
817.021	0.0135448
817.099	0.0134804
817.177	0.0133786
817.255	0.0135764
817.333	0.0137328
817.412	0.0136492
817.490	0.0134229
817.568	0.0136595
817.646	0.0135803
817.724	0.0135361
817.802	0.0137246
817.880	0.0137070
817.958	0.0137164
818.037	0.0137687
818.115	0.0136205
818.193	0.0137436
818.271	0.0137099
818.349	0.0135900
818.427	0.0135848
818.505	0.0135089
818.583	0.0135970
818.662	0.0136042
818.740	0.0135460
818.818	0.0134240
818.896	0.0134747
818.974	0.0134978
819.052	0.0134263
819.130	0.0135636
819.208	0.0134784
819.287	0.0134482
819.365	0.0134444
819.443	0.0134209
819.521	0.0134679
819.599	0.0135098
819.677	0.0134135
819.755	0.0133977
819.833	0.0134606
819.912	0.0134338
819.990	0.0132903
820.068	0.0133721
820.146	0.0134557
820.224	0.0135149
820.302	0.0133764
820.380	0.0133630
820.458	0.0134039
820.537	0.0135661
820.615	0.0135349
820.693	0.0134666
820.771	0.0134632
820.849	0.0135851
820.927	0.0135434
821.005	0.0136919
821.083	0.0135962
821.162	0.0135779
821.240	0.0137860
821.318	0.0137542
821.396	0.0137429
821.474	0.0136540
821.552	0.0138360
821.630	0.0138752
821.708	0.0139736
821.787	0.0138686
821.865	0.0138026
821.943	0.0137966
822.021	0.0138098
822.099	0.0136790
822.177	0.0137787
822.255	0.0136822
822.333	0.0138094
822.412	0.0138379
822.490	0.0137238
822.568	0.0136870
822.646	0.0137667
822.724	0.0137779
822.802	0.0136549
822.880	0.0135875
822.958	0.0135954
823.037	0.0135355
823.115	0.0134963
823.193	0.0134643
823.271	0.0135376
823.349	0.0134889
823.427	0.0133969
823.505	0.0134605
823.583	0.0134943
823.662	0.0135071
823.740	0.0132298
823.818	0.0132387
823.896	0.0132966
823.974	0.0133300
824.052	0.0133866
824.130	0.0133128
824.208	0.0134245
824.287	0.0133615
824.365	0.0132571
824.443	0.0133215
824.521	0.0134068
824.599	0.0133479
824.677	0.0133430
824.755	0.0133748
824.833	0.0134492
824.912	0.0135156
824.990	0.0134415
825.068	0.0134580
825.146	0.0135133
825.224	0.0136031
825.302	0.0136181
825.380	0.0134680
825.458	0.0136369
825.537	0.0136174
825.615	0.0136132
825.693	0.0136820
825.771	0.0135589
825.849	0.0135619
825.927	0.0136483
826.005	0.0137299
826.083	0.0135606
826.162	0.0136089
826.240	0.0136665
826.318	0.0135775
826.396	0.0136514
826.474	0.0136271
826.552	0.0136657
826.630	0.0136900
826.708	0.0135799
826.787	0.0138126
826.865	0.0136417
826.943	0.0136089
827.021	0.0136558
827.099	0.0138231
827.177	0.0135293
827.255	0.0136060
827.333	0.0136556
827.412	0.0136795
827.490	0.0135928
827.568	0.0135961
827.646	0.0135016
827.724	0.0134456
827.802	0.0135976
827.880	0.0135004
827.958	0.0135184
828.037	0.0133440
828.115	0.0135995
828.193	0.0134824
828.271	0.0133652
828.349	0.0134861
828.427	0.0134250
828.505	0.0135261
828.583	0.0136182
828.662	0.0135036
828.740	0.0135674
828.818	0.0135414
828.896	0.0135571
828.974	0.0135553
829.052	0.0135393
829.130	0.0136041
829.208	0.0135822
829.287	0.0137162
829.365	0.0136269
829.443	0.0136985
829.521	0.0137371
829.599	0.0136711
829.677	0.0138239
829.755	0.0136434
829.833	0.0138350
829.912	0.0138145
829.990	0.0139218
830.068	0.0139153
830.146	0.0136743
830.224	0.0136384
830.302	0.0137558
830.380	0.0138415
830.458	0.0137902
830.537	0.0138510
830.615	0.0137482
830.693	0.0136938
830.771	0.0137892
830.849	0.0137446
830.927	0.0139531
831.005	0.0137943
831.083	0.0138195
831.162	0.0137687
831.240	0.0137547
831.318	0.0137132
831.396	0.0137981
831.474	0.0139333
831.552	0.0136826
831.630	0.0137997
831.708	0.0137189
831.787	0.0137298
831.865	0.0137062
831.943	0.0135986
832.021	0.0136861
832.099	0.0136123
832.177	0.0136741
832.255	0.0136812
832.333	0.0135394
832.412	0.0136002
832.490	0.0135014
832.568	0.0135332
832.646	0.0137282
832.724	0.0135487
832.802	0.0135859
832.880	0.0135064
832.958	0.0136287
833.037	0.0135226
833.115	0.0136217
833.193	0.0136431
833.271	0.0136358
833.349	0.0135172
833.427	0.0135862
833.505	0.0136672
833.583	0.0136115
833.662	0.0135004
833.740	0.0136284
833.818	0.0134547
833.896	0.0135558
833.974	0.0136205
834.052	0.0135780
834.130	0.0135302
834.208	0.0134895
834.287	0.0135076
834.365	0.0136183
834.443	0.0134949
834.521	0.0135175
834.599	0.0135536
834.677	0.0135145
834.755	0.0134963
834.833	0.0134823
834.912	0.0135790
834.990	0.0135828
835.068	0.0135586
835.146	0.0136075
835.224	0.0135446
835.302	0.0135606
835.380	0.0135615
835.458	0.0136234
835.537	0.0137363
835.615	0.0135622
835.693	0.0135228
835.771	0.0135876
835.849	0.0136683
835.927	0.0137550
836.005	0.0136285
836.083	0.0137205
836.162	0.0135928
836.240	0.0136092
836.318	0.0137130
836.396	0.0137818
836.474	0.0136777
836.552	0.0137866
836.630	0.0136636
836.708	0.0137320
836.787	0.0137829
836.865	0.0137277
836.943	0.0135263
837.021	0.0137472
837.099	0.0137175
837.177	0.0137804
837.255	0.0137524
837.333	0.0136238
837.412	0.0135857
837.490	0.0135453
837.568	0.0135561
837.646	0.0137237
837.724	0.0136114
837.802	0.0135421
837.880	0.0135493
837.958	0.0134965
838.037	0.0134657
838.115	0.0136560
838.193	0.0136409
838.271	0.0135547
838.349	0.0136823
838.427	0.0136478
838.505	0.0135387
838.583	0.0135243
838.662	0.0136261
838.740	0.0136020
838.818	0.0135239
838.896	0.0134933
838.974	0.0135323
839.052	0.0136470
839.130	0.0135538
839.208	0.0136037
839.287	0.0135794
839.365	0.0134833
839.443	0.0135786
839.521	0.0137092
839.599	0.0137297
839.677	0.0136504
839.755	0.0136511
839.833	0.0135496
839.912	0.0136171
839.990	0.0137869
840.068	0.0136740
840.146	0.0136747
840.224	0.0136705
840.302	0.0137067
840.380	0.0136391
840.458	0.0135729
840.537	0.0136462
840.615	0.0136267
840.693	0.0136966
840.771	0.0136145
840.849	0.0136803
840.927	0.0137477
841.005	0.0137291
841.083	0.0136088
841.162	0.0136199
841.240	0.0136573
841.318	0.0137939
841.396	0.0136743
841.474	0.0137793
841.552	0.0136217
841.630	0.0136414
841.708	0.0138110
841.787	0.0138908
841.865	0.0138416
841.943	0.0138723
842.021	0.0138277
842.099	0.0138644
842.177	0.0137131
842.255	0.0136874
842.333	0.0138705
842.412	0.0137161
842.490	0.0136929
842.568	0.0137270
842.646	0.0136987
842.724	0.0136037
842.802	0.0136891
842.880	0.0136309
842.958	0.0135542
843.037	0.0135152
843.115	0.0136060
843.193	0.0135172
843.271	0.0135075
843.349	0.0135374
843.427	0.0135057
843.505	0.0135181
843.583	0.0135810
843.662	0.0134652
843.740	0.0135611
843.818	0.0135439
843.896	0.0134612
843.974	0.0134532
844.052	0.0136565
844.130	0.0136441
844.208	0.0136406
844.287	0.0137138
844.365	0.0136067
844.443	0.0137132
844.521	0.0136732
844.599	0.0136182
844.677	0.0136962
844.755	0.0135272
844.833	0.0136278
844.912	0.0135870
844.990	0.0137092
845.068	0.0135480
845.146	0.0136080
845.224	0.0136261
845.302	0.0137070
845.380	0.0137261
845.458	0.0136051
845.537	0.0135722
845.615	0.0135905
845.693	0.0137013
845.771	0.0136449
845.849	0.0135610
845.927	0.0136311
846.005	0.0135810
846.083	0.0136040
846.162	0.0136020
846.240	0.0135801
846.318	0.0135651
846.396	0.0135681
846.474	0.0136672
846.552	0.0135885
846.630	0.0135844
846.708	0.0135207
846.787	0.0135864
846.865	0.0135876
846.943	0.0134824
847.021	0.0135336
847.099	0.0135671
847.177	0.0137077
847.255	0.0137305
847.333	0.0135831
847.412	0.0137908
847.490	0.0136121
847.568	0.0134534
847.646	0.0137047
847.724	0.0136565
847.802	0.0136480
847.880	0.0137106
847.958	0.0136530
848.037	0.0137064
848.115	0.0135820
848.193	0.0135410
848.271	0.0135948
848.349	0.0135648
848.427	0.0134764
848.505	0.0136089
848.583	0.0135201
848.662	0.0134602
848.740	0.0134678
848.818	0.0135468
848.896	0.0135401
848.974	0.0135606
849.052	0.0134666
849.130	0.0135623
849.208	0.0136379
849.287	0.0135108
849.365	0.0137012
849.443	0.0134772
849.521	0.0135625
849.599	0.0136080
849.677	0.0136177
849.755	0.0135695
849.833	0.0134824
849.912	0.0134740
849.990	0.0136345
850.068	0.0136327
850.146	0.0135637
850.224	0.0136535
850.302	0.0136587
850.380	0.0137328
850.458	0.0135261
850.537	0.0135226
850.615	0.0137336
850.693	0.0136520
850.771	0.0136503
850.849	0.0135686
850.927	0.0135910
851.005	0.0136446
851.083	0.0136309
851.162	0.0135741
851.240	0.0137252
851.318	0.0137533
851.396	0.0136652
851.474	0.0137088
851.552	0.0135661
851.630	0.0137403
851.708	0.0136289
851.787	0.0135365
851.865	0.0137399
851.943	0.0138068
852.021	0.0137249
852.099	0.0136707
852.177	0.0137167
852.255	0.0136925
852.333	0.0136794
852.412	0.0138006
852.490	0.0137447
852.568	0.0137646
852.646	0.0136206
852.724	0.0136876
852.802	0.0137860
852.880	0.0138866
852.958	0.0137595
853.037	0.0137753
853.115	0.0136276
853.193	0.0136951
853.271	0.0136430
853.349	0.0137822
853.427	0.0137596
853.505	0.0137390
853.583	0.0137199
853.662	0.0135546
853.740	0.0136929
853.818	0.0136739
853.896	0.0137484
853.974	0.0136466
854.052	0.0135960
854.130	0.0136349
854.208	0.0137258
854.287	0.0136736
854.365	0.0134766
854.443	0.0134724
854.521	0.0134370
854.599	0.0135473
854.677	0.0135269
854.755	0.0133875
854.833	0.0135478
854.912	0.0135249
854.990	0.0135617
855.068	0.0135621
855.146	0.0136298
855.224	0.0135805
855.302	0.0136913
855.380	0.0137783
855.458	0.0135675
855.537	0.0137683
855.615	0.0137942
855.693	0.0136920
855.771	0.0136907
855.849	0.0137367
855.927	0.0137932
856.005	0.0137379
856.083	0.0136410
856.162	0.0137174
856.240	0.0136336
856.318	0.0135389
856.396	0.0136741
856.474	0.0134502
856.552	0.0134232
856.630	0.0134141
856.708	0.0133975
856.787	0.0135278
856.865	0.0135635
856.943	0.0135446
857.021	0.0134772
857.099	0.0135462
857.177	0.0134929
857.255	0.0135133
857.333	0.0137006
857.412	0.0136636
857.490	0.0137157
857.568	0.0136625
857.646	0.0137435
857.724	0.0137539
857.802	0.0137379
857.880	0.0136557
857.958	0.0135132
858.037	0.0136523
858.115	0.0136006
858.193	0.0137234
858.271	0.0137168
858.349	0.0135822
858.427	0.0135342
858.505	0.0137665
858.583	0.0136375
858.662	0.0136916
858.740	0.0135909
858.818	0.0135516
858.896	0.0136113
858.974	0.0135644
859.052	0.0136301
859.130	0.0136349
859.208	0.0136035
859.287	0.0136416
859.365	0.0136869
859.443	0.0136624
859.521	0.0137330
859.599	0.0136909
859.677	0.0136048
859.755	0.0137047
859.833	0.0137705
859.912	0.0137041
859.990	0.0138028
860.068	0.0136095
860.146	0.0136479
860.224	0.0137275
860.302	0.0137442
860.380	0.0136153
860.458	0.0136932
860.537	0.0135985
860.615	0.0136130
860.693	0.0136182
860.771	0.0138131
860.849	0.0135912
860.927	0.0134689
861.005	0.0136282
861.083	0.0136590
861.162	0.0136468
861.240	0.0136785
861.318	0.0136604
861.396	0.0136620
861.474	0.0136673
861.552	0.0136530
861.630	0.0137093
861.708	0.0136070
861.787	0.0138001
861.865	0.0137380
861.943	0.0135765
862.021	0.0137394
862.099	0.0135706
862.177	0.0137437
862.255	0.0137393
862.333	0.0137778
862.412	0.0136804
862.490	0.0136525
862.568	0.0136531
862.646	0.0136857
862.724	0.0137736
862.802	0.0137028
862.880	0.0136993
862.958	0.0136353
863.037	0.0135908
863.115	0.0137587
863.193	0.0136725
863.271	0.0135968
863.349	0.0136818
863.427	0.0136526
863.505	0.0136520
863.583	0.0136322
863.662	0.0135912
863.740	0.0135670
863.818	0.0137141
863.896	0.0136095
863.974	0.0135155
864.052	0.0136063
864.130	0.0137056
864.208	0.0134309
864.287	0.0135727
864.365	0.0137609
864.443	0.0135463
864.521	0.0135838
864.599	0.0136138
864.677	0.0136009
864.755	0.0136451
864.833	0.0136694
864.912	0.0136864
864.990	0.0135840
865.068	0.0134599
865.146	0.0135522
865.224	0.0136251
865.302	0.0135453
865.380	0.0135857
865.458	0.0135665
865.537	0.0136379
865.615	0.0135604
865.693	0.0135375
865.771	0.0135358
865.849	0.0136169
865.927	0.0134647
866.005	0.0135326
866.083	0.0136222
866.162	0.0136889
866.240	0.0137382
866.318	0.0138419
866.396	0.0137688
866.474	0.0138145
866.552	0.0137408
866.630	0.0139157
866.708	0.0137651
866.787	0.0135503
866.865	0.0137367
866.943	0.0137091
867.021	0.0136182
867.099	0.0136834
867.177	0.0137646
867.255	0.0136828
867.333	0.0135004
867.412	0.0136962
867.490	0.0135439
867.568	0.0134363
867.646	0.0136348
867.724	0.0136236
867.802	0.0136252
867.880	0.0135859
867.958	0.0134591
868.037	0.0135740
868.115	0.0135220
868.193	0.0133964
868.271	0.0135534
868.349	0.0135998
868.427	0.0137513
868.505	0.0136304
868.583	0.0136894
868.662	0.0137200
868.740	0.0137314
868.818	0.0137978
868.896	0.0137608
868.974	0.0137529
869.052	0.0136472
869.130	0.0136848
869.208	0.0137749
869.287	0.0137679
869.365	0.0136373
869.443	0.0137224
869.521	0.0137934
869.599	0.0135696
869.677	0.0135265
869.755	0.0136946
869.833	0.0137168
869.912	0.0137509
869.990	0.0137388
870.068	0.0135986
870.146	0.0135973
870.224	0.0135314
870.302	0.0136315
870.380	0.0136369
870.458	0.0134966
870.537	0.0135583
870.615	0.0135349
870.693	0.0137856
870.771	0.0135979
870.849	0.0135293
870.927	0.0136275
871.005	0.0136271
871.083	0.0135181
871.162	0.0135066
871.240	0.0138358
871.318	0.0136292
871.396	0.0135072
871.474	0.0135543
871.552	0.0136524
871.630	0.0136378
871.708	0.0136069
871.787	0.0137326
871.865	0.0135089
871.943	0.0135008
872.021	0.0135091
872.099	0.0135192
872.177	0.0136211
872.255	0.0135667
872.333	0.0135205
872.412	0.0136673
872.490	0.0135750
872.568	0.0134787
872.646	0.0135200
872.724	0.0135497
872.802	0.0135983
872.880	0.0135808
872.958	0.0134731
873.037	0.0135770
873.115	0.0134126
873.193	0.0135721
873.271	0.0135403
873.349	0.0135391
873.427	0.0135477
873.505	0.0135109
873.583	0.0134459
873.662	0.0136864
873.740	0.0136306
873.818	0.0135271
873.896	0.0134067
873.974	0.0135137
874.052	0.0135658
874.130	0.0136077
874.208	0.0136127
874.287	0.0136062
874.365	0.0136168
874.443	0.0136281
874.521	0.0136588
874.599	0.0134824
874.677	0.0136626
874.755	0.0135919
874.833	0.0135452
874.912	0.0136243
874.990	0.0135937
875.068	0.0135422
875.146	0.0136166
875.224	0.0135448
875.302	0.0135178
875.380	0.0135301
875.458	0.0134016
875.537	0.0134227
875.615	0.0133296
875.693	0.0134746
875.771	0.0134379
875.849	0.0133253
875.927	0.0134834
876.005	0.0133730
876.083	0.0135777
876.162	0.0135250
876.240	0.0136983
876.318	0.0137244
876.396	0.0135011
876.474	0.0135985
876.552	0.0135493
876.630	0.0135972
876.708	0.0134969
876.787	0.0133021
876.865	0.0134824
876.943	0.0133601
877.021	0.0134590
877.099	0.0134377
877.177	0.0133905
877.255	0.0134403
877.333	0.0135106
877.412	0.0133903
877.490	0.0133990
877.568	0.0135540
877.646	0.0137534
877.724	0.0137041
877.802	0.0137379
877.880	0.0137365
877.958	0.0138479
878.037	0.0137561
878.115	0.0137328
878.193	0.0137104
878.271	0.0138695
878.349	0.0136018
878.427	0.0137426
878.505	0.0137429
878.583	0.0134647
878.662	0.0135159
878.740	0.0133630
878.818	0.0134547
878.896	0.0134277
878.974	0.0134344
879.052	0.0134334
879.130	0.0133977
879.208	0.0134710
879.287	0.0134489
879.365	0.0133956
879.443	0.0135581
879.521	0.0136394
879.599	0.0136064
879.677	0.0136565
879.755	0.0136092
879.833	0.0136428
879.912	0.0134596
879.990	0.0134294
880.068	0.0134797
880.146	0.0134568
880.224	0.0134798
880.302	0.0134921
880.380	0.0135419
880.458	0.0135515
880.537	0.0134368
880.615	0.0136080
880.693	0.0136645
880.771	0.0135283
880.849	0.0135323
880.927	0.0136109
881.005	0.0137405
881.083	0.0135877
881.162	0.0136575
881.240	0.0135602
881.318	0.0136219
881.396	0.0136189
881.474	0.0135841
881.552	0.0135918
881.630	0.0135243
881.708	0.0135580
881.787	0.0135137
881.865	0.0134348
881.943	0.0135293
882.021	0.0136143
882.099	0.0136398
882.177	0.0134673
882.255	0.0135350
882.333	0.0134872
882.412	0.0135368
882.490	0.0135901
882.568	0.0135245
882.646	0.0136649
882.724	0.0136137
882.802	0.0135859
882.880	0.0135704
882.958	0.0136553
883.037	0.0135675
883.115	0.0136656
883.193	0.0138303
883.271	0.0138274
883.349	0.0137866
883.427	0.0136987
883.505	0.0135262
883.583	0.0135120
883.662	0.0135191
883.740	0.0135680
883.818	0.0135046
883.896	0.0136583
883.974	0.0134764
884.052	0.0134435
884.130	0.0136036
884.208	0.0136258
884.287	0.0135721
884.365	0.0135187
884.443	0.0136260
884.521	0.0135618
884.599	0.0136670
884.677	0.0135314
884.755	0.0135106
884.833	0.0135770
884.912	0.0136005
884.990	0.0135557
885.068	0.0134238
885.146	0.0134995
885.224	0.0134810
885.302	0.0133106
885.380	0.0134850
885.458	0.0135841
885.537	0.0136722
885.615	0.0135193
885.693	0.0134824
885.771	0.0135855
885.849	0.0134772
885.927	0.0134504
886.005	0.0136683
886.083	0.0136067
886.162	0.0135679
886.240	0.0135466
886.318	0.0135162
886.396	0.0135549
886.474	0.0136070
886.552	0.0136456
886.630	0.0137009
886.708	0.0137514
886.787	0.0136195
886.865	0.0136542
886.943	0.0135236
887.021	0.0135629
887.099	0.0135770
887.177	0.0136727
887.255	0.0137581
887.333	0.0136491
887.412	0.0137062
887.490	0.0136796
887.568	0.0136752
887.646	0.0137389
887.724	0.0137422
887.802	0.0135335
887.880	0.0136834
887.958	0.0137687
888.037	0.0136761
888.115	0.0137338
888.193	0.0139222
888.271	0.0136475
888.349	0.0137437
888.427	0.0136813
888.505	0.0136754
888.583	0.0137756
888.662	0.0135035
888.740	0.0136127
888.818	0.0135411
888.896	0.0135063
888.974	0.0134902
889.052	0.0136074
889.130	0.0134750
889.208	0.0134262
889.287	0.0134077
889.365	0.0134548
889.443	0.0134140
889.521	0.0134677
889.599	0.0134349
889.677	0.0135203
889.755	0.0133788
889.833	0.0135028
889.912	0.0135246
889.990	0.0135361
890.068	0.0135858
890.146	0.0135266
890.224	0.0135343
890.302	0.0136905
890.380	0.0136200
890.458	0.0136431
890.537	0.0135508
890.615	0.0136023
890.693	0.0135971
890.771	0.0136680
890.849	0.0137819
890.927	0.0136409
891.005	0.0137012
891.083	0.0137334
891.162	0.0136565
891.240	0.0136948
891.318	0.0137499
891.396	0.0137301
891.474	0.0136393
891.552	0.0136070
891.630	0.0136778
891.708	0.0136127
891.787	0.0135840
891.865	0.0134807
891.943	0.0134791
892.021	0.0134101
892.099	0.0134708
892.177	0.0134695
892.255	0.0135400
892.333	0.0135555
892.412	0.0135838
892.490	0.0135194
892.568	0.0135815
892.646	0.0135707
892.724	0.0134618
892.802	0.0135328
892.880	0.0137283
892.958	0.0136506
893.037	0.0135534
893.115	0.0136079
893.193	0.0135799
893.271	0.0136691
893.349	0.0135160
893.427	0.0136005
893.505	0.0135408
893.583	0.0135601
893.662	0.0135801
893.740	0.0133865
893.818	0.0135806
893.896	0.0134296
893.974	0.0136316
894.052	0.0136287
894.130	0.0137216
894.208	0.0137088
894.287	0.0136954
894.365	0.0139081
894.443	0.0138106
894.521	0.0137815
894.599	0.0139518
894.677	0.0140913
894.755	0.0138649
894.833	0.0136295
894.912	0.0137872
894.990	0.0137411
895.068	0.0136872
895.146	0.0136869
895.224	0.0138560
895.302	0.0137679
895.380	0.0136336
895.458	0.0136411
895.537	0.0138487
895.615	0.0137665
895.693	0.0137909
895.771	0.0138557
895.849	0.0137273
895.927	0.0138050
896.005	0.0138163
896.083	0.0134998
896.162	0.0136358
896.240	0.0136165
896.318	0.0134612
896.396	0.0136259
896.474	0.0135537
896.552	0.0135065
896.630	0.0133731
896.708	0.0133652
896.787	0.0134817
896.865	0.0133257
896.943	0.0133251
897.021	0.0134000
897.099	0.0133369
897.177	0.0133357
897.255	0.0131575
897.333	0.0133177
897.412	0.0132161
897.490	0.0133630
897.568	0.0133884
897.646	0.0134972
897.724	0.0134319
897.802	0.0134676
897.880	0.0133951
897.958	0.0134293
898.037	0.0134128
898.115	0.0134382
898.193	0.0134370
898.271	0.0134158
898.349	0.0133616
898.427	0.0133262
898.505	0.0132359
898.583	0.0133602
898.662	0.0135484
898.740	0.0133378
898.818	0.0133264
898.896	0.0133701
898.974	0.0133982
899.052	0.0133398
899.130	0.0134122
899.208	0.0133701
899.287	0.0134087
899.365	0.0134857
899.443	0.0134850
899.521	0.0136297
899.599	0.0135336
899.677	0.0136523
899.755	0.0135434
899.833	0.0135879
899.912	0.0135899
899.990	0.0136398
900.068	0.0135799
900.146	0.0136033
900.224	0.0135178
900.302	0.0132739
900.380	0.0134302
900.458	0.0134489
900.537	0.0133807
900.615	0.0133361
900.693	0.0133236
900.771	0.0134022
900.849	0.0135722
900.927	0.0135389
901.005	0.0135318
901.083	0.0135720
901.162	0.0136580
901.240	0.0135059
901.318	0.0135072
901.396	0.0133084
901.474	0.0135495
901.552	0.0136050
901.630	0.0134660
901.708	0.0135460
901.787	0.0135941
901.865	0.0136242
901.943	0.0135970
902.021	0.0135638
902.099	0.0136251
902.177	0.0135876
902.255	0.0136470
902.333	0.0137054
902.412	0.0137304
902.490	0.0137466
902.568	0.0136224
902.646	0.0135677
902.724	0.0135084
902.802	0.0136257
902.880	0.0137320
902.958	0.0137120
903.037	0.0136317
903.115	0.0135214
903.193	0.0135514
903.271	0.0135551
903.349	0.0135954
903.427	0.0137243
903.505	0.0135362
903.583	0.0134907
903.662	0.0135875
903.740	0.0136864
903.818	0.0135862
903.896	0.0136756
903.974	0.0134914
904.052	0.0135467
904.130	0.0136400
904.208	0.0135342
904.287	0.0134716
904.365	0.0135091
904.443	0.0136280
904.521	0.0133107
904.599	0.0134570
904.677	0.0135740
904.755	0.0135112
904.833	0.0134275
904.912	0.0134255
904.990	0.0137001
905.068	0.0135725
905.146	0.0135976
905.224	0.0137848
905.302	0.0137650
905.380	0.0135690
905.458	0.0137731
905.537	0.0138271
905.615	0.0137280
905.693	0.0137238
905.771	0.0138912
905.849	0.0137533
905.927	0.0137549
906.005	0.0136373
906.083	0.0136295
906.162	0.0136440
906.240	0.0136742
906.318	0.0135256
906.396	0.0135958
906.474	0.0135448
906.552	0.0136444
906.630	0.0136491
906.708	0.0136215
906.787	0.0134720
906.865	0.0134885
906.943	0.0134705
907.021	0.0136327
907.099	0.0135078
907.177	0.0134026
907.255	0.0134313
907.333	0.0134496
907.412	0.0135997
907.490	0.0134166
907.568	0.0134291
907.646	0.0134525
907.724	0.0134553
907.802	0.0135001
907.880	0.0135171
907.958	0.0137284
908.037	0.0135479
908.115	0.0135371
908.193	0.0135638
908.271	0.0136359
908.349	0.0137196
908.427	0.0137194
908.505	0.0137366
908.583	0.0137414
908.662	0.0136865
908.740	0.0136138
908.818	0.0136551
908.896	0.0136940
908.974	0.0136636
909.052	0.0137006
909.130	0.0134001
909.208	0.0135036
909.287	0.0134991
909.365	0.0135480
909.443	0.0135318
909.521	0.0135745
909.599	0.0134296
909.677	0.0135303
909.755	0.0135122
909.833	0.0135490
909.912	0.0135651
909.990	0.0136479
910.068	0.0135284
910.146	0.0135571
910.224	0.0135540
910.302	0.0137337
910.380	0.0137096
910.458	0.0136269
910.537	0.0136983
910.615	0.0136890
910.693	0.0136535
910.771	0.0136179
910.849	0.0136729
910.927	0.0135549
911.005	0.0135710
911.083	0.0136107
911.162	0.0135522
911.240	0.0136523
911.318	0.0135648
911.396	0.0136789
911.474	0.0136713
911.552	0.0135586
911.630	0.0137458
911.708	0.0136950
911.787	0.0137070
911.865	0.0135841
911.943	0.0135229
912.021	0.0135974
912.099	0.0136037
912.177	0.0135349
912.255	0.0136020
912.333	0.0136054
912.412	0.0137257
912.490	0.0135881
912.568	0.0136342
912.646	0.0134356
912.724	0.0136314
912.802	0.0136668
912.880	0.0135048
912.958	0.0136945
913.037	0.0134989
913.115	0.0135757
913.193	0.0137223
913.271	0.0136057
913.349	0.0136862
913.427	0.0135295
913.505	0.0135399
913.583	0.0135616
913.662	0.0136656
913.740	0.0135897
913.818	0.0135879
913.896	0.0135995
913.974	0.0137822
914.052	0.0137081
914.130	0.0137000
914.208	0.0136177
914.287	0.0136961
914.365	0.0135670
914.443	0.0136231
914.521	0.0135482
914.599	0.0136557
914.677	0.0136603
914.755	0.0136671
914.833	0.0137277
914.912	0.0138084
914.990	0.0138268
915.068	0.0137583
915.146	0.0135886
915.224	0.0136317
915.302	0.0137447
915.380	0.0137084
915.458	0.0136876
915.537	0.0136752
915.615	0.0137746
915.693	0.0136246
915.771	0.0135956
915.849	0.0135967
915.927	0.0136919
916.005	0.0135393
916.083	0.0135844
916.162	0.0134361
916.240	0.0137311
916.318	0.0137000
916.396	0.0134516
916.474	0.0135739
916.552	0.0136076
916.630	0.0135283
916.708	0.0135684
916.787	0.0136539
916.865	0.0137299
916.943	0.0137629
917.021	0.0136836
917.099	0.0136610
917.177	0.0137881
917.255	0.0137228
917.333	0.0136190
917.412	0.0136942
917.490	0.0137286
917.568	0.0138499
917.646	0.0137094
917.724	0.0136112
917.802	0.0136864
917.880	0.0137897
917.958	0.0136205
918.037	0.0135859
918.115	0.0136236
918.193	0.0136473
918.271	0.0136234
918.349	0.0134550
918.427	0.0134305
918.505	0.0135940
918.583	0.0135588
918.662	0.0135485
918.740	0.0135674
918.818	0.0136200
918.896	0.0135136
918.974	0.0136533
919.052	0.0135488
919.130	0.0136487
919.208	0.0136600
919.287	0.0135781
919.365	0.0135968
919.443	0.0135271
919.521	0.0137155
919.599	0.0136295
919.677	0.0136971
919.755	0.0137469
919.833	0.0136156
919.912	0.0136360
919.990	0.0137226
920.068	0.0136060
920.146	0.0137120
920.224	0.0135957
920.302	0.0134817
920.380	0.0136358
920.458	0.0136356
920.537	0.0135656
920.615	0.0135987
920.693	0.0134568
920.771	0.0135007
920.849	0.0136737
920.927	0.0135629
921.005	0.0137306
921.083	0.0136440
921.162	0.0136259
921.240	0.0134694
921.318	0.0136687
921.396	0.0136245
921.474	0.0136437
921.552	0.0137938
921.630	0.0135326
921.708	0.0134364
921.787	0.0135374
921.865	0.0135606
921.943	0.0134908
922.021	0.0135471
922.099	0.0135384
922.177	0.0134141
922.255	0.0135175
922.333	0.0135547
922.412	0.0135160
922.490	0.0137247
922.568	0.0135286
922.646	0.0133766
922.724	0.0134383
922.802	0.0135033
922.880	0.0134418
922.958	0.0135052
923.037	0.0134419
923.115	0.0135757
923.193	0.0135299
923.271	0.0135240
923.349	0.0136950
923.427	0.0135450
923.505	0.0135079
923.583	0.0135606
923.662	0.0135797
923.740	0.0135973
923.818	0.0135984
923.896	0.0135446
923.974	0.0134920
924.052	0.0136047
924.130	0.0134549
924.208	0.0134258
924.287	0.0135303
924.365	0.0134407
924.443	0.0133922
924.521	0.0134787
924.599	0.0135256
924.677	0.0133661
924.755	0.0134583
924.833	0.0134199
924.912	0.0135036
924.990	0.0134179
925.068	0.0135697
925.146	0.0134437
925.224	0.0134278
925.302	0.0135045
925.380	0.0134119
925.458	0.0134421
925.537	0.0134960
925.615	0.0135320
925.693	0.0134591
925.771	0.0132701
925.849	0.0134725
925.927	0.0136066
926.005	0.0134396
926.083	0.0133807
926.162	0.0134682
926.240	0.0134965
926.318	0.0134674
926.396	0.0134042
926.474	0.0134844
926.552	0.0136111
926.630	0.0134378
926.708	0.0135377
926.787	0.0135242
926.865	0.0135307
926.943	0.0135497
927.021	0.0136354
927.099	0.0136219
927.177	0.0136116
927.255	0.0135983
927.333	0.0136443
927.412	0.0137100
927.490	0.0137392
927.568	0.0136914
927.646	0.0136954
927.724	0.0135106
927.802	0.0136479
927.880	0.0136399
927.958	0.0136727
928.037	0.0134306
928.115	0.0136469
928.193	0.0135647
928.271	0.0134864
928.349	0.0137080
928.427	0.0136926
928.505	0.0136366
928.583	0.0134763
928.662	0.0136751
928.740	0.0136494
928.818	0.0136439
928.896	0.0136443
928.974	0.0137712
929.052	0.0136641
929.130	0.0136180
929.208	0.0137002
929.287	0.0136350
929.365	0.0135793
929.443	0.0135239
929.521	0.0135518
929.599	0.0133917
929.677	0.0134096
929.755	0.0134354
929.833	0.0133281
929.912	0.0134576
929.990	0.0133941
930.068	0.0136005
930.146	0.0135337
930.224	0.0134945
930.302	0.0136340
930.380	0.0135519
930.458	0.0136755
930.537	0.0136339
930.615	0.0135760
930.693	0.0136930
930.771	0.0136092
930.849	0.0134417
930.927	0.0136060
931.005	0.0137136
931.083	0.0136051
931.162	0.0137340
931.240	0.0136765
931.318	0.0136484
931.396	0.0135935
931.474	0.0137319
931.552	0.0138551
931.630	0.0136566
931.708	0.0137186
931.787	0.0134888
931.865	0.0135854
931.943	0.0137514
932.021	0.0136324
932.099	0.0135342
932.177	0.0135970
932.255	0.0137634
932.333	0.0138179
932.412	0.0138403
932.490	0.0137627
932.568	0.0138383
932.646	0.0137206
932.724	0.0138488
932.802	0.0138500
932.880	0.0137311
932.958	0.0137300
933.037	0.0138242
933.115	0.0136848
933.193	0.0137473
933.271	0.0137822
933.349	0.0137090
933.427	0.0137490
933.505	0.0138293
933.583	0.0137067
933.662	0.0137067
933.740	0.0136405
933.818	0.0136546
933.896	0.0137607
933.974	0.0136700
934.052	0.0136099
934.130	0.0136539
934.208	0.0136523
934.287	0.0137486
934.365	0.0137102
934.443	0.0136729
934.521	0.0135683
934.599	0.0136255
934.677	0.0136013
934.755	0.0135281
934.833	0.0135976
934.912	0.0136394
934.990	0.0134861
935.068	0.0137304
935.146	0.0136108
935.224	0.0136127
935.302	0.0135121
935.380	0.0135339
935.458	0.0136072
935.537	0.0136015
935.615	0.0135748
935.693	0.0135472
935.771	0.0137641
935.849	0.0135596
935.927	0.0136031
936.005	0.0135380
936.083	0.0137357
936.162	0.0136475
936.240	0.0136338
936.318	0.0136565
936.396	0.0136210
936.474	0.0135790
936.552	0.0136552
936.630	0.0138683
936.708	0.0136932
936.787	0.0136737
936.865	0.0136417
936.943	0.0138677
937.021	0.0138261
937.099	0.0138748
937.177	0.0138820
937.255	0.0136699
937.333	0.0137778
937.412	0.0136203
937.490	0.0137372
937.568	0.0136406
937.646	0.0136573
937.724	0.0136055
937.802	0.0136662
937.880	0.0136081
937.958	0.0134049
938.037	0.0136380
938.115	0.0136900
938.193	0.0135783
938.271	0.0135316
938.349	0.0136162
938.427	0.0137528
938.505	0.0137300
938.583	0.0137169
938.662	0.0136349
938.740	0.0136372
938.818	0.0136458
938.896	0.0136538
938.974	0.0137593
939.052	0.0136212
939.130	0.0135859
939.208	0.0138069
939.287	0.0137319
939.365	0.0135927
939.443	0.0135648
939.521	0.0135648
939.599	0.0134510
939.677	0.0133460
939.755	0.0135676
939.833	0.0135007
939.912	0.0134723
939.990	0.0134476
940.068	0.0135995
940.146	0.0135280
940.224	0.0135265
940.302	0.0134076
940.380	0.0136946
940.458	0.0136404
940.537	0.0135069
940.615	0.0134962
940.693	0.0135133
940.771	0.0134981
940.849	0.0135512
940.927	0.0134540
941.005	0.0134747
941.083	0.0135459
941.162	0.0137881
941.240	0.0137389
941.318	0.0137666
941.396	0.0137317
941.474	0.0137009
941.552	0.0136736
941.630	0.0136271
941.708	0.0136117
941.787	0.0136546
941.865	0.0137671
941.943	0.0137930
942.021	0.0136896
942.099	0.0136617
942.177	0.0136903
942.255	0.0137985
942.333	0.0137820
942.412	0.0136449
942.490	0.0136297
942.568	0.0137007
942.646	0.0136790
942.724	0.0136319
942.802	0.0137474
942.880	0.0137772
942.958	0.0136663
943.037	0.0136687
943.115	0.0136656
943.193	0.0136824
943.271	0.0136975
943.349	0.0138049
943.427	0.0137974
943.505	0.0137603
943.583	0.0137211
943.662	0.0137671
943.740	0.0137780
943.818	0.0136994
943.896	0.0136984
943.974	0.0136446
944.052	0.0138492
944.130	0.0137762
944.208	0.0137122
944.287	0.0135449
944.365	0.0135174
944.443	0.0135986
944.521	0.0136163
944.599	0.0135190
944.677	0.0135469
944.755	0.0136331
944.833	0.0136042
944.912	0.0135615
944.990	0.0135353
945.068	0.0135326
945.146	0.0136509
945.224	0.0135371
945.302	0.0135407
945.380	0.0136311
945.458	0.0135141
945.537	0.0135211
945.615	0.0135455
945.693	0.0134658
945.771	0.0136600
945.849	0.0136312
945.927	0.0136094
946.005	0.0136300
946.083	0.0135827
946.162	0.0136269
946.240	0.0134783
946.318	0.0135490
946.396	0.0134447
946.474	0.0137499
946.552	0.0135300
946.630	0.0134879
946.708	0.0135046
946.787	0.0134958
946.865	0.0136567
946.943	0.0135759
947.021	0.0135408
947.099	0.0135206
947.177	0.0134656
947.255	0.0136959
947.333	0.0136378
947.412	0.0135488
947.490	0.0135600
947.568	0.0136111
947.646	0.0135378
947.724	0.0134924
947.802	0.0136094
947.880	0.0135581
947.958	0.0135421
948.037	0.0136036
948.115	0.0134975
948.193	0.0134506
948.271	0.0134656
948.349	0.0135356
948.427	0.0135629
948.505	0.0134357
948.583	0.0135152
948.662	0.0135837
948.740	0.0135975
948.818	0.0135394
948.896	0.0135313
948.974	0.0136001
949.052	0.0135561
949.130	0.0136680
949.208	0.0134109
949.287	0.0135428
949.365	0.0135937
949.443	0.0137498
949.521	0.0136057
949.599	0.0135725
949.677	0.0136499
949.755	0.0136363
949.833	0.0136816
949.912	0.0136852
949.990	0.0135732
950.068	0.0135760
950.146	0.0136601
950.224	0.0136877
950.302	0.0136139
950.380	0.0137038
950.458	0.0137076
950.537	0.0135742
950.615	0.0137447
950.693	0.0135928
950.771	0.0137343
950.849	0.0136860
950.927	0.0135471
951.005	0.0137015
951.083	0.0137685
951.162	0.0137560
951.240	0.0136609
951.318	0.0137029
951.396	0.0137862
951.474	0.0135112
951.552	0.0134378
951.630	0.0135972
951.708	0.0136094
951.787	0.0135677
951.865	0.0134966
951.943	0.0136893
952.021	0.0135106
952.099	0.0135822
952.177	0.0136317
952.255	0.0135159
952.333	0.0136915
952.412	0.0138591
952.490	0.0138151
952.568	0.0137865
952.646	0.0136416
952.724	0.0136372
952.802	0.0136504
952.880	0.0136742
952.958	0.0136922
953.037	0.0135626
953.115	0.0137011
953.193	0.0135694
953.271	0.0136839
953.349	0.0136652
953.427	0.0136139
953.505	0.0135786
953.583	0.0136475
953.662	0.0135703
953.740	0.0135899
953.818	0.0136736
953.896	0.0137312
953.974	0.0137341
954.052	0.0136952
954.130	0.0138342
954.208	0.0137831
954.287	0.0137879
954.365	0.0138696
954.443	0.0138951
954.521	0.0139040
954.599	0.0138065
954.677	0.0137204
954.755	0.0136124
954.833	0.0136687
954.912	0.0135297
954.990	0.0136130
955.068	0.0135133
955.146	0.0133402
955.224	0.0133067
955.302	0.0133410
955.380	0.0133647
955.458	0.0133530
955.537	0.0135979
955.615	0.0136049
955.693	0.0137786
955.771	0.0137262
955.849	0.0137859
955.927	0.0139482
956.005	0.0139082
956.083	0.0138184
956.162	0.0138018
956.240	0.0137233
956.318	0.0136021
956.396	0.0135388
956.474	0.0135553
956.552	0.0134653
956.630	0.0133666
956.708	0.0133591
956.787	0.0133036
956.865	0.0134333
956.943	0.0132398
957.021	0.0132729
957.099	0.0131917
957.177	0.0133058
957.255	0.0136327
957.333	0.0137236
957.412	0.0135303
957.490	0.0135208
957.568	0.0138581
957.646	0.0137897
957.724	0.0139455
957.802	0.0139470
957.880	0.0139144
957.958	0.0138324
958.037	0.0138102
958.115	0.0138176
958.193	0.0135973
958.271	0.0135928
958.349	0.0135410
958.427	0.0134633
958.505	0.0134004
958.583	0.0134399
958.662	0.0133018
958.740	0.0132190
958.818	0.0133636
958.896	0.0134276
958.974	0.0134779
959.052	0.0133921
959.130	0.0135000
959.208	0.0135357
959.287	0.0134328
959.365	0.0135037
959.443	0.0135765
959.521	0.0135945
959.599	0.0136343
959.677	0.0135322
959.755	0.0136137
959.833	0.0136359
959.912	0.0136597
959.990	0.0136031
960.068	0.0138712
960.146	0.0137135
960.224	0.0135740
960.302	0.0136422
960.380	0.0136296
960.458	0.0136237
960.537	0.0137012
960.615	0.0135599
960.693	0.0135703
960.771	0.0135786
960.849	0.0134836
960.927	0.0135500
961.005	0.0136024
961.083	0.0135744
961.162	0.0135836
961.240	0.0134875
961.318	0.0135424
961.396	0.0136130
961.474	0.0136200
961.552	0.0135097
961.630	0.0134013
961.708	0.0135529
961.787	0.0135334
961.865	0.0135685
961.943	0.0135386
962.021	0.0136892
962.099	0.0136891
962.177	0.0137386
962.255	0.0138232
962.333	0.0137447
962.412	0.0138068
962.490	0.0139086
962.568	0.0139554
962.646	0.0138023
962.724	0.0137840
962.802	0.0137266
962.880	0.0136941
962.958	0.0137759
963.037	0.0136781
963.115	0.0135143
963.193	0.0134699
963.271	0.0135134
963.349	0.0135061
963.427	0.0134457
963.505	0.0134395
963.583	0.0133723
963.662	0.0133819
963.740	0.0135538
963.818	0.0134175
963.896	0.0134903
963.974	0.0136171
964.052	0.0135641
964.130	0.0135641
964.208	0.0135392
964.287	0.0134151
964.365	0.0136269
964.443	0.0134736
964.521	0.0134854
964.599	0.0135290
964.677	0.0135056
964.755	0.0135640
964.833	0.0134539
964.912	0.0135851
964.990	0.0135538
965.068	0.0134918
965.146	0.0135401
965.224	0.0134254
965.302	0.0136899
965.380	0.0135827
965.458	0.0137011
965.537	0.0135495
965.615	0.0136586
965.693	0.0137298
965.771	0.0137620
965.849	0.0136686
965.927	0.0136190
966.005	0.0137894
966.083	0.0137522
966.162	0.0136831
966.240	0.0137199
966.318	0.0137060
966.396	0.0135881
966.474	0.0135107
966.552	0.0135472
966.630	0.0134180
966.708	0.0132831
966.787	0.0133729
966.865	0.0133775
966.943	0.0135050
967.021	0.0134187
967.099	0.0133791
967.177	0.0133766
967.255	0.0134052
967.333	0.0135605
967.412	0.0135605
967.490	0.0136797
967.568	0.0136752
967.646	0.0136089
967.724	0.0135972
967.802	0.0136643
967.880	0.0137425
967.958	0.0138558
968.037	0.0138889
968.115	0.0137826
968.193	0.0138211
968.271	0.0139737
968.349	0.0138845
968.427	0.0137318
968.505	0.0137764
968.583	0.0136681
968.662	0.0137019
968.740	0.0136131
968.818	0.0134938
968.896	0.0135339
968.974	0.0136895
969.052	0.0136322
969.130	0.0136524
969.208	0.0135837
969.287	0.0135255
969.365	0.0134996
969.443	0.0135989
969.521	0.0134710
969.599	0.0134698
969.677	0.0135464
969.755	0.0134863
969.833	0.0134516
969.912	0.0134454
