05/08/2022	20:20:17	Ver.	4.1	UNKNOWN
Optical Delay	600.015094	Delta X		0.078125	Sweeps	1	Scan Rate	0/0
Coordinates	Axis 1	NaN	Axis 2	NaN	Axis 3	NaN	Axis 4	NaN	Axis 5	NaN	Axis 6	0.000000
TX Power	0.000000	RX Power	0.000000

600.015	0.0139191
600.093	0.0138226
600.171	0.0139373
600.249	0.0139748
600.328	0.0139661
600.406	0.0140993
600.484	0.0141228
600.562	0.0140522
600.640	0.0140191
600.718	0.0140658
600.796	0.0140853
600.874	0.0141609
600.953	0.0141216
601.031	0.0141164
601.109	0.0141351
601.187	0.0140571
601.265	0.0142132
601.343	0.0141484
601.421	0.0140341
601.499	0.0141102
601.578	0.0141166
601.656	0.0141714
601.734	0.0140475
601.812	0.0139305
601.890	0.0138395
601.968	0.0140786
602.046	0.0140033
602.124	0.0139691
602.203	0.0140511
602.281	0.0140923
602.359	0.0141200
602.437	0.0140135
602.515	0.0141611
602.593	0.0140458
602.671	0.0140585
602.749	0.0140659
602.828	0.0140574
602.906	0.0140139
602.984	0.0141195
603.062	0.0140211
603.140	0.0140636
603.218	0.0142608
603.296	0.0141322
603.374	0.0140694
603.453	0.0138577
603.531	0.0140123
603.609	0.0141563
603.687	0.0140626
603.765	0.0141296
603.843	0.0140265
603.921	0.0139445
603.999	0.0139439
604.078	0.0138690
604.156	0.0140001
604.234	0.0139359
604.312	0.0140079
604.390	0.0139946
604.468	0.0139233
604.546	0.0139515
604.624	0.0139236
604.703	0.0139443
604.781	0.0139573
604.859	0.0138231
604.937	0.0138309
605.015	0.0138263
605.093	0.0138927
605.171	0.0139849
605.249	0.0138641
605.328	0.0138881
605.406	0.0138897
605.484	0.0139571
605.562	0.0139297
605.640	0.0137873
605.718	0.0139220
605.796	0.0138773
605.874	0.0138431
605.953	0.0139008
606.031	0.0139188
606.109	0.0138669
606.187	0.0138757
606.265	0.0138354
606.343	0.0138858
606.421	0.0139584
606.499	0.0139189
606.578	0.0139447
606.656	0.0139129
606.734	0.0139104
606.812	0.0139758
606.890	0.0138882
606.968	0.0138084
607.046	0.0138589
607.124	0.0139433
607.203	0.0138693
607.281	0.0140553
607.359	0.0139803
607.437	0.0140034
607.515	0.0139494
607.593	0.0140067
607.671	0.0139394
607.749	0.0140032
607.828	0.0141339
607.906	0.0140347
607.984	0.0139722
608.062	0.0139263
608.140	0.0138750
608.218	0.0140118
608.296	0.0139136
608.374	0.0139591
608.453	0.0138702
608.531	0.0137988
608.609	0.0139094
608.687	0.0139487
608.765	0.0140171
608.843	0.0139532
608.921	0.0137536
608.999	0.0138623
609.078	0.0138570
609.156	0.0140186
609.234	0.0139068
609.312	0.0139059
609.390	0.0138555
609.468	0.0140585
609.546	0.0138495
609.624	0.0139071
609.703	0.0138756
609.781	0.0139097
609.859	0.0139215
609.937	0.0138644
610.015	0.0139511
610.093	0.0137603
610.171	0.0136404
610.249	0.0138705
610.328	0.0138937
610.406	0.0137915
610.484	0.0138658
610.562	0.0137427
610.640	0.0136461
610.718	0.0136066
610.796	0.0135892
610.874	0.0138013
610.953	0.0136919
611.031	0.0136653
611.109	0.0138181
611.187	0.0136684
611.265	0.0137820
611.343	0.0136848
611.421	0.0136034
611.499	0.0136789
611.578	0.0136846
611.656	0.0134843
611.734	0.0137213
611.812	0.0136946
611.890	0.0137086
611.968	0.0135838
612.046	0.0137066
612.124	0.0137759
612.203	0.0135716
612.281	0.0137290
612.359	0.0136655
612.437	0.0135541
612.515	0.0136492
612.593	0.0136781
612.671	0.0137383
612.749	0.0137195
612.828	0.0136605
612.906	0.0135194
612.984	0.0135977
613.062	0.0136736
613.140	0.0137911
613.218	0.0136170
613.296	0.0136034
613.374	0.0136355
613.453	0.0138230
613.531	0.0136550
613.609	0.0135811
613.687	0.0136454
613.765	0.0136756
613.843	0.0135793
613.921	0.0135889
613.999	0.0136208
614.078	0.0135527
614.156	0.0135735
614.234	0.0136654
614.312	0.0137063
614.390	0.0136382
614.468	0.0135567
614.546	0.0137306
614.624	0.0136185
614.703	0.0137549
614.781	0.0136779
614.859	0.0137527
614.937	0.0136378
615.015	0.0135059
615.093	0.0136362
615.171	0.0136408
615.249	0.0135102
615.328	0.0136398
615.406	0.0136875
615.484	0.0136616
615.562	0.0136351
615.640	0.0135931
615.718	0.0136172
615.796	0.0136688
615.874	0.0137646
615.953	0.0137844
616.031	0.0135528
616.109	0.0137256
616.187	0.0137588
616.265	0.0137158
616.343	0.0136882
616.421	0.0137643
616.499	0.0136723
616.578	0.0136336
616.656	0.0137322
616.734	0.0137420
616.812	0.0137353
616.890	0.0138322
616.968	0.0138620
617.046	0.0137203
617.124	0.0136687
617.203	0.0137110
617.281	0.0137811
617.359	0.0136668
617.437	0.0137612
617.515	0.0138465
617.593	0.0137493
617.671	0.0137096
617.749	0.0137016
617.828	0.0137621
617.906	0.0137213
617.984	0.0137737
618.062	0.0138785
618.140	0.0136974
618.218	0.0137294
618.296	0.0138476
618.374	0.0139085
618.453	0.0138650
618.531	0.0138151
618.609	0.0137861
618.687	0.0137554
618.765	0.0137483
618.843	0.0138481
618.921	0.0139113
618.999	0.0138419
619.078	0.0137469
619.156	0.0138505
619.234	0.0139542
619.312	0.0138095
619.390	0.0137637
619.468	0.0138371
619.546	0.0139578
619.624	0.0137914
619.703	0.0138274
619.781	0.0137590
619.859	0.0139313
619.937	0.0139692
620.015	0.0138945
620.093	0.0138667
620.171	0.0138152
620.249	0.0139233
620.328	0.0138693
620.406	0.0138618
620.484	0.0136975
620.562	0.0139944
620.640	0.0138653
620.718	0.0137911
620.796	0.0138072
620.874	0.0139938
620.953	0.0138858
621.031	0.0139890
621.109	0.0138950
621.187	0.0138080
621.265	0.0139198
621.343	0.0139355
621.421	0.0140593
621.499	0.0139448
621.578	0.0140041
621.656	0.0141087
621.734	0.0140510
621.812	0.0140224
621.890	0.0139829
621.968	0.0141396
622.046	0.0140823
622.124	0.0141434
622.203	0.0140201
622.281	0.0140675
622.359	0.0142480
622.437	0.0140710
622.515	0.0142790
622.593	0.0141810
622.671	0.0141816
622.749	0.0142172
622.828	0.0141403
622.906	0.0141228
622.984	0.0141490
623.062	0.0141233
623.140	0.0141103
623.218	0.0142377
623.296	0.0142368
623.374	0.0142252
623.453	0.0141045
623.531	0.0140661
623.609	0.0143045
623.687	0.0141671
623.765	0.0140005
623.843	0.0139896
623.921	0.0140753
623.999	0.0139973
624.078	0.0140557
624.156	0.0139243
624.234	0.0140430
624.312	0.0140029
624.390	0.0139376
624.468	0.0140602
624.546	0.0139291
624.624	0.0140701
624.703	0.0139123
624.781	0.0137728
624.859	0.0140527
624.937	0.0141062
625.015	0.0139698
625.093	0.0138897
625.171	0.0140460
625.249	0.0138678
625.328	0.0140691
625.406	0.0139967
625.484	0.0139381
625.562	0.0139409
625.640	0.0137357
625.718	0.0138699
625.796	0.0137840
625.874	0.0139877
625.953	0.0138716
626.031	0.0138599
626.109	0.0139996
626.187	0.0139542
626.265	0.0139109
626.343	0.0137917
626.421	0.0138261
626.499	0.0139103
626.578	0.0138585
626.656	0.0138157
626.734	0.0138765
626.812	0.0139179
626.890	0.0137862
626.968	0.0138248
627.046	0.0138601
627.124	0.0137756
627.203	0.0138565
627.281	0.0137072
627.359	0.0138940
627.437	0.0139299
627.515	0.0139527
627.593	0.0137874
627.671	0.0138459
627.749	0.0139125
627.828	0.0138419
627.906	0.0137647
627.984	0.0138036
628.062	0.0138107
628.140	0.0140009
628.218	0.0138823
628.296	0.0138659
628.374	0.0138904
628.453	0.0139468
628.531	0.0138999
628.609	0.0138483
628.687	0.0138376
628.765	0.0138599
628.843	0.0140320
628.921	0.0138249
628.999	0.0139515
629.078	0.0139323
629.156	0.0140274
629.234	0.0139271
629.312	0.0140357
629.390	0.0139152
629.468	0.0138879
629.546	0.0140341
629.624	0.0140118
629.703	0.0138506
629.781	0.0139744
629.859	0.0138326
629.937	0.0138524
630.015	0.0139592
630.093	0.0138747
630.171	0.0139256
630.249	0.0139824
630.328	0.0139164
630.406	0.0140009
630.484	0.0139555
630.562	0.0138186
630.640	0.0138821
630.718	0.0139162
630.796	0.0140118
630.874	0.0137653
630.953	0.0138490
631.031	0.0138248
631.109	0.0139470
631.187	0.0137650
631.265	0.0137468
631.343	0.0138473
631.421	0.0138577
631.499	0.0136494
631.578	0.0138162
631.656	0.0137767
631.734	0.0138387
631.812	0.0137761
631.890	0.0137241
631.968	0.0135616
632.046	0.0135487
632.124	0.0136516
632.203	0.0136247
632.281	0.0137196
632.359	0.0136075
632.437	0.0137638
632.515	0.0137865
632.593	0.0136619
632.671	0.0136076
632.749	0.0137534
632.828	0.0137439
632.906	0.0135892
632.984	0.0137565
633.062	0.0135319
633.140	0.0137288
633.218	0.0136112
633.296	0.0136915
633.374	0.0136593
633.453	0.0136343
633.531	0.0136902
633.609	0.0138514
633.687	0.0136790
633.765	0.0136116
633.843	0.0137653
633.921	0.0138663
633.999	0.0138608
634.078	0.0136681
634.156	0.0137486
634.234	0.0138155
634.312	0.0138879
634.390	0.0137883
634.468	0.0137598
634.546	0.0137436
634.624	0.0137734
634.703	0.0138508
634.781	0.0138306
634.859	0.0138412
634.937	0.0138597
635.015	0.0138443
635.093	0.0138089
635.171	0.0135977
635.249	0.0137211
635.328	0.0137508
635.406	0.0136539
635.484	0.0137133
635.562	0.0137003
635.640	0.0136895
635.718	0.0136977
635.796	0.0137961
635.874	0.0137666
635.953	0.0137534
636.031	0.0138036
636.109	0.0137922
636.187	0.0137269
636.265	0.0137975
636.343	0.0137768
636.421	0.0137910
636.499	0.0138133
636.578	0.0136630
636.656	0.0139506
636.734	0.0138241
636.812	0.0137370
636.890	0.0135683
636.968	0.0137886
637.046	0.0137862
637.124	0.0139006
637.203	0.0137997
637.281	0.0136812
637.359	0.0137849
637.437	0.0138896
637.515	0.0137691
637.593	0.0136895
637.671	0.0137028
637.749	0.0138087
637.828	0.0138554
637.906	0.0139751
637.984	0.0137280
638.062	0.0137946
638.140	0.0137600
638.218	0.0137000
638.296	0.0137969
638.374	0.0137124
638.453	0.0138206
638.531	0.0136832
638.609	0.0135849
638.687	0.0134558
638.765	0.0136929
638.843	0.0134360
638.921	0.0136424
638.999	0.0135101
639.078	0.0135931
639.156	0.0135473
639.234	0.0136680
639.312	0.0136996
639.390	0.0136764
639.468	0.0136524
639.546	0.0138088
639.624	0.0139563
639.703	0.0137749
639.781	0.0139361
639.859	0.0138765
639.937	0.0139357
640.015	0.0140254
640.093	0.0140011
640.171	0.0140180
640.249	0.0139216
640.328	0.0140457
640.406	0.0140386
640.484	0.0138718
640.562	0.0139662
640.640	0.0139645
640.718	0.0137971
640.796	0.0138865
640.874	0.0138892
640.953	0.0138910
641.031	0.0138369
641.109	0.0138170
641.187	0.0137121
641.265	0.0135753
641.343	0.0135519
641.421	0.0134710
641.499	0.0134753
641.578	0.0133721
641.656	0.0133557
641.734	0.0132504
641.812	0.0133401
641.890	0.0132284
641.968	0.0132349
642.046	0.0133669
642.124	0.0134359
642.203	0.0134013
642.281	0.0134573
642.359	0.0137592
642.437	0.0138526
642.515	0.0140236
642.593	0.0139343
642.671	0.0142518
642.749	0.0143296
642.828	0.0144337
642.906	0.0144871
642.984	0.0146510
643.062	0.0146249
643.140	0.0146140
643.218	0.0146033
643.296	0.0144618
643.374	0.0145251
643.453	0.0145380
643.531	0.0145344
643.609	0.0143410
643.687	0.0142635
643.765	0.0143523
643.843	0.0141772
643.921	0.0140161
643.999	0.0139748
644.078	0.0139818
644.156	0.0137437
644.234	0.0137195
644.312	0.0136414
644.390	0.0135637
644.468	0.0135327
644.546	0.0132388
644.624	0.0131561
644.703	0.0132472
644.781	0.0132613
644.859	0.0132578
644.937	0.0132912
645.015	0.0133149
645.093	0.0134840
645.171	0.0135592
645.249	0.0135312
645.328	0.0135754
645.406	0.0136902
645.484	0.0138181
645.562	0.0137025
645.640	0.0138696
645.718	0.0140964
645.796	0.0142224
645.874	0.0142079
645.953	0.0142735
646.031	0.0143253
646.109	0.0144353
646.187	0.0144933
646.265	0.0144105
646.343	0.0145251
646.421	0.0146171
646.499	0.0144449
646.578	0.0145405
646.656	0.0143877
646.734	0.0143725
646.812	0.0143449
646.890	0.0142926
646.968	0.0141063
647.046	0.0139901
647.124	0.0138757
647.203	0.0138088
647.281	0.0135742
647.359	0.0135256
647.437	0.0133060
647.515	0.0134091
647.593	0.0132378
647.671	0.0131425
647.749	0.0130017
647.828	0.0129537
647.906	0.0129067
647.984	0.0129899
648.062	0.0128430
648.140	0.0129250
648.218	0.0128878
648.296	0.0129178
648.374	0.0130408
648.453	0.0130275
648.531	0.0129578
648.609	0.0131295
648.687	0.0132308
648.765	0.0130918
648.843	0.0132316
648.921	0.0134599
648.999	0.0135838
649.078	0.0137392
649.156	0.0139211
649.234	0.0139405
649.312	0.0140887
649.390	0.0144561
649.468	0.0143722
649.546	0.0144513
649.624	0.0144447
649.703	0.0146731
649.781	0.0145418
649.859	0.0146343
649.937	0.0147978
650.015	0.0147276
650.093	0.0146381
650.171	0.0145490
650.249	0.0145863
650.328	0.0146757
650.406	0.0145997
650.484	0.0145983
650.562	0.0146404
650.640	0.0144726
650.718	0.0144582
650.796	0.0143616
650.874	0.0143051
650.953	0.0140812
651.031	0.0140513
651.109	0.0139190
651.187	0.0136283
651.265	0.0136243
651.343	0.0134135
651.421	0.0131302
651.499	0.0132872
651.578	0.0131895
651.656	0.0129478
651.734	0.0126474
651.812	0.0127748
651.890	0.0127839
651.968	0.0128201
652.046	0.0127471
652.124	0.0127013
652.203	0.0126769
652.281	0.0127685
652.359	0.0130112
652.437	0.0130904
652.515	0.0132068
652.593	0.0134575
652.671	0.0136854
652.749	0.0137164
652.828	0.0140872
652.906	0.0142680
652.984	0.0143329
653.062	0.0146339
653.140	0.0147587
653.218	0.0149747
653.296	0.0151458
653.374	0.0149292
653.453	0.0149870
653.531	0.0153434
653.609	0.0152868
653.687	0.0150908
653.765	0.0150794
653.843	0.0150287
653.921	0.0150528
653.999	0.0150346
654.078	0.0151187
654.156	0.0149884
654.234	0.0149645
654.312	0.0147672
654.390	0.0147597
654.468	0.0146856
654.546	0.0145721
654.624	0.0144310
654.703	0.0142304
654.781	0.0142130
654.859	0.0140305
654.937	0.0136717
655.015	0.0136286
655.093	0.0135638
655.171	0.0133572
655.249	0.0133738
655.328	0.0131981
655.406	0.0130553
655.484	0.0130484
655.562	0.0128181
655.640	0.0127043
655.718	0.0126937
655.796	0.0127659
655.874	0.0126987
655.953	0.0124274
656.031	0.0124787
656.109	0.0123609
656.187	0.0125106
656.265	0.0124329
656.343	0.0125883
656.421	0.0125861
656.499	0.0125990
656.578	0.0126517
656.656	0.0129806
656.734	0.0131131
656.812	0.0132258
656.890	0.0133072
656.968	0.0136569
657.046	0.0138387
657.124	0.0139646
657.203	0.0143050
657.281	0.0145735
657.359	0.0145755
657.437	0.0148543
657.515	0.0150327
657.593	0.0150977
657.671	0.0151682
657.749	0.0152950
657.828	0.0154852
657.906	0.0153941
657.984	0.0154227
658.062	0.0154485
658.140	0.0152244
658.218	0.0151842
658.296	0.0151153
658.374	0.0149646
658.453	0.0147906
658.531	0.0147682
658.609	0.0145805
658.687	0.0144386
658.765	0.0141225
658.843	0.0140099
658.921	0.0138778
658.999	0.0137214
659.078	0.0136787
659.156	0.0135180
659.234	0.0131616
659.312	0.0130585
659.390	0.0130100
659.468	0.0130000
659.546	0.0127590
659.624	0.0126183
659.703	0.0124054
659.781	0.0123484
659.859	0.0123369
659.937	0.0123463
660.015	0.0121904
660.093	0.0121947
660.171	0.0121713
660.249	0.0121600
660.328	0.0123300
660.406	0.0124058
660.484	0.0124805
660.562	0.0125687
660.640	0.0127580
660.718	0.0129266
660.796	0.0131645
660.874	0.0132580
660.953	0.0134890
661.031	0.0136730
661.109	0.0135461
661.187	0.0139600
661.265	0.0139993
661.343	0.0140378
661.421	0.0141429
661.499	0.0141599
661.578	0.0142251
661.656	0.0144334
661.734	0.0145036
661.812	0.0144543
661.890	0.0146320
661.968	0.0147108
662.046	0.0147805
662.124	0.0148800
662.203	0.0149442
662.281	0.0148985
662.359	0.0149069
662.437	0.0148439
662.515	0.0149348
662.593	0.0147512
662.671	0.0147823
662.749	0.0145682
662.828	0.0147819
662.906	0.0146004
662.984	0.0143933
663.062	0.0143526
663.140	0.0144233
663.218	0.0140710
663.296	0.0142065
663.374	0.0139754
663.453	0.0138101
663.531	0.0136503
663.609	0.0134850
663.687	0.0134138
663.765	0.0133189
663.843	0.0131235
663.921	0.0130129
663.999	0.0128847
664.078	0.0128667
664.156	0.0126908
664.234	0.0126971
664.312	0.0125732
664.390	0.0125925
664.468	0.0126459
664.546	0.0125402
664.624	0.0125807
664.703	0.0127045
664.781	0.0126938
664.859	0.0129216
664.937	0.0129200
665.015	0.0130137
665.093	0.0132550
665.171	0.0133564
665.249	0.0132957
665.328	0.0135316
665.406	0.0137330
665.484	0.0137532
665.562	0.0138115
665.640	0.0139361
665.718	0.0141931
665.796	0.0142272
665.874	0.0142495
665.953	0.0144810
666.031	0.0144504
666.109	0.0143341
666.187	0.0144429
666.265	0.0145194
666.343	0.0145059
666.421	0.0145419
666.499	0.0145313
666.578	0.0141380
666.656	0.0141689
666.734	0.0140185
666.812	0.0140816
666.890	0.0139186
666.968	0.0138086
667.046	0.0136655
667.124	0.0133599
667.203	0.0134335
667.281	0.0134445
667.359	0.0133997
667.437	0.0134228
667.515	0.0133048
667.593	0.0133865
667.671	0.0134819
667.749	0.0134984
667.828	0.0134999
667.906	0.0135320
667.984	0.0137274
668.062	0.0138298
668.140	0.0140598
668.218	0.0141582
668.296	0.0143301
668.374	0.0144930
668.453	0.0145607
668.531	0.0146096
668.609	0.0147921
668.687	0.0150050
668.765	0.0151720
668.843	0.0152750
668.921	0.0152167
668.999	0.0151855
669.078	0.0152361
669.156	0.0152030
669.234	0.0150661
669.312	0.0150698
669.390	0.0148690
669.468	0.0146755
669.546	0.0143943
669.624	0.0142570
669.703	0.0138311
669.781	0.0137257
669.859	0.0135361
669.937	0.0133092
670.015	0.0132111
670.093	0.0129021
670.171	0.0128065
670.249	0.0124769
670.328	0.0123709
670.406	0.0122298
670.484	0.0121812
670.562	0.0121543
670.640	0.0120645
670.718	0.0121081
670.796	0.0119124
670.874	0.0119047
670.953	0.0119577
671.031	0.0121613
671.109	0.0120921
671.187	0.0121795
671.265	0.0124224
671.343	0.0125572
671.421	0.0126916
671.499	0.0127155
671.578	0.0130898
671.656	0.0132212
671.734	0.0134163
671.812	0.0135406
671.890	0.0135400
671.968	0.0137868
672.046	0.0140019
672.124	0.0140849
672.203	0.0141116
672.281	0.0143285
672.359	0.0144062
672.437	0.0145650
672.515	0.0144987
672.593	0.0147572
672.671	0.0149219
672.749	0.0150188
672.828	0.0151720
672.906	0.0153845
672.984	0.0155402
673.062	0.0155814
673.140	0.0157253
673.218	0.0157699
673.296	0.0157333
673.374	0.0156807
673.453	0.0156549
673.531	0.0157948
673.609	0.0158395
673.687	0.0158476
673.765	0.0156911
673.843	0.0155412
673.921	0.0157066
673.999	0.0156100
674.078	0.0153823
674.156	0.0150290
674.234	0.0148603
674.312	0.0147514
674.390	0.0143886
674.468	0.0140770
674.546	0.0138904
674.624	0.0135933
674.703	0.0132917
674.781	0.0129491
674.859	0.0125655
674.937	0.0124422
675.015	0.0122939
675.093	0.0120097
675.171	0.0117382
675.249	0.0116844
675.328	0.0115495
675.406	0.0115009
675.484	0.0114251
675.562	0.0114307
675.640	0.0113081
675.718	0.0112216
675.796	0.0112344
675.874	0.0113151
675.953	0.0114654
676.031	0.0115527
676.109	0.0117344
676.187	0.0118322
676.265	0.0120515
676.343	0.0122823
676.421	0.0126746
676.499	0.0128703
676.578	0.0130505
676.656	0.0132812
676.734	0.0137066
676.812	0.0140137
676.890	0.0142950
676.968	0.0145972
677.046	0.0146032
677.124	0.0148524
677.203	0.0151505
677.281	0.0153354
677.359	0.0153365
677.437	0.0155190
677.515	0.0156278
677.593	0.0157233
677.671	0.0156373
677.749	0.0157454
677.828	0.0156785
677.906	0.0156243
677.984	0.0155231
678.062	0.0153867
678.140	0.0153209
678.218	0.0153874
678.296	0.0152088
678.374	0.0152671
678.453	0.0151973
678.531	0.0149564
678.609	0.0149263
678.687	0.0149301
678.765	0.0148972
678.843	0.0148025
678.921	0.0147472
678.999	0.0145985
679.078	0.0144115
679.156	0.0143761
679.234	0.0140789
679.312	0.0138714
679.390	0.0138033
679.468	0.0136040
679.546	0.0135000
679.624	0.0134121
679.703	0.0132352
679.781	0.0130004
679.859	0.0128322
679.937	0.0128899
680.015	0.0127283
680.093	0.0127128
680.171	0.0125610
680.249	0.0125397
680.328	0.0125661
680.406	0.0126817
680.484	0.0125111
680.562	0.0125763
680.640	0.0125196
680.718	0.0127505
680.796	0.0127581
680.874	0.0125904
680.953	0.0128675
681.031	0.0128458
681.109	0.0128064
681.187	0.0131599
681.265	0.0130087
681.343	0.0130877
681.421	0.0131210
681.499	0.0132816
681.578	0.0135191
681.656	0.0135348
681.734	0.0137076
681.812	0.0138390
681.890	0.0138136
681.968	0.0139288
682.046	0.0140316
682.124	0.0141840
682.203	0.0142319
682.281	0.0141220
682.359	0.0141492
682.437	0.0140392
682.515	0.0142133
682.593	0.0142339
682.671	0.0140976
682.749	0.0141392
682.828	0.0140861
682.906	0.0138951
682.984	0.0140862
683.062	0.0141270
683.140	0.0140381
683.218	0.0141397
683.296	0.0142547
683.374	0.0142175
683.453	0.0143273
683.531	0.0141839
683.609	0.0145814
683.687	0.0144257
683.765	0.0143700
683.843	0.0144669
683.921	0.0144639
683.999	0.0144351
684.078	0.0142647
684.156	0.0142093
684.234	0.0141039
684.312	0.0141237
684.390	0.0139770
684.468	0.0140399
684.546	0.0140356
684.624	0.0139677
684.703	0.0140473
684.781	0.0141106
684.859	0.0141878
684.937	0.0143214
685.015	0.0143325
685.093	0.0144329
685.171	0.0143544
685.249	0.0143480
685.328	0.0145323
685.406	0.0144893
685.484	0.0145285
685.562	0.0142152
685.640	0.0139464
685.718	0.0141006
685.796	0.0139507
685.874	0.0136465
685.953	0.0133367
686.031	0.0133618
686.109	0.0133088
686.187	0.0129865
686.265	0.0127554
686.343	0.0127442
686.421	0.0127030
686.499	0.0126433
686.578	0.0126810
686.656	0.0125627
686.734	0.0124464
686.812	0.0125391
686.890	0.0126174
686.968	0.0127151
687.046	0.0127773
687.124	0.0128568
687.203	0.0128323
687.281	0.0129918
687.359	0.0130566
687.437	0.0130656
687.515	0.0129937
687.593	0.0130825
687.671	0.0130238
687.749	0.0130244
687.828	0.0130148
687.906	0.0132995
687.984	0.0133707
688.062	0.0133278
688.140	0.0133330
688.218	0.0133483
688.296	0.0136118
688.374	0.0135888
688.453	0.0137017
688.531	0.0138961
688.609	0.0140039
688.687	0.0141080
688.765	0.0142738
688.843	0.0142791
688.921	0.0143852
688.999	0.0145398
689.078	0.0144899
689.156	0.0144763
689.234	0.0144228
689.312	0.0144768
689.390	0.0144555
689.468	0.0144599
689.546	0.0145927
689.624	0.0145008
689.703	0.0144617
689.781	0.0145317
689.859	0.0143699
689.937	0.0145284
690.015	0.0144432
690.093	0.0145760
690.171	0.0144263
690.249	0.0145490
690.328	0.0144320
690.406	0.0143969
690.484	0.0144982
690.562	0.0146719
690.640	0.0144024
690.718	0.0143266
690.796	0.0143951
690.874	0.0142710
690.953	0.0145632
691.031	0.0143993
691.109	0.0141895
691.187	0.0143568
691.265	0.0143356
691.343	0.0142466
691.421	0.0140302
691.499	0.0139149
691.578	0.0138752
691.656	0.0139014
691.734	0.0138525
691.812	0.0135981
691.890	0.0134383
691.968	0.0135329
692.046	0.0132818
692.124	0.0132825
692.203	0.0132043
692.281	0.0132002
692.359	0.0129996
692.437	0.0129028
692.515	0.0129427
692.593	0.0128669
692.671	0.0128237
692.749	0.0127598
692.828	0.0126180
692.906	0.0127933
692.984	0.0126913
693.062	0.0127216
693.140	0.0128866
693.218	0.0128865
693.296	0.0127496
693.374	0.0128145
693.453	0.0127561
693.531	0.0129650
693.609	0.0128430
693.687	0.0129765
693.765	0.0131631
693.843	0.0129950
693.921	0.0131130
693.999	0.0131934
694.078	0.0133691
694.156	0.0134229
694.234	0.0134921
694.312	0.0137847
694.390	0.0138526
694.468	0.0141812
694.546	0.0142394
694.624	0.0143420
694.703	0.0145726
694.781	0.0148235
694.859	0.0150565
694.937	0.0149929
695.015	0.0152530
695.093	0.0152103
695.171	0.0151763
695.249	0.0151605
695.328	0.0151443
695.406	0.0152153
695.484	0.0152087
695.562	0.0151868
695.640	0.0150609
695.718	0.0149751
695.796	0.0150100
695.874	0.0149465
695.953	0.0150314
696.031	0.0149181
696.109	0.0147929
696.187	0.0146928
696.265	0.0146671
696.343	0.0145938
696.421	0.0144715
696.499	0.0145071
696.578	0.0145005
696.656	0.0142430
696.734	0.0143779
696.812	0.0142402
696.890	0.0138749
696.968	0.0138253
697.046	0.0137451
697.124	0.0135796
697.203	0.0135167
697.281	0.0132822
697.359	0.0132518
697.437	0.0128593
697.515	0.0128994
697.593	0.0127690
697.671	0.0126751
697.749	0.0125499
697.828	0.0124879
697.906	0.0124390
697.984	0.0121821
698.062	0.0122376
698.140	0.0121759
698.218	0.0120679
698.296	0.0121822
698.374	0.0122400
698.453	0.0123270
698.531	0.0125796
698.609	0.0125214
698.687	0.0125668
698.765	0.0128165
698.843	0.0129779
698.921	0.0132333
698.999	0.0134297
699.078	0.0134727
699.156	0.0137831
699.234	0.0138423
699.312	0.0141218
699.390	0.0142370
699.468	0.0143015
699.546	0.0144104
699.624	0.0144299
699.703	0.0143692
699.781	0.0145118
699.859	0.0146341
699.937	0.0145920
700.015	0.0145056
700.093	0.0145082
700.171	0.0145280
700.249	0.0145478
700.328	0.0146059
700.406	0.0144265
700.484	0.0145234
700.562	0.0146460
700.640	0.0146827
700.718	0.0145395
700.796	0.0145506
700.874	0.0146963
700.953	0.0146389
701.031	0.0145447
701.109	0.0145033
701.187	0.0145722
701.265	0.0147364
701.343	0.0144537
701.421	0.0143064
701.499	0.0144057
701.578	0.0140407
701.656	0.0140019
701.734	0.0138374
701.812	0.0137254
701.890	0.0137319
701.968	0.0136497
702.046	0.0135065
702.124	0.0134667
702.203	0.0135040
702.281	0.0135815
702.359	0.0136116
702.437	0.0136514
702.515	0.0136127
702.593	0.0135286
702.671	0.0134349
702.749	0.0133618
702.828	0.0135135
702.906	0.0134908
702.984	0.0133954
703.062	0.0134174
703.140	0.0133693
703.218	0.0133406
703.296	0.0133561
703.374	0.0134032
703.453	0.0132258
703.531	0.0135214
703.609	0.0134344
703.687	0.0137045
703.765	0.0139514
703.843	0.0138229
703.921	0.0138628
703.999	0.0140514
704.078	0.0141909
704.156	0.0142497
704.234	0.0143221
704.312	0.0144029
704.390	0.0143499
704.468	0.0143429
704.546	0.0143936
704.624	0.0142852
704.703	0.0142487
704.781	0.0141102
704.859	0.0141163
704.937	0.0139966
705.015	0.0140274
705.093	0.0140479
705.171	0.0139782
705.249	0.0140039
705.328	0.0139043
705.406	0.0138876
705.484	0.0139172
705.562	0.0137695
705.640	0.0137279
705.718	0.0137457
705.796	0.0137659
705.874	0.0136101
705.953	0.0136985
706.031	0.0135472
706.109	0.0135793
706.187	0.0137272
706.265	0.0135021
706.343	0.0134476
706.421	0.0135642
706.499	0.0134345
706.578	0.0134384
706.656	0.0135470
706.734	0.0135316
706.812	0.0136875
706.890	0.0136680
706.968	0.0138364
707.046	0.0137766
707.124	0.0138124
707.203	0.0138664
707.281	0.0139758
707.359	0.0140372
707.437	0.0140871
707.515	0.0142506
707.593	0.0142630
707.671	0.0141579
707.749	0.0142776
707.828	0.0143601
707.906	0.0142166
707.984	0.0142652
708.062	0.0143360
708.140	0.0144543
708.218	0.0144230
708.296	0.0143147
708.374	0.0143710
708.453	0.0142880
708.531	0.0142886
708.609	0.0143186
708.687	0.0142378
708.765	0.0142526
708.843	0.0142439
708.921	0.0140600
708.999	0.0140095
709.078	0.0141100
709.156	0.0139315
709.234	0.0139418
709.312	0.0138657
709.390	0.0137247
709.468	0.0137127
709.546	0.0137862
709.624	0.0135316
709.703	0.0136705
709.781	0.0137273
709.859	0.0136517
709.937	0.0138346
710.015	0.0138402
710.093	0.0136338
710.171	0.0137565
710.249	0.0137185
710.328	0.0138673
710.406	0.0136972
710.484	0.0137461
710.562	0.0140037
710.640	0.0137947
710.718	0.0137517
710.796	0.0137518
710.874	0.0136460
710.953	0.0137902
711.031	0.0137050
711.109	0.0136861
711.187	0.0136069
711.265	0.0137634
711.343	0.0138355
711.421	0.0135860
711.499	0.0135715
711.578	0.0136829
711.656	0.0136513
711.734	0.0137070
711.812	0.0135729
711.890	0.0136981
711.968	0.0135963
712.046	0.0137444
712.124	0.0137392
712.203	0.0137377
712.281	0.0135821
712.359	0.0135801
712.437	0.0136761
712.515	0.0135268
712.593	0.0134869
712.671	0.0136571
712.749	0.0136105
712.828	0.0135438
712.906	0.0135602
712.984	0.0136712
713.062	0.0135629
713.140	0.0136027
713.218	0.0136810
713.296	0.0138029
713.374	0.0137155
713.453	0.0136913
713.531	0.0138013
713.609	0.0138426
713.687	0.0136929
713.765	0.0137368
713.843	0.0139380
713.921	0.0137847
713.999	0.0138602
714.078	0.0137197
714.156	0.0139108
714.234	0.0139335
714.312	0.0138751
714.390	0.0140704
714.468	0.0141064
714.546	0.0140756
714.624	0.0139540
714.703	0.0142535
714.781	0.0143900
714.859	0.0143134
714.937	0.0143192
715.015	0.0144530
715.093	0.0144177
715.171	0.0145576
715.249	0.0145403
715.328	0.0143814
715.406	0.0143559
715.484	0.0144456
715.562	0.0143991
715.640	0.0142769
715.718	0.0143605
715.796	0.0142210
715.874	0.0140347
715.953	0.0139744
716.031	0.0139648
716.109	0.0139635
716.187	0.0140814
716.265	0.0139662
716.343	0.0140057
716.421	0.0140846
716.499	0.0138007
716.578	0.0138337
716.656	0.0139230
716.734	0.0137856
716.812	0.0136616
716.890	0.0136788
716.968	0.0137010
717.046	0.0135715
717.124	0.0135979
717.203	0.0133552
717.281	0.0133099
717.359	0.0133084
717.437	0.0132440
717.515	0.0132533
717.593	0.0133324
717.671	0.0133997
717.749	0.0133603
717.828	0.0132552
717.906	0.0132042
717.984	0.0132759
718.062	0.0134325
718.140	0.0134218
718.218	0.0132412
718.296	0.0133350
718.374	0.0133388
718.453	0.0133746
718.531	0.0135973
718.609	0.0135590
718.687	0.0136586
718.765	0.0136999
718.843	0.0136345
718.921	0.0137276
718.999	0.0137846
719.078	0.0138390
719.156	0.0139093
719.234	0.0139740
719.312	0.0140498
719.390	0.0141203
719.468	0.0140851
719.546	0.0141699
719.624	0.0142913
719.703	0.0142056
719.781	0.0142507
719.859	0.0143484
719.937	0.0142843
720.015	0.0143424
720.093	0.0143678
720.171	0.0144429
720.249	0.0143703
720.328	0.0143584
720.406	0.0142361
720.484	0.0143663
720.562	0.0143437
720.640	0.0142763
720.718	0.0142824
720.796	0.0142948
720.874	0.0143391
720.953	0.0143695
721.031	0.0143978
721.109	0.0142947
721.187	0.0142013
721.265	0.0143375
721.343	0.0143913
721.421	0.0142524
721.499	0.0142563
721.578	0.0142027
721.656	0.0139713
721.734	0.0141510
721.812	0.0139852
721.890	0.0139507
721.968	0.0137968
722.046	0.0137006
722.124	0.0136129
722.203	0.0136046
722.281	0.0134553
722.359	0.0133989
722.437	0.0135197
722.515	0.0135335
722.593	0.0135692
722.671	0.0135691
722.749	0.0136281
722.828	0.0135080
722.906	0.0136583
722.984	0.0137856
723.062	0.0136978
723.140	0.0137829
723.218	0.0138753
723.296	0.0137349
723.374	0.0137637
723.453	0.0138387
723.531	0.0138670
723.609	0.0138773
723.687	0.0138390
723.765	0.0137092
723.843	0.0139128
723.921	0.0137837
723.999	0.0136880
724.078	0.0135995
724.156	0.0137070
724.234	0.0136482
724.312	0.0135570
724.390	0.0136826
724.468	0.0139439
724.546	0.0137289
724.624	0.0137230
724.703	0.0138200
724.781	0.0138519
724.859	0.0138681
724.937	0.0139252
725.015	0.0139509
725.093	0.0140507
725.171	0.0140357
725.249	0.0140862
725.328	0.0141055
725.406	0.0141754
725.484	0.0140950
725.562	0.0141333
725.640	0.0139767
725.718	0.0140432
725.796	0.0140466
725.874	0.0138708
725.953	0.0139086
726.031	0.0137424
726.109	0.0137886
726.187	0.0138680
726.265	0.0138665
726.343	0.0139153
726.421	0.0138139
726.499	0.0139133
726.578	0.0138476
726.656	0.0138976
726.734	0.0137156
726.812	0.0138930
726.890	0.0140703
726.968	0.0140224
727.046	0.0138956
727.124	0.0139037
727.203	0.0140260
727.281	0.0138280
727.359	0.0139349
727.437	0.0138978
727.515	0.0139096
727.593	0.0138798
727.671	0.0138613
727.749	0.0137595
727.828	0.0136364
727.906	0.0136760
727.984	0.0136192
728.062	0.0135569
728.140	0.0134664
728.218	0.0133620
728.296	0.0134975
728.374	0.0135579
728.453	0.0134369
728.531	0.0134034
728.609	0.0134029
728.687	0.0132925
728.765	0.0134354
728.843	0.0134772
728.921	0.0134021
728.999	0.0134248
729.078	0.0135087
729.156	0.0135298
729.234	0.0134504
729.312	0.0133805
729.390	0.0135001
729.468	0.0136240
729.546	0.0137134
729.624	0.0136980
729.703	0.0135935
729.781	0.0137434
729.859	0.0137265
729.937	0.0137860
730.015	0.0137781
730.093	0.0137870
730.171	0.0139246
730.249	0.0139064
730.328	0.0139063
730.406	0.0139799
730.484	0.0141305
730.562	0.0142014
730.640	0.0140681
730.718	0.0142966
730.796	0.0141851
730.874	0.0141328
730.953	0.0143076
731.031	0.0143734
731.109	0.0141985
731.187	0.0139757
731.265	0.0140814
731.343	0.0140018
731.421	0.0139402
731.499	0.0139701
731.578	0.0139554
731.656	0.0138649
731.734	0.0138908
731.812	0.0138318
731.890	0.0138718
731.968	0.0138245
732.046	0.0138467
732.124	0.0138246
732.203	0.0137260
732.281	0.0137256
732.359	0.0138203
732.437	0.0137460
732.515	0.0138051
732.593	0.0138651
732.671	0.0137659
732.749	0.0138849
732.828	0.0138287
732.906	0.0138903
732.984	0.0138766
733.062	0.0137341
733.140	0.0140327
733.218	0.0139776
733.296	0.0138267
733.374	0.0138272
733.453	0.0138104
733.531	0.0138911
733.609	0.0137397
733.687	0.0138602
733.765	0.0138425
733.843	0.0138905
733.921	0.0139197
733.999	0.0139385
734.078	0.0138661
734.156	0.0140060
734.234	0.0140891
734.312	0.0139783
734.390	0.0141369
734.468	0.0141376
734.546	0.0141808
734.624	0.0141515
734.703	0.0144874
734.781	0.0142455
734.859	0.0143039
734.937	0.0142492
735.015	0.0143393
735.093	0.0141753
735.171	0.0140863
735.249	0.0141634
735.328	0.0142204
735.406	0.0142539
735.484	0.0140941
735.562	0.0141878
735.640	0.0140665
735.718	0.0140178
735.796	0.0140878
735.874	0.0140565
735.953	0.0141330
736.031	0.0141687
736.109	0.0141595
736.187	0.0139918
736.265	0.0140697
736.343	0.0140791
736.421	0.0139296
736.499	0.0139635
736.578	0.0140878
736.656	0.0140788
736.734	0.0139874
736.812	0.0139469
736.890	0.0140518
736.968	0.0139516
737.046	0.0138252
737.124	0.0140116
737.203	0.0139763
737.281	0.0138718
737.359	0.0138786
737.437	0.0138729
737.515	0.0138655
737.593	0.0138578
737.671	0.0137597
737.749	0.0139182
737.828	0.0138295
737.906	0.0138554
737.984	0.0139210
738.062	0.0139501
738.140	0.0139103
738.218	0.0140331
738.296	0.0139410
738.374	0.0139412
738.453	0.0139577
738.531	0.0140456
738.609	0.0141265
738.687	0.0140041
738.765	0.0139281
738.843	0.0140103
738.921	0.0139915
738.999	0.0139909
739.078	0.0139723
739.156	0.0138750
739.234	0.0138791
739.312	0.0139871
739.390	0.0139206
739.468	0.0138725
739.546	0.0138767
739.624	0.0138504
739.703	0.0136948
739.781	0.0137878
739.859	0.0138990
739.937	0.0139248
740.015	0.0137176
740.093	0.0138426
740.171	0.0138719
740.249	0.0138430
740.328	0.0138007
740.406	0.0138771
740.484	0.0138806
740.562	0.0138748
740.640	0.0138140
740.718	0.0137758
740.796	0.0138828
740.874	0.0138596
740.953	0.0137930
741.031	0.0136427
741.109	0.0136404
741.187	0.0136012
741.265	0.0136636
741.343	0.0136128
741.421	0.0135902
741.499	0.0134638
741.578	0.0135645
741.656	0.0134747
741.734	0.0135918
741.812	0.0134682
741.890	0.0135725
741.968	0.0135487
742.046	0.0135674
742.124	0.0137305
742.203	0.0136533
742.281	0.0136546
742.359	0.0136072
742.437	0.0137460
742.515	0.0137318
742.593	0.0136942
742.671	0.0137956
742.749	0.0138748
742.828	0.0139201
742.906	0.0138108
742.984	0.0138645
743.062	0.0138838
743.140	0.0140389
743.218	0.0139500
743.296	0.0139287
743.374	0.0139004
743.453	0.0138647
743.531	0.0140592
743.609	0.0140176
743.687	0.0139825
743.765	0.0139144
743.843	0.0137794
743.921	0.0139124
743.999	0.0139053
744.078	0.0138062
744.156	0.0138992
744.234	0.0136637
744.312	0.0137141
744.390	0.0136321
744.468	0.0136150
744.546	0.0136385
744.624	0.0135188
744.703	0.0135377
744.781	0.0134975
744.859	0.0134979
744.937	0.0136559
745.015	0.0134894
745.093	0.0134733
745.171	0.0134675
745.249	0.0135440
745.328	0.0137101
745.406	0.0137479
745.484	0.0136616
745.562	0.0138067
745.640	0.0139066
745.718	0.0138625
745.796	0.0139608
745.874	0.0140704
745.953	0.0141602
746.031	0.0139454
746.109	0.0139893
746.187	0.0141080
746.265	0.0141861
746.343	0.0141592
746.421	0.0141356
746.499	0.0139408
746.578	0.0140427
746.656	0.0141757
746.734	0.0141154
746.812	0.0140670
746.890	0.0139571
746.968	0.0140479
747.046	0.0139821
747.124	0.0139742
747.203	0.0139541
747.281	0.0138051
747.359	0.0137294
747.437	0.0138885
747.515	0.0139680
747.593	0.0136752
747.671	0.0136531
747.749	0.0137360
747.828	0.0137698
747.906	0.0135851
747.984	0.0136143
748.062	0.0136376
748.140	0.0134506
748.218	0.0135764
748.296	0.0137273
748.374	0.0137025
748.453	0.0135176
748.531	0.0136043
748.609	0.0135419
748.687	0.0136696
748.765	0.0136573
748.843	0.0136962
748.921	0.0136121
748.999	0.0135577
749.078	0.0137056
749.156	0.0136903
749.234	0.0136452
749.312	0.0136987
749.390	0.0136587
749.468	0.0138424
749.546	0.0138720
749.624	0.0136544
749.703	0.0137055
749.781	0.0138014
749.859	0.0138000
749.937	0.0137492
750.015	0.0137827
750.093	0.0138041
750.171	0.0139627
750.249	0.0140841
750.328	0.0139249
750.406	0.0138113
750.484	0.0136996
750.562	0.0138448
750.640	0.0138341
750.718	0.0139690
750.796	0.0139262
750.874	0.0138284
750.953	0.0138638
751.031	0.0137045
751.109	0.0137600
751.187	0.0138326
751.265	0.0137151
751.343	0.0136864
751.421	0.0136451
751.499	0.0136955
751.578	0.0137168
751.656	0.0135154
751.734	0.0136674
751.812	0.0136800
751.890	0.0138118
751.968	0.0136720
752.046	0.0135584
752.124	0.0136172
752.203	0.0137074
752.281	0.0137711
752.359	0.0136361
752.437	0.0134901
752.515	0.0135190
752.593	0.0135546
752.671	0.0134592
752.749	0.0135085
752.828	0.0135911
752.906	0.0134807
752.984	0.0135138
753.062	0.0135156
753.140	0.0134651
753.218	0.0134369
753.296	0.0134885
753.374	0.0134770
753.453	0.0136838
753.531	0.0136036
753.609	0.0136512
753.687	0.0137722
753.765	0.0137688
753.843	0.0137910
753.921	0.0137791
753.999	0.0139143
754.078	0.0138736
754.156	0.0139806
754.234	0.0139364
754.312	0.0139441
754.390	0.0138711
754.468	0.0140331
754.546	0.0139366
754.624	0.0138952
754.703	0.0138504
754.781	0.0139707
754.859	0.0139587
754.937	0.0139770
755.015	0.0140460
755.093	0.0141485
755.171	0.0140983
755.249	0.0139204
755.328	0.0140759
755.406	0.0141301
755.484	0.0139014
755.562	0.0139143
755.640	0.0139300
755.718	0.0138180
755.796	0.0138636
755.874	0.0139214
755.953	0.0137240
756.031	0.0138443
756.109	0.0138197
756.187	0.0137315
756.265	0.0137102
756.343	0.0138331
756.421	0.0137968
756.499	0.0136855
756.578	0.0136586
756.656	0.0138049
756.734	0.0136369
756.812	0.0135994
756.890	0.0137844
756.968	0.0137168
757.046	0.0137002
757.124	0.0136328
757.203	0.0136549
757.281	0.0138190
757.359	0.0137679
757.437	0.0137509
757.515	0.0135794
757.593	0.0136980
757.671	0.0138686
757.749	0.0139426
757.828	0.0139005
757.906	0.0138283
757.984	0.0139460
758.062	0.0140620
758.140	0.0140526
758.218	0.0140367
758.296	0.0142248
758.374	0.0141509
758.453	0.0141869
758.531	0.0141429
758.609	0.0143329
758.687	0.0142550
758.765	0.0141971
758.843	0.0142816
758.921	0.0142293
758.999	0.0141235
759.078	0.0140717
759.156	0.0141001
759.234	0.0141000
759.312	0.0139365
759.390	0.0138656
759.468	0.0139229
759.546	0.0140167
759.624	0.0139866
759.703	0.0139693
759.781	0.0137460
759.859	0.0138067
759.937	0.0139358
760.015	0.0137226
760.093	0.0138159
760.171	0.0137090
760.249	0.0139124
760.328	0.0137638
760.406	0.0136013
760.484	0.0137650
760.562	0.0138501
760.640	0.0137614
760.718	0.0136794
760.796	0.0136948
760.874	0.0137739
760.953	0.0136206
761.031	0.0136964
761.109	0.0138350
761.187	0.0136586
761.265	0.0137248
761.343	0.0137361
761.421	0.0136493
761.499	0.0137814
761.578	0.0137066
761.656	0.0136412
761.734	0.0138268
761.812	0.0138663
761.890	0.0137605
761.968	0.0137225
762.046	0.0136929
762.124	0.0137273
762.203	0.0136870
762.281	0.0138866
762.359	0.0139246
762.437	0.0138655
762.515	0.0137923
762.593	0.0139367
762.671	0.0138725
762.749	0.0139157
762.828	0.0139104
762.906	0.0138793
762.984	0.0139031
763.062	0.0139480
763.140	0.0139940
763.218	0.0139290
763.296	0.0138724
763.374	0.0140308
763.453	0.0138801
763.531	0.0138796
763.609	0.0138649
763.687	0.0138031
763.765	0.0138667
763.843	0.0139840
763.921	0.0138657
763.999	0.0138837
764.078	0.0137994
764.156	0.0136872
764.234	0.0137058
764.312	0.0137976
764.390	0.0137870
764.468	0.0139487
764.546	0.0137560
764.624	0.0137530
764.703	0.0138316
764.781	0.0139750
764.859	0.0138319
764.937	0.0137343
765.015	0.0138713
765.093	0.0136638
765.171	0.0136108
765.249	0.0137068
765.328	0.0137698
765.406	0.0136690
765.484	0.0136659
765.562	0.0135214
765.640	0.0137100
765.718	0.0137125
765.796	0.0135565
765.874	0.0137317
765.953	0.0135353
766.031	0.0137090
766.109	0.0136186
766.187	0.0135899
766.265	0.0136381
766.343	0.0137193
766.421	0.0136780
766.499	0.0137276
766.578	0.0136828
766.656	0.0138406
766.734	0.0138138
766.812	0.0137897
766.890	0.0138103
766.968	0.0136200
767.046	0.0136412
767.124	0.0136976
767.203	0.0135295
767.281	0.0135180
767.359	0.0136031
767.437	0.0136687
767.515	0.0134072
767.593	0.0134782
767.671	0.0134380
767.749	0.0133949
767.828	0.0135407
767.906	0.0134857
767.984	0.0136568
768.062	0.0136575
768.140	0.0135217
768.218	0.0134483
768.296	0.0136488
768.374	0.0137083
768.453	0.0136359
768.531	0.0137324
768.609	0.0135583
768.687	0.0136490
768.765	0.0137132
768.843	0.0136562
768.921	0.0137601
768.999	0.0134903
769.078	0.0136406
769.156	0.0137575
769.234	0.0136086
769.312	0.0136613
769.390	0.0137523
769.468	0.0135947
769.546	0.0138935
769.624	0.0138512
769.703	0.0138454
769.781	0.0137326
769.859	0.0137880
769.937	0.0139235
770.015	0.0139078
770.093	0.0138860
770.171	0.0140025
770.249	0.0138367
770.328	0.0137848
770.406	0.0140084
770.484	0.0139030
770.562	0.0138937
770.640	0.0139902
770.718	0.0141013
770.796	0.0140173
770.874	0.0140578
770.953	0.0140004
771.031	0.0141022
771.109	0.0138960
771.187	0.0139523
771.265	0.0140093
771.343	0.0139018
771.421	0.0139235
771.499	0.0140595
771.578	0.0138648
771.656	0.0139074
771.734	0.0139150
771.812	0.0137202
771.890	0.0137875
771.968	0.0137282
772.046	0.0135823
772.124	0.0136459
772.203	0.0136060
772.281	0.0135360
772.359	0.0136102
772.437	0.0134146
772.515	0.0134905
772.593	0.0135030
772.671	0.0134740
772.749	0.0133842
772.828	0.0132607
772.906	0.0133231
772.984	0.0132794
773.062	0.0133807
773.140	0.0134951
773.218	0.0134660
773.296	0.0133978
773.374	0.0135229
773.453	0.0138260
773.531	0.0138756
773.609	0.0137875
773.687	0.0137814
773.765	0.0139141
773.843	0.0138544
773.921	0.0139403
773.999	0.0139569
774.078	0.0140902
774.156	0.0139835
774.234	0.0140413
774.312	0.0139485
774.390	0.0142757
774.468	0.0142350
774.546	0.0141412
774.624	0.0142207
774.703	0.0141246
774.781	0.0141225
774.859	0.0140980
774.937	0.0141591
775.015	0.0140038
775.093	0.0140074
775.171	0.0139498
775.249	0.0139360
775.328	0.0138198
775.406	0.0137602
775.484	0.0138559
775.562	0.0138635
775.640	0.0137868
775.718	0.0139701
775.796	0.0138884
775.874	0.0138849
775.953	0.0139394
776.031	0.0138972
776.109	0.0140716
776.187	0.0141113
776.265	0.0141034
776.343	0.0140004
776.421	0.0140229
776.499	0.0140206
776.578	0.0141077
776.656	0.0139383
776.734	0.0140418
776.812	0.0140542
776.890	0.0140445
776.968	0.0140225
777.046	0.0139467
777.124	0.0140103
777.203	0.0139383
777.281	0.0139046
777.359	0.0138979
777.437	0.0139819
777.515	0.0139616
777.593	0.0138181
777.671	0.0138206
777.749	0.0137372
777.828	0.0135718
777.906	0.0135487
777.984	0.0138244
778.062	0.0136456
778.140	0.0137719
778.218	0.0137199
778.296	0.0136201
778.374	0.0137389
778.453	0.0137337
778.531	0.0137486
778.609	0.0136887
778.687	0.0137525
778.765	0.0136422
778.843	0.0135480
778.921	0.0137399
778.999	0.0136967
779.078	0.0136088
779.156	0.0138001
779.234	0.0136499
779.312	0.0137262
779.390	0.0138004
779.468	0.0139945
779.546	0.0140666
779.624	0.0140126
779.703	0.0140888
779.781	0.0140581
779.859	0.0140321
779.937	0.0140584
780.015	0.0140518
780.093	0.0140690
780.171	0.0140833
780.249	0.0139129
780.328	0.0138777
780.406	0.0137255
780.484	0.0136487
780.562	0.0138223
780.640	0.0136469
780.718	0.0136466
780.796	0.0136839
780.874	0.0137214
780.953	0.0137685
781.031	0.0139296
781.109	0.0138985
781.187	0.0139740
781.265	0.0137624
781.343	0.0138538
781.421	0.0137865
781.499	0.0137356
781.578	0.0136843
781.656	0.0136591
781.734	0.0136550
781.812	0.0135983
781.890	0.0136534
781.968	0.0136289
782.046	0.0137401
782.124	0.0138567
782.203	0.0136961
782.281	0.0138274
782.359	0.0138410
782.437	0.0138561
782.515	0.0137489
782.593	0.0138803
782.671	0.0138710
782.749	0.0138142
782.828	0.0138829
782.906	0.0138396
782.984	0.0138781
783.062	0.0140461
783.140	0.0138778
783.218	0.0137807
783.296	0.0139816
783.374	0.0137897
783.453	0.0138531
783.531	0.0138744
783.609	0.0137519
783.687	0.0137833
783.765	0.0137185
783.843	0.0137378
783.921	0.0137260
783.999	0.0137457
784.078	0.0137770
784.156	0.0136040
784.234	0.0136123
784.312	0.0135788
784.390	0.0137038
784.468	0.0137070
784.546	0.0135296
784.624	0.0136652
784.703	0.0136833
784.781	0.0137311
784.859	0.0136594
784.937	0.0136575
785.015	0.0137808
785.093	0.0138732
785.171	0.0137341
785.249	0.0139577
785.328	0.0138092
785.406	0.0139522
785.484	0.0138493
785.562	0.0138581
785.640	0.0138069
785.718	0.0139161
785.796	0.0138982
785.874	0.0139690
785.953	0.0139008
786.031	0.0139146
786.109	0.0140144
786.187	0.0141597
786.265	0.0141973
786.343	0.0142366
786.421	0.0142246
786.499	0.0141897
786.578	0.0140485
786.656	0.0141859
786.734	0.0141351
786.812	0.0141052
786.890	0.0140160
786.968	0.0139248
787.046	0.0138411
787.124	0.0137304
787.203	0.0138598
787.281	0.0137074
787.359	0.0138163
787.437	0.0139038
787.515	0.0137469
787.593	0.0138519
787.671	0.0139878
787.749	0.0138029
787.828	0.0138881
787.906	0.0139281
787.984	0.0140026
788.062	0.0141237
788.140	0.0140918
788.218	0.0138651
788.296	0.0137999
788.374	0.0138332
788.453	0.0139089
788.531	0.0137717
788.609	0.0138204
788.687	0.0138523
788.765	0.0137717
788.843	0.0137128
788.921	0.0139016
788.999	0.0137872
789.078	0.0137677
789.156	0.0137933
789.234	0.0138782
789.312	0.0137855
789.390	0.0137443
789.468	0.0137295
789.546	0.0137589
789.624	0.0139273
789.703	0.0140124
789.781	0.0138763
789.859	0.0138249
789.937	0.0138000
790.015	0.0139127
790.093	0.0139693
790.171	0.0139628
790.249	0.0138857
790.328	0.0139275
790.406	0.0140392
790.484	0.0138487
790.562	0.0137447
790.640	0.0136636
790.718	0.0137128
790.796	0.0136431
790.874	0.0136749
790.953	0.0136756
791.031	0.0136366
791.109	0.0137897
791.187	0.0137849
791.265	0.0137231
791.343	0.0138762
791.421	0.0139622
791.499	0.0139207
791.578	0.0140199
791.656	0.0140644
791.734	0.0141354
791.812	0.0138532
791.890	0.0139692
791.968	0.0140339
792.046	0.0140640
792.124	0.0139552
792.203	0.0142720
792.281	0.0140341
792.359	0.0139729
792.437	0.0140841
792.515	0.0141309
792.593	0.0140383
792.671	0.0139610
792.749	0.0139647
792.828	0.0140664
792.906	0.0140704
792.984	0.0139834
793.062	0.0140160
793.140	0.0139218
793.218	0.0137676
793.296	0.0137365
793.374	0.0137164
793.453	0.0138599
793.531	0.0138338
793.609	0.0136240
793.687	0.0137086
793.765	0.0137578
793.843	0.0138316
793.921	0.0137096
793.999	0.0137849
794.078	0.0138393
794.156	0.0137172
794.234	0.0137648
794.312	0.0139245
794.390	0.0138832
794.468	0.0137583
794.546	0.0136935
794.624	0.0138428
794.703	0.0136587
794.781	0.0137906
794.859	0.0138976
794.937	0.0137045
795.015	0.0137433
795.093	0.0136706
795.171	0.0138016
795.249	0.0138307
795.328	0.0138890
795.406	0.0137323
795.484	0.0138534
795.562	0.0139429
795.640	0.0138937
795.718	0.0137162
795.796	0.0137888
795.874	0.0138599
795.953	0.0137632
796.031	0.0137055
796.109	0.0138273
796.187	0.0137022
796.265	0.0137459
796.343	0.0137709
796.421	0.0137511
796.499	0.0137939
796.578	0.0136831
796.656	0.0136266
796.734	0.0137851
796.812	0.0137442
796.890	0.0136066
796.968	0.0136024
797.046	0.0135276
797.124	0.0136258
797.203	0.0136964
797.281	0.0136456
797.359	0.0137023
797.437	0.0138204
797.515	0.0141045
797.593	0.0141187
797.671	0.0141180
797.749	0.0141675
797.828	0.0142798
797.906	0.0144242
797.984	0.0143108
798.062	0.0142355
798.140	0.0143211
798.218	0.0143245
798.296	0.0143000
798.374	0.0143604
798.453	0.0144253
798.531	0.0143200
798.609	0.0143574
798.687	0.0142580
798.765	0.0142601
798.843	0.0141803
798.921	0.0141068
798.999	0.0140411
799.078	0.0141193
799.156	0.0139825
799.234	0.0139724
799.312	0.0139040
799.390	0.0142068
799.468	0.0139700
799.546	0.0138433
799.624	0.0138121
799.703	0.0137943
799.781	0.0137302
799.859	0.0139306
799.937	0.0138710
800.015	0.0137289
800.093	0.0138146
800.171	0.0137938
800.249	0.0138496
800.328	0.0139723
800.406	0.0139277
800.484	0.0138107
800.562	0.0137651
800.640	0.0138693
800.718	0.0139727
800.796	0.0140098
800.874	0.0140616
800.953	0.0140611
801.031	0.0139449
801.109	0.0140437
801.187	0.0141446
801.265	0.0142864
801.343	0.0141718
801.421	0.0141909
801.499	0.0142408
801.578	0.0143789
801.656	0.0143127
801.734	0.0141026
801.812	0.0140105
801.890	0.0138553
801.968	0.0137024
802.046	0.0137363
802.124	0.0135254
802.203	0.0134061
802.281	0.0134266
802.359	0.0132636
802.437	0.0132509
802.515	0.0133044
802.593	0.0132222
802.671	0.0134859
802.749	0.0135022
802.828	0.0133911
802.906	0.0134813
802.984	0.0136686
803.062	0.0137628
803.140	0.0136353
803.218	0.0137246
803.296	0.0138173
803.374	0.0139119
803.453	0.0140266
803.531	0.0140927
803.609	0.0141872
803.687	0.0141850
803.765	0.0141687
803.843	0.0140329
803.921	0.0141853
803.999	0.0141904
804.078	0.0141015
804.156	0.0141027
804.234	0.0140817
804.312	0.0138290
804.390	0.0140150
804.468	0.0139504
804.546	0.0139693
804.624	0.0139355
804.703	0.0139646
804.781	0.0139014
804.859	0.0137956
804.937	0.0137682
805.015	0.0137157
805.093	0.0138757
805.171	0.0137435
805.249	0.0137291
805.328	0.0138375
805.406	0.0137730
805.484	0.0138285
805.562	0.0137833
805.640	0.0137102
805.718	0.0138479
805.796	0.0137215
805.874	0.0138527
805.953	0.0136469
806.031	0.0136665
806.109	0.0136687
806.187	0.0137764
806.265	0.0138669
806.343	0.0139311
806.421	0.0139044
806.499	0.0138943
806.578	0.0140086
806.656	0.0140054
806.734	0.0140646
806.812	0.0140508
806.890	0.0140492
806.968	0.0140013
807.046	0.0140014
807.124	0.0138864
807.203	0.0137969
807.281	0.0138563
807.359	0.0136716
807.437	0.0136845
807.515	0.0134158
807.593	0.0133564
807.671	0.0133346
807.749	0.0131972
807.828	0.0130790
807.906	0.0131953
807.984	0.0131297
808.062	0.0131190
808.140	0.0132009
808.218	0.0133321
808.296	0.0133233
808.374	0.0132650
808.453	0.0135013
808.531	0.0135501
808.609	0.0137150
808.687	0.0137122
808.765	0.0140254
808.843	0.0140026
808.921	0.0139497
808.999	0.0140123
809.078	0.0140400
809.156	0.0140154
809.234	0.0142115
809.312	0.0142270
809.390	0.0142297
809.468	0.0140697
809.546	0.0140595
809.624	0.0139951
809.703	0.0140388
809.781	0.0140555
809.859	0.0139935
809.937	0.0140301
810.015	0.0138399
810.093	0.0138902
810.171	0.0138044
810.249	0.0137657
810.328	0.0137479
810.406	0.0138065
810.484	0.0137255
810.562	0.0136851
810.640	0.0136952
810.718	0.0137608
810.796	0.0138093
810.874	0.0137148
810.953	0.0136517
811.031	0.0136987
811.109	0.0136955
811.187	0.0137518
811.265	0.0138924
811.343	0.0139075
811.421	0.0136972
811.499	0.0138788
811.578	0.0140459
811.656	0.0140004
811.734	0.0141185
811.812	0.0143041
811.890	0.0143547
811.968	0.0144096
812.046	0.0144693
812.124	0.0145200
812.203	0.0146629
812.281	0.0144561
812.359	0.0144167
812.437	0.0142752
812.515	0.0141707
812.593	0.0141615
812.671	0.0140872
812.749	0.0140181
812.828	0.0138260
812.906	0.0136942
812.984	0.0136729
813.062	0.0136550
813.140	0.0135732
813.218	0.0135490
813.296	0.0136489
813.374	0.0136302
813.453	0.0135492
813.531	0.0137043
813.609	0.0136737
813.687	0.0136119
813.765	0.0136942
813.843	0.0136280
813.921	0.0136519
813.999	0.0135537
814.078	0.0136176
814.156	0.0136610
814.234	0.0138577
814.312	0.0137327
814.390	0.0136406
814.468	0.0137707
814.546	0.0138850
814.624	0.0139980
814.703	0.0139481
814.781	0.0140080
814.859	0.0140353
814.937	0.0140738
815.015	0.0141345
815.093	0.0141838
815.171	0.0141743
815.249	0.0143345
815.328	0.0141626
815.406	0.0141995
815.484	0.0141498
815.562	0.0140998
815.640	0.0140196
815.718	0.0140118
815.796	0.0138956
815.874	0.0138091
815.953	0.0137177
816.031	0.0137115
816.109	0.0137408
816.187	0.0138760
816.265	0.0137251
816.343	0.0135036
816.421	0.0137051
816.499	0.0137559
816.578	0.0136506
816.656	0.0136592
816.734	0.0137342
816.812	0.0138119
816.890	0.0136807
816.968	0.0138296
817.046	0.0139429
817.124	0.0138207
817.203	0.0139606
817.281	0.0139993
817.359	0.0139641
817.437	0.0141441
817.515	0.0141299
817.593	0.0140691
817.671	0.0140880
817.749	0.0141639
817.828	0.0141800
817.906	0.0140699
817.984	0.0140923
818.062	0.0142162
818.140	0.0142067
818.218	0.0141504
818.296	0.0140302
818.374	0.0140299
818.453	0.0139368
818.531	0.0140718
818.609	0.0138532
818.687	0.0138913
818.765	0.0139043
818.843	0.0137717
818.921	0.0137173
818.999	0.0138983
819.078	0.0138158
819.156	0.0137789
819.234	0.0138992
819.312	0.0138768
819.390	0.0139455
819.468	0.0139133
819.546	0.0139377
819.624	0.0139581
819.703	0.0139378
819.781	0.0141606
819.859	0.0139425
819.937	0.0141463
820.015	0.0141994
820.093	0.0141580
820.171	0.0142492
820.249	0.0140635
820.328	0.0141499
820.406	0.0140404
820.484	0.0140746
820.562	0.0140759
820.640	0.0141042
820.718	0.0139747
820.796	0.0140536
820.874	0.0140564
820.953	0.0141205
821.031	0.0141354
821.109	0.0140175
821.187	0.0139118
821.265	0.0139073
821.343	0.0139971
821.421	0.0140945
821.499	0.0139799
821.578	0.0138076
821.656	0.0139199
821.734	0.0140177
821.812	0.0139419
821.890	0.0138251
821.968	0.0137967
822.046	0.0138984
822.124	0.0138445
822.203	0.0138982
822.281	0.0139767
822.359	0.0139749
822.437	0.0138914
822.515	0.0138437
822.593	0.0140972
822.671	0.0139771
822.749	0.0140255
822.828	0.0141290
822.906	0.0140065
822.984	0.0141485
823.062	0.0138389
823.140	0.0139535
823.218	0.0139825
823.296	0.0139105
823.374	0.0138779
823.453	0.0137305
823.531	0.0136088
823.609	0.0135363
823.687	0.0135828
823.765	0.0135739
823.843	0.0135643
823.921	0.0136025
823.999	0.0135503
824.078	0.0136727
824.156	0.0136496
824.234	0.0136861
824.312	0.0136424
824.390	0.0137217
824.468	0.0138165
824.546	0.0137494
824.624	0.0137228
824.703	0.0137442
824.781	0.0137332
824.859	0.0139336
824.937	0.0138805
825.015	0.0137926
825.093	0.0138702
825.171	0.0138988
825.249	0.0138124
825.328	0.0137905
825.406	0.0137862
825.484	0.0138242
825.562	0.0136938
825.640	0.0138790
825.718	0.0139835
825.796	0.0138439
825.874	0.0138998
825.953	0.0138109
826.031	0.0138769
826.109	0.0137994
826.187	0.0137309
826.265	0.0139483
826.343	0.0138610
826.421	0.0137981
826.499	0.0139188
826.578	0.0138593
826.656	0.0137678
826.734	0.0138020
826.812	0.0138224
826.890	0.0137495
826.968	0.0137184
827.046	0.0139197
827.124	0.0138215
827.203	0.0137576
827.281	0.0138145
827.359	0.0140091
827.437	0.0139176
827.515	0.0138850
827.593	0.0139835
827.671	0.0139886
827.749	0.0139257
827.828	0.0139407
827.906	0.0139875
827.984	0.0141023
828.062	0.0140820
828.140	0.0140551
828.218	0.0141780
828.296	0.0141126
828.374	0.0139629
828.453	0.0140580
828.531	0.0139607
828.609	0.0141508
828.687	0.0140103
828.765	0.0141219
828.843	0.0139906
828.921	0.0139757
828.999	0.0140986
829.078	0.0142113
829.156	0.0141871
829.234	0.0140021
829.312	0.0138560
829.390	0.0138918
829.468	0.0138862
829.546	0.0138774
829.624	0.0138815
829.703	0.0136514
829.781	0.0137245
829.859	0.0137167
829.937	0.0136465
830.015	0.0135697
830.093	0.0136295
830.171	0.0136079
830.249	0.0135342
830.328	0.0136391
830.406	0.0137881
830.484	0.0135097
830.562	0.0134824
830.640	0.0136642
830.718	0.0136642
830.796	0.0136395
830.874	0.0137473
830.953	0.0137506
831.031	0.0137402
831.109	0.0137251
831.187	0.0136141
831.265	0.0136110
831.343	0.0135735
831.421	0.0136931
831.499	0.0135695
831.578	0.0139156
831.656	0.0138162
831.734	0.0138404
831.812	0.0137770
831.890	0.0138627
831.968	0.0138769
832.046	0.0137831
832.124	0.0139119
832.203	0.0137966
832.281	0.0138322
832.359	0.0137876
832.437	0.0137509
832.515	0.0137476
832.593	0.0136842
832.671	0.0135551
832.749	0.0135043
832.828	0.0137061
832.906	0.0138347
832.984	0.0137962
833.062	0.0137306
833.140	0.0138261
833.218	0.0137574
833.296	0.0138482
833.374	0.0139050
833.453	0.0139534
833.531	0.0138536
833.609	0.0138499
833.687	0.0138827
833.765	0.0138018
833.843	0.0137902
833.921	0.0139987
833.999	0.0140124
834.078	0.0140494
834.156	0.0138094
834.234	0.0137435
834.312	0.0137078
834.390	0.0136676
834.468	0.0138300
834.546	0.0137155
834.624	0.0139185
834.703	0.0137069
834.781	0.0138125
834.859	0.0137746
834.937	0.0137727
835.015	0.0138369
835.093	0.0136677
835.171	0.0136930
835.249	0.0137772
835.328	0.0138084
835.406	0.0135907
835.484	0.0136488
835.562	0.0137148
835.640	0.0136162
835.718	0.0137651
835.796	0.0138387
835.874	0.0139499
835.953	0.0137823
836.031	0.0138470
836.109	0.0139883
836.187	0.0138844
836.265	0.0139525
836.343	0.0141512
836.421	0.0141329
836.499	0.0141127
836.578	0.0141293
836.656	0.0140374
836.734	0.0141238
836.812	0.0142348
836.890	0.0144398
836.968	0.0142174
837.046	0.0143380
837.124	0.0144209
837.203	0.0143398
837.281	0.0141986
837.359	0.0143085
837.437	0.0142046
837.515	0.0143290
837.593	0.0142473
837.671	0.0142408
837.749	0.0142655
837.828	0.0142381
837.906	0.0142236
837.984	0.0143420
838.062	0.0141978
838.140	0.0140791
838.218	0.0141656
838.296	0.0142121
838.374	0.0141560
838.453	0.0140564
838.531	0.0139546
838.609	0.0138734
838.687	0.0137595
838.765	0.0139455
838.843	0.0138597
838.921	0.0137613
838.999	0.0136445
839.078	0.0137402
839.156	0.0137476
839.234	0.0137225
839.312	0.0136940
839.390	0.0135617
839.468	0.0134997
839.546	0.0135802
839.624	0.0134660
839.703	0.0134423
839.781	0.0135984
839.859	0.0133478
839.937	0.0134063
840.015	0.0134579
840.093	0.0135069
840.171	0.0134761
840.249	0.0134766
840.328	0.0134764
840.406	0.0135599
840.484	0.0136494
840.562	0.0137055
840.640	0.0136151
840.718	0.0137817
840.796	0.0138177
840.874	0.0139745
840.953	0.0139011
841.031	0.0138406
841.109	0.0140392
841.187	0.0138751
841.265	0.0139080
841.343	0.0138438
841.421	0.0138335
841.499	0.0138283
841.578	0.0138590
841.656	0.0138242
841.734	0.0136382
841.812	0.0136855
841.890	0.0137040
841.968	0.0137154
842.046	0.0137308
842.124	0.0137247
842.203	0.0137963
842.281	0.0137505
842.359	0.0137546
842.437	0.0137636
842.515	0.0136842
842.593	0.0138297
842.671	0.0137502
842.749	0.0140028
842.828	0.0138421
842.906	0.0138972
842.984	0.0138985
843.062	0.0141257
843.140	0.0141101
843.218	0.0141277
843.296	0.0141971
843.374	0.0140582
843.453	0.0141020
843.531	0.0140880
843.609	0.0140376
843.687	0.0139281
843.765	0.0140770
843.843	0.0139642
843.921	0.0139007
843.999	0.0139162
844.078	0.0139330
844.156	0.0138313
844.234	0.0139111
844.312	0.0139558
844.390	0.0138598
844.468	0.0139373
844.546	0.0138081
844.624	0.0138834
844.703	0.0138297
844.781	0.0139624
844.859	0.0140154
844.937	0.0139242
845.015	0.0138756
845.093	0.0140818
845.171	0.0139314
845.249	0.0139445
845.328	0.0138107
845.406	0.0139001
845.484	0.0139680
845.562	0.0136857
845.640	0.0138672
845.718	0.0139760
845.796	0.0139626
845.874	0.0137422
845.953	0.0137527
846.031	0.0137366
846.109	0.0137367
846.187	0.0137669
846.265	0.0137346
846.343	0.0137183
846.421	0.0137139
846.499	0.0137502
846.578	0.0137447
846.656	0.0136319
846.734	0.0136501
846.812	0.0138261
846.890	0.0138634
846.968	0.0137496
847.046	0.0138085
847.124	0.0139358
847.203	0.0138190
847.281	0.0139615
847.359	0.0139013
847.437	0.0138042
847.515	0.0139282
847.593	0.0139135
847.671	0.0138918
847.749	0.0138909
847.828	0.0140451
847.906	0.0140022
847.984	0.0140048
848.062	0.0138185
848.140	0.0139278
848.218	0.0140122
848.296	0.0139414
848.374	0.0141116
848.453	0.0139883
848.531	0.0139260
848.609	0.0139082
848.687	0.0140714
848.765	0.0142823
848.843	0.0140810
848.921	0.0140926
848.999	0.0142809
849.078	0.0142000
849.156	0.0141414
849.234	0.0143157
849.312	0.0141716
849.390	0.0142116
849.468	0.0141114
849.546	0.0142558
849.624	0.0143747
849.703	0.0143144
849.781	0.0142344
849.859	0.0141501
849.937	0.0141518
850.015	0.0140294
850.093	0.0140303
850.171	0.0140635
850.249	0.0139673
850.328	0.0139552
850.406	0.0138628
850.484	0.0137183
850.562	0.0138300
850.640	0.0138338
850.718	0.0136858
850.796	0.0136841
850.874	0.0137025
850.953	0.0136030
851.031	0.0137579
851.109	0.0137558
851.187	0.0135534
851.265	0.0136819
851.343	0.0137132
851.421	0.0136444
851.499	0.0136675
851.578	0.0137150
851.656	0.0136945
851.734	0.0138362
851.812	0.0138342
851.890	0.0137502
851.968	0.0136561
852.046	0.0136507
852.124	0.0138785
852.203	0.0138567
852.281	0.0138422
852.359	0.0138092
852.437	0.0138129
852.515	0.0138275
852.593	0.0140688
852.671	0.0139675
852.749	0.0139039
852.828	0.0140881
852.906	0.0139285
852.984	0.0140276
853.062	0.0138429
853.140	0.0138651
853.218	0.0139449
853.296	0.0139983
853.374	0.0140678
853.453	0.0139512
853.531	0.0139765
853.609	0.0140060
853.687	0.0138560
853.765	0.0139231
853.843	0.0139753
853.921	0.0140375
853.999	0.0140313
854.078	0.0138802
854.156	0.0139965
854.234	0.0138702
854.312	0.0139768
854.390	0.0140665
854.468	0.0140591
854.546	0.0138892
854.624	0.0139537
854.703	0.0138498
854.781	0.0138235
854.859	0.0138298
854.937	0.0138701
855.015	0.0137813
855.093	0.0138171
855.171	0.0138505
855.249	0.0138747
855.328	0.0137799
855.406	0.0138228
855.484	0.0136789
855.562	0.0137033
855.640	0.0138097
855.718	0.0137535
855.796	0.0136911
855.874	0.0137809
855.953	0.0137032
856.031	0.0137278
856.109	0.0137708
856.187	0.0138200
856.265	0.0137073
856.343	0.0138470
856.421	0.0137849
856.499	0.0136379
856.578	0.0137668
856.656	0.0139666
856.734	0.0137247
856.812	0.0136665
856.890	0.0136324
856.968	0.0137571
857.046	0.0137429
857.124	0.0137045
857.203	0.0138319
857.281	0.0137965
857.359	0.0137236
857.437	0.0138936
857.515	0.0137443
857.593	0.0138071
857.671	0.0137652
857.749	0.0139262
857.828	0.0139227
857.906	0.0137962
857.984	0.0138168
858.062	0.0139027
858.140	0.0138532
858.218	0.0139025
858.296	0.0138893
858.374	0.0136605
858.453	0.0135873
858.531	0.0137154
858.609	0.0137240
858.687	0.0136185
858.765	0.0135736
858.843	0.0136174
858.921	0.0136588
858.999	0.0136292
859.078	0.0137296
859.156	0.0137027
859.234	0.0136062
859.312	0.0137402
859.390	0.0138446
859.468	0.0137563
859.546	0.0138077
859.624	0.0137971
859.703	0.0138562
859.781	0.0138822
859.859	0.0139132
859.937	0.0139243
860.015	0.0139542
860.093	0.0139864
860.171	0.0139060
860.249	0.0140994
860.328	0.0140990
860.406	0.0139507
860.484	0.0140439
860.562	0.0140829
860.640	0.0143133
860.718	0.0141903
860.796	0.0141957
860.874	0.0141370
860.953	0.0140362
861.031	0.0141953
861.109	0.0140588
861.187	0.0139732
861.265	0.0140594
861.343	0.0140682
861.421	0.0141443
861.499	0.0141704
861.578	0.0140208
861.656	0.0140095
861.734	0.0138928
861.812	0.0140438
861.890	0.0141195
861.968	0.0140561
862.046	0.0137847
862.124	0.0139426
862.203	0.0139423
862.281	0.0138901
862.359	0.0138380
862.437	0.0138834
862.515	0.0137216
862.593	0.0138082
862.671	0.0138787
862.749	0.0137621
862.828	0.0138297
862.906	0.0137432
862.984	0.0136864
863.062	0.0137724
863.140	0.0137732
863.218	0.0136074
863.296	0.0137901
863.374	0.0139176
863.453	0.0137698
863.531	0.0137589
863.609	0.0137673
863.687	0.0136902
863.765	0.0137668
863.843	0.0136239
863.921	0.0138506
863.999	0.0135887
864.078	0.0136233
864.156	0.0137803
864.234	0.0137477
864.312	0.0136492
864.390	0.0136936
864.468	0.0137856
864.546	0.0136481
864.624	0.0136405
864.703	0.0138276
864.781	0.0138067
864.859	0.0138321
864.937	0.0138745
865.015	0.0138953
865.093	0.0139760
865.171	0.0139597
865.249	0.0139803
865.328	0.0140053
865.406	0.0139674
865.484	0.0141093
865.562	0.0139787
865.640	0.0139871
865.718	0.0139606
865.796	0.0139582
865.874	0.0139542
865.953	0.0138715
866.031	0.0138110
866.109	0.0139720
866.187	0.0138165
866.265	0.0137616
866.343	0.0138525
866.421	0.0136727
866.499	0.0136917
866.578	0.0137286
866.656	0.0139086
866.734	0.0139014
866.812	0.0137802
866.890	0.0137393
866.968	0.0138711
867.046	0.0138553
867.124	0.0138198
867.203	0.0137075
867.281	0.0138242
867.359	0.0138588
867.437	0.0139292
867.515	0.0138440
867.593	0.0137461
867.671	0.0138171
867.749	0.0137775
867.828	0.0138853
867.906	0.0138533
867.984	0.0138957
868.062	0.0138483
868.140	0.0139034
868.218	0.0139494
868.296	0.0141197
868.374	0.0140352
868.453	0.0140681
868.531	0.0139194
868.609	0.0139265
868.687	0.0140505
868.765	0.0141171
868.843	0.0141138
868.921	0.0140692
868.999	0.0140528
869.078	0.0141098
869.156	0.0140350
869.234	0.0140376
869.312	0.0139973
869.390	0.0139864
869.468	0.0139121
869.546	0.0139770
869.624	0.0140121
869.703	0.0139330
869.781	0.0138039
869.859	0.0136874
869.937	0.0139228
870.015	0.0139262
870.093	0.0138348
870.171	0.0138313
870.249	0.0137505
870.328	0.0137169
870.406	0.0139890
870.484	0.0138344
870.562	0.0138334
870.640	0.0138003
870.718	0.0138612
870.796	0.0138067
870.874	0.0138097
870.953	0.0137152
871.031	0.0138736
871.109	0.0138618
871.187	0.0139161
871.265	0.0137347
871.343	0.0137849
871.421	0.0137275
871.499	0.0137562
871.578	0.0137852
871.656	0.0139538
871.734	0.0139040
871.812	0.0138168
871.890	0.0139021
871.968	0.0138786
872.046	0.0137729
872.124	0.0137575
872.203	0.0139307
872.281	0.0138053
872.359	0.0137696
872.437	0.0138073
872.515	0.0137342
872.593	0.0138048
872.671	0.0140253
872.749	0.0138135
872.828	0.0139404
872.906	0.0139529
872.984	0.0138412
873.062	0.0139449
873.140	0.0138884
873.218	0.0140520
873.296	0.0138632
873.374	0.0139768
873.453	0.0140962
873.531	0.0140995
873.609	0.0139897
873.687	0.0140291
873.765	0.0139507
873.843	0.0140042
873.921	0.0139556
873.999	0.0138927
874.078	0.0139407
874.156	0.0138612
874.234	0.0137992
874.312	0.0138021
874.390	0.0139151
874.468	0.0137814
874.546	0.0138406
874.624	0.0139721
874.703	0.0137982
874.781	0.0137182
874.859	0.0137657
874.937	0.0136884
875.015	0.0136975
875.093	0.0138217
875.171	0.0138667
875.249	0.0138248
875.328	0.0137976
875.406	0.0137037
875.484	0.0137271
875.562	0.0138891
875.640	0.0137919
875.718	0.0136225
875.796	0.0137799
875.874	0.0137769
875.953	0.0137579
876.031	0.0136451
876.109	0.0137987
876.187	0.0136739
876.265	0.0137656
876.343	0.0137772
876.421	0.0138882
876.499	0.0139980
876.578	0.0138030
876.656	0.0139197
876.734	0.0138411
876.812	0.0139248
876.890	0.0139526
876.968	0.0140576
877.046	0.0139812
877.124	0.0141405
877.203	0.0139677
877.281	0.0138705
877.359	0.0140102
877.437	0.0139663
877.515	0.0139259
877.593	0.0138889
877.671	0.0138540
877.749	0.0140572
877.828	0.0138970
877.906	0.0138605
877.984	0.0139405
878.062	0.0140087
878.140	0.0139609
878.218	0.0138594
878.296	0.0140274
878.374	0.0139551
878.453	0.0139025
878.531	0.0139679
878.609	0.0140337
878.687	0.0139619
878.765	0.0139658
878.843	0.0139937
878.921	0.0139970
878.999	0.0140571
879.078	0.0138954
879.156	0.0140075
879.234	0.0139674
879.312	0.0140171
879.390	0.0138304
879.468	0.0140250
879.546	0.0139514
879.624	0.0137821
879.703	0.0138825
879.781	0.0139085
879.859	0.0137704
879.937	0.0138279
880.015	0.0138364
880.093	0.0138329
880.171	0.0139290
880.249	0.0139262
880.328	0.0139140
880.406	0.0138274
880.484	0.0138799
880.562	0.0137981
880.640	0.0137830
880.718	0.0139044
880.796	0.0138261
880.874	0.0138564
880.953	0.0138541
881.031	0.0137975
881.109	0.0139278
881.187	0.0137580
881.265	0.0136546
881.343	0.0138908
881.421	0.0138357
881.499	0.0137233
881.578	0.0138515
881.656	0.0137537
881.734	0.0137270
881.812	0.0136649
881.890	0.0138953
881.968	0.0137412
882.046	0.0136817
882.124	0.0136960
882.203	0.0138163
882.281	0.0136992
882.359	0.0138010
882.437	0.0138437
882.515	0.0137846
882.593	0.0137957
882.671	0.0139378
882.749	0.0138795
882.828	0.0137732
882.906	0.0136053
882.984	0.0137712
883.062	0.0137249
883.140	0.0136855
883.218	0.0137916
883.296	0.0138065
883.374	0.0137895
883.453	0.0135888
883.531	0.0137792
883.609	0.0137364
883.687	0.0136717
883.765	0.0138121
883.843	0.0137382
883.921	0.0136909
883.999	0.0138258
884.078	0.0138457
884.156	0.0137808
884.234	0.0138972
884.312	0.0138161
884.390	0.0136842
884.468	0.0138701
884.546	0.0138017
884.624	0.0140491
884.703	0.0137562
884.781	0.0137202
884.859	0.0137637
884.937	0.0138838
885.015	0.0137660
885.093	0.0137329
885.171	0.0137971
885.249	0.0137608
885.328	0.0137748
885.406	0.0136734
885.484	0.0137840
885.562	0.0138077
885.640	0.0137707
885.718	0.0139130
885.796	0.0139063
885.874	0.0139240
885.953	0.0139590
886.031	0.0139558
886.109	0.0138573
886.187	0.0138802
886.265	0.0139968
886.343	0.0138797
886.421	0.0140058
886.499	0.0138823
886.578	0.0139403
886.656	0.0139050
886.734	0.0138850
886.812	0.0139525
886.890	0.0138058
886.968	0.0138040
887.046	0.0137524
887.124	0.0138962
887.203	0.0138177
887.281	0.0137349
887.359	0.0136488
887.437	0.0138332
887.515	0.0136436
887.593	0.0137468
887.671	0.0137547
887.749	0.0137234
887.828	0.0137417
887.906	0.0138423
887.984	0.0137138
888.062	0.0137708
888.140	0.0137047
888.218	0.0138477
888.296	0.0137039
888.374	0.0137135
888.453	0.0138370
888.531	0.0136936
888.609	0.0136622
888.687	0.0136401
888.765	0.0136692
888.843	0.0134922
888.921	0.0136258
888.999	0.0136543
889.078	0.0136327
889.156	0.0135535
889.234	0.0136736
889.312	0.0137030
889.390	0.0138799
889.468	0.0137174
889.546	0.0136067
889.624	0.0136297
889.703	0.0135559
889.781	0.0135036
889.859	0.0135081
889.937	0.0135842
890.015	0.0136275
890.093	0.0136143
890.171	0.0135331
890.249	0.0136489
890.328	0.0135156
890.406	0.0136693
890.484	0.0137334
890.562	0.0136525
890.640	0.0136857
890.718	0.0136975
890.796	0.0137460
890.874	0.0137457
890.953	0.0137847
891.031	0.0137086
891.109	0.0138783
891.187	0.0139053
891.265	0.0138112
891.343	0.0138905
891.421	0.0139455
891.499	0.0140420
891.578	0.0139402
891.656	0.0138553
891.734	0.0141222
891.812	0.0140342
891.890	0.0141343
891.968	0.0140566
892.046	0.0140604
892.124	0.0142355
892.203	0.0140140
892.281	0.0140860
892.359	0.0141290
892.437	0.0141289
892.515	0.0140857
892.593	0.0141206
892.671	0.0140948
892.749	0.0141993
892.828	0.0141647
892.906	0.0141319
892.984	0.0141940
893.062	0.0142084
893.140	0.0141095
893.218	0.0141180
893.296	0.0141749
893.374	0.0140475
893.453	0.0142204
893.531	0.0141603
893.609	0.0142747
893.687	0.0141661
893.765	0.0139391
893.843	0.0141753
893.921	0.0140667
893.999	0.0140215
894.078	0.0141857
894.156	0.0139671
894.234	0.0140252
894.312	0.0139422
894.390	0.0139508
894.468	0.0138067
894.546	0.0138831
894.624	0.0139413
894.703	0.0137811
894.781	0.0136962
894.859	0.0137778
894.937	0.0137690
895.015	0.0137008
895.093	0.0136832
895.171	0.0137733
895.249	0.0138287
895.328	0.0137801
895.406	0.0138837
895.484	0.0137251
895.562	0.0139297
895.640	0.0139060
895.718	0.0138992
895.796	0.0139008
895.874	0.0139275
895.953	0.0139030
896.031	0.0138866
896.109	0.0139489
896.187	0.0138017
896.265	0.0139315
896.343	0.0140710
896.421	0.0138136
896.499	0.0137606
896.578	0.0138480
896.656	0.0139181
896.734	0.0138242
896.812	0.0138994
896.890	0.0140170
896.968	0.0139343
897.046	0.0139326
897.124	0.0139669
897.203	0.0138621
897.281	0.0138862
897.359	0.0140054
897.437	0.0138978
897.515	0.0138422
897.593	0.0139149
897.671	0.0139787
897.749	0.0139912
897.828	0.0139130
897.906	0.0139610
897.984	0.0138696
898.062	0.0138486
898.140	0.0139465
898.218	0.0139917
898.296	0.0138785
898.374	0.0138729
898.453	0.0138076
898.531	0.0137731
898.609	0.0138007
898.687	0.0137144
898.765	0.0136646
898.843	0.0138582
898.921	0.0138360
898.999	0.0138554
899.078	0.0138120
899.156	0.0137108
899.234	0.0137927
899.312	0.0137788
899.390	0.0137902
899.468	0.0137786
899.546	0.0137218
899.624	0.0136678
899.703	0.0137936
899.781	0.0136819
899.859	0.0137087
899.937	0.0135657
900.015	0.0136603
900.093	0.0138075
900.171	0.0137671
900.249	0.0136771
900.328	0.0137534
900.406	0.0137489
900.484	0.0137850
900.562	0.0137970
900.640	0.0136438
900.718	0.0137636
900.796	0.0137379
900.874	0.0138313
900.953	0.0137447
901.031	0.0137850
901.109	0.0137601
901.187	0.0138132
901.265	0.0136780
901.343	0.0137874
901.421	0.0136578
901.499	0.0137687
901.578	0.0138844
901.656	0.0137074
901.734	0.0136806
901.812	0.0138243
901.890	0.0139971
901.968	0.0139408
902.046	0.0139012
902.124	0.0139217
902.203	0.0139856
902.281	0.0140574
902.359	0.0138938
902.437	0.0140000
902.515	0.0139892
902.593	0.0139577
902.671	0.0139178
902.749	0.0139069
902.828	0.0139876
902.906	0.0139176
902.984	0.0140716
903.062	0.0138856
903.140	0.0138660
903.218	0.0139386
903.296	0.0138564
903.374	0.0139522
903.453	0.0140228
903.531	0.0140134
903.609	0.0138619
903.687	0.0140563
903.765	0.0140116
903.843	0.0140405
903.921	0.0139748
903.999	0.0140176
904.078	0.0140659
904.156	0.0140102
904.234	0.0139101
904.312	0.0140062
904.390	0.0140293
904.468	0.0140749
904.546	0.0139536
904.624	0.0139976
904.703	0.0139608
904.781	0.0138807
904.859	0.0139814
904.937	0.0139914
905.015	0.0139066
905.093	0.0139434
905.171	0.0138905
905.249	0.0138793
905.328	0.0139531
905.406	0.0138660
905.484	0.0139455
905.562	0.0138207
905.640	0.0137573
905.718	0.0138880
905.796	0.0139053
905.874	0.0138057
905.953	0.0138158
906.031	0.0138676
906.109	0.0137320
906.187	0.0138279
906.265	0.0137298
906.343	0.0136494
906.421	0.0137853
906.499	0.0139718
906.578	0.0137836
906.656	0.0137315
906.734	0.0138882
906.812	0.0138885
906.890	0.0139042
906.968	0.0138673
907.046	0.0140072
907.124	0.0138576
907.203	0.0138998
907.281	0.0138849
907.359	0.0137747
907.437	0.0138974
907.515	0.0139962
907.593	0.0139964
907.671	0.0139157
907.749	0.0140068
907.828	0.0140228
907.906	0.0140034
907.984	0.0139349
908.062	0.0138737
908.140	0.0138687
908.218	0.0139600
908.296	0.0139015
908.374	0.0140125
908.453	0.0139066
908.531	0.0139242
908.609	0.0140184
908.687	0.0138066
908.765	0.0137386
908.843	0.0138841
908.921	0.0139086
908.999	0.0139793
909.078	0.0137589
909.156	0.0137903
909.234	0.0138303
909.312	0.0137030
909.390	0.0137971
909.468	0.0137060
909.546	0.0136768
909.624	0.0137299
909.703	0.0137930
909.781	0.0137032
909.859	0.0137132
909.937	0.0137340
910.015	0.0137054
910.093	0.0136950
910.171	0.0138000
910.249	0.0136637
910.328	0.0136188
910.406	0.0136041
910.484	0.0135669
910.562	0.0137724
910.640	0.0136586
910.718	0.0137489
910.796	0.0137562
910.874	0.0138682
910.953	0.0137231
911.031	0.0136888
911.109	0.0137315
911.187	0.0136553
911.265	0.0137219
911.343	0.0138361
911.421	0.0137965
911.499	0.0138014
911.578	0.0138025
911.656	0.0138313
911.734	0.0138213
911.812	0.0137157
911.890	0.0138466
911.968	0.0138707
912.046	0.0137377
912.124	0.0138191
912.203	0.0138545
912.281	0.0139073
912.359	0.0137576
912.437	0.0138361
912.515	0.0136764
912.593	0.0137650
912.671	0.0137800
912.749	0.0138860
912.828	0.0138010
912.906	0.0137085
912.984	0.0136848
913.062	0.0137277
913.140	0.0137413
913.218	0.0136961
913.296	0.0137114
913.374	0.0137851
913.453	0.0137681
913.531	0.0135905
913.609	0.0137907
913.687	0.0138686
913.765	0.0135828
913.843	0.0136454
913.921	0.0136552
913.999	0.0136835
914.078	0.0137292
914.156	0.0136073
914.234	0.0136353
914.312	0.0138320
914.390	0.0138533
914.468	0.0136308
914.546	0.0138432
914.624	0.0139131
914.703	0.0138752
914.781	0.0138170
914.859	0.0137936
914.937	0.0138752
915.015	0.0137453
915.093	0.0139376
915.171	0.0140015
915.249	0.0140060
915.328	0.0138936
915.406	0.0138577
915.484	0.0140691
915.562	0.0140336
915.640	0.0139518
915.718	0.0139409
915.796	0.0139630
915.874	0.0139549
915.953	0.0139215
916.031	0.0139410
916.109	0.0139102
916.187	0.0139671
916.265	0.0139889
916.343	0.0137916
916.421	0.0137251
916.499	0.0139692
916.578	0.0139223
916.656	0.0138360
916.734	0.0138742
916.812	0.0137733
916.890	0.0138013
916.968	0.0137866
917.046	0.0138289
917.124	0.0138947
917.203	0.0138569
917.281	0.0138178
917.359	0.0138225
917.437	0.0138764
917.515	0.0139773
917.593	0.0137406
917.671	0.0136208
917.749	0.0137251
917.828	0.0137906
917.906	0.0138100
917.984	0.0136636
918.062	0.0137330
918.140	0.0137896
918.218	0.0136537
918.296	0.0136980
918.374	0.0136280
918.453	0.0135091
918.531	0.0136349
918.609	0.0136668
918.687	0.0136654
918.765	0.0136134
918.843	0.0137634
918.921	0.0136588
918.999	0.0137257
919.078	0.0136327
919.156	0.0137508
919.234	0.0135699
919.312	0.0135114
919.390	0.0137742
919.468	0.0137304
919.546	0.0135698
919.624	0.0137418
919.703	0.0136459
919.781	0.0136595
919.859	0.0136775
919.937	0.0137656
