05/08/2022	20:22:07	Ver.	4.1	UNKNOWN
Optical Delay	600.015094	Delta X		0.078125	Sweeps	1	Scan Rate	0/0
Coordinates	Axis 1	NaN	Axis 2	NaN	Axis 3	NaN	Axis 4	NaN	Axis 5	NaN	Axis 6	0.000000
TX Power	0.000000	RX Power	0.000000

600.015	0.0139898
600.093	0.0139625
600.171	0.0139716
600.249	0.0139133
600.328	0.0138567
600.406	0.0140324
600.484	0.0140134
600.562	0.0139053
600.640	0.0140018
600.718	0.0139258
600.796	0.0139635
600.874	0.0139031
600.953	0.0139470
601.031	0.0139339
601.109	0.0139342
601.187	0.0139801
601.265	0.0140472
601.343	0.0139439
601.421	0.0138241
601.499	0.0138339
601.578	0.0140010
601.656	0.0138605
601.734	0.0138638
601.812	0.0139043
601.890	0.0138540
601.968	0.0141368
602.046	0.0138361
602.124	0.0139209
602.203	0.0138714
602.281	0.0138506
602.359	0.0140186
602.437	0.0139939
602.515	0.0139452
602.593	0.0141030
602.671	0.0139507
602.749	0.0139441
602.828	0.0139262
602.906	0.0139419
602.984	0.0140068
603.062	0.0138195
603.140	0.0139791
603.218	0.0139280
603.296	0.0139027
603.374	0.0139876
603.453	0.0138982
603.531	0.0139636
603.609	0.0140376
603.687	0.0139403
603.765	0.0140593
603.843	0.0141277
603.921	0.0139986
603.999	0.0140006
604.078	0.0140012
604.156	0.0140517
604.234	0.0141576
604.312	0.0140536
604.390	0.0140450
604.468	0.0140893
604.546	0.0140730
604.624	0.0140643
604.703	0.0141765
604.781	0.0141425
604.859	0.0140581
604.937	0.0140900
605.015	0.0140919
605.093	0.0141514
605.171	0.0140762
605.249	0.0141624
605.328	0.0142164
605.406	0.0141117
605.484	0.0140582
605.562	0.0141265
605.640	0.0140955
605.718	0.0140334
605.796	0.0141492
605.874	0.0142392
605.953	0.0141619
606.031	0.0142095
606.109	0.0141204
606.187	0.0141225
606.265	0.0141273
606.343	0.0142310
606.421	0.0142780
606.499	0.0141541
606.578	0.0140511
606.656	0.0142615
606.734	0.0141158
606.812	0.0141151
606.890	0.0143145
606.968	0.0143010
607.046	0.0141483
607.124	0.0141742
607.203	0.0141259
607.281	0.0142874
607.359	0.0141172
607.437	0.0141261
607.515	0.0142064
607.593	0.0140192
607.671	0.0141656
607.749	0.0140726
607.828	0.0142215
607.906	0.0141189
607.984	0.0140516
608.062	0.0139995
608.140	0.0141221
608.218	0.0141333
608.296	0.0140473
608.374	0.0140046
608.453	0.0139964
608.531	0.0140768
608.609	0.0139556
608.687	0.0138443
608.765	0.0139753
608.843	0.0140290
608.921	0.0140084
608.999	0.0139073
609.078	0.0139425
609.156	0.0138364
609.234	0.0138667
609.312	0.0138648
609.390	0.0138152
609.468	0.0138004
609.546	0.0137636
609.624	0.0138300
609.703	0.0137675
609.781	0.0138564
609.859	0.0138647
609.937	0.0138690
610.015	0.0137944
610.093	0.0139120
610.171	0.0138669
610.249	0.0139113
610.328	0.0138763
610.406	0.0138005
610.484	0.0139010
610.562	0.0139098
610.640	0.0139703
610.718	0.0139901
610.796	0.0140417
610.874	0.0139790
610.953	0.0140453
611.031	0.0140632
611.109	0.0139862
611.187	0.0139861
611.265	0.0141818
611.343	0.0141970
611.421	0.0141230
611.499	0.0141349
611.578	0.0141036
611.656	0.0142345
611.734	0.0141982
611.812	0.0141144
611.890	0.0141097
611.968	0.0140849
612.046	0.0141068
612.124	0.0142536
612.203	0.0141122
612.281	0.0140810
612.359	0.0141328
612.437	0.0140092
612.515	0.0141470
612.593	0.0140772
612.671	0.0140273
612.749	0.0140974
612.828	0.0141236
612.906	0.0141639
612.984	0.0139729
613.062	0.0141263
613.140	0.0141003
613.218	0.0140255
613.296	0.0139648
613.374	0.0139635
613.453	0.0139874
613.531	0.0138887
613.609	0.0137999
613.687	0.0140049
613.765	0.0140302
613.843	0.0138756
613.921	0.0139145
613.999	0.0139042
614.078	0.0139446
614.156	0.0139223
614.234	0.0139097
614.312	0.0139888
614.390	0.0138560
614.468	0.0137761
614.546	0.0138814
614.624	0.0139156
614.703	0.0138352
614.781	0.0138621
614.859	0.0139210
614.937	0.0138625
615.015	0.0138400
615.093	0.0138089
615.171	0.0138668
615.249	0.0138659
615.328	0.0139429
615.406	0.0137717
615.484	0.0138831
615.562	0.0140147
615.640	0.0138571
615.718	0.0137730
615.796	0.0138679
615.874	0.0140043
615.953	0.0139611
616.031	0.0139346
616.109	0.0138551
616.187	0.0139661
616.265	0.0138194
616.343	0.0139644
616.421	0.0139677
616.499	0.0138467
616.578	0.0138331
616.656	0.0138742
616.734	0.0139893
616.812	0.0137836
616.890	0.0139194
616.968	0.0140623
617.046	0.0139131
617.124	0.0140121
617.203	0.0138795
617.281	0.0138750
617.359	0.0140007
617.437	0.0140296
617.515	0.0139223
617.593	0.0136918
617.671	0.0138725
617.749	0.0139375
617.828	0.0137762
617.906	0.0137699
617.984	0.0138287
618.062	0.0137787
618.140	0.0137910
618.218	0.0138267
618.296	0.0138450
618.374	0.0138264
618.453	0.0138042
618.531	0.0137503
618.609	0.0138372
618.687	0.0138721
618.765	0.0137685
618.843	0.0138068
618.921	0.0137535
618.999	0.0138349
619.078	0.0140179
619.156	0.0138707
619.234	0.0138033
619.312	0.0138074
619.390	0.0139439
619.468	0.0138628
619.546	0.0139205
619.624	0.0138047
619.703	0.0139613
619.781	0.0138097
619.859	0.0137981
619.937	0.0139468
620.015	0.0139797
620.093	0.0139084
620.171	0.0138845
620.249	0.0139020
620.328	0.0137700
620.406	0.0138372
620.484	0.0140213
620.562	0.0137884
620.640	0.0138186
620.718	0.0138493
620.796	0.0139369
620.874	0.0139449
620.953	0.0137507
621.031	0.0139263
621.109	0.0139221
621.187	0.0138383
621.265	0.0138637
621.343	0.0138840
621.421	0.0138307
621.499	0.0138949
621.578	0.0139582
621.656	0.0138277
621.734	0.0139068
621.812	0.0139540
621.890	0.0139651
621.968	0.0139333
622.046	0.0138220
622.124	0.0140491
622.203	0.0140314
622.281	0.0139081
622.359	0.0140202
622.437	0.0138179
622.515	0.0138567
622.593	0.0139487
622.671	0.0139407
622.749	0.0140639
622.828	0.0139484
622.906	0.0140057
622.984	0.0139840
623.062	0.0139513
623.140	0.0139352
623.218	0.0139500
623.296	0.0139072
623.374	0.0138419
623.453	0.0139503
623.531	0.0138708
623.609	0.0140217
623.687	0.0137897
623.765	0.0140955
623.843	0.0141325
623.921	0.0140608
623.999	0.0139310
624.078	0.0140299
624.156	0.0140289
624.234	0.0138831
624.312	0.0140849
624.390	0.0140420
624.468	0.0140155
624.546	0.0139175
624.624	0.0138304
624.703	0.0138986
624.781	0.0141550
624.859	0.0139468
624.937	0.0137716
625.015	0.0139999
625.093	0.0139564
625.171	0.0139206
625.249	0.0139044
625.328	0.0140057
625.406	0.0138687
625.484	0.0138409
625.562	0.0139880
625.640	0.0140614
625.718	0.0139700
625.796	0.0138719
625.874	0.0138743
625.953	0.0139310
626.031	0.0139577
626.109	0.0140919
626.187	0.0141391
626.265	0.0139546
626.343	0.0139792
626.421	0.0140336
626.499	0.0138590
626.578	0.0138577
626.656	0.0139974
626.734	0.0139281
626.812	0.0139161
626.890	0.0138563
626.968	0.0139268
627.046	0.0138535
627.124	0.0138386
627.203	0.0137931
627.281	0.0137608
627.359	0.0138218
627.437	0.0138451
627.515	0.0138380
627.593	0.0138923
627.671	0.0138477
627.749	0.0138461
627.828	0.0138712
627.906	0.0138672
627.984	0.0137910
628.062	0.0138612
628.140	0.0138820
628.218	0.0138481
628.296	0.0139337
628.374	0.0137882
628.453	0.0136280
628.531	0.0137264
628.609	0.0137991
628.687	0.0136339
628.765	0.0137099
628.843	0.0138698
628.921	0.0137965
628.999	0.0139040
629.078	0.0137950
629.156	0.0138916
629.234	0.0138047
629.312	0.0138901
629.390	0.0138312
629.468	0.0136546
629.546	0.0138041
629.624	0.0138554
629.703	0.0137580
629.781	0.0138975
629.859	0.0138832
629.937	0.0139014
630.015	0.0139552
630.093	0.0137881
630.171	0.0139174
630.249	0.0140051
630.328	0.0139758
630.406	0.0138333
630.484	0.0139034
630.562	0.0140504
630.640	0.0141445
630.718	0.0141788
630.796	0.0140324
630.874	0.0141149
630.953	0.0140903
631.031	0.0141843
631.109	0.0141611
631.187	0.0140863
631.265	0.0142848
631.343	0.0141331
631.421	0.0141975
631.499	0.0143194
631.578	0.0142445
631.656	0.0141821
631.734	0.0141799
631.812	0.0141979
631.890	0.0140823
631.968	0.0142010
632.046	0.0141943
632.124	0.0142131
632.203	0.0142233
632.281	0.0142027
632.359	0.0143388
632.437	0.0141884
632.515	0.0141015
632.593	0.0142035
632.671	0.0142748
632.749	0.0142739
632.828	0.0142697
632.906	0.0142422
632.984	0.0142798
633.062	0.0141779
633.140	0.0143674
633.218	0.0141637
633.296	0.0141265
633.374	0.0142972
633.453	0.0141631
633.531	0.0141578
633.609	0.0140884
633.687	0.0141678
633.765	0.0139735
633.843	0.0141098
633.921	0.0139904
633.999	0.0139484
634.078	0.0140631
634.156	0.0141017
634.234	0.0140343
634.312	0.0139915
634.390	0.0140115
634.468	0.0140771
634.546	0.0139503
634.624	0.0141080
634.703	0.0139998
634.781	0.0139160
634.859	0.0140166
634.937	0.0140148
635.015	0.0140417
635.093	0.0141396
635.171	0.0140964
635.249	0.0139958
635.328	0.0139962
635.406	0.0142120
635.484	0.0141464
635.562	0.0140884
635.640	0.0140490
635.718	0.0139526
635.796	0.0141103
635.874	0.0141094
635.953	0.0141115
636.031	0.0140211
636.109	0.0139586
636.187	0.0139890
636.265	0.0140768
636.343	0.0140125
636.421	0.0139041
636.499	0.0139307
636.578	0.0138910
636.656	0.0139846
636.734	0.0139618
636.812	0.0138870
636.890	0.0138792
636.968	0.0139872
637.046	0.0139175
637.124	0.0138561
637.203	0.0139381
637.281	0.0139944
637.359	0.0138383
637.437	0.0139944
637.515	0.0139752
637.593	0.0139040
637.671	0.0136735
637.749	0.0139602
637.828	0.0138586
637.906	0.0138493
637.984	0.0139265
638.062	0.0138859
638.140	0.0140320
638.218	0.0138038
638.296	0.0138996
638.374	0.0138533
638.453	0.0139391
638.531	0.0139012
638.609	0.0139772
638.687	0.0140479
638.765	0.0139858
638.843	0.0140619
638.921	0.0139731
638.999	0.0139059
639.078	0.0137363
639.156	0.0139292
639.234	0.0138895
639.312	0.0138031
639.390	0.0138048
639.468	0.0138190
639.546	0.0136238
639.624	0.0136779
639.703	0.0137634
639.781	0.0137245
639.859	0.0137109
639.937	0.0136841
640.015	0.0136092
640.093	0.0135717
640.171	0.0134381
640.249	0.0135883
640.328	0.0134711
640.406	0.0134177
640.484	0.0135147
640.562	0.0135707
640.640	0.0136575
640.718	0.0137310
640.796	0.0138916
640.874	0.0138474
640.953	0.0137839
641.031	0.0139063
641.109	0.0141410
641.187	0.0142864
641.265	0.0143472
641.343	0.0144125
641.421	0.0143069
641.499	0.0143446
641.578	0.0146276
641.656	0.0145346
641.734	0.0145257
641.812	0.0143159
641.890	0.0143600
641.968	0.0142407
642.046	0.0141932
642.124	0.0142482
642.203	0.0141044
642.281	0.0141633
642.359	0.0141134
642.437	0.0140919
642.515	0.0139368
642.593	0.0138084
642.671	0.0138392
642.749	0.0137234
642.828	0.0136484
642.906	0.0136358
642.984	0.0136006
643.062	0.0136011
643.140	0.0133637
643.218	0.0132572
643.296	0.0133398
643.374	0.0133582
643.453	0.0133432
643.531	0.0133120
643.609	0.0132745
643.687	0.0133112
643.765	0.0135663
643.843	0.0135686
643.921	0.0135681
643.999	0.0136858
644.078	0.0138115
644.156	0.0135919
644.234	0.0140189
644.312	0.0138520
644.390	0.0141869
644.468	0.0142249
644.546	0.0143121
644.624	0.0145198
644.703	0.0146776
644.781	0.0146629
644.859	0.0146639
644.937	0.0146977
645.015	0.0146837
645.093	0.0147734
645.171	0.0146776
645.249	0.0145481
645.328	0.0145211
645.406	0.0145542
645.484	0.0144856
645.562	0.0143240
645.640	0.0142312
645.718	0.0140130
645.796	0.0138032
645.874	0.0137896
645.953	0.0137785
646.031	0.0137073
646.109	0.0135314
646.187	0.0133263
646.265	0.0133794
646.343	0.0132672
646.421	0.0131904
646.499	0.0130563
646.578	0.0130844
646.656	0.0128666
646.734	0.0128581
646.812	0.0128572
646.890	0.0129236
646.968	0.0130935
647.046	0.0129289
647.124	0.0131445
647.203	0.0132684
647.281	0.0134483
647.359	0.0134921
647.437	0.0134690
647.515	0.0137433
647.593	0.0138383
647.671	0.0138845
647.749	0.0139595
647.828	0.0140672
647.906	0.0140965
647.984	0.0143946
648.062	0.0144231
648.140	0.0143977
648.218	0.0146121
648.296	0.0146106
648.374	0.0147631
648.453	0.0147136
648.531	0.0146661
648.609	0.0148804
648.687	0.0150524
648.765	0.0149509
648.843	0.0149464
648.921	0.0149370
648.999	0.0149000
649.078	0.0148023
649.156	0.0147033
649.234	0.0146400
649.312	0.0146227
649.390	0.0145261
649.468	0.0142551
649.546	0.0141250
649.624	0.0140540
649.703	0.0139154
649.781	0.0138343
649.859	0.0135759
649.937	0.0134070
650.015	0.0134203
650.093	0.0132631
650.171	0.0132645
650.249	0.0129932
650.328	0.0129002
650.406	0.0127007
650.484	0.0125751
650.562	0.0124285
650.640	0.0124252
650.718	0.0123943
650.796	0.0123981
650.874	0.0123135
650.953	0.0124845
651.031	0.0125047
651.109	0.0125884
651.187	0.0128262
651.265	0.0129194
651.343	0.0130767
651.421	0.0134999
651.499	0.0136531
651.578	0.0139812
651.656	0.0141274
651.734	0.0143967
651.812	0.0147687
651.890	0.0148196
651.968	0.0151260
652.046	0.0151836
652.124	0.0154562
652.203	0.0154745
652.281	0.0156567
652.359	0.0158537
652.437	0.0158300
652.515	0.0158212
652.593	0.0157502
652.671	0.0159190
652.749	0.0158713
652.828	0.0156517
652.906	0.0155560
652.984	0.0154651
653.062	0.0153279
653.140	0.0150775
653.218	0.0147778
653.296	0.0146212
653.374	0.0144244
653.453	0.0141695
653.531	0.0140509
653.609	0.0136494
653.687	0.0132724
653.765	0.0132612
653.843	0.0128639
653.921	0.0127386
653.999	0.0123026
654.078	0.0121844
654.156	0.0121194
654.234	0.0119023
654.312	0.0120277
654.390	0.0118828
654.468	0.0117332
654.546	0.0116946
654.624	0.0117644
654.703	0.0118081
654.781	0.0120081
654.859	0.0121304
654.937	0.0123538
655.015	0.0125265
655.093	0.0127364
655.171	0.0130237
655.249	0.0131804
655.328	0.0134497
655.406	0.0138408
655.484	0.0141962
655.562	0.0143652
655.640	0.0146744
655.718	0.0148557
655.796	0.0150500
655.874	0.0155502
655.953	0.0157592
656.031	0.0157638
656.109	0.0160143
656.187	0.0161266
656.265	0.0160517
656.343	0.0161750
656.421	0.0160245
656.499	0.0161314
656.578	0.0160508
656.656	0.0159653
656.734	0.0158107
656.812	0.0157549
656.890	0.0156428
656.968	0.0152847
657.046	0.0151825
657.124	0.0149385
657.203	0.0149238
657.281	0.0145356
657.359	0.0142550
657.437	0.0138993
657.515	0.0137885
657.593	0.0135791
657.671	0.0133292
657.749	0.0131429
657.828	0.0126707
657.906	0.0124744
657.984	0.0125775
658.062	0.0123546
658.140	0.0122234
658.218	0.0123135
658.296	0.0119939
658.374	0.0119993
658.453	0.0120840
658.531	0.0119534
658.609	0.0119626
658.687	0.0121258
658.765	0.0121107
658.843	0.0120208
658.921	0.0124591
658.999	0.0125311
659.078	0.0126152
659.156	0.0127740
659.234	0.0130979
659.312	0.0131517
659.390	0.0132471
659.468	0.0137528
659.546	0.0139254
659.624	0.0141026
659.703	0.0143693
659.781	0.0145377
659.859	0.0146873
659.937	0.0147987
660.015	0.0148344
660.093	0.0150176
660.171	0.0151280
660.249	0.0154012
660.328	0.0155029
660.406	0.0154299
660.484	0.0156382
660.562	0.0156405
660.640	0.0157192
660.718	0.0157762
660.796	0.0157823
660.874	0.0159169
660.953	0.0157024
661.031	0.0157895
661.109	0.0156892
661.187	0.0154115
661.265	0.0152868
661.343	0.0151120
661.421	0.0149050
661.499	0.0147363
661.578	0.0145025
661.656	0.0143575
661.734	0.0139526
661.812	0.0137456
661.890	0.0135593
661.968	0.0133488
662.046	0.0130882
662.124	0.0129177
662.203	0.0127366
662.281	0.0125352
662.359	0.0124023
662.437	0.0125280
662.515	0.0123955
662.593	0.0123956
662.671	0.0124790
662.749	0.0125188
662.828	0.0125903
662.906	0.0125100
662.984	0.0127064
663.062	0.0127635
663.140	0.0129816
663.218	0.0129855
663.296	0.0130415
663.374	0.0131986
663.453	0.0134319
663.531	0.0136321
663.609	0.0137673
663.687	0.0138665
663.765	0.0141051
663.843	0.0141367
663.921	0.0143526
663.999	0.0144701
664.078	0.0146443
664.156	0.0147851
664.234	0.0147552
664.312	0.0148336
664.390	0.0149864
664.468	0.0150194
664.546	0.0149747
664.624	0.0149363
664.703	0.0150242
664.781	0.0149518
664.859	0.0148418
664.937	0.0147102
665.015	0.0146758
665.093	0.0144755
665.171	0.0142751
665.249	0.0142258
665.328	0.0141304
665.406	0.0139091
665.484	0.0139336
665.562	0.0137043
665.640	0.0136198
665.718	0.0135161
665.796	0.0134940
665.874	0.0134727
665.953	0.0134407
666.031	0.0134944
666.109	0.0133788
666.187	0.0134381
666.265	0.0135114
666.343	0.0134974
666.421	0.0136024
666.499	0.0136781
666.578	0.0136684
666.656	0.0136245
666.734	0.0136514
666.812	0.0138377
666.890	0.0139602
666.968	0.0139210
667.046	0.0139581
667.124	0.0140244
667.203	0.0141254
667.281	0.0140927
667.359	0.0141908
667.437	0.0142149
667.515	0.0142667
667.593	0.0143359
667.671	0.0140794
667.749	0.0142351
667.828	0.0144580
667.906	0.0143030
667.984	0.0141511
668.062	0.0141074
668.140	0.0140178
668.218	0.0140955
668.296	0.0140074
668.374	0.0138828
668.453	0.0139300
668.531	0.0138005
668.609	0.0136650
668.687	0.0136971
668.765	0.0135876
668.843	0.0136614
668.921	0.0135043
668.999	0.0135023
669.078	0.0135696
669.156	0.0136273
669.234	0.0134615
669.312	0.0133032
669.390	0.0135183
669.468	0.0133648
669.546	0.0133643
669.624	0.0133405
669.703	0.0133378
669.781	0.0131826
669.859	0.0132388
669.937	0.0131557
670.015	0.0131354
670.093	0.0131759
670.171	0.0129008
670.249	0.0130107
670.328	0.0131134
670.406	0.0129158
670.484	0.0129516
670.562	0.0131187
670.640	0.0130412
670.718	0.0131432
670.796	0.0133184
670.874	0.0134033
670.953	0.0134945
671.031	0.0137486
671.109	0.0138139
671.187	0.0140100
671.265	0.0142979
671.343	0.0143623
671.421	0.0146486
671.499	0.0147304
671.578	0.0149004
671.656	0.0151257
671.734	0.0152665
671.812	0.0152020
671.890	0.0155671
671.968	0.0157314
672.046	0.0157555
672.124	0.0157864
672.203	0.0159091
672.281	0.0160071
672.359	0.0160699
672.437	0.0161807
672.515	0.0160760
672.593	0.0160173
672.671	0.0159682
672.749	0.0157225
672.828	0.0156390
672.906	0.0154426
672.984	0.0152284
673.062	0.0150685
673.140	0.0146184
673.218	0.0144557
673.296	0.0141734
673.374	0.0139330
673.453	0.0135386
673.531	0.0132789
673.609	0.0131357
673.687	0.0127961
673.765	0.0127468
673.843	0.0124104
673.921	0.0124333
673.999	0.0123684
674.078	0.0120887
674.156	0.0119397
674.234	0.0120419
674.312	0.0119662
674.390	0.0118340
674.468	0.0119358
674.546	0.0120580
674.624	0.0118893
674.703	0.0118408
674.781	0.0120850
674.859	0.0122945
674.937	0.0123750
675.015	0.0124398
675.093	0.0124226
675.171	0.0127134
675.249	0.0128600
675.328	0.0130431
675.406	0.0134545
675.484	0.0134917
675.562	0.0138544
675.640	0.0141273
675.718	0.0143931
675.796	0.0146250
675.874	0.0147298
675.953	0.0150308
676.031	0.0153394
676.109	0.0154136
676.187	0.0156287
676.265	0.0157233
676.343	0.0159718
676.421	0.0158601
676.499	0.0159215
676.578	0.0160204
676.656	0.0159325
676.734	0.0159129
676.812	0.0158620
676.890	0.0157071
676.968	0.0157033
677.046	0.0156960
677.124	0.0155131
677.203	0.0154575
677.281	0.0153448
677.359	0.0151330
677.437	0.0150370
677.515	0.0151011
677.593	0.0149642
677.671	0.0148920
677.749	0.0146977
677.828	0.0145421
677.906	0.0142737
677.984	0.0141930
678.062	0.0140013
678.140	0.0137800
678.218	0.0138615
678.296	0.0134147
678.374	0.0133087
678.453	0.0130923
678.531	0.0129819
678.609	0.0128027
678.687	0.0125937
678.765	0.0126115
678.843	0.0125510
678.921	0.0122737
678.999	0.0122601
679.078	0.0120924
679.156	0.0119563
679.234	0.0120701
679.312	0.0121342
679.390	0.0120486
679.468	0.0121069
679.546	0.0122501
679.624	0.0123257
679.703	0.0123615
679.781	0.0125388
679.859	0.0127334
679.937	0.0129992
680.015	0.0129873
680.093	0.0132603
680.171	0.0134725
680.249	0.0136306
680.328	0.0136362
680.406	0.0139852
680.484	0.0139973
680.562	0.0140054
680.640	0.0142335
680.718	0.0143873
680.796	0.0143839
680.874	0.0143478
680.953	0.0146246
681.031	0.0146709
681.109	0.0146226
681.187	0.0146369
681.265	0.0146925
681.343	0.0149110
681.421	0.0148279
681.499	0.0150616
681.578	0.0149804
681.656	0.0149852
681.734	0.0152250
681.812	0.0151897
681.890	0.0150368
681.968	0.0150446
682.046	0.0148997
682.124	0.0149120
682.203	0.0149930
682.281	0.0149758
682.359	0.0147783
682.437	0.0147467
682.515	0.0146670
682.593	0.0146789
682.671	0.0144771
682.749	0.0143893
682.828	0.0144440
682.906	0.0143909
682.984	0.0143840
683.062	0.0142685
683.140	0.0142265
683.218	0.0142818
683.296	0.0140855
683.374	0.0140975
683.453	0.0141081
683.531	0.0142490
683.609	0.0141629
683.687	0.0139758
683.765	0.0138706
683.843	0.0138620
683.921	0.0137682
683.999	0.0137627
684.078	0.0136893
684.156	0.0135760
684.234	0.0135785
684.312	0.0136694
684.390	0.0135162
684.468	0.0133417
684.546	0.0133382
684.624	0.0136285
684.703	0.0133459
684.781	0.0133671
684.859	0.0133153
684.937	0.0133571
685.015	0.0132812
685.093	0.0132567
685.171	0.0133739
685.249	0.0133540
685.328	0.0133006
685.406	0.0133127
685.484	0.0134374
685.562	0.0135810
685.640	0.0134508
685.718	0.0136034
685.796	0.0135207
685.874	0.0136498
685.953	0.0137466
686.031	0.0137319
686.109	0.0137840
686.187	0.0138223
686.265	0.0138205
686.343	0.0138102
686.421	0.0138013
686.499	0.0136165
686.578	0.0136917
686.656	0.0136297
686.734	0.0135989
686.812	0.0136155
686.890	0.0138075
686.968	0.0139155
687.046	0.0138600
687.124	0.0140367
687.203	0.0139792
687.281	0.0141331
687.359	0.0143638
687.437	0.0145354
687.515	0.0146444
687.593	0.0146250
687.671	0.0148840
687.749	0.0149669
687.828	0.0149949
687.906	0.0152092
687.984	0.0152372
688.062	0.0152029
688.140	0.0152396
688.218	0.0153551
688.296	0.0152705
688.374	0.0152057
688.453	0.0151649
688.531	0.0152213
688.609	0.0151553
688.687	0.0152360
688.765	0.0149051
688.843	0.0146862
688.921	0.0147449
688.999	0.0145618
689.078	0.0143549
689.156	0.0141692
689.234	0.0139451
689.312	0.0138728
689.390	0.0138299
689.468	0.0135710
689.546	0.0136301
689.624	0.0134324
689.703	0.0135179
689.781	0.0133889
689.859	0.0131345
689.937	0.0133360
690.015	0.0132393
690.093	0.0132211
690.171	0.0131911
690.249	0.0132266
690.328	0.0133121
690.406	0.0132133
690.484	0.0132051
690.562	0.0132802
690.640	0.0134530
690.718	0.0134975
690.796	0.0136173
690.874	0.0136220
690.953	0.0136237
691.031	0.0137773
691.109	0.0139558
691.187	0.0140830
691.265	0.0140292
691.343	0.0140386
691.421	0.0142688
691.499	0.0142130
691.578	0.0143118
691.656	0.0141996
691.734	0.0142377
691.812	0.0144203
691.890	0.0144476
691.968	0.0144495
692.046	0.0142081
692.124	0.0143267
692.203	0.0143398
692.281	0.0141509
692.359	0.0141033
692.437	0.0140560
692.515	0.0139080
692.593	0.0138007
692.671	0.0138677
692.749	0.0135603
692.828	0.0135479
692.906	0.0135500
692.984	0.0135699
693.062	0.0134396
693.140	0.0132533
693.218	0.0133578
693.296	0.0131718
693.374	0.0134140
693.453	0.0135384
693.531	0.0134406
693.609	0.0134394
693.687	0.0135981
693.765	0.0136546
693.843	0.0136153
693.921	0.0136666
693.999	0.0137611
694.078	0.0138725
694.156	0.0137752
694.234	0.0139548
694.312	0.0141507
694.390	0.0141156
694.468	0.0141220
694.546	0.0141988
694.624	0.0144131
694.703	0.0143557
694.781	0.0145338
694.859	0.0145341
694.937	0.0146129
695.015	0.0147157
695.093	0.0147849
695.171	0.0148412
695.249	0.0149956
695.328	0.0148756
695.406	0.0149271
695.484	0.0149735
695.562	0.0149425
695.640	0.0148882
695.718	0.0148270
695.796	0.0148117
695.874	0.0148943
695.953	0.0147701
696.031	0.0145588
696.109	0.0145202
696.187	0.0145325
696.265	0.0144801
696.343	0.0144298
696.421	0.0143919
696.499	0.0141591
696.578	0.0140234
696.656	0.0137976
696.734	0.0139674
696.812	0.0138512
696.890	0.0136617
696.968	0.0135551
697.046	0.0133540
697.124	0.0132274
697.203	0.0132475
697.281	0.0130225
697.359	0.0130636
697.437	0.0130534
697.515	0.0128960
697.593	0.0129925
697.671	0.0131347
697.749	0.0127924
697.828	0.0126931
697.906	0.0128480
697.984	0.0126785
698.062	0.0127174
698.140	0.0127235
698.218	0.0128093
698.296	0.0128394
698.374	0.0127829
698.453	0.0128522
698.531	0.0129372
698.609	0.0129919
698.687	0.0131547
698.765	0.0133566
698.843	0.0134219
698.921	0.0136163
698.999	0.0135165
699.078	0.0137461
699.156	0.0138390
699.234	0.0140144
699.312	0.0142327
699.390	0.0143326
699.468	0.0144485
699.546	0.0146911
699.624	0.0149336
699.703	0.0148013
699.781	0.0148267
699.859	0.0149852
699.937	0.0151511
700.015	0.0151418
700.093	0.0152094
700.171	0.0152798
700.249	0.0152135
700.328	0.0150982
700.406	0.0153297
700.484	0.0152943
700.562	0.0151456
700.640	0.0151709
700.718	0.0150954
700.796	0.0149366
700.874	0.0148889
700.953	0.0148233
701.031	0.0149184
701.109	0.0145509
701.187	0.0146564
701.265	0.0144938
701.343	0.0143866
701.421	0.0142940
701.499	0.0142960
701.578	0.0143139
701.656	0.0141467
701.734	0.0140320
701.812	0.0137583
701.890	0.0138592
701.968	0.0138033
702.046	0.0136951
702.124	0.0136458
702.203	0.0135329
702.281	0.0135117
702.359	0.0134523
702.437	0.0134462
702.515	0.0135738
702.593	0.0134428
702.671	0.0134344
702.749	0.0134763
702.828	0.0132682
702.906	0.0134715
702.984	0.0135069
703.062	0.0133362
703.140	0.0134756
703.218	0.0133401
703.296	0.0134614
703.374	0.0134933
703.453	0.0134270
703.531	0.0134557
703.609	0.0132909
703.687	0.0132083
703.765	0.0132622
703.843	0.0132334
703.921	0.0131048
703.999	0.0131659
704.078	0.0132496
704.156	0.0133238
704.234	0.0132691
704.312	0.0134098
704.390	0.0134584
704.468	0.0134621
704.546	0.0136145
704.624	0.0135409
704.703	0.0137820
704.781	0.0139043
704.859	0.0138116
704.937	0.0139571
705.015	0.0140649
705.093	0.0142168
705.171	0.0141988
705.249	0.0143546
705.328	0.0144040
705.406	0.0143221
705.484	0.0143581
705.562	0.0144196
705.640	0.0146427
705.718	0.0146392
705.796	0.0144992
705.874	0.0147054
705.953	0.0147521
706.031	0.0147928
706.109	0.0146959
706.187	0.0148277
706.265	0.0146779
706.343	0.0146039
706.421	0.0146156
706.499	0.0145450
706.578	0.0145225
706.656	0.0143916
706.734	0.0144225
706.812	0.0143061
706.890	0.0142056
706.968	0.0141350
707.046	0.0141093
707.124	0.0141077
707.203	0.0140207
707.281	0.0139610
707.359	0.0139962
707.437	0.0139742
707.515	0.0141268
707.593	0.0140002
707.671	0.0139780
707.749	0.0140380
707.828	0.0139722
707.906	0.0137701
707.984	0.0137681
708.062	0.0137822
708.140	0.0138136
708.218	0.0136343
708.296	0.0138737
708.374	0.0136561
708.453	0.0135762
708.531	0.0135745
708.609	0.0134678
708.687	0.0135750
708.765	0.0135255
708.843	0.0135485
708.921	0.0132635
708.999	0.0134541
709.078	0.0133965
709.156	0.0134970
709.234	0.0133636
709.312	0.0134916
709.390	0.0133222
709.468	0.0135138
709.546	0.0133856
709.624	0.0133669
709.703	0.0134872
709.781	0.0134335
709.859	0.0134194
709.937	0.0134448
710.015	0.0135175
710.093	0.0135654
710.171	0.0135860
710.249	0.0137492
710.328	0.0137184
710.406	0.0137366
710.484	0.0137894
710.562	0.0139523
710.640	0.0139966
710.718	0.0139847
710.796	0.0141957
710.874	0.0141436
710.953	0.0142316
711.031	0.0143407
711.109	0.0142250
711.187	0.0143540
711.265	0.0143298
711.343	0.0142878
711.421	0.0143929
711.499	0.0144682
711.578	0.0143259
711.656	0.0144780
711.734	0.0143573
711.812	0.0142437
711.890	0.0142054
711.968	0.0141882
712.046	0.0141225
712.124	0.0142209
712.203	0.0140304
712.281	0.0141060
712.359	0.0140578
712.437	0.0141220
712.515	0.0139584
712.593	0.0139735
712.671	0.0139994
712.749	0.0137991
712.828	0.0137009
712.906	0.0138895
712.984	0.0138544
713.062	0.0136761
713.140	0.0138663
713.218	0.0139294
713.296	0.0137899
713.374	0.0136573
713.453	0.0139771
713.531	0.0138744
713.609	0.0139087
713.687	0.0140113
713.765	0.0140961
713.843	0.0140745
713.921	0.0142072
713.999	0.0141762
714.078	0.0142908
714.156	0.0141518
714.234	0.0143153
714.312	0.0143462
714.390	0.0141316
714.468	0.0141312
714.546	0.0144173
714.624	0.0142590
714.703	0.0143252
714.781	0.0143477
714.859	0.0142462
714.937	0.0145016
715.015	0.0143324
715.093	0.0142968
715.171	0.0141564
715.249	0.0141126
715.328	0.0141163
715.406	0.0141192
715.484	0.0141550
715.562	0.0139218
715.640	0.0138622
715.718	0.0138377
715.796	0.0138869
715.874	0.0137417
715.953	0.0137148
716.031	0.0138825
716.109	0.0138732
716.187	0.0136877
716.265	0.0136723
716.343	0.0138811
716.421	0.0138209
716.499	0.0137730
716.578	0.0138204
716.656	0.0138985
716.734	0.0139056
716.812	0.0139192
716.890	0.0140553
716.968	0.0137540
717.046	0.0139574
717.124	0.0138482
717.203	0.0138451
717.281	0.0139573
717.359	0.0140353
717.437	0.0141431
717.515	0.0140705
717.593	0.0142489
717.671	0.0143082
717.749	0.0141774
717.828	0.0142055
717.906	0.0142447
717.984	0.0141608
718.062	0.0142525
718.140	0.0142818
718.218	0.0143044
718.296	0.0141949
718.374	0.0142079
718.453	0.0140867
718.531	0.0140194
718.609	0.0140836
718.687	0.0141418
718.765	0.0140785
718.843	0.0139410
718.921	0.0138872
718.999	0.0138905
719.078	0.0140134
719.156	0.0139923
719.234	0.0137611
719.312	0.0137514
719.390	0.0137958
719.468	0.0137620
719.546	0.0137239
719.624	0.0136693
719.703	0.0136695
719.781	0.0136102
719.859	0.0137498
719.937	0.0137154
720.015	0.0136557
720.093	0.0138091
720.171	0.0138738
720.249	0.0140663
720.328	0.0139532
720.406	0.0139736
720.484	0.0138705
720.562	0.0138881
720.640	0.0141988
720.718	0.0141554
720.796	0.0139587
720.874	0.0140195
720.953	0.0139880
721.031	0.0142027
721.109	0.0141870
721.187	0.0140118
721.265	0.0142310
721.343	0.0142363
721.421	0.0140234
721.499	0.0140643
721.578	0.0140785
721.656	0.0141394
721.734	0.0140703
721.812	0.0141126
721.890	0.0139245
721.968	0.0139333
722.046	0.0138267
722.124	0.0139306
722.203	0.0138738
722.281	0.0139405
722.359	0.0138760
722.437	0.0137536
722.515	0.0137804
722.593	0.0136897
722.671	0.0136587
722.749	0.0135767
722.828	0.0136810
722.906	0.0135963
722.984	0.0135698
723.062	0.0135588
723.140	0.0135481
723.218	0.0137009
723.296	0.0136233
723.374	0.0135274
723.453	0.0135522
723.531	0.0133463
723.609	0.0135162
723.687	0.0134713
723.765	0.0134473
723.843	0.0135332
723.921	0.0134236
723.999	0.0134743
724.078	0.0135266
724.156	0.0135361
724.234	0.0136224
724.312	0.0134998
724.390	0.0133837
724.468	0.0136120
724.546	0.0135271
724.624	0.0133750
724.703	0.0136106
724.781	0.0135439
724.859	0.0136771
724.937	0.0135562
725.015	0.0136218
725.093	0.0136540
725.171	0.0137737
725.249	0.0138289
725.328	0.0139423
725.406	0.0139504
725.484	0.0140765
725.562	0.0139618
725.640	0.0141603
725.718	0.0141117
725.796	0.0141620
725.874	0.0142826
725.953	0.0141662
726.031	0.0142094
726.109	0.0142477
726.187	0.0142649
726.265	0.0141619
726.343	0.0142889
726.421	0.0142133
726.499	0.0143049
726.578	0.0141982
726.656	0.0142272
726.734	0.0141679
726.812	0.0142567
726.890	0.0142314
726.968	0.0142765
727.046	0.0143516
727.124	0.0142770
727.203	0.0142910
727.281	0.0141080
727.359	0.0143076
727.437	0.0143291
727.515	0.0142994
727.593	0.0144927
727.671	0.0143039
727.749	0.0143002
727.828	0.0143298
727.906	0.0141795
727.984	0.0141890
728.062	0.0142390
728.140	0.0142748
728.218	0.0142667
728.296	0.0141452
728.374	0.0141019
728.453	0.0142656
728.531	0.0141924
728.609	0.0141188
728.687	0.0141604
728.765	0.0141471
728.843	0.0141193
728.921	0.0140646
728.999	0.0139263
729.078	0.0140215
729.156	0.0139499
729.234	0.0138922
729.312	0.0138249
729.390	0.0136934
729.468	0.0137918
729.546	0.0138385
729.624	0.0136385
729.703	0.0137519
729.781	0.0136134
729.859	0.0136605
729.937	0.0135381
730.015	0.0134567
730.093	0.0134712
730.171	0.0134399
730.249	0.0133652
730.328	0.0134306
730.406	0.0133019
730.484	0.0133750
730.562	0.0134134
730.640	0.0134915
730.718	0.0135081
730.796	0.0134821
730.874	0.0133282
730.953	0.0134983
731.031	0.0136741
731.109	0.0135999
731.187	0.0137849
731.265	0.0136523
731.343	0.0135794
731.421	0.0136816
731.499	0.0137751
731.578	0.0136859
731.656	0.0138577
731.734	0.0138627
731.812	0.0139488
731.890	0.0139162
731.968	0.0139867
732.046	0.0141062
732.124	0.0140055
732.203	0.0140427
732.281	0.0140201
732.359	0.0140649
732.437	0.0142214
732.515	0.0141978
732.593	0.0141602
732.671	0.0140799
732.749	0.0142093
732.828	0.0141956
732.906	0.0142345
732.984	0.0143455
733.062	0.0142754
733.140	0.0142638
733.218	0.0141658
733.296	0.0142536
733.374	0.0141653
733.453	0.0141576
733.531	0.0141380
733.609	0.0139617
733.687	0.0140477
733.765	0.0141003
733.843	0.0139151
733.921	0.0139821
733.999	0.0140393
734.078	0.0140074
734.156	0.0140236
734.234	0.0139009
734.312	0.0137612
734.390	0.0138231
734.468	0.0138901
734.546	0.0137297
734.624	0.0136314
734.703	0.0136341
734.781	0.0137314
734.859	0.0137352
734.937	0.0136180
735.015	0.0135646
735.093	0.0136295
735.171	0.0135352
735.249	0.0135699
735.328	0.0135913
735.406	0.0135304
735.484	0.0134579
735.562	0.0135703
735.640	0.0136252
735.718	0.0136900
735.796	0.0135480
735.874	0.0136690
735.953	0.0137143
736.031	0.0137048
736.109	0.0136765
736.187	0.0137719
736.265	0.0136810
736.343	0.0138863
736.421	0.0140131
736.499	0.0138323
736.578	0.0138679
736.656	0.0140118
736.734	0.0137718
736.812	0.0138814
736.890	0.0138223
736.968	0.0138099
737.046	0.0140828
737.124	0.0139513
737.203	0.0138551
737.281	0.0138596
737.359	0.0138917
737.437	0.0138242
737.515	0.0139028
737.593	0.0139835
737.671	0.0139245
737.749	0.0139336
737.828	0.0140118
737.906	0.0140420
737.984	0.0139584
738.062	0.0139851
738.140	0.0140755
738.218	0.0141572
738.296	0.0141882
738.374	0.0141622
738.453	0.0142725
738.531	0.0142966
738.609	0.0142262
738.687	0.0142295
738.765	0.0142864
738.843	0.0140828
738.921	0.0142655
738.999	0.0140957
739.078	0.0142386
739.156	0.0143275
739.234	0.0141039
739.312	0.0142640
739.390	0.0141451
739.468	0.0140572
739.546	0.0141145
739.624	0.0140816
739.703	0.0139764
739.781	0.0140735
739.859	0.0138779
739.937	0.0139690
740.015	0.0138797
740.093	0.0140359
740.171	0.0139741
740.249	0.0138971
740.328	0.0138602
740.406	0.0138892
740.484	0.0138646
740.562	0.0138552
740.640	0.0138245
740.718	0.0138122
740.796	0.0136910
740.874	0.0137769
740.953	0.0135597
741.031	0.0136739
741.109	0.0135714
741.187	0.0135695
741.265	0.0137560
741.343	0.0136331
741.421	0.0137693
741.499	0.0136761
741.578	0.0135620
741.656	0.0136499
741.734	0.0137224
741.812	0.0137310
741.890	0.0136810
741.968	0.0137127
742.046	0.0137125
742.124	0.0137103
742.203	0.0137476
742.281	0.0137473
742.359	0.0138089
742.437	0.0137368
742.515	0.0137854
742.593	0.0137110
742.671	0.0137051
742.749	0.0137863
742.828	0.0138060
742.906	0.0137227
742.984	0.0137460
743.062	0.0137211
743.140	0.0137494
743.218	0.0137866
743.296	0.0136782
743.374	0.0139254
743.453	0.0138683
743.531	0.0137614
743.609	0.0139140
743.687	0.0138945
743.765	0.0138181
743.843	0.0135841
743.921	0.0137941
743.999	0.0138259
744.078	0.0137980
744.156	0.0137844
744.234	0.0138703
744.312	0.0138341
744.390	0.0138033
744.468	0.0139165
744.546	0.0140707
744.624	0.0140415
744.703	0.0138715
744.781	0.0141158
744.859	0.0141354
744.937	0.0140683
745.015	0.0140478
745.093	0.0141460
745.171	0.0141317
745.249	0.0140628
745.328	0.0139367
745.406	0.0140169
745.484	0.0140913
745.562	0.0141969
745.640	0.0141921
745.718	0.0141575
745.796	0.0140372
745.874	0.0141448
745.953	0.0141051
746.031	0.0141582
746.109	0.0140908
746.187	0.0139264
746.265	0.0139451
746.343	0.0141025
746.421	0.0141620
746.499	0.0139754
746.578	0.0138065
746.656	0.0138327
746.734	0.0139989
746.812	0.0139339
746.890	0.0137885
746.968	0.0138596
747.046	0.0137247
747.124	0.0138997
747.203	0.0137473
747.281	0.0136082
747.359	0.0137049
747.437	0.0137940
747.515	0.0138232
747.593	0.0137354
747.671	0.0136066
747.749	0.0136985
747.828	0.0138763
747.906	0.0137759
747.984	0.0139594
748.062	0.0140456
748.140	0.0139906
748.218	0.0140181
748.296	0.0140836
748.374	0.0140845
748.453	0.0140774
748.531	0.0139779
748.609	0.0140865
748.687	0.0140744
748.765	0.0142067
748.843	0.0142543
748.921	0.0142902
748.999	0.0141809
749.078	0.0141753
749.156	0.0142350
749.234	0.0141707
749.312	0.0142038
749.390	0.0141328
749.468	0.0141743
749.546	0.0142316
749.624	0.0141329
749.703	0.0142365
749.781	0.0141547
749.859	0.0140038
749.937	0.0140836
750.015	0.0140552
750.093	0.0138158
750.171	0.0139590
750.249	0.0140487
750.328	0.0139642
750.406	0.0138374
750.484	0.0138914
750.562	0.0138136
750.640	0.0137630
750.718	0.0138293
750.796	0.0137873
750.874	0.0137805
750.953	0.0136772
751.031	0.0136823
751.109	0.0136813
751.187	0.0135575
751.265	0.0135477
751.343	0.0135720
751.421	0.0134964
751.499	0.0135617
751.578	0.0136356
751.656	0.0134966
751.734	0.0136861
751.812	0.0135859
751.890	0.0135389
751.968	0.0134993
752.046	0.0136763
752.124	0.0137045
752.203	0.0137682
752.281	0.0138055
752.359	0.0140182
752.437	0.0139043
752.515	0.0137766
752.593	0.0139682
752.671	0.0140073
752.749	0.0138550
752.828	0.0139981
752.906	0.0140857
752.984	0.0140494
753.062	0.0140466
753.140	0.0140076
753.218	0.0140190
753.296	0.0142078
753.374	0.0141693
753.453	0.0140848
753.531	0.0141578
753.609	0.0142099
753.687	0.0141007
753.765	0.0138831
753.843	0.0141160
753.921	0.0140091
753.999	0.0140597
754.078	0.0140514
754.156	0.0141339
754.234	0.0140859
754.312	0.0140280
754.390	0.0138931
754.468	0.0137587
754.546	0.0139413
754.624	0.0138017
754.703	0.0138155
754.781	0.0138626
754.859	0.0137820
754.937	0.0136359
755.015	0.0136999
755.093	0.0137959
755.171	0.0136561
755.249	0.0135619
755.328	0.0137694
755.406	0.0136887
755.484	0.0136781
755.562	0.0137269
755.640	0.0136901
755.718	0.0137475
755.796	0.0136546
755.874	0.0137503
755.953	0.0138521
756.031	0.0139639
756.109	0.0139743
756.187	0.0139003
756.265	0.0141150
756.343	0.0141405
756.421	0.0141954
756.499	0.0142014
756.578	0.0142016
756.656	0.0142043
756.734	0.0142324
756.812	0.0142472
756.890	0.0141908
756.968	0.0140565
757.046	0.0142569
757.124	0.0142937
757.203	0.0143425
757.281	0.0143568
757.359	0.0141850
757.437	0.0143774
757.515	0.0143483
757.593	0.0141679
757.671	0.0142535
757.749	0.0142474
757.828	0.0141702
757.906	0.0141264
757.984	0.0140930
758.062	0.0141018
758.140	0.0141417
758.218	0.0140834
758.296	0.0140640
758.374	0.0139668
758.453	0.0139962
758.531	0.0139919
758.609	0.0137449
758.687	0.0139081
758.765	0.0138394
758.843	0.0137472
758.921	0.0137303
758.999	0.0138263
759.078	0.0138084
759.156	0.0135672
759.234	0.0136541
759.312	0.0136513
759.390	0.0136477
759.468	0.0135018
759.546	0.0135769
759.624	0.0136806
759.703	0.0137434
759.781	0.0136453
759.859	0.0136455
759.937	0.0136780
760.015	0.0138537
760.093	0.0137578
760.171	0.0137399
760.249	0.0139327
760.328	0.0139314
760.406	0.0138078
760.484	0.0137558
760.562	0.0138906
760.640	0.0140728
760.718	0.0140224
760.796	0.0140465
760.874	0.0140334
760.953	0.0137896
761.031	0.0139880
761.109	0.0139908
761.187	0.0141122
761.265	0.0140808
761.343	0.0140327
761.421	0.0140215
761.499	0.0139623
761.578	0.0139738
761.656	0.0138850
761.734	0.0140240
761.812	0.0138719
761.890	0.0139863
761.968	0.0139397
762.046	0.0139657
762.124	0.0137692
762.203	0.0136659
762.281	0.0138173
762.359	0.0139091
762.437	0.0138486
762.515	0.0137552
762.593	0.0138309
762.671	0.0137314
762.749	0.0136897
762.828	0.0136590
762.906	0.0138108
762.984	0.0139508
763.062	0.0138554
763.140	0.0138489
763.218	0.0139648
763.296	0.0137288
763.374	0.0138579
763.453	0.0139487
763.531	0.0139432
763.609	0.0139231
763.687	0.0138741
763.765	0.0139188
763.843	0.0139375
763.921	0.0139550
763.999	0.0141537
764.078	0.0139755
764.156	0.0140392
764.234	0.0140820
764.312	0.0141511
764.390	0.0140136
764.468	0.0139874
764.546	0.0141898
764.624	0.0141374
764.703	0.0140119
764.781	0.0140615
764.859	0.0141645
764.937	0.0141221
765.015	0.0138905
765.093	0.0140651
765.171	0.0139310
765.249	0.0140496
765.328	0.0140588
765.406	0.0137962
765.484	0.0140150
765.562	0.0138494
765.640	0.0139660
765.718	0.0140037
765.796	0.0139481
765.874	0.0140424
765.953	0.0140661
766.031	0.0139866
766.109	0.0140141
766.187	0.0139319
766.265	0.0139182
766.343	0.0140910
766.421	0.0140487
766.499	0.0140673
766.578	0.0140136
766.656	0.0140956
766.734	0.0140318
766.812	0.0139204
766.890	0.0138934
766.968	0.0140776
767.046	0.0139606
767.124	0.0138862
767.203	0.0139111
767.281	0.0139594
767.359	0.0141022
767.437	0.0139426
767.515	0.0140598
767.593	0.0139024
767.671	0.0140711
767.749	0.0140053
767.828	0.0139191
767.906	0.0140908
767.984	0.0141071
768.062	0.0141124
768.140	0.0142989
768.218	0.0142429
768.296	0.0140066
768.374	0.0140265
768.453	0.0141310
768.531	0.0141321
768.609	0.0140329
768.687	0.0143539
768.765	0.0143177
768.843	0.0143430
768.921	0.0143361
768.999	0.0141067
769.078	0.0142934
769.156	0.0143069
769.234	0.0144086
769.312	0.0143527
769.390	0.0143350
769.468	0.0143769
769.546	0.0143392
769.624	0.0144147
769.703	0.0143429
769.781	0.0143828
769.859	0.0144012
769.937	0.0142667
770.015	0.0141652
770.093	0.0141784
770.171	0.0142886
770.249	0.0141584
770.328	0.0141393
770.406	0.0141435
770.484	0.0141550
770.562	0.0140376
770.640	0.0138293
770.718	0.0139374
770.796	0.0138587
770.874	0.0138623
770.953	0.0138870
771.031	0.0138309
771.109	0.0137810
771.187	0.0136465
771.265	0.0136277
771.343	0.0137117
771.421	0.0137569
771.499	0.0137354
771.578	0.0137856
771.656	0.0138976
771.734	0.0139017
771.812	0.0138742
771.890	0.0138470
771.968	0.0138805
772.046	0.0138517
772.124	0.0139276
772.203	0.0139913
772.281	0.0141270
772.359	0.0139275
772.437	0.0139151
772.515	0.0140210
772.593	0.0140991
772.671	0.0140950
772.749	0.0140451
772.828	0.0140681
772.906	0.0141154
772.984	0.0141546
773.062	0.0142665
773.140	0.0140768
773.218	0.0140813
773.296	0.0141138
773.374	0.0141485
773.453	0.0140857
773.531	0.0140804
773.609	0.0140558
773.687	0.0140398
773.765	0.0140671
773.843	0.0142127
773.921	0.0141512
773.999	0.0139650
774.078	0.0141427
774.156	0.0140945
774.234	0.0140907
774.312	0.0141733
774.390	0.0142099
774.468	0.0141086
774.546	0.0140387
774.624	0.0139915
774.703	0.0139724
774.781	0.0140163
774.859	0.0138502
774.937	0.0138009
775.015	0.0137520
775.093	0.0138038
775.171	0.0138878
775.249	0.0138254
775.328	0.0138801
775.406	0.0138627
775.484	0.0138284
775.562	0.0137770
775.640	0.0137961
775.718	0.0139558
775.796	0.0137657
775.874	0.0138281
775.953	0.0138939
776.031	0.0138513
776.109	0.0138153
776.187	0.0137598
776.265	0.0138724
776.343	0.0137785
776.421	0.0138032
776.499	0.0138690
776.578	0.0138575
776.656	0.0138432
776.734	0.0137381
776.812	0.0137827
776.890	0.0138159
776.968	0.0138303
777.046	0.0138924
777.124	0.0138206
777.203	0.0139803
777.281	0.0138149
777.359	0.0138629
777.437	0.0140790
777.515	0.0141621
777.593	0.0141640
777.671	0.0140592
777.749	0.0141205
777.828	0.0141157
777.906	0.0140420
777.984	0.0141435
778.062	0.0143082
778.140	0.0141309
778.218	0.0140611
778.296	0.0142386
778.374	0.0142725
778.453	0.0141457
778.531	0.0141920
778.609	0.0141332
778.687	0.0140941
778.765	0.0140871
778.843	0.0140859
778.921	0.0141538
778.999	0.0140189
779.078	0.0139040
779.156	0.0138571
779.234	0.0138805
779.312	0.0139073
779.390	0.0139700
779.468	0.0139226
779.546	0.0138931
779.624	0.0139568
779.703	0.0139507
779.781	0.0138772
779.859	0.0139301
779.937	0.0138965
780.015	0.0139302
780.093	0.0140144
780.171	0.0140036
780.249	0.0139754
780.328	0.0141957
780.406	0.0142635
780.484	0.0142621
780.562	0.0141964
780.640	0.0143697
780.718	0.0142139
780.796	0.0143238
780.874	0.0142432
780.953	0.0142157
781.031	0.0142058
781.109	0.0141760
781.187	0.0142163
781.265	0.0143692
781.343	0.0141660
781.421	0.0142702
781.499	0.0141906
781.578	0.0141329
781.656	0.0140294
781.734	0.0140520
781.812	0.0142324
781.890	0.0139638
781.968	0.0139536
782.046	0.0138598
782.124	0.0141104
782.203	0.0140342
782.281	0.0139817
782.359	0.0140332
782.437	0.0140414
782.515	0.0139231
782.593	0.0139831
782.671	0.0140409
782.749	0.0140013
782.828	0.0140556
782.906	0.0139508
782.984	0.0137780
783.062	0.0139403
783.140	0.0137882
783.218	0.0138731
783.296	0.0137273
783.374	0.0138689
783.453	0.0137447
783.531	0.0137518
783.609	0.0136710
783.687	0.0136452
783.765	0.0137754
783.843	0.0137714
783.921	0.0137429
783.999	0.0138196
784.078	0.0137622
784.156	0.0137780
784.234	0.0138519
784.312	0.0139383
784.390	0.0138470
784.468	0.0139911
784.546	0.0139911
784.624	0.0140124
784.703	0.0141233
784.781	0.0141807
784.859	0.0140173
784.937	0.0141947
785.015	0.0141187
785.093	0.0140627
785.171	0.0140825
785.249	0.0139100
785.328	0.0140068
785.406	0.0140204
785.484	0.0140160
785.562	0.0140502
785.640	0.0141138
785.718	0.0141766
785.796	0.0140829
785.874	0.0141912
785.953	0.0141617
786.031	0.0143015
786.109	0.0142059
786.187	0.0142709
786.265	0.0144369
786.343	0.0143369
786.421	0.0142732
786.499	0.0143586
786.578	0.0142245
786.656	0.0141835
786.734	0.0142043
786.812	0.0141069
786.890	0.0140471
786.968	0.0140771
787.046	0.0139751
787.124	0.0141055
787.203	0.0140943
787.281	0.0138202
787.359	0.0139877
787.437	0.0139800
787.515	0.0139915
787.593	0.0139797
787.671	0.0140149
787.749	0.0141281
787.828	0.0139474
787.906	0.0140576
787.984	0.0140347
788.062	0.0140281
788.140	0.0140372
788.218	0.0140822
788.296	0.0140159
788.374	0.0140259
788.453	0.0140442
788.531	0.0141595
788.609	0.0140125
788.687	0.0140747
788.765	0.0140292
788.843	0.0140504
788.921	0.0140347
788.999	0.0139843
789.078	0.0139972
789.156	0.0139851
789.234	0.0141756
789.312	0.0139531
789.390	0.0141068
789.468	0.0140442
789.546	0.0141529
789.624	0.0141555
789.703	0.0139996
789.781	0.0139148
789.859	0.0140670
789.937	0.0140435
790.015	0.0139520
790.093	0.0141299
790.171	0.0140871
790.249	0.0140177
790.328	0.0140281
790.406	0.0140356
790.484	0.0138221
790.562	0.0139032
790.640	0.0138253
790.718	0.0138351
790.796	0.0138247
790.874	0.0137355
790.953	0.0137038
791.031	0.0138375
791.109	0.0137916
791.187	0.0137148
791.265	0.0136784
791.343	0.0137982
791.421	0.0137663
791.499	0.0136730
791.578	0.0135498
791.656	0.0135834
791.734	0.0136562
791.812	0.0136620
791.890	0.0137097
791.968	0.0137294
792.046	0.0138184
792.124	0.0138499
792.203	0.0137686
792.281	0.0140253
792.359	0.0140788
792.437	0.0141276
792.515	0.0140931
792.593	0.0141492
792.671	0.0142882
792.749	0.0141443
792.828	0.0140502
792.906	0.0140803
792.984	0.0141563
793.062	0.0140130
793.140	0.0139857
793.218	0.0140784
793.296	0.0137936
793.374	0.0136076
793.453	0.0138045
793.531	0.0137666
793.609	0.0137031
793.687	0.0138335
793.765	0.0138148
793.843	0.0137525
793.921	0.0137773
793.999	0.0138719
794.078	0.0137479
794.156	0.0139587
794.234	0.0137597
794.312	0.0138414
794.390	0.0138181
794.468	0.0139146
794.546	0.0139612
794.624	0.0139935
794.703	0.0140023
794.781	0.0138157
794.859	0.0139069
794.937	0.0139685
795.015	0.0137710
795.093	0.0139734
795.171	0.0141917
795.249	0.0141903
795.328	0.0142390
795.406	0.0141611
795.484	0.0142243
795.562	0.0142011
795.640	0.0141878
795.718	0.0142242
795.796	0.0143031
795.874	0.0143198
795.953	0.0142472
796.031	0.0142448
796.109	0.0140753
796.187	0.0140703
796.265	0.0140189
796.343	0.0140097
796.421	0.0141409
796.499	0.0140965
796.578	0.0142284
796.656	0.0139584
796.734	0.0140474
796.812	0.0141846
796.890	0.0140586
796.968	0.0141457
797.046	0.0142139
797.124	0.0142517
797.203	0.0141941
797.281	0.0142260
797.359	0.0141566
797.437	0.0141691
797.515	0.0140984
797.593	0.0142892
797.671	0.0143301
797.749	0.0142769
797.828	0.0142525
797.906	0.0143761
797.984	0.0143209
798.062	0.0143491
798.140	0.0144155
798.218	0.0143523
798.296	0.0143610
798.374	0.0143134
798.453	0.0142365
798.531	0.0141127
798.609	0.0141924
798.687	0.0142225
798.765	0.0140910
798.843	0.0139078
798.921	0.0139133
798.999	0.0140691
799.078	0.0139747
799.156	0.0138708
799.234	0.0140659
799.312	0.0139168
799.390	0.0138635
799.468	0.0139080
799.546	0.0140118
799.624	0.0139431
799.703	0.0138023
799.781	0.0137640
799.859	0.0139294
799.937	0.0139690
800.015	0.0136357
800.093	0.0137716
800.171	0.0138519
800.249	0.0137051
800.328	0.0137273
800.406	0.0136838
800.484	0.0136398
800.562	0.0136977
800.640	0.0135995
800.718	0.0136716
800.796	0.0136783
800.874	0.0135880
800.953	0.0136619
801.031	0.0136214
801.109	0.0134554
801.187	0.0137081
801.265	0.0135056
801.343	0.0134731
801.421	0.0135317
801.499	0.0136157
801.578	0.0138037
801.656	0.0136256
801.734	0.0136887
801.812	0.0138233
801.890	0.0137958
801.968	0.0137746
802.046	0.0139473
802.124	0.0141618
802.203	0.0139887
802.281	0.0140397
802.359	0.0140148
802.437	0.0139906
802.515	0.0139553
802.593	0.0140873
802.671	0.0139207
802.749	0.0140162
802.828	0.0141029
802.906	0.0140118
802.984	0.0141049
803.062	0.0140631
803.140	0.0139758
803.218	0.0140520
803.296	0.0140029
803.374	0.0141443
803.453	0.0141190
803.531	0.0139669
803.609	0.0140403
803.687	0.0139342
803.765	0.0140644
803.843	0.0139801
803.921	0.0138619
803.999	0.0138930
804.078	0.0141145
804.156	0.0139191
804.234	0.0140270
804.312	0.0142071
804.390	0.0141636
804.468	0.0141187
804.546	0.0141701
804.624	0.0141535
804.703	0.0143237
804.781	0.0143330
804.859	0.0143724
804.937	0.0141945
805.015	0.0142581
805.093	0.0141977
805.171	0.0141965
805.249	0.0140944
805.328	0.0140877
805.406	0.0139402
805.484	0.0139926
805.562	0.0138621
805.640	0.0138064
805.718	0.0137702
805.796	0.0138271
805.874	0.0137312
805.953	0.0137421
806.031	0.0137563
806.109	0.0138088
806.187	0.0137110
806.265	0.0137097
806.343	0.0135863
806.421	0.0136960
806.499	0.0137262
806.578	0.0136703
806.656	0.0138092
806.734	0.0137260
806.812	0.0135889
806.890	0.0136377
806.968	0.0137338
807.046	0.0136416
807.124	0.0137348
807.203	0.0138853
807.281	0.0137735
807.359	0.0139440
807.437	0.0140163
807.515	0.0139117
807.593	0.0141180
807.671	0.0142856
807.749	0.0141936
807.828	0.0142747
807.906	0.0142213
807.984	0.0141721
808.062	0.0143383
808.140	0.0142696
808.218	0.0144038
808.296	0.0141546
808.374	0.0142361
808.453	0.0141705
808.531	0.0141478
808.609	0.0141162
808.687	0.0140003
808.765	0.0138342
808.843	0.0139396
808.921	0.0140087
808.999	0.0138345
809.078	0.0137450
809.156	0.0137367
809.234	0.0137937
809.312	0.0137608
809.390	0.0136359
809.468	0.0137739
809.546	0.0137610
809.624	0.0138257
809.703	0.0139370
809.781	0.0140285
809.859	0.0141432
809.937	0.0142818
810.015	0.0142255
810.093	0.0144878
810.171	0.0145296
810.249	0.0145696
810.328	0.0145726
810.406	0.0146521
810.484	0.0145753
810.562	0.0144766
810.640	0.0146578
810.718	0.0145334
810.796	0.0144128
810.874	0.0144200
810.953	0.0143352
811.031	0.0142741
811.109	0.0140127
811.187	0.0140941
811.265	0.0139045
811.343	0.0138496
811.421	0.0137553
811.499	0.0137384
811.578	0.0138349
811.656	0.0137631
811.734	0.0138060
811.812	0.0135802
811.890	0.0136788
811.968	0.0137202
812.046	0.0137682
812.124	0.0137617
812.203	0.0136566
812.281	0.0137845
812.359	0.0138557
812.437	0.0136660
812.515	0.0138945
812.593	0.0138112
812.671	0.0137257
812.749	0.0137505
812.828	0.0137881
812.906	0.0138156
812.984	0.0137038
813.062	0.0137844
813.140	0.0138261
813.218	0.0139744
813.296	0.0138164
813.374	0.0138988
813.453	0.0139814
813.531	0.0141393
813.609	0.0138811
813.687	0.0139725
813.765	0.0141251
813.843	0.0140665
813.921	0.0139356
813.999	0.0140443
814.078	0.0139890
814.156	0.0140198
814.234	0.0141280
814.312	0.0139967
814.390	0.0141151
814.468	0.0140931
814.546	0.0138027
814.624	0.0139358
814.703	0.0139045
814.781	0.0139034
814.859	0.0137823
814.937	0.0138313
815.015	0.0138267
815.093	0.0137833
815.171	0.0137678
815.249	0.0137461
815.328	0.0137508
815.406	0.0137380
815.484	0.0137612
815.562	0.0138132
815.640	0.0138374
815.718	0.0138580
815.796	0.0138829
815.874	0.0139262
815.953	0.0139054
816.031	0.0140763
816.109	0.0141826
816.187	0.0140843
816.265	0.0140192
816.343	0.0141315
816.421	0.0139835
816.499	0.0139695
816.578	0.0138383
816.656	0.0139288
816.734	0.0140096
816.812	0.0138725
816.890	0.0137386
816.968	0.0137817
817.046	0.0136412
817.124	0.0135038
817.203	0.0136146
817.281	0.0134886
817.359	0.0135161
817.437	0.0136897
817.515	0.0136183
817.593	0.0137085
817.671	0.0136718
817.749	0.0138114
817.828	0.0138465
817.906	0.0138113
817.984	0.0140412
818.062	0.0138848
818.140	0.0139956
818.218	0.0139407
818.296	0.0140405
818.374	0.0140623
818.453	0.0139356
818.531	0.0140074
818.609	0.0139511
818.687	0.0140231
818.765	0.0139794
818.843	0.0140791
818.921	0.0141833
818.999	0.0142274
819.078	0.0140647
819.156	0.0143372
819.234	0.0142735
819.312	0.0143639
819.390	0.0142869
819.468	0.0142945
819.546	0.0141786
819.624	0.0143152
819.703	0.0142582
819.781	0.0144279
819.859	0.0143391
819.937	0.0143212
820.015	0.0141522
820.093	0.0141634
820.171	0.0141058
820.249	0.0140753
820.328	0.0141120
820.406	0.0139792
820.484	0.0139088
820.562	0.0140398
820.640	0.0140157
820.718	0.0138946
820.796	0.0139573
820.874	0.0139265
820.953	0.0139317
821.031	0.0140237
821.109	0.0139655
821.187	0.0140841
821.265	0.0139159
821.343	0.0140020
821.421	0.0139887
821.499	0.0139417
821.578	0.0139034
821.656	0.0140839
821.734	0.0139577
821.812	0.0137822
821.890	0.0137859
821.968	0.0138482
822.046	0.0138169
822.124	0.0137218
822.203	0.0136789
822.281	0.0137283
822.359	0.0137139
822.437	0.0135791
822.515	0.0137006
822.593	0.0136053
822.671	0.0137331
822.749	0.0136655
822.828	0.0136950
822.906	0.0138435
822.984	0.0136432
823.062	0.0136409
823.140	0.0137975
823.218	0.0137783
823.296	0.0139432
823.374	0.0139486
823.453	0.0138425
823.531	0.0138522
823.609	0.0139606
823.687	0.0139738
823.765	0.0140131
823.843	0.0140513
823.921	0.0138938
823.999	0.0141170
824.078	0.0139939
824.156	0.0139848
824.234	0.0140005
824.312	0.0141508
824.390	0.0140585
824.468	0.0140794
824.546	0.0140256
824.624	0.0141506
824.703	0.0140770
824.781	0.0140667
824.859	0.0139405
824.937	0.0138939
825.015	0.0139291
825.093	0.0138461
825.171	0.0139028
825.249	0.0137290
825.328	0.0137748
825.406	0.0139348
825.484	0.0137241
825.562	0.0137925
825.640	0.0138943
825.718	0.0140527
825.796	0.0139376
825.874	0.0137748
825.953	0.0139651
826.031	0.0139305
826.109	0.0139846
826.187	0.0141322
826.265	0.0140224
826.343	0.0139600
826.421	0.0141457
826.499	0.0141196
826.578	0.0141774
826.656	0.0141173
826.734	0.0141013
826.812	0.0140969
826.890	0.0140347
826.968	0.0141456
827.046	0.0141755
827.124	0.0140808
827.203	0.0139385
827.281	0.0139613
827.359	0.0141608
827.437	0.0141191
827.515	0.0140075
827.593	0.0141241
827.671	0.0140892
827.749	0.0141607
827.828	0.0141315
827.906	0.0140981
827.984	0.0141308
828.062	0.0140229
828.140	0.0139520
828.218	0.0138420
828.296	0.0138206
828.374	0.0138621
828.453	0.0138782
828.531	0.0137320
828.609	0.0137656
828.687	0.0137843
828.765	0.0136988
828.843	0.0137175
828.921	0.0138795
828.999	0.0138208
829.078	0.0139145
829.156	0.0139201
829.234	0.0139611
829.312	0.0139110
829.390	0.0139500
829.468	0.0139002
829.546	0.0139426
829.624	0.0139587
829.703	0.0141110
829.781	0.0140951
829.859	0.0140307
829.937	0.0139121
830.015	0.0140767
830.093	0.0140571
830.171	0.0140172
830.249	0.0140549
830.328	0.0141114
830.406	0.0140552
830.484	0.0141286
830.562	0.0139967
830.640	0.0140382
830.718	0.0141354
830.796	0.0141201
830.874	0.0140714
830.953	0.0141266
831.031	0.0141479
831.109	0.0140177
831.187	0.0139862
831.265	0.0140730
831.343	0.0140102
831.421	0.0140418
831.499	0.0140993
831.578	0.0140030
831.656	0.0140437
831.734	0.0140572
831.812	0.0140605
831.890	0.0142154
831.968	0.0139559
832.046	0.0141093
832.124	0.0139186
832.203	0.0138327
832.281	0.0139376
832.359	0.0139789
832.437	0.0138772
832.515	0.0138573
832.593	0.0138448
832.671	0.0138237
832.749	0.0140162
832.828	0.0138410
832.906	0.0138359
832.984	0.0138431
833.062	0.0139354
833.140	0.0138798
833.218	0.0139420
833.296	0.0138821
833.374	0.0140463
833.453	0.0139001
833.531	0.0139374
833.609	0.0139108
833.687	0.0140004
833.765	0.0140759
833.843	0.0139943
833.921	0.0140559
833.999	0.0139868
834.078	0.0137935
834.156	0.0138889
834.234	0.0139664
834.312	0.0139651
834.390	0.0139140
834.468	0.0139880
834.546	0.0140097
834.624	0.0138943
834.703	0.0139790
834.781	0.0140932
834.859	0.0139622
834.937	0.0141099
835.015	0.0138026
835.093	0.0139611
835.171	0.0140271
835.249	0.0139191
835.328	0.0140320
835.406	0.0139658
835.484	0.0139280
835.562	0.0140662
835.640	0.0140324
835.718	0.0138679
835.796	0.0139953
835.874	0.0140667
835.953	0.0140501
836.031	0.0140186
836.109	0.0139439
836.187	0.0138685
836.265	0.0139967
836.343	0.0139436
836.421	0.0140222
836.499	0.0139971
836.578	0.0141105
836.656	0.0138716
836.734	0.0138634
836.812	0.0139015
836.890	0.0139574
836.968	0.0138322
837.046	0.0140083
837.124	0.0139567
837.203	0.0137655
837.281	0.0138087
837.359	0.0138655
837.437	0.0139244
837.515	0.0139468
837.593	0.0139212
837.671	0.0139272
837.749	0.0138686
837.828	0.0137511
837.906	0.0137400
837.984	0.0138789
838.062	0.0137286
838.140	0.0137450
838.218	0.0137527
838.296	0.0138222
838.374	0.0137535
838.453	0.0136820
838.531	0.0139017
838.609	0.0138266
838.687	0.0137334
838.765	0.0137845
838.843	0.0137173
838.921	0.0138293
838.999	0.0139435
839.078	0.0138644
839.156	0.0139449
839.234	0.0138849
839.312	0.0138257
839.390	0.0138445
839.468	0.0136951
839.546	0.0138543
839.624	0.0137067
839.703	0.0136981
839.781	0.0138058
839.859	0.0137676
839.937	0.0138718
840.015	0.0137785
840.093	0.0138396
840.171	0.0140440
840.249	0.0137823
840.328	0.0139724
840.406	0.0140396
840.484	0.0139252
840.562	0.0138879
840.640	0.0138724
840.718	0.0139172
840.796	0.0139771
840.874	0.0139386
840.953	0.0140121
841.031	0.0139502
841.109	0.0139792
841.187	0.0137711
841.265	0.0139423
841.343	0.0139600
841.421	0.0139211
841.499	0.0139864
841.578	0.0138678
841.656	0.0140295
841.734	0.0138742
841.812	0.0139812
841.890	0.0141016
841.968	0.0139979
842.046	0.0139650
842.124	0.0140157
842.203	0.0140997
842.281	0.0138628
842.359	0.0139126
842.437	0.0138730
842.515	0.0139204
842.593	0.0140709
842.671	0.0139468
842.749	0.0139370
842.828	0.0139479
842.906	0.0139556
842.984	0.0139857
843.062	0.0139935
843.140	0.0141633
843.218	0.0141212
843.296	0.0140385
843.374	0.0141299
843.453	0.0142915
843.531	0.0142396
843.609	0.0142537
843.687	0.0142297
843.765	0.0142747
843.843	0.0143044
843.921	0.0142340
843.999	0.0142069
844.078	0.0140936
844.156	0.0142489
844.234	0.0140301
844.312	0.0140952
844.390	0.0141346
844.468	0.0141835
844.546	0.0141154
844.624	0.0139769
844.703	0.0139427
844.781	0.0139841
844.859	0.0138401
844.937	0.0138951
845.015	0.0138837
845.093	0.0137784
845.171	0.0136151
845.249	0.0137436
845.328	0.0138346
845.406	0.0137877
845.484	0.0137342
845.562	0.0137499
845.640	0.0136888
845.718	0.0136569
845.796	0.0136419
845.874	0.0134525
845.953	0.0136856
846.031	0.0136744
846.109	0.0137290
846.187	0.0136949
846.265	0.0136266
846.343	0.0135413
846.421	0.0137311
846.499	0.0137926
846.578	0.0136781
846.656	0.0136407
846.734	0.0138776
846.812	0.0137875
846.890	0.0138040
846.968	0.0136771
847.046	0.0137589
847.124	0.0138496
847.203	0.0137687
847.281	0.0139798
847.359	0.0140379
847.437	0.0141000
847.515	0.0140755
847.593	0.0141494
847.671	0.0140881
847.749	0.0142957
847.828	0.0142876
847.906	0.0142410
847.984	0.0142730
848.062	0.0141981
848.140	0.0142906
848.218	0.0141983
848.296	0.0142834
848.374	0.0141512
848.453	0.0141581
848.531	0.0141451
848.609	0.0140165
848.687	0.0141248
848.765	0.0140815
848.843	0.0140144
848.921	0.0141261
848.999	0.0140920
849.078	0.0140164
849.156	0.0140639
849.234	0.0139643
849.312	0.0139003
849.390	0.0139114
849.468	0.0138427
849.546	0.0138481
849.624	0.0137440
849.703	0.0139381
849.781	0.0139388
849.859	0.0137981
849.937	0.0138994
850.015	0.0139247
850.093	0.0138992
850.171	0.0138020
850.249	0.0139066
850.328	0.0138926
850.406	0.0139312
850.484	0.0141015
850.562	0.0139849
850.640	0.0140884
850.718	0.0139627
850.796	0.0138718
850.874	0.0141099
850.953	0.0138999
851.031	0.0140130
851.109	0.0140687
851.187	0.0140264
851.265	0.0139602
851.343	0.0140923
851.421	0.0141035
851.499	0.0140890
851.578	0.0139899
851.656	0.0140769
851.734	0.0140891
851.812	0.0138586
851.890	0.0140238
851.968	0.0140588
852.046	0.0141666
852.124	0.0140281
852.203	0.0140738
852.281	0.0140222
852.359	0.0140739
852.437	0.0139848
852.515	0.0139980
852.593	0.0141174
852.671	0.0140475
852.749	0.0141140
852.828	0.0140589
852.906	0.0140894
852.984	0.0140414
853.062	0.0139518
853.140	0.0140529
853.218	0.0141344
853.296	0.0140693
853.374	0.0141607
853.453	0.0141492
853.531	0.0140597
853.609	0.0140471
853.687	0.0139953
853.765	0.0140096
853.843	0.0139809
853.921	0.0140604
853.999	0.0139796
854.078	0.0140459
854.156	0.0141489
854.234	0.0141798
854.312	0.0141416
854.390	0.0141305
854.468	0.0139761
854.546	0.0141145
854.624	0.0142282
854.703	0.0141091
854.781	0.0140611
854.859	0.0140022
854.937	0.0139110
855.015	0.0140256
855.093	0.0139274
855.171	0.0140647
855.249	0.0139868
855.328	0.0141117
855.406	0.0141160
855.484	0.0141418
855.562	0.0140742
855.640	0.0141512
855.718	0.0140080
855.796	0.0141798
855.874	0.0141013
855.953	0.0140298
856.031	0.0140517
856.109	0.0139693
856.187	0.0139873
856.265	0.0139348
856.343	0.0140183
856.421	0.0139352
856.499	0.0139675
856.578	0.0138530
856.656	0.0139744
856.734	0.0138307
856.812	0.0137421
856.890	0.0138976
856.968	0.0138064
857.046	0.0139379
857.124	0.0137998
857.203	0.0136765
857.281	0.0138272
857.359	0.0137882
857.437	0.0137304
857.515	0.0137659
857.593	0.0138609
857.671	0.0138517
857.749	0.0139465
857.828	0.0138091
857.906	0.0138743
857.984	0.0138654
858.062	0.0139157
858.140	0.0139177
858.218	0.0141048
858.296	0.0140575
858.374	0.0140926
858.453	0.0140666
858.531	0.0140588
858.609	0.0140222
858.687	0.0140778
858.765	0.0140468
858.843	0.0140548
858.921	0.0141849
858.999	0.0142837
859.078	0.0142280
859.156	0.0142045
859.234	0.0142744
859.312	0.0142249
859.390	0.0142915
859.468	0.0144141
859.546	0.0144319
859.624	0.0143771
859.703	0.0143124
859.781	0.0143278
859.859	0.0143338
859.937	0.0144254
860.015	0.0142459
860.093	0.0141824
860.171	0.0143008
860.249	0.0141937
860.328	0.0140965
860.406	0.0140874
860.484	0.0141309
860.562	0.0141022
860.640	0.0140808
860.718	0.0141372
860.796	0.0140814
860.874	0.0140405
860.953	0.0139474
861.031	0.0141449
861.109	0.0140791
861.187	0.0141849
861.265	0.0141601
861.343	0.0140380
861.421	0.0139896
861.499	0.0140690
861.578	0.0140733
861.656	0.0140774
861.734	0.0140523
861.812	0.0140974
861.890	0.0140319
861.968	0.0140762
862.046	0.0139265
862.124	0.0139476
862.203	0.0138763
862.281	0.0139220
862.359	0.0139137
862.437	0.0137597
862.515	0.0139505
862.593	0.0140577
862.671	0.0140383
862.749	0.0139396
862.828	0.0138866
862.906	0.0137454
862.984	0.0138062
863.062	0.0139297
863.140	0.0138528
863.218	0.0138182
863.296	0.0138243
863.374	0.0141148
863.453	0.0138551
863.531	0.0138261
863.609	0.0139609
863.687	0.0140410
863.765	0.0139571
863.843	0.0139395
863.921	0.0140160
863.999	0.0139478
864.078	0.0140411
864.156	0.0139545
864.234	0.0139301
864.312	0.0139191
864.390	0.0139458
864.468	0.0138858
864.546	0.0139191
864.624	0.0138938
864.703	0.0140485
864.781	0.0139023
864.859	0.0138096
864.937	0.0138171
865.015	0.0137826
865.093	0.0136944
865.171	0.0139397
865.249	0.0138179
865.328	0.0137112
865.406	0.0137453
865.484	0.0137725
865.562	0.0137334
865.640	0.0136334
865.718	0.0137232
865.796	0.0137212
865.874	0.0136881
865.953	0.0136849
866.031	0.0135969
866.109	0.0136288
866.187	0.0135339
866.265	0.0137615
866.343	0.0138497
866.421	0.0135973
866.499	0.0136607
866.578	0.0138271
866.656	0.0139568
866.734	0.0138573
866.812	0.0138369
866.890	0.0138634
866.968	0.0138966
867.046	0.0139893
867.124	0.0138364
867.203	0.0139735
867.281	0.0140421
867.359	0.0139961
867.437	0.0140203
867.515	0.0140077
867.593	0.0140985
867.671	0.0140147
867.749	0.0140169
867.828	0.0140106
867.906	0.0138914
867.984	0.0139759
868.062	0.0139787
868.140	0.0139049
868.218	0.0139580
868.296	0.0140044
868.374	0.0140871
868.453	0.0139780
868.531	0.0139439
868.609	0.0139748
868.687	0.0137854
868.765	0.0138874
868.843	0.0139242
868.921	0.0138127
868.999	0.0137657
869.078	0.0138269
869.156	0.0137554
869.234	0.0138055
869.312	0.0139330
869.390	0.0138635
869.468	0.0138022
869.546	0.0137450
869.624	0.0137717
869.703	0.0137756
869.781	0.0136633
869.859	0.0136398
869.937	0.0137265
870.015	0.0137427
870.093	0.0139420
870.171	0.0137762
870.249	0.0137125
870.328	0.0138333
870.406	0.0138413
870.484	0.0138388
870.562	0.0139627
870.640	0.0138310
870.718	0.0137194
870.796	0.0139558
870.874	0.0139754
870.953	0.0138836
871.031	0.0139035
871.109	0.0139204
871.187	0.0139878
871.265	0.0139368
871.343	0.0139575
871.421	0.0139039
871.499	0.0140034
871.578	0.0139941
871.656	0.0139372
871.734	0.0139178
871.812	0.0140163
871.890	0.0141459
871.968	0.0141441
872.046	0.0141093
872.124	0.0140547
872.203	0.0140981
872.281	0.0142017
872.359	0.0140670
872.437	0.0140746
872.515	0.0141216
872.593	0.0141124
872.671	0.0140964
872.749	0.0141797
872.828	0.0142525
872.906	0.0140874
872.984	0.0141357
873.062	0.0142085
873.140	0.0141764
873.218	0.0141097
873.296	0.0140890
873.374	0.0142661
873.453	0.0139382
873.531	0.0141261
873.609	0.0141044
873.687	0.0141524
873.765	0.0140370
873.843	0.0141013
873.921	0.0139841
873.999	0.0140563
874.078	0.0139644
874.156	0.0140574
874.234	0.0140561
874.312	0.0139960
874.390	0.0140460
874.468	0.0139865
874.546	0.0142803
874.624	0.0141305
874.703	0.0139889
874.781	0.0139515
874.859	0.0139665
874.937	0.0140746
875.015	0.0140810
875.093	0.0139443
875.171	0.0143144
875.249	0.0141415
875.328	0.0140575
875.406	0.0140096
875.484	0.0139913
875.562	0.0141132
875.640	0.0142080
875.718	0.0140469
875.796	0.0140248
875.874	0.0141891
875.953	0.0141325
876.031	0.0140752
876.109	0.0141157
876.187	0.0140159
876.265	0.0140865
876.343	0.0141793
876.421	0.0140540
876.499	0.0141475
876.578	0.0140800
876.656	0.0140353
876.734	0.0140312
876.812	0.0139847
876.890	0.0141363
876.968	0.0140214
877.046	0.0140593
877.124	0.0140507
877.203	0.0141209
877.281	0.0140810
877.359	0.0140889
877.437	0.0141498
877.515	0.0139819
877.593	0.0140023
877.671	0.0141157
877.749	0.0140279
877.828	0.0139840
877.906	0.0140701
877.984	0.0139712
878.062	0.0139254
878.140	0.0140002
878.218	0.0141231
878.296	0.0138791
878.374	0.0138731
878.453	0.0139928
878.531	0.0140520
878.609	0.0138728
878.687	0.0139372
878.765	0.0137476
878.843	0.0138108
878.921	0.0139408
878.999	0.0138041
879.078	0.0138780
879.156	0.0140194
879.234	0.0139165
879.312	0.0138996
879.390	0.0140163
879.468	0.0140089
879.546	0.0139602
879.624	0.0139538
879.703	0.0140115
879.781	0.0139688
879.859	0.0140660
879.937	0.0139485
880.015	0.0138760
880.093	0.0140123
880.171	0.0138773
880.249	0.0138587
880.328	0.0138999
880.406	0.0140098
880.484	0.0139465
880.562	0.0139065
880.640	0.0138297
880.718	0.0140675
880.796	0.0140294
880.874	0.0140175
880.953	0.0140424
881.031	0.0139854
881.109	0.0139745
881.187	0.0140603
881.265	0.0139570
881.343	0.0141069
881.421	0.0140419
881.499	0.0139831
881.578	0.0141176
881.656	0.0140675
881.734	0.0140033
881.812	0.0141137
881.890	0.0141368
881.968	0.0139515
882.046	0.0141280
882.124	0.0139780
882.203	0.0140240
882.281	0.0141045
882.359	0.0140649
882.437	0.0140009
882.515	0.0138940
882.593	0.0139482
882.671	0.0140099
882.749	0.0140318
882.828	0.0140253
882.906	0.0140676
882.984	0.0141813
883.062	0.0140471
883.140	0.0140948
883.218	0.0141024
883.296	0.0141240
883.374	0.0140649
883.453	0.0141187
883.531	0.0141644
883.609	0.0140762
883.687	0.0140698
883.765	0.0141554
883.843	0.0141019
883.921	0.0141334
883.999	0.0141903
884.078	0.0141102
884.156	0.0141501
884.234	0.0141255
884.312	0.0140202
884.390	0.0140598
884.468	0.0140575
884.546	0.0141376
884.624	0.0141108
884.703	0.0139596
884.781	0.0140080
884.859	0.0140160
884.937	0.0138642
885.015	0.0141338
885.093	0.0140750
885.171	0.0139732
885.249	0.0140802
885.328	0.0140285
885.406	0.0140076
885.484	0.0140534
885.562	0.0140714
885.640	0.0139594
885.718	0.0140056
885.796	0.0141252
885.874	0.0139801
885.953	0.0140865
886.031	0.0138846
886.109	0.0138251
886.187	0.0139279
886.265	0.0139816
886.343	0.0138892
886.421	0.0139988
886.499	0.0139310
886.578	0.0138860
886.656	0.0139347
886.734	0.0139661
886.812	0.0139455
886.890	0.0139237
886.968	0.0139008
887.046	0.0140257
887.124	0.0142566
887.203	0.0140481
887.281	0.0140173
887.359	0.0139766
887.437	0.0141233
887.515	0.0141413
887.593	0.0140195
887.671	0.0140092
887.749	0.0140031
887.828	0.0138898
887.906	0.0141151
887.984	0.0142201
888.062	0.0139436
888.140	0.0139648
888.218	0.0140136
888.296	0.0140521
888.374	0.0140242
888.453	0.0140002
888.531	0.0140322
888.609	0.0139328
888.687	0.0140043
888.765	0.0139687
888.843	0.0140649
888.921	0.0141169
888.999	0.0140457
889.078	0.0139667
889.156	0.0140345
889.234	0.0141518
889.312	0.0141024
889.390	0.0141563
889.468	0.0138939
889.546	0.0139114
889.624	0.0139565
889.703	0.0141753
889.781	0.0139246
889.859	0.0139541
889.937	0.0139822
890.015	0.0139379
890.093	0.0139828
890.171	0.0140546
890.249	0.0139423
890.328	0.0138181
890.406	0.0139498
890.484	0.0138361
890.562	0.0138189
890.640	0.0138083
890.718	0.0138316
890.796	0.0139806
890.874	0.0137248
890.953	0.0138338
891.031	0.0138744
891.109	0.0138651
891.187	0.0139526
891.265	0.0139017
891.343	0.0139076
891.421	0.0139805
891.499	0.0138554
891.578	0.0138862
891.656	0.0138624
891.734	0.0140544
891.812	0.0140704
891.890	0.0140579
891.968	0.0139520
892.046	0.0140752
892.124	0.0140565
892.203	0.0140186
892.281	0.0140249
892.359	0.0140533
892.437	0.0140350
892.515	0.0139584
892.593	0.0140416
892.671	0.0141364
892.749	0.0138713
892.828	0.0140470
892.906	0.0139149
892.984	0.0139951
893.062	0.0139543
893.140	0.0139906
893.218	0.0139831
893.296	0.0138855
893.374	0.0137989
893.453	0.0139204
893.531	0.0138876
893.609	0.0139216
893.687	0.0138078
893.765	0.0138246
893.843	0.0137061
893.921	0.0138080
893.999	0.0136716
894.078	0.0137453
894.156	0.0137463
894.234	0.0137234
894.312	0.0136366
894.390	0.0136954
894.468	0.0137227
894.546	0.0137506
894.624	0.0137306
894.703	0.0138100
894.781	0.0137867
894.859	0.0138123
894.937	0.0138026
895.015	0.0138804
895.093	0.0138063
895.171	0.0138409
895.249	0.0139616
895.328	0.0137781
895.406	0.0138148
895.484	0.0138471
895.562	0.0138171
895.640	0.0139094
895.718	0.0140890
895.796	0.0140129
895.874	0.0139914
895.953	0.0140452
896.031	0.0139529
896.109	0.0139136
896.187	0.0139893
896.265	0.0140589
896.343	0.0140374
896.421	0.0141267
896.499	0.0141770
896.578	0.0141612
896.656	0.0141183
896.734	0.0140400
896.812	0.0141701
896.890	0.0141649
896.968	0.0141334
897.046	0.0142023
897.124	0.0139970
897.203	0.0140580
897.281	0.0141528
897.359	0.0142115
897.437	0.0141293
897.515	0.0139439
897.593	0.0141125
897.671	0.0142028
897.749	0.0140697
897.828	0.0139802
897.906	0.0140288
897.984	0.0140046
898.062	0.0141039
898.140	0.0138591
898.218	0.0139497
898.296	0.0139014
898.374	0.0137392
898.453	0.0136787
898.531	0.0137979
898.609	0.0136611
898.687	0.0138251
898.765	0.0138306
898.843	0.0137700
898.921	0.0137754
898.999	0.0138615
899.078	0.0138670
899.156	0.0137373
899.234	0.0138123
899.312	0.0138342
899.390	0.0139021
899.468	0.0137568
899.546	0.0138791
899.624	0.0140016
899.703	0.0138060
899.781	0.0138451
899.859	0.0138854
899.937	0.0139368
900.015	0.0138972
900.093	0.0138965
900.171	0.0138408
900.249	0.0139343
900.328	0.0139207
900.406	0.0139926
900.484	0.0140615
900.562	0.0138030
900.640	0.0139747
900.718	0.0140826
900.796	0.0139979
900.874	0.0139729
900.953	0.0139318
901.031	0.0140559
901.109	0.0140923
901.187	0.0141180
901.265	0.0140639
901.343	0.0141056
901.421	0.0141300
901.499	0.0141564
901.578	0.0141878
901.656	0.0142496
901.734	0.0142005
901.812	0.0140668
901.890	0.0139771
901.968	0.0140488
902.046	0.0141837
902.124	0.0140578
902.203	0.0141606
902.281	0.0140673
902.359	0.0140676
902.437	0.0140738
902.515	0.0140886
902.593	0.0141164
902.671	0.0139672
902.749	0.0140515
902.828	0.0139702
902.906	0.0140108
902.984	0.0139620
903.062	0.0140182
903.140	0.0139117
903.218	0.0139488
903.296	0.0140859
903.374	0.0139696
903.453	0.0139743
903.531	0.0140199
903.609	0.0139112
903.687	0.0140156
903.765	0.0139378
903.843	0.0139503
903.921	0.0139417
903.999	0.0139667
904.078	0.0139568
904.156	0.0139938
904.234	0.0139872
904.312	0.0140283
904.390	0.0139989
904.468	0.0140051
904.546	0.0141576
904.624	0.0139845
904.703	0.0138965
904.781	0.0138780
904.859	0.0138774
904.937	0.0139685
905.015	0.0139407
905.093	0.0138364
905.171	0.0138964
905.249	0.0138340
905.328	0.0138962
905.406	0.0137336
905.484	0.0137460
905.562	0.0139429
905.640	0.0139340
905.718	0.0140128
905.796	0.0138445
905.874	0.0140658
905.953	0.0140167
906.031	0.0139578
906.109	0.0139509
906.187	0.0139585
906.265	0.0139054
906.343	0.0139465
906.421	0.0141055
906.499	0.0140160
906.578	0.0139115
906.656	0.0139470
906.734	0.0139968
906.812	0.0141965
906.890	0.0140089
906.968	0.0139923
907.046	0.0139704
907.124	0.0140345
907.203	0.0140922
907.281	0.0140382
907.359	0.0139581
907.437	0.0140898
907.515	0.0140051
907.593	0.0141144
907.671	0.0141573
907.749	0.0140234
907.828	0.0140250
907.906	0.0139655
907.984	0.0139678
908.062	0.0141280
908.140	0.0141409
908.218	0.0141562
908.296	0.0141150
908.374	0.0140479
908.453	0.0141068
908.531	0.0141627
908.609	0.0140518
908.687	0.0140380
908.765	0.0141659
908.843	0.0139909
908.921	0.0140330
908.999	0.0141035
909.078	0.0139393
909.156	0.0140294
909.234	0.0140265
909.312	0.0139432
909.390	0.0139672
909.468	0.0140470
909.546	0.0140566
909.624	0.0139602
909.703	0.0139365
909.781	0.0140415
909.859	0.0138773
909.937	0.0138969
910.015	0.0141258
910.093	0.0139045
910.171	0.0139203
910.249	0.0138985
910.328	0.0138640
910.406	0.0139640
910.484	0.0139906
910.562	0.0138974
910.640	0.0140584
910.718	0.0139507
910.796	0.0138716
910.874	0.0138584
910.953	0.0138743
911.031	0.0139584
911.109	0.0139537
911.187	0.0138335
911.265	0.0138139
911.343	0.0139292
911.421	0.0139731
911.499	0.0140891
911.578	0.0139276
911.656	0.0138864
911.734	0.0138018
911.812	0.0139626
911.890	0.0138817
911.968	0.0138400
912.046	0.0139969
912.124	0.0139478
912.203	0.0138870
912.281	0.0137068
912.359	0.0139224
912.437	0.0139307
912.515	0.0138480
912.593	0.0139645
912.671	0.0139270
912.749	0.0138844
912.828	0.0139538
912.906	0.0138173
912.984	0.0138944
913.062	0.0140526
913.140	0.0141112
913.218	0.0141606
913.296	0.0140366
913.374	0.0140780
913.453	0.0139847
913.531	0.0140839
913.609	0.0140126
913.687	0.0140437
913.765	0.0140714
913.843	0.0140138
913.921	0.0139929
913.999	0.0140171
914.078	0.0137966
914.156	0.0139477
914.234	0.0139687
914.312	0.0139957
914.390	0.0139750
914.468	0.0139648
914.546	0.0141537
914.624	0.0139345
914.703	0.0138960
914.781	0.0139940
914.859	0.0139102
914.937	0.0138750
915.015	0.0139274
915.093	0.0139359
915.171	0.0140251
915.249	0.0140369
915.328	0.0139979
915.406	0.0141497
915.484	0.0141023
915.562	0.0138913
915.640	0.0139707
915.718	0.0141031
915.796	0.0140800
915.874	0.0140959
915.953	0.0140450
916.031	0.0141196
916.109	0.0140630
916.187	0.0140860
916.265	0.0140794
916.343	0.0139883
916.421	0.0141740
916.499	0.0142162
916.578	0.0140832
916.656	0.0138817
916.734	0.0139790
916.812	0.0142147
916.890	0.0140975
916.968	0.0139966
917.046	0.0140856
917.124	0.0139114
917.203	0.0140336
917.281	0.0140156
917.359	0.0139848
917.437	0.0140363
917.515	0.0139812
917.593	0.0138686
917.671	0.0140051
917.749	0.0138998
917.828	0.0139409
917.906	0.0139079
917.984	0.0140142
918.062	0.0139284
918.140	0.0139043
918.218	0.0138498
918.296	0.0138552
918.374	0.0138155
918.453	0.0139643
918.531	0.0136929
918.609	0.0137838
918.687	0.0137696
918.765	0.0138729
918.843	0.0138403
918.921	0.0138953
918.999	0.0139838
919.078	0.0139353
919.156	0.0138632
919.234	0.0138985
919.312	0.0137466
919.390	0.0139294
919.468	0.0139877
919.546	0.0138570
919.624	0.0139412
919.703	0.0137555
919.781	0.0138824
919.859	0.0138967
919.937	0.0137878
