05/08/2022	20:22:27	Ver.	4.1	UNKNOWN
Optical Delay	600.015094	Delta X		0.078125	Sweeps	1	Scan Rate	0/0
Coordinates	Axis 1	NaN	Axis 2	NaN	Axis 3	NaN	Axis 4	NaN	Axis 5	NaN	Axis 6	0.000000
TX Power	0.000000	RX Power	0.000000

600.015	0.0139774
600.093	0.0138755
600.171	0.0138899
600.249	0.0138524
600.328	0.0140261
600.406	0.0139651
600.484	0.0138262
600.562	0.0138447
600.640	0.0139303
600.718	0.0139444
600.796	0.0138313
600.874	0.0140732
600.953	0.0139545
601.031	0.0138333
601.109	0.0139562
601.187	0.0139307
601.265	0.0138414
601.343	0.0140297
601.421	0.0139053
601.499	0.0139670
601.578	0.0139210
601.656	0.0140843
601.734	0.0140217
601.812	0.0141409
601.890	0.0139812
601.968	0.0141479
602.046	0.0140504
602.124	0.0140276
602.203	0.0140720
602.281	0.0140900
602.359	0.0141266
602.437	0.0141409
602.515	0.0140971
602.593	0.0141138
602.671	0.0140372
602.749	0.0141393
602.828	0.0141077
602.906	0.0141087
602.984	0.0141698
603.062	0.0143100
603.140	0.0142061
603.218	0.0142052
603.296	0.0141420
603.374	0.0141693
603.453	0.0141962
603.531	0.0141174
603.609	0.0141477
603.687	0.0141784
603.765	0.0140895
603.843	0.0142052
603.921	0.0140907
603.999	0.0142624
604.078	0.0142891
604.156	0.0141594
604.234	0.0142505
604.312	0.0142969
604.390	0.0141961
604.468	0.0143231
604.546	0.0141817
604.624	0.0143481
604.703	0.0143921
604.781	0.0142815
604.859	0.0142542
604.937	0.0142580
605.015	0.0143141
605.093	0.0141270
605.171	0.0142342
605.249	0.0143202
605.328	0.0142353
605.406	0.0141866
605.484	0.0141495
605.562	0.0141779
605.640	0.0140993
605.718	0.0142469
605.796	0.0143002
605.874	0.0141386
605.953	0.0141019
606.031	0.0140086
606.109	0.0139806
606.187	0.0140065
606.265	0.0141142
606.343	0.0142020
606.421	0.0140050
606.499	0.0140446
606.578	0.0140192
606.656	0.0140043
606.734	0.0139142
606.812	0.0140201
606.890	0.0139118
606.968	0.0138542
607.046	0.0138757
607.124	0.0139928
607.203	0.0138586
607.281	0.0136620
607.359	0.0138353
607.437	0.0138076
607.515	0.0137991
607.593	0.0137811
607.671	0.0137053
607.749	0.0137115
607.828	0.0137253
607.906	0.0138222
607.984	0.0138843
608.062	0.0138426
608.140	0.0138659
608.218	0.0139833
608.296	0.0140289
608.374	0.0139798
608.453	0.0138016
608.531	0.0139288
608.609	0.0141796
608.687	0.0140315
608.765	0.0140961
608.843	0.0141048
608.921	0.0141399
608.999	0.0140926
609.078	0.0141165
609.156	0.0142066
609.234	0.0141273
609.312	0.0141541
609.390	0.0142482
609.468	0.0142614
609.546	0.0142221
609.624	0.0141446
609.703	0.0140859
609.781	0.0141043
609.859	0.0141684
609.937	0.0143551
610.015	0.0142252
610.093	0.0141897
610.171	0.0142244
610.249	0.0141645
610.328	0.0141714
610.406	0.0141257
610.484	0.0142313
610.562	0.0141508
610.640	0.0140071
610.718	0.0139850
610.796	0.0139818
610.874	0.0140193
610.953	0.0139512
611.031	0.0139827
611.109	0.0140104
611.187	0.0140583
611.265	0.0139268
611.343	0.0139348
611.421	0.0140250
611.499	0.0139377
611.578	0.0138844
611.656	0.0138618
611.734	0.0138720
611.812	0.0138544
611.890	0.0140287
611.968	0.0140039
612.046	0.0138367
612.124	0.0138512
612.203	0.0138239
612.281	0.0138791
612.359	0.0140099
612.437	0.0139841
612.515	0.0139179
612.593	0.0138795
612.671	0.0139017
612.749	0.0139052
612.828	0.0140308
612.906	0.0139365
612.984	0.0139490
613.062	0.0139954
613.140	0.0136909
613.218	0.0138805
613.296	0.0139207
613.374	0.0138316
613.453	0.0138764
613.531	0.0137490
613.609	0.0138260
613.687	0.0140038
613.765	0.0138325
613.843	0.0139269
613.921	0.0139410
613.999	0.0138660
614.078	0.0137764
614.156	0.0138783
614.234	0.0138641
614.312	0.0138416
614.390	0.0138444
614.468	0.0138113
614.546	0.0138592
614.624	0.0138934
614.703	0.0139603
614.781	0.0138061
614.859	0.0139227
614.937	0.0137287
615.015	0.0139116
615.093	0.0137901
615.171	0.0138319
615.249	0.0139623
615.328	0.0139986
615.406	0.0137380
615.484	0.0138429
615.562	0.0139892
615.640	0.0138435
615.718	0.0139285
615.796	0.0139334
615.874	0.0137668
615.953	0.0138436
616.031	0.0139100
616.109	0.0139023
616.187	0.0138927
616.265	0.0137275
616.343	0.0138156
616.421	0.0138088
616.499	0.0138519
616.578	0.0139497
616.656	0.0139207
616.734	0.0138311
616.812	0.0138628
616.890	0.0137912
616.968	0.0138073
617.046	0.0138801
617.124	0.0138457
617.203	0.0138872
617.281	0.0139387
617.359	0.0139001
617.437	0.0136865
617.515	0.0138674
617.593	0.0138422
617.671	0.0138525
617.749	0.0138300
617.828	0.0139014
617.906	0.0139587
617.984	0.0138289
618.062	0.0138637
618.140	0.0140085
618.218	0.0138799
618.296	0.0139156
618.374	0.0138146
618.453	0.0138205
618.531	0.0138490
618.609	0.0137576
618.687	0.0139065
618.765	0.0138148
618.843	0.0139247
618.921	0.0140945
618.999	0.0139828
619.078	0.0138283
619.156	0.0139522
619.234	0.0137670
619.312	0.0138961
619.390	0.0139433
619.468	0.0139628
619.546	0.0139560
619.624	0.0139471
619.703	0.0139150
619.781	0.0139307
619.859	0.0139552
619.937	0.0139015
620.015	0.0139072
620.093	0.0141557
620.171	0.0139459
620.249	0.0139116
620.328	0.0140121
620.406	0.0140538
620.484	0.0141201
620.562	0.0140657
620.640	0.0140323
620.718	0.0140449
620.796	0.0141077
620.874	0.0140719
620.953	0.0139287
621.031	0.0139408
621.109	0.0140478
621.187	0.0140683
621.265	0.0139414
621.343	0.0139854
621.421	0.0139929
621.499	0.0141467
621.578	0.0141131
621.656	0.0139298
621.734	0.0140109
621.812	0.0140475
621.890	0.0138713
621.968	0.0140962
622.046	0.0141068
622.124	0.0140649
622.203	0.0140623
622.281	0.0141050
622.359	0.0140704
622.437	0.0139745
622.515	0.0142060
622.593	0.0140206
622.671	0.0139659
622.749	0.0141424
622.828	0.0141260
622.906	0.0140166
622.984	0.0138712
623.062	0.0139964
623.140	0.0139989
623.218	0.0139376
623.296	0.0141157
623.374	0.0141705
623.453	0.0140633
623.531	0.0141547
623.609	0.0139967
623.687	0.0140616
623.765	0.0140405
623.843	0.0140326
623.921	0.0139574
623.999	0.0140557
624.078	0.0140232
624.156	0.0139407
624.234	0.0140476
624.312	0.0139555
624.390	0.0139659
624.468	0.0140026
624.546	0.0138200
624.624	0.0137705
624.703	0.0136940
624.781	0.0139802
624.859	0.0140056
624.937	0.0140025
625.015	0.0138035
625.093	0.0137768
625.171	0.0139047
625.249	0.0139317
625.328	0.0139235
625.406	0.0139626
625.484	0.0138348
625.562	0.0138255
625.640	0.0140449
625.718	0.0140340
625.796	0.0138689
625.874	0.0139523
625.953	0.0139230
626.031	0.0137817
626.109	0.0139549
626.187	0.0138812
626.265	0.0137478
626.343	0.0138696
626.421	0.0139722
626.499	0.0138129
626.578	0.0138448
626.656	0.0138233
626.734	0.0137572
626.812	0.0139207
626.890	0.0138372
626.968	0.0139353
627.046	0.0138705
627.124	0.0140319
627.203	0.0139490
627.281	0.0138923
627.359	0.0139066
627.437	0.0140137
627.515	0.0139111
627.593	0.0139822
627.671	0.0141115
627.749	0.0138979
627.828	0.0140022
627.906	0.0140374
627.984	0.0140766
628.062	0.0140746
628.140	0.0140804
628.218	0.0141901
628.296	0.0142055
628.374	0.0141686
628.453	0.0141455
628.531	0.0141743
628.609	0.0139616
628.687	0.0140852
628.765	0.0142139
628.843	0.0141813
628.921	0.0140827
628.999	0.0140672
629.078	0.0142796
629.156	0.0140813
629.234	0.0141171
629.312	0.0141366
629.390	0.0140959
629.468	0.0141436
629.546	0.0142316
629.624	0.0142286
629.703	0.0142078
629.781	0.0141428
629.859	0.0142655
629.937	0.0142253
630.015	0.0142764
630.093	0.0142702
630.171	0.0141882
630.249	0.0142169
630.328	0.0142802
630.406	0.0142201
630.484	0.0141781
630.562	0.0142151
630.640	0.0141731
630.718	0.0141475
630.796	0.0141879
630.874	0.0141335
630.953	0.0141866
631.031	0.0142886
631.109	0.0142393
631.187	0.0141888
631.265	0.0142887
631.343	0.0142460
631.421	0.0142209
631.499	0.0142813
631.578	0.0142905
631.656	0.0141858
631.734	0.0141816
631.812	0.0141022
631.890	0.0140199
631.968	0.0141496
632.046	0.0141684
632.124	0.0141063
632.203	0.0140964
632.281	0.0140781
632.359	0.0140701
632.437	0.0141457
632.515	0.0140585
632.593	0.0140765
632.671	0.0141718
632.749	0.0140320
632.828	0.0140748
632.906	0.0141344
632.984	0.0141021
633.062	0.0140166
633.140	0.0140909
633.218	0.0142263
633.296	0.0140071
633.374	0.0140697
633.453	0.0140179
633.531	0.0140285
633.609	0.0140199
633.687	0.0140212
633.765	0.0139375
633.843	0.0139422
633.921	0.0138614
633.999	0.0139783
634.078	0.0139759
634.156	0.0139204
634.234	0.0139683
634.312	0.0138371
634.390	0.0139521
634.468	0.0139891
634.546	0.0139897
634.624	0.0140285
634.703	0.0139993
634.781	0.0138444
634.859	0.0138820
634.937	0.0138383
635.015	0.0139539
635.093	0.0140983
635.171	0.0139641
635.249	0.0140088
635.328	0.0139706
635.406	0.0141019
635.484	0.0140064
635.562	0.0138647
635.640	0.0140186
635.718	0.0140829
635.796	0.0139318
635.874	0.0141077
635.953	0.0139547
636.031	0.0138293
636.109	0.0138016
636.187	0.0139095
636.265	0.0138258
636.343	0.0138889
636.421	0.0139198
636.499	0.0138017
636.578	0.0139144
636.656	0.0139001
636.734	0.0137730
636.812	0.0139530
636.890	0.0138628
636.968	0.0139259
637.046	0.0139584
637.124	0.0138262
637.203	0.0138550
637.281	0.0139228
637.359	0.0138146
637.437	0.0138800
637.515	0.0138020
637.593	0.0137449
637.671	0.0137503
637.749	0.0139134
637.828	0.0137563
637.906	0.0139088
637.984	0.0137779
638.062	0.0137773
638.140	0.0138490
638.218	0.0139793
638.296	0.0138876
638.374	0.0137959
638.453	0.0139053
638.531	0.0141251
638.609	0.0141962
638.687	0.0142002
638.765	0.0140827
638.843	0.0140597
638.921	0.0140933
638.999	0.0141673
639.078	0.0141520
639.156	0.0141078
639.234	0.0141437
639.312	0.0141986
639.390	0.0141388
639.468	0.0139017
639.546	0.0141322
639.624	0.0141132
639.703	0.0139818
639.781	0.0140563
639.859	0.0140392
639.937	0.0138730
640.015	0.0140079
640.093	0.0138718
640.171	0.0139536
640.249	0.0138914
640.328	0.0137132
640.406	0.0137533
640.484	0.0137360
640.562	0.0136539
640.640	0.0135320
640.718	0.0135742
640.796	0.0136138
640.874	0.0136243
640.953	0.0137261
641.031	0.0138221
641.109	0.0139068
641.187	0.0137778
641.265	0.0139255
641.343	0.0139626
641.421	0.0140460
641.499	0.0140874
641.578	0.0143234
641.656	0.0143034
641.734	0.0143807
641.812	0.0144863
641.890	0.0145250
641.968	0.0144486
642.046	0.0143446
642.124	0.0144244
642.203	0.0144801
642.281	0.0143821
642.359	0.0142830
642.437	0.0141639
642.515	0.0140768
642.593	0.0140124
642.671	0.0140594
642.749	0.0139252
642.828	0.0140236
642.906	0.0137466
642.984	0.0137505
643.062	0.0137544
643.140	0.0136349
643.218	0.0135433
643.296	0.0135882
643.374	0.0136621
643.453	0.0135584
643.531	0.0132923
643.609	0.0133498
643.687	0.0134286
643.765	0.0133721
643.843	0.0133441
643.921	0.0132803
643.999	0.0132941
644.078	0.0134573
644.156	0.0134216
644.234	0.0133599
644.312	0.0135645
644.390	0.0134386
644.468	0.0136949
644.546	0.0138599
644.624	0.0139707
644.703	0.0139817
644.781	0.0142976
644.859	0.0143401
644.937	0.0144435
645.015	0.0144969
645.093	0.0145458
645.171	0.0147127
645.249	0.0148171
645.328	0.0148882
645.406	0.0148819
645.484	0.0149466
645.562	0.0148096
645.640	0.0145687
645.718	0.0146771
645.796	0.0147452
645.874	0.0144787
645.953	0.0143114
646.031	0.0142294
646.109	0.0140726
646.187	0.0139971
646.265	0.0138613
646.343	0.0137896
646.421	0.0136237
646.499	0.0135334
646.578	0.0134707
646.656	0.0133401
646.734	0.0133218
646.812	0.0131586
646.890	0.0129884
646.968	0.0130243
647.046	0.0128491
647.124	0.0130271
647.203	0.0128711
647.281	0.0129380
647.359	0.0129957
647.437	0.0129730
647.515	0.0130770
647.593	0.0132877
647.671	0.0133878
647.749	0.0133081
647.828	0.0135460
647.906	0.0136018
647.984	0.0137328
648.062	0.0138766
648.140	0.0138646
648.218	0.0141594
648.296	0.0141512
648.374	0.0143060
648.453	0.0144185
648.531	0.0145017
648.609	0.0147186
648.687	0.0146995
648.765	0.0148445
648.843	0.0147172
648.921	0.0149316
648.999	0.0149648
649.078	0.0150504
649.156	0.0150330
649.234	0.0151684
649.312	0.0151038
649.390	0.0150310
649.468	0.0151785
649.546	0.0150127
649.624	0.0147425
649.703	0.0146632
649.781	0.0145032
649.859	0.0146005
649.937	0.0141601
650.015	0.0141216
650.093	0.0140672
650.171	0.0138512
650.249	0.0136887
650.328	0.0136044
650.406	0.0135059
650.484	0.0133192
650.562	0.0133284
650.640	0.0130518
650.718	0.0128590
650.796	0.0128113
650.874	0.0127757
650.953	0.0127590
651.031	0.0125459
651.109	0.0125040
651.187	0.0124996
651.265	0.0125475
651.343	0.0125421
651.421	0.0126213
651.499	0.0128108
651.578	0.0129155
651.656	0.0130341
651.734	0.0134351
651.812	0.0135001
651.890	0.0138449
651.968	0.0140253
652.046	0.0142869
652.124	0.0144193
652.203	0.0149291
652.281	0.0150159
652.359	0.0152096
652.437	0.0153179
652.515	0.0155431
652.593	0.0155709
652.671	0.0159061
652.749	0.0160297
652.828	0.0159612
652.906	0.0160381
652.984	0.0161411
653.062	0.0162141
653.140	0.0159260
653.218	0.0159650
653.296	0.0157858
653.374	0.0155990
653.453	0.0155140
653.531	0.0152863
653.609	0.0151212
653.687	0.0147880
653.765	0.0146152
653.843	0.0143593
653.921	0.0140716
653.999	0.0136891
654.078	0.0135596
654.156	0.0132237
654.234	0.0129868
654.312	0.0127486
654.390	0.0125975
654.468	0.0123125
654.546	0.0121485
654.624	0.0120971
654.703	0.0118282
654.781	0.0117456
654.859	0.0118381
654.937	0.0117207
655.015	0.0117899
655.093	0.0120180
655.171	0.0118779
655.249	0.0121061
655.328	0.0121822
655.406	0.0122884
655.484	0.0126987
655.562	0.0128487
655.640	0.0130238
655.718	0.0131933
655.796	0.0136021
655.874	0.0141311
655.953	0.0140872
656.031	0.0143752
656.109	0.0148427
656.187	0.0151652
656.265	0.0153905
656.343	0.0155262
656.421	0.0158729
656.499	0.0160928
656.578	0.0161781
656.656	0.0162853
656.734	0.0162527
656.812	0.0161961
656.890	0.0163592
656.968	0.0163930
657.046	0.0160697
657.124	0.0160331
657.203	0.0159045
657.281	0.0157748
657.359	0.0156587
657.437	0.0155306
657.515	0.0153488
657.593	0.0150957
657.671	0.0148845
657.749	0.0146154
657.828	0.0143165
657.906	0.0142113
657.984	0.0137368
658.062	0.0133933
658.140	0.0131618
658.218	0.0128926
658.296	0.0126902
658.374	0.0124498
658.453	0.0123634
658.531	0.0122475
658.609	0.0121136
658.687	0.0119669
658.765	0.0119403
658.843	0.0119774
658.921	0.0119317
658.999	0.0119701
659.078	0.0120189
659.156	0.0121066
659.234	0.0122489
659.312	0.0122189
659.390	0.0124739
659.468	0.0124934
659.546	0.0128412
659.624	0.0130106
659.703	0.0131641
659.781	0.0133920
659.859	0.0136948
659.937	0.0138628
660.015	0.0141027
660.093	0.0143279
660.171	0.0145795
660.249	0.0148803
660.328	0.0150050
660.406	0.0151993
660.484	0.0153165
660.562	0.0155078
660.640	0.0156246
660.718	0.0155312
660.796	0.0157469
660.874	0.0158489
660.953	0.0157831
661.031	0.0159441
661.109	0.0159475
661.187	0.0158944
661.265	0.0159962
661.343	0.0159541
661.421	0.0157153
661.499	0.0157957
661.578	0.0157228
661.656	0.0153548
661.734	0.0153967
661.812	0.0153065
661.890	0.0150381
661.968	0.0147526
662.046	0.0144979
662.124	0.0142059
662.203	0.0139524
662.281	0.0136255
662.359	0.0133191
662.437	0.0131009
662.515	0.0129128
662.593	0.0126942
662.671	0.0124594
662.749	0.0123407
662.828	0.0122984
662.906	0.0121254
662.984	0.0120507
663.062	0.0121310
663.140	0.0120071
663.218	0.0123161
663.296	0.0122160
663.374	0.0123171
663.453	0.0124783
663.531	0.0126885
663.609	0.0128300
663.687	0.0130437
663.765	0.0131010
663.843	0.0133956
663.921	0.0135385
663.999	0.0136514
664.078	0.0140159
664.156	0.0140809
664.234	0.0141108
664.312	0.0144222
664.390	0.0144364
664.468	0.0146027
664.546	0.0146452
664.624	0.0147794
664.703	0.0148567
664.781	0.0149916
664.859	0.0149804
664.937	0.0150234
665.015	0.0148422
665.093	0.0148839
665.171	0.0147270
665.249	0.0147763
665.328	0.0147440
665.406	0.0145534
665.484	0.0144048
665.562	0.0144082
665.640	0.0141734
665.718	0.0140874
665.796	0.0139246
665.874	0.0139091
665.953	0.0135912
666.031	0.0137250
666.109	0.0134343
666.187	0.0134830
666.265	0.0134280
666.343	0.0133981
666.421	0.0134459
666.499	0.0135211
666.578	0.0134665
666.656	0.0135771
666.734	0.0135773
666.812	0.0135789
666.890	0.0136605
666.968	0.0137263
667.046	0.0139102
667.124	0.0139611
667.203	0.0137968
667.281	0.0139236
667.359	0.0140878
667.437	0.0141730
667.515	0.0141462
667.593	0.0142294
667.671	0.0143307
667.749	0.0143590
667.828	0.0143626
667.906	0.0144142
667.984	0.0144645
668.062	0.0144614
668.140	0.0143334
668.218	0.0145101
668.296	0.0143974
668.374	0.0143010
668.453	0.0141353
668.531	0.0142856
668.609	0.0141802
668.687	0.0140603
668.765	0.0140063
668.843	0.0138795
668.921	0.0138435
668.999	0.0137917
669.078	0.0138456
669.156	0.0137168
669.234	0.0137373
669.312	0.0136742
669.390	0.0136817
669.468	0.0136639
669.546	0.0138056
669.624	0.0136599
669.703	0.0137135
669.781	0.0136288
669.859	0.0138082
669.937	0.0136687
670.015	0.0138146
670.093	0.0137850
670.171	0.0136375
670.249	0.0135822
670.328	0.0135927
670.406	0.0135186
670.484	0.0136390
670.562	0.0136522
670.640	0.0135595
670.718	0.0134961
670.796	0.0133440
670.874	0.0135535
670.953	0.0134732
671.031	0.0135227
671.109	0.0135064
671.187	0.0135206
671.265	0.0135202
671.343	0.0136916
671.421	0.0137804
671.499	0.0140241
671.578	0.0141808
671.656	0.0141763
671.734	0.0144906
671.812	0.0146255
671.890	0.0146864
671.968	0.0147948
672.046	0.0150897
672.124	0.0151146
672.203	0.0151159
672.281	0.0152521
672.359	0.0151832
672.437	0.0154960
672.515	0.0154612
672.593	0.0157637
672.671	0.0157684
672.749	0.0157306
672.828	0.0157923
672.906	0.0157789
672.984	0.0157735
673.062	0.0157362
673.140	0.0157652
673.218	0.0153842
673.296	0.0153692
673.374	0.0153702
673.453	0.0148969
673.531	0.0147183
673.609	0.0144099
673.687	0.0141966
673.765	0.0139513
673.843	0.0136404
673.921	0.0135312
673.999	0.0131350
674.078	0.0129787
674.156	0.0128676
674.234	0.0126865
674.312	0.0124545
674.390	0.0124332
674.468	0.0122741
674.546	0.0121764
674.624	0.0120308
674.703	0.0120599
674.781	0.0121147
674.859	0.0120200
674.937	0.0119769
675.015	0.0121249
675.093	0.0122070
675.171	0.0121647
675.249	0.0122944
675.328	0.0123715
675.406	0.0125963
675.484	0.0126347
675.562	0.0127956
675.640	0.0129632
675.718	0.0130523
675.796	0.0132779
675.874	0.0134766
675.953	0.0135468
676.031	0.0138722
676.109	0.0139912
676.187	0.0142603
676.265	0.0144579
676.343	0.0146772
676.421	0.0148846
676.499	0.0149418
676.578	0.0152384
676.656	0.0155247
676.734	0.0155870
676.812	0.0156847
676.890	0.0158035
676.968	0.0157180
677.046	0.0158654
677.124	0.0158959
677.203	0.0157449
677.281	0.0159083
677.359	0.0157761
677.437	0.0157147
677.515	0.0155687
677.593	0.0154350
677.671	0.0154900
677.749	0.0152882
677.828	0.0152425
677.906	0.0153345
677.984	0.0152578
678.062	0.0151187
678.140	0.0150390
678.218	0.0147182
678.296	0.0145895
678.374	0.0145293
678.453	0.0142757
678.531	0.0141899
678.609	0.0140614
678.687	0.0136587
678.765	0.0135712
678.843	0.0133494
678.921	0.0130968
678.999	0.0131580
679.078	0.0128703
679.156	0.0126740
679.234	0.0127042
679.312	0.0125718
679.390	0.0124848
679.468	0.0124412
679.546	0.0124326
679.624	0.0122435
679.703	0.0123895
679.781	0.0123824
679.859	0.0124422
679.937	0.0123479
680.015	0.0124460
680.093	0.0126828
680.171	0.0127820
680.249	0.0128007
680.328	0.0130554
680.406	0.0131365
680.484	0.0133007
680.562	0.0136514
680.640	0.0135663
680.718	0.0137730
680.796	0.0139330
680.874	0.0140061
680.953	0.0141962
681.031	0.0141556
681.109	0.0143731
681.187	0.0145527
681.265	0.0146393
681.343	0.0147427
681.421	0.0146478
681.499	0.0145677
681.578	0.0148920
681.656	0.0149129
681.734	0.0149213
681.812	0.0150310
681.890	0.0150484
681.968	0.0150011
682.046	0.0150880
682.124	0.0150825
682.203	0.0149108
682.281	0.0150880
682.359	0.0150277
682.437	0.0149654
682.515	0.0147527
682.593	0.0149039
682.671	0.0147742
682.749	0.0146449
682.828	0.0145241
682.906	0.0143768
682.984	0.0142113
683.062	0.0142433
683.140	0.0141646
683.218	0.0139288
683.296	0.0138935
683.374	0.0140469
683.453	0.0140759
683.531	0.0141360
683.609	0.0140341
683.687	0.0139137
683.765	0.0140299
683.843	0.0139966
683.921	0.0141104
683.999	0.0139854
684.078	0.0140413
684.156	0.0138644
684.234	0.0139228
684.312	0.0139594
684.390	0.0139011
684.468	0.0138075
684.546	0.0138089
684.624	0.0140212
684.703	0.0138103
684.781	0.0138112
684.859	0.0137093
684.937	0.0138542
685.015	0.0137644
685.093	0.0137898
685.171	0.0138585
685.249	0.0136631
685.328	0.0137330
685.406	0.0138480
685.484	0.0136981
685.562	0.0137598
685.640	0.0137394
685.718	0.0138483
685.796	0.0137637
685.874	0.0135706
685.953	0.0136794
686.031	0.0138455
686.109	0.0138359
686.187	0.0139827
686.265	0.0139524
686.343	0.0139175
686.421	0.0139820
686.499	0.0141089
686.578	0.0141291
686.656	0.0139330
686.734	0.0140582
686.812	0.0139911
686.890	0.0139272
686.968	0.0138327
687.046	0.0136783
687.124	0.0136978
687.203	0.0135912
687.281	0.0136692
687.359	0.0136150
687.437	0.0137192
687.515	0.0137241
687.593	0.0139587
687.671	0.0140347
687.749	0.0141682
687.828	0.0143423
687.906	0.0146218
687.984	0.0147208
688.062	0.0147641
688.140	0.0149769
688.218	0.0150538
688.296	0.0152530
688.374	0.0152512
688.453	0.0153004
688.531	0.0153292
688.609	0.0153802
688.687	0.0153192
688.765	0.0153197
688.843	0.0151195
688.921	0.0152120
688.999	0.0150221
689.078	0.0150248
689.156	0.0149992
689.234	0.0147888
689.312	0.0146125
689.390	0.0145174
689.468	0.0142918
689.546	0.0140686
689.624	0.0140390
689.703	0.0139515
689.781	0.0137693
689.859	0.0136565
689.937	0.0137166
690.015	0.0134792
690.093	0.0133688
690.171	0.0131767
690.249	0.0132006
690.328	0.0130574
690.406	0.0130551
690.484	0.0130941
690.562	0.0129397
690.640	0.0130611
690.718	0.0128876
690.796	0.0129164
690.874	0.0130141
690.953	0.0131078
691.031	0.0130882
691.109	0.0132194
691.187	0.0133835
691.265	0.0133829
691.343	0.0134904
691.421	0.0137794
691.499	0.0136533
691.578	0.0137965
691.656	0.0141222
691.734	0.0141418
691.812	0.0140681
691.890	0.0141490
691.968	0.0142760
692.046	0.0144126
692.124	0.0143507
692.203	0.0144373
692.281	0.0146522
692.359	0.0144815
692.437	0.0145041
692.515	0.0145695
692.593	0.0145712
692.671	0.0144344
692.749	0.0143719
692.828	0.0142248
692.906	0.0141029
692.984	0.0139929
693.062	0.0139032
693.140	0.0138314
693.218	0.0138405
693.296	0.0136537
693.374	0.0135495
693.453	0.0135549
693.531	0.0134822
693.609	0.0133504
693.687	0.0133772
693.765	0.0134081
693.843	0.0132835
693.921	0.0134299
693.999	0.0135660
694.078	0.0134464
694.156	0.0135906
694.234	0.0136038
694.312	0.0136051
694.390	0.0138472
694.468	0.0138396
694.546	0.0137480
694.624	0.0139198
694.703	0.0140588
694.781	0.0140778
694.859	0.0141513
694.937	0.0141202
695.015	0.0141492
695.093	0.0142532
695.171	0.0141080
695.249	0.0144135
695.328	0.0143398
695.406	0.0144383
695.484	0.0146793
695.562	0.0147299
695.640	0.0146304
695.718	0.0147716
695.796	0.0150044
695.874	0.0149213
695.953	0.0149448
696.031	0.0148197
696.109	0.0149109
696.187	0.0149755
696.265	0.0149217
696.343	0.0149824
696.421	0.0148460
696.499	0.0149034
696.578	0.0147192
696.656	0.0145654
696.734	0.0146035
696.812	0.0144854
696.890	0.0144196
696.968	0.0142990
697.046	0.0143252
697.124	0.0141527
697.203	0.0138720
697.281	0.0138887
697.359	0.0139885
697.437	0.0139468
697.515	0.0138207
697.593	0.0136485
697.671	0.0136422
697.749	0.0135666
697.828	0.0134116
697.906	0.0134899
697.984	0.0134042
698.062	0.0133851
698.140	0.0133150
698.218	0.0132949
698.296	0.0132309
698.374	0.0131550
698.453	0.0132550
698.531	0.0130603
698.609	0.0130450
698.687	0.0129068
698.765	0.0129612
698.843	0.0131114
698.921	0.0130695
698.999	0.0131504
699.078	0.0130798
699.156	0.0131699
699.234	0.0133582
699.312	0.0134510
699.390	0.0136987
699.468	0.0136639
699.546	0.0137021
699.624	0.0138712
699.703	0.0140498
699.781	0.0140930
699.859	0.0143297
699.937	0.0146394
700.015	0.0143212
700.093	0.0145163
700.171	0.0147595
700.249	0.0149349
700.328	0.0148085
700.406	0.0149657
700.484	0.0150130
700.562	0.0151502
700.640	0.0150709
700.718	0.0151681
700.796	0.0151764
700.874	0.0150547
700.953	0.0151094
701.031	0.0151584
701.109	0.0150874
701.187	0.0150691
701.265	0.0148512
701.343	0.0148217
701.421	0.0147555
701.499	0.0146526
701.578	0.0144899
701.656	0.0144511
701.734	0.0143719
701.812	0.0143254
701.890	0.0141878
701.968	0.0141407
702.046	0.0141758
702.124	0.0140924
702.203	0.0138912
702.281	0.0137375
702.359	0.0138989
702.437	0.0138125
702.515	0.0136829
702.593	0.0137426
702.671	0.0136388
702.749	0.0135917
702.828	0.0135342
702.906	0.0135406
702.984	0.0135768
703.062	0.0135490
703.140	0.0135364
703.218	0.0134371
703.296	0.0134374
703.374	0.0133961
703.453	0.0134985
703.531	0.0135088
703.609	0.0134214
703.687	0.0133923
703.765	0.0133810
703.843	0.0134142
703.921	0.0135251
703.999	0.0135475
704.078	0.0134522
704.156	0.0134274
704.234	0.0133768
704.312	0.0133482
704.390	0.0133366
704.468	0.0132082
704.546	0.0132751
704.624	0.0130773
704.703	0.0132545
704.781	0.0132510
704.859	0.0132620
704.937	0.0133588
705.015	0.0133678
705.093	0.0134895
705.171	0.0136191
705.249	0.0136796
705.328	0.0137711
705.406	0.0138853
705.484	0.0141785
705.562	0.0141892
705.640	0.0143129
705.718	0.0143908
705.796	0.0144675
705.874	0.0146723
705.953	0.0146507
706.031	0.0146715
706.109	0.0146813
706.187	0.0147876
706.265	0.0147839
706.343	0.0147927
706.421	0.0147172
706.499	0.0147763
706.578	0.0148981
706.656	0.0148716
706.734	0.0147448
706.812	0.0147839
706.890	0.0147322
706.968	0.0146868
707.046	0.0145753
707.124	0.0146004
707.203	0.0144325
707.281	0.0143649
707.359	0.0142828
707.437	0.0142569
707.515	0.0142580
707.593	0.0141590
707.671	0.0140508
707.749	0.0140900
707.828	0.0139520
707.906	0.0139342
707.984	0.0139141
708.062	0.0138425
708.140	0.0137799
708.218	0.0138288
708.296	0.0139491
708.374	0.0138777
708.453	0.0138296
708.531	0.0138168
708.609	0.0138727
708.687	0.0138913
708.765	0.0137869
708.843	0.0136899
708.921	0.0138129
708.999	0.0137992
709.078	0.0136800
709.156	0.0135878
709.234	0.0136314
709.312	0.0135381
709.390	0.0135021
709.468	0.0134280
709.546	0.0133678
709.624	0.0133822
709.703	0.0133909
709.781	0.0132880
709.859	0.0133459
709.937	0.0133137
710.015	0.0132600
710.093	0.0133266
710.171	0.0133757
710.249	0.0134827
710.328	0.0135214
710.406	0.0134642
710.484	0.0134152
710.562	0.0136312
710.640	0.0136911
710.718	0.0139514
710.796	0.0138560
710.874	0.0139127
710.953	0.0141214
711.031	0.0140885
711.109	0.0141546
711.187	0.0142295
711.265	0.0144978
711.343	0.0144521
711.421	0.0146976
711.499	0.0146408
711.578	0.0146597
711.656	0.0147713
711.734	0.0148392
711.812	0.0147927
711.890	0.0148196
711.968	0.0149652
712.046	0.0149332
712.124	0.0147069
712.203	0.0148995
712.281	0.0146254
712.359	0.0146698
712.437	0.0145859
712.515	0.0144685
712.593	0.0144349
712.671	0.0143593
712.749	0.0143544
712.828	0.0142561
712.906	0.0141982
712.984	0.0141975
713.062	0.0139510
713.140	0.0141090
713.218	0.0138995
713.296	0.0139135
713.374	0.0139340
713.453	0.0138677
713.531	0.0137736
713.609	0.0138429
713.687	0.0137602
713.765	0.0137060
713.843	0.0136980
713.921	0.0136852
713.999	0.0137612
714.078	0.0137997
714.156	0.0138107
714.234	0.0139041
714.312	0.0140215
714.390	0.0141459
714.468	0.0142126
714.546	0.0141242
714.624	0.0143014
714.703	0.0142793
714.781	0.0143221
714.859	0.0142741
714.937	0.0144244
715.015	0.0143677
715.093	0.0142860
715.171	0.0143214
715.249	0.0143721
715.328	0.0144763
715.406	0.0143924
715.484	0.0144070
715.562	0.0144283
715.640	0.0142841
715.718	0.0142645
715.796	0.0142518
715.874	0.0142153
715.953	0.0142655
716.031	0.0141198
716.109	0.0140900
716.187	0.0141878
716.265	0.0139717
716.343	0.0139151
716.421	0.0137964
716.499	0.0137581
716.578	0.0137532
716.656	0.0136597
716.734	0.0136127
716.812	0.0137408
716.890	0.0136795
716.968	0.0136739
717.046	0.0135947
717.124	0.0138019
717.203	0.0137083
717.281	0.0137120
717.359	0.0139449
717.437	0.0139394
717.515	0.0138688
717.593	0.0139721
717.671	0.0139271
717.749	0.0139404
717.828	0.0139831
717.906	0.0139993
717.984	0.0141236
718.062	0.0138788
718.140	0.0138842
718.218	0.0141008
718.296	0.0141660
718.374	0.0141579
718.453	0.0140321
718.531	0.0141194
718.609	0.0140276
718.687	0.0140883
718.765	0.0141710
718.843	0.0141652
718.921	0.0141939
718.999	0.0141563
719.078	0.0141226
719.156	0.0140307
719.234	0.0141342
719.312	0.0140489
719.390	0.0138934
719.468	0.0139009
719.546	0.0138077
719.624	0.0138327
719.703	0.0138936
719.781	0.0137838
719.859	0.0137026
719.937	0.0136649
720.015	0.0136648
720.093	0.0136374
720.171	0.0134820
720.249	0.0135023
720.328	0.0136442
720.406	0.0136338
720.484	0.0135272
720.562	0.0136065
720.640	0.0136831
720.718	0.0137843
720.796	0.0137369
720.874	0.0137261
720.953	0.0138952
721.031	0.0137784
721.109	0.0138811
721.187	0.0138732
721.265	0.0138322
721.343	0.0139491
721.421	0.0140581
721.499	0.0138660
721.578	0.0140260
721.656	0.0140450
721.734	0.0140139
721.812	0.0140685
721.890	0.0140192
721.968	0.0140961
722.046	0.0140196
722.124	0.0140338
722.203	0.0140620
722.281	0.0138939
722.359	0.0140385
722.437	0.0140560
722.515	0.0138814
722.593	0.0139520
722.671	0.0139353
722.749	0.0139093
722.828	0.0139497
722.906	0.0139638
722.984	0.0139587
723.062	0.0139355
723.140	0.0138940
723.218	0.0138295
723.296	0.0138342
723.374	0.0137901
723.453	0.0137846
723.531	0.0139333
723.609	0.0136732
723.687	0.0138096
723.765	0.0139954
723.843	0.0138700
723.921	0.0137921
723.999	0.0139986
724.078	0.0138984
724.156	0.0139652
724.234	0.0140105
724.312	0.0139193
724.390	0.0140625
724.468	0.0139849
724.546	0.0138580
724.624	0.0137202
724.703	0.0138988
724.781	0.0138809
724.859	0.0138375
724.937	0.0138733
725.015	0.0138680
725.093	0.0138564
725.171	0.0138753
725.249	0.0138964
725.328	0.0139290
725.406	0.0140246
725.484	0.0140152
725.562	0.0140568
725.640	0.0141298
725.718	0.0140965
725.796	0.0141862
725.874	0.0141217
725.953	0.0141415
726.031	0.0142088
726.109	0.0143307
726.187	0.0141948
726.265	0.0143310
726.343	0.0145081
726.421	0.0143659
726.499	0.0142078
726.578	0.0143102
726.656	0.0141698
726.734	0.0142075
726.812	0.0141880
726.890	0.0140924
726.968	0.0140318
727.046	0.0141069
727.124	0.0140311
727.203	0.0141357
727.281	0.0139933
727.359	0.0141614
727.437	0.0140388
727.515	0.0140498
727.593	0.0140636
727.671	0.0139928
727.749	0.0141152
727.828	0.0140053
727.906	0.0141374
727.984	0.0139147
728.062	0.0138041
728.140	0.0139852
728.218	0.0139786
728.296	0.0139510
728.374	0.0139760
728.453	0.0139491
728.531	0.0139293
728.609	0.0139342
728.687	0.0140887
728.765	0.0139655
728.843	0.0139896
728.921	0.0139742
728.999	0.0140143
729.078	0.0139220
729.156	0.0140434
729.234	0.0139809
729.312	0.0141464
729.390	0.0139868
729.468	0.0141500
729.546	0.0141378
729.624	0.0139652
729.703	0.0141573
729.781	0.0139905
729.859	0.0140834
729.937	0.0139111
730.015	0.0138266
730.093	0.0138536
730.171	0.0137966
730.249	0.0136381
730.328	0.0135763
730.406	0.0135490
730.484	0.0134862
730.562	0.0133376
730.640	0.0133467
730.718	0.0132291
730.796	0.0133128
730.874	0.0133826
730.953	0.0132034
731.031	0.0131474
731.109	0.0131561
731.187	0.0133652
731.265	0.0132883
731.343	0.0132647
731.421	0.0133257
731.499	0.0133772
731.578	0.0132798
731.656	0.0133536
731.734	0.0134686
731.812	0.0136579
731.890	0.0137827
731.968	0.0138343
732.046	0.0138629
732.124	0.0140184
732.203	0.0141170
732.281	0.0140271
732.359	0.0140907
732.437	0.0141797
732.515	0.0140060
732.593	0.0142407
732.671	0.0141859
732.749	0.0141431
732.828	0.0142469
732.906	0.0142059
732.984	0.0142316
733.062	0.0141965
733.140	0.0142245
733.218	0.0142623
733.296	0.0142196
733.374	0.0143188
733.453	0.0142927
733.531	0.0144650
733.609	0.0143287
733.687	0.0143523
733.765	0.0143726
733.843	0.0144373
733.921	0.0143216
733.999	0.0143887
734.078	0.0144153
734.156	0.0144895
734.234	0.0144062
734.312	0.0144544
734.390	0.0144245
734.468	0.0141443
734.546	0.0143160
734.624	0.0143291
734.703	0.0141059
734.781	0.0140976
734.859	0.0140225
734.937	0.0140308
735.015	0.0139352
735.093	0.0138921
735.171	0.0139158
735.249	0.0137536
735.328	0.0136848
735.406	0.0137342
735.484	0.0137515
735.562	0.0137671
735.640	0.0136607
735.718	0.0136971
735.796	0.0136120
735.874	0.0135777
735.953	0.0136894
736.031	0.0135858
736.109	0.0136736
736.187	0.0136718
736.265	0.0136282
736.343	0.0136337
736.421	0.0137949
736.499	0.0137496
736.578	0.0136105
736.656	0.0136848
736.734	0.0137751
736.812	0.0138545
736.890	0.0137717
736.968	0.0136896
737.046	0.0138435
737.124	0.0139917
737.203	0.0139043
737.281	0.0140070
737.359	0.0139371
737.437	0.0140809
737.515	0.0140049
737.593	0.0140751
737.671	0.0140171
737.749	0.0139965
737.828	0.0140691
737.906	0.0140348
737.984	0.0141051
738.062	0.0140251
738.140	0.0140552
738.218	0.0140176
738.296	0.0140777
738.374	0.0139996
738.453	0.0140681
738.531	0.0140699
738.609	0.0141399
738.687	0.0140961
738.765	0.0141901
738.843	0.0141479
738.921	0.0142825
738.999	0.0141469
739.078	0.0140275
739.156	0.0140385
739.234	0.0140245
739.312	0.0139383
739.390	0.0140568
739.468	0.0139099
739.546	0.0139598
739.624	0.0138277
739.703	0.0138953
739.781	0.0139563
739.859	0.0139384
739.937	0.0137742
740.015	0.0137710
740.093	0.0139175
740.171	0.0139613
740.249	0.0139750
740.328	0.0139304
740.406	0.0138791
740.484	0.0137428
740.562	0.0138690
740.640	0.0139516
740.718	0.0137353
740.796	0.0139604
740.874	0.0138224
740.953	0.0137681
741.031	0.0138052
741.109	0.0136920
741.187	0.0136706
741.265	0.0137677
741.343	0.0137524
741.421	0.0136401
741.499	0.0139335
741.578	0.0138697
741.656	0.0137330
741.734	0.0136897
741.812	0.0138727
741.890	0.0139492
741.968	0.0139739
742.046	0.0139436
742.124	0.0138936
742.203	0.0138265
742.281	0.0137765
742.359	0.0139184
742.437	0.0138485
742.515	0.0138367
742.593	0.0138523
742.671	0.0137074
742.749	0.0138733
742.828	0.0138852
742.906	0.0138760
742.984	0.0139823
743.062	0.0139252
743.140	0.0138485
743.218	0.0139405
743.296	0.0139936
743.374	0.0139961
743.453	0.0140257
743.531	0.0140578
743.609	0.0139711
743.687	0.0140424
743.765	0.0141107
743.843	0.0140763
743.921	0.0140986
743.999	0.0140455
744.078	0.0140518
744.156	0.0140604
744.234	0.0140067
744.312	0.0140609
744.390	0.0142052
744.468	0.0139913
744.546	0.0139125
744.624	0.0140791
744.703	0.0140871
744.781	0.0140637
744.859	0.0140074
744.937	0.0140788
745.015	0.0139566
745.093	0.0138957
745.171	0.0141315
745.249	0.0142513
745.328	0.0142680
745.406	0.0141525
745.484	0.0142785
745.562	0.0142397
745.640	0.0140870
745.718	0.0141994
745.796	0.0142088
745.874	0.0142114
745.953	0.0142112
746.031	0.0141394
746.109	0.0143427
746.187	0.0142757
746.265	0.0141459
746.343	0.0142121
746.421	0.0141363
746.499	0.0140710
746.578	0.0141164
746.656	0.0140059
746.734	0.0140084
746.812	0.0140918
746.890	0.0140368
746.968	0.0138436
747.046	0.0139915
747.124	0.0140287
747.203	0.0138497
747.281	0.0137946
747.359	0.0137634
747.437	0.0137648
747.515	0.0136850
747.593	0.0136328
747.671	0.0137075
747.749	0.0136200
747.828	0.0136181
747.906	0.0136897
747.984	0.0136824
748.062	0.0136796
748.140	0.0138239
748.218	0.0137106
748.296	0.0138340
748.374	0.0137711
748.453	0.0139449
748.531	0.0139120
748.609	0.0139069
748.687	0.0139237
748.765	0.0138939
748.843	0.0139577
748.921	0.0138602
748.999	0.0138937
749.078	0.0139438
749.156	0.0138619
749.234	0.0137994
749.312	0.0138348
749.390	0.0139388
749.468	0.0137936
749.546	0.0138482
749.624	0.0136655
749.703	0.0139561
749.781	0.0137333
749.859	0.0139992
749.937	0.0139399
750.015	0.0138651
750.093	0.0138404
750.171	0.0139388
750.249	0.0139645
750.328	0.0138878
750.406	0.0138690
750.484	0.0137920
750.562	0.0137870
750.640	0.0138797
750.718	0.0139515
750.796	0.0139284
750.874	0.0137150
750.953	0.0138395
751.031	0.0138689
751.109	0.0136717
751.187	0.0135564
751.265	0.0136478
751.343	0.0136667
751.421	0.0136584
751.499	0.0136926
751.578	0.0136513
751.656	0.0136421
751.734	0.0136902
751.812	0.0137524
751.890	0.0137827
751.968	0.0136598
752.046	0.0138569
752.124	0.0137538
752.203	0.0138303
752.281	0.0139038
752.359	0.0138297
752.437	0.0139812
752.515	0.0139273
752.593	0.0138916
752.671	0.0138763
752.749	0.0138983
752.828	0.0140478
752.906	0.0139758
752.984	0.0140701
753.062	0.0140538
753.140	0.0139913
753.218	0.0141210
753.296	0.0142010
753.374	0.0141478
753.453	0.0141521
753.531	0.0143414
753.609	0.0141899
753.687	0.0141472
753.765	0.0142310
753.843	0.0142365
753.921	0.0142422
753.999	0.0142319
754.078	0.0142236
754.156	0.0140995
754.234	0.0143128
754.312	0.0141248
754.390	0.0142546
754.468	0.0141866
754.546	0.0142228
754.624	0.0141034
754.703	0.0140103
754.781	0.0141308
754.859	0.0141080
754.937	0.0141129
755.015	0.0141794
755.093	0.0141167
755.171	0.0141473
755.249	0.0140309
755.328	0.0140250
755.406	0.0139748
755.484	0.0139707
755.562	0.0139332
755.640	0.0140311
755.718	0.0139229
755.796	0.0139323
755.874	0.0140002
755.953	0.0137444
756.031	0.0139704
756.109	0.0139391
756.187	0.0138940
756.265	0.0140593
756.343	0.0138886
756.421	0.0139109
756.499	0.0140603
756.578	0.0139163
756.656	0.0138911
756.734	0.0140498
756.812	0.0142073
756.890	0.0141361
756.968	0.0140955
757.046	0.0140947
757.124	0.0141239
757.203	0.0141423
757.281	0.0142418
757.359	0.0140778
757.437	0.0140658
757.515	0.0141283
757.593	0.0141903
757.671	0.0140811
757.749	0.0141679
757.828	0.0140866
757.906	0.0141874
757.984	0.0140356
758.062	0.0140681
758.140	0.0140806
758.218	0.0139327
758.296	0.0140430
758.374	0.0138520
758.453	0.0139893
758.531	0.0138209
758.609	0.0138446
758.687	0.0137291
758.765	0.0136119
758.843	0.0137007
758.921	0.0137416
758.999	0.0137929
759.078	0.0136211
759.156	0.0137583
759.234	0.0137626
759.312	0.0136334
759.390	0.0137189
759.468	0.0136784
759.546	0.0136198
759.624	0.0137316
759.703	0.0136976
759.781	0.0137791
759.859	0.0137066
759.937	0.0137299
760.015	0.0137135
760.093	0.0137331
760.171	0.0136831
760.249	0.0136259
760.328	0.0138578
760.406	0.0138036
760.484	0.0140084
760.562	0.0139283
760.640	0.0138791
760.718	0.0139182
760.796	0.0140358
760.874	0.0141249
760.953	0.0140775
761.031	0.0139952
761.109	0.0140419
761.187	0.0142432
761.265	0.0140368
761.343	0.0140896
761.421	0.0141655
761.499	0.0141807
761.578	0.0140347
761.656	0.0140614
761.734	0.0140743
761.812	0.0140990
761.890	0.0141494
761.968	0.0140279
762.046	0.0140641
762.124	0.0140656
762.203	0.0140914
762.281	0.0140293
762.359	0.0140080
762.437	0.0139197
762.515	0.0141387
762.593	0.0139470
762.671	0.0139755
762.749	0.0138862
762.828	0.0139982
762.906	0.0138738
762.984	0.0136705
763.062	0.0137580
763.140	0.0139114
763.218	0.0138343
763.296	0.0138809
763.374	0.0139404
763.453	0.0137456
763.531	0.0138464
763.609	0.0138404
763.687	0.0140076
763.765	0.0139488
763.843	0.0139839
763.921	0.0140735
763.999	0.0139842
764.078	0.0140770
764.156	0.0140425
764.234	0.0141608
764.312	0.0141291
764.390	0.0142406
764.468	0.0141090
764.546	0.0141622
764.624	0.0142134
764.703	0.0140895
764.781	0.0140785
764.859	0.0142039
764.937	0.0141611
765.015	0.0141309
765.093	0.0140535
765.171	0.0140650
765.249	0.0140855
765.328	0.0140981
765.406	0.0142197
765.484	0.0141071
765.562	0.0142287
765.640	0.0141862
765.718	0.0139723
765.796	0.0140106
765.874	0.0141333
765.953	0.0141898
766.031	0.0140108
766.109	0.0140213
766.187	0.0138821
766.265	0.0139827
766.343	0.0140855
766.421	0.0138890
766.499	0.0139160
766.578	0.0139259
766.656	0.0139813
766.734	0.0139040
766.812	0.0138245
766.890	0.0139611
766.968	0.0140775
767.046	0.0140505
767.124	0.0140552
767.203	0.0140779
767.281	0.0140948
767.359	0.0140162
767.437	0.0139960
767.515	0.0140063
767.593	0.0140233
767.671	0.0140748
767.749	0.0139884
767.828	0.0139168
767.906	0.0140294
767.984	0.0139446
768.062	0.0139472
768.140	0.0139706
768.218	0.0140375
768.296	0.0140595
768.374	0.0140080
768.453	0.0140176
768.531	0.0140979
768.609	0.0142741
768.687	0.0141708
768.765	0.0141947
768.843	0.0141044
768.921	0.0143427
768.999	0.0143681
769.078	0.0143363
769.156	0.0143092
769.234	0.0143108
769.312	0.0143925
769.390	0.0144597
769.468	0.0143433
769.546	0.0144054
769.624	0.0142953
769.703	0.0142505
769.781	0.0142561
769.859	0.0141898
769.937	0.0143002
770.015	0.0141972
770.093	0.0141413
770.171	0.0140488
770.249	0.0141483
770.328	0.0140547
770.406	0.0140031
770.484	0.0139686
770.562	0.0140816
770.640	0.0140996
770.718	0.0141177
770.796	0.0139603
770.874	0.0140908
770.953	0.0139346
771.031	0.0139634
771.109	0.0139346
771.187	0.0138645
771.265	0.0137783
771.343	0.0137737
771.421	0.0138794
771.499	0.0136356
771.578	0.0135289
771.656	0.0135651
771.734	0.0135605
771.812	0.0136127
771.890	0.0136195
771.968	0.0134935
772.046	0.0133512
772.124	0.0135291
772.203	0.0134372
772.281	0.0134532
772.359	0.0135252
772.437	0.0134672
772.515	0.0135976
772.593	0.0136671
772.671	0.0137170
772.749	0.0135837
772.828	0.0137426
772.906	0.0137079
772.984	0.0138364
773.062	0.0137680
773.140	0.0138307
773.218	0.0139503
773.296	0.0138754
773.374	0.0138390
773.453	0.0139488
773.531	0.0140989
773.609	0.0141711
773.687	0.0140688
773.765	0.0140525
773.843	0.0143166
773.921	0.0143336
773.999	0.0142683
774.078	0.0141372
774.156	0.0141607
774.234	0.0142364
774.312	0.0141575
774.390	0.0141785
774.468	0.0140922
774.546	0.0140515
774.624	0.0141852
774.703	0.0141078
774.781	0.0140893
774.859	0.0142600
774.937	0.0141174
775.015	0.0140916
775.093	0.0141859
775.171	0.0142770
775.249	0.0142461
775.328	0.0141697
775.406	0.0140888
775.484	0.0141920
775.562	0.0142963
775.640	0.0141656
775.718	0.0140229
775.796	0.0140465
775.874	0.0141248
775.953	0.0141934
776.031	0.0142009
776.109	0.0140501
776.187	0.0141907
776.265	0.0142709
776.343	0.0140761
776.421	0.0141729
776.499	0.0140278
776.578	0.0139635
776.656	0.0141573
776.734	0.0141248
776.812	0.0139101
776.890	0.0139758
776.968	0.0139484
777.046	0.0140370
777.124	0.0140520
777.203	0.0139586
777.281	0.0138877
777.359	0.0138455
777.437	0.0138381
777.515	0.0138980
777.593	0.0137547
777.671	0.0136213
777.749	0.0138299
777.828	0.0139152
777.906	0.0138344
777.984	0.0139503
778.062	0.0139899
778.140	0.0140482
778.218	0.0141567
778.296	0.0142056
778.374	0.0141521
778.453	0.0143258
778.531	0.0143089
778.609	0.0143123
778.687	0.0144466
778.765	0.0144516
778.843	0.0143357
778.921	0.0141872
778.999	0.0143993
779.078	0.0142778
779.156	0.0142438
779.234	0.0143729
779.312	0.0142777
779.390	0.0142676
779.468	0.0142148
779.546	0.0139921
779.624	0.0140495
779.703	0.0140296
779.781	0.0140825
779.859	0.0140778
779.937	0.0139911
780.015	0.0139719
780.093	0.0139406
780.171	0.0138511
780.249	0.0139207
780.328	0.0138552
780.406	0.0138057
780.484	0.0137481
780.562	0.0138097
780.640	0.0137213
780.718	0.0135623
780.796	0.0136281
780.874	0.0137843
780.953	0.0137944
781.031	0.0138606
781.109	0.0138642
781.187	0.0140032
781.265	0.0139087
781.343	0.0139194
781.421	0.0139765
781.499	0.0140181
781.578	0.0140633
781.656	0.0140385
781.734	0.0140736
781.812	0.0139646
781.890	0.0141615
781.968	0.0140430
782.046	0.0140796
782.124	0.0140478
782.203	0.0139765
782.281	0.0142250
782.359	0.0139474
782.437	0.0140154
782.515	0.0139825
782.593	0.0140057
782.671	0.0139811
782.749	0.0140165
782.828	0.0139090
782.906	0.0138329
782.984	0.0141889
783.062	0.0141515
783.140	0.0140675
783.218	0.0140169
783.296	0.0140693
783.374	0.0140187
783.453	0.0140084
783.531	0.0140738
783.609	0.0139060
783.687	0.0139937
783.765	0.0139358
783.843	0.0140029
783.921	0.0139973
783.999	0.0140273
784.078	0.0140700
784.156	0.0140670
784.234	0.0140956
784.312	0.0141841
784.390	0.0141383
784.468	0.0141734
784.546	0.0142010
784.624	0.0142265
784.703	0.0141914
784.781	0.0143622
784.859	0.0143544
784.937	0.0142612
785.015	0.0142698
785.093	0.0141669
785.171	0.0141845
785.249	0.0143892
785.328	0.0142207
785.406	0.0143075
785.484	0.0142408
785.562	0.0143056
785.640	0.0141709
785.718	0.0141614
785.796	0.0140816
785.874	0.0139348
785.953	0.0141452
786.031	0.0140771
786.109	0.0141270
786.187	0.0141060
786.265	0.0137472
786.343	0.0139937
786.421	0.0140585
786.499	0.0139719
786.578	0.0139220
786.656	0.0139935
786.734	0.0139910
786.812	0.0141282
786.890	0.0142544
786.968	0.0142171
787.046	0.0142505
787.124	0.0141900
787.203	0.0141869
787.281	0.0142289
787.359	0.0140776
787.437	0.0140353
787.515	0.0139178
787.593	0.0141477
787.671	0.0139174
787.749	0.0138200
787.828	0.0137646
787.906	0.0137353
787.984	0.0137012
788.062	0.0137514
788.140	0.0138402
788.218	0.0138652
788.296	0.0138422
788.374	0.0137762
788.453	0.0136885
788.531	0.0135999
788.609	0.0137482
788.687	0.0136993
788.765	0.0135579
788.843	0.0135622
788.921	0.0135550
788.999	0.0134782
789.078	0.0136173
789.156	0.0135896
789.234	0.0136206
789.312	0.0135670
789.390	0.0136969
789.468	0.0137767
789.546	0.0137150
789.624	0.0136243
789.703	0.0138672
789.781	0.0138828
789.859	0.0138003
789.937	0.0139414
790.015	0.0139952
790.093	0.0139125
790.171	0.0139256
790.249	0.0138503
790.328	0.0138674
790.406	0.0139445
790.484	0.0139895
790.562	0.0138606
790.640	0.0140134
790.718	0.0140440
790.796	0.0141129
790.874	0.0141910
790.953	0.0141305
791.031	0.0141169
791.109	0.0141835
791.187	0.0142509
791.265	0.0141937
791.343	0.0141685
791.421	0.0141210
791.499	0.0141138
791.578	0.0140800
791.656	0.0140511
791.734	0.0141098
791.812	0.0140374
791.890	0.0140255
791.968	0.0140131
792.046	0.0140166
792.124	0.0138179
792.203	0.0139973
792.281	0.0138207
792.359	0.0137411
792.437	0.0139647
792.515	0.0139297
792.593	0.0138692
792.671	0.0137941
792.749	0.0139402
792.828	0.0141167
792.906	0.0141747
792.984	0.0142130
793.062	0.0143240
793.140	0.0144768
793.218	0.0145273
793.296	0.0146835
793.374	0.0145033
793.453	0.0146432
793.531	0.0144754
793.609	0.0144873
793.687	0.0145547
793.765	0.0143120
793.843	0.0141050
793.921	0.0142128
793.999	0.0141020
794.078	0.0139214
794.156	0.0138193
794.234	0.0136901
794.312	0.0139485
794.390	0.0139129
794.468	0.0139035
794.546	0.0139095
794.624	0.0140218
794.703	0.0139962
794.781	0.0139349
794.859	0.0141763
794.937	0.0140434
795.015	0.0141644
795.093	0.0140295
795.171	0.0140659
795.249	0.0140719
795.328	0.0140791
795.406	0.0141162
795.484	0.0138519
795.562	0.0138522
795.640	0.0139200
795.718	0.0139525
795.796	0.0140973
795.874	0.0140202
795.953	0.0140740
796.031	0.0143375
796.109	0.0143435
796.187	0.0142968
796.265	0.0142914
796.343	0.0143148
796.421	0.0143722
796.499	0.0141604
796.578	0.0142567
796.656	0.0141957
796.734	0.0140836
796.812	0.0139751
796.890	0.0140181
796.968	0.0139528
797.046	0.0139840
797.124	0.0138633
797.203	0.0139433
797.281	0.0137349
797.359	0.0138777
797.437	0.0138294
797.515	0.0139149
797.593	0.0139645
797.671	0.0138788
797.749	0.0138691
797.828	0.0137494
797.906	0.0138733
797.984	0.0139045
798.062	0.0138328
798.140	0.0139318
798.218	0.0139350
798.296	0.0138788
798.374	0.0138607
798.453	0.0139192
798.531	0.0140405
798.609	0.0139219
798.687	0.0139225
798.765	0.0140919
798.843	0.0139510
798.921	0.0141206
798.999	0.0140759
799.078	0.0139572
799.156	0.0141885
799.234	0.0140836
799.312	0.0140202
799.390	0.0138935
799.468	0.0138986
799.546	0.0140077
799.624	0.0139777
799.703	0.0139616
799.781	0.0138972
799.859	0.0139181
799.937	0.0138568
800.015	0.0139299
800.093	0.0139443
800.171	0.0138769
800.249	0.0137798
800.328	0.0138488
800.406	0.0140426
800.484	0.0139162
800.562	0.0139247
800.640	0.0140102
800.718	0.0139187
800.796	0.0138463
800.874	0.0137557
800.953	0.0136002
801.031	0.0137346
801.109	0.0137389
801.187	0.0136478
801.265	0.0136668
801.343	0.0135944
801.421	0.0137041
801.499	0.0136672
801.578	0.0137254
801.656	0.0137866
801.734	0.0139755
801.812	0.0139572
801.890	0.0138563
801.968	0.0139256
802.046	0.0141080
802.124	0.0140203
802.203	0.0140244
802.281	0.0140976
802.359	0.0140881
802.437	0.0140991
802.515	0.0139932
802.593	0.0138853
802.671	0.0139548
802.749	0.0142192
802.828	0.0143070
802.906	0.0140199
802.984	0.0140651
803.062	0.0139957
803.140	0.0140523
803.218	0.0141203
803.296	0.0140385
803.374	0.0142265
803.453	0.0140721
803.531	0.0140713
803.609	0.0139841
803.687	0.0141346
803.765	0.0140659
803.843	0.0140170
803.921	0.0140425
803.999	0.0141738
804.078	0.0139999
804.156	0.0139016
804.234	0.0139932
804.312	0.0140020
804.390	0.0139197
804.468	0.0138192
804.546	0.0138539
804.624	0.0138613
804.703	0.0138451
804.781	0.0139263
804.859	0.0139724
804.937	0.0140448
805.015	0.0142104
805.093	0.0142723
805.171	0.0142630
805.249	0.0142561
805.328	0.0142515
805.406	0.0142451
805.484	0.0142381
805.562	0.0143493
805.640	0.0142397
805.718	0.0141899
805.796	0.0141566
805.874	0.0140784
805.953	0.0140837
806.031	0.0138001
806.109	0.0138070
806.187	0.0136922
806.265	0.0134862
806.343	0.0133532
806.421	0.0134287
806.499	0.0135288
806.578	0.0133638
806.656	0.0134225
806.734	0.0133602
806.812	0.0132815
806.890	0.0133391
806.968	0.0135857
807.046	0.0136320
807.124	0.0138042
807.203	0.0138309
807.281	0.0136368
807.359	0.0138765
807.437	0.0138080
807.515	0.0140865
807.593	0.0141698
807.671	0.0141029
807.749	0.0141221
807.828	0.0142793
807.906	0.0143604
807.984	0.0143476
808.062	0.0143792
808.140	0.0142729
808.218	0.0142771
808.296	0.0143459
808.374	0.0143224
808.453	0.0143247
808.531	0.0142935
808.609	0.0142326
808.687	0.0140857
808.765	0.0142130
808.843	0.0141473
808.921	0.0140447
808.999	0.0140415
809.078	0.0139217
809.156	0.0139851
809.234	0.0139239
809.312	0.0137716
809.390	0.0138023
809.468	0.0136750
809.546	0.0137421
809.624	0.0137344
809.703	0.0136393
809.781	0.0136988
809.859	0.0136990
809.937	0.0136648
810.015	0.0137722
810.093	0.0137415
810.171	0.0139147
810.249	0.0138478
810.328	0.0139162
810.406	0.0139486
810.484	0.0140189
810.562	0.0141448
810.640	0.0142446
810.718	0.0143544
810.796	0.0143569
810.874	0.0143997
810.953	0.0145208
811.031	0.0143414
811.109	0.0142287
811.187	0.0142740
811.265	0.0142710
811.343	0.0141588
811.421	0.0140971
811.499	0.0139928
811.578	0.0140335
811.656	0.0136665
811.734	0.0137017
811.812	0.0136166
811.890	0.0135870
811.968	0.0134904
812.046	0.0134105
812.124	0.0136106
812.203	0.0135185
812.281	0.0136438
812.359	0.0136329
812.437	0.0136926
812.515	0.0137095
812.593	0.0137648
812.671	0.0140170
812.749	0.0140067
812.828	0.0140453
812.906	0.0139890
812.984	0.0139107
813.062	0.0139780
813.140	0.0140479
813.218	0.0139705
813.296	0.0139996
813.374	0.0139882
813.453	0.0139225
813.531	0.0138989
813.609	0.0138897
813.687	0.0139316
813.765	0.0138242
813.843	0.0137066
813.921	0.0138320
813.999	0.0138847
814.078	0.0138152
814.156	0.0138484
814.234	0.0138319
814.312	0.0137618
814.390	0.0138805
814.468	0.0138603
814.546	0.0138152
814.624	0.0137444
814.703	0.0138490
814.781	0.0136948
814.859	0.0135747
814.937	0.0137598
815.015	0.0135657
815.093	0.0136904
815.171	0.0137875
815.249	0.0136610
815.328	0.0136063
815.406	0.0137788
815.484	0.0137991
815.562	0.0137827
815.640	0.0138529
815.718	0.0138535
815.796	0.0138647
815.874	0.0138361
815.953	0.0138308
816.031	0.0140651
816.109	0.0139851
816.187	0.0140173
816.265	0.0140874
816.343	0.0141137
816.421	0.0143350
816.499	0.0143500
816.578	0.0141578
816.656	0.0142003
816.734	0.0143231
816.812	0.0143091
816.890	0.0145576
816.968	0.0143608
817.046	0.0143677
817.124	0.0142467
817.203	0.0142379
817.281	0.0142011
817.359	0.0141283
817.437	0.0141718
817.515	0.0141923
817.593	0.0140385
817.671	0.0137874
817.749	0.0139930
817.828	0.0140997
817.906	0.0140131
817.984	0.0139725
818.062	0.0140672
818.140	0.0142511
818.218	0.0142581
818.296	0.0142278
818.374	0.0144575
818.453	0.0142722
818.531	0.0143346
818.609	0.0143417
818.687	0.0141811
818.765	0.0143976
818.843	0.0142461
818.921	0.0141933
818.999	0.0140896
819.078	0.0141296
819.156	0.0140484
819.234	0.0139135
819.312	0.0137826
819.390	0.0138610
819.468	0.0139867
819.546	0.0139556
819.624	0.0138784
819.703	0.0140324
819.781	0.0138887
819.859	0.0139642
819.937	0.0138988
820.015	0.0138990
820.093	0.0138985
820.171	0.0137936
820.249	0.0137662
820.328	0.0136461
820.406	0.0137817
820.484	0.0136969
820.562	0.0134798
820.640	0.0135862
820.718	0.0135654
820.796	0.0135117
820.874	0.0134602
820.953	0.0135452
821.031	0.0135278
821.109	0.0135467
821.187	0.0136496
821.265	0.0136842
821.343	0.0136465
821.421	0.0137537
821.499	0.0138197
821.578	0.0138114
821.656	0.0138625
821.734	0.0139595
821.812	0.0139857
821.890	0.0140119
821.968	0.0139970
822.046	0.0139610
822.124	0.0139852
822.203	0.0139890
822.281	0.0140604
822.359	0.0140694
822.437	0.0141275
822.515	0.0139314
822.593	0.0138895
822.671	0.0139709
822.749	0.0140319
822.828	0.0140353
822.906	0.0140294
822.984	0.0139208
823.062	0.0139028
823.140	0.0139817
823.218	0.0139449
823.296	0.0140769
823.374	0.0140660
823.453	0.0140572
823.531	0.0140568
823.609	0.0142889
823.687	0.0142333
823.765	0.0142509
823.843	0.0140710
823.921	0.0140562
823.999	0.0142326
824.078	0.0141964
824.156	0.0141373
824.234	0.0140076
824.312	0.0142245
824.390	0.0141073
824.468	0.0140337
824.546	0.0140611
824.624	0.0139723
824.703	0.0141353
824.781	0.0142312
824.859	0.0140076
824.937	0.0140266
825.015	0.0139960
825.093	0.0141553
825.171	0.0141293
825.249	0.0139006
825.328	0.0138993
825.406	0.0139504
825.484	0.0140427
825.562	0.0139011
825.640	0.0139577
825.718	0.0138717
825.796	0.0137449
825.874	0.0137956
825.953	0.0136712
826.031	0.0136427
826.109	0.0136588
826.187	0.0139569
826.265	0.0139072
826.343	0.0139053
826.421	0.0138186
826.499	0.0138381
826.578	0.0139912
826.656	0.0139204
826.734	0.0139298
826.812	0.0140574
826.890	0.0139378
826.968	0.0139820
827.046	0.0141087
827.124	0.0141013
827.203	0.0140620
827.281	0.0139552
827.359	0.0140916
827.437	0.0139778
827.515	0.0139051
827.593	0.0140723
827.671	0.0141915
827.749	0.0140093
827.828	0.0139970
827.906	0.0140530
827.984	0.0142296
828.062	0.0139304
828.140	0.0139463
828.218	0.0140342
828.296	0.0140434
828.374	0.0141069
828.453	0.0141861
828.531	0.0140721
828.609	0.0140401
828.687	0.0139827
828.765	0.0138474
828.843	0.0139387
828.921	0.0140418
828.999	0.0140505
829.078	0.0138902
829.156	0.0139432
829.234	0.0139563
829.312	0.0139632
829.390	0.0137717
829.468	0.0138651
829.546	0.0140483
829.624	0.0140430
829.703	0.0138559
829.781	0.0137993
829.859	0.0139785
829.937	0.0138602
830.015	0.0140968
830.093	0.0140817
830.171	0.0140527
830.249	0.0140263
830.328	0.0140179
830.406	0.0141786
830.484	0.0139915
830.562	0.0141051
830.640	0.0139716
830.718	0.0139843
830.796	0.0141319
830.874	0.0140404
830.953	0.0140355
831.031	0.0141917
831.109	0.0140391
831.187	0.0140354
831.265	0.0141045
831.343	0.0140978
831.421	0.0139474
831.499	0.0140912
831.578	0.0139819
831.656	0.0140886
831.734	0.0139262
831.812	0.0140422
831.890	0.0139733
831.968	0.0139117
832.046	0.0140032
832.124	0.0138947
832.203	0.0140427
832.281	0.0140939
832.359	0.0139131
832.437	0.0138355
832.515	0.0137266
832.593	0.0138092
832.671	0.0139488
832.749	0.0138414
832.828	0.0137615
832.906	0.0138049
832.984	0.0137934
833.062	0.0138754
833.140	0.0137722
833.218	0.0138212
833.296	0.0137489
833.374	0.0137978
833.453	0.0138295
833.531	0.0139097
833.609	0.0138161
833.687	0.0138410
833.765	0.0139859
833.843	0.0138780
833.921	0.0139484
833.999	0.0139876
834.078	0.0139854
834.156	0.0139952
834.234	0.0139548
834.312	0.0139989
834.390	0.0138158
834.468	0.0139212
834.546	0.0137593
834.624	0.0139484
834.703	0.0138407
834.781	0.0139105
834.859	0.0138609
834.937	0.0138956
835.015	0.0139516
835.093	0.0139805
835.171	0.0138692
835.249	0.0140152
835.328	0.0139651
835.406	0.0139589
835.484	0.0139176
835.562	0.0139964
835.640	0.0140623
835.718	0.0140228
835.796	0.0139339
835.874	0.0139247
835.953	0.0139332
836.031	0.0138274
836.109	0.0140308
836.187	0.0141051
836.265	0.0139027
836.343	0.0139102
836.421	0.0139404
836.499	0.0140604
836.578	0.0139197
836.656	0.0138767
836.734	0.0138940
836.812	0.0138972
836.890	0.0139551
836.968	0.0139633
837.046	0.0139034
837.124	0.0138132
837.203	0.0138371
837.281	0.0138098
837.359	0.0138148
837.437	0.0137603
837.515	0.0137922
837.593	0.0138252
837.671	0.0137991
837.749	0.0137534
837.828	0.0138180
837.906	0.0137205
837.984	0.0137163
838.062	0.0136841
838.140	0.0138091
838.218	0.0138271
838.296	0.0138668
838.374	0.0137741
838.453	0.0138079
838.531	0.0137386
838.609	0.0138340
838.687	0.0137653
838.765	0.0138147
838.843	0.0139122
838.921	0.0138863
838.999	0.0138991
839.078	0.0139232
839.156	0.0138819
839.234	0.0139025
839.312	0.0138332
839.390	0.0139841
839.468	0.0140206
839.546	0.0138840
839.624	0.0139735
839.703	0.0139645
839.781	0.0140067
839.859	0.0139835
839.937	0.0139526
840.015	0.0138248
840.093	0.0140540
840.171	0.0138921
840.249	0.0139948
840.328	0.0138964
840.406	0.0139262
840.484	0.0140730
840.562	0.0139006
840.640	0.0139985
840.718	0.0139886
840.796	0.0142342
840.874	0.0141157
840.953	0.0140833
841.031	0.0139977
841.109	0.0140009
841.187	0.0140047
841.265	0.0139347
841.343	0.0141173
841.421	0.0140601
841.499	0.0141406
841.578	0.0141053
841.656	0.0141101
841.734	0.0140906
841.812	0.0141669
841.890	0.0141363
841.968	0.0140833
842.046	0.0140231
842.124	0.0140461
842.203	0.0138977
842.281	0.0140363
842.359	0.0140031
842.437	0.0140065
842.515	0.0140067
842.593	0.0139738
842.671	0.0139339
842.749	0.0140010
842.828	0.0139733
842.906	0.0139133
842.984	0.0140348
843.062	0.0140009
843.140	0.0140218
843.218	0.0141763
843.296	0.0140781
843.374	0.0142013
843.453	0.0140205
843.531	0.0140034
843.609	0.0141094
843.687	0.0140748
843.765	0.0141627
843.843	0.0140855
843.921	0.0142226
843.999	0.0141199
844.078	0.0141414
844.156	0.0140139
844.234	0.0140412
844.312	0.0140874
844.390	0.0141010
844.468	0.0142175
844.546	0.0140474
844.624	0.0140923
844.703	0.0141041
844.781	0.0140399
844.859	0.0139568
844.937	0.0138532
845.015	0.0140250
845.093	0.0138094
845.171	0.0138411
845.249	0.0139251
845.328	0.0136959
845.406	0.0137161
845.484	0.0137225
845.562	0.0136556
845.640	0.0137556
845.718	0.0135937
845.796	0.0137386
845.874	0.0136990
845.953	0.0135948
846.031	0.0136568
846.109	0.0135535
846.187	0.0135659
846.265	0.0135832
846.343	0.0136513
846.421	0.0137077
846.499	0.0136782
846.578	0.0136858
846.656	0.0136353
846.734	0.0137242
846.812	0.0138387
846.890	0.0138065
846.968	0.0137293
847.046	0.0138730
847.124	0.0138717
847.203	0.0137493
847.281	0.0138613
847.359	0.0141198
847.437	0.0138950
847.515	0.0139125
847.593	0.0140434
847.671	0.0140614
847.749	0.0141600
847.828	0.0141190
847.906	0.0141952
847.984	0.0142792
848.062	0.0143118
848.140	0.0144041
848.218	0.0144534
848.296	0.0144806
848.374	0.0145809
848.453	0.0146059
848.531	0.0146225
848.609	0.0145414
848.687	0.0143797
848.765	0.0143264
848.843	0.0144535
848.921	0.0144473
848.999	0.0143898
849.078	0.0143797
849.156	0.0142574
849.234	0.0142022
849.312	0.0143279
849.390	0.0142073
849.468	0.0141284
849.546	0.0140620
849.624	0.0140694
849.703	0.0140541
849.781	0.0141019
849.859	0.0139659
849.937	0.0137970
850.015	0.0138548
850.093	0.0138839
850.171	0.0138428
850.249	0.0138588
850.328	0.0139846
850.406	0.0138022
850.484	0.0136881
850.562	0.0137331
850.640	0.0138660
850.718	0.0137696
850.796	0.0138193
850.874	0.0138600
850.953	0.0140292
851.031	0.0138746
851.109	0.0138844
851.187	0.0138687
851.265	0.0139643
851.343	0.0139747
851.421	0.0139861
851.499	0.0138903
851.578	0.0140028
851.656	0.0141246
851.734	0.0140054
851.812	0.0140367
851.890	0.0141010
851.968	0.0140810
852.046	0.0140350
852.124	0.0141187
852.203	0.0139955
852.281	0.0140038
852.359	0.0140575
852.437	0.0140764
852.515	0.0140122
852.593	0.0141596
852.671	0.0140170
852.749	0.0140233
852.828	0.0140839
852.906	0.0141663
852.984	0.0139847
853.062	0.0141045
853.140	0.0139978
853.218	0.0139475
853.296	0.0140993
853.374	0.0140148
853.453	0.0139548
853.531	0.0140631
853.609	0.0141275
853.687	0.0141319
853.765	0.0140051
853.843	0.0140015
853.921	0.0139989
853.999	0.0138152
854.078	0.0138923
854.156	0.0139964
854.234	0.0139069
854.312	0.0139124
854.390	0.0137921
854.468	0.0138546
854.546	0.0138165
854.624	0.0137978
854.703	0.0138600
854.781	0.0139095
854.859	0.0138758
854.937	0.0140379
855.015	0.0139359
855.093	0.0139022
855.171	0.0141574
855.249	0.0140866
855.328	0.0141893
855.406	0.0141736
855.484	0.0140394
855.562	0.0142077
855.640	0.0141285
855.718	0.0141866
855.796	0.0140827
855.874	0.0139611
855.953	0.0141521
856.031	0.0141824
856.109	0.0142182
856.187	0.0141574
856.265	0.0141390
856.343	0.0140919
856.421	0.0140454
856.499	0.0141490
856.578	0.0141166
856.656	0.0141965
856.734	0.0141401
856.812	0.0141737
856.890	0.0142149
856.968	0.0141911
857.046	0.0140637
857.124	0.0139988
857.203	0.0141030
857.281	0.0141499
857.359	0.0140194
857.437	0.0138381
857.515	0.0139714
857.593	0.0139095
857.671	0.0138294
857.749	0.0139904
857.828	0.0139240
857.906	0.0139779
857.984	0.0138489
858.062	0.0139522
858.140	0.0140105
858.218	0.0140402
858.296	0.0140545
858.374	0.0140501
858.453	0.0140172
858.531	0.0140244
858.609	0.0139201
858.687	0.0139148
858.765	0.0140287
858.843	0.0142517
858.921	0.0140585
858.999	0.0141576
859.078	0.0143233
859.156	0.0143146
859.234	0.0140826
859.312	0.0141360
859.390	0.0143788
859.468	0.0142783
859.546	0.0142631
859.624	0.0142046
859.703	0.0144632
859.781	0.0142439
859.859	0.0143560
859.937	0.0142461
860.015	0.0141029
860.093	0.0142947
860.171	0.0141301
860.249	0.0141037
860.328	0.0141895
860.406	0.0140438
860.484	0.0140369
860.562	0.0141316
860.640	0.0141239
860.718	0.0140031
860.796	0.0139541
860.874	0.0139960
860.953	0.0140469
861.031	0.0139478
861.109	0.0139313
861.187	0.0139580
861.265	0.0138517
861.343	0.0138757
861.421	0.0138849
861.499	0.0139271
861.578	0.0139365
861.656	0.0139030
861.734	0.0139177
861.812	0.0139101
861.890	0.0138559
861.968	0.0138312
862.046	0.0137406
862.124	0.0138612
862.203	0.0139027
862.281	0.0139519
862.359	0.0139202
862.437	0.0137865
862.515	0.0139336
862.593	0.0139164
862.671	0.0137529
862.749	0.0137965
862.828	0.0137733
862.906	0.0137570
862.984	0.0136426
863.062	0.0137211
863.140	0.0138327
863.218	0.0137318
863.296	0.0136622
863.374	0.0137968
863.453	0.0137823
863.531	0.0137878
863.609	0.0138480
863.687	0.0136750
863.765	0.0137444
863.843	0.0139368
863.921	0.0139085
863.999	0.0138950
864.078	0.0140099
864.156	0.0139719
864.234	0.0138334
864.312	0.0137707
864.390	0.0139442
864.468	0.0139397
864.546	0.0139997
864.624	0.0140952
864.703	0.0140266
864.781	0.0140672
864.859	0.0141325
864.937	0.0140289
865.015	0.0141327
865.093	0.0140531
865.171	0.0140584
865.249	0.0140198
865.328	0.0139583
865.406	0.0139859
865.484	0.0139693
865.562	0.0139153
865.640	0.0138128
865.718	0.0138665
865.796	0.0138839
865.874	0.0138481
865.953	0.0137731
866.031	0.0138995
866.109	0.0139363
866.187	0.0139250
866.265	0.0140300
866.343	0.0138528
866.421	0.0139101
866.499	0.0138783
866.578	0.0137840
866.656	0.0139729
866.734	0.0138322
866.812	0.0140748
866.890	0.0138855
866.968	0.0138524
867.046	0.0138492
867.124	0.0138036
867.203	0.0139259
867.281	0.0139304
867.359	0.0139252
867.437	0.0140288
867.515	0.0138553
867.593	0.0139626
867.671	0.0140015
867.749	0.0138892
867.828	0.0139573
867.906	0.0140410
867.984	0.0139114
868.062	0.0139769
868.140	0.0141411
868.218	0.0140524
868.296	0.0138837
868.374	0.0138985
868.453	0.0139944
868.531	0.0140260
868.609	0.0140192
868.687	0.0140878
868.765	0.0139594
868.843	0.0140154
868.921	0.0140124
868.999	0.0140349
869.078	0.0140697
869.156	0.0139687
869.234	0.0139498
869.312	0.0140589
869.390	0.0139443
869.468	0.0138177
869.546	0.0139662
869.624	0.0139171
869.703	0.0138885
869.781	0.0139671
869.859	0.0140749
869.937	0.0138427
870.015	0.0137267
870.093	0.0140692
870.171	0.0139893
870.249	0.0139187
870.328	0.0139708
870.406	0.0137827
870.484	0.0140180
870.562	0.0140715
870.640	0.0139353
870.718	0.0139179
870.796	0.0139277
870.874	0.0140076
870.953	0.0139675
871.031	0.0139198
871.109	0.0139414
871.187	0.0140311
871.265	0.0140659
871.343	0.0142128
871.421	0.0141406
871.499	0.0140514
871.578	0.0141250
871.656	0.0141792
871.734	0.0140577
871.812	0.0142569
871.890	0.0141182
871.968	0.0141009
872.046	0.0142226
872.124	0.0142391
872.203	0.0143191
872.281	0.0142479
872.359	0.0143639
872.437	0.0141494
872.515	0.0143217
872.593	0.0142860
872.671	0.0142648
872.749	0.0142193
872.828	0.0142436
872.906	0.0141930
872.984	0.0142550
873.062	0.0142270
873.140	0.0142857
873.218	0.0143121
873.296	0.0142085
873.374	0.0141783
873.453	0.0142060
873.531	0.0141811
873.609	0.0142326
873.687	0.0142483
873.765	0.0140917
873.843	0.0141174
873.921	0.0141652
873.999	0.0141090
874.078	0.0139433
874.156	0.0139877
874.234	0.0140220
874.312	0.0140124
874.390	0.0140026
874.468	0.0139463
874.546	0.0139566
874.624	0.0139825
874.703	0.0138697
874.781	0.0139143
874.859	0.0139609
874.937	0.0138346
875.015	0.0138540
875.093	0.0138349
875.171	0.0139236
875.249	0.0138921
875.328	0.0138210
875.406	0.0139587
875.484	0.0139101
875.562	0.0136951
875.640	0.0138757
875.718	0.0139861
875.796	0.0139468
875.874	0.0138747
875.953	0.0137988
876.031	0.0139174
876.109	0.0138514
876.187	0.0140102
876.265	0.0139934
876.343	0.0139955
876.421	0.0139513
876.499	0.0139327
876.578	0.0139848
876.656	0.0139400
876.734	0.0139127
876.812	0.0139674
876.890	0.0140386
876.968	0.0139730
877.046	0.0139626
877.124	0.0141162
877.203	0.0139803
877.281	0.0138317
877.359	0.0139597
877.437	0.0140251
877.515	0.0138735
877.593	0.0139671
877.671	0.0139896
877.749	0.0139112
877.828	0.0138774
877.906	0.0138835
877.984	0.0139572
878.062	0.0138715
878.140	0.0139707
878.218	0.0140672
878.296	0.0138306
878.374	0.0139418
878.453	0.0138865
878.531	0.0139809
878.609	0.0138630
878.687	0.0139127
878.765	0.0139695
878.843	0.0139298
878.921	0.0137789
878.999	0.0138850
879.078	0.0139886
879.156	0.0138829
879.234	0.0138857
879.312	0.0139585
879.390	0.0139427
879.468	0.0139368
879.546	0.0140410
879.624	0.0140988
879.703	0.0140387
879.781	0.0141709
879.859	0.0141605
879.937	0.0141336
880.015	0.0141452
880.093	0.0141705
880.171	0.0141808
880.249	0.0141629
880.328	0.0142049
880.406	0.0140419
880.484	0.0140722
880.562	0.0141588
880.640	0.0142393
880.718	0.0140901
880.796	0.0141176
880.874	0.0140430
880.953	0.0140280
881.031	0.0141224
881.109	0.0141815
881.187	0.0139932
881.265	0.0141334
881.343	0.0142042
881.421	0.0141705
881.499	0.0141618
881.578	0.0141000
881.656	0.0141637
881.734	0.0140337
881.812	0.0141160
881.890	0.0141343
881.968	0.0140661
882.046	0.0139565
882.124	0.0139632
882.203	0.0141030
882.281	0.0140774
882.359	0.0140129
882.437	0.0138665
882.515	0.0137997
882.593	0.0138109
882.671	0.0139921
882.749	0.0138047
882.828	0.0139770
882.906	0.0138924
882.984	0.0138990
883.062	0.0139363
883.140	0.0140816
883.218	0.0139325
883.296	0.0140212
883.374	0.0140079
883.453	0.0140868
883.531	0.0138969
883.609	0.0139885
883.687	0.0140422
883.765	0.0140691
883.843	0.0140305
883.921	0.0138808
883.999	0.0140788
884.078	0.0140556
884.156	0.0140794
884.234	0.0141417
884.312	0.0139363
884.390	0.0141231
884.468	0.0140013
884.546	0.0141633
884.624	0.0139856
884.703	0.0138470
884.781	0.0140022
884.859	0.0139281
884.937	0.0140012
885.015	0.0140080
885.093	0.0139446
885.171	0.0140642
885.249	0.0140299
885.328	0.0140649
885.406	0.0139846
885.484	0.0140289
885.562	0.0138136
885.640	0.0139081
885.718	0.0138917
885.796	0.0139575
885.874	0.0140308
885.953	0.0139336
886.031	0.0139784
886.109	0.0139159
886.187	0.0139716
886.265	0.0140190
886.343	0.0139471
886.421	0.0140117
886.499	0.0139644
886.578	0.0140840
886.656	0.0140430
886.734	0.0141471
886.812	0.0141131
886.890	0.0140720
886.968	0.0141850
887.046	0.0142050
887.124	0.0142054
887.203	0.0142200
887.281	0.0140907
887.359	0.0140955
887.437	0.0141434
887.515	0.0140919
887.593	0.0141163
887.671	0.0141779
887.749	0.0139803
887.828	0.0139719
887.906	0.0138643
887.984	0.0138398
888.062	0.0140090
888.140	0.0139251
888.218	0.0138126
888.296	0.0139073
888.374	0.0138649
888.453	0.0137302
888.531	0.0138968
888.609	0.0137563
888.687	0.0136901
888.765	0.0137889
888.843	0.0138278
888.921	0.0136323
888.999	0.0137752
889.078	0.0136790
889.156	0.0136292
889.234	0.0136459
889.312	0.0136525
889.390	0.0136742
889.468	0.0138276
889.546	0.0136630
889.624	0.0136014
889.703	0.0137222
889.781	0.0136866
889.859	0.0135899
889.937	0.0136959
890.015	0.0137161
890.093	0.0137606
890.171	0.0137341
890.249	0.0137816
890.328	0.0137807
890.406	0.0138386
890.484	0.0137931
890.562	0.0138599
890.640	0.0138182
890.718	0.0139070
890.796	0.0138364
890.874	0.0138859
890.953	0.0138036
891.031	0.0138860
891.109	0.0139103
891.187	0.0138660
891.265	0.0138725
891.343	0.0138384
891.421	0.0137459
891.499	0.0137474
891.578	0.0139174
891.656	0.0138033
891.734	0.0138556
891.812	0.0137961
891.890	0.0140031
891.968	0.0139475
892.046	0.0138451
892.124	0.0139006
892.203	0.0138946
892.281	0.0140031
892.359	0.0139694
892.437	0.0139003
892.515	0.0139404
892.593	0.0138692
892.671	0.0139288
892.749	0.0140576
892.828	0.0139311
892.906	0.0139462
892.984	0.0139126
893.062	0.0138992
893.140	0.0138596
893.218	0.0139268
893.296	0.0139119
893.374	0.0137830
893.453	0.0138704
893.531	0.0138161
893.609	0.0139191
893.687	0.0138439
893.765	0.0139090
893.843	0.0138354
893.921	0.0139278
893.999	0.0139902
894.078	0.0139318
894.156	0.0138874
894.234	0.0139871
894.312	0.0137536
894.390	0.0139117
894.468	0.0139404
894.546	0.0138933
894.624	0.0139908
894.703	0.0139877
894.781	0.0138785
894.859	0.0138361
894.937	0.0139267
895.015	0.0138689
895.093	0.0137839
895.171	0.0138369
895.249	0.0139582
895.328	0.0137719
895.406	0.0138708
895.484	0.0138390
895.562	0.0139548
895.640	0.0138684
895.718	0.0138959
895.796	0.0139508
895.874	0.0138929
895.953	0.0140235
896.031	0.0137802
896.109	0.0139516
896.187	0.0141307
896.265	0.0139124
896.343	0.0139685
896.421	0.0139179
896.499	0.0140184
896.578	0.0138668
896.656	0.0140151
896.734	0.0139996
896.812	0.0140916
896.890	0.0140296
896.968	0.0142391
897.046	0.0140997
897.124	0.0141220
897.203	0.0141508
897.281	0.0140907
897.359	0.0140137
897.437	0.0140761
897.515	0.0142232
897.593	0.0141790
897.671	0.0141597
897.749	0.0141257
897.828	0.0140771
897.906	0.0140549
897.984	0.0142400
898.062	0.0141553
898.140	0.0140100
898.218	0.0140291
898.296	0.0141909
898.374	0.0140941
898.453	0.0140157
898.531	0.0139030
898.609	0.0140915
898.687	0.0140594
898.765	0.0140435
898.843	0.0140620
898.921	0.0140107
898.999	0.0139391
899.078	0.0138259
899.156	0.0137270
899.234	0.0136342
899.312	0.0139050
899.390	0.0139693
899.468	0.0138322
899.546	0.0139191
899.624	0.0139249
899.703	0.0139581
899.781	0.0138121
899.859	0.0139420
899.937	0.0140916
900.015	0.0139735
900.093	0.0140456
900.171	0.0140002
900.249	0.0139272
900.328	0.0139919
900.406	0.0139624
900.484	0.0140670
900.562	0.0141490
900.640	0.0139799
900.718	0.0139975
900.796	0.0139811
900.874	0.0139565
900.953	0.0139585
901.031	0.0140369
901.109	0.0138953
901.187	0.0139156
901.265	0.0140077
901.343	0.0140070
901.421	0.0140587
901.499	0.0140471
901.578	0.0141522
901.656	0.0140274
901.734	0.0140863
901.812	0.0141061
901.890	0.0140372
901.968	0.0138776
902.046	0.0140604
902.124	0.0141516
902.203	0.0140482
902.281	0.0140136
902.359	0.0139168
902.437	0.0139455
902.515	0.0139539
902.593	0.0138618
902.671	0.0140180
902.749	0.0139397
902.828	0.0138173
902.906	0.0140009
902.984	0.0140784
903.062	0.0139392
903.140	0.0139120
903.218	0.0137998
903.296	0.0140043
903.374	0.0139046
903.453	0.0140856
903.531	0.0137923
903.609	0.0138849
903.687	0.0138577
903.765	0.0139864
903.843	0.0140625
903.921	0.0139988
903.999	0.0138842
904.078	0.0139903
904.156	0.0139446
904.234	0.0138990
904.312	0.0140312
904.390	0.0140505
904.468	0.0138988
904.546	0.0140358
904.624	0.0139169
904.703	0.0140023
904.781	0.0139083
904.859	0.0139430
904.937	0.0138960
905.015	0.0140575
905.093	0.0140505
905.171	0.0139661
905.249	0.0140153
905.328	0.0141939
905.406	0.0141127
905.484	0.0140968
905.562	0.0141918
905.640	0.0139488
905.718	0.0139822
905.796	0.0140460
905.874	0.0141907
905.953	0.0141661
906.031	0.0140377
906.109	0.0140105
906.187	0.0139989
906.265	0.0141039
906.343	0.0140717
906.421	0.0140025
906.499	0.0139787
906.578	0.0139466
906.656	0.0141782
906.734	0.0141480
906.812	0.0141962
906.890	0.0139855
906.968	0.0141178
907.046	0.0140608
907.124	0.0141245
907.203	0.0139539
907.281	0.0141085
907.359	0.0139735
907.437	0.0139902
907.515	0.0139976
907.593	0.0138571
907.671	0.0139790
907.749	0.0139773
907.828	0.0140595
907.906	0.0140435
907.984	0.0139193
908.062	0.0139755
908.140	0.0139569
908.218	0.0139189
908.296	0.0138973
908.374	0.0139422
908.453	0.0139492
908.531	0.0139766
908.609	0.0139114
908.687	0.0138937
908.765	0.0140131
908.843	0.0139486
908.921	0.0139050
908.999	0.0139789
909.078	0.0139423
909.156	0.0140061
909.234	0.0139872
909.312	0.0140511
909.390	0.0139044
909.468	0.0140453
909.546	0.0139423
909.624	0.0138815
909.703	0.0139759
909.781	0.0139218
909.859	0.0139177
909.937	0.0138560
910.015	0.0138849
910.093	0.0139751
910.171	0.0139063
910.249	0.0140172
910.328	0.0138299
910.406	0.0139939
910.484	0.0139366
910.562	0.0140247
910.640	0.0139333
910.718	0.0140065
910.796	0.0141293
910.874	0.0140650
910.953	0.0139179
911.031	0.0140412
911.109	0.0140445
911.187	0.0140630
911.265	0.0140298
911.343	0.0140299
911.421	0.0139500
911.499	0.0139474
911.578	0.0140445
911.656	0.0139700
911.734	0.0141302
911.812	0.0139569
911.890	0.0138644
911.968	0.0140395
912.046	0.0139753
912.124	0.0140012
912.203	0.0140429
912.281	0.0138517
912.359	0.0138765
912.437	0.0139693
912.515	0.0139684
912.593	0.0137651
912.671	0.0139198
912.749	0.0139294
912.828	0.0138840
912.906	0.0139409
912.984	0.0138049
913.062	0.0138314
913.140	0.0139555
913.218	0.0140311
913.296	0.0138023
913.374	0.0137570
913.453	0.0139360
913.531	0.0138300
913.609	0.0138503
913.687	0.0138486
913.765	0.0138909
913.843	0.0139330
913.921	0.0137959
913.999	0.0138635
914.078	0.0140498
914.156	0.0139684
914.234	0.0140527
914.312	0.0140426
914.390	0.0139445
914.468	0.0140595
914.546	0.0139044
914.624	0.0140369
914.703	0.0140176
914.781	0.0140434
914.859	0.0141063
914.937	0.0140500
915.015	0.0140763
915.093	0.0140950
915.171	0.0140274
915.249	0.0139827
915.328	0.0141812
915.406	0.0141742
915.484	0.0140129
915.562	0.0140850
915.640	0.0141215
915.718	0.0141136
915.796	0.0141693
915.874	0.0142634
915.953	0.0141695
916.031	0.0141064
916.109	0.0140343
916.187	0.0143167
916.265	0.0139902
916.343	0.0139435
916.421	0.0141430
916.499	0.0140405
916.578	0.0139832
916.656	0.0140978
916.734	0.0140758
916.812	0.0140454
916.890	0.0140583
916.968	0.0141241
917.046	0.0140546
917.124	0.0139596
917.203	0.0138805
917.281	0.0139719
917.359	0.0139986
917.437	0.0139084
917.515	0.0140087
917.593	0.0140298
917.671	0.0140443
917.749	0.0138332
917.828	0.0138903
917.906	0.0141244
917.984	0.0138596
918.062	0.0137949
918.140	0.0137656
918.218	0.0140549
918.296	0.0137774
918.374	0.0138327
918.453	0.0137864
918.531	0.0138046
918.609	0.0138580
918.687	0.0137537
918.765	0.0138650
918.843	0.0138725
918.921	0.0138229
918.999	0.0139616
919.078	0.0139342
919.156	0.0138533
919.234	0.0139685
919.312	0.0139316
919.390	0.0139369
919.468	0.0139697
919.546	0.0140829
919.624	0.0139185
919.703	0.0139423
919.781	0.0140891
919.859	0.0140778
919.937	0.0139799
