05/08/2022	20:22:42	Ver.	4.1	UNKNOWN
Optical Delay	600.015094	Delta X		0.078125	Sweeps	1	Scan Rate	0/0
Coordinates	Axis 1	NaN	Axis 2	NaN	Axis 3	NaN	Axis 4	NaN	Axis 5	NaN	Axis 6	0.000000
TX Power	0.000000	RX Power	0.000000

600.015	0.0138512
600.093	0.0139374
600.171	0.0138765
600.249	0.0139958
600.328	0.0139658
600.406	0.0139843
600.484	0.0139370
600.562	0.0140919
600.640	0.0140754
600.718	0.0140385
600.796	0.0140585
600.874	0.0141354
600.953	0.0141145
601.031	0.0140433
601.109	0.0141183
601.187	0.0140202
601.265	0.0140942
601.343	0.0141116
601.421	0.0138593
601.499	0.0140094
601.578	0.0141090
601.656	0.0138737
601.734	0.0139877
601.812	0.0139481
601.890	0.0138673
601.968	0.0140165
602.046	0.0140211
602.124	0.0142236
602.203	0.0139675
602.281	0.0138581
602.359	0.0138821
602.437	0.0139112
602.515	0.0139204
602.593	0.0139165
602.671	0.0139156
602.749	0.0139252
602.828	0.0137346
602.906	0.0137321
602.984	0.0139048
603.062	0.0138275
603.140	0.0137579
603.218	0.0137967
603.296	0.0135506
603.374	0.0136642
603.453	0.0136433
603.531	0.0136723
603.609	0.0137026
603.687	0.0136621
603.765	0.0135908
603.843	0.0135941
603.921	0.0136619
603.999	0.0136248
604.078	0.0134801
604.156	0.0136767
604.234	0.0137387
604.312	0.0136897
604.390	0.0136598
604.468	0.0136141
604.546	0.0138457
604.624	0.0136742
604.703	0.0137609
604.781	0.0138743
604.859	0.0138709
604.937	0.0137275
605.015	0.0137351
605.093	0.0138483
605.171	0.0138233
605.249	0.0138871
605.328	0.0139609
605.406	0.0139294
605.484	0.0138874
605.562	0.0138734
605.640	0.0139673
605.718	0.0140591
605.796	0.0138982
605.874	0.0138101
605.953	0.0138769
606.031	0.0138885
606.109	0.0139543
606.187	0.0138334
606.265	0.0139120
606.343	0.0139822
606.421	0.0138493
606.499	0.0138480
606.578	0.0138722
606.656	0.0139314
606.734	0.0138151
606.812	0.0137274
606.890	0.0138564
606.968	0.0138844
607.046	0.0137341
607.124	0.0137944
607.203	0.0138208
607.281	0.0137578
607.359	0.0137761
607.437	0.0138336
607.515	0.0137561
607.593	0.0137431
607.671	0.0136050
607.749	0.0136952
607.828	0.0135851
607.906	0.0136943
607.984	0.0137161
608.062	0.0136031
608.140	0.0135818
608.218	0.0137011
608.296	0.0137032
608.374	0.0136062
608.453	0.0136088
608.531	0.0135360
608.609	0.0136652
608.687	0.0137473
608.765	0.0136644
608.843	0.0137665
608.921	0.0136016
608.999	0.0137193
609.078	0.0137087
609.156	0.0137392
609.234	0.0137527
609.312	0.0136295
609.390	0.0136596
609.468	0.0136928
609.546	0.0137237
609.624	0.0136785
609.703	0.0135989
609.781	0.0136793
609.859	0.0138323
609.937	0.0136845
610.015	0.0136314
610.093	0.0136900
610.171	0.0137363
610.249	0.0137676
610.328	0.0136134
610.406	0.0137210
610.484	0.0137766
610.562	0.0137560
610.640	0.0136928
610.718	0.0136025
610.796	0.0136830
610.874	0.0136684
610.953	0.0137923
611.031	0.0138259
611.109	0.0137795
611.187	0.0137110
611.265	0.0137162
611.343	0.0137042
611.421	0.0137315
611.499	0.0136384
611.578	0.0137469
611.656	0.0138364
611.734	0.0138384
611.812	0.0137666
611.890	0.0136662
611.968	0.0136622
612.046	0.0136804
612.124	0.0136118
612.203	0.0136823
612.281	0.0136696
612.359	0.0137196
612.437	0.0136885
612.515	0.0137763
612.593	0.0135477
612.671	0.0136497
612.749	0.0137117
612.828	0.0135689
612.906	0.0137868
612.984	0.0137375
613.062	0.0137482
613.140	0.0137285
613.218	0.0136740
613.296	0.0136978
613.374	0.0136454
613.453	0.0138586
613.531	0.0137260
613.609	0.0137966
613.687	0.0138039
613.765	0.0138627
613.843	0.0138045
613.921	0.0136695
613.999	0.0137644
614.078	0.0136849
614.156	0.0138033
614.234	0.0137974
614.312	0.0136539
614.390	0.0137601
614.468	0.0137991
614.546	0.0136406
614.624	0.0137512
614.703	0.0136996
614.781	0.0137869
614.859	0.0136326
614.937	0.0137730
615.015	0.0137517
615.093	0.0137668
615.171	0.0137280
615.249	0.0136488
615.328	0.0136427
615.406	0.0137474
615.484	0.0137578
615.562	0.0137738
615.640	0.0137533
615.718	0.0137725
615.796	0.0138228
615.874	0.0138378
615.953	0.0138309
616.031	0.0136633
616.109	0.0137718
616.187	0.0136884
616.265	0.0137907
616.343	0.0138091
616.421	0.0138635
616.499	0.0137175
616.578	0.0138291
616.656	0.0139071
616.734	0.0138676
616.812	0.0138200
616.890	0.0138911
616.968	0.0139161
617.046	0.0139085
617.124	0.0138409
617.203	0.0138209
617.281	0.0139216
617.359	0.0137732
617.437	0.0137794
617.515	0.0139095
617.593	0.0138237
617.671	0.0139024
617.749	0.0139445
617.828	0.0139458
617.906	0.0139194
617.984	0.0139752
618.062	0.0138447
618.140	0.0139204
618.218	0.0139211
618.296	0.0138661
618.374	0.0139627
618.453	0.0139498
618.531	0.0140479
618.609	0.0138626
618.687	0.0139161
618.765	0.0139452
618.843	0.0137827
618.921	0.0137578
618.999	0.0138040
619.078	0.0138348
619.156	0.0138219
619.234	0.0139690
619.312	0.0138124
619.390	0.0137212
619.468	0.0138573
619.546	0.0139660
619.624	0.0138196
619.703	0.0138593
619.781	0.0138504
619.859	0.0137486
619.937	0.0138905
620.015	0.0139159
620.093	0.0138245
620.171	0.0136751
620.249	0.0138605
620.328	0.0138914
620.406	0.0137301
620.484	0.0137278
620.562	0.0137112
620.640	0.0137348
620.718	0.0136721
620.796	0.0136177
620.874	0.0137202
620.953	0.0138260
621.031	0.0137156
621.109	0.0135294
621.187	0.0134748
621.265	0.0137829
621.343	0.0137760
621.421	0.0136541
621.499	0.0135363
621.578	0.0137111
621.656	0.0136076
621.734	0.0137907
621.812	0.0137709
621.890	0.0136565
621.968	0.0136682
622.046	0.0136136
622.124	0.0136824
622.203	0.0137040
622.281	0.0137634
622.359	0.0136781
622.437	0.0137555
622.515	0.0136456
622.593	0.0138825
622.671	0.0138024
622.749	0.0137317
622.828	0.0136570
622.906	0.0136905
622.984	0.0137521
623.062	0.0137438
623.140	0.0137643
623.218	0.0135291
623.296	0.0138639
623.374	0.0137659
623.453	0.0137598
623.531	0.0135717
623.609	0.0137237
623.687	0.0136445
623.765	0.0138059
623.843	0.0136884
623.921	0.0136779
623.999	0.0138686
624.078	0.0138609
624.156	0.0139504
624.234	0.0137998
624.312	0.0139019
624.390	0.0138458
624.468	0.0138066
624.546	0.0138383
624.624	0.0138361
624.703	0.0138947
624.781	0.0138498
624.859	0.0138515
624.937	0.0137756
625.015	0.0138988
625.093	0.0139337
625.171	0.0139578
625.249	0.0139520
625.328	0.0138385
625.406	0.0139589
625.484	0.0138475
625.562	0.0138166
625.640	0.0139840
625.718	0.0139401
625.796	0.0139587
625.874	0.0138554
625.953	0.0138723
626.031	0.0139539
626.109	0.0139942
626.187	0.0139315
626.265	0.0138107
626.343	0.0138044
626.421	0.0140789
626.499	0.0139327
626.578	0.0139515
626.656	0.0139876
626.734	0.0141228
626.812	0.0139733
626.890	0.0139155
626.968	0.0139490
627.046	0.0140327
627.124	0.0139986
627.203	0.0139807
627.281	0.0139568
627.359	0.0139310
627.437	0.0139114
627.515	0.0140096
627.593	0.0139224
627.671	0.0140478
627.749	0.0138946
627.828	0.0138425
627.906	0.0140253
627.984	0.0139175
628.062	0.0138255
628.140	0.0139596
628.218	0.0140809
628.296	0.0138135
628.374	0.0138346
628.453	0.0139156
628.531	0.0138572
628.609	0.0139709
628.687	0.0139996
628.765	0.0139755
628.843	0.0139680
628.921	0.0139452
628.999	0.0139618
629.078	0.0137593
629.156	0.0137551
629.234	0.0139437
629.312	0.0137499
629.390	0.0138750
629.468	0.0137989
629.546	0.0137656
629.624	0.0138456
629.703	0.0137898
629.781	0.0139152
629.859	0.0139085
629.937	0.0138123
630.015	0.0138967
630.093	0.0138187
630.171	0.0138258
630.249	0.0137333
630.328	0.0137636
630.406	0.0136446
630.484	0.0136969
630.562	0.0138596
630.640	0.0137660
630.718	0.0138047
630.796	0.0137198
630.874	0.0137265
630.953	0.0138117
631.031	0.0137334
631.109	0.0136161
631.187	0.0136304
631.265	0.0136879
631.343	0.0137827
631.421	0.0136569
631.499	0.0136043
631.578	0.0137473
631.656	0.0136059
631.734	0.0135631
631.812	0.0136668
631.890	0.0137003
631.968	0.0136671
632.046	0.0136681
632.124	0.0137302
632.203	0.0137710
632.281	0.0136898
632.359	0.0137146
632.437	0.0137861
632.515	0.0135905
632.593	0.0136170
632.671	0.0137531
632.749	0.0137965
632.828	0.0137496
632.906	0.0136401
632.984	0.0137121
633.062	0.0136129
633.140	0.0136446
633.218	0.0136453
633.296	0.0137151
633.374	0.0137485
633.453	0.0136411
633.531	0.0137074
633.609	0.0136043
633.687	0.0136401
633.765	0.0136284
633.843	0.0135903
633.921	0.0137585
633.999	0.0137199
634.078	0.0137057
634.156	0.0136008
634.234	0.0136991
634.312	0.0137889
634.390	0.0136539
634.468	0.0137482
634.546	0.0136749
634.624	0.0137865
634.703	0.0138950
634.781	0.0138617
634.859	0.0135614
634.937	0.0138822
635.015	0.0138503
635.093	0.0136798
635.171	0.0137049
635.249	0.0139012
635.328	0.0138473
635.406	0.0137940
635.484	0.0139237
635.562	0.0138409
635.640	0.0138427
635.718	0.0138722
635.796	0.0139253
635.874	0.0138599
635.953	0.0138288
636.031	0.0138155
636.109	0.0137866
636.187	0.0138242
636.265	0.0136320
636.343	0.0137845
636.421	0.0136763
636.499	0.0136095
636.578	0.0137583
636.656	0.0139601
636.734	0.0137032
636.812	0.0138223
636.890	0.0138977
636.968	0.0138037
637.046	0.0138660
637.124	0.0138058
637.203	0.0137359
637.281	0.0138051
637.359	0.0137398
637.437	0.0138439
637.515	0.0137539
637.593	0.0138294
637.671	0.0138638
637.749	0.0137823
637.828	0.0138770
637.906	0.0136533
637.984	0.0138561
638.062	0.0136462
638.140	0.0138699
638.218	0.0139552
638.296	0.0139957
638.374	0.0137637
638.453	0.0138773
638.531	0.0139187
638.609	0.0139302
638.687	0.0139291
638.765	0.0140554
638.843	0.0139682
638.921	0.0139135
638.999	0.0138515
639.078	0.0138528
639.156	0.0139407
639.234	0.0139376
639.312	0.0137703
639.390	0.0138126
639.468	0.0136384
639.546	0.0138211
639.624	0.0136411
639.703	0.0135690
639.781	0.0135905
639.859	0.0134933
639.937	0.0134458
640.015	0.0134201
640.093	0.0134987
640.171	0.0135203
640.249	0.0134281
640.328	0.0133640
640.406	0.0133628
640.484	0.0132980
640.562	0.0134254
640.640	0.0133976
640.718	0.0133150
640.796	0.0134936
640.874	0.0136671
640.953	0.0137202
641.031	0.0138186
641.109	0.0137767
641.187	0.0138994
641.265	0.0139386
641.343	0.0140340
641.421	0.0140864
641.499	0.0140542
641.578	0.0142202
641.656	0.0140760
641.734	0.0142267
641.812	0.0140231
641.890	0.0140555
641.968	0.0141225
642.046	0.0138615
642.124	0.0139001
642.203	0.0137711
642.281	0.0137952
642.359	0.0136938
642.437	0.0137599
642.515	0.0137190
642.593	0.0138414
642.671	0.0135305
642.749	0.0135545
642.828	0.0134451
642.906	0.0133153
642.984	0.0133458
643.062	0.0134662
643.140	0.0131989
643.218	0.0131966
643.296	0.0134211
643.374	0.0132424
643.453	0.0131677
643.531	0.0131332
643.609	0.0132134
643.687	0.0132333
643.765	0.0132091
643.843	0.0132938
643.921	0.0132898
643.999	0.0132050
644.078	0.0133945
644.156	0.0134012
644.234	0.0135083
644.312	0.0136774
644.390	0.0137115
644.468	0.0138481
644.546	0.0141880
644.624	0.0142457
644.703	0.0143836
644.781	0.0145189
644.859	0.0144044
644.937	0.0145641
645.015	0.0146498
645.093	0.0147209
645.171	0.0147607
645.249	0.0147164
645.328	0.0145925
645.406	0.0146342
645.484	0.0144117
645.562	0.0143890
645.640	0.0142702
645.718	0.0142333
645.796	0.0139687
645.874	0.0138923
645.953	0.0137857
646.031	0.0137510
646.109	0.0135445
646.187	0.0134299
646.265	0.0133151
646.343	0.0132359
646.421	0.0132599
646.499	0.0129117
646.578	0.0129701
646.656	0.0128526
646.734	0.0127708
646.812	0.0127313
646.890	0.0127122
646.968	0.0128505
647.046	0.0128123
647.124	0.0127300
647.203	0.0129581
647.281	0.0131264
647.359	0.0131307
647.437	0.0134026
647.515	0.0135916
647.593	0.0136958
647.671	0.0137473
647.749	0.0138900
647.828	0.0139063
647.906	0.0142256
647.984	0.0141331
648.062	0.0142609
648.140	0.0143582
648.218	0.0144358
648.296	0.0145209
648.374	0.0145853
648.453	0.0148438
648.531	0.0148042
648.609	0.0147611
648.687	0.0147903
648.765	0.0148728
648.843	0.0149683
648.921	0.0148919
648.999	0.0149436
649.078	0.0148837
649.156	0.0148439
649.234	0.0147170
649.312	0.0147844
649.390	0.0145032
649.468	0.0143975
649.546	0.0141614
649.624	0.0140797
649.703	0.0139735
649.781	0.0139359
649.859	0.0136372
649.937	0.0135779
650.015	0.0133580
650.093	0.0132485
650.171	0.0132883
650.249	0.0130820
650.328	0.0130289
650.406	0.0128126
650.484	0.0128256
650.562	0.0125877
650.640	0.0125135
650.718	0.0123917
650.796	0.0123909
650.874	0.0122090
650.953	0.0123250
651.031	0.0123466
651.109	0.0123660
651.187	0.0124770
651.265	0.0125542
651.343	0.0129417
651.421	0.0129845
651.499	0.0132587
651.578	0.0133781
651.656	0.0136044
651.734	0.0137950
651.812	0.0139126
651.890	0.0141981
651.968	0.0144460
652.046	0.0147120
652.124	0.0148978
652.203	0.0149738
652.281	0.0152244
652.359	0.0153642
652.437	0.0155682
652.515	0.0156366
652.593	0.0157035
652.671	0.0156667
652.749	0.0157346
652.828	0.0156872
652.906	0.0155012
652.984	0.0154503
653.062	0.0153312
653.140	0.0152803
653.218	0.0150872
653.296	0.0148291
653.374	0.0146756
653.453	0.0144741
653.531	0.0142067
653.609	0.0139000
653.687	0.0137317
653.765	0.0135332
653.843	0.0131866
653.921	0.0128071
653.999	0.0126077
654.078	0.0124986
654.156	0.0120888
654.234	0.0119258
654.312	0.0117768
654.390	0.0117354
654.468	0.0116473
654.546	0.0115014
654.624	0.0113809
654.703	0.0113810
654.781	0.0114891
654.859	0.0114476
654.937	0.0116898
655.015	0.0116955
655.093	0.0118626
655.171	0.0120916
655.249	0.0123020
655.328	0.0126880
655.406	0.0128565
655.484	0.0131098
655.562	0.0134818
655.640	0.0138350
655.718	0.0141299
655.796	0.0144180
655.874	0.0147494
655.953	0.0150605
656.031	0.0154398
656.109	0.0156844
656.187	0.0158787
656.265	0.0161407
656.343	0.0162551
656.421	0.0162347
656.499	0.0163493
656.578	0.0163798
656.656	0.0163626
656.734	0.0163347
656.812	0.0162582
656.890	0.0162634
656.968	0.0160846
657.046	0.0159920
657.124	0.0155624
657.203	0.0154599
657.281	0.0151747
657.359	0.0148359
657.437	0.0146719
657.515	0.0142673
657.593	0.0138563
657.671	0.0137138
657.749	0.0133638
657.828	0.0129548
657.906	0.0125211
657.984	0.0123178
658.062	0.0121509
658.140	0.0119685
658.218	0.0117428
658.296	0.0116654
658.374	0.0116111
658.453	0.0115639
658.531	0.0115168
658.609	0.0116116
658.687	0.0116979
658.765	0.0115768
658.843	0.0117403
658.921	0.0116521
658.999	0.0118286
659.078	0.0120075
659.156	0.0121591
659.234	0.0122640
659.312	0.0125312
659.390	0.0126753
659.468	0.0128792
659.546	0.0131104
659.624	0.0134160
659.703	0.0135875
659.781	0.0138383
659.859	0.0139817
659.937	0.0142075
660.015	0.0145036
660.093	0.0147990
660.171	0.0149943
660.249	0.0150771
660.328	0.0152520
660.406	0.0154873
660.484	0.0156568
660.562	0.0156229
660.640	0.0157413
660.718	0.0157933
660.796	0.0158096
660.874	0.0158560
660.953	0.0158704
661.031	0.0158414
661.109	0.0159367
661.187	0.0158149
661.265	0.0156116
661.343	0.0155898
661.421	0.0153941
661.499	0.0151133
661.578	0.0149894
661.656	0.0145551
661.734	0.0142703
661.812	0.0140854
661.890	0.0137180
661.968	0.0134364
662.046	0.0131718
662.124	0.0128696
662.203	0.0125722
662.281	0.0123287
662.359	0.0120869
662.437	0.0118486
662.515	0.0117716
662.593	0.0116718
662.671	0.0115876
662.749	0.0116980
662.828	0.0115829
662.906	0.0115558
662.984	0.0116771
663.062	0.0118854
663.140	0.0118970
663.218	0.0119527
663.296	0.0122028
663.374	0.0123815
663.453	0.0125607
663.531	0.0127736
663.609	0.0129219
663.687	0.0131635
663.765	0.0134205
663.843	0.0134833
663.921	0.0137460
663.999	0.0138258
664.078	0.0141849
664.156	0.0142699
664.234	0.0144912
664.312	0.0145857
664.390	0.0148289
664.468	0.0146680
664.546	0.0148084
664.624	0.0149595
664.703	0.0149132
664.781	0.0148946
664.859	0.0148550
664.937	0.0147761
665.015	0.0146796
665.093	0.0148190
665.171	0.0146831
665.249	0.0144476
665.328	0.0144400
665.406	0.0144024
665.484	0.0143539
665.562	0.0142690
665.640	0.0140112
665.718	0.0139693
665.796	0.0138106
665.874	0.0138489
665.953	0.0138609
666.031	0.0137313
666.109	0.0135148
666.187	0.0134991
666.265	0.0136556
666.343	0.0135418
666.421	0.0135017
666.499	0.0136566
666.578	0.0137530
666.656	0.0137682
666.734	0.0137718
666.812	0.0138053
666.890	0.0139233
666.968	0.0140407
667.046	0.0140623
667.124	0.0140061
667.203	0.0139888
667.281	0.0139896
667.359	0.0141415
667.437	0.0143024
667.515	0.0141003
667.593	0.0140662
667.671	0.0141077
667.749	0.0140982
667.828	0.0139969
667.906	0.0140982
667.984	0.0140723
668.062	0.0139516
668.140	0.0140449
668.218	0.0139132
668.296	0.0137178
668.374	0.0136997
668.453	0.0134814
668.531	0.0135061
668.609	0.0134656
668.687	0.0134483
668.765	0.0134283
668.843	0.0133054
668.921	0.0133226
668.999	0.0132420
669.078	0.0131977
669.156	0.0133477
669.234	0.0133882
669.312	0.0134366
669.390	0.0135632
669.468	0.0135587
669.546	0.0135370
669.624	0.0137909
669.703	0.0137550
669.781	0.0137340
669.859	0.0135854
669.937	0.0137525
670.015	0.0136969
670.093	0.0137997
670.171	0.0137074
670.249	0.0138408
670.328	0.0137886
670.406	0.0137202
670.484	0.0137163
670.562	0.0137421
670.640	0.0137770
670.718	0.0137492
670.796	0.0137261
670.874	0.0135950
670.953	0.0136981
671.031	0.0136362
671.109	0.0136147
671.187	0.0136539
671.265	0.0136896
671.343	0.0137907
671.421	0.0138194
671.499	0.0141152
671.578	0.0141788
671.656	0.0141256
671.734	0.0142746
671.812	0.0141864
671.890	0.0144745
671.968	0.0145425
672.046	0.0145928
672.124	0.0146635
672.203	0.0146159
672.281	0.0146211
672.359	0.0148632
672.437	0.0148357
672.515	0.0149275
672.593	0.0148607
672.671	0.0150863
672.749	0.0147981
672.828	0.0148644
672.906	0.0149093
672.984	0.0145253
673.062	0.0145196
673.140	0.0144113
673.218	0.0142260
673.296	0.0138862
673.374	0.0136746
673.453	0.0134544
673.531	0.0134189
673.609	0.0132724
673.687	0.0129696
673.765	0.0127913
673.843	0.0125984
673.921	0.0126964
673.999	0.0123824
674.078	0.0123799
674.156	0.0123374
674.234	0.0124894
674.312	0.0123143
674.390	0.0124187
674.468	0.0123213
674.546	0.0122198
674.624	0.0123814
674.703	0.0123612
674.781	0.0124459
674.859	0.0124765
674.937	0.0125412
675.015	0.0126205
675.093	0.0126334
675.171	0.0127926
675.249	0.0130450
675.328	0.0130235
675.406	0.0132320
675.484	0.0132450
675.562	0.0135120
675.640	0.0137107
675.718	0.0138490
675.796	0.0140944
675.874	0.0142630
675.953	0.0142681
676.031	0.0144620
676.109	0.0145535
676.187	0.0148106
676.265	0.0149123
676.343	0.0151424
676.421	0.0151402
676.499	0.0153611
676.578	0.0155100
676.656	0.0154573
676.734	0.0155039
676.812	0.0155701
676.890	0.0155813
676.968	0.0154303
677.046	0.0153527
677.124	0.0152601
677.203	0.0153658
677.281	0.0151284
677.359	0.0149653
677.437	0.0150056
677.515	0.0148367
677.593	0.0145856
677.671	0.0145649
677.749	0.0144585
677.828	0.0143667
677.906	0.0143134
677.984	0.0142152
678.062	0.0140443
678.140	0.0140372
678.218	0.0138412
678.296	0.0137212
678.374	0.0134585
678.453	0.0132625
678.531	0.0132074
678.609	0.0130801
678.687	0.0130302
678.765	0.0128394
678.843	0.0125922
678.921	0.0125473
678.999	0.0125719
679.078	0.0123925
679.156	0.0122997
679.234	0.0123291
679.312	0.0122016
679.390	0.0123515
679.468	0.0122872
679.546	0.0122865
679.624	0.0123012
679.703	0.0124072
679.781	0.0125174
679.859	0.0125684
679.937	0.0127563
680.015	0.0128512
680.093	0.0129438
680.171	0.0131055
680.249	0.0131194
680.328	0.0132944
680.406	0.0135558
680.484	0.0135153
680.562	0.0137847
680.640	0.0139317
680.718	0.0138870
680.796	0.0139934
680.874	0.0141985
680.953	0.0142664
681.031	0.0145022
681.109	0.0144331
681.187	0.0145537
681.265	0.0147765
681.343	0.0145882
681.421	0.0149027
681.499	0.0150094
681.578	0.0149159
681.656	0.0150920
681.734	0.0152013
681.812	0.0151977
681.890	0.0152019
681.968	0.0151531
682.046	0.0152267
682.124	0.0152009
682.203	0.0151252
682.281	0.0151741
682.359	0.0149599
682.437	0.0148916
682.515	0.0147424
682.593	0.0144650
682.671	0.0144426
682.749	0.0144140
682.828	0.0141788
682.906	0.0139866
682.984	0.0136966
683.062	0.0137158
683.140	0.0137647
683.218	0.0135002
683.296	0.0135126
683.374	0.0135247
683.453	0.0135106
683.531	0.0134552
683.609	0.0135390
683.687	0.0133280
683.765	0.0134367
683.843	0.0134018
683.921	0.0135226
683.999	0.0135212
684.078	0.0136791
684.156	0.0136472
684.234	0.0136943
684.312	0.0136768
684.390	0.0136471
684.468	0.0137029
684.546	0.0138187
684.624	0.0137093
684.703	0.0137302
684.781	0.0138704
684.859	0.0137344
684.937	0.0137909
685.015	0.0135853
685.093	0.0137344
685.171	0.0135865
685.249	0.0134075
685.328	0.0134910
685.406	0.0134340
685.484	0.0133390
685.562	0.0133019
685.640	0.0131135
685.718	0.0130274
685.796	0.0130737
685.874	0.0131845
685.953	0.0130779
686.031	0.0130056
686.109	0.0130287
686.187	0.0132143
686.265	0.0132946
686.343	0.0131995
686.421	0.0133800
686.499	0.0133067
686.578	0.0132985
686.656	0.0132000
686.734	0.0132741
686.812	0.0132996
686.890	0.0132275
686.968	0.0134283
687.046	0.0133486
687.124	0.0134502
687.203	0.0134456
687.281	0.0136106
687.359	0.0137823
687.437	0.0138987
687.515	0.0139912
687.593	0.0140994
687.671	0.0142680
687.749	0.0144426
687.828	0.0146646
687.906	0.0146783
687.984	0.0148382
688.062	0.0149249
688.140	0.0149797
688.218	0.0147748
688.296	0.0148994
688.374	0.0150130
688.453	0.0149483
688.531	0.0149165
688.609	0.0147945
688.687	0.0149549
688.765	0.0146574
688.843	0.0143698
688.921	0.0145036
688.999	0.0143444
689.078	0.0142384
689.156	0.0140282
689.234	0.0139899
689.312	0.0139220
689.390	0.0137978
689.468	0.0137557
689.546	0.0135483
689.624	0.0134200
689.703	0.0131904
689.781	0.0131493
689.859	0.0132803
689.937	0.0131387
690.015	0.0129961
690.093	0.0129115
690.171	0.0127976
690.249	0.0126512
690.328	0.0128123
690.406	0.0127206
690.484	0.0127060
690.562	0.0128144
690.640	0.0128236
690.718	0.0129368
690.796	0.0130695
690.874	0.0130791
690.953	0.0133560
691.031	0.0134136
691.109	0.0135329
691.187	0.0137151
691.265	0.0138640
691.343	0.0137527
691.421	0.0139024
691.499	0.0138044
691.578	0.0139463
691.656	0.0140269
691.734	0.0140614
691.812	0.0142079
691.890	0.0141792
691.968	0.0142696
692.046	0.0144410
692.124	0.0144703
692.203	0.0144507
692.281	0.0144379
692.359	0.0145486
692.437	0.0144460
692.515	0.0145636
692.593	0.0144113
692.671	0.0144100
692.749	0.0141929
692.828	0.0140611
692.906	0.0139914
692.984	0.0138305
693.062	0.0138067
693.140	0.0137103
693.218	0.0137692
693.296	0.0136583
693.374	0.0136392
693.453	0.0135424
693.531	0.0134307
693.609	0.0136741
693.687	0.0134557
693.765	0.0133961
693.843	0.0136581
693.921	0.0135722
693.999	0.0134564
694.078	0.0136668
694.156	0.0135775
694.234	0.0136311
694.312	0.0135918
694.390	0.0138858
694.468	0.0138029
694.546	0.0137483
694.624	0.0138357
694.703	0.0139989
694.781	0.0140255
694.859	0.0141702
694.937	0.0142113
695.015	0.0142532
695.093	0.0142975
695.171	0.0144006
695.249	0.0144133
695.328	0.0143833
695.406	0.0144205
695.484	0.0145034
695.562	0.0144630
695.640	0.0145127
695.718	0.0145720
695.796	0.0145676
695.874	0.0145624
695.953	0.0145358
696.031	0.0145333
696.109	0.0146329
696.187	0.0145371
696.265	0.0143132
696.343	0.0143288
696.421	0.0143185
696.499	0.0143555
696.578	0.0142183
696.656	0.0140818
696.734	0.0140518
696.812	0.0139020
696.890	0.0137751
696.968	0.0138612
697.046	0.0138116
697.124	0.0137296
697.203	0.0136824
697.281	0.0137043
697.359	0.0136956
697.437	0.0135931
697.515	0.0135650
697.593	0.0134743
697.671	0.0134386
697.749	0.0133691
697.828	0.0131583
697.906	0.0133114
697.984	0.0132544
698.062	0.0128845
698.140	0.0128500
698.218	0.0129577
698.296	0.0127943
698.374	0.0127663
698.453	0.0127180
698.531	0.0126269
698.609	0.0126314
698.687	0.0125906
698.765	0.0126412
698.843	0.0127301
698.921	0.0127116
698.999	0.0127186
699.078	0.0128259
699.156	0.0130863
699.234	0.0131034
699.312	0.0133620
699.390	0.0133262
699.468	0.0134865
699.546	0.0137270
699.624	0.0138259
699.703	0.0138671
699.781	0.0140973
699.859	0.0141429
699.937	0.0143843
700.015	0.0144225
700.093	0.0145679
700.171	0.0147764
700.249	0.0146529
700.328	0.0148728
700.406	0.0148252
700.484	0.0149424
700.562	0.0149113
700.640	0.0150147
700.718	0.0149855
700.796	0.0148679
700.874	0.0146930
700.953	0.0146739
701.031	0.0147587
701.109	0.0148156
701.187	0.0146230
701.265	0.0145934
701.343	0.0145154
701.421	0.0143931
701.499	0.0142686
701.578	0.0141070
701.656	0.0142141
701.734	0.0141656
701.812	0.0139832
701.890	0.0138986
701.968	0.0138250
702.046	0.0137045
702.124	0.0136927
702.203	0.0135226
702.281	0.0136469
702.359	0.0137144
702.437	0.0136057
702.515	0.0134188
702.593	0.0135513
702.671	0.0134670
702.749	0.0135598
702.828	0.0133794
702.906	0.0133733
702.984	0.0132993
703.062	0.0132999
703.140	0.0132124
703.218	0.0132697
703.296	0.0133540
703.374	0.0132254
703.453	0.0130654
703.531	0.0130392
703.609	0.0130343
703.687	0.0130011
703.765	0.0129564
703.843	0.0129523
703.921	0.0129370
703.999	0.0128941
704.078	0.0128397
704.156	0.0127717
704.234	0.0127872
704.312	0.0128081
704.390	0.0127888
704.468	0.0128797
704.546	0.0127193
704.624	0.0127528
704.703	0.0130499
704.781	0.0130654
704.859	0.0130347
704.937	0.0131136
705.015	0.0133851
705.093	0.0134541
705.171	0.0137002
705.249	0.0138840
705.328	0.0139714
705.406	0.0141187
705.484	0.0141611
705.562	0.0142630
705.640	0.0145926
705.718	0.0144722
705.796	0.0145283
705.874	0.0146001
705.953	0.0146197
706.031	0.0145562
706.109	0.0146227
706.187	0.0144884
706.265	0.0143882
706.343	0.0145167
706.421	0.0143944
706.499	0.0143794
706.578	0.0143053
706.656	0.0142517
706.734	0.0145034
706.812	0.0144656
706.890	0.0143110
706.968	0.0144074
707.046	0.0144701
707.124	0.0145208
707.203	0.0143777
707.281	0.0142582
707.359	0.0143722
707.437	0.0143954
707.515	0.0142663
707.593	0.0143089
707.671	0.0143562
707.749	0.0142199
707.828	0.0141107
707.906	0.0142072
707.984	0.0141329
708.062	0.0140604
708.140	0.0140620
708.218	0.0141029
708.296	0.0138493
708.374	0.0138928
708.453	0.0137881
708.531	0.0136041
708.609	0.0135873
708.687	0.0137300
708.765	0.0135049
708.843	0.0134937
708.921	0.0134998
708.999	0.0134183
709.078	0.0133916
709.156	0.0132695
709.234	0.0131255
709.312	0.0133000
709.390	0.0132838
709.468	0.0131035
709.546	0.0133169
709.624	0.0130551
709.703	0.0131454
709.781	0.0130192
709.859	0.0129465
709.937	0.0131299
710.015	0.0132327
710.093	0.0133628
710.171	0.0134978
710.249	0.0132433
710.328	0.0134058
710.406	0.0136204
710.484	0.0135282
710.562	0.0136271
710.640	0.0137994
710.718	0.0137744
710.796	0.0139086
710.874	0.0141043
710.953	0.0141131
711.031	0.0141644
711.109	0.0140656
711.187	0.0142288
711.265	0.0143665
711.343	0.0145147
711.421	0.0146025
711.499	0.0146357
711.578	0.0146074
711.656	0.0147221
711.734	0.0147375
711.812	0.0147890
711.890	0.0148206
711.968	0.0147462
712.046	0.0147746
712.124	0.0147411
712.203	0.0145988
712.281	0.0145703
712.359	0.0146232
712.437	0.0143182
712.515	0.0142288
712.593	0.0142055
712.671	0.0141588
712.749	0.0141010
712.828	0.0139658
712.906	0.0138779
712.984	0.0138142
713.062	0.0135405
713.140	0.0136431
713.218	0.0136179
713.296	0.0135839
713.374	0.0135302
713.453	0.0133706
713.531	0.0135165
713.609	0.0133005
713.687	0.0132481
713.765	0.0133546
713.843	0.0132521
713.921	0.0133682
713.999	0.0132215
714.078	0.0133996
714.156	0.0132936
714.234	0.0133599
714.312	0.0135864
714.390	0.0134666
714.468	0.0135124
714.546	0.0136370
714.624	0.0136135
714.703	0.0136496
714.781	0.0137147
714.859	0.0137889
714.937	0.0137579
715.015	0.0137685
715.093	0.0138567
715.171	0.0139669
715.249	0.0137874
715.328	0.0137866
715.406	0.0139362
715.484	0.0137824
715.562	0.0137772
715.640	0.0138320
715.718	0.0139462
715.796	0.0138171
715.874	0.0136960
715.953	0.0136819
716.031	0.0136518
716.109	0.0136144
716.187	0.0135429
716.265	0.0135244
716.343	0.0134329
716.421	0.0133942
716.499	0.0133712
716.578	0.0134346
716.656	0.0135675
716.734	0.0135208
716.812	0.0134978
716.890	0.0134953
716.968	0.0134768
717.046	0.0135930
717.124	0.0136271
717.203	0.0135032
717.281	0.0137064
717.359	0.0137899
717.437	0.0137775
717.515	0.0137309
717.593	0.0136852
717.671	0.0135707
717.749	0.0138216
717.828	0.0137606
717.906	0.0137942
717.984	0.0138861
718.062	0.0138314
718.140	0.0138469
718.218	0.0138895
718.296	0.0138940
718.374	0.0139464
718.453	0.0138834
718.531	0.0139546
718.609	0.0137238
718.687	0.0139941
718.765	0.0139565
718.843	0.0138622
718.921	0.0137923
718.999	0.0137995
719.078	0.0136530
719.156	0.0138411
719.234	0.0138305
719.312	0.0137756
719.390	0.0136567
719.468	0.0136859
719.546	0.0134973
719.624	0.0138439
719.703	0.0137877
719.781	0.0136118
719.859	0.0137311
719.937	0.0137373
720.015	0.0137642
720.093	0.0136143
720.171	0.0138765
720.249	0.0138151
720.328	0.0139706
720.406	0.0138904
720.484	0.0139369
720.562	0.0140604
720.640	0.0138605
720.718	0.0139941
720.796	0.0139094
720.874	0.0139368
720.953	0.0141209
721.031	0.0141172
721.109	0.0140450
721.187	0.0142320
721.265	0.0142581
721.343	0.0142399
721.421	0.0142822
721.499	0.0142445
721.578	0.0142475
721.656	0.0141719
721.734	0.0141031
721.812	0.0140897
721.890	0.0140839
721.968	0.0141447
722.046	0.0140999
722.124	0.0139958
722.203	0.0139453
722.281	0.0139085
722.359	0.0139114
722.437	0.0139516
722.515	0.0140518
722.593	0.0138591
722.671	0.0137577
722.749	0.0137707
722.828	0.0136858
722.906	0.0138180
722.984	0.0136491
723.062	0.0136865
723.140	0.0137081
723.218	0.0136528
723.296	0.0135924
723.374	0.0136150
723.453	0.0135546
723.531	0.0136118
723.609	0.0137064
723.687	0.0135461
723.765	0.0135516
723.843	0.0136019
723.921	0.0136725
723.999	0.0136454
724.078	0.0136738
724.156	0.0137481
724.234	0.0138988
724.312	0.0138181
724.390	0.0137914
724.468	0.0137819
724.546	0.0135849
724.624	0.0135929
724.703	0.0137158
724.781	0.0137313
724.859	0.0136306
724.937	0.0135197
725.015	0.0134844
725.093	0.0133798
725.171	0.0134679
725.249	0.0136433
725.328	0.0136625
725.406	0.0135113
725.484	0.0134719
725.562	0.0135771
725.640	0.0136029
725.718	0.0136340
725.796	0.0136230
725.874	0.0135868
725.953	0.0136340
726.031	0.0136591
726.109	0.0136861
726.187	0.0138048
726.265	0.0136567
726.343	0.0136739
726.421	0.0138240
726.499	0.0137623
726.578	0.0136855
726.656	0.0137599
726.734	0.0137278
726.812	0.0136835
726.890	0.0136820
726.968	0.0135594
727.046	0.0135501
727.124	0.0135606
727.203	0.0135883
727.281	0.0135642
727.359	0.0135181
727.437	0.0135497
727.515	0.0135294
727.593	0.0135574
727.671	0.0134310
727.749	0.0134998
727.828	0.0136652
727.906	0.0136380
727.984	0.0136204
728.062	0.0136628
728.140	0.0138728
728.218	0.0139211
728.296	0.0139227
728.374	0.0137981
728.453	0.0138721
728.531	0.0139957
728.609	0.0140957
728.687	0.0141026
728.765	0.0139597
728.843	0.0139262
728.921	0.0140017
728.999	0.0140258
729.078	0.0141100
729.156	0.0140449
729.234	0.0139668
729.312	0.0141212
729.390	0.0140873
729.468	0.0139028
729.546	0.0139101
729.624	0.0139532
729.703	0.0138979
729.781	0.0137881
729.859	0.0137881
729.937	0.0136030
730.015	0.0135228
730.093	0.0136533
730.171	0.0135394
730.249	0.0134583
730.328	0.0135126
730.406	0.0135897
730.484	0.0133576
730.562	0.0133850
730.640	0.0135027
730.718	0.0133109
730.796	0.0134016
730.874	0.0133138
730.953	0.0133576
731.031	0.0133443
731.109	0.0131499
731.187	0.0131866
731.265	0.0133038
731.343	0.0133099
731.421	0.0133627
731.499	0.0134175
731.578	0.0133118
731.656	0.0134258
731.734	0.0135947
731.812	0.0136582
731.890	0.0136721
731.968	0.0136064
732.046	0.0136593
732.124	0.0138839
732.203	0.0139481
732.281	0.0140022
732.359	0.0139721
732.437	0.0140664
732.515	0.0139254
732.593	0.0139342
732.671	0.0140890
732.749	0.0140859
732.828	0.0141676
732.906	0.0141430
732.984	0.0141723
733.062	0.0141615
733.140	0.0142329
733.218	0.0143058
733.296	0.0143143
733.374	0.0143737
733.453	0.0142475
733.531	0.0142766
733.609	0.0142496
733.687	0.0141604
733.765	0.0143993
733.843	0.0143099
733.921	0.0141505
733.999	0.0142014
734.078	0.0141739
734.156	0.0141086
734.234	0.0141122
734.312	0.0141364
734.390	0.0140758
734.468	0.0140202
734.546	0.0140175
734.624	0.0138966
734.703	0.0138286
734.781	0.0138239
734.859	0.0139850
734.937	0.0137740
735.015	0.0136791
735.093	0.0136997
735.171	0.0136604
735.249	0.0135981
735.328	0.0136276
735.406	0.0135286
735.484	0.0137502
735.562	0.0136582
735.640	0.0133939
735.718	0.0135874
735.796	0.0134101
735.874	0.0134740
735.953	0.0134413
736.031	0.0133743
736.109	0.0134338
736.187	0.0133875
736.265	0.0133665
736.343	0.0134583
736.421	0.0132847
736.499	0.0132784
736.578	0.0131490
736.656	0.0133049
736.734	0.0133916
736.812	0.0132748
736.890	0.0132828
736.968	0.0132464
737.046	0.0134644
737.124	0.0134240
737.203	0.0134560
737.281	0.0133512
737.359	0.0134392
737.437	0.0137299
737.515	0.0136240
737.593	0.0136659
737.671	0.0137812
737.749	0.0138164
737.828	0.0137355
737.906	0.0137334
737.984	0.0138190
738.062	0.0138172
738.140	0.0140059
738.218	0.0139431
738.296	0.0139581
738.374	0.0139378
738.453	0.0139996
738.531	0.0140857
738.609	0.0140683
738.687	0.0140332
738.765	0.0141166
738.843	0.0140615
738.921	0.0141656
738.999	0.0141682
739.078	0.0141049
739.156	0.0141928
739.234	0.0139722
739.312	0.0140111
739.390	0.0139388
739.468	0.0139517
739.546	0.0138692
739.624	0.0137582
739.703	0.0137151
739.781	0.0138445
739.859	0.0138908
739.937	0.0138364
740.015	0.0138684
740.093	0.0137988
740.171	0.0139082
740.249	0.0139600
740.328	0.0140113
740.406	0.0140024
740.484	0.0140862
740.562	0.0141633
740.640	0.0141084
740.718	0.0140388
740.796	0.0140760
740.874	0.0138509
740.953	0.0139453
741.031	0.0139266
741.109	0.0138702
741.187	0.0139071
741.265	0.0140105
741.343	0.0137516
741.421	0.0136856
741.499	0.0136707
741.578	0.0137251
741.656	0.0138024
741.734	0.0136922
741.812	0.0137688
741.890	0.0136807
741.968	0.0136003
742.046	0.0134851
742.124	0.0135867
742.203	0.0137429
742.281	0.0136803
742.359	0.0136187
742.437	0.0137675
742.515	0.0136866
742.593	0.0137225
742.671	0.0137662
742.749	0.0137069
742.828	0.0136502
742.906	0.0138149
742.984	0.0136684
743.062	0.0136900
743.140	0.0137600
743.218	0.0136674
743.296	0.0137670
743.374	0.0137022
743.453	0.0138014
743.531	0.0137783
743.609	0.0138329
743.687	0.0138269
743.765	0.0137938
743.843	0.0138673
743.921	0.0139484
743.999	0.0139115
744.078	0.0137405
744.156	0.0138906
744.234	0.0138358
744.312	0.0139583
744.390	0.0137466
744.468	0.0139650
744.546	0.0139264
744.624	0.0138484
744.703	0.0139480
744.781	0.0140823
744.859	0.0139082
744.937	0.0139408
745.015	0.0139864
745.093	0.0140226
745.171	0.0140485
745.249	0.0138533
745.328	0.0139583
745.406	0.0138818
745.484	0.0137830
745.562	0.0136661
745.640	0.0137597
745.718	0.0137711
745.796	0.0136181
745.874	0.0136193
745.953	0.0135895
746.031	0.0135632
746.109	0.0135782
746.187	0.0135934
746.265	0.0135416
746.343	0.0136101
746.421	0.0136337
746.499	0.0136469
746.578	0.0135200
746.656	0.0136435
746.734	0.0135892
746.812	0.0135752
746.890	0.0135383
746.968	0.0135569
747.046	0.0135996
747.124	0.0136363
747.203	0.0134962
747.281	0.0135718
747.359	0.0136209
747.437	0.0134765
747.515	0.0136278
747.593	0.0135988
747.671	0.0134772
747.749	0.0134542
747.828	0.0134837
747.906	0.0134589
747.984	0.0135413
748.062	0.0136681
748.140	0.0135972
748.218	0.0136432
748.296	0.0136652
748.374	0.0137692
748.453	0.0137167
748.531	0.0137569
748.609	0.0137719
748.687	0.0137571
748.765	0.0138956
748.843	0.0136784
748.921	0.0138950
748.999	0.0139307
749.078	0.0139073
749.156	0.0139309
749.234	0.0139242
749.312	0.0140619
749.390	0.0140415
749.468	0.0140241
749.546	0.0140057
749.624	0.0139401
749.703	0.0141073
749.781	0.0139409
749.859	0.0138393
749.937	0.0140327
750.015	0.0138857
750.093	0.0138027
750.171	0.0136707
750.249	0.0138277
750.328	0.0138256
750.406	0.0137610
750.484	0.0137512
750.562	0.0138073
750.640	0.0137615
750.718	0.0137669
750.796	0.0138050
750.874	0.0138384
750.953	0.0136256
751.031	0.0137142
751.109	0.0138143
751.187	0.0137824
751.265	0.0137035
751.343	0.0137292
751.421	0.0137273
751.499	0.0137236
751.578	0.0137978
751.656	0.0137595
751.734	0.0136361
751.812	0.0137612
751.890	0.0136976
751.968	0.0139800
752.046	0.0140067
752.124	0.0140524
752.203	0.0139590
752.281	0.0140073
752.359	0.0139709
752.437	0.0142311
752.515	0.0141167
752.593	0.0140868
752.671	0.0140923
752.749	0.0141470
752.828	0.0141455
752.906	0.0140743
752.984	0.0140266
753.062	0.0138865
753.140	0.0141095
753.218	0.0140228
753.296	0.0139960
753.374	0.0139228
753.453	0.0138474
753.531	0.0139446
753.609	0.0139113
753.687	0.0137481
753.765	0.0137658
753.843	0.0139034
753.921	0.0137376
753.999	0.0137743
754.078	0.0138562
754.156	0.0137519
754.234	0.0136878
754.312	0.0135177
754.390	0.0136533
754.468	0.0136196
754.546	0.0137942
754.624	0.0136234
754.703	0.0136224
754.781	0.0135771
754.859	0.0134830
754.937	0.0135551
755.015	0.0132316
755.093	0.0134576
755.171	0.0134859
755.249	0.0134403
755.328	0.0133659
755.406	0.0133001
755.484	0.0134361
755.562	0.0133858
755.640	0.0133923
755.718	0.0135168
755.796	0.0134219
755.874	0.0134834
755.953	0.0135472
756.031	0.0134513
756.109	0.0134679
756.187	0.0134277
756.265	0.0135728
756.343	0.0136125
756.421	0.0135650
756.499	0.0137721
756.578	0.0137289
756.656	0.0137542
756.734	0.0138126
756.812	0.0137505
756.890	0.0137579
756.968	0.0140533
757.046	0.0137794
757.124	0.0138284
757.203	0.0139523
757.281	0.0140739
757.359	0.0140154
757.437	0.0140166
757.515	0.0139999
757.593	0.0139657
757.671	0.0139738
757.749	0.0139781
757.828	0.0140723
757.906	0.0139929
757.984	0.0139713
758.062	0.0138937
758.140	0.0137666
758.218	0.0138560
758.296	0.0139121
758.374	0.0137671
758.453	0.0137556
758.531	0.0137270
758.609	0.0136195
758.687	0.0137094
758.765	0.0136175
758.843	0.0135685
758.921	0.0134747
758.999	0.0134985
759.078	0.0135268
759.156	0.0134241
759.234	0.0134888
759.312	0.0134446
759.390	0.0134610
759.468	0.0134988
759.546	0.0135690
759.624	0.0136520
759.703	0.0136416
759.781	0.0137959
759.859	0.0137050
759.937	0.0137598
760.015	0.0137560
760.093	0.0138280
760.171	0.0138789
760.249	0.0138493
760.328	0.0138042
760.406	0.0139771
760.484	0.0139697
760.562	0.0140237
760.640	0.0139471
760.718	0.0140464
760.796	0.0139838
760.874	0.0141342
760.953	0.0141469
761.031	0.0141225
761.109	0.0140868
761.187	0.0140820
761.265	0.0140001
761.343	0.0140700
761.421	0.0139219
761.499	0.0140334
761.578	0.0141405
761.656	0.0140378
761.734	0.0140546
761.812	0.0141154
761.890	0.0139829
761.968	0.0139331
762.046	0.0139926
762.124	0.0138548
762.203	0.0139083
762.281	0.0138342
762.359	0.0139021
762.437	0.0138591
762.515	0.0138878
762.593	0.0137304
762.671	0.0136505
762.749	0.0138522
762.828	0.0138670
762.906	0.0137402
762.984	0.0137195
763.062	0.0137709
763.140	0.0137472
763.218	0.0137668
763.296	0.0137127
763.374	0.0137018
763.453	0.0138979
763.531	0.0138687
763.609	0.0139284
763.687	0.0140015
763.765	0.0139544
763.843	0.0139123
763.921	0.0139889
763.999	0.0139077
764.078	0.0139491
764.156	0.0140576
764.234	0.0139139
764.312	0.0140737
764.390	0.0139366
764.468	0.0140342
764.546	0.0139115
764.624	0.0139369
764.703	0.0140401
764.781	0.0139240
764.859	0.0139252
764.937	0.0138447
765.015	0.0139738
765.093	0.0139520
765.171	0.0139178
765.249	0.0140405
765.328	0.0139593
765.406	0.0138745
765.484	0.0141837
765.562	0.0140361
765.640	0.0139342
765.718	0.0138968
765.796	0.0139198
765.874	0.0138406
765.953	0.0138509
766.031	0.0138982
766.109	0.0137656
766.187	0.0137172
766.265	0.0139685
766.343	0.0137435
766.421	0.0136803
766.499	0.0137909
766.578	0.0137260
766.656	0.0137106
766.734	0.0137183
766.812	0.0137650
766.890	0.0136637
766.968	0.0137080
767.046	0.0137289
767.124	0.0136359
767.203	0.0137061
767.281	0.0137268
767.359	0.0136846
767.437	0.0135852
767.515	0.0138136
767.593	0.0138206
767.671	0.0137424
767.749	0.0136737
767.828	0.0136169
767.906	0.0137109
767.984	0.0137878
768.062	0.0138607
768.140	0.0136726
768.218	0.0138046
768.296	0.0137073
768.374	0.0137946
768.453	0.0136211
768.531	0.0136871
768.609	0.0139636
768.687	0.0137938
768.765	0.0137311
768.843	0.0138445
768.921	0.0137321
768.999	0.0137128
769.078	0.0138000
769.156	0.0137434
769.234	0.0138111
769.312	0.0138208
769.390	0.0139625
769.468	0.0139462
769.546	0.0138550
769.624	0.0139297
769.703	0.0139726
769.781	0.0139781
769.859	0.0137865
769.937	0.0140341
770.015	0.0140377
770.093	0.0138755
770.171	0.0139060
770.249	0.0138913
770.328	0.0138577
770.406	0.0137484
770.484	0.0138392
770.562	0.0137045
770.640	0.0136867
770.718	0.0137537
770.796	0.0137132
770.874	0.0137605
770.953	0.0136277
771.031	0.0136288
771.109	0.0135994
771.187	0.0136250
771.265	0.0136490
771.343	0.0136640
771.421	0.0135742
771.499	0.0136315
771.578	0.0136418
771.656	0.0137199
771.734	0.0136475
771.812	0.0136437
771.890	0.0136234
771.968	0.0136794
772.046	0.0138626
772.124	0.0137202
772.203	0.0136575
772.281	0.0136868
772.359	0.0137686
772.437	0.0139928
772.515	0.0138243
772.593	0.0139686
772.671	0.0139327
772.749	0.0139005
772.828	0.0139075
772.906	0.0137667
772.984	0.0136993
773.062	0.0138963
773.140	0.0137391
773.218	0.0139574
773.296	0.0139476
773.374	0.0139715
773.453	0.0139960
773.531	0.0138346
773.609	0.0139735
773.687	0.0139693
773.765	0.0138503
773.843	0.0139320
773.921	0.0140596
773.999	0.0140010
774.078	0.0139448
774.156	0.0138860
774.234	0.0139154
774.312	0.0140090
774.390	0.0140459
774.468	0.0139965
774.546	0.0138913
774.624	0.0138359
774.703	0.0139402
774.781	0.0140387
774.859	0.0139732
774.937	0.0140658
775.015	0.0140125
775.093	0.0140374
775.171	0.0140112
775.249	0.0141158
775.328	0.0140816
775.406	0.0140335
775.484	0.0139584
775.562	0.0139040
775.640	0.0138496
775.718	0.0140499
775.796	0.0139079
775.874	0.0138231
775.953	0.0136327
776.031	0.0137472
776.109	0.0137408
776.187	0.0137188
776.265	0.0136833
776.343	0.0137801
776.421	0.0137340
776.499	0.0138092
776.578	0.0138371
776.656	0.0137229
776.734	0.0137083
776.812	0.0136515
776.890	0.0136433
776.968	0.0136507
777.046	0.0137447
777.124	0.0136921
777.203	0.0136438
777.281	0.0135855
777.359	0.0136213
777.437	0.0135160
777.515	0.0136385
777.593	0.0135802
777.671	0.0136137
777.749	0.0135429
777.828	0.0135865
777.906	0.0135405
777.984	0.0136972
778.062	0.0136354
778.140	0.0136070
778.218	0.0136211
778.296	0.0138425
778.374	0.0138542
778.453	0.0137652
778.531	0.0138340
778.609	0.0139139
778.687	0.0138286
778.765	0.0138677
778.843	0.0138757
778.921	0.0138922
778.999	0.0139903
779.078	0.0138509
779.156	0.0139700
779.234	0.0140118
779.312	0.0140380
779.390	0.0139256
779.468	0.0138078
779.546	0.0138960
779.624	0.0139350
779.703	0.0139235
779.781	0.0138764
779.859	0.0138889
779.937	0.0138857
780.015	0.0138515
780.093	0.0139595
780.171	0.0138937
780.249	0.0139153
780.328	0.0139548
780.406	0.0137617
780.484	0.0137180
780.562	0.0138576
780.640	0.0137655
780.718	0.0136643
780.796	0.0136113
780.874	0.0138748
780.953	0.0137550
781.031	0.0136027
781.109	0.0136882
781.187	0.0138113
781.265	0.0138168
781.343	0.0139182
781.421	0.0139618
781.499	0.0139742
781.578	0.0140274
781.656	0.0141261
781.734	0.0141515
781.812	0.0141819
781.890	0.0142161
781.968	0.0140198
782.046	0.0140488
782.124	0.0141563
782.203	0.0141216
782.281	0.0139712
782.359	0.0139217
782.437	0.0139487
782.515	0.0138689
782.593	0.0139046
782.671	0.0140236
782.749	0.0137961
782.828	0.0137701
782.906	0.0137857
782.984	0.0139326
783.062	0.0139794
783.140	0.0136588
783.218	0.0137096
783.296	0.0137048
783.374	0.0136768
783.453	0.0138958
783.531	0.0137497
783.609	0.0137645
783.687	0.0135648
783.765	0.0135600
783.843	0.0136974
783.921	0.0136658
783.999	0.0135603
784.078	0.0135664
784.156	0.0134803
784.234	0.0135451
784.312	0.0136222
784.390	0.0134476
784.468	0.0135428
784.546	0.0137962
784.624	0.0137026
784.703	0.0138189
784.781	0.0138444
784.859	0.0139359
784.937	0.0138855
785.015	0.0139721
785.093	0.0139090
785.171	0.0141096
785.249	0.0138873
785.328	0.0139056
785.406	0.0137496
785.484	0.0137123
785.562	0.0136572
785.640	0.0135641
785.718	0.0135153
785.796	0.0136516
785.874	0.0135595
785.953	0.0135152
786.031	0.0134369
786.109	0.0136652
786.187	0.0135002
786.265	0.0135546
786.343	0.0134631
786.421	0.0134216
786.499	0.0133496
786.578	0.0135298
786.656	0.0135421
786.734	0.0135402
786.812	0.0136226
786.890	0.0136362
786.968	0.0135637
787.046	0.0137303
787.124	0.0138264
787.203	0.0137036
787.281	0.0138161
787.359	0.0139141
787.437	0.0138180
787.515	0.0139525
787.593	0.0139833
787.671	0.0139079
787.749	0.0138561
787.828	0.0138715
787.906	0.0138320
787.984	0.0139430
788.062	0.0138071
788.140	0.0136885
788.218	0.0138406
788.296	0.0137730
788.374	0.0137939
788.453	0.0138578
788.531	0.0139347
788.609	0.0139157
788.687	0.0138976
788.765	0.0137921
788.843	0.0138707
788.921	0.0138070
788.999	0.0137565
789.078	0.0135950
789.156	0.0136272
789.234	0.0137310
789.312	0.0135747
789.390	0.0134864
789.468	0.0135429
789.546	0.0135190
789.624	0.0135572
789.703	0.0137102
789.781	0.0138111
789.859	0.0138410
789.937	0.0138307
790.015	0.0140051
790.093	0.0141010
790.171	0.0141862
790.249	0.0141436
790.328	0.0141472
790.406	0.0141956
790.484	0.0141939
790.562	0.0141669
790.640	0.0141283
790.718	0.0140345
790.796	0.0140939
790.874	0.0140965
790.953	0.0139358
791.031	0.0139365
791.109	0.0140617
791.187	0.0140050
791.265	0.0139365
791.343	0.0141517
791.421	0.0140208
791.499	0.0141054
791.578	0.0141251
791.656	0.0141020
791.734	0.0140683
791.812	0.0139010
791.890	0.0138763
791.968	0.0139317
792.046	0.0138438
792.124	0.0137716
792.203	0.0138604
792.281	0.0136980
792.359	0.0137089
792.437	0.0137097
792.515	0.0137219
792.593	0.0136455
792.671	0.0135547
792.749	0.0138029
792.828	0.0138348
792.906	0.0139515
792.984	0.0139600
793.062	0.0138480
793.140	0.0139112
793.218	0.0140125
793.296	0.0140785
793.374	0.0141086
793.453	0.0141074
793.531	0.0140741
793.609	0.0140781
793.687	0.0141428
793.765	0.0139960
793.843	0.0139223
793.921	0.0139409
793.999	0.0137499
794.078	0.0136868
794.156	0.0135968
794.234	0.0136102
794.312	0.0133989
794.390	0.0133916
794.468	0.0133471
794.546	0.0133085
794.624	0.0134348
794.703	0.0134799
794.781	0.0135801
794.859	0.0136537
794.937	0.0135568
795.015	0.0134250
795.093	0.0134760
795.171	0.0135007
795.249	0.0135201
795.328	0.0134860
795.406	0.0136674
795.484	0.0135015
795.562	0.0135282
795.640	0.0136007
795.718	0.0136715
795.796	0.0137826
795.874	0.0136951
795.953	0.0136446
796.031	0.0138406
796.109	0.0139626
796.187	0.0138139
796.265	0.0138725
796.343	0.0139085
796.421	0.0139395
796.499	0.0138957
796.578	0.0139360
796.656	0.0138095
796.734	0.0140187
796.812	0.0139764
796.890	0.0139587
796.968	0.0139468
797.046	0.0138283
797.124	0.0137325
797.203	0.0137679
797.281	0.0138055
797.359	0.0137384
797.437	0.0136530
797.515	0.0135370
797.593	0.0136015
797.671	0.0136488
797.749	0.0135532
797.828	0.0136335
797.906	0.0135519
797.984	0.0135516
798.062	0.0137824
798.140	0.0136636
798.218	0.0138546
798.296	0.0139162
798.374	0.0137610
798.453	0.0138447
798.531	0.0136711
798.609	0.0138928
798.687	0.0139185
798.765	0.0138358
798.843	0.0138237
798.921	0.0138589
798.999	0.0139915
799.078	0.0138809
799.156	0.0140646
799.234	0.0139617
799.312	0.0138791
799.390	0.0141443
799.468	0.0140151
799.546	0.0140216
799.624	0.0139679
799.703	0.0140316
799.781	0.0139360
799.859	0.0138173
799.937	0.0137619
800.015	0.0136311
800.093	0.0136272
800.171	0.0138068
800.249	0.0134646
800.328	0.0134666
800.406	0.0136189
800.484	0.0135342
800.562	0.0133869
800.640	0.0135018
800.718	0.0135501
800.796	0.0136739
800.874	0.0135715
800.953	0.0134442
801.031	0.0135187
801.109	0.0135625
801.187	0.0134824
801.265	0.0134221
801.343	0.0136616
801.421	0.0136366
801.499	0.0135645
801.578	0.0135954
801.656	0.0137523
801.734	0.0137007
801.812	0.0136475
801.890	0.0136266
801.968	0.0139043
802.046	0.0139149
802.124	0.0137372
802.203	0.0138316
802.281	0.0138057
802.359	0.0138018
802.437	0.0138342
802.515	0.0136540
802.593	0.0136197
802.671	0.0136508
802.749	0.0136049
802.828	0.0135707
802.906	0.0136745
802.984	0.0136708
803.062	0.0138457
803.140	0.0138903
803.218	0.0140052
803.296	0.0140699
803.374	0.0141656
803.453	0.0140477
803.531	0.0139819
803.609	0.0140482
803.687	0.0139335
803.765	0.0138776
803.843	0.0138393
803.921	0.0138791
803.999	0.0137460
804.078	0.0136868
804.156	0.0137598
804.234	0.0137460
804.312	0.0139491
804.390	0.0138575
804.468	0.0136864
804.546	0.0139105
804.624	0.0140763
804.703	0.0140286
804.781	0.0140064
804.859	0.0141125
804.937	0.0140439
805.015	0.0140765
805.093	0.0140974
805.171	0.0139941
805.249	0.0139438
805.328	0.0138209
805.406	0.0139397
805.484	0.0139860
805.562	0.0138385
805.640	0.0138310
805.718	0.0137405
805.796	0.0135701
805.874	0.0135833
805.953	0.0136513
806.031	0.0134616
806.109	0.0134048
806.187	0.0134530
806.265	0.0135384
806.343	0.0134825
806.421	0.0132787
806.499	0.0133463
806.578	0.0132384
806.656	0.0133083
806.734	0.0132707
806.812	0.0133890
806.890	0.0134663
806.968	0.0135487
807.046	0.0137128
807.124	0.0136364
807.203	0.0138036
807.281	0.0137375
807.359	0.0137007
807.437	0.0140002
807.515	0.0139935
807.593	0.0140443
807.671	0.0140618
807.749	0.0141125
807.828	0.0141582
807.906	0.0141553
807.984	0.0140145
808.062	0.0139495
808.140	0.0137911
808.218	0.0137493
808.296	0.0136655
808.374	0.0137506
808.453	0.0135595
808.531	0.0136484
808.609	0.0136962
808.687	0.0136147
808.765	0.0137122
808.843	0.0137312
808.921	0.0139314
808.999	0.0139023
809.078	0.0138630
809.156	0.0140341
809.234	0.0139329
809.312	0.0138998
809.390	0.0138745
809.468	0.0139676
809.546	0.0139217
809.624	0.0138706
809.703	0.0138245
809.781	0.0138184
809.859	0.0137574
809.937	0.0135426
810.015	0.0136549
810.093	0.0136749
810.171	0.0138189
810.249	0.0137116
810.328	0.0135917
810.406	0.0137231
810.484	0.0137334
810.562	0.0136970
810.640	0.0138438
810.718	0.0137978
810.796	0.0138210
810.874	0.0138566
810.953	0.0138490
811.031	0.0138488
811.109	0.0136803
811.187	0.0138454
811.265	0.0136963
811.343	0.0137342
811.421	0.0135895
811.499	0.0134776
811.578	0.0133775
811.656	0.0131455
811.734	0.0132091
811.812	0.0132497
811.890	0.0131721
811.968	0.0132143
812.046	0.0130708
812.124	0.0131529
812.203	0.0133461
812.281	0.0134984
812.359	0.0135363
812.437	0.0135480
812.515	0.0137823
812.593	0.0139370
812.671	0.0139653
812.749	0.0140605
812.828	0.0140832
812.906	0.0141765
812.984	0.0142559
813.062	0.0141869
813.140	0.0142493
813.218	0.0141434
813.296	0.0138648
813.374	0.0139808
813.453	0.0138240
813.531	0.0137572
813.609	0.0138562
813.687	0.0138538
813.765	0.0138380
813.843	0.0138007
813.921	0.0138810
813.999	0.0139908
814.078	0.0139039
814.156	0.0140587
814.234	0.0139482
814.312	0.0140572
814.390	0.0141608
814.468	0.0141128
814.546	0.0142496
814.624	0.0141656
814.703	0.0141227
814.781	0.0140750
814.859	0.0140222
814.937	0.0140952
815.015	0.0139500
815.093	0.0140656
815.171	0.0140591
815.249	0.0138383
815.328	0.0137379
815.406	0.0139223
815.484	0.0139711
815.562	0.0138991
815.640	0.0140444
815.718	0.0139532
815.796	0.0140055
815.874	0.0141168
815.953	0.0141596
816.031	0.0138911
816.109	0.0138625
816.187	0.0138873
816.265	0.0138842
816.343	0.0138680
816.421	0.0138351
816.499	0.0137685
816.578	0.0135836
816.656	0.0134635
816.734	0.0135888
816.812	0.0133392
816.890	0.0132028
816.968	0.0133307
817.046	0.0133901
817.124	0.0133762
817.203	0.0133714
817.281	0.0132564
817.359	0.0132803
817.437	0.0132581
817.515	0.0132225
817.593	0.0132137
817.671	0.0132115
817.749	0.0133026
817.828	0.0133251
817.906	0.0133653
817.984	0.0133914
818.062	0.0136415
818.140	0.0136861
818.218	0.0136768
818.296	0.0137657
818.374	0.0137150
818.453	0.0137702
818.531	0.0138279
818.609	0.0137776
818.687	0.0138190
818.765	0.0138701
818.843	0.0139223
818.921	0.0138169
818.999	0.0139264
819.078	0.0138723
819.156	0.0138698
819.234	0.0139852
819.312	0.0137563
819.390	0.0139880
819.468	0.0137669
819.546	0.0138095
819.624	0.0138889
819.703	0.0139008
819.781	0.0138380
819.859	0.0138734
819.937	0.0139112
820.015	0.0139400
820.093	0.0139401
820.171	0.0138878
820.249	0.0138997
820.328	0.0139572
820.406	0.0138120
820.484	0.0138178
820.562	0.0139287
820.640	0.0138858
820.718	0.0137473
820.796	0.0138585
820.874	0.0137366
820.953	0.0138209
821.031	0.0139508
821.109	0.0137896
821.187	0.0137929
821.265	0.0139458
821.343	0.0137700
821.421	0.0138611
821.499	0.0139847
821.578	0.0139401
821.656	0.0138777
821.734	0.0138499
821.812	0.0138792
821.890	0.0138359
821.968	0.0138128
822.046	0.0137599
822.124	0.0137325
822.203	0.0137391
822.281	0.0138963
822.359	0.0137241
822.437	0.0137278
822.515	0.0138718
822.593	0.0138499
822.671	0.0139542
822.749	0.0139384
822.828	0.0137752
822.906	0.0138290
822.984	0.0139000
823.062	0.0138311
823.140	0.0138976
823.218	0.0139534
823.296	0.0138506
823.374	0.0139573
823.453	0.0139549
823.531	0.0138180
823.609	0.0137778
823.687	0.0137203
823.765	0.0136916
823.843	0.0137829
823.921	0.0138394
823.999	0.0138238
824.078	0.0138000
824.156	0.0137764
824.234	0.0138229
824.312	0.0137864
824.390	0.0135537
824.468	0.0137926
824.546	0.0138377
824.624	0.0138819
824.703	0.0135992
824.781	0.0136265
824.859	0.0135940
824.937	0.0136523
825.015	0.0135104
825.093	0.0136180
825.171	0.0135599
825.249	0.0134835
825.328	0.0135696
825.406	0.0136124
825.484	0.0134939
825.562	0.0134628
825.640	0.0135364
825.718	0.0135022
825.796	0.0134636
825.874	0.0137133
825.953	0.0136435
826.031	0.0137614
826.109	0.0136902
826.187	0.0137475
826.265	0.0137299
826.343	0.0136649
826.421	0.0138046
826.499	0.0135809
826.578	0.0137323
826.656	0.0137255
826.734	0.0138443
826.812	0.0137733
826.890	0.0138128
826.968	0.0138087
827.046	0.0139289
827.124	0.0137685
827.203	0.0136795
827.281	0.0138542
827.359	0.0138593
827.437	0.0138456
827.515	0.0138615
827.593	0.0136966
827.671	0.0138580
827.749	0.0138193
827.828	0.0137711
827.906	0.0137410
827.984	0.0137703
828.062	0.0139795
828.140	0.0139439
828.218	0.0137634
828.296	0.0137965
828.374	0.0136720
828.453	0.0136436
828.531	0.0136510
828.609	0.0137967
828.687	0.0137045
828.765	0.0138199
828.843	0.0136661
828.921	0.0135490
828.999	0.0135138
829.078	0.0134966
829.156	0.0135876
829.234	0.0137399
829.312	0.0136823
829.390	0.0136050
829.468	0.0136304
829.546	0.0135533
829.624	0.0135663
829.703	0.0137283
829.781	0.0138396
829.859	0.0137115
829.937	0.0137750
830.015	0.0138422
830.093	0.0137595
830.171	0.0139408
830.249	0.0139214
830.328	0.0138045
830.406	0.0138232
830.484	0.0138185
830.562	0.0137976
830.640	0.0138542
830.718	0.0137234
830.796	0.0136787
830.874	0.0137539
830.953	0.0139330
831.031	0.0138686
831.109	0.0137238
831.187	0.0137299
831.265	0.0138480
831.343	0.0137751
831.421	0.0138445
831.499	0.0138524
831.578	0.0138879
831.656	0.0138993
831.734	0.0139017
831.812	0.0140314
831.890	0.0138617
831.968	0.0139105
832.046	0.0139058
832.124	0.0138094
832.203	0.0137685
832.281	0.0136937
832.359	0.0137491
832.437	0.0135758
832.515	0.0135841
832.593	0.0134943
832.671	0.0135576
832.749	0.0134138
832.828	0.0135109
832.906	0.0135786
832.984	0.0134332
833.062	0.0135780
833.140	0.0135157
833.218	0.0135365
833.296	0.0137949
833.374	0.0137885
833.453	0.0137623
833.531	0.0136323
833.609	0.0137732
833.687	0.0138259
833.765	0.0136494
833.843	0.0136562
833.921	0.0135875
833.999	0.0136388
834.078	0.0135732
834.156	0.0134509
834.234	0.0135972
834.312	0.0135287
834.390	0.0134139
834.468	0.0135424
834.546	0.0135104
834.624	0.0136774
834.703	0.0134864
834.781	0.0133915
834.859	0.0135855
834.937	0.0135941
835.015	0.0136049
835.093	0.0136005
835.171	0.0137064
835.249	0.0137101
835.328	0.0138586
835.406	0.0138371
835.484	0.0137801
835.562	0.0137840
835.640	0.0137825
835.718	0.0137802
835.796	0.0139230
835.874	0.0138445
835.953	0.0138851
836.031	0.0139516
836.109	0.0139383
836.187	0.0139758
836.265	0.0138743
836.343	0.0138816
836.421	0.0140033
836.499	0.0140529
836.578	0.0140574
836.656	0.0140172
836.734	0.0140484
836.812	0.0141192
836.890	0.0140565
836.968	0.0139854
837.046	0.0138982
837.124	0.0139613
837.203	0.0137722
837.281	0.0139059
837.359	0.0139528
837.437	0.0137880
837.515	0.0138094
837.593	0.0137735
837.671	0.0139420
837.749	0.0136874
837.828	0.0138320
837.906	0.0138795
837.984	0.0136688
838.062	0.0138721
838.140	0.0138277
838.218	0.0136277
838.296	0.0137978
838.374	0.0138898
838.453	0.0139651
838.531	0.0139688
838.609	0.0139780
838.687	0.0140761
838.765	0.0139301
838.843	0.0138897
838.921	0.0140202
838.999	0.0139977
839.078	0.0139751
839.156	0.0141213
839.234	0.0139347
839.312	0.0138529
839.390	0.0140116
839.468	0.0140531
839.546	0.0138863
839.624	0.0138412
839.703	0.0139147
839.781	0.0138118
839.859	0.0138533
839.937	0.0137428
840.015	0.0138567
840.093	0.0138304
840.171	0.0139205
840.249	0.0140237
840.328	0.0139382
840.406	0.0139581
840.484	0.0137971
840.562	0.0138661
840.640	0.0138914
840.718	0.0139780
840.796	0.0139580
840.874	0.0137689
840.953	0.0137484
841.031	0.0136322
841.109	0.0136875
841.187	0.0137313
841.265	0.0137505
841.343	0.0136739
841.421	0.0136806
841.499	0.0137293
841.578	0.0137360
841.656	0.0136423
841.734	0.0136736
841.812	0.0135983
841.890	0.0137569
841.968	0.0137649
842.046	0.0136625
842.124	0.0135228
842.203	0.0135937
842.281	0.0137106
842.359	0.0136964
842.437	0.0137813
842.515	0.0137523
842.593	0.0135508
842.671	0.0137726
842.749	0.0137087
842.828	0.0135865
842.906	0.0137472
842.984	0.0136906
843.062	0.0137828
843.140	0.0139279
843.218	0.0139193
843.296	0.0138369
843.374	0.0137765
843.453	0.0138233
843.531	0.0137529
843.609	0.0138696
843.687	0.0139058
843.765	0.0140439
843.843	0.0139203
843.921	0.0138097
843.999	0.0138557
844.078	0.0140594
844.156	0.0139835
844.234	0.0140036
844.312	0.0140506
844.390	0.0141316
844.468	0.0140461
844.546	0.0141105
844.624	0.0139683
844.703	0.0140359
844.781	0.0140431
844.859	0.0140031
844.937	0.0140327
845.015	0.0139282
845.093	0.0138274
845.171	0.0138235
845.249	0.0139137
845.328	0.0138094
845.406	0.0137097
845.484	0.0135697
845.562	0.0135970
845.640	0.0136221
845.718	0.0136765
845.796	0.0135591
845.874	0.0135191
845.953	0.0135532
846.031	0.0135703
846.109	0.0136433
846.187	0.0136829
846.265	0.0137620
846.343	0.0135304
846.421	0.0136056
846.499	0.0135882
846.578	0.0136987
846.656	0.0137108
846.734	0.0137698
846.812	0.0136690
846.890	0.0137460
846.968	0.0136775
847.046	0.0137782
847.124	0.0137396
847.203	0.0137460
847.281	0.0137536
847.359	0.0138441
847.437	0.0137852
847.515	0.0137683
847.593	0.0139437
847.671	0.0139089
847.749	0.0138518
847.828	0.0139808
847.906	0.0140765
847.984	0.0140442
848.062	0.0141041
848.140	0.0140633
848.218	0.0142544
848.296	0.0140643
848.374	0.0140627
848.453	0.0140112
848.531	0.0141747
848.609	0.0141444
848.687	0.0141142
848.765	0.0140396
848.843	0.0138620
848.921	0.0139699
848.999	0.0138470
849.078	0.0139326
849.156	0.0138657
849.234	0.0138300
849.312	0.0136530
849.390	0.0136854
849.468	0.0137204
849.546	0.0137274
849.624	0.0136477
849.703	0.0136745
849.781	0.0136823
849.859	0.0136961
849.937	0.0135603
850.015	0.0136221
850.093	0.0136610
850.171	0.0136652
850.249	0.0134069
850.328	0.0134120
850.406	0.0135847
850.484	0.0135905
850.562	0.0135731
850.640	0.0135557
850.718	0.0135089
850.796	0.0134747
850.874	0.0135883
850.953	0.0135006
851.031	0.0134901
851.109	0.0135172
851.187	0.0135619
851.265	0.0136665
851.343	0.0137205
851.421	0.0136158
851.499	0.0137257
851.578	0.0137762
851.656	0.0136678
851.734	0.0138075
851.812	0.0139574
851.890	0.0139146
851.968	0.0137602
852.046	0.0139075
852.124	0.0139655
852.203	0.0138563
852.281	0.0138526
852.359	0.0138240
852.437	0.0138737
852.515	0.0138558
852.593	0.0138428
852.671	0.0139275
852.749	0.0138136
852.828	0.0138984
852.906	0.0139699
852.984	0.0140233
853.062	0.0138281
853.140	0.0138915
853.218	0.0138315
853.296	0.0138737
853.374	0.0138979
853.453	0.0138167
853.531	0.0138844
853.609	0.0138445
853.687	0.0137358
853.765	0.0138491
853.843	0.0138241
853.921	0.0138549
853.999	0.0139462
854.078	0.0138059
854.156	0.0137811
854.234	0.0137856
854.312	0.0138132
854.390	0.0137440
854.468	0.0138985
854.546	0.0139858
854.624	0.0138178
854.703	0.0138763
854.781	0.0139742
854.859	0.0139742
854.937	0.0138709
855.015	0.0137926
855.093	0.0140130
855.171	0.0140963
855.249	0.0140874
855.328	0.0139536
855.406	0.0138758
855.484	0.0140775
855.562	0.0139259
855.640	0.0139903
855.718	0.0139886
855.796	0.0140627
855.874	0.0141434
855.953	0.0140031
856.031	0.0139198
856.109	0.0138612
856.187	0.0139628
856.265	0.0140015
856.343	0.0139500
856.421	0.0140086
856.499	0.0140138
856.578	0.0137920
856.656	0.0138517
856.734	0.0138287
856.812	0.0138528
856.890	0.0137222
856.968	0.0136831
857.046	0.0136554
857.124	0.0137691
857.203	0.0136071
857.281	0.0136033
857.359	0.0136425
857.437	0.0135959
857.515	0.0135282
857.593	0.0137879
857.671	0.0136700
857.749	0.0136160
857.828	0.0136855
857.906	0.0136168
857.984	0.0135536
858.062	0.0137110
858.140	0.0135474
858.218	0.0137325
858.296	0.0137150
858.374	0.0137162
858.453	0.0137145
858.531	0.0136079
858.609	0.0137146
858.687	0.0136848
858.765	0.0137466
858.843	0.0137999
858.921	0.0136513
858.999	0.0138210
859.078	0.0137185
859.156	0.0138563
859.234	0.0137258
859.312	0.0138245
859.390	0.0138115
859.468	0.0137215
859.546	0.0138062
859.624	0.0139880
859.703	0.0139629
859.781	0.0138983
859.859	0.0139243
859.937	0.0139070
860.015	0.0139074
860.093	0.0140124
860.171	0.0139000
860.249	0.0137420
860.328	0.0137997
860.406	0.0137653
860.484	0.0135255
860.562	0.0137123
860.640	0.0135941
860.718	0.0136335
860.796	0.0138036
860.874	0.0137434
860.953	0.0137397
861.031	0.0137211
861.109	0.0136165
861.187	0.0137919
861.265	0.0136695
861.343	0.0138395
861.421	0.0138252
861.499	0.0138641
861.578	0.0136343
861.656	0.0137311
861.734	0.0138137
861.812	0.0136388
861.890	0.0138326
861.968	0.0137524
862.046	0.0137428
862.124	0.0136795
862.203	0.0137620
862.281	0.0136955
862.359	0.0136201
862.437	0.0137746
862.515	0.0138046
862.593	0.0134720
862.671	0.0135644
862.749	0.0136397
862.828	0.0136222
862.906	0.0136417
862.984	0.0136281
863.062	0.0136485
863.140	0.0136214
863.218	0.0136800
863.296	0.0136169
863.374	0.0135771
863.453	0.0135066
863.531	0.0136783
863.609	0.0136987
863.687	0.0136169
863.765	0.0135255
863.843	0.0136278
863.921	0.0137257
863.999	0.0136971
864.078	0.0135580
864.156	0.0135636
864.234	0.0136324
864.312	0.0138204
864.390	0.0136803
864.468	0.0138277
864.546	0.0135519
864.624	0.0136692
864.703	0.0137726
864.781	0.0137650
864.859	0.0138237
864.937	0.0137196
865.015	0.0137732
865.093	0.0136545
865.171	0.0136713
865.249	0.0136817
865.328	0.0136151
865.406	0.0136047
865.484	0.0136507
865.562	0.0136945
865.640	0.0136777
865.718	0.0136585
865.796	0.0135493
865.874	0.0136942
865.953	0.0138144
866.031	0.0136446
866.109	0.0137000
866.187	0.0137405
866.265	0.0137751
866.343	0.0138654
866.421	0.0138543
866.499	0.0137660
866.578	0.0137933
866.656	0.0139283
866.734	0.0139506
866.812	0.0139104
866.890	0.0138251
866.968	0.0139727
867.046	0.0140068
867.124	0.0139214
867.203	0.0140325
867.281	0.0139880
867.359	0.0139805
867.437	0.0139754
867.515	0.0140194
867.593	0.0138461
867.671	0.0141181
867.749	0.0141557
867.828	0.0140382
867.906	0.0139898
867.984	0.0139885
868.062	0.0139490
868.140	0.0140765
868.218	0.0139798
868.296	0.0141338
868.374	0.0140654
868.453	0.0140260
868.531	0.0139703
868.609	0.0141259
868.687	0.0141048
868.765	0.0140277
868.843	0.0138991
868.921	0.0139841
868.999	0.0139482
869.078	0.0140681
869.156	0.0140244
869.234	0.0137899
869.312	0.0139565
869.390	0.0140417
869.468	0.0139594
869.546	0.0137459
869.624	0.0139234
869.703	0.0138605
869.781	0.0138656
869.859	0.0137988
869.937	0.0137625
870.015	0.0137684
870.093	0.0138100
870.171	0.0137751
870.249	0.0136497
870.328	0.0137175
870.406	0.0136987
870.484	0.0136897
870.562	0.0137729
870.640	0.0136859
870.718	0.0136156
870.796	0.0135912
870.874	0.0136590
870.953	0.0135812
871.031	0.0135840
871.109	0.0137817
871.187	0.0137643
871.265	0.0136977
871.343	0.0136214
871.421	0.0137318
871.499	0.0137480
871.578	0.0136581
871.656	0.0137960
871.734	0.0138783
871.812	0.0138310
871.890	0.0139091
871.968	0.0138616
872.046	0.0139261
872.124	0.0138087
872.203	0.0138548
872.281	0.0138434
872.359	0.0138805
872.437	0.0139971
872.515	0.0139323
872.593	0.0139958
872.671	0.0138244
872.749	0.0139553
872.828	0.0139133
872.906	0.0139214
872.984	0.0137919
873.062	0.0139404
873.140	0.0140065
873.218	0.0138047
873.296	0.0138716
873.374	0.0138377
873.453	0.0139395
873.531	0.0138786
873.609	0.0137704
873.687	0.0138773
873.765	0.0137842
873.843	0.0138572
873.921	0.0136304
873.999	0.0137896
874.078	0.0138332
874.156	0.0136741
874.234	0.0136419
874.312	0.0135516
874.390	0.0137585
874.468	0.0136723
874.546	0.0134490
874.624	0.0136039
874.703	0.0135802
874.781	0.0134258
874.859	0.0134495
874.937	0.0135490
875.015	0.0134620
875.093	0.0135066
875.171	0.0135267
875.249	0.0136111
875.328	0.0136379
875.406	0.0135382
875.484	0.0135736
875.562	0.0137523
875.640	0.0138303
875.718	0.0138403
875.796	0.0138239
875.874	0.0137958
875.953	0.0139030
876.031	0.0138840
876.109	0.0138480
876.187	0.0137717
876.265	0.0140008
876.343	0.0139013
876.421	0.0139730
876.499	0.0138582
876.578	0.0139703
876.656	0.0140845
876.734	0.0139381
876.812	0.0138271
876.890	0.0140339
876.968	0.0141138
877.046	0.0141733
877.124	0.0140183
877.203	0.0141257
877.281	0.0141950
877.359	0.0140508
877.437	0.0140703
877.515	0.0140079
877.593	0.0139836
877.671	0.0140490
877.749	0.0140571
877.828	0.0140290
877.906	0.0140501
877.984	0.0139906
878.062	0.0139117
878.140	0.0139963
878.218	0.0137901
878.296	0.0137680
878.374	0.0138963
878.453	0.0137344
878.531	0.0135728
878.609	0.0137774
878.687	0.0136726
878.765	0.0137865
878.843	0.0137178
878.921	0.0137413
878.999	0.0137936
879.078	0.0136767
879.156	0.0137101
879.234	0.0137348
879.312	0.0138512
879.390	0.0138869
879.468	0.0137807
879.546	0.0138763
879.624	0.0138263
879.703	0.0138120
879.781	0.0140567
879.859	0.0139893
879.937	0.0138558
880.015	0.0139192
880.093	0.0138733
880.171	0.0138209
880.249	0.0139281
880.328	0.0138706
880.406	0.0137603
880.484	0.0137730
880.562	0.0138823
880.640	0.0139977
880.718	0.0139796
880.796	0.0139313
880.874	0.0136513
880.953	0.0137674
881.031	0.0136073
881.109	0.0137117
881.187	0.0137750
881.265	0.0137881
881.343	0.0137340
881.421	0.0136458
881.499	0.0136758
881.578	0.0135856
881.656	0.0138515
881.734	0.0137209
881.812	0.0137072
881.890	0.0137718
881.968	0.0137540
882.046	0.0136378
882.124	0.0136609
882.203	0.0137617
882.281	0.0136695
882.359	0.0137962
882.437	0.0138457
882.515	0.0136911
882.593	0.0137988
882.671	0.0139706
882.749	0.0138287
882.828	0.0140404
882.906	0.0139674
882.984	0.0139492
883.062	0.0140119
883.140	0.0140508
883.218	0.0141718
883.296	0.0140396
883.374	0.0141257
883.453	0.0140620
883.531	0.0139022
883.609	0.0140103
883.687	0.0140514
883.765	0.0140176
883.843	0.0140443
883.921	0.0138396
883.999	0.0140013
884.078	0.0139107
884.156	0.0137479
884.234	0.0138651
884.312	0.0137286
884.390	0.0136545
884.468	0.0137343
884.546	0.0136202
884.624	0.0138019
884.703	0.0136526
884.781	0.0136139
884.859	0.0135886
884.937	0.0136226
885.015	0.0135619
885.093	0.0136669
885.171	0.0135186
885.249	0.0136050
885.328	0.0135905
885.406	0.0135471
885.484	0.0136225
885.562	0.0135928
885.640	0.0135361
885.718	0.0134636
885.796	0.0135004
885.874	0.0136835
885.953	0.0135199
886.031	0.0135367
886.109	0.0135741
886.187	0.0135802
886.265	0.0136126
886.343	0.0136620
886.421	0.0134994
886.499	0.0135262
886.578	0.0136450
886.656	0.0134956
886.734	0.0136417
886.812	0.0136799
886.890	0.0137144
886.968	0.0135216
887.046	0.0136613
887.124	0.0137459
887.203	0.0137584
887.281	0.0138564
887.359	0.0137920
887.437	0.0138094
887.515	0.0136852
887.593	0.0135864
887.671	0.0137354
887.749	0.0136475
887.828	0.0137420
887.906	0.0137177
887.984	0.0136651
888.062	0.0138271
888.140	0.0136485
888.218	0.0136082
888.296	0.0137135
888.374	0.0136953
888.453	0.0135880
888.531	0.0136784
888.609	0.0136266
888.687	0.0136999
888.765	0.0136316
888.843	0.0136649
888.921	0.0134786
888.999	0.0137216
889.078	0.0135664
889.156	0.0136382
889.234	0.0136166
889.312	0.0137631
889.390	0.0136098
889.468	0.0136113
889.546	0.0136803
889.624	0.0135538
889.703	0.0135698
889.781	0.0137027
889.859	0.0136143
889.937	0.0136514
890.015	0.0137665
890.093	0.0136042
890.171	0.0137206
890.249	0.0137834
890.328	0.0137414
890.406	0.0138056
890.484	0.0136684
890.562	0.0138563
890.640	0.0139883
890.718	0.0138171
890.796	0.0138958
890.874	0.0139144
890.953	0.0139568
891.031	0.0138011
891.109	0.0138423
891.187	0.0138844
891.265	0.0138500
891.343	0.0139116
891.421	0.0139334
891.499	0.0139629
891.578	0.0138587
891.656	0.0139893
891.734	0.0137955
891.812	0.0137737
891.890	0.0137875
891.968	0.0137985
892.046	0.0137464
892.124	0.0138094
892.203	0.0138205
892.281	0.0137173
892.359	0.0138747
892.437	0.0138926
892.515	0.0139329
892.593	0.0138602
892.671	0.0137915
892.749	0.0139022
892.828	0.0139486
892.906	0.0137603
892.984	0.0136938
893.062	0.0137592
893.140	0.0137411
893.218	0.0137162
893.296	0.0136748
893.374	0.0136489
893.453	0.0137804
893.531	0.0137263
893.609	0.0136238
893.687	0.0137206
893.765	0.0137795
893.843	0.0137771
893.921	0.0138399
893.999	0.0138316
894.078	0.0137434
894.156	0.0137144
894.234	0.0136939
894.312	0.0137183
894.390	0.0137383
894.468	0.0136929
894.546	0.0136893
894.624	0.0138056
894.703	0.0138974
894.781	0.0137795
894.859	0.0136827
894.937	0.0138262
895.015	0.0139516
895.093	0.0139308
895.171	0.0138012
895.249	0.0139114
895.328	0.0139305
895.406	0.0137637
895.484	0.0139072
895.562	0.0139727
895.640	0.0139159
895.718	0.0138404
895.796	0.0139455
895.874	0.0139336
895.953	0.0138219
896.031	0.0139151
896.109	0.0139114
896.187	0.0139981
896.265	0.0140036
896.343	0.0139300
896.421	0.0139309
896.499	0.0139503
896.578	0.0138832
896.656	0.0139735
896.734	0.0141502
896.812	0.0139067
896.890	0.0139628
896.968	0.0139574
897.046	0.0140327
897.124	0.0139938
897.203	0.0139753
897.281	0.0138895
897.359	0.0140205
897.437	0.0139010
897.515	0.0140490
897.593	0.0139402
897.671	0.0137713
897.749	0.0138826
897.828	0.0138419
897.906	0.0138377
897.984	0.0138097
898.062	0.0137720
898.140	0.0137374
898.218	0.0137068
898.296	0.0136471
898.374	0.0137770
898.453	0.0137544
898.531	0.0136607
898.609	0.0135715
898.687	0.0135796
898.765	0.0136747
898.843	0.0135997
898.921	0.0136930
898.999	0.0137840
899.078	0.0137553
899.156	0.0136816
899.234	0.0136460
899.312	0.0136791
899.390	0.0135928
899.468	0.0136405
899.546	0.0138332
899.624	0.0137019
899.703	0.0137440
899.781	0.0137816
899.859	0.0137729
899.937	0.0138560
900.015	0.0137682
900.093	0.0138084
900.171	0.0139078
900.249	0.0138574
900.328	0.0139893
900.406	0.0138715
900.484	0.0137879
900.562	0.0138177
900.640	0.0139308
900.718	0.0137714
900.796	0.0139794
900.874	0.0137779
900.953	0.0140367
901.031	0.0138923
901.109	0.0139658
901.187	0.0138074
901.265	0.0138496
901.343	0.0138776
901.421	0.0139258
901.499	0.0140353
901.578	0.0138563
901.656	0.0138031
901.734	0.0139382
901.812	0.0138705
901.890	0.0139146
901.968	0.0139676
902.046	0.0141045
902.124	0.0139119
902.203	0.0139069
902.281	0.0139070
902.359	0.0138865
902.437	0.0139313
902.515	0.0140475
902.593	0.0139515
902.671	0.0138211
902.749	0.0138824
902.828	0.0136557
902.906	0.0138589
902.984	0.0138611
903.062	0.0138407
903.140	0.0138971
903.218	0.0136171
903.296	0.0137560
903.374	0.0138801
903.453	0.0138496
903.531	0.0138337
903.609	0.0138306
903.687	0.0138222
903.765	0.0137677
903.843	0.0137710
903.921	0.0138074
903.999	0.0137605
904.078	0.0138344
904.156	0.0138014
904.234	0.0137195
904.312	0.0137969
904.390	0.0137614
904.468	0.0136852
904.546	0.0136954
904.624	0.0138255
904.703	0.0136121
904.781	0.0137361
904.859	0.0137750
904.937	0.0137388
905.015	0.0136384
905.093	0.0137745
905.171	0.0136823
905.249	0.0136525
905.328	0.0136346
905.406	0.0136592
905.484	0.0135453
905.562	0.0136639
905.640	0.0137534
905.718	0.0136787
905.796	0.0135730
905.874	0.0137292
905.953	0.0137896
906.031	0.0138313
906.109	0.0135661
906.187	0.0136648
906.265	0.0137675
906.343	0.0137414
906.421	0.0136600
906.499	0.0137890
906.578	0.0138139
906.656	0.0136755
906.734	0.0138538
906.812	0.0139279
906.890	0.0139172
906.968	0.0138078
907.046	0.0138045
907.124	0.0139022
907.203	0.0138609
907.281	0.0138506
907.359	0.0138612
907.437	0.0139454
907.515	0.0139999
907.593	0.0138844
907.671	0.0139704
907.749	0.0138740
907.828	0.0138488
907.906	0.0138902
907.984	0.0138203
908.062	0.0138607
908.140	0.0139075
908.218	0.0138237
908.296	0.0138737
908.374	0.0140834
908.453	0.0138924
908.531	0.0138887
908.609	0.0140127
908.687	0.0139870
908.765	0.0140153
908.843	0.0139670
908.921	0.0139710
908.999	0.0138026
909.078	0.0139222
909.156	0.0139461
909.234	0.0138499
909.312	0.0139806
909.390	0.0138694
909.468	0.0138784
909.546	0.0137675
909.624	0.0139023
909.703	0.0138309
909.781	0.0139213
909.859	0.0137213
909.937	0.0138566
910.015	0.0137077
910.093	0.0137472
910.171	0.0136672
910.249	0.0137970
910.328	0.0137708
910.406	0.0137386
910.484	0.0136508
910.562	0.0136767
910.640	0.0137330
910.718	0.0136602
910.796	0.0136577
910.874	0.0137475
910.953	0.0136847
911.031	0.0137666
911.109	0.0138924
911.187	0.0138667
911.265	0.0137292
911.343	0.0138992
911.421	0.0137593
911.499	0.0140195
911.578	0.0137881
911.656	0.0139091
911.734	0.0138086
911.812	0.0137356
911.890	0.0139593
911.968	0.0138616
912.046	0.0138708
912.124	0.0139367
912.203	0.0137771
912.281	0.0139475
912.359	0.0139534
912.437	0.0138307
912.515	0.0138465
912.593	0.0137731
912.671	0.0137592
912.749	0.0137918
912.828	0.0137943
912.906	0.0138457
912.984	0.0139127
913.062	0.0137533
913.140	0.0137595
913.218	0.0138760
913.296	0.0138937
913.374	0.0138387
913.453	0.0137929
913.531	0.0136669
913.609	0.0137188
913.687	0.0137684
913.765	0.0138280
913.843	0.0137538
913.921	0.0137902
913.999	0.0136741
914.078	0.0138763
914.156	0.0137646
914.234	0.0136736
914.312	0.0137452
914.390	0.0137923
914.468	0.0137881
914.546	0.0137755
914.624	0.0138594
914.703	0.0138403
914.781	0.0138671
914.859	0.0138121
914.937	0.0138579
915.015	0.0138042
915.093	0.0138187
915.171	0.0137652
915.249	0.0138430
915.328	0.0139701
915.406	0.0139060
915.484	0.0140593
915.562	0.0140896
915.640	0.0140393
915.718	0.0138750
915.796	0.0138708
915.874	0.0139759
915.953	0.0138451
916.031	0.0139208
916.109	0.0138716
916.187	0.0139720
916.265	0.0138597
916.343	0.0138811
916.421	0.0139242
916.499	0.0139922
916.578	0.0140786
916.656	0.0138590
916.734	0.0139310
916.812	0.0138313
916.890	0.0137417
916.968	0.0138424
917.046	0.0138568
917.124	0.0136803
917.203	0.0137874
917.281	0.0138449
917.359	0.0139064
917.437	0.0136295
917.515	0.0136720
917.593	0.0137730
917.671	0.0137461
917.749	0.0136806
917.828	0.0136920
917.906	0.0137688
917.984	0.0136269
918.062	0.0134808
918.140	0.0136391
918.218	0.0136983
918.296	0.0137413
918.374	0.0136710
918.453	0.0136710
918.531	0.0136649
918.609	0.0137463
918.687	0.0137062
918.765	0.0137276
918.843	0.0136408
918.921	0.0135514
918.999	0.0136498
919.078	0.0137037
919.156	0.0136889
919.234	0.0135892
919.312	0.0135863
919.390	0.0137048
919.468	0.0136686
919.546	0.0138406
919.624	0.0137122
919.703	0.0138202
919.781	0.0137183
919.859	0.0137566
919.937	0.0138527
