05/08/2022	20:24:47	Ver.	4.1	UNKNOWN
Optical Delay	600.015094	Delta X		0.078125	Sweeps	1	Scan Rate	0/0
Coordinates	Axis 1	NaN	Axis 2	NaN	Axis 3	NaN	Axis 4	NaN	Axis 5	NaN	Axis 6	0.000000
TX Power	0.000000	RX Power	0.000000

600.015	0.0136417
600.093	0.0136385
600.171	0.0137250
600.249	0.0136777
600.328	0.0135060
600.406	0.0137624
600.484	0.0138876
600.562	0.0135886
600.640	0.0136015
600.718	0.0137309
600.796	0.0137743
600.874	0.0136475
600.953	0.0136458
601.031	0.0135594
601.109	0.0137227
601.187	0.0136253
601.265	0.0136338
601.343	0.0136523
601.421	0.0136041
601.499	0.0138704
601.578	0.0135556
601.656	0.0136645
601.734	0.0137064
601.812	0.0136805
601.890	0.0137100
601.968	0.0135863
602.046	0.0134761
602.124	0.0136146
602.203	0.0135464
602.281	0.0136009
602.359	0.0136801
602.437	0.0136366
602.515	0.0135547
602.593	0.0136024
602.671	0.0137775
602.749	0.0137051
602.828	0.0136338
602.906	0.0136131
602.984	0.0135762
603.062	0.0135734
603.140	0.0136592
603.218	0.0136617
603.296	0.0137493
603.374	0.0137691
603.453	0.0137041
603.531	0.0138206
603.609	0.0136233
603.687	0.0136867
603.765	0.0137721
603.843	0.0136752
603.921	0.0136153
603.999	0.0135943
604.078	0.0136781
604.156	0.0136797
604.234	0.0135567
604.312	0.0136638
604.390	0.0135486
604.468	0.0134355
604.546	0.0134981
604.624	0.0135618
604.703	0.0135769
604.781	0.0135228
604.859	0.0134524
604.937	0.0135181
605.015	0.0134081
605.093	0.0135471
605.171	0.0136212
605.249	0.0136024
605.328	0.0135094
605.406	0.0135378
605.484	0.0135334
605.562	0.0134570
605.640	0.0134639
605.718	0.0136348
605.796	0.0133964
605.874	0.0134170
605.953	0.0133991
606.031	0.0136272
606.109	0.0135545
606.187	0.0135239
606.265	0.0133347
606.343	0.0135188
606.421	0.0135360
606.499	0.0134383
606.578	0.0134525
606.656	0.0134284
606.734	0.0134754
606.812	0.0134345
606.890	0.0134632
606.968	0.0133735
607.046	0.0135762
607.124	0.0134754
607.203	0.0135480
607.281	0.0135629
607.359	0.0136786
607.437	0.0136275
607.515	0.0134184
607.593	0.0134738
607.671	0.0136129
607.749	0.0137325
607.828	0.0136092
607.906	0.0135418
607.984	0.0136108
608.062	0.0136241
608.140	0.0136463
608.218	0.0136967
608.296	0.0136017
608.374	0.0137858
608.453	0.0135717
608.531	0.0135400
608.609	0.0136540
608.687	0.0136930
608.765	0.0135777
608.843	0.0137676
608.921	0.0135718
608.999	0.0135816
609.078	0.0136668
609.156	0.0136418
609.234	0.0136501
609.312	0.0137386
609.390	0.0137827
609.468	0.0137869
609.546	0.0136944
609.624	0.0136627
609.703	0.0137240
609.781	0.0135377
609.859	0.0136507
609.937	0.0136880
610.015	0.0136828
610.093	0.0138087
610.171	0.0137924
610.249	0.0137841
610.328	0.0137112
610.406	0.0138477
610.484	0.0137366
610.562	0.0137535
610.640	0.0135558
610.718	0.0135487
610.796	0.0137692
610.874	0.0139008
610.953	0.0137634
611.031	0.0136676
611.109	0.0136699
611.187	0.0138467
611.265	0.0137879
611.343	0.0138821
611.421	0.0137801
611.499	0.0138745
611.578	0.0138311
611.656	0.0137487
611.734	0.0138179
611.812	0.0138309
611.890	0.0136857
611.968	0.0138743
612.046	0.0138377
612.124	0.0138028
612.203	0.0138615
612.281	0.0138338
612.359	0.0137984
612.437	0.0138468
612.515	0.0138118
612.593	0.0138248
612.671	0.0138284
612.749	0.0138685
612.828	0.0138096
612.906	0.0138269
612.984	0.0138422
613.062	0.0139075
613.140	0.0138116
613.218	0.0137389
613.296	0.0137196
613.374	0.0137029
613.453	0.0138767
613.531	0.0137997
613.609	0.0138202
613.687	0.0137949
613.765	0.0138712
613.843	0.0137921
613.921	0.0137567
613.999	0.0138650
614.078	0.0136129
614.156	0.0137324
614.234	0.0138653
614.312	0.0137241
614.390	0.0136476
614.468	0.0137581
614.546	0.0137421
614.624	0.0137718
614.703	0.0136983
614.781	0.0136472
614.859	0.0136102
614.937	0.0136172
615.015	0.0136921
615.093	0.0136894
615.171	0.0135276
615.249	0.0136041
615.328	0.0136728
615.406	0.0136338
615.484	0.0137083
615.562	0.0138128
615.640	0.0136462
615.718	0.0136611
615.796	0.0136465
615.874	0.0137513
615.953	0.0136669
616.031	0.0138358
616.109	0.0136890
616.187	0.0137167
616.265	0.0136744
616.343	0.0137245
616.421	0.0137173
616.499	0.0136458
616.578	0.0136834
616.656	0.0136923
616.734	0.0136617
616.812	0.0135728
616.890	0.0135754
616.968	0.0135820
617.046	0.0136127
617.124	0.0137759
617.203	0.0136346
617.281	0.0136824
617.359	0.0136581
617.437	0.0135350
617.515	0.0136481
617.593	0.0136168
617.671	0.0136291
617.749	0.0135490
617.828	0.0137010
617.906	0.0136756
617.984	0.0136701
618.062	0.0135206
618.140	0.0136441
618.218	0.0136430
618.296	0.0136802
618.374	0.0137077
618.453	0.0135541
618.531	0.0137365
618.609	0.0139017
618.687	0.0137339
618.765	0.0136208
618.843	0.0136375
618.921	0.0137638
618.999	0.0138081
619.078	0.0137431
619.156	0.0137241
619.234	0.0137524
619.312	0.0137802
619.390	0.0136485
619.468	0.0138185
619.546	0.0137515
619.624	0.0138765
619.703	0.0138403
619.781	0.0138244
619.859	0.0137299
619.937	0.0137595
620.015	0.0138549
620.093	0.0138637
620.171	0.0137970
620.249	0.0138923
620.328	0.0137554
620.406	0.0137509
620.484	0.0136691
620.562	0.0138825
620.640	0.0136871
620.718	0.0137079
620.796	0.0136539
620.874	0.0137323
620.953	0.0137278
621.031	0.0135844
621.109	0.0136848
621.187	0.0137751
621.265	0.0136555
621.343	0.0136951
621.421	0.0135187
621.499	0.0135900
621.578	0.0136819
621.656	0.0137321
621.734	0.0135397
621.812	0.0135246
621.890	0.0135650
621.968	0.0135960
622.046	0.0136658
622.124	0.0135912
622.203	0.0134862
622.281	0.0135733
622.359	0.0135751
622.437	0.0135870
622.515	0.0135934
622.593	0.0136069
622.671	0.0135802
622.749	0.0135817
622.828	0.0137188
622.906	0.0136009
622.984	0.0135605
623.062	0.0137161
623.140	0.0137386
623.218	0.0135500
623.296	0.0136647
623.374	0.0137865
623.453	0.0137045
623.531	0.0134585
623.609	0.0134341
623.687	0.0136223
623.765	0.0136369
623.843	0.0135896
623.921	0.0135001
623.999	0.0137860
624.078	0.0136563
624.156	0.0135577
624.234	0.0136696
624.312	0.0135576
624.390	0.0136609
624.468	0.0136684
624.546	0.0135912
624.624	0.0135593
624.703	0.0136449
624.781	0.0135932
624.859	0.0135184
624.937	0.0135473
625.015	0.0137174
625.093	0.0136980
625.171	0.0136833
625.249	0.0136016
625.328	0.0135678
625.406	0.0136543
625.484	0.0135542
625.562	0.0136207
625.640	0.0135181
625.718	0.0136568
625.796	0.0134344
625.874	0.0134822
625.953	0.0135191
626.031	0.0135702
626.109	0.0135383
626.187	0.0134402
626.265	0.0133740
626.343	0.0135265
626.421	0.0135052
626.499	0.0135519
626.578	0.0134464
626.656	0.0135458
626.734	0.0134750
626.812	0.0135445
626.890	0.0134052
626.968	0.0134846
627.046	0.0134335
627.124	0.0134344
627.203	0.0134203
627.281	0.0136002
627.359	0.0134100
627.437	0.0135925
627.515	0.0135661
627.593	0.0135830
627.671	0.0134586
627.749	0.0134307
627.828	0.0135284
627.906	0.0136118
627.984	0.0136209
628.062	0.0134703
628.140	0.0135470
628.218	0.0135155
628.296	0.0137122
628.374	0.0134405
628.453	0.0135395
628.531	0.0134442
628.609	0.0135021
628.687	0.0137053
628.765	0.0134962
628.843	0.0134830
628.921	0.0135465
628.999	0.0135010
629.078	0.0137259
629.156	0.0136210
629.234	0.0135219
629.312	0.0135832
629.390	0.0134226
629.468	0.0134393
629.546	0.0135172
629.624	0.0136995
629.703	0.0135864
629.781	0.0136002
629.859	0.0136617
629.937	0.0134338
630.015	0.0136571
630.093	0.0135714
630.171	0.0135922
630.249	0.0135126
630.328	0.0135202
630.406	0.0135931
630.484	0.0136137
630.562	0.0135953
630.640	0.0135570
630.718	0.0135818
630.796	0.0136649
630.874	0.0137302
630.953	0.0137167
631.031	0.0135542
631.109	0.0136951
631.187	0.0136548
631.265	0.0137279
631.343	0.0136723
631.421	0.0136606
631.499	0.0135629
631.578	0.0135284
631.656	0.0136295
631.734	0.0137399
631.812	0.0136357
631.890	0.0136426
631.968	0.0135676
632.046	0.0136015
632.124	0.0136680
632.203	0.0137674
632.281	0.0136974
632.359	0.0138274
632.437	0.0136950
632.515	0.0138549
632.593	0.0138549
632.671	0.0137894
632.749	0.0138319
632.828	0.0138797
632.906	0.0137447
632.984	0.0137785
633.062	0.0139271
633.140	0.0138675
633.218	0.0138610
633.296	0.0137900
633.374	0.0137616
633.453	0.0137576
633.531	0.0137589
633.609	0.0138261
633.687	0.0137075
633.765	0.0138283
633.843	0.0137566
633.921	0.0137511
633.999	0.0138542
634.078	0.0138247
634.156	0.0139147
634.234	0.0139190
634.312	0.0138519
634.390	0.0138687
634.468	0.0138680
634.546	0.0137189
634.624	0.0137905
634.703	0.0137993
634.781	0.0138849
634.859	0.0138157
634.937	0.0138039
635.015	0.0138091
635.093	0.0137360
635.171	0.0138905
635.249	0.0137927
635.328	0.0138017
635.406	0.0136639
635.484	0.0137790
635.562	0.0137421
635.640	0.0138181
635.718	0.0138448
635.796	0.0137868
635.874	0.0137357
635.953	0.0138300
636.031	0.0138120
636.109	0.0136426
636.187	0.0136445
636.265	0.0136170
636.343	0.0135970
636.421	0.0135074
636.499	0.0136811
636.578	0.0135864
636.656	0.0135912
636.734	0.0135689
636.812	0.0138601
636.890	0.0134908
636.968	0.0136631
637.046	0.0136160
637.124	0.0137067
637.203	0.0137354
637.281	0.0138260
637.359	0.0137321
637.437	0.0137856
637.515	0.0139306
637.593	0.0139202
637.671	0.0137592
637.749	0.0136699
637.828	0.0137523
637.906	0.0138293
637.984	0.0138334
638.062	0.0138856
638.140	0.0137866
638.218	0.0136182
638.296	0.0137130
638.374	0.0138255
638.453	0.0137900
638.531	0.0138445
638.609	0.0137320
638.687	0.0138317
638.765	0.0137710
638.843	0.0139765
638.921	0.0139510
638.999	0.0138386
639.078	0.0140121
639.156	0.0139822
639.234	0.0139411
639.312	0.0139016
639.390	0.0137988
639.468	0.0138844
639.546	0.0136630
639.624	0.0137297
639.703	0.0137827
639.781	0.0138296
639.859	0.0136102
639.937	0.0136771
640.015	0.0137849
640.093	0.0137421
640.171	0.0137124
640.249	0.0136201
640.328	0.0135729
640.406	0.0136453
640.484	0.0134522
640.562	0.0135015
640.640	0.0136147
640.718	0.0136794
640.796	0.0136066
640.874	0.0134866
640.953	0.0136131
641.031	0.0136320
641.109	0.0138441
641.187	0.0138363
641.265	0.0137447
641.343	0.0139555
641.421	0.0139887
641.499	0.0140198
641.578	0.0141323
641.656	0.0140185
641.734	0.0140572
641.812	0.0140685
641.890	0.0140356
641.968	0.0140126
642.046	0.0140525
642.124	0.0139491
642.203	0.0138863
642.281	0.0139352
642.359	0.0138734
642.437	0.0137495
642.515	0.0138170
642.593	0.0138105
642.671	0.0137054
642.749	0.0137149
642.828	0.0136222
642.906	0.0136015
642.984	0.0134814
643.062	0.0135145
643.140	0.0134496
643.218	0.0134102
643.296	0.0134650
643.374	0.0133472
643.453	0.0132281
643.531	0.0132561
643.609	0.0132043
643.687	0.0131590
643.765	0.0131683
643.843	0.0132357
643.921	0.0131389
643.999	0.0130332
644.078	0.0131264
644.156	0.0132140
644.234	0.0131673
644.312	0.0132833
644.390	0.0132181
644.468	0.0134476
644.546	0.0135205
644.624	0.0136473
644.703	0.0137414
644.781	0.0138625
644.859	0.0139695
644.937	0.0143134
645.015	0.0144273
645.093	0.0145097
645.171	0.0145931
645.249	0.0146194
645.328	0.0146674
645.406	0.0147072
645.484	0.0146986
645.562	0.0146736
645.640	0.0147012
645.718	0.0144671
645.796	0.0143111
645.874	0.0142094
645.953	0.0140851
646.031	0.0139352
646.109	0.0139791
646.187	0.0137463
646.265	0.0134431
646.343	0.0132440
646.421	0.0131932
646.499	0.0129449
646.578	0.0127498
646.656	0.0128287
646.734	0.0127125
646.812	0.0126558
646.890	0.0125410
646.968	0.0123589
647.046	0.0125147
647.124	0.0124455
647.203	0.0123594
647.281	0.0123665
647.359	0.0125300
647.437	0.0125583
647.515	0.0127854
647.593	0.0127539
647.671	0.0129662
647.749	0.0132894
647.828	0.0134405
647.906	0.0134279
647.984	0.0136718
648.062	0.0139799
648.140	0.0141204
648.218	0.0142284
648.296	0.0143271
648.374	0.0144987
648.453	0.0144843
648.531	0.0146776
648.609	0.0145886
648.687	0.0146274
648.765	0.0146384
648.843	0.0148302
648.921	0.0147910
648.999	0.0147892
649.078	0.0146101
649.156	0.0145927
649.234	0.0146938
649.312	0.0145615
649.390	0.0144469
649.468	0.0145228
649.546	0.0141930
649.624	0.0141771
649.703	0.0141480
649.781	0.0139223
649.859	0.0137321
649.937	0.0136485
650.015	0.0135620
650.093	0.0132769
650.171	0.0132801
650.249	0.0130544
650.328	0.0128228
650.406	0.0127786
650.484	0.0126978
650.562	0.0126196
650.640	0.0125540
650.718	0.0125732
650.796	0.0125217
650.874	0.0123911
650.953	0.0124017
651.031	0.0122800
651.109	0.0123193
651.187	0.0123621
651.265	0.0123419
651.343	0.0124015
651.421	0.0124972
651.499	0.0125770
651.578	0.0126047
651.656	0.0128741
651.734	0.0131721
651.812	0.0133440
651.890	0.0135943
651.968	0.0136772
652.046	0.0139900
652.124	0.0141421
652.203	0.0144012
652.281	0.0146558
652.359	0.0147858
652.437	0.0149820
652.515	0.0151656
652.593	0.0152748
652.671	0.0154770
652.749	0.0156531
652.828	0.0157312
652.906	0.0156882
652.984	0.0158546
653.062	0.0158531
653.140	0.0159121
653.218	0.0156814
653.296	0.0155132
653.374	0.0153802
653.453	0.0151200
653.531	0.0151270
653.609	0.0148872
653.687	0.0144881
653.765	0.0141616
653.843	0.0139870
653.921	0.0137649
653.999	0.0133544
654.078	0.0130435
654.156	0.0128461
654.234	0.0125787
654.312	0.0121506
654.390	0.0120793
654.468	0.0118269
654.546	0.0114044
654.624	0.0112843
654.703	0.0111929
654.781	0.0111277
654.859	0.0109589
654.937	0.0109605
655.015	0.0112184
655.093	0.0110730
655.171	0.0111576
655.249	0.0112807
655.328	0.0115270
655.406	0.0117661
655.484	0.0120012
655.562	0.0123997
655.640	0.0126482
655.718	0.0128902
655.796	0.0134672
655.874	0.0137175
655.953	0.0140559
656.031	0.0143715
656.109	0.0148458
656.187	0.0150960
656.265	0.0154472
656.343	0.0159402
656.421	0.0160596
656.499	0.0161963
656.578	0.0164346
656.656	0.0164949
656.734	0.0165860
656.812	0.0166008
656.890	0.0166891
656.968	0.0167356
657.046	0.0165526
657.124	0.0164112
657.203	0.0161801
657.281	0.0161520
657.359	0.0158467
657.437	0.0154473
657.515	0.0151441
657.593	0.0148448
657.671	0.0145086
657.749	0.0141885
657.828	0.0138313
657.906	0.0132726
657.984	0.0129530
658.062	0.0125912
658.140	0.0122700
658.218	0.0119685
658.296	0.0116829
658.374	0.0113066
658.453	0.0111114
658.531	0.0109196
658.609	0.0108031
658.687	0.0107442
658.765	0.0106732
658.843	0.0107596
658.921	0.0109686
658.999	0.0109155
659.078	0.0110491
659.156	0.0112836
659.234	0.0113721
659.312	0.0116849
659.390	0.0119410
659.468	0.0121957
659.546	0.0123502
659.624	0.0127899
659.703	0.0130518
659.781	0.0132342
659.859	0.0135539
659.937	0.0139993
660.015	0.0141232
660.093	0.0142797
660.171	0.0147562
660.249	0.0149467
660.328	0.0152152
660.406	0.0153831
660.484	0.0156880
660.562	0.0157575
660.640	0.0160772
660.718	0.0161056
660.796	0.0161955
660.874	0.0162302
660.953	0.0164883
661.031	0.0164233
661.109	0.0164523
661.187	0.0163935
661.265	0.0162547
661.343	0.0161160
661.421	0.0160118
661.499	0.0157209
661.578	0.0155573
661.656	0.0153548
661.734	0.0151483
661.812	0.0146811
661.890	0.0144454
661.968	0.0140056
662.046	0.0137408
662.124	0.0133995
662.203	0.0129508
662.281	0.0125771
662.359	0.0124059
662.437	0.0122678
662.515	0.0118359
662.593	0.0116161
662.671	0.0114714
662.749	0.0113758
662.828	0.0111221
662.906	0.0109689
662.984	0.0110480
663.062	0.0111629
663.140	0.0111449
663.218	0.0110352
663.296	0.0112494
663.374	0.0112839
663.453	0.0114815
663.531	0.0116917
663.609	0.0117732
663.687	0.0119547
663.765	0.0122632
663.843	0.0124961
663.921	0.0127177
663.999	0.0129687
664.078	0.0133793
664.156	0.0136258
664.234	0.0139046
664.312	0.0143359
664.390	0.0145852
664.468	0.0148537
664.546	0.0150777
664.624	0.0153189
664.703	0.0155298
664.781	0.0157333
664.859	0.0156897
664.937	0.0159082
665.015	0.0160677
665.093	0.0159097
665.171	0.0159682
665.249	0.0159071
665.328	0.0157441
665.406	0.0154630
665.484	0.0153438
665.562	0.0151054
665.640	0.0148964
665.718	0.0148039
665.796	0.0144798
665.874	0.0143805
665.953	0.0141370
666.031	0.0138322
666.109	0.0137207
666.187	0.0136788
666.265	0.0134287
666.343	0.0132915
666.421	0.0130442
666.499	0.0128318
666.578	0.0129671
666.656	0.0128219
666.734	0.0126629
666.812	0.0127059
666.890	0.0125175
666.968	0.0124406
667.046	0.0125214
667.124	0.0126014
667.203	0.0125574
667.281	0.0125494
667.359	0.0126727
667.437	0.0126881
667.515	0.0127125
667.593	0.0127869
667.671	0.0130126
667.749	0.0129847
667.828	0.0132971
667.906	0.0134715
667.984	0.0135132
668.062	0.0136340
668.140	0.0139423
668.218	0.0140479
668.296	0.0141235
668.374	0.0141903
668.453	0.0143114
668.531	0.0142503
668.609	0.0143941
668.687	0.0143723
668.765	0.0144029
668.843	0.0143984
668.921	0.0142427
668.999	0.0142661
669.078	0.0142239
669.156	0.0141322
669.234	0.0141679
669.312	0.0141743
669.390	0.0140423
669.468	0.0139568
669.546	0.0139771
669.624	0.0140229
669.703	0.0137527
669.781	0.0138824
669.859	0.0138682
669.937	0.0137331
670.015	0.0136609
670.093	0.0135423
670.171	0.0135608
670.249	0.0135750
670.328	0.0135548
670.406	0.0132779
670.484	0.0133363
670.562	0.0133009
670.640	0.0131883
670.718	0.0129774
670.796	0.0132339
670.874	0.0133061
670.953	0.0132418
671.031	0.0131312
671.109	0.0133028
671.187	0.0134296
671.265	0.0133965
671.343	0.0135506
671.421	0.0134242
671.499	0.0134894
671.578	0.0136806
671.656	0.0136585
671.734	0.0138653
671.812	0.0139173
671.890	0.0139179
671.968	0.0140134
672.046	0.0139289
672.124	0.0140423
672.203	0.0141132
672.281	0.0140418
672.359	0.0141321
672.437	0.0140929
672.515	0.0140849
672.593	0.0141237
672.671	0.0140737
672.749	0.0142093
672.828	0.0141615
672.906	0.0142131
672.984	0.0142331
673.062	0.0142375
673.140	0.0141466
673.218	0.0142429
673.296	0.0141483
673.374	0.0142150
673.453	0.0141843
673.531	0.0141647
673.609	0.0140867
673.687	0.0140520
673.765	0.0139973
673.843	0.0138985
673.921	0.0138732
673.999	0.0137354
674.078	0.0134879
674.156	0.0136335
674.234	0.0135852
674.312	0.0134468
674.390	0.0134731
674.468	0.0134401
674.546	0.0131574
674.624	0.0132439
674.703	0.0132103
674.781	0.0131034
674.859	0.0130629
674.937	0.0130898
675.015	0.0130827
675.093	0.0131314
675.171	0.0129614
675.249	0.0131046
675.328	0.0131447
675.406	0.0132685
675.484	0.0132458
675.562	0.0132657
675.640	0.0131376
675.718	0.0133189
675.796	0.0134750
675.874	0.0135045
675.953	0.0135464
676.031	0.0135153
676.109	0.0134919
676.187	0.0136331
676.265	0.0136955
676.343	0.0137558
676.421	0.0138802
676.499	0.0137794
676.578	0.0137489
676.656	0.0139195
676.734	0.0139485
676.812	0.0140275
676.890	0.0141938
676.968	0.0142906
677.046	0.0141312
677.124	0.0141054
677.203	0.0142630
677.281	0.0143183
677.359	0.0142989
677.437	0.0142465
677.515	0.0142610
677.593	0.0142399
677.671	0.0144289
677.749	0.0142953
677.828	0.0143624
677.906	0.0142646
677.984	0.0142287
678.062	0.0142977
678.140	0.0142859
678.218	0.0142051
678.296	0.0140940
678.374	0.0141433
678.453	0.0141922
678.531	0.0142037
678.609	0.0139909
678.687	0.0139088
678.765	0.0139194
678.843	0.0138036
678.921	0.0139400
678.999	0.0137800
679.078	0.0137592
679.156	0.0135978
679.234	0.0135056
679.312	0.0134772
679.390	0.0134225
679.468	0.0133414
679.546	0.0135622
679.624	0.0132511
679.703	0.0131711
679.781	0.0133094
679.859	0.0131813
679.937	0.0132357
680.015	0.0131936
680.093	0.0132243
680.171	0.0132040
680.249	0.0130791
680.328	0.0132221
680.406	0.0129187
680.484	0.0128764
680.562	0.0128087
680.640	0.0128108
680.718	0.0128139
680.796	0.0126064
680.874	0.0126398
680.953	0.0126923
681.031	0.0126299
681.109	0.0125972
681.187	0.0126015
681.265	0.0125927
681.343	0.0127879
681.421	0.0129768
681.499	0.0128938
681.578	0.0131030
681.656	0.0131717
681.734	0.0132787
681.812	0.0133472
681.890	0.0134647
681.968	0.0136967
682.046	0.0139050
682.124	0.0138527
682.203	0.0139418
682.281	0.0141786
682.359	0.0144317
682.437	0.0145800
682.515	0.0145471
682.593	0.0146284
682.671	0.0146601
682.749	0.0146461
682.828	0.0146974
682.906	0.0146847
682.984	0.0145768
683.062	0.0146078
683.140	0.0145521
683.218	0.0146451
683.296	0.0145397
683.374	0.0143276
683.453	0.0143140
683.531	0.0142943
683.609	0.0143192
683.687	0.0140833
683.765	0.0139975
683.843	0.0138950
683.921	0.0137240
683.999	0.0135291
684.078	0.0135308
684.156	0.0134387
684.234	0.0131353
684.312	0.0132116
684.390	0.0132928
684.468	0.0130958
684.546	0.0131055
684.624	0.0130775
684.703	0.0132092
684.781	0.0131384
684.859	0.0131816
684.937	0.0132007
685.015	0.0133820
685.093	0.0131522
685.171	0.0131133
685.249	0.0132883
685.328	0.0132826
685.406	0.0134111
685.484	0.0132853
685.562	0.0133365
685.640	0.0134492
685.718	0.0133809
685.796	0.0134084
685.874	0.0134531
685.953	0.0133723
686.031	0.0133778
686.109	0.0133150
686.187	0.0133321
686.265	0.0133928
686.343	0.0133128
686.421	0.0132829
686.499	0.0130859
686.578	0.0133206
686.656	0.0132540
686.734	0.0130589
686.812	0.0131841
686.890	0.0131519
686.968	0.0131568
687.046	0.0131158
687.124	0.0132121
687.203	0.0130047
687.281	0.0130321
687.359	0.0131126
687.437	0.0131381
687.515	0.0132150
687.593	0.0134039
687.671	0.0134228
687.749	0.0135745
687.828	0.0136564
687.906	0.0139141
687.984	0.0138790
688.062	0.0140820
688.140	0.0142097
688.218	0.0143000
688.296	0.0145484
688.374	0.0144260
688.453	0.0146384
688.531	0.0146832
688.609	0.0146355
688.687	0.0145841
688.765	0.0147434
688.843	0.0148200
688.921	0.0146194
688.999	0.0146687
689.078	0.0145963
689.156	0.0146117
689.234	0.0144139
689.312	0.0143021
689.390	0.0141703
689.468	0.0139853
689.546	0.0139794
689.624	0.0139713
689.703	0.0139159
689.781	0.0138232
689.859	0.0136235
689.937	0.0136327
690.015	0.0136989
690.093	0.0133867
690.171	0.0133037
690.249	0.0131621
690.328	0.0130592
690.406	0.0130877
690.484	0.0129252
690.562	0.0126852
690.640	0.0126159
690.718	0.0125861
690.796	0.0126044
690.874	0.0126203
690.953	0.0124079
691.031	0.0122964
691.109	0.0125726
691.187	0.0124287
691.265	0.0126492
691.343	0.0127528
691.421	0.0127866
691.499	0.0127851
691.578	0.0129156
691.656	0.0130357
691.734	0.0129322
691.812	0.0131227
691.890	0.0133703
691.968	0.0133805
692.046	0.0134913
692.124	0.0136660
692.203	0.0135216
692.281	0.0135722
692.359	0.0138322
692.437	0.0139618
692.515	0.0139229
692.593	0.0140520
692.671	0.0141819
692.749	0.0142740
692.828	0.0142640
692.906	0.0142937
692.984	0.0143596
693.062	0.0143841
693.140	0.0143269
693.218	0.0143382
693.296	0.0143209
693.374	0.0141642
693.453	0.0140147
693.531	0.0142602
693.609	0.0141215
693.687	0.0139439
693.765	0.0139536
693.843	0.0139117
693.921	0.0136668
693.999	0.0138659
694.078	0.0139768
694.156	0.0138805
694.234	0.0138667
694.312	0.0139061
694.390	0.0138664
694.468	0.0137097
694.546	0.0137875
694.624	0.0139274
694.703	0.0139153
694.781	0.0138841
694.859	0.0137820
694.937	0.0139075
695.015	0.0139476
695.093	0.0139388
695.171	0.0139273
695.249	0.0138249
695.328	0.0138596
695.406	0.0138595
695.484	0.0138451
695.562	0.0137510
695.640	0.0139513
695.718	0.0138130
695.796	0.0136255
695.874	0.0136258
695.953	0.0138392
696.031	0.0136814
696.109	0.0137058
696.187	0.0137362
696.265	0.0136824
696.343	0.0138838
696.421	0.0139037
696.499	0.0138544
696.578	0.0139130
696.656	0.0138528
696.734	0.0138329
696.812	0.0138495
696.890	0.0140292
696.968	0.0140083
697.046	0.0139674
697.124	0.0140949
697.203	0.0139471
697.281	0.0139737
697.359	0.0139468
697.437	0.0139941
697.515	0.0139470
697.593	0.0138834
697.671	0.0140449
697.749	0.0138076
697.828	0.0138918
697.906	0.0139551
697.984	0.0139799
698.062	0.0139594
698.140	0.0137886
698.218	0.0137995
698.296	0.0137730
698.374	0.0137579
698.453	0.0136461
698.531	0.0135181
698.609	0.0136356
698.687	0.0135576
698.765	0.0131538
698.843	0.0131856
698.921	0.0131689
698.999	0.0132269
699.078	0.0132262
699.156	0.0130395
699.234	0.0131732
699.312	0.0132808
699.390	0.0133389
699.468	0.0133377
699.546	0.0132788
699.624	0.0134003
699.703	0.0135877
699.781	0.0133894
699.859	0.0134360
699.937	0.0133129
700.015	0.0135704
700.093	0.0135130
700.171	0.0135544
700.249	0.0135809
700.328	0.0136110
700.406	0.0135933
700.484	0.0135734
700.562	0.0138142
700.640	0.0137096
700.718	0.0137244
700.796	0.0137958
700.874	0.0139222
700.953	0.0139277
701.031	0.0139728
701.109	0.0141250
701.187	0.0140923
701.265	0.0140957
701.343	0.0141318
701.421	0.0140922
701.499	0.0141157
701.578	0.0141659
701.656	0.0139820
701.734	0.0139217
701.812	0.0139145
701.890	0.0140073
701.968	0.0139394
702.046	0.0138534
702.124	0.0137666
702.203	0.0138345
702.281	0.0136707
702.359	0.0135362
702.437	0.0135824
702.515	0.0135629
702.593	0.0135976
702.671	0.0136794
702.749	0.0133783
702.828	0.0133749
702.906	0.0134806
702.984	0.0135365
703.062	0.0135167
703.140	0.0133234
703.218	0.0135431
703.296	0.0133664
703.374	0.0134688
703.453	0.0135444
703.531	0.0135470
703.609	0.0135688
703.687	0.0133926
703.765	0.0135569
703.843	0.0135818
703.921	0.0136164
703.999	0.0137284
704.078	0.0136400
704.156	0.0137016
704.234	0.0136060
704.312	0.0137086
704.390	0.0135748
704.468	0.0135144
704.546	0.0135011
704.624	0.0132756
704.703	0.0132545
704.781	0.0132660
704.859	0.0131886
704.937	0.0131272
705.015	0.0131358
705.093	0.0130794
705.171	0.0130449
705.249	0.0129826
705.328	0.0128993
705.406	0.0130251
705.484	0.0132501
705.562	0.0132650
705.640	0.0132933
705.718	0.0134062
705.796	0.0133304
705.874	0.0133473
705.953	0.0135320
706.031	0.0136062
706.109	0.0135625
706.187	0.0136277
706.265	0.0136199
706.343	0.0136219
706.421	0.0135905
706.499	0.0137309
706.578	0.0138279
706.656	0.0137575
706.734	0.0137350
706.812	0.0137666
706.890	0.0137950
706.968	0.0139629
707.046	0.0139092
707.124	0.0140027
707.203	0.0141905
707.281	0.0141029
707.359	0.0142117
707.437	0.0142807
707.515	0.0143295
707.593	0.0141160
707.671	0.0142420
707.749	0.0142838
707.828	0.0142869
707.906	0.0143217
707.984	0.0143038
708.062	0.0142431
708.140	0.0143131
708.218	0.0141627
708.296	0.0142916
708.374	0.0142757
708.453	0.0141267
708.531	0.0139398
708.609	0.0140623
708.687	0.0140493
708.765	0.0139200
708.843	0.0139165
708.921	0.0139558
708.999	0.0138227
709.078	0.0137481
709.156	0.0137334
709.234	0.0137110
709.312	0.0136329
709.390	0.0135012
709.468	0.0133289
709.546	0.0133827
709.624	0.0132912
709.703	0.0133015
709.781	0.0132848
709.859	0.0130923
709.937	0.0130154
710.015	0.0129631
710.093	0.0130561
710.171	0.0129321
710.249	0.0130180
710.328	0.0129210
710.406	0.0128925
710.484	0.0128826
710.562	0.0129044
710.640	0.0128323
710.718	0.0130041
710.796	0.0129326
710.874	0.0129401
710.953	0.0131052
711.031	0.0130284
711.109	0.0129941
711.187	0.0130603
711.265	0.0131018
711.343	0.0130231
711.421	0.0130724
711.499	0.0130895
711.578	0.0130943
711.656	0.0130795
711.734	0.0132364
711.812	0.0132781
711.890	0.0133305
711.968	0.0132962
712.046	0.0133533
712.124	0.0133660
712.203	0.0134901
712.281	0.0136082
712.359	0.0137406
712.437	0.0136469
712.515	0.0138306
712.593	0.0137580
712.671	0.0139222
712.749	0.0139148
712.828	0.0139102
712.906	0.0141463
712.984	0.0140039
713.062	0.0141896
713.140	0.0139075
713.218	0.0139659
713.296	0.0141528
713.374	0.0139393
713.453	0.0140267
713.531	0.0140379
713.609	0.0139122
713.687	0.0140376
713.765	0.0139166
713.843	0.0139716
713.921	0.0140221
713.999	0.0138062
714.078	0.0139336
714.156	0.0138755
714.234	0.0138641
714.312	0.0139445
714.390	0.0140678
714.468	0.0140265
714.546	0.0140289
714.624	0.0138896
714.703	0.0139030
714.781	0.0139848
714.859	0.0139026
714.937	0.0138438
715.015	0.0137609
715.093	0.0136927
715.171	0.0136980
715.249	0.0135672
715.328	0.0135636
715.406	0.0133975
715.484	0.0135033
715.562	0.0132623
715.640	0.0132944
715.718	0.0132011
715.796	0.0132216
715.874	0.0132323
715.953	0.0130518
716.031	0.0130830
716.109	0.0131038
716.187	0.0129435
716.265	0.0131780
716.343	0.0131116
716.421	0.0130566
716.499	0.0130417
716.578	0.0130987
716.656	0.0130289
716.734	0.0129848
716.812	0.0130508
716.890	0.0131179
716.968	0.0132019
717.046	0.0132504
717.124	0.0132021
717.203	0.0132789
717.281	0.0133917
717.359	0.0134100
717.437	0.0134788
717.515	0.0136630
717.593	0.0138070
717.671	0.0138512
717.749	0.0138188
717.828	0.0140076
717.906	0.0141505
717.984	0.0141482
718.062	0.0141345
718.140	0.0141499
718.218	0.0142934
718.296	0.0142573
718.374	0.0142422
718.453	0.0143655
718.531	0.0142912
718.609	0.0142329
718.687	0.0142542
718.765	0.0143750
718.843	0.0143716
718.921	0.0142292
718.999	0.0143140
719.078	0.0142875
719.156	0.0141183
719.234	0.0141463
719.312	0.0139408
719.390	0.0140866
719.468	0.0139705
719.546	0.0138677
719.624	0.0138496
719.703	0.0137386
719.781	0.0137113
719.859	0.0136201
719.937	0.0136256
720.015	0.0135065
720.093	0.0134506
720.171	0.0133081
720.249	0.0134200
720.328	0.0135159
720.406	0.0134107
720.484	0.0133161
720.562	0.0133342
720.640	0.0133884
720.718	0.0133915
720.796	0.0134237
720.874	0.0133419
720.953	0.0134538
721.031	0.0133734
721.109	0.0135230
721.187	0.0135067
721.265	0.0134856
721.343	0.0135690
721.421	0.0135915
721.499	0.0136182
721.578	0.0138023
721.656	0.0138055
721.734	0.0137726
721.812	0.0136625
721.890	0.0137075
721.968	0.0137590
722.046	0.0137151
722.124	0.0137509
722.203	0.0139146
722.281	0.0137817
722.359	0.0138905
722.437	0.0138548
722.515	0.0138012
722.593	0.0138573
722.671	0.0139143
722.749	0.0139618
722.828	0.0140525
722.906	0.0137846
722.984	0.0138155
723.062	0.0138494
723.140	0.0137862
723.218	0.0137299
723.296	0.0137707
723.374	0.0137489
723.453	0.0136560
723.531	0.0135049
723.609	0.0134657
723.687	0.0134006
723.765	0.0133994
723.843	0.0133199
723.921	0.0133219
723.999	0.0132996
724.078	0.0132671
724.156	0.0133007
724.234	0.0132280
724.312	0.0133414
724.390	0.0132332
724.468	0.0132137
724.546	0.0131886
724.624	0.0133549
724.703	0.0134477
724.781	0.0134505
724.859	0.0134871
724.937	0.0134972
725.015	0.0134516
725.093	0.0135317
725.171	0.0136201
725.249	0.0137514
725.328	0.0136589
725.406	0.0136113
725.484	0.0137436
725.562	0.0137578
725.640	0.0137354
725.718	0.0136963
725.796	0.0138184
725.874	0.0138226
725.953	0.0139465
726.031	0.0139208
726.109	0.0140523
726.187	0.0139469
726.265	0.0141015
726.343	0.0141255
726.421	0.0140257
726.499	0.0140323
726.578	0.0141952
726.656	0.0140701
726.734	0.0140858
726.812	0.0141657
726.890	0.0141412
726.968	0.0140866
727.046	0.0139812
727.124	0.0140762
727.203	0.0139895
727.281	0.0140022
727.359	0.0139544
727.437	0.0139619
727.515	0.0137637
727.593	0.0139050
727.671	0.0139688
727.749	0.0136679
727.828	0.0137206
727.906	0.0137245
727.984	0.0137522
728.062	0.0138239
728.140	0.0137139
728.218	0.0136842
728.296	0.0136138
728.374	0.0136067
728.453	0.0134418
728.531	0.0136650
728.609	0.0136314
728.687	0.0135319
728.765	0.0136014
728.843	0.0137056
728.921	0.0136608
728.999	0.0136011
729.078	0.0136174
729.156	0.0137402
729.234	0.0137939
729.312	0.0135344
729.390	0.0136134
729.468	0.0136378
729.546	0.0138175
729.624	0.0137034
729.703	0.0136096
729.781	0.0136295
729.859	0.0137824
729.937	0.0136200
730.015	0.0136837
730.093	0.0136922
730.171	0.0136852
730.249	0.0136816
730.328	0.0136172
730.406	0.0136977
730.484	0.0137609
730.562	0.0136121
730.640	0.0136132
730.718	0.0136228
730.796	0.0137802
730.874	0.0136834
730.953	0.0137095
731.031	0.0136684
731.109	0.0137400
731.187	0.0137916
731.265	0.0135688
731.343	0.0135909
731.421	0.0135201
731.499	0.0136602
731.578	0.0135628
731.656	0.0134649
731.734	0.0136163
731.812	0.0134966
731.890	0.0137162
731.968	0.0136851
732.046	0.0136399
732.124	0.0135052
732.203	0.0136338
732.281	0.0136539
732.359	0.0135425
732.437	0.0135898
732.515	0.0137566
732.593	0.0134875
732.671	0.0135796
732.749	0.0136562
732.828	0.0135028
732.906	0.0135929
732.984	0.0134761
733.062	0.0135056
733.140	0.0135754
733.218	0.0135001
733.296	0.0136077
733.374	0.0136438
733.453	0.0135571
733.531	0.0135092
733.609	0.0135148
733.687	0.0135854
733.765	0.0136777
733.843	0.0136949
733.921	0.0136343
733.999	0.0136614
734.078	0.0137468
734.156	0.0137077
734.234	0.0138284
734.312	0.0137888
734.390	0.0139676
734.468	0.0140285
734.546	0.0138805
734.624	0.0140082
734.703	0.0139964
734.781	0.0139511
734.859	0.0140423
734.937	0.0140387
735.015	0.0138400
735.093	0.0140301
735.171	0.0139279
735.249	0.0137834
735.328	0.0138630
735.406	0.0138429
735.484	0.0137776
735.562	0.0136835
735.640	0.0136006
735.718	0.0137656
735.796	0.0137655
735.874	0.0136147
735.953	0.0137238
736.031	0.0136736
736.109	0.0136292
736.187	0.0138026
736.265	0.0136613
736.343	0.0137142
736.421	0.0137281
736.499	0.0136194
736.578	0.0135668
736.656	0.0137776
736.734	0.0137541
736.812	0.0135535
736.890	0.0134619
736.968	0.0135807
737.046	0.0136272
737.124	0.0135886
737.203	0.0136257
737.281	0.0136160
737.359	0.0137386
737.437	0.0137795
737.515	0.0136757
737.593	0.0137029
737.671	0.0136755
737.749	0.0137886
737.828	0.0138027
737.906	0.0138536
737.984	0.0139062
738.062	0.0139149
738.140	0.0138467
738.218	0.0139184
738.296	0.0139100
738.374	0.0138577
738.453	0.0138911
738.531	0.0137573
738.609	0.0136956
738.687	0.0137289
738.765	0.0137778
738.843	0.0137157
738.921	0.0137274
738.999	0.0135830
739.078	0.0136768
739.156	0.0135434
739.234	0.0134956
739.312	0.0134756
739.390	0.0135846
739.468	0.0134715
739.546	0.0135065
739.624	0.0135161
739.703	0.0134325
739.781	0.0132009
739.859	0.0133312
739.937	0.0135099
740.015	0.0134618
740.093	0.0133372
740.171	0.0133277
740.249	0.0132551
740.328	0.0131816
740.406	0.0132510
740.484	0.0134434
740.562	0.0132207
740.640	0.0134060
740.718	0.0133291
740.796	0.0133055
740.874	0.0133372
740.953	0.0133003
741.031	0.0131965
741.109	0.0132855
741.187	0.0134467
741.265	0.0135106
741.343	0.0134669
741.421	0.0134614
741.499	0.0134670
741.578	0.0134882
741.656	0.0134876
741.734	0.0135664
741.812	0.0137010
741.890	0.0136224
741.968	0.0137360
742.046	0.0137152
742.124	0.0139112
742.203	0.0138008
742.281	0.0139239
742.359	0.0140603
742.437	0.0138918
742.515	0.0138983
742.593	0.0138683
742.671	0.0140785
742.749	0.0138476
742.828	0.0139778
742.906	0.0138362
742.984	0.0137821
743.062	0.0137247
743.140	0.0137218
743.218	0.0136689
743.296	0.0136742
743.374	0.0134714
743.453	0.0135196
743.531	0.0133878
743.609	0.0133585
743.687	0.0132346
743.765	0.0132654
743.843	0.0133266
743.921	0.0132281
743.999	0.0132795
744.078	0.0132269
744.156	0.0131913
744.234	0.0132017
744.312	0.0132040
744.390	0.0131447
744.468	0.0132269
744.546	0.0131828
744.624	0.0133614
744.703	0.0133017
744.781	0.0133543
744.859	0.0133324
744.937	0.0134923
745.015	0.0133439
745.093	0.0136266
745.171	0.0136707
745.249	0.0138760
745.328	0.0137328
745.406	0.0138982
745.484	0.0138663
745.562	0.0138755
745.640	0.0139481
745.718	0.0140100
745.796	0.0140268
745.874	0.0140741
745.953	0.0138924
746.031	0.0140285
746.109	0.0139901
746.187	0.0138138
746.265	0.0140537
746.343	0.0139146
746.421	0.0138950
746.499	0.0140231
746.578	0.0136656
746.656	0.0138992
746.734	0.0137817
746.812	0.0138130
746.890	0.0136584
746.968	0.0137166
747.046	0.0135287
747.124	0.0135881
747.203	0.0135230
747.281	0.0134826
747.359	0.0135426
747.437	0.0136212
747.515	0.0135113
747.593	0.0134345
747.671	0.0135880
747.749	0.0136736
747.828	0.0135573
747.906	0.0136695
747.984	0.0137109
748.062	0.0135743
748.140	0.0136755
748.218	0.0137173
748.296	0.0138384
748.374	0.0136691
748.453	0.0138216
748.531	0.0136528
748.609	0.0137193
748.687	0.0137643
748.765	0.0138603
748.843	0.0138521
748.921	0.0137925
748.999	0.0138876
749.078	0.0138717
749.156	0.0138802
749.234	0.0137613
749.312	0.0138652
749.390	0.0138912
749.468	0.0137541
749.546	0.0139216
749.624	0.0139549
749.703	0.0138622
749.781	0.0138258
749.859	0.0140161
749.937	0.0138080
750.015	0.0138485
750.093	0.0137936
750.171	0.0138480
750.249	0.0138920
750.328	0.0139338
750.406	0.0137417
750.484	0.0137503
750.562	0.0138766
750.640	0.0138712
750.718	0.0136982
750.796	0.0138696
750.874	0.0137644
750.953	0.0137499
751.031	0.0136844
751.109	0.0137036
751.187	0.0136717
751.265	0.0134540
751.343	0.0136716
751.421	0.0135991
751.499	0.0136246
751.578	0.0135315
751.656	0.0134939
751.734	0.0135258
751.812	0.0135391
751.890	0.0134959
751.968	0.0135210
752.046	0.0134588
752.124	0.0134897
752.203	0.0135607
752.281	0.0136562
752.359	0.0137193
752.437	0.0136560
752.515	0.0136241
752.593	0.0137522
752.671	0.0135990
752.749	0.0137799
752.828	0.0138577
752.906	0.0138339
752.984	0.0139054
753.062	0.0138442
753.140	0.0140900
753.218	0.0139687
753.296	0.0140436
753.374	0.0141040
753.453	0.0139441
753.531	0.0140707
753.609	0.0139962
753.687	0.0139513
753.765	0.0140531
753.843	0.0141460
753.921	0.0141452
753.999	0.0139259
754.078	0.0141348
754.156	0.0140185
754.234	0.0139420
754.312	0.0138538
754.390	0.0139148
754.468	0.0139265
754.546	0.0138986
754.624	0.0139063
754.703	0.0137678
754.781	0.0137154
754.859	0.0137388
754.937	0.0135538
755.015	0.0135694
755.093	0.0136464
755.171	0.0135760
755.249	0.0135979
755.328	0.0135696
755.406	0.0134370
755.484	0.0135125
755.562	0.0134107
755.640	0.0134617
755.718	0.0133495
755.796	0.0132858
755.874	0.0134430
755.953	0.0133906
756.031	0.0132864
756.109	0.0134846
756.187	0.0134687
756.265	0.0134687
756.343	0.0136050
756.421	0.0135704
756.499	0.0135977
756.578	0.0136630
756.656	0.0136618
756.734	0.0136720
756.812	0.0137006
756.890	0.0138022
756.968	0.0138374
757.046	0.0138051
757.124	0.0138560
757.203	0.0138992
757.281	0.0138221
757.359	0.0139133
757.437	0.0139591
757.515	0.0139849
757.593	0.0139902
757.671	0.0138717
757.749	0.0140819
757.828	0.0140191
757.906	0.0140705
757.984	0.0140178
758.062	0.0140131
758.140	0.0139768
758.218	0.0138548
758.296	0.0138360
758.374	0.0138775
758.453	0.0137757
758.531	0.0138651
758.609	0.0138303
758.687	0.0137135
758.765	0.0137125
758.843	0.0137152
758.921	0.0136733
758.999	0.0136242
759.078	0.0136005
759.156	0.0135637
759.234	0.0134689
759.312	0.0134465
759.390	0.0136722
759.468	0.0134399
759.546	0.0134650
759.624	0.0134785
759.703	0.0133104
759.781	0.0133520
759.859	0.0134567
759.937	0.0135242
760.015	0.0133929
760.093	0.0133905
760.171	0.0134035
760.249	0.0133813
760.328	0.0134066
760.406	0.0134494
760.484	0.0136410
760.562	0.0133994
760.640	0.0135766
760.718	0.0135749
760.796	0.0136420
760.874	0.0136717
760.953	0.0138457
761.031	0.0138284
761.109	0.0139098
761.187	0.0138267
761.265	0.0137768
761.343	0.0139098
761.421	0.0139121
761.499	0.0139315
761.578	0.0139902
761.656	0.0139628
761.734	0.0139157
761.812	0.0139304
761.890	0.0138955
761.968	0.0139549
762.046	0.0139993
762.124	0.0138268
762.203	0.0138246
762.281	0.0137489
762.359	0.0137391
762.437	0.0137830
762.515	0.0137661
762.593	0.0135973
762.671	0.0135797
762.749	0.0136201
762.828	0.0136130
762.906	0.0135835
762.984	0.0135212
763.062	0.0135590
763.140	0.0134102
763.218	0.0132241
763.296	0.0132819
763.374	0.0133363
763.453	0.0132881
763.531	0.0134075
763.609	0.0132829
763.687	0.0134003
763.765	0.0133179
763.843	0.0132752
763.921	0.0133743
763.999	0.0133170
764.078	0.0133778
764.156	0.0132235
764.234	0.0135154
764.312	0.0134108
764.390	0.0133613
764.468	0.0133897
764.546	0.0133349
764.624	0.0134401
764.703	0.0135628
764.781	0.0135130
764.859	0.0135170
764.937	0.0135435
765.015	0.0135291
765.093	0.0135517
765.171	0.0135616
765.249	0.0134479
765.328	0.0135951
765.406	0.0136996
765.484	0.0135860
765.562	0.0136492
765.640	0.0138833
765.718	0.0138793
765.796	0.0138483
765.874	0.0139167
765.953	0.0137806
766.031	0.0137704
766.109	0.0138656
766.187	0.0137659
766.265	0.0136953
766.343	0.0137424
766.421	0.0137522
766.499	0.0137305
766.578	0.0138886
766.656	0.0139639
766.734	0.0137169
766.812	0.0137926
766.890	0.0137305
766.968	0.0135269
767.046	0.0136343
767.124	0.0136763
767.203	0.0136881
767.281	0.0136742
767.359	0.0137749
767.437	0.0136224
767.515	0.0134914
767.593	0.0136839
767.671	0.0135929
767.749	0.0136833
767.828	0.0136882
767.906	0.0135926
767.984	0.0136187
768.062	0.0136379
768.140	0.0135567
768.218	0.0135103
768.296	0.0135084
768.374	0.0134872
768.453	0.0135490
768.531	0.0135865
768.609	0.0137134
768.687	0.0137155
768.765	0.0136079
768.843	0.0135787
768.921	0.0134831
768.999	0.0135352
769.078	0.0137752
769.156	0.0138260
769.234	0.0136404
769.312	0.0137025
769.390	0.0138091
769.468	0.0137029
769.546	0.0138186
769.624	0.0138568
769.703	0.0137541
769.781	0.0138142
769.859	0.0138411
769.937	0.0137988
770.015	0.0138061
770.093	0.0137437
770.171	0.0137479
770.249	0.0136285
770.328	0.0135929
770.406	0.0135426
770.484	0.0134777
770.562	0.0135619
770.640	0.0137611
770.718	0.0136744
770.796	0.0136760
770.874	0.0136324
770.953	0.0136639
771.031	0.0135337
771.109	0.0136260
771.187	0.0135635
771.265	0.0135081
771.343	0.0136824
771.421	0.0135455
771.499	0.0135393
771.578	0.0134314
771.656	0.0134896
771.734	0.0135860
771.812	0.0135639
771.890	0.0136150
771.968	0.0136850
772.046	0.0136427
772.124	0.0137736
772.203	0.0137516
772.281	0.0137464
772.359	0.0137176
772.437	0.0138554
772.515	0.0138331
772.593	0.0138408
772.671	0.0137363
772.749	0.0138369
772.828	0.0137311
772.906	0.0138482
772.984	0.0138789
773.062	0.0139071
773.140	0.0138746
773.218	0.0137923
773.296	0.0138213
773.374	0.0138955
773.453	0.0138942
773.531	0.0138383
773.609	0.0138722
773.687	0.0138121
773.765	0.0138374
773.843	0.0138929
773.921	0.0140105
773.999	0.0140229
774.078	0.0139901
774.156	0.0140057
774.234	0.0140432
774.312	0.0141318
774.390	0.0139476
774.468	0.0141418
774.546	0.0140840
774.624	0.0140168
774.703	0.0140464
774.781	0.0138557
774.859	0.0138938
774.937	0.0139444
775.015	0.0138361
775.093	0.0139355
775.171	0.0139807
775.249	0.0137783
775.328	0.0137544
775.406	0.0137909
775.484	0.0137276
775.562	0.0138167
775.640	0.0136671
775.718	0.0138165
775.796	0.0138041
775.874	0.0138051
775.953	0.0136790
776.031	0.0137373
776.109	0.0138892
776.187	0.0139186
776.265	0.0139075
776.343	0.0138190
776.421	0.0137820
776.499	0.0138187
776.578	0.0138081
776.656	0.0137470
776.734	0.0138584
776.812	0.0138366
776.890	0.0137530
776.968	0.0139140
777.046	0.0137994
777.124	0.0137450
777.203	0.0136770
777.281	0.0136019
777.359	0.0136503
777.437	0.0136301
777.515	0.0135225
777.593	0.0136758
777.671	0.0135619
777.749	0.0136634
777.828	0.0136889
777.906	0.0135656
777.984	0.0136253
778.062	0.0137476
778.140	0.0136884
778.218	0.0137656
778.296	0.0137643
778.374	0.0137981
778.453	0.0136468
778.531	0.0137601
778.609	0.0136266
778.687	0.0134991
778.765	0.0136092
778.843	0.0137156
778.921	0.0135889
778.999	0.0134294
779.078	0.0136517
779.156	0.0134281
779.234	0.0135056
779.312	0.0135470
779.390	0.0134976
779.468	0.0135308
779.546	0.0135292
779.624	0.0136179
779.703	0.0136153
779.781	0.0134660
779.859	0.0135915
779.937	0.0136390
780.015	0.0137228
780.093	0.0136403
780.171	0.0133841
780.249	0.0134306
780.328	0.0134937
780.406	0.0133820
780.484	0.0132978
780.562	0.0134573
780.640	0.0134785
780.718	0.0134644
780.796	0.0134570
780.874	0.0134879
780.953	0.0136497
781.031	0.0136059
781.109	0.0134199
781.187	0.0133625
781.265	0.0135753
781.343	0.0136732
781.421	0.0135867
781.499	0.0135419
781.578	0.0135297
781.656	0.0134389
781.734	0.0134858
781.812	0.0135048
781.890	0.0134692
781.968	0.0134531
782.046	0.0135485
782.124	0.0132964
782.203	0.0134408
782.281	0.0135399
782.359	0.0135216
782.437	0.0135434
782.515	0.0136243
782.593	0.0136071
782.671	0.0135704
782.749	0.0137299
782.828	0.0136026
782.906	0.0136699
782.984	0.0137149
783.062	0.0135891
783.140	0.0134666
783.218	0.0134763
783.296	0.0135828
783.374	0.0136187
783.453	0.0136328
783.531	0.0136825
783.609	0.0137522
783.687	0.0137128
783.765	0.0137373
783.843	0.0135789
783.921	0.0135731
783.999	0.0135513
784.078	0.0134379
784.156	0.0133749
784.234	0.0134950
784.312	0.0133243
784.390	0.0134657
784.468	0.0134837
784.546	0.0134485
784.624	0.0133921
784.703	0.0134399
784.781	0.0135474
784.859	0.0134626
784.937	0.0136566
785.015	0.0136034
785.093	0.0133527
785.171	0.0134577
785.249	0.0136430
785.328	0.0135532
785.406	0.0133845
785.484	0.0135967
785.562	0.0134957
785.640	0.0135990
785.718	0.0138443
785.796	0.0139611
785.874	0.0140209
785.953	0.0139288
786.031	0.0139395
786.109	0.0139999
786.187	0.0138702
786.265	0.0137891
786.343	0.0137568
786.421	0.0135899
786.499	0.0135587
786.578	0.0133431
786.656	0.0133575
786.734	0.0133391
786.812	0.0133707
786.890	0.0134356
786.968	0.0133658
787.046	0.0133971
787.124	0.0134301
787.203	0.0134592
787.281	0.0136073
787.359	0.0135190
787.437	0.0136655
787.515	0.0138181
787.593	0.0137686
787.671	0.0137510
787.749	0.0136629
787.828	0.0136472
787.906	0.0135865
787.984	0.0135255
788.062	0.0135135
788.140	0.0136466
788.218	0.0134962
788.296	0.0135892
788.374	0.0135417
788.453	0.0136253
788.531	0.0136819
788.609	0.0135603
788.687	0.0136480
788.765	0.0135620
788.843	0.0135609
788.921	0.0135617
788.999	0.0137791
789.078	0.0138612
789.156	0.0138159
789.234	0.0137057
789.312	0.0137201
789.390	0.0137633
789.468	0.0137346
789.546	0.0137525
789.624	0.0136817
789.703	0.0136170
789.781	0.0137576
789.859	0.0136952
789.937	0.0135918
790.015	0.0136837
790.093	0.0136339
790.171	0.0137632
790.249	0.0136074
790.328	0.0137139
790.406	0.0136211
790.484	0.0137417
790.562	0.0137276
790.640	0.0133864
790.718	0.0135727
790.796	0.0137271
790.874	0.0136332
790.953	0.0136320
791.031	0.0135578
791.109	0.0137565
791.187	0.0138912
791.265	0.0138673
791.343	0.0138455
791.421	0.0139306
791.499	0.0139587
791.578	0.0138062
791.656	0.0138638
791.734	0.0138727
791.812	0.0138686
791.890	0.0136840
791.968	0.0135571
792.046	0.0136203
792.124	0.0136391
792.203	0.0134472
792.281	0.0135182
792.359	0.0134983
792.437	0.0132927
792.515	0.0133611
792.593	0.0134557
792.671	0.0135035
792.749	0.0135599
792.828	0.0135996
792.906	0.0136382
792.984	0.0137922
793.062	0.0139621
793.140	0.0139008
793.218	0.0140135
793.296	0.0139021
793.374	0.0138789
793.453	0.0139486
793.531	0.0139343
793.609	0.0136993
793.687	0.0137563
793.765	0.0137694
793.843	0.0136868
793.921	0.0136806
793.999	0.0134905
794.078	0.0136787
794.156	0.0137432
794.234	0.0134855
794.312	0.0135852
794.390	0.0135903
794.468	0.0137159
794.546	0.0135841
794.624	0.0136542
794.703	0.0136760
794.781	0.0136372
794.859	0.0137335
794.937	0.0138036
795.015	0.0136613
795.093	0.0135777
795.171	0.0136103
795.249	0.0135558
795.328	0.0135013
795.406	0.0134909
795.484	0.0134848
795.562	0.0135144
795.640	0.0134084
795.718	0.0133913
795.796	0.0134446
795.874	0.0135085
795.953	0.0135309
796.031	0.0135096
796.109	0.0133291
796.187	0.0133501
796.265	0.0135108
796.343	0.0135928
796.421	0.0135797
796.499	0.0136510
796.578	0.0135534
796.656	0.0134514
796.734	0.0136277
796.812	0.0137396
796.890	0.0137744
796.968	0.0137305
797.046	0.0135159
797.124	0.0137435
797.203	0.0138174
797.281	0.0137013
797.359	0.0136528
797.437	0.0136784
797.515	0.0137234
797.593	0.0135271
797.671	0.0135716
797.749	0.0134859
797.828	0.0136979
797.906	0.0137701
797.984	0.0136302
798.062	0.0137803
798.140	0.0139281
798.218	0.0139175
798.296	0.0139449
798.374	0.0139076
798.453	0.0140047
798.531	0.0139324
798.609	0.0138321
798.687	0.0138345
798.765	0.0138388
798.843	0.0138428
798.921	0.0139489
798.999	0.0137071
799.078	0.0137453
799.156	0.0138551
799.234	0.0138046
799.312	0.0137113
799.390	0.0137218
799.468	0.0139420
799.546	0.0137861
799.624	0.0137230
799.703	0.0137941
799.781	0.0137347
799.859	0.0137711
799.937	0.0138657
800.015	0.0138088
800.093	0.0137560
800.171	0.0136822
800.249	0.0137846
800.328	0.0136847
800.406	0.0135933
800.484	0.0136704
800.562	0.0136626
800.640	0.0137422
800.718	0.0136343
800.796	0.0137721
800.874	0.0137620
800.953	0.0136419
801.031	0.0135391
801.109	0.0135690
801.187	0.0135243
801.265	0.0134180
801.343	0.0134541
801.421	0.0133856
801.499	0.0134495
801.578	0.0133405
801.656	0.0133543
801.734	0.0133994
801.812	0.0134200
801.890	0.0137279
801.968	0.0138274
802.046	0.0137034
802.124	0.0137111
802.203	0.0135606
802.281	0.0135543
802.359	0.0136481
802.437	0.0134741
802.515	0.0133437
802.593	0.0133585
802.671	0.0132108
802.749	0.0132079
802.828	0.0132309
802.906	0.0131720
802.984	0.0133816
803.062	0.0133424
803.140	0.0134550
803.218	0.0134937
803.296	0.0134702
803.374	0.0136570
803.453	0.0137119
803.531	0.0138721
803.609	0.0138663
803.687	0.0139639
803.765	0.0138319
803.843	0.0138191
803.921	0.0137082
803.999	0.0136840
804.078	0.0135194
804.156	0.0136436
804.234	0.0134917
804.312	0.0133453
804.390	0.0133739
804.468	0.0133518
804.546	0.0134771
804.624	0.0133926
804.703	0.0135056
804.781	0.0134448
804.859	0.0136436
804.937	0.0137038
805.015	0.0137552
805.093	0.0138068
805.171	0.0137836
805.249	0.0137734
805.328	0.0136841
805.406	0.0136335
805.484	0.0135892
805.562	0.0136195
805.640	0.0134317
805.718	0.0132932
805.796	0.0133479
805.874	0.0134948
805.953	0.0133842
806.031	0.0134453
806.109	0.0134920
806.187	0.0134054
806.265	0.0134498
806.343	0.0135487
806.421	0.0136572
806.499	0.0135113
806.578	0.0136498
806.656	0.0136676
806.734	0.0137174
806.812	0.0136835
806.890	0.0136267
806.968	0.0136471
807.046	0.0137184
807.124	0.0136422
807.203	0.0136282
807.281	0.0135270
807.359	0.0135725
807.437	0.0135667
807.515	0.0137797
807.593	0.0137317
807.671	0.0136952
807.749	0.0138201
807.828	0.0137105
807.906	0.0137216
807.984	0.0136701
808.062	0.0136298
808.140	0.0137515
808.218	0.0136864
808.296	0.0134727
808.374	0.0134948
808.453	0.0134490
808.531	0.0132935
808.609	0.0134437
808.687	0.0133181
808.765	0.0134103
808.843	0.0135343
808.921	0.0133634
808.999	0.0134605
809.078	0.0133307
809.156	0.0135152
809.234	0.0135384
809.312	0.0134113
809.390	0.0135095
809.468	0.0135595
809.546	0.0134465
809.624	0.0134545
809.703	0.0135800
809.781	0.0135679
809.859	0.0137232
809.937	0.0136823
810.015	0.0137304
810.093	0.0135903
810.171	0.0137745
810.249	0.0138469
810.328	0.0138042
810.406	0.0138435
810.484	0.0137332
810.562	0.0138470
810.640	0.0137239
810.718	0.0136979
810.796	0.0138146
810.874	0.0136569
810.953	0.0135865
811.031	0.0135102
811.109	0.0136318
811.187	0.0134840
811.265	0.0136243
811.343	0.0137165
811.421	0.0136272
811.499	0.0136337
811.578	0.0135909
811.656	0.0136942
811.734	0.0136394
811.812	0.0135474
811.890	0.0136568
811.968	0.0135199
812.046	0.0134864
812.124	0.0133500
812.203	0.0133878
812.281	0.0134102
812.359	0.0133743
812.437	0.0133750
812.515	0.0134563
812.593	0.0136732
812.671	0.0135700
812.749	0.0134406
812.828	0.0137323
812.906	0.0138702
812.984	0.0136867
813.062	0.0138560
813.140	0.0137160
813.218	0.0137557
813.296	0.0136833
813.374	0.0136052
813.453	0.0135165
813.531	0.0134354
813.609	0.0133385
813.687	0.0132178
813.765	0.0131973
813.843	0.0132181
813.921	0.0130695
813.999	0.0131232
814.078	0.0131733
814.156	0.0132208
814.234	0.0132514
814.312	0.0133331
814.390	0.0134036
814.468	0.0134665
814.546	0.0134879
814.624	0.0136243
814.703	0.0135331
814.781	0.0136228
814.859	0.0136815
814.937	0.0134879
815.015	0.0136395
815.093	0.0136768
815.171	0.0136907
815.249	0.0136114
815.328	0.0136011
815.406	0.0136520
815.484	0.0136013
815.562	0.0136926
815.640	0.0138532
815.718	0.0138544
815.796	0.0139280
815.874	0.0138726
815.953	0.0139893
816.031	0.0140067
816.109	0.0140054
816.187	0.0140540
816.265	0.0139754
816.343	0.0140054
816.421	0.0137351
816.499	0.0138567
816.578	0.0137933
816.656	0.0137195
816.734	0.0137611
816.812	0.0136533
816.890	0.0135136
816.968	0.0134616
817.046	0.0135455
817.124	0.0134179
817.203	0.0133868
817.281	0.0135375
817.359	0.0135730
817.437	0.0135889
817.515	0.0136105
817.593	0.0134869
817.671	0.0135017
817.749	0.0135846
817.828	0.0135085
817.906	0.0135822
817.984	0.0136529
818.062	0.0134686
818.140	0.0136757
818.218	0.0136293
818.296	0.0134839
818.374	0.0134817
818.453	0.0133953
818.531	0.0135926
818.609	0.0135942
818.687	0.0136744
818.765	0.0136913
818.843	0.0137599
818.921	0.0138458
818.999	0.0136324
819.078	0.0136817
819.156	0.0138503
819.234	0.0139234
819.312	0.0137461
819.390	0.0138205
819.468	0.0138187
819.546	0.0137725
819.624	0.0138214
819.703	0.0137495
819.781	0.0138087
819.859	0.0138300
819.937	0.0136848
820.015	0.0138012
820.093	0.0136819
820.171	0.0137398
820.249	0.0136620
820.328	0.0136067
820.406	0.0137781
820.484	0.0136678
820.562	0.0138689
820.640	0.0137914
820.718	0.0136882
820.796	0.0136962
820.874	0.0136758
820.953	0.0136633
821.031	0.0137194
821.109	0.0138019
821.187	0.0137577
821.265	0.0137057
821.343	0.0136221
821.421	0.0137501
821.499	0.0136565
821.578	0.0136502
821.656	0.0137514
821.734	0.0136819
821.812	0.0136579
821.890	0.0135332
821.968	0.0136765
822.046	0.0135358
822.124	0.0135053
822.203	0.0135697
822.281	0.0136972
822.359	0.0137956
822.437	0.0136924
822.515	0.0136552
822.593	0.0137248
822.671	0.0136819
822.749	0.0136755
822.828	0.0137886
822.906	0.0137810
822.984	0.0137322
823.062	0.0136588
823.140	0.0137772
823.218	0.0138517
823.296	0.0137103
823.374	0.0138339
823.453	0.0140232
823.531	0.0138695
823.609	0.0138572
823.687	0.0138064
823.765	0.0139378
823.843	0.0139655
823.921	0.0140157
823.999	0.0139909
824.078	0.0138564
824.156	0.0138978
824.234	0.0139571
824.312	0.0138184
824.390	0.0138578
824.468	0.0137936
824.546	0.0137860
824.624	0.0137338
824.703	0.0138071
824.781	0.0137579
824.859	0.0137083
824.937	0.0137168
825.015	0.0136604
825.093	0.0135866
825.171	0.0135281
825.249	0.0135723
825.328	0.0135895
825.406	0.0133887
825.484	0.0134705
825.562	0.0134489
825.640	0.0133784
825.718	0.0134531
825.796	0.0134334
825.874	0.0134758
825.953	0.0133347
826.031	0.0135025
826.109	0.0133460
826.187	0.0133479
826.265	0.0135881
826.343	0.0134126
826.421	0.0134776
826.499	0.0135675
826.578	0.0136597
826.656	0.0137418
826.734	0.0136027
826.812	0.0135513
826.890	0.0138931
826.968	0.0138215
827.046	0.0137082
827.124	0.0137921
827.203	0.0139046
827.281	0.0138400
827.359	0.0136467
827.437	0.0136663
827.515	0.0138157
827.593	0.0136732
827.671	0.0135759
827.749	0.0135959
827.828	0.0134266
827.906	0.0135620
827.984	0.0136221
828.062	0.0135147
828.140	0.0136340
828.218	0.0134573
828.296	0.0135495
828.374	0.0135258
828.453	0.0134772
828.531	0.0135621
828.609	0.0136061
828.687	0.0137228
828.765	0.0136008
828.843	0.0135165
828.921	0.0135217
828.999	0.0135429
829.078	0.0135320
829.156	0.0135709
829.234	0.0134779
829.312	0.0134218
829.390	0.0134436
829.468	0.0135458
829.546	0.0135864
829.624	0.0135534
829.703	0.0135571
829.781	0.0137045
829.859	0.0136390
829.937	0.0137098
830.015	0.0136945
830.093	0.0136936
830.171	0.0137324
830.249	0.0136742
830.328	0.0138052
830.406	0.0138084
830.484	0.0138655
830.562	0.0137865
830.640	0.0138861
830.718	0.0139130
830.796	0.0137002
830.874	0.0137859
830.953	0.0137499
831.031	0.0138902
831.109	0.0136095
831.187	0.0136915
831.265	0.0138387
831.343	0.0136663
831.421	0.0137680
831.499	0.0139334
831.578	0.0138999
831.656	0.0138660
831.734	0.0139731
831.812	0.0139942
831.890	0.0138844
831.968	0.0140054
832.046	0.0138931
832.124	0.0138393
832.203	0.0137639
832.281	0.0138055
832.359	0.0135980
832.437	0.0135497
832.515	0.0135893
832.593	0.0134911
832.671	0.0134338
832.749	0.0135260
832.828	0.0134776
832.906	0.0134706
832.984	0.0136102
833.062	0.0135931
833.140	0.0135467
833.218	0.0136475
833.296	0.0136834
833.374	0.0136762
833.453	0.0135201
833.531	0.0136318
833.609	0.0137392
833.687	0.0136201
833.765	0.0136879
833.843	0.0136382
833.921	0.0135922
833.999	0.0135608
834.078	0.0136557
834.156	0.0136406
834.234	0.0134512
834.312	0.0136604
834.390	0.0136656
834.468	0.0136073
834.546	0.0135963
834.624	0.0135999
834.703	0.0135823
834.781	0.0136695
834.859	0.0136351
834.937	0.0136485
835.015	0.0136722
835.093	0.0137006
835.171	0.0136946
835.249	0.0137752
835.328	0.0137679
835.406	0.0137385
835.484	0.0137738
835.562	0.0137273
835.640	0.0138467
835.718	0.0138111
835.796	0.0137572
835.874	0.0137874
835.953	0.0138054
836.031	0.0137513
836.109	0.0136395
836.187	0.0138028
836.265	0.0136401
836.343	0.0136591
836.421	0.0137169
836.499	0.0137288
836.578	0.0136894
836.656	0.0136207
836.734	0.0136061
836.812	0.0136476
836.890	0.0136943
836.968	0.0138064
837.046	0.0138479
837.124	0.0135510
837.203	0.0138025
837.281	0.0136758
837.359	0.0136802
837.437	0.0136735
837.515	0.0136230
837.593	0.0137903
837.671	0.0135159
837.749	0.0136118
837.828	0.0135992
837.906	0.0134818
837.984	0.0136510
838.062	0.0137342
838.140	0.0135712
838.218	0.0136478
838.296	0.0135667
838.374	0.0135469
838.453	0.0135634
838.531	0.0135195
838.609	0.0136071
838.687	0.0136922
838.765	0.0136572
838.843	0.0137090
838.921	0.0136637
838.999	0.0136246
839.078	0.0135599
839.156	0.0137025
839.234	0.0138072
839.312	0.0136405
839.390	0.0137504
839.468	0.0138409
839.546	0.0137405
839.624	0.0137270
839.703	0.0137112
839.781	0.0137073
839.859	0.0135612
839.937	0.0138507
840.015	0.0138690
840.093	0.0137291
840.171	0.0137726
840.249	0.0137653
840.328	0.0137753
840.406	0.0136253
840.484	0.0137679
840.562	0.0137393
840.640	0.0137437
840.718	0.0137565
840.796	0.0137355
840.874	0.0137923
840.953	0.0139481
841.031	0.0136991
841.109	0.0136070
841.187	0.0136215
841.265	0.0137239
841.343	0.0136945
841.421	0.0137000
841.499	0.0137476
841.578	0.0136742
841.656	0.0136961
841.734	0.0136991
841.812	0.0136086
841.890	0.0136630
841.968	0.0136266
842.046	0.0136828
842.124	0.0137188
842.203	0.0138457
842.281	0.0136791
842.359	0.0136075
842.437	0.0136270
842.515	0.0136539
842.593	0.0136427
842.671	0.0135947
842.749	0.0137159
842.828	0.0138394
842.906	0.0137424
842.984	0.0137177
843.062	0.0136761
843.140	0.0136385
843.218	0.0138026
843.296	0.0136370
843.374	0.0136708
843.453	0.0136746
843.531	0.0135487
843.609	0.0134839
843.687	0.0136346
843.765	0.0136546
843.843	0.0136040
843.921	0.0135992
843.999	0.0136130
844.078	0.0136929
844.156	0.0135881
844.234	0.0136131
844.312	0.0136284
844.390	0.0136661
844.468	0.0138021
844.546	0.0136651
844.624	0.0136629
844.703	0.0135899
844.781	0.0137213
844.859	0.0137370
844.937	0.0136562
845.015	0.0135862
845.093	0.0135526
845.171	0.0137077
845.249	0.0136685
845.328	0.0137348
845.406	0.0137273
845.484	0.0136207
845.562	0.0137048
845.640	0.0135529
845.718	0.0135324
845.796	0.0136675
845.874	0.0137065
845.953	0.0135744
846.031	0.0135376
846.109	0.0135138
846.187	0.0135096
846.265	0.0135204
846.343	0.0135933
846.421	0.0135169
846.499	0.0133653
846.578	0.0134856
846.656	0.0134896
846.734	0.0134530
846.812	0.0134204
846.890	0.0134596
846.968	0.0134228
847.046	0.0133233
847.124	0.0134610
847.203	0.0135059
847.281	0.0133846
847.359	0.0135958
847.437	0.0135898
847.515	0.0137617
847.593	0.0136870
847.671	0.0136843
847.749	0.0138817
847.828	0.0139652
847.906	0.0139312
847.984	0.0139054
848.062	0.0138591
848.140	0.0139079
848.218	0.0140010
848.296	0.0139732
848.374	0.0138309
848.453	0.0138710
848.531	0.0137431
848.609	0.0137521
848.687	0.0136904
848.765	0.0137495
848.843	0.0136749
848.921	0.0138370
848.999	0.0138010
849.078	0.0136772
849.156	0.0137103
849.234	0.0137011
849.312	0.0137561
849.390	0.0137277
849.468	0.0136967
849.546	0.0137049
849.624	0.0138646
849.703	0.0137077
849.781	0.0136823
849.859	0.0135673
849.937	0.0134563
850.015	0.0136622
850.093	0.0134933
850.171	0.0134409
850.249	0.0134619
850.328	0.0135886
850.406	0.0134196
850.484	0.0133960
850.562	0.0134466
850.640	0.0136186
850.718	0.0135464
850.796	0.0135796
850.874	0.0136174
850.953	0.0136505
851.031	0.0137115
851.109	0.0136951
851.187	0.0136423
851.265	0.0137159
851.343	0.0136850
851.421	0.0137195
851.499	0.0136396
851.578	0.0136891
851.656	0.0137235
851.734	0.0138007
851.812	0.0138137
851.890	0.0136981
851.968	0.0138567
852.046	0.0137543
852.124	0.0137592
852.203	0.0138612
852.281	0.0138030
852.359	0.0138297
852.437	0.0138079
852.515	0.0137613
852.593	0.0137632
852.671	0.0137833
852.749	0.0138209
852.828	0.0137546
852.906	0.0138179
852.984	0.0137180
853.062	0.0138776
853.140	0.0139578
853.218	0.0137816
853.296	0.0137900
853.374	0.0136917
853.453	0.0137330
853.531	0.0136494
853.609	0.0136305
853.687	0.0135959
853.765	0.0136002
853.843	0.0136399
853.921	0.0135922
853.999	0.0135555
854.078	0.0134505
854.156	0.0135152
854.234	0.0135156
854.312	0.0136923
854.390	0.0136436
854.468	0.0136053
854.546	0.0135444
854.624	0.0136980
854.703	0.0136504
854.781	0.0136512
854.859	0.0136652
854.937	0.0137688
855.015	0.0136833
855.093	0.0136406
855.171	0.0137031
855.249	0.0139059
855.328	0.0139319
855.406	0.0137376
855.484	0.0136938
855.562	0.0137830
855.640	0.0137270
855.718	0.0138541
855.796	0.0139149
855.874	0.0138303
855.953	0.0138371
856.031	0.0138125
856.109	0.0138566
856.187	0.0138170
856.265	0.0137946
856.343	0.0138496
856.421	0.0138005
856.499	0.0138963
856.578	0.0138787
856.656	0.0139975
856.734	0.0139966
856.812	0.0139742
856.890	0.0138905
856.968	0.0138332
857.046	0.0138162
857.124	0.0138113
857.203	0.0138109
857.281	0.0138020
857.359	0.0136883
857.437	0.0136066
857.515	0.0136594
857.593	0.0136407
857.671	0.0134921
857.749	0.0134113
857.828	0.0135629
857.906	0.0135574
857.984	0.0135846
858.062	0.0133675
858.140	0.0135975
858.218	0.0136596
858.296	0.0135260
858.374	0.0136483
858.453	0.0137156
858.531	0.0135266
858.609	0.0134994
858.687	0.0135760
858.765	0.0136005
858.843	0.0136180
858.921	0.0136639
858.999	0.0136813
859.078	0.0137792
859.156	0.0136293
859.234	0.0136574
859.312	0.0137389
859.390	0.0137835
859.468	0.0138786
859.546	0.0138247
859.624	0.0138555
859.703	0.0138625
859.781	0.0138406
859.859	0.0139159
859.937	0.0139280
860.015	0.0140408
860.093	0.0139945
860.171	0.0140491
860.249	0.0139565
860.328	0.0139896
860.406	0.0139641
860.484	0.0140913
860.562	0.0139436
860.640	0.0140400
860.718	0.0140249
860.796	0.0138668
860.874	0.0138853
860.953	0.0139536
861.031	0.0139214
861.109	0.0138043
861.187	0.0138352
861.265	0.0138120
861.343	0.0138089
861.421	0.0138303
861.499	0.0139034
861.578	0.0136021
861.656	0.0137018
861.734	0.0136985
861.812	0.0138696
861.890	0.0136312
861.968	0.0137417
862.046	0.0136611
862.124	0.0135759
862.203	0.0136932
862.281	0.0136385
862.359	0.0139712
862.437	0.0137148
862.515	0.0134761
862.593	0.0136406
862.671	0.0135812
862.749	0.0136484
862.828	0.0136418
862.906	0.0136826
862.984	0.0136204
863.062	0.0137761
863.140	0.0137144
863.218	0.0136662
863.296	0.0136757
863.374	0.0136222
863.453	0.0136359
863.531	0.0137053
863.609	0.0137710
863.687	0.0136479
863.765	0.0137759
863.843	0.0137231
863.921	0.0137351
863.999	0.0138216
864.078	0.0136591
864.156	0.0137760
864.234	0.0138216
864.312	0.0137989
864.390	0.0137917
864.468	0.0138835
864.546	0.0136708
864.624	0.0136646
864.703	0.0137113
864.781	0.0137655
864.859	0.0137296
864.937	0.0137377
865.015	0.0137486
865.093	0.0136782
865.171	0.0136765
865.249	0.0136282
865.328	0.0135997
865.406	0.0135593
865.484	0.0136594
865.562	0.0136896
865.640	0.0134598
865.718	0.0134856
865.796	0.0135020
865.874	0.0135097
865.953	0.0134610
866.031	0.0135383
866.109	0.0136893
866.187	0.0134969
866.265	0.0135865
866.343	0.0137402
866.421	0.0136242
866.499	0.0135850
866.578	0.0137026
866.656	0.0135857
866.734	0.0134927
866.812	0.0135460
866.890	0.0137739
866.968	0.0136550
867.046	0.0136073
867.124	0.0137428
867.203	0.0137892
867.281	0.0137009
867.359	0.0136677
867.437	0.0136899
867.515	0.0136777
867.593	0.0138170
867.671	0.0138412
867.749	0.0138822
867.828	0.0138346
867.906	0.0139767
867.984	0.0138609
868.062	0.0139682
868.140	0.0139526
868.218	0.0139324
868.296	0.0139011
868.374	0.0140544
868.453	0.0139178
868.531	0.0138895
868.609	0.0139627
868.687	0.0138091
868.765	0.0138512
868.843	0.0139041
868.921	0.0139000
868.999	0.0138136
869.078	0.0136940
869.156	0.0137028
869.234	0.0137081
869.312	0.0137083
869.390	0.0137187
869.468	0.0137014
869.546	0.0137371
869.624	0.0135542
869.703	0.0136050
869.781	0.0135742
869.859	0.0136273
869.937	0.0135561
870.015	0.0134259
870.093	0.0135950
870.171	0.0135428
870.249	0.0134197
870.328	0.0134713
870.406	0.0133820
870.484	0.0134947
870.562	0.0134380
870.640	0.0134760
870.718	0.0135420
870.796	0.0134834
870.874	0.0134590
870.953	0.0134820
871.031	0.0134291
871.109	0.0134438
871.187	0.0133658
871.265	0.0135246
871.343	0.0134438
871.421	0.0135013
871.499	0.0134372
871.578	0.0134589
871.656	0.0135916
871.734	0.0136935
871.812	0.0135336
871.890	0.0136097
871.968	0.0136355
872.046	0.0135280
872.124	0.0135483
872.203	0.0135611
872.281	0.0137166
872.359	0.0135429
872.437	0.0135695
872.515	0.0135015
872.593	0.0134298
872.671	0.0134441
872.749	0.0135671
872.828	0.0134776
872.906	0.0134769
872.984	0.0133940
873.062	0.0136179
873.140	0.0137026
873.218	0.0134854
873.296	0.0135743
873.374	0.0135880
873.453	0.0134853
873.531	0.0136593
873.609	0.0136012
873.687	0.0135487
873.765	0.0135950
873.843	0.0134959
873.921	0.0135047
873.999	0.0136249
874.078	0.0135764
874.156	0.0135441
874.234	0.0134636
874.312	0.0135809
874.390	0.0136862
874.468	0.0136845
874.546	0.0136298
874.624	0.0136539
874.703	0.0135723
874.781	0.0134851
874.859	0.0136900
874.937	0.0136648
875.015	0.0137240
875.093	0.0137756
875.171	0.0137540
875.249	0.0136426
875.328	0.0135992
875.406	0.0136710
875.484	0.0137627
875.562	0.0136864
875.640	0.0136041
875.718	0.0134750
875.796	0.0136208
875.874	0.0134898
875.953	0.0134689
876.031	0.0135749
876.109	0.0135364
876.187	0.0136040
876.265	0.0135339
876.343	0.0136630
876.421	0.0136256
876.499	0.0134964
876.578	0.0137635
876.656	0.0136320
876.734	0.0135781
876.812	0.0137279
876.890	0.0136427
876.968	0.0136337
877.046	0.0134767
877.124	0.0135651
877.203	0.0135412
877.281	0.0137143
877.359	0.0135704
877.437	0.0134972
877.515	0.0135377
877.593	0.0136150
877.671	0.0135580
877.749	0.0136215
877.828	0.0136726
877.906	0.0136366
877.984	0.0136639
878.062	0.0135179
878.140	0.0135767
878.218	0.0137270
878.296	0.0135121
878.374	0.0135056
878.453	0.0136408
878.531	0.0135759
878.609	0.0135426
878.687	0.0135880
878.765	0.0136053
878.843	0.0135582
878.921	0.0136317
878.999	0.0136678
879.078	0.0137348
879.156	0.0137290
879.234	0.0137199
879.312	0.0136372
879.390	0.0135334
879.468	0.0134926
879.546	0.0137515
879.624	0.0137722
879.703	0.0137994
879.781	0.0138781
879.859	0.0137627
879.937	0.0139128
880.015	0.0138089
880.093	0.0137198
880.171	0.0138908
880.249	0.0138901
880.328	0.0138544
880.406	0.0138746
880.484	0.0138221
880.562	0.0138895
880.640	0.0138280
880.718	0.0139468
880.796	0.0138667
880.874	0.0138645
880.953	0.0139288
881.031	0.0138195
881.109	0.0137598
881.187	0.0139467
881.265	0.0140423
881.343	0.0138278
881.421	0.0137699
881.499	0.0138255
881.578	0.0137551
881.656	0.0136855
881.734	0.0139117
881.812	0.0136935
881.890	0.0137596
881.968	0.0136616
882.046	0.0136662
882.124	0.0136566
882.203	0.0135893
882.281	0.0135199
882.359	0.0134823
882.437	0.0134125
882.515	0.0134563
882.593	0.0136136
882.671	0.0133807
882.749	0.0135521
882.828	0.0135032
882.906	0.0133432
882.984	0.0135850
883.062	0.0135213
883.140	0.0136562
883.218	0.0135663
883.296	0.0137213
883.374	0.0135772
883.453	0.0136886
883.531	0.0137330
883.609	0.0136681
883.687	0.0135752
883.765	0.0136171
883.843	0.0136064
883.921	0.0137281
883.999	0.0137103
884.078	0.0137395
884.156	0.0138206
884.234	0.0137180
884.312	0.0136991
884.390	0.0136795
884.468	0.0138647
884.546	0.0138866
884.624	0.0139374
884.703	0.0139430
884.781	0.0137645
884.859	0.0138970
884.937	0.0139046
885.015	0.0139108
885.093	0.0139260
885.171	0.0138630
885.249	0.0137905
885.328	0.0138963
885.406	0.0138855
885.484	0.0137502
885.562	0.0137966
885.640	0.0138990
885.718	0.0137965
885.796	0.0139282
885.874	0.0137352
885.953	0.0138178
886.031	0.0136813
886.109	0.0137629
886.187	0.0137314
886.265	0.0135608
886.343	0.0137004
886.421	0.0138094
886.499	0.0137354
886.578	0.0136015
886.656	0.0136135
886.734	0.0136240
886.812	0.0136768
886.890	0.0136085
886.968	0.0136806
887.046	0.0136549
887.124	0.0136304
887.203	0.0136517
887.281	0.0137083
887.359	0.0135571
887.437	0.0135899
887.515	0.0137257
887.593	0.0136024
887.671	0.0135216
887.749	0.0136510
887.828	0.0136934
887.906	0.0136710
887.984	0.0135182
888.062	0.0134593
888.140	0.0135979
888.218	0.0135500
888.296	0.0137373
888.374	0.0135380
888.453	0.0135953
888.531	0.0135377
888.609	0.0136106
888.687	0.0135912
888.765	0.0137864
888.843	0.0137623
888.921	0.0136230
888.999	0.0137795
889.078	0.0137798
889.156	0.0137197
889.234	0.0137213
889.312	0.0136539
889.390	0.0136342
889.468	0.0136742
889.546	0.0136544
889.624	0.0136893
889.703	0.0135940
889.781	0.0136823
889.859	0.0135946
889.937	0.0136568
890.015	0.0136584
890.093	0.0136220
890.171	0.0135995
890.249	0.0134833
890.328	0.0135836
890.406	0.0136301
890.484	0.0136378
890.562	0.0135484
890.640	0.0135651
890.718	0.0136800
890.796	0.0137405
890.874	0.0136279
890.953	0.0135364
891.031	0.0137171
891.109	0.0136895
891.187	0.0137693
891.265	0.0136691
891.343	0.0136533
891.421	0.0136879
891.499	0.0137456
891.578	0.0136509
891.656	0.0136994
891.734	0.0137525
891.812	0.0139767
891.890	0.0137433
891.968	0.0137868
892.046	0.0137743
892.124	0.0135974
892.203	0.0137016
892.281	0.0137277
892.359	0.0136694
892.437	0.0137838
892.515	0.0136449
892.593	0.0136587
892.671	0.0136739
892.749	0.0135257
892.828	0.0135748
892.906	0.0137143
892.984	0.0137799
893.062	0.0136855
893.140	0.0137927
893.218	0.0136660
893.296	0.0135232
893.374	0.0137024
893.453	0.0135172
893.531	0.0136020
893.609	0.0135954
893.687	0.0135416
893.765	0.0135349
893.843	0.0135499
893.921	0.0135205
893.999	0.0134331
894.078	0.0134922
894.156	0.0135063
894.234	0.0134222
894.312	0.0135153
894.390	0.0135197
894.468	0.0135179
894.546	0.0134192
894.624	0.0135463
894.703	0.0134760
894.781	0.0133554
894.859	0.0134499
894.937	0.0134638
895.015	0.0134659
895.093	0.0135677
895.171	0.0134454
895.249	0.0136002
895.328	0.0136185
895.406	0.0135129
895.484	0.0136095
895.562	0.0135149
895.640	0.0135287
895.718	0.0135590
895.796	0.0136789
895.874	0.0136296
895.953	0.0136312
896.031	0.0135738
896.109	0.0136539
896.187	0.0137108
896.265	0.0137025
896.343	0.0137875
896.421	0.0135340
896.499	0.0136423
896.578	0.0136424
896.656	0.0135635
896.734	0.0136891
896.812	0.0137395
896.890	0.0136330
896.968	0.0136150
897.046	0.0137337
897.124	0.0136820
897.203	0.0136508
897.281	0.0135794
897.359	0.0136723
897.437	0.0136655
897.515	0.0136160
897.593	0.0136243
897.671	0.0134562
897.749	0.0134907
897.828	0.0136937
897.906	0.0137080
897.984	0.0134866
898.062	0.0135214
898.140	0.0135913
898.218	0.0136227
898.296	0.0134529
898.374	0.0134780
898.453	0.0134830
898.531	0.0135610
898.609	0.0135973
898.687	0.0137643
898.765	0.0135572
898.843	0.0134531
898.921	0.0137009
898.999	0.0134775
899.078	0.0135635
899.156	0.0136358
899.234	0.0135750
899.312	0.0136376
899.390	0.0135671
899.468	0.0136935
899.546	0.0135645
899.624	0.0136415
899.703	0.0137151
899.781	0.0136069
899.859	0.0137167
899.937	0.0135213
900.015	0.0136030
900.093	0.0136803
900.171	0.0136584
900.249	0.0135588
900.328	0.0134973
900.406	0.0137186
900.484	0.0136537
900.562	0.0134550
900.640	0.0136744
900.718	0.0136539
900.796	0.0135477
900.874	0.0137343
900.953	0.0136685
901.031	0.0136682
901.109	0.0136695
901.187	0.0136909
901.265	0.0137261
901.343	0.0137119
901.421	0.0137439
901.499	0.0137450
901.578	0.0137534
901.656	0.0136526
901.734	0.0137330
901.812	0.0136553
901.890	0.0136777
901.968	0.0137220
902.046	0.0137822
902.124	0.0136856
902.203	0.0137530
902.281	0.0137873
902.359	0.0137698
902.437	0.0137309
902.515	0.0135989
902.593	0.0137727
902.671	0.0136066
902.749	0.0138457
902.828	0.0138282
902.906	0.0136658
902.984	0.0137714
903.062	0.0137074
903.140	0.0137353
903.218	0.0137738
903.296	0.0137798
903.374	0.0137006
903.453	0.0136117
903.531	0.0136763
903.609	0.0137267
903.687	0.0137456
903.765	0.0136780
903.843	0.0137332
903.921	0.0136562
903.999	0.0136423
904.078	0.0137634
904.156	0.0137137
904.234	0.0136900
904.312	0.0137502
904.390	0.0137170
904.468	0.0136413
904.546	0.0137130
904.624	0.0136647
904.703	0.0136691
904.781	0.0136412
904.859	0.0137561
904.937	0.0135349
905.015	0.0135381
905.093	0.0134805
905.171	0.0136098
905.249	0.0137161
905.328	0.0136167
905.406	0.0136776
905.484	0.0137681
905.562	0.0136275
905.640	0.0136787
905.718	0.0136628
905.796	0.0136050
905.874	0.0137257
905.953	0.0137585
906.031	0.0136292
906.109	0.0136729
906.187	0.0137184
906.265	0.0137636
906.343	0.0137167
906.421	0.0137598
906.499	0.0137732
906.578	0.0137051
906.656	0.0136824
906.734	0.0136867
906.812	0.0135545
906.890	0.0136145
906.968	0.0135907
907.046	0.0133279
907.124	0.0135919
907.203	0.0135762
907.281	0.0135201
907.359	0.0134769
907.437	0.0134275
907.515	0.0135108
907.593	0.0134970
907.671	0.0133878
907.749	0.0135637
907.828	0.0135811
907.906	0.0136790
907.984	0.0135139
908.062	0.0134322
908.140	0.0135384
908.218	0.0135123
908.296	0.0135686
908.374	0.0135097
908.453	0.0136390
908.531	0.0134631
908.609	0.0134813
908.687	0.0137874
908.765	0.0137394
908.843	0.0137308
908.921	0.0138479
908.999	0.0136893
909.078	0.0136536
909.156	0.0137650
909.234	0.0137881
909.312	0.0139135
909.390	0.0137811
909.468	0.0138297
909.546	0.0138358
909.624	0.0138999
909.703	0.0138952
909.781	0.0137830
909.859	0.0137524
909.937	0.0138301
910.015	0.0139799
910.093	0.0137947
910.171	0.0137209
910.249	0.0138290
910.328	0.0137931
910.406	0.0137144
910.484	0.0137829
910.562	0.0137547
910.640	0.0137296
910.718	0.0138243
910.796	0.0137935
910.874	0.0137021
910.953	0.0136902
911.031	0.0137825
911.109	0.0135786
911.187	0.0137918
911.265	0.0136700
911.343	0.0136159
911.421	0.0135902
911.499	0.0137643
911.578	0.0136943
911.656	0.0135992
911.734	0.0135503
911.812	0.0136655
911.890	0.0137613
911.968	0.0136091
912.046	0.0136349
912.124	0.0135944
912.203	0.0135213
912.281	0.0136149
912.359	0.0135478
912.437	0.0135337
912.515	0.0136398
912.593	0.0135467
912.671	0.0133295
912.749	0.0134496
912.828	0.0135325
912.906	0.0134092
912.984	0.0134142
913.062	0.0136736
913.140	0.0134952
913.218	0.0135915
913.296	0.0136569
913.374	0.0136176
913.453	0.0136723
913.531	0.0136314
913.609	0.0135476
913.687	0.0134234
913.765	0.0135413
913.843	0.0134983
913.921	0.0137774
913.999	0.0135971
914.078	0.0135566
914.156	0.0136481
914.234	0.0135995
914.312	0.0136651
914.390	0.0137200
914.468	0.0137296
914.546	0.0136919
914.624	0.0137800
914.703	0.0136102
914.781	0.0136299
914.859	0.0136877
914.937	0.0136305
915.015	0.0135835
915.093	0.0136223
915.171	0.0136897
915.249	0.0137475
915.328	0.0136960
915.406	0.0136988
915.484	0.0135485
915.562	0.0136861
915.640	0.0138346
915.718	0.0138308
915.796	0.0136262
915.874	0.0137089
915.953	0.0139073
916.031	0.0137279
916.109	0.0138335
916.187	0.0137530
916.265	0.0136663
916.343	0.0137972
916.421	0.0137977
916.499	0.0137370
916.578	0.0138798
916.656	0.0138287
916.734	0.0137672
916.812	0.0137801
916.890	0.0137582
916.968	0.0137231
917.046	0.0139153
917.124	0.0137798
917.203	0.0137276
917.281	0.0138375
917.359	0.0136509
917.437	0.0137106
917.515	0.0136561
917.593	0.0136087
917.671	0.0136689
917.749	0.0136313
917.828	0.0137259
917.906	0.0137194
917.984	0.0137460
918.062	0.0136964
918.140	0.0136745
918.218	0.0137467
918.296	0.0136131
918.374	0.0135463
918.453	0.0136389
918.531	0.0136763
918.609	0.0137490
918.687	0.0136719
918.765	0.0136129
918.843	0.0137600
918.921	0.0138145
918.999	0.0135881
919.078	0.0135516
919.156	0.0138206
919.234	0.0136980
919.312	0.0137194
919.390	0.0137540
919.468	0.0137392
919.546	0.0137108
919.624	0.0136296
919.703	0.0136132
919.781	0.0135471
919.859	0.0137438
919.937	0.0136214
