05/08/2022	19:34:54	Ver.	4.1	UNKNOWN
Optical Delay	649.989667	Delta X		0.078125	Sweeps	1	Scan Rate	0/0
Coordinates	Axis 1	NaN	Axis 2	NaN	Axis 3	NaN	Axis 4	NaN	Axis 5	NaN	Axis 6	0.000000
TX Power	0.000000	RX Power	0.000000

649.990	0.0139294
650.068	0.0138819
650.146	0.0138749
650.224	0.0138795
650.302	0.0137938
650.380	0.0140656
650.458	0.0139723
650.537	0.0138937
650.615	0.0139202
650.693	0.0140052
650.771	0.0139799
650.849	0.0138984
650.927	0.0140032
651.005	0.0138925
651.083	0.0139965
651.162	0.0139790
651.240	0.0139677
651.318	0.0140546
651.396	0.0139108
651.474	0.0140226
651.552	0.0140427
651.630	0.0138577
651.708	0.0138647
651.787	0.0139716
651.865	0.0140342
651.943	0.0139758
652.021	0.0139223
652.099	0.0139354
652.177	0.0139444
652.255	0.0139098
652.333	0.0139838
652.412	0.0140466
652.490	0.0139544
652.568	0.0138715
652.646	0.0137986
652.724	0.0140134
652.802	0.0141136
652.880	0.0139667
652.958	0.0139820
653.037	0.0139698
653.115	0.0140195
653.193	0.0139480
653.271	0.0140378
653.349	0.0139871
653.427	0.0139950
653.505	0.0139259
653.583	0.0139786
653.662	0.0139144
653.740	0.0139403
653.818	0.0140182
653.896	0.0140258
653.974	0.0139938
654.052	0.0138859
654.130	0.0139043
654.208	0.0138007
654.287	0.0139969
654.365	0.0140346
654.443	0.0139018
654.521	0.0138954
654.599	0.0139833
654.677	0.0139671
654.755	0.0139914
654.833	0.0139946
654.912	0.0139199
654.990	0.0139645
655.068	0.0140381
655.146	0.0140114
655.224	0.0140952
655.302	0.0139626
655.380	0.0139156
655.458	0.0139716
655.537	0.0139308
655.615	0.0141376
655.693	0.0138974
655.771	0.0139288
655.849	0.0140521
655.927	0.0139709
656.005	0.0139326
656.083	0.0139946
656.162	0.0139282
656.240	0.0140259
656.318	0.0138941
656.396	0.0139565
656.474	0.0139500
656.552	0.0139627
656.630	0.0140009
656.708	0.0139670
656.787	0.0138621
656.865	0.0139400
656.943	0.0139758
657.021	0.0139649
657.099	0.0138957
657.177	0.0138825
657.255	0.0140257
657.333	0.0138995
657.412	0.0139974
657.490	0.0140563
657.568	0.0139351
657.646	0.0140441
657.724	0.0141782
657.802	0.0139575
657.880	0.0138542
657.958	0.0139141
658.037	0.0139434
658.115	0.0140680
658.193	0.0139159
658.271	0.0139876
658.349	0.0139297
658.427	0.0140321
658.505	0.0139989
658.583	0.0139558
658.662	0.0140466
658.740	0.0138721
658.818	0.0139449
658.896	0.0139088
658.974	0.0138853
659.052	0.0137766
659.130	0.0138444
659.208	0.0139954
659.287	0.0140096
659.365	0.0140345
659.443	0.0139777
659.521	0.0138794
659.599	0.0139614
659.677	0.0141376
659.755	0.0139478
659.833	0.0138816
659.912	0.0139552
659.990	0.0139553
660.068	0.0139535
660.146	0.0139435
660.224	0.0138515
660.302	0.0139924
660.380	0.0140234
660.458	0.0138958
660.537	0.0138277
660.615	0.0137474
660.693	0.0138528
660.771	0.0138216
660.849	0.0139567
660.927	0.0138602
661.005	0.0139323
661.083	0.0139777
661.162	0.0139710
661.240	0.0138544
661.318	0.0138255
661.396	0.0139337
661.474	0.0139900
661.552	0.0139791
661.630	0.0139064
661.708	0.0139356
661.787	0.0140207
661.865	0.0139090
661.943	0.0140586
662.021	0.0139297
662.099	0.0137693
662.177	0.0138837
662.255	0.0140541
662.333	0.0140910
662.412	0.0139475
662.490	0.0139265
662.568	0.0139362
662.646	0.0139818
662.724	0.0139442
662.802	0.0138701
662.880	0.0139143
662.958	0.0139667
663.037	0.0139176
663.115	0.0138961
663.193	0.0139986
663.271	0.0139056
663.349	0.0139879
663.427	0.0140179
663.505	0.0138729
663.583	0.0138865
663.662	0.0139846
663.740	0.0139866
663.818	0.0139754
663.896	0.0141171
663.974	0.0140032
664.052	0.0138483
664.130	0.0139847
664.208	0.0139423
664.287	0.0139700
664.365	0.0138696
664.443	0.0140872
664.521	0.0139932
664.599	0.0139156
664.677	0.0138061
664.755	0.0138869
664.833	0.0139991
664.912	0.0140116
664.990	0.0139059
665.068	0.0139540
665.146	0.0139643
665.224	0.0140939
665.302	0.0139819
665.380	0.0137788
665.458	0.0138060
665.537	0.0138815
665.615	0.0140383
665.693	0.0140068
665.771	0.0139987
665.849	0.0139064
665.927	0.0138616
666.005	0.0139314
666.083	0.0138334
666.162	0.0138990
666.240	0.0141080
666.318	0.0139034
666.396	0.0139022
666.474	0.0139340
666.552	0.0138672
666.630	0.0138721
666.708	0.0138361
666.787	0.0139441
666.865	0.0140316
666.943	0.0139240
667.021	0.0138285
667.099	0.0137421
667.177	0.0140011
667.255	0.0139990
667.333	0.0139902
667.412	0.0139085
667.490	0.0138957
667.568	0.0139127
667.646	0.0140057
667.724	0.0138815
667.802	0.0139899
667.880	0.0139799
667.958	0.0138103
668.037	0.0138441
668.115	0.0139622
668.193	0.0139243
668.271	0.0138279
668.349	0.0139672
668.427	0.0139801
668.505	0.0139619
668.583	0.0139684
668.662	0.0139576
668.740	0.0139210
668.818	0.0140025
668.896	0.0140046
668.974	0.0140313
669.052	0.0139770
669.130	0.0140342
669.208	0.0141139
669.287	0.0140282
669.365	0.0139753
669.443	0.0140307
669.521	0.0140354
669.599	0.0140665
669.677	0.0139127
669.755	0.0139647
669.833	0.0137849
669.912	0.0140503
669.990	0.0140652
670.068	0.0139738
670.146	0.0140385
670.224	0.0139687
670.302	0.0138984
670.380	0.0139883
670.458	0.0140679
670.537	0.0141357
670.615	0.0139349
670.693	0.0140887
670.771	0.0139459
670.849	0.0140040
670.927	0.0140472
671.005	0.0141406
671.083	0.0140324
671.162	0.0139829
671.240	0.0141159
671.318	0.0139908
671.396	0.0140236
671.474	0.0140964
671.552	0.0139652
671.630	0.0139835
671.708	0.0140073
671.787	0.0140541
671.865	0.0140440
671.943	0.0140481
672.021	0.0142154
672.099	0.0140308
672.177	0.0140191
672.255	0.0139983
672.333	0.0141171
672.412	0.0140333
672.490	0.0140401
672.568	0.0141343
672.646	0.0141103
672.724	0.0139500
672.802	0.0139693
672.880	0.0140521
672.958	0.0139325
673.037	0.0139983
673.115	0.0139592
673.193	0.0139320
673.271	0.0138903
673.349	0.0140185
673.427	0.0139497
673.505	0.0139073
673.583	0.0140664
673.662	0.0138931
673.740	0.0139590
673.818	0.0139059
673.896	0.0139723
673.974	0.0138631
674.052	0.0138770
674.130	0.0140314
674.208	0.0139826
674.287	0.0139494
674.365	0.0139298
674.443	0.0139111
674.521	0.0139073
674.599	0.0139794
674.677	0.0138528
674.755	0.0140247
674.833	0.0138866
674.912	0.0138604
674.990	0.0139280
675.068	0.0139720
675.146	0.0139362
675.224	0.0140171
675.302	0.0138697
675.380	0.0138443
675.458	0.0139639
675.537	0.0139632
675.615	0.0139101
675.693	0.0139864
675.771	0.0139231
675.849	0.0139427
675.927	0.0136919
676.005	0.0139482
676.083	0.0139220
676.162	0.0137405
676.240	0.0137464
676.318	0.0138507
676.396	0.0139395
676.474	0.0138969
676.552	0.0138277
676.630	0.0137284
676.708	0.0137486
676.787	0.0137892
676.865	0.0137565
676.943	0.0138412
677.021	0.0137464
677.099	0.0138770
677.177	0.0139632
677.255	0.0138795
677.333	0.0137962
677.412	0.0138873
677.490	0.0138544
677.568	0.0139260
677.646	0.0139813
677.724	0.0138985
677.802	0.0138355
677.880	0.0138341
677.958	0.0139884
678.037	0.0139811
678.115	0.0138988
678.193	0.0138776
678.271	0.0139011
678.349	0.0139754
678.427	0.0138404
678.505	0.0138382
678.583	0.0137859
678.662	0.0139072
678.740	0.0137798
678.818	0.0138643
678.896	0.0140898
678.974	0.0139281
679.052	0.0138449
679.130	0.0139648
679.208	0.0138512
679.287	0.0140144
679.365	0.0140646
679.443	0.0138486
679.521	0.0138943
679.599	0.0140269
679.677	0.0139931
679.755	0.0140402
679.833	0.0139676
679.912	0.0138754
679.990	0.0139503
680.068	0.0137463
680.146	0.0139550
680.224	0.0139698
680.302	0.0138824
680.380	0.0138410
680.458	0.0138572
680.537	0.0139948
680.615	0.0140517
680.693	0.0139165
680.771	0.0138714
680.849	0.0139922
680.927	0.0141155
681.005	0.0139687
681.083	0.0139706
681.162	0.0139525
681.240	0.0140360
681.318	0.0139933
681.396	0.0140452
681.474	0.0140192
681.552	0.0140223
681.630	0.0140246
681.708	0.0139440
681.787	0.0139603
681.865	0.0139630
681.943	0.0138703
682.021	0.0138850
682.099	0.0138779
682.177	0.0138723
682.255	0.0141158
682.333	0.0139491
682.412	0.0142949
682.490	0.0144398
682.568	0.0144070
682.646	0.0144090
682.724	0.0144441
682.802	0.0144580
682.880	0.0142767
682.958	0.0139056
683.037	0.0137399
683.115	0.0134058
683.193	0.0132610
683.271	0.0129137
683.349	0.0130972
683.427	0.0130391
683.505	0.0132285
683.583	0.0134959
683.662	0.0138462
683.740	0.0142147
683.818	0.0146343
683.896	0.0151017
683.974	0.0152936
684.052	0.0155966
684.130	0.0156876
684.208	0.0156235
684.287	0.0153631
684.365	0.0150077
684.443	0.0144691
684.521	0.0136917
684.599	0.0132082
684.677	0.0127172
684.755	0.0121390
684.833	0.0117419
684.912	0.0114330
684.990	0.0115307
685.068	0.0117529
685.146	0.0122691
685.224	0.0127383
685.302	0.0132372
685.380	0.0139870
685.458	0.0147381
685.537	0.0153103
685.615	0.0160388
685.693	0.0163565
685.771	0.0166318
685.849	0.0166985
685.927	0.0164014
686.005	0.0160246
686.083	0.0154638
686.162	0.0148565
686.240	0.0139998
686.318	0.0133888
686.396	0.0126651
686.474	0.0121792
686.552	0.0120802
686.630	0.0118044
686.708	0.0118645
686.787	0.0120584
686.865	0.0123541
686.943	0.0127947
687.021	0.0132252
687.099	0.0138255
687.177	0.0142345
687.255	0.0143880
687.333	0.0149183
687.412	0.0149536
687.490	0.0147993
687.568	0.0147451
687.646	0.0145725
687.724	0.0143502
687.802	0.0139454
687.880	0.0138111
687.958	0.0136452
688.037	0.0135008
688.115	0.0132677
688.193	0.0134087
688.271	0.0135189
688.349	0.0135700
688.427	0.0137003
688.505	0.0140438
688.583	0.0141687
688.662	0.0143214
688.740	0.0143133
688.818	0.0146725
688.896	0.0146891
688.974	0.0145533
689.052	0.0144848
689.130	0.0143637
689.208	0.0144163
689.287	0.0143526
689.365	0.0142904
689.443	0.0140671
689.521	0.0139854
689.599	0.0138535
689.677	0.0136833
689.755	0.0135758
689.833	0.0134880
689.912	0.0133054
689.990	0.0132328
690.068	0.0132049
690.146	0.0132006
690.224	0.0131776
690.302	0.0132041
690.380	0.0132571
690.458	0.0133800
690.537	0.0136007
690.615	0.0136664
690.693	0.0137058
690.771	0.0137359
690.849	0.0137438
690.927	0.0136888
691.005	0.0136569
691.083	0.0136565
691.162	0.0135667
691.240	0.0135303
691.318	0.0135442
691.396	0.0135856
691.474	0.0135030
691.552	0.0137088
691.630	0.0138419
691.708	0.0140245
691.787	0.0142002
691.865	0.0145222
691.943	0.0148523
692.021	0.0151156
692.099	0.0152190
692.177	0.0154845
692.255	0.0155232
692.333	0.0155294
692.412	0.0153972
692.490	0.0151411
692.568	0.0150488
692.646	0.0147318
692.724	0.0142925
692.802	0.0138518
692.880	0.0136596
692.958	0.0131619
693.037	0.0128630
693.115	0.0128533
693.193	0.0126586
693.271	0.0125027
693.349	0.0126442
693.427	0.0126846
693.505	0.0127934
693.583	0.0129988
693.662	0.0133012
693.740	0.0133606
693.818	0.0136697
693.896	0.0138493
693.974	0.0138583
694.052	0.0141231
694.130	0.0142035
694.208	0.0142465
694.287	0.0142092
694.365	0.0141016
694.443	0.0139648
694.521	0.0137057
694.599	0.0136285
694.677	0.0135598
694.755	0.0133537
694.833	0.0132371
694.912	0.0130347
694.990	0.0130179
695.068	0.0130183
695.146	0.0131839
695.224	0.0133191
695.302	0.0135294
695.380	0.0137527
695.458	0.0139454
695.537	0.0144932
695.615	0.0147713
695.693	0.0152465
695.771	0.0155772
695.849	0.0160180
695.927	0.0163351
696.005	0.0163650
696.083	0.0162795
696.162	0.0164006
696.240	0.0161496
696.318	0.0158620
696.396	0.0155677
696.474	0.0150923
696.552	0.0147506
696.630	0.0141744
696.708	0.0138406
696.787	0.0134341
696.865	0.0129850
696.943	0.0124776
697.021	0.0121524
697.099	0.0119820
697.177	0.0117477
697.255	0.0115598
697.333	0.0116713
697.412	0.0117220
697.490	0.0119348
697.568	0.0121728
697.646	0.0123875
697.724	0.0125021
697.802	0.0127711
697.880	0.0132081
697.958	0.0132585
698.037	0.0134818
698.115	0.0138773
698.193	0.0141007
698.271	0.0142107
698.349	0.0143983
698.427	0.0145736
698.505	0.0146634
698.583	0.0148072
698.662	0.0148769
698.740	0.0148680
698.818	0.0148650
698.896	0.0147939
698.974	0.0148805
699.052	0.0146805
699.130	0.0146392
699.208	0.0146174
699.287	0.0145749
699.365	0.0145853
699.443	0.0144824
699.521	0.0144769
699.599	0.0144849
699.677	0.0146220
699.755	0.0146722
699.833	0.0148229
699.912	0.0148354
699.990	0.0149764
700.068	0.0148512
700.146	0.0148939
700.224	0.0149703
700.302	0.0150195
700.380	0.0147663
700.458	0.0147572
700.537	0.0145813
700.615	0.0144128
700.693	0.0143093
700.771	0.0140169
700.849	0.0140588
700.927	0.0135406
701.005	0.0132391
701.083	0.0130502
701.162	0.0129327
701.240	0.0128056
701.318	0.0125977
701.396	0.0123788
701.474	0.0122604
701.552	0.0121867
701.630	0.0120571
701.708	0.0120827
701.787	0.0121717
701.865	0.0120110
701.943	0.0120765
702.021	0.0122208
702.099	0.0125052
702.177	0.0125389
702.255	0.0126936
702.333	0.0130621
702.412	0.0131460
702.490	0.0133245
702.568	0.0136053
702.646	0.0138866
702.724	0.0140592
702.802	0.0142611
702.880	0.0143546
702.958	0.0145099
703.037	0.0148496
703.115	0.0148724
703.193	0.0150905
703.271	0.0151684
703.349	0.0152901
703.427	0.0153472
703.505	0.0154996
703.583	0.0154970
703.662	0.0152673
703.740	0.0151919
703.818	0.0152172
703.896	0.0152853
703.974	0.0151526
704.052	0.0152284
704.130	0.0151008
704.208	0.0149559
704.287	0.0149342
704.365	0.0148160
704.443	0.0146016
704.521	0.0145944
704.599	0.0143754
704.677	0.0143600
704.755	0.0141179
704.833	0.0140476
704.912	0.0137840
704.990	0.0135490
705.068	0.0133781
705.146	0.0131135
705.224	0.0129372
705.302	0.0127867
705.380	0.0125651
705.458	0.0123048
705.537	0.0121732
705.615	0.0120988
705.693	0.0120359
705.771	0.0120245
705.849	0.0121087
705.927	0.0123632
706.005	0.0122752
706.083	0.0125755
706.162	0.0128121
706.240	0.0128966
706.318	0.0130263
706.396	0.0131331
706.474	0.0131985
706.552	0.0133098
706.630	0.0134602
706.708	0.0136577
706.787	0.0139392
706.865	0.0140674
706.943	0.0142777
707.021	0.0144396
707.099	0.0147333
707.177	0.0149209
707.255	0.0151129
707.333	0.0152953
707.412	0.0154544
707.490	0.0154668
707.568	0.0156583
707.646	0.0157421
707.724	0.0156792
707.802	0.0156429
707.880	0.0153602
707.958	0.0151310
708.037	0.0149924
708.115	0.0148564
708.193	0.0145895
708.271	0.0144987
708.349	0.0144200
708.427	0.0141864
708.505	0.0141245
708.583	0.0141477
708.662	0.0141637
708.740	0.0141917
708.818	0.0141135
708.896	0.0140549
708.974	0.0140701
709.052	0.0139585
709.130	0.0138576
709.208	0.0139231
709.287	0.0141087
709.365	0.0139085
709.443	0.0139043
709.521	0.0139610
709.599	0.0137862
709.677	0.0139146
709.755	0.0138757
709.833	0.0139073
709.912	0.0139526
709.990	0.0138232
710.068	0.0137790
710.146	0.0138710
710.224	0.0137383
710.302	0.0135143
710.380	0.0135077
710.458	0.0135561
710.537	0.0134835
710.615	0.0133636
710.693	0.0132418
710.771	0.0132228
710.849	0.0132153
710.927	0.0133382
711.005	0.0133968
711.083	0.0135146
711.162	0.0135816
711.240	0.0135404
711.318	0.0135620
711.396	0.0137090
711.474	0.0139740
711.552	0.0140811
711.630	0.0141960
711.708	0.0143377
711.787	0.0146052
711.865	0.0146034
711.943	0.0145331
712.021	0.0148132
712.099	0.0148293
712.177	0.0146288
712.255	0.0147303
712.333	0.0146108
712.412	0.0144405
712.490	0.0144127
712.568	0.0142794
712.646	0.0141675
712.724	0.0141235
712.802	0.0139943
712.880	0.0138747
712.958	0.0138396
713.037	0.0137653
713.115	0.0137145
713.193	0.0136858
713.271	0.0138429
713.349	0.0138050
713.427	0.0137254
713.505	0.0138271
713.583	0.0138629
713.662	0.0137872
713.740	0.0139645
713.818	0.0138668
713.896	0.0139304
713.974	0.0137962
714.052	0.0139037
714.130	0.0137134
714.208	0.0138964
714.287	0.0139783
714.365	0.0140889
714.443	0.0139410
714.521	0.0140690
714.599	0.0143314
714.677	0.0141584
714.755	0.0142195
714.833	0.0142177
714.912	0.0143185
714.990	0.0142375
715.068	0.0143007
715.146	0.0141222
715.224	0.0141007
715.302	0.0139185
715.380	0.0137626
715.458	0.0136935
715.537	0.0136549
715.615	0.0135494
715.693	0.0134727
715.771	0.0133851
715.849	0.0132275
715.927	0.0131553
716.005	0.0131724
716.083	0.0131039
716.162	0.0131253
716.240	0.0132933
716.318	0.0134030
716.396	0.0133737
716.474	0.0133219
716.552	0.0133141
716.630	0.0133541
716.708	0.0136441
716.787	0.0137215
716.865	0.0137167
716.943	0.0138010
717.021	0.0137780
717.099	0.0137797
717.177	0.0138882
717.255	0.0139866
717.333	0.0139553
717.412	0.0141151
717.490	0.0142192
717.568	0.0142796
717.646	0.0143338
717.724	0.0143631
717.802	0.0143081
717.880	0.0144846
717.958	0.0144626
718.037	0.0143248
718.115	0.0143748
718.193	0.0144466
718.271	0.0143257
718.349	0.0144447
718.427	0.0142500
718.505	0.0141891
718.583	0.0142082
718.662	0.0142955
718.740	0.0141039
718.818	0.0140475
718.896	0.0140816
718.974	0.0139115
719.052	0.0138033
719.130	0.0139009
719.208	0.0138869
719.287	0.0138908
719.365	0.0139052
719.443	0.0136563
719.521	0.0137025
719.599	0.0136134
719.677	0.0137594
719.755	0.0137552
719.833	0.0138570
719.912	0.0138284
719.990	0.0138920
720.068	0.0139525
720.146	0.0139500
720.224	0.0141155
720.302	0.0138392
720.380	0.0140569
720.458	0.0141773
720.537	0.0140945
720.615	0.0141132
720.693	0.0140630
720.771	0.0139273
720.849	0.0138892
720.927	0.0138424
721.005	0.0137466
721.083	0.0138453
721.162	0.0136244
721.240	0.0135734
721.318	0.0135151
721.396	0.0135779
721.474	0.0135217
721.552	0.0134938
721.630	0.0134364
721.708	0.0134594
721.787	0.0135313
721.865	0.0134195
721.943	0.0136918
722.021	0.0138283
722.099	0.0138083
722.177	0.0138174
722.255	0.0138912
722.333	0.0139588
722.412	0.0138085
722.490	0.0140191
722.568	0.0141612
722.646	0.0141074
722.724	0.0141093
722.802	0.0139338
722.880	0.0141692
722.958	0.0143002
723.037	0.0140483
723.115	0.0140328
723.193	0.0139973
723.271	0.0142317
723.349	0.0139536
723.427	0.0141443
723.505	0.0142606
723.583	0.0141216
723.662	0.0141317
723.740	0.0141472
723.818	0.0141707
723.896	0.0141364
723.974	0.0141935
724.052	0.0140248
724.130	0.0139748
724.208	0.0138762
724.287	0.0139715
724.365	0.0138283
724.443	0.0138141
724.521	0.0137398
724.599	0.0136987
724.677	0.0137282
724.755	0.0137246
724.833	0.0137231
724.912	0.0136367
724.990	0.0137580
725.068	0.0136690
725.146	0.0137239
725.224	0.0136520
725.302	0.0138287
725.380	0.0139468
725.458	0.0139023
725.537	0.0141095
725.615	0.0141791
725.693	0.0140544
725.771	0.0140434
725.849	0.0142643
725.927	0.0143028
726.005	0.0143707
726.083	0.0142864
726.162	0.0142618
726.240	0.0142763
726.318	0.0142564
726.396	0.0141236
726.474	0.0140598
726.552	0.0140363
726.630	0.0139187
726.708	0.0139053
726.787	0.0136916
726.865	0.0136188
726.943	0.0136012
727.021	0.0135443
727.099	0.0135161
727.177	0.0135743
727.255	0.0135247
727.333	0.0133854
727.412	0.0134338
727.490	0.0136664
727.568	0.0135933
727.646	0.0136223
727.724	0.0136238
727.802	0.0137111
727.880	0.0137314
727.958	0.0137766
728.037	0.0137062
728.115	0.0137022
728.193	0.0137397
728.271	0.0137959
728.349	0.0137771
728.427	0.0138057
728.505	0.0138918
728.583	0.0139182
728.662	0.0137488
728.740	0.0138898
728.818	0.0139169
728.896	0.0138576
728.974	0.0138759
729.052	0.0138108
729.130	0.0140228
729.208	0.0140296
729.287	0.0140214
729.365	0.0140687
729.443	0.0141734
729.521	0.0141158
729.599	0.0140334
729.677	0.0142746
729.755	0.0141595
729.833	0.0141996
729.912	0.0142712
729.990	0.0141164
730.068	0.0142189
730.146	0.0140499
730.224	0.0139259
730.302	0.0140607
730.380	0.0140501
730.458	0.0140099
730.537	0.0139921
730.615	0.0139526
730.693	0.0140552
730.771	0.0141158
730.849	0.0141383
730.927	0.0142464
731.005	0.0141317
731.083	0.0142696
731.162	0.0143862
731.240	0.0143483
731.318	0.0141496
731.396	0.0142672
731.474	0.0142078
731.552	0.0142008
731.630	0.0142171
731.708	0.0140794
731.787	0.0138847
731.865	0.0141545
731.943	0.0141692
732.021	0.0139490
732.099	0.0140083
732.177	0.0140472
732.255	0.0140144
732.333	0.0138332
732.412	0.0140236
732.490	0.0140726
732.568	0.0141283
732.646	0.0140874
732.724	0.0140670
732.802	0.0142429
732.880	0.0140661
732.958	0.0140176
733.037	0.0141206
733.115	0.0140040
733.193	0.0139809
733.271	0.0139024
733.349	0.0138062
733.427	0.0139194
733.505	0.0138367
733.583	0.0138316
733.662	0.0136304
733.740	0.0138551
733.818	0.0136884
733.896	0.0135980
733.974	0.0136749
734.052	0.0137149
734.130	0.0135184
734.208	0.0135489
734.287	0.0135551
734.365	0.0135996
734.443	0.0135966
734.521	0.0136320
734.599	0.0136973
734.677	0.0137136
734.755	0.0137332
734.833	0.0137675
734.912	0.0138684
734.990	0.0137869
735.068	0.0138192
735.146	0.0139753
735.224	0.0140197
735.302	0.0140710
735.380	0.0142064
735.458	0.0142459
735.537	0.0141609
735.615	0.0142538
735.693	0.0143548
735.771	0.0141209
735.849	0.0141974
735.927	0.0143165
736.005	0.0142017
736.083	0.0143386
736.162	0.0143227
736.240	0.0144209
736.318	0.0144751
736.396	0.0145580
736.474	0.0145361
736.552	0.0146220
736.630	0.0145055
736.708	0.0145403
736.787	0.0144143
736.865	0.0144141
736.943	0.0144592
737.021	0.0144026
737.099	0.0142770
737.177	0.0141230
737.255	0.0141411
737.333	0.0140549
737.412	0.0139347
737.490	0.0139439
737.568	0.0140592
737.646	0.0138393
737.724	0.0138869
737.802	0.0139124
737.880	0.0140157
737.958	0.0139406
738.037	0.0137667
738.115	0.0138107
738.193	0.0138263
738.271	0.0138388
738.349	0.0137920
738.427	0.0137765
738.505	0.0136782
738.583	0.0137122
738.662	0.0136114
738.740	0.0136533
738.818	0.0137740
738.896	0.0138003
738.974	0.0137580
739.052	0.0135359
739.130	0.0135487
739.208	0.0137917
739.287	0.0136784
739.365	0.0138226
739.443	0.0138023
739.521	0.0137135
739.599	0.0138396
739.677	0.0137687
739.755	0.0139252
739.833	0.0137607
739.912	0.0140369
739.990	0.0139339
740.068	0.0137735
740.146	0.0140566
740.224	0.0139627
740.302	0.0138464
740.380	0.0139015
740.458	0.0140562
740.537	0.0139691
740.615	0.0138668
740.693	0.0139105
740.771	0.0138039
740.849	0.0140593
740.927	0.0140824
741.005	0.0139377
741.083	0.0140245
741.162	0.0140868
741.240	0.0139880
741.318	0.0140305
741.396	0.0140617
741.474	0.0141261
741.552	0.0141580
741.630	0.0142274
741.708	0.0139287
741.787	0.0140883
741.865	0.0140634
741.943	0.0140607
742.021	0.0140525
742.099	0.0142003
742.177	0.0142492
742.255	0.0141085
742.333	0.0140591
742.412	0.0139448
742.490	0.0141261
742.568	0.0139635
742.646	0.0140663
742.724	0.0140221
742.802	0.0141497
742.880	0.0142080
742.958	0.0141189
743.037	0.0140202
743.115	0.0140955
743.193	0.0140364
743.271	0.0139230
743.349	0.0140723
743.427	0.0139259
743.505	0.0138775
743.583	0.0138744
743.662	0.0138950
743.740	0.0139803
743.818	0.0138793
743.896	0.0139504
743.974	0.0138115
744.052	0.0138969
744.130	0.0137653
744.208	0.0137309
744.287	0.0135944
744.365	0.0137028
744.443	0.0138161
744.521	0.0137318
744.599	0.0136156
744.677	0.0136003
744.755	0.0137244
744.833	0.0137245
744.912	0.0137582
744.990	0.0136683
745.068	0.0138641
745.146	0.0137386
745.224	0.0139977
745.302	0.0140276
745.380	0.0139230
745.458	0.0139389
745.537	0.0141840
745.615	0.0139808
745.693	0.0141123
745.771	0.0141082
745.849	0.0140557
745.927	0.0140884
746.005	0.0139417
746.083	0.0139941
746.162	0.0139787
746.240	0.0138414
746.318	0.0137809
746.396	0.0137322
746.474	0.0137745
746.552	0.0136852
746.630	0.0137299
746.708	0.0137007
746.787	0.0136534
746.865	0.0135977
746.943	0.0137733
747.021	0.0136501
747.099	0.0137180
747.177	0.0138435
747.255	0.0137307
747.333	0.0139253
747.412	0.0138763
747.490	0.0139203
747.568	0.0141429
747.646	0.0141001
747.724	0.0141467
747.802	0.0141174
747.880	0.0140565
747.958	0.0142731
748.037	0.0142760
748.115	0.0142007
748.193	0.0143723
748.271	0.0141412
748.349	0.0142907
748.427	0.0142514
748.505	0.0143137
748.583	0.0144199
748.662	0.0142518
748.740	0.0141985
748.818	0.0142645
748.896	0.0143805
748.974	0.0142960
749.052	0.0143227
749.130	0.0142686
749.208	0.0142503
749.287	0.0142618
749.365	0.0141068
749.443	0.0141027
749.521	0.0142170
749.599	0.0141689
749.677	0.0141616
749.755	0.0140295
749.833	0.0140916
749.912	0.0139815
749.990	0.0138960
750.068	0.0139214
750.146	0.0138616
750.224	0.0137879
750.302	0.0137279
750.380	0.0137697
750.458	0.0134756
750.537	0.0135732
750.615	0.0135518
750.693	0.0134554
750.771	0.0133908
750.849	0.0135201
750.927	0.0134146
751.005	0.0135120
751.083	0.0136287
751.162	0.0134028
751.240	0.0135136
751.318	0.0135887
751.396	0.0136069
751.474	0.0136874
751.552	0.0137852
751.630	0.0137683
751.708	0.0139046
751.787	0.0138913
751.865	0.0138493
751.943	0.0139086
752.021	0.0139109
752.099	0.0139745
752.177	0.0141350
752.255	0.0141084
752.333	0.0140936
752.412	0.0139855
752.490	0.0140532
752.568	0.0141383
752.646	0.0142864
752.724	0.0142184
752.802	0.0141365
752.880	0.0141415
752.958	0.0140916
753.037	0.0139654
753.115	0.0140023
753.193	0.0140354
753.271	0.0140528
753.349	0.0139536
753.427	0.0138831
753.505	0.0138409
753.583	0.0139845
753.662	0.0139239
753.740	0.0138060
753.818	0.0139632
753.896	0.0140145
753.974	0.0139200
754.052	0.0140044
754.130	0.0138864
754.208	0.0138902
754.287	0.0137733
754.365	0.0140036
754.443	0.0140878
754.521	0.0140012
754.599	0.0137956
754.677	0.0139596
754.755	0.0140826
754.833	0.0139942
754.912	0.0138285
754.990	0.0140253
755.068	0.0141345
755.146	0.0140814
755.224	0.0139827
755.302	0.0137842
755.380	0.0139294
755.458	0.0139935
755.537	0.0139879
755.615	0.0138914
755.693	0.0140766
755.771	0.0139831
755.849	0.0139680
755.927	0.0139742
756.005	0.0140223
756.083	0.0140208
756.162	0.0139388
756.240	0.0139473
756.318	0.0140578
756.396	0.0138795
756.474	0.0138792
756.552	0.0139059
756.630	0.0138780
756.708	0.0137758
756.787	0.0138646
756.865	0.0137989
756.943	0.0139098
757.021	0.0137752
757.099	0.0136306
757.177	0.0137531
757.255	0.0138606
757.333	0.0139275
757.412	0.0138694
757.490	0.0137667
757.568	0.0137227
757.646	0.0139930
757.724	0.0141002
757.802	0.0141087
757.880	0.0140228
757.958	0.0141528
758.037	0.0140090
758.115	0.0141557
758.193	0.0142072
758.271	0.0141597
758.349	0.0142113
758.427	0.0141850
758.505	0.0141628
758.583	0.0142005
758.662	0.0142006
758.740	0.0142169
758.818	0.0140481
758.896	0.0140311
758.974	0.0140424
759.052	0.0139495
759.130	0.0140782
759.208	0.0140398
759.287	0.0138889
759.365	0.0140514
759.443	0.0140690
759.521	0.0139525
759.599	0.0139216
759.677	0.0138931
759.755	0.0139710
759.833	0.0139111
759.912	0.0139043
759.990	0.0140285
760.068	0.0139753
760.146	0.0139348
760.224	0.0138691
760.302	0.0137773
760.380	0.0138641
760.458	0.0138971
760.537	0.0137208
760.615	0.0139470
760.693	0.0139465
760.771	0.0139256
760.849	0.0140038
760.927	0.0141083
761.005	0.0141458
761.083	0.0139127
761.162	0.0140717
761.240	0.0142272
761.318	0.0141101
761.396	0.0140845
761.474	0.0141022
761.552	0.0142145
761.630	0.0140531
761.708	0.0141597
761.787	0.0141371
761.865	0.0140586
761.943	0.0141065
762.021	0.0140833
762.099	0.0142117
762.177	0.0140427
762.255	0.0140876
762.333	0.0142902
762.412	0.0141853
762.490	0.0140717
762.568	0.0141221
762.646	0.0140585
762.724	0.0140370
762.802	0.0139976
762.880	0.0139767
762.958	0.0140204
763.037	0.0139565
763.115	0.0139070
763.193	0.0137569
763.271	0.0139181
763.349	0.0137590
763.427	0.0137406
763.505	0.0137249
763.583	0.0135799
763.662	0.0135795
763.740	0.0135191
763.818	0.0134789
763.896	0.0134980
763.974	0.0135262
764.052	0.0134489
764.130	0.0134525
764.208	0.0134850
764.287	0.0134322
764.365	0.0133463
764.443	0.0135000
764.521	0.0135081
764.599	0.0135478
764.677	0.0136017
764.755	0.0136310
764.833	0.0137848
764.912	0.0138384
764.990	0.0137371
765.068	0.0139489
765.146	0.0140067
765.224	0.0141277
765.302	0.0140756
765.380	0.0140762
765.458	0.0141839
765.537	0.0142791
765.615	0.0142606
765.693	0.0142351
765.771	0.0141256
765.849	0.0142200
765.927	0.0141957
766.005	0.0140659
766.083	0.0141428
766.162	0.0141290
766.240	0.0140828
766.318	0.0141481
766.396	0.0141509
766.474	0.0140328
766.552	0.0140295
766.630	0.0141112
766.708	0.0141489
766.787	0.0140441
766.865	0.0140925
766.943	0.0141102
767.021	0.0142771
767.099	0.0141506
767.177	0.0140994
767.255	0.0142613
767.333	0.0142611
767.412	0.0140514
767.490	0.0139992
767.568	0.0140891
767.646	0.0140506
767.724	0.0140630
767.802	0.0140147
767.880	0.0139645
767.958	0.0140340
768.037	0.0138789
768.115	0.0139461
768.193	0.0139836
768.271	0.0139185
768.349	0.0139661
768.427	0.0141280
768.505	0.0141248
768.583	0.0141832
768.662	0.0140292
768.740	0.0139719
768.818	0.0142358
768.896	0.0139899
768.974	0.0141472
769.052	0.0141119
769.130	0.0141185
769.208	0.0140225
769.287	0.0140926
769.365	0.0139487
769.443	0.0139803
769.521	0.0138918
769.599	0.0139439
769.677	0.0140579
769.755	0.0139285
769.833	0.0138181
769.912	0.0138275
769.990	0.0138364
770.068	0.0135737
770.146	0.0138056
770.224	0.0138763
770.302	0.0137177
770.380	0.0135503
770.458	0.0137280
770.537	0.0138493
770.615	0.0137866
770.693	0.0138121
770.771	0.0139567
770.849	0.0139543
770.927	0.0140155
771.005	0.0139979
771.083	0.0140499
771.162	0.0141511
771.240	0.0141616
771.318	0.0141769
771.396	0.0141718
771.474	0.0140639
771.552	0.0141357
771.630	0.0141416
771.708	0.0141321
771.787	0.0141494
771.865	0.0142181
771.943	0.0141741
772.021	0.0140907
772.099	0.0140024
772.177	0.0141135
772.255	0.0141254
772.333	0.0141135
772.412	0.0141673
772.490	0.0139196
772.568	0.0139890
772.646	0.0140764
772.724	0.0139331
772.802	0.0139629
772.880	0.0141011
772.958	0.0140408
773.037	0.0139429
773.115	0.0139542
773.193	0.0138960
773.271	0.0139634
773.349	0.0139861
773.427	0.0137308
773.505	0.0138292
773.583	0.0138805
773.662	0.0139446
773.740	0.0139500
773.818	0.0139246
773.896	0.0139890
773.974	0.0138428
774.052	0.0139808
774.130	0.0139999
774.208	0.0139938
774.287	0.0139394
774.365	0.0139248
774.443	0.0139343
774.521	0.0138158
774.599	0.0137952
774.677	0.0138285
774.755	0.0138168
774.833	0.0138026
774.912	0.0137274
774.990	0.0139176
775.068	0.0135960
775.146	0.0137758
775.224	0.0137568
775.302	0.0138399
775.380	0.0138099
775.458	0.0137857
775.537	0.0139750
775.615	0.0139571
775.693	0.0138113
775.771	0.0139729
775.849	0.0139888
775.927	0.0140748
776.005	0.0141827
776.083	0.0141288
776.162	0.0140707
776.240	0.0141309
776.318	0.0140952
776.396	0.0140896
776.474	0.0140570
776.552	0.0139792
776.630	0.0141491
776.708	0.0140355
776.787	0.0140917
776.865	0.0142169
776.943	0.0139522
777.021	0.0140452
777.099	0.0141698
777.177	0.0141302
777.255	0.0139793
777.333	0.0139032
777.412	0.0139666
777.490	0.0140843
777.568	0.0139513
777.646	0.0138628
777.724	0.0139070
777.802	0.0139560
777.880	0.0140279
777.958	0.0138792
778.037	0.0138377
778.115	0.0137321
778.193	0.0137491
778.271	0.0138555
778.349	0.0137999
778.427	0.0138968
778.505	0.0137866
778.583	0.0138908
778.662	0.0138950
778.740	0.0138451
778.818	0.0140127
778.896	0.0140828
778.974	0.0141040
779.052	0.0139287
779.130	0.0141111
779.208	0.0141299
779.287	0.0139943
779.365	0.0140154
779.443	0.0140022
779.521	0.0140655
779.599	0.0140430
779.677	0.0141659
779.755	0.0142502
779.833	0.0140592
779.912	0.0140039
779.990	0.0142196
780.068	0.0140565
780.146	0.0141269
780.224	0.0140581
780.302	0.0141225
780.380	0.0142308
780.458	0.0140587
780.537	0.0139787
780.615	0.0140656
780.693	0.0139312
780.771	0.0140312
780.849	0.0142336
780.927	0.0140849
781.005	0.0140633
781.083	0.0141505
781.162	0.0141350
781.240	0.0141212
781.318	0.0139915
781.396	0.0140456
781.474	0.0141376
781.552	0.0140481
781.630	0.0139706
781.708	0.0140643
781.787	0.0140892
781.865	0.0141297
781.943	0.0140820
782.021	0.0140671
782.099	0.0140129
782.177	0.0139329
782.255	0.0141695
782.333	0.0140275
782.412	0.0139734
782.490	0.0139644
782.568	0.0139779
782.646	0.0141126
782.724	0.0141528
782.802	0.0140669
782.880	0.0138727
782.958	0.0139364
783.037	0.0138692
783.115	0.0137804
783.193	0.0138673
783.271	0.0139108
783.349	0.0138779
783.427	0.0138113
783.505	0.0139005
783.583	0.0137389
783.662	0.0136564
783.740	0.0138689
783.818	0.0139724
783.896	0.0138743
783.974	0.0137389
784.052	0.0138837
784.130	0.0140244
784.208	0.0139582
784.287	0.0140585
784.365	0.0139948
784.443	0.0140006
784.521	0.0139425
784.599	0.0140079
784.677	0.0139871
784.755	0.0140092
784.833	0.0139223
784.912	0.0140287
784.990	0.0139980
785.068	0.0139822
785.146	0.0138943
785.224	0.0139543
785.302	0.0139544
785.380	0.0139121
785.458	0.0139501
785.537	0.0138797
785.615	0.0138806
785.693	0.0138605
785.771	0.0138839
785.849	0.0138484
785.927	0.0137421
786.005	0.0138626
786.083	0.0138920
786.162	0.0138338
786.240	0.0139037
786.318	0.0137754
786.396	0.0137299
786.474	0.0138999
786.552	0.0137757
786.630	0.0138067
786.708	0.0138406
786.787	0.0138624
786.865	0.0137431
786.943	0.0138286
787.021	0.0138138
787.099	0.0138880
787.177	0.0139084
787.255	0.0139190
787.333	0.0138737
787.412	0.0139053
787.490	0.0140874
787.568	0.0140038
787.646	0.0139894
787.724	0.0139935
787.802	0.0141081
787.880	0.0140031
787.958	0.0142013
788.037	0.0142464
788.115	0.0142173
788.193	0.0141647
788.271	0.0141785
788.349	0.0141052
788.427	0.0141429
788.505	0.0140530
788.583	0.0140411
788.662	0.0140499
788.740	0.0141390
788.818	0.0140121
788.896	0.0138734
788.974	0.0140073
789.052	0.0138662
789.130	0.0139014
789.208	0.0139864
789.287	0.0141196
789.365	0.0139249
789.443	0.0138712
789.521	0.0139815
789.599	0.0140308
789.677	0.0138611
789.755	0.0138970
789.833	0.0138609
789.912	0.0138541
789.990	0.0138106
790.068	0.0138931
790.146	0.0138672
790.224	0.0138901
790.302	0.0138499
790.380	0.0138215
790.458	0.0138317
790.537	0.0138819
790.615	0.0139282
790.693	0.0139602
790.771	0.0139143
790.849	0.0139723
790.927	0.0139661
791.005	0.0139368
791.083	0.0139999
791.162	0.0140422
791.240	0.0139536
791.318	0.0139387
791.396	0.0139639
791.474	0.0140264
791.552	0.0138956
791.630	0.0140522
791.708	0.0140363
791.787	0.0140837
791.865	0.0141072
791.943	0.0141717
792.021	0.0141962
792.099	0.0141969
792.177	0.0142751
792.255	0.0140565
792.333	0.0141968
792.412	0.0141491
792.490	0.0142047
792.568	0.0142438
792.646	0.0141970
792.724	0.0142970
792.802	0.0142333
792.880	0.0143633
792.958	0.0142429
793.037	0.0141677
793.115	0.0143384
793.193	0.0140576
793.271	0.0140339
793.349	0.0139196
793.427	0.0139177
793.505	0.0137933
793.583	0.0138963
793.662	0.0138248
793.740	0.0137088
793.818	0.0139621
793.896	0.0137172
793.974	0.0137360
794.052	0.0138210
794.130	0.0137289
794.208	0.0137912
794.287	0.0138273
794.365	0.0138233
794.443	0.0138425
794.521	0.0140090
794.599	0.0139165
794.677	0.0138506
794.755	0.0137957
794.833	0.0137920
794.912	0.0136684
794.990	0.0137341
795.068	0.0138967
795.146	0.0138109
795.224	0.0137568
795.302	0.0137008
795.380	0.0136143
795.458	0.0134683
795.537	0.0136217
795.615	0.0137834
795.693	0.0136565
795.771	0.0136167
795.849	0.0138585
795.927	0.0136831
796.005	0.0137320
796.083	0.0137698
796.162	0.0139940
796.240	0.0139503
796.318	0.0140695
796.396	0.0141377
796.474	0.0140478
796.552	0.0140143
796.630	0.0140617
796.708	0.0141856
796.787	0.0141853
796.865	0.0143565
796.943	0.0141655
797.021	0.0141052
797.099	0.0142358
797.177	0.0141166
797.255	0.0141975
797.333	0.0140920
797.412	0.0140981
797.490	0.0140548
797.568	0.0140217
797.646	0.0141309
797.724	0.0141061
797.802	0.0140253
797.880	0.0140488
797.958	0.0140540
798.037	0.0140332
798.115	0.0140096
798.193	0.0140371
798.271	0.0139832
798.349	0.0140814
798.427	0.0139454
798.505	0.0139814
798.583	0.0140913
798.662	0.0140841
798.740	0.0142456
798.818	0.0140143
798.896	0.0141461
798.974	0.0143277
799.052	0.0142045
799.130	0.0142546
799.208	0.0144639
799.287	0.0142305
799.365	0.0142838
799.443	0.0142973
799.521	0.0143112
799.599	0.0140993
799.677	0.0141784
799.755	0.0141055
799.833	0.0141299
799.912	0.0141066
799.990	0.0141326
800.068	0.0140239
800.146	0.0137969
800.224	0.0138318
800.302	0.0138597
800.380	0.0138271
800.458	0.0136392
800.537	0.0138345
800.615	0.0138060
800.693	0.0136060
800.771	0.0137496
800.849	0.0138515
800.927	0.0140158
801.005	0.0139104
801.083	0.0139661
801.162	0.0139674
801.240	0.0138601
801.318	0.0138854
801.396	0.0139325
801.474	0.0138259
801.552	0.0140376
801.630	0.0139206
801.708	0.0139883
801.787	0.0139790
801.865	0.0140737
801.943	0.0140482
802.021	0.0139273
802.099	0.0138023
802.177	0.0138667
802.255	0.0139571
802.333	0.0138589
802.412	0.0139524
802.490	0.0139000
802.568	0.0137768
802.646	0.0138527
802.724	0.0138285
802.802	0.0138951
802.880	0.0137805
802.958	0.0138609
803.037	0.0138507
803.115	0.0138760
803.193	0.0138944
803.271	0.0140470
803.349	0.0139593
803.427	0.0140686
803.505	0.0139716
803.583	0.0141299
803.662	0.0141901
803.740	0.0140934
803.818	0.0140344
803.896	0.0141698
803.974	0.0142067
804.052	0.0141357
804.130	0.0142545
804.208	0.0140476
804.287	0.0140077
804.365	0.0141273
804.443	0.0142535
804.521	0.0142043
804.599	0.0140745
804.677	0.0139697
804.755	0.0139371
804.833	0.0140730
804.912	0.0140488
804.990	0.0139458
805.068	0.0139348
805.146	0.0138120
805.224	0.0137855
805.302	0.0137171
805.380	0.0139027
805.458	0.0137581
805.537	0.0137811
805.615	0.0136591
805.693	0.0136174
805.771	0.0137846
805.849	0.0136639
805.927	0.0138126
806.005	0.0138535
806.083	0.0137706
806.162	0.0136346
806.240	0.0137888
806.318	0.0140321
806.396	0.0140214
806.474	0.0138922
806.552	0.0139199
806.630	0.0141562
806.708	0.0142131
806.787	0.0140471
806.865	0.0140237
806.943	0.0141478
807.021	0.0142442
807.099	0.0140707
807.177	0.0142294
807.255	0.0142219
807.333	0.0142663
807.412	0.0142628
807.490	0.0142019
807.568	0.0143327
807.646	0.0143015
807.724	0.0141801
807.802	0.0142284
807.880	0.0142341
807.958	0.0140954
808.037	0.0140572
808.115	0.0140542
808.193	0.0140067
808.271	0.0139263
808.349	0.0139269
808.427	0.0139071
808.505	0.0139872
808.583	0.0139604
808.662	0.0139169
808.740	0.0138157
808.818	0.0139367
808.896	0.0138640
808.974	0.0138499
809.052	0.0139072
809.130	0.0139652
809.208	0.0138607
809.287	0.0140675
809.365	0.0141064
809.443	0.0141541
809.521	0.0139072
809.599	0.0140054
809.677	0.0141033
809.755	0.0140894
809.833	0.0141378
809.912	0.0138879
809.990	0.0141096
810.068	0.0141582
810.146	0.0141818
810.224	0.0141030
810.302	0.0140648
810.380	0.0140947
810.458	0.0142574
810.537	0.0141301
810.615	0.0140322
810.693	0.0142311
810.771	0.0139779
810.849	0.0139821
810.927	0.0140353
811.005	0.0140168
811.083	0.0139843
811.162	0.0138977
811.240	0.0137493
811.318	0.0139207
811.396	0.0138672
811.474	0.0138567
811.552	0.0138554
811.630	0.0137549
811.708	0.0136917
811.787	0.0138777
811.865	0.0138736
811.943	0.0137991
812.021	0.0137126
812.099	0.0137586
812.177	0.0136784
812.255	0.0137343
812.333	0.0137522
812.412	0.0136694
812.490	0.0137245
812.568	0.0138688
812.646	0.0138329
812.724	0.0138824
812.802	0.0138804
812.880	0.0137124
812.958	0.0137740
813.037	0.0139518
813.115	0.0137859
813.193	0.0138105
813.271	0.0138553
813.349	0.0138058
813.427	0.0139172
813.505	0.0138518
813.583	0.0139757
813.662	0.0139608
813.740	0.0137001
813.818	0.0139429
813.896	0.0139690
813.974	0.0138586
814.052	0.0138954
814.130	0.0140388
814.208	0.0138815
814.287	0.0138235
814.365	0.0140193
814.443	0.0139926
814.521	0.0140605
814.599	0.0140712
814.677	0.0140596
814.755	0.0141606
814.833	0.0141876
814.912	0.0139983
814.990	0.0141792
815.068	0.0141869
815.146	0.0141608
815.224	0.0142210
815.302	0.0140885
815.380	0.0141728
815.458	0.0141812
815.537	0.0141309
815.615	0.0140784
815.693	0.0141473
815.771	0.0140835
815.849	0.0141385
815.927	0.0142487
816.005	0.0140745
816.083	0.0140295
816.162	0.0141169
816.240	0.0140082
816.318	0.0139720
816.396	0.0140268
816.474	0.0140602
816.552	0.0141292
816.630	0.0139523
816.708	0.0139110
816.787	0.0140377
816.865	0.0139445
816.943	0.0139367
817.021	0.0139123
817.099	0.0139251
817.177	0.0139057
817.255	0.0138857
817.333	0.0138254
817.412	0.0137633
817.490	0.0140638
817.568	0.0138586
817.646	0.0138392
817.724	0.0138295
817.802	0.0137281
817.880	0.0138280
817.958	0.0138243
818.037	0.0137593
818.115	0.0137772
818.193	0.0138853
818.271	0.0138705
818.349	0.0136665
818.427	0.0137270
818.505	0.0137447
818.583	0.0137814
818.662	0.0138971
818.740	0.0139109
818.818	0.0140094
818.896	0.0139587
818.974	0.0139467
819.052	0.0140318
819.130	0.0139120
819.208	0.0139495
819.287	0.0140269
819.365	0.0140536
819.443	0.0139843
819.521	0.0138863
819.599	0.0138799
819.677	0.0139359
819.755	0.0139713
819.833	0.0138696
819.912	0.0138564
819.990	0.0138860
820.068	0.0138580
820.146	0.0139261
820.224	0.0140189
820.302	0.0141290
820.380	0.0139570
820.458	0.0138581
820.537	0.0139935
820.615	0.0142177
820.693	0.0141254
820.771	0.0141270
820.849	0.0140772
820.927	0.0140718
821.005	0.0142426
821.083	0.0142319
821.162	0.0141935
821.240	0.0141644
821.318	0.0142661
821.396	0.0141847
821.474	0.0143482
821.552	0.0143063
821.630	0.0142149
821.708	0.0140924
821.787	0.0141304
821.865	0.0140382
821.943	0.0139512
822.021	0.0138609
822.099	0.0138621
822.177	0.0138996
822.255	0.0137748
822.333	0.0137889
822.412	0.0137103
822.490	0.0137561
822.568	0.0137566
822.646	0.0137206
822.724	0.0137762
822.802	0.0137544
822.880	0.0136951
822.958	0.0138418
823.037	0.0136685
823.115	0.0137316
823.193	0.0137558
823.271	0.0137749
823.349	0.0138631
823.427	0.0138704
823.505	0.0138120
823.583	0.0136895
823.662	0.0137350
823.740	0.0137218
823.818	0.0137324
823.896	0.0139105
823.974	0.0136880
824.052	0.0137649
824.130	0.0138877
824.208	0.0139397
824.287	0.0139143
824.365	0.0139586
824.443	0.0140346
824.521	0.0139001
824.599	0.0140350
824.677	0.0140663
824.755	0.0140073
824.833	0.0139549
824.912	0.0140025
824.990	0.0141870
825.068	0.0141349
825.146	0.0141447
825.224	0.0140477
825.302	0.0141357
825.380	0.0141520
825.458	0.0141496
825.537	0.0139742
825.615	0.0139854
825.693	0.0140248
825.771	0.0140049
825.849	0.0140192
825.927	0.0139867
826.005	0.0140746
826.083	0.0140733
826.162	0.0138863
826.240	0.0139569
826.318	0.0140252
826.396	0.0137907
826.474	0.0138493
826.552	0.0138635
826.630	0.0140063
826.708	0.0139278
826.787	0.0137750
826.865	0.0138007
826.943	0.0137505
827.021	0.0138289
827.099	0.0137427
827.177	0.0138676
827.255	0.0138618
827.333	0.0138015
827.412	0.0137820
827.490	0.0138225
827.568	0.0136685
827.646	0.0139456
827.724	0.0137929
827.802	0.0136732
827.880	0.0139287
827.958	0.0138713
828.037	0.0139533
828.115	0.0140376
828.193	0.0139267
828.271	0.0139590
828.349	0.0140139
828.427	0.0139389
828.505	0.0139722
828.583	0.0139600
828.662	0.0140200
828.740	0.0141586
828.818	0.0141264
828.896	0.0141113
828.974	0.0140913
829.052	0.0142606
829.130	0.0142924
829.208	0.0142348
829.287	0.0141721
829.365	0.0143093
829.443	0.0143058
829.521	0.0143349
829.599	0.0143150
829.677	0.0143886
829.755	0.0144516
829.833	0.0143744
829.912	0.0142537
829.990	0.0142271
830.068	0.0143346
830.146	0.0141900
830.224	0.0143262
830.302	0.0141845
830.380	0.0141980
830.458	0.0142300
830.537	0.0140563
830.615	0.0139987
830.693	0.0139523
830.771	0.0138373
830.849	0.0139777
830.927	0.0137700
831.005	0.0139126
831.083	0.0140581
831.162	0.0137975
831.240	0.0137939
831.318	0.0138216
831.396	0.0137684
831.474	0.0138055
831.552	0.0137109
831.630	0.0138088
831.708	0.0138062
831.787	0.0138752
831.865	0.0137581
831.943	0.0138287
832.021	0.0138857
832.099	0.0139183
832.177	0.0137817
832.255	0.0138087
832.333	0.0137572
832.412	0.0138345
832.490	0.0137837
832.568	0.0137921
832.646	0.0138916
832.724	0.0138069
832.802	0.0137925
832.880	0.0139915
832.958	0.0139658
833.037	0.0138583
833.115	0.0140539
833.193	0.0138721
833.271	0.0140141
833.349	0.0138223
833.427	0.0138818
833.505	0.0141803
833.583	0.0139616
833.662	0.0140289
833.740	0.0140301
833.818	0.0140742
833.896	0.0141182
833.974	0.0139207
834.052	0.0140131
834.130	0.0142139
834.208	0.0139626
834.287	0.0141215
834.365	0.0141298
834.443	0.0140657
834.521	0.0140653
834.599	0.0140814
834.677	0.0141250
834.755	0.0142366
834.833	0.0141000
834.912	0.0142271
834.990	0.0141224
835.068	0.0142777
835.146	0.0142233
835.224	0.0140745
835.302	0.0140447
835.380	0.0141457
835.458	0.0142045
835.537	0.0140797
835.615	0.0139774
835.693	0.0138926
835.771	0.0139221
835.849	0.0138998
835.927	0.0136636
836.005	0.0137906
836.083	0.0139312
836.162	0.0137135
836.240	0.0136966
836.318	0.0136862
836.396	0.0138351
836.474	0.0139137
836.552	0.0136168
836.630	0.0136457
836.708	0.0137215
836.787	0.0137939
836.865	0.0137995
836.943	0.0138425
837.021	0.0138509
837.099	0.0138909
837.177	0.0138819
837.255	0.0139430
837.333	0.0138974
837.412	0.0138846
837.490	0.0140136
837.568	0.0139913
837.646	0.0140376
837.724	0.0140076
837.802	0.0142168
837.880	0.0141092
837.958	0.0141085
838.037	0.0141616
838.115	0.0142425
838.193	0.0142224
838.271	0.0141518
838.349	0.0141494
838.427	0.0140848
838.505	0.0141794
838.583	0.0141831
838.662	0.0141775
838.740	0.0140291
838.818	0.0141626
838.896	0.0142308
838.974	0.0139608
839.052	0.0139668
839.130	0.0139882
839.208	0.0141048
839.287	0.0139935
839.365	0.0139484
839.443	0.0139682
839.521	0.0139771
839.599	0.0140704
839.677	0.0139578
839.755	0.0139369
839.833	0.0139986
839.912	0.0139846
839.990	0.0139789
840.068	0.0139168
840.146	0.0139669
840.224	0.0138907
840.302	0.0139809
840.380	0.0140566
840.458	0.0140728
840.537	0.0141443
840.615	0.0141852
840.693	0.0142298
840.771	0.0142232
840.849	0.0140698
840.927	0.0140746
841.005	0.0141059
841.083	0.0141129
841.162	0.0139597
841.240	0.0141268
841.318	0.0138784
841.396	0.0139072
841.474	0.0138951
841.552	0.0139050
841.630	0.0138585
841.708	0.0140602
841.787	0.0139670
841.865	0.0139321
841.943	0.0138919
842.021	0.0139213
842.099	0.0139259
842.177	0.0140088
842.255	0.0139767
842.333	0.0139983
842.412	0.0139209
842.490	0.0138705
842.568	0.0139567
842.646	0.0139067
842.724	0.0139633
842.802	0.0141164
842.880	0.0139661
842.958	0.0139021
843.037	0.0139943
843.115	0.0138811
843.193	0.0140076
843.271	0.0140070
843.349	0.0139667
843.427	0.0140411
843.505	0.0140639
843.583	0.0139585
843.662	0.0139291
843.740	0.0139751
843.818	0.0139680
843.896	0.0140697
843.974	0.0141508
844.052	0.0139868
844.130	0.0140544
844.208	0.0141861
844.287	0.0140638
844.365	0.0141326
844.443	0.0142545
844.521	0.0140311
844.599	0.0140092
844.677	0.0138234
844.755	0.0140097
844.833	0.0139513
844.912	0.0139501
844.990	0.0140501
845.068	0.0140806
845.146	0.0139499
845.224	0.0139285
845.302	0.0139291
845.380	0.0140399
845.458	0.0139497
845.537	0.0139525
845.615	0.0139574
845.693	0.0140636
845.771	0.0139338
845.849	0.0140690
845.927	0.0139846
846.005	0.0138358
846.083	0.0139544
846.162	0.0141068
846.240	0.0139462
846.318	0.0139104
846.396	0.0138373
846.474	0.0140188
846.552	0.0139851
846.630	0.0140008
846.708	0.0138686
846.787	0.0140982
846.865	0.0139792
846.943	0.0140772
847.021	0.0139057
847.099	0.0139366
847.177	0.0141100
847.255	0.0140711
847.333	0.0139113
847.412	0.0138565
847.490	0.0137600
847.568	0.0139164
847.646	0.0138445
847.724	0.0138470
847.802	0.0137596
847.880	0.0138476
847.958	0.0138387
848.037	0.0137209
848.115	0.0138085
848.193	0.0138582
848.271	0.0140226
848.349	0.0140128
848.427	0.0139505
848.505	0.0141096
848.583	0.0140092
848.662	0.0140264
848.740	0.0141000
848.818	0.0141330
848.896	0.0141674
848.974	0.0140596
849.052	0.0141618
849.130	0.0140498
849.208	0.0139498
849.287	0.0141186
849.365	0.0140125
849.443	0.0139149
849.521	0.0138543
849.599	0.0140248
849.677	0.0138432
849.755	0.0138175
849.833	0.0138713
849.912	0.0138850
849.990	0.0137894
850.068	0.0138876
850.146	0.0139137
850.224	0.0139075
850.302	0.0139050
850.380	0.0139472
850.458	0.0140367
850.537	0.0138795
850.615	0.0139936
850.693	0.0139847
850.771	0.0138248
850.849	0.0138985
850.927	0.0139627
851.005	0.0140353
851.083	0.0141946
851.162	0.0142117
851.240	0.0141164
851.318	0.0140314
851.396	0.0140461
851.474	0.0140656
851.552	0.0140538
851.630	0.0141478
851.708	0.0141835
851.787	0.0140910
851.865	0.0141501
851.943	0.0140640
852.021	0.0141786
852.099	0.0141229
852.177	0.0141109
852.255	0.0141630
852.333	0.0141576
852.412	0.0140655
852.490	0.0139481
852.568	0.0140966
852.646	0.0139627
852.724	0.0139933
852.802	0.0139834
852.880	0.0139427
852.958	0.0139855
853.037	0.0138345
853.115	0.0137622
853.193	0.0138639
853.271	0.0138097
853.349	0.0139516
853.427	0.0140257
853.505	0.0138223
853.583	0.0138247
853.662	0.0139651
853.740	0.0139834
853.818	0.0139011
853.896	0.0138340
853.974	0.0139359
854.052	0.0138892
854.130	0.0139557
854.208	0.0139298
854.287	0.0139742
854.365	0.0138670
854.443	0.0138606
854.521	0.0138692
854.599	0.0139109
854.677	0.0140122
854.755	0.0138682
854.833	0.0138170
854.912	0.0137773
854.990	0.0138892
855.068	0.0138504
855.146	0.0138545
855.224	0.0137013
855.302	0.0138441
855.380	0.0139906
855.458	0.0138612
855.537	0.0139904
855.615	0.0140156
855.693	0.0140102
855.771	0.0139671
855.849	0.0140693
855.927	0.0140239
856.005	0.0138273
856.083	0.0139728
856.162	0.0140792
856.240	0.0139686
856.318	0.0139124
856.396	0.0139041
856.474	0.0139604
856.552	0.0139777
856.630	0.0138296
856.708	0.0138416
856.787	0.0138818
856.865	0.0139108
856.943	0.0138564
857.021	0.0138278
857.099	0.0138610
857.177	0.0138652
857.255	0.0139298
857.333	0.0139776
857.412	0.0139850
857.490	0.0139723
857.568	0.0139661
857.646	0.0139423
857.724	0.0138734
857.802	0.0139857
857.880	0.0139923
857.958	0.0139040
858.037	0.0139512
858.115	0.0139499
858.193	0.0139488
858.271	0.0140310
858.349	0.0140736
858.427	0.0140189
858.505	0.0140607
858.583	0.0139520
858.662	0.0139661
858.740	0.0139563
858.818	0.0139934
858.896	0.0140199
858.974	0.0140160
859.052	0.0140896
859.130	0.0140570
859.208	0.0141118
859.287	0.0139471
859.365	0.0141122
859.443	0.0140646
859.521	0.0139697
859.599	0.0142027
859.677	0.0140543
859.755	0.0141879
859.833	0.0141067
859.912	0.0141752
859.990	0.0143252
860.068	0.0139638
860.146	0.0140422
860.224	0.0140138
860.302	0.0139969
860.380	0.0139346
860.458	0.0140924
860.537	0.0141047
860.615	0.0140805
860.693	0.0138700
860.771	0.0138746
860.849	0.0138814
860.927	0.0140254
861.005	0.0139216
861.083	0.0140690
861.162	0.0140017
861.240	0.0138875
861.318	0.0138688
861.396	0.0139449
861.474	0.0138784
861.552	0.0141180
861.630	0.0139300
861.708	0.0139461
861.787	0.0140871
861.865	0.0139293
861.943	0.0140841
862.021	0.0139311
862.099	0.0140138
862.177	0.0139387
862.255	0.0140878
862.333	0.0142286
862.412	0.0139144
862.490	0.0139613
862.568	0.0140720
862.646	0.0140887
862.724	0.0139353
862.802	0.0139230
862.880	0.0138838
862.958	0.0139343
863.037	0.0139895
863.115	0.0139642
863.193	0.0140453
863.271	0.0139900
863.349	0.0139704
863.427	0.0140282
863.505	0.0139464
863.583	0.0139805
863.662	0.0139711
863.740	0.0138355
863.818	0.0139017
863.896	0.0139043
863.974	0.0139655
864.052	0.0140579
864.130	0.0138720
864.208	0.0138614
864.287	0.0138268
864.365	0.0139635
864.443	0.0138321
864.521	0.0139149
864.599	0.0139404
864.677	0.0140051
864.755	0.0140411
864.833	0.0140387
864.912	0.0142110
864.990	0.0140648
865.068	0.0140331
865.146	0.0141706
865.224	0.0141188
865.302	0.0140040
865.380	0.0139777
865.458	0.0140766
865.537	0.0139972
865.615	0.0138971
865.693	0.0138544
865.771	0.0139944
865.849	0.0140141
865.927	0.0139949
866.005	0.0140186
866.083	0.0139417
866.162	0.0139859
866.240	0.0139255
866.318	0.0139539
866.396	0.0139763
866.474	0.0141436
866.552	0.0141064
866.630	0.0139067
866.708	0.0139970
866.787	0.0140149
866.865	0.0140269
866.943	0.0139250
867.021	0.0138212
867.099	0.0140002
867.177	0.0139184
867.255	0.0139514
867.333	0.0141042
867.412	0.0139407
867.490	0.0140095
867.568	0.0139061
867.646	0.0138510
867.724	0.0139603
867.802	0.0138986
867.880	0.0139132
867.958	0.0141257
868.037	0.0139748
868.115	0.0140057
868.193	0.0139694
868.271	0.0141175
868.349	0.0141703
868.427	0.0140578
868.505	0.0140549
868.583	0.0138912
868.662	0.0139574
868.740	0.0140511
868.818	0.0141061
868.896	0.0141006
868.974	0.0140149
869.052	0.0140837
869.130	0.0140175
869.208	0.0140281
869.287	0.0140005
869.365	0.0140462
869.443	0.0139983
869.521	0.0138768
869.599	0.0139636
869.677	0.0140093
869.755	0.0140430
869.833	0.0140435
869.912	0.0139570
869.990	0.0138042
870.068	0.0138657
870.146	0.0138660
870.224	0.0140084
870.302	0.0138842
870.380	0.0139977
870.458	0.0139275
870.537	0.0139933
870.615	0.0140757
870.693	0.0140440
870.771	0.0139360
870.849	0.0138966
870.927	0.0138948
871.005	0.0141058
871.083	0.0140548
871.162	0.0141036
871.240	0.0138852
871.318	0.0138951
871.396	0.0138803
871.474	0.0139750
871.552	0.0139458
871.630	0.0139981
871.708	0.0139576
871.787	0.0138905
871.865	0.0140302
871.943	0.0139542
872.021	0.0139163
872.099	0.0139307
872.177	0.0138524
872.255	0.0138882
872.333	0.0139841
872.412	0.0139520
872.490	0.0139635
872.568	0.0140063
872.646	0.0140656
872.724	0.0140543
872.802	0.0139851
872.880	0.0142367
872.958	0.0140190
873.037	0.0139159
873.115	0.0139497
873.193	0.0139870
873.271	0.0139155
873.349	0.0140169
873.427	0.0138963
873.505	0.0139445
873.583	0.0139207
873.662	0.0139787
873.740	0.0138680
873.818	0.0139533
873.896	0.0139925
873.974	0.0138882
874.052	0.0138253
874.130	0.0138564
874.208	0.0140926
874.287	0.0140052
874.365	0.0139909
874.443	0.0139746
874.521	0.0139832
874.599	0.0139929
874.677	0.0139725
874.755	0.0139648
874.833	0.0139252
874.912	0.0137884
874.990	0.0137158
875.068	0.0137808
875.146	0.0136662
875.224	0.0137541
875.302	0.0137510
875.380	0.0138871
875.458	0.0136759
875.537	0.0137157
875.615	0.0138383
875.693	0.0139869
875.771	0.0139646
875.849	0.0140375
875.927	0.0140993
876.005	0.0140811
876.083	0.0141579
876.162	0.0141584
876.240	0.0140841
876.318	0.0140215
876.396	0.0139239
876.474	0.0140195
876.552	0.0139210
876.630	0.0137872
876.708	0.0137794
876.787	0.0138687
876.865	0.0138641
876.943	0.0139842
877.021	0.0139716
877.099	0.0138251
877.177	0.0140472
877.255	0.0140685
877.333	0.0139758
877.412	0.0141888
877.490	0.0141293
877.568	0.0141338
877.646	0.0140763
877.724	0.0140347
877.802	0.0139030
877.880	0.0139849
877.958	0.0139384
878.037	0.0139384
878.115	0.0138511
878.193	0.0137431
878.271	0.0137400
878.349	0.0136943
878.427	0.0137809
878.505	0.0137181
878.583	0.0137462
878.662	0.0136385
878.740	0.0137644
878.818	0.0137669
878.896	0.0138120
878.974	0.0139501
879.052	0.0139675
879.130	0.0138170
879.208	0.0140374
879.287	0.0139818
879.365	0.0137850
879.443	0.0139832
879.521	0.0140007
879.599	0.0138235
879.677	0.0138438
879.755	0.0137897
879.833	0.0138960
879.912	0.0138644
879.990	0.0138845
880.068	0.0137562
880.146	0.0137769
880.224	0.0139398
880.302	0.0139848
880.380	0.0140134
880.458	0.0140288
880.537	0.0139986
880.615	0.0139169
880.693	0.0139468
880.771	0.0139608
880.849	0.0139956
880.927	0.0138958
881.005	0.0138575
881.083	0.0138498
881.162	0.0138792
881.240	0.0139440
881.318	0.0139615
881.396	0.0139286
881.474	0.0140127
881.552	0.0140469
881.630	0.0138987
881.708	0.0138567
881.787	0.0139348
881.865	0.0141090
881.943	0.0138982
882.021	0.0140655
882.099	0.0140893
882.177	0.0140913
882.255	0.0140737
882.333	0.0141212
882.412	0.0140826
882.490	0.0140964
882.568	0.0142054
882.646	0.0142261
882.724	0.0141776
882.802	0.0140949
882.880	0.0140863
882.958	0.0138712
883.037	0.0139721
883.115	0.0141759
883.193	0.0140640
883.271	0.0138923
883.349	0.0139795
883.427	0.0137509
883.505	0.0139068
883.583	0.0138261
883.662	0.0139664
883.740	0.0137816
883.818	0.0138934
883.896	0.0138594
883.974	0.0138591
884.052	0.0138950
884.130	0.0139819
884.208	0.0138337
884.287	0.0137391
884.365	0.0138056
884.443	0.0138247
884.521	0.0137830
884.599	0.0137465
884.677	0.0136847
884.755	0.0137399
884.833	0.0138844
884.912	0.0137846
884.990	0.0137836
885.068	0.0139232
885.146	0.0137756
885.224	0.0137605
885.302	0.0137910
885.380	0.0138396
885.458	0.0138126
885.537	0.0137654
885.615	0.0137295
885.693	0.0139587
885.771	0.0139225
885.849	0.0139918
885.927	0.0138155
886.005	0.0139127
886.083	0.0140560
886.162	0.0139545
886.240	0.0139657
886.318	0.0140570
886.396	0.0140046
886.474	0.0139091
886.552	0.0139157
886.630	0.0139822
886.708	0.0140078
886.787	0.0139167
886.865	0.0139836
886.943	0.0138377
887.021	0.0140208
887.099	0.0141396
887.177	0.0141132
887.255	0.0139676
887.333	0.0140238
887.412	0.0140762
887.490	0.0142339
887.568	0.0141412
887.646	0.0141428
887.724	0.0142989
887.802	0.0143565
887.880	0.0141976
887.958	0.0140517
888.037	0.0140920
888.115	0.0141164
888.193	0.0139184
888.271	0.0139494
888.349	0.0139128
888.427	0.0138688
888.505	0.0137497
888.583	0.0137332
888.662	0.0136600
888.740	0.0137207
888.818	0.0136133
888.896	0.0136164
888.974	0.0136955
889.052	0.0138187
889.130	0.0137140
889.208	0.0137734
889.287	0.0137061
889.365	0.0137864
889.443	0.0138817
889.521	0.0138952
889.599	0.0138998
889.677	0.0138268
889.755	0.0136993
889.833	0.0139013
889.912	0.0139329
889.990	0.0138562
890.068	0.0139046
890.146	0.0138864
890.224	0.0138988
890.302	0.0140280
890.380	0.0140540
890.458	0.0140450
890.537	0.0140014
890.615	0.0139213
890.693	0.0139713
890.771	0.0139323
890.849	0.0139553
890.927	0.0138998
891.005	0.0139113
891.083	0.0139692
891.162	0.0139529
891.240	0.0139582
891.318	0.0138673
891.396	0.0139396
891.474	0.0139153
891.552	0.0138406
891.630	0.0138755
891.708	0.0138828
891.787	0.0139261
891.865	0.0139456
891.943	0.0139749
892.021	0.0141123
892.099	0.0139233
892.177	0.0139998
892.255	0.0139354
892.333	0.0141853
892.412	0.0139249
892.490	0.0140786
892.568	0.0140450
892.646	0.0140041
892.724	0.0141179
892.802	0.0138927
892.880	0.0140797
892.958	0.0140830
893.037	0.0139172
893.115	0.0139941
893.193	0.0140211
893.271	0.0139554
893.349	0.0140399
893.427	0.0140577
893.505	0.0141620
893.583	0.0141510
893.662	0.0141743
893.740	0.0142377
893.818	0.0140913
893.896	0.0142427
893.974	0.0142184
894.052	0.0141607
894.130	0.0140646
894.208	0.0142784
894.287	0.0142046
894.365	0.0143249
894.443	0.0141707
894.521	0.0141280
894.599	0.0142355
894.677	0.0140453
894.755	0.0141332
894.833	0.0142384
894.912	0.0140996
894.990	0.0141586
895.068	0.0140621
895.146	0.0139787
895.224	0.0139752
895.302	0.0140845
895.380	0.0140738
895.458	0.0139748
895.537	0.0137760
895.615	0.0139315
895.693	0.0139919
895.771	0.0138718
895.849	0.0136886
895.927	0.0137730
896.005	0.0137724
896.083	0.0138086
896.162	0.0137382
896.240	0.0138051
896.318	0.0137530
896.396	0.0138477
896.474	0.0137961
896.552	0.0138376
896.630	0.0139853
896.708	0.0138911
896.787	0.0137681
896.865	0.0139711
896.943	0.0139916
897.021	0.0138381
897.099	0.0138923
897.177	0.0137742
897.255	0.0136942
897.333	0.0137037
897.412	0.0138009
897.490	0.0138230
897.568	0.0137943
897.646	0.0137101
897.724	0.0137124
897.802	0.0138391
897.880	0.0138779
897.958	0.0139400
898.037	0.0139130
898.115	0.0138871
898.193	0.0139029
898.271	0.0138256
898.349	0.0138843
898.427	0.0138071
898.505	0.0138912
898.583	0.0139045
898.662	0.0140104
898.740	0.0139683
898.818	0.0139658
898.896	0.0139876
898.974	0.0140701
899.052	0.0140348
899.130	0.0139708
899.208	0.0140292
899.287	0.0140225
899.365	0.0141171
899.443	0.0139210
899.521	0.0138514
899.599	0.0137954
899.677	0.0138570
899.755	0.0138290
899.833	0.0139465
899.912	0.0138158
899.990	0.0137134
900.068	0.0137855
900.146	0.0137399
900.224	0.0136662
900.302	0.0136036
900.380	0.0136323
900.458	0.0136489
900.537	0.0138501
900.615	0.0137379
900.693	0.0136874
900.771	0.0137808
900.849	0.0138346
900.927	0.0138471
901.005	0.0139262
901.083	0.0138499
901.162	0.0138326
901.240	0.0139089
901.318	0.0140081
901.396	0.0139806
901.474	0.0138801
901.552	0.0139675
901.630	0.0140260
901.708	0.0140394
901.787	0.0140216
901.865	0.0138602
901.943	0.0139256
902.021	0.0139035
902.099	0.0138977
902.177	0.0138985
902.255	0.0138206
902.333	0.0139187
902.412	0.0137959
902.490	0.0137431
902.568	0.0137290
902.646	0.0137990
902.724	0.0137507
902.802	0.0138549
902.880	0.0138255
902.958	0.0137829
903.037	0.0139853
903.115	0.0139402
903.193	0.0137908
903.271	0.0139156
903.349	0.0138445
903.427	0.0137467
903.505	0.0139713
903.583	0.0139235
903.662	0.0139184
903.740	0.0137783
903.818	0.0138700
903.896	0.0138125
903.974	0.0137647
904.052	0.0140558
904.130	0.0137952
904.208	0.0138866
904.287	0.0139625
904.365	0.0138822
904.443	0.0139661
904.521	0.0140424
904.599	0.0139470
904.677	0.0138767
904.755	0.0139759
904.833	0.0138686
904.912	0.0138508
904.990	0.0138572
905.068	0.0139835
905.146	0.0141068
905.224	0.0140527
905.302	0.0139377
905.380	0.0138370
905.458	0.0139964
905.537	0.0139082
905.615	0.0138649
905.693	0.0138652
905.771	0.0138101
905.849	0.0137576
905.927	0.0137883
906.005	0.0138271
906.083	0.0138287
906.162	0.0137350
906.240	0.0137795
906.318	0.0137801
906.396	0.0138411
906.474	0.0139123
906.552	0.0139031
906.630	0.0139456
906.708	0.0138905
906.787	0.0138582
906.865	0.0139534
906.943	0.0139881
907.021	0.0138958
907.099	0.0139760
907.177	0.0139772
907.255	0.0139719
907.333	0.0139458
907.412	0.0139217
907.490	0.0139301
907.568	0.0138905
907.646	0.0139150
907.724	0.0139928
907.802	0.0138689
907.880	0.0138648
907.958	0.0137785
908.037	0.0138251
908.115	0.0139205
908.193	0.0138035
908.271	0.0138439
908.349	0.0138675
908.427	0.0136998
908.505	0.0138760
908.583	0.0138537
908.662	0.0138735
908.740	0.0138756
908.818	0.0138177
908.896	0.0138889
908.974	0.0140419
909.052	0.0138932
909.130	0.0139842
909.208	0.0139372
909.287	0.0139625
909.365	0.0139806
909.443	0.0138914
909.521	0.0139755
909.599	0.0139176
909.677	0.0139702
909.755	0.0140742
909.833	0.0139117
909.912	0.0139433
909.990	0.0139112
910.068	0.0139423
910.146	0.0139731
910.224	0.0139737
910.302	0.0139014
910.380	0.0140427
910.458	0.0139857
910.537	0.0139772
910.615	0.0139126
910.693	0.0138726
910.771	0.0140132
910.849	0.0138963
910.927	0.0140137
911.005	0.0139843
911.083	0.0139693
911.162	0.0139001
911.240	0.0138154
911.318	0.0140141
911.396	0.0139276
911.474	0.0140185
911.552	0.0138789
911.630	0.0137826
911.708	0.0140721
911.787	0.0139203
911.865	0.0139168
911.943	0.0138110
912.021	0.0138677
912.099	0.0138375
912.177	0.0138579
912.255	0.0139738
912.333	0.0140231
912.412	0.0139376
912.490	0.0138833
912.568	0.0139050
912.646	0.0137153
912.724	0.0141208
912.802	0.0140357
912.880	0.0140346
912.958	0.0139851
913.037	0.0139392
913.115	0.0140625
913.193	0.0141260
913.271	0.0140308
913.349	0.0141626
913.427	0.0139928
913.505	0.0140232
913.583	0.0140481
913.662	0.0140442
913.740	0.0139853
913.818	0.0140797
913.896	0.0140131
913.974	0.0140089
914.052	0.0137859
914.130	0.0139164
914.208	0.0140412
914.287	0.0140919
914.365	0.0139924
914.443	0.0140334
914.521	0.0140196
914.599	0.0140248
914.677	0.0140681
914.755	0.0141667
914.833	0.0140469
914.912	0.0139182
914.990	0.0140685
915.068	0.0140427
915.146	0.0140471
915.224	0.0139894
915.302	0.0139917
915.380	0.0140352
915.458	0.0139296
915.537	0.0138963
915.615	0.0139435
915.693	0.0142243
915.771	0.0141053
915.849	0.0139377
915.927	0.0139913
916.005	0.0142091
916.083	0.0141743
916.162	0.0140668
916.240	0.0139796
916.318	0.0141389
916.396	0.0140655
916.474	0.0141725
916.552	0.0141097
916.630	0.0142264
916.708	0.0140649
916.787	0.0141747
916.865	0.0141262
916.943	0.0140483
917.021	0.0139695
917.099	0.0140215
917.177	0.0139806
917.255	0.0140659
917.333	0.0139194
917.412	0.0139072
917.490	0.0139453
917.568	0.0139085
917.646	0.0138368
917.724	0.0140530
917.802	0.0139621
917.880	0.0140147
917.958	0.0138625
918.037	0.0139587
918.115	0.0139023
918.193	0.0138477
918.271	0.0138314
918.349	0.0139648
918.427	0.0139651
918.505	0.0139455
918.583	0.0139275
918.662	0.0138418
918.740	0.0139306
918.818	0.0139712
918.896	0.0140047
918.974	0.0140078
919.052	0.0139777
919.130	0.0140092
919.208	0.0140704
919.287	0.0140455
919.365	0.0140131
919.443	0.0141262
919.521	0.0140642
919.599	0.0139492
919.677	0.0139923
919.755	0.0140794
919.833	0.0141055
919.912	0.0139284
919.990	0.0141217
920.068	0.0139001
920.146	0.0140229
920.224	0.0140462
920.302	0.0141666
920.380	0.0140450
920.458	0.0138547
920.537	0.0139173
920.615	0.0139118
920.693	0.0138257
920.771	0.0139229
920.849	0.0140054
920.927	0.0138863
921.005	0.0139565
921.083	0.0139886
921.162	0.0137692
921.240	0.0139023
921.318	0.0139550
921.396	0.0138722
921.474	0.0138677
921.552	0.0139095
921.630	0.0139982
921.708	0.0137901
921.787	0.0139291
921.865	0.0138306
921.943	0.0138590
922.021	0.0137951
922.099	0.0139154
922.177	0.0139277
922.255	0.0138188
922.333	0.0138211
922.412	0.0138371
922.490	0.0138144
922.568	0.0137858
922.646	0.0138619
922.724	0.0138610
922.802	0.0139191
922.880	0.0139214
922.958	0.0139886
923.037	0.0139182
923.115	0.0139456
923.193	0.0138621
923.271	0.0140195
923.349	0.0138633
923.427	0.0139744
923.505	0.0138810
923.583	0.0139661
923.662	0.0138758
923.740	0.0139325
923.818	0.0138384
923.896	0.0138687
923.974	0.0138935
924.052	0.0138620
924.130	0.0138390
924.208	0.0137051
924.287	0.0138074
924.365	0.0137719
924.443	0.0138528
924.521	0.0138662
924.599	0.0136697
924.677	0.0138869
924.755	0.0139465
924.833	0.0138156
924.912	0.0138294
924.990	0.0138381
925.068	0.0138654
925.146	0.0138669
925.224	0.0139429
925.302	0.0139518
925.380	0.0137878
925.458	0.0137415
925.537	0.0139640
925.615	0.0139147
925.693	0.0138301
925.771	0.0137164
925.849	0.0138248
925.927	0.0137973
926.005	0.0139047
926.083	0.0138593
926.162	0.0137327
926.240	0.0139486
926.318	0.0138610
926.396	0.0137119
926.474	0.0138897
926.552	0.0138941
926.630	0.0139399
926.708	0.0139260
926.787	0.0139560
926.865	0.0139217
926.943	0.0139867
927.021	0.0138723
927.099	0.0140308
927.177	0.0139936
927.255	0.0141415
927.333	0.0140376
927.412	0.0139706
927.490	0.0140504
927.568	0.0139692
927.646	0.0138661
927.724	0.0139449
927.802	0.0140395
927.880	0.0138644
927.958	0.0139822
928.037	0.0139289
928.115	0.0139724
928.193	0.0140163
928.271	0.0139237
928.349	0.0139561
928.427	0.0140207
928.505	0.0140310
928.583	0.0138557
928.662	0.0137644
928.740	0.0139258
928.818	0.0138255
928.896	0.0138193
928.974	0.0138183
929.052	0.0137492
929.130	0.0137146
929.208	0.0137157
929.287	0.0137953
929.365	0.0138435
929.443	0.0139001
929.521	0.0138889
929.599	0.0137937
929.677	0.0137148
929.755	0.0138676
929.833	0.0139423
929.912	0.0138490
929.990	0.0139380
930.068	0.0139649
930.146	0.0138918
930.224	0.0140615
930.302	0.0141432
930.380	0.0139084
930.458	0.0140179
930.537	0.0140083
930.615	0.0139234
930.693	0.0139973
930.771	0.0139381
930.849	0.0140001
930.927	0.0140238
931.005	0.0139633
931.083	0.0139195
931.162	0.0140532
931.240	0.0139653
931.318	0.0138583
931.396	0.0138718
931.474	0.0139443
931.552	0.0139860
931.630	0.0140140
931.708	0.0138982
931.787	0.0140333
931.865	0.0141265
931.943	0.0140838
932.021	0.0139728
932.099	0.0139528
932.177	0.0140243
932.255	0.0141186
932.333	0.0141528
932.412	0.0139769
932.490	0.0139902
932.568	0.0140645
932.646	0.0141512
932.724	0.0141263
932.802	0.0140259
932.880	0.0139934
932.958	0.0139609
933.037	0.0140343
933.115	0.0139481
933.193	0.0140007
933.271	0.0139837
933.349	0.0139807
933.427	0.0140475
933.505	0.0137956
933.583	0.0139258
933.662	0.0139685
933.740	0.0138895
933.818	0.0138843
933.896	0.0137756
933.974	0.0138713
934.052	0.0138705
934.130	0.0139063
934.208	0.0139384
934.287	0.0137361
934.365	0.0138853
934.443	0.0138211
934.521	0.0139383
934.599	0.0139194
934.677	0.0139413
934.755	0.0140091
934.833	0.0141074
934.912	0.0140123
934.990	0.0140278
935.068	0.0139964
935.146	0.0140492
935.224	0.0140228
935.302	0.0139902
935.380	0.0140394
935.458	0.0140185
935.537	0.0140783
935.615	0.0139972
935.693	0.0140919
935.771	0.0141247
935.849	0.0140511
935.927	0.0141458
936.005	0.0140307
936.083	0.0140829
936.162	0.0141171
936.240	0.0139695
936.318	0.0141155
936.396	0.0140196
936.474	0.0139352
936.552	0.0140840
936.630	0.0142353
936.708	0.0142028
936.787	0.0141041
936.865	0.0139235
936.943	0.0140622
937.021	0.0140418
937.099	0.0140746
937.177	0.0139912
937.255	0.0140522
937.333	0.0139913
937.412	0.0140780
937.490	0.0139333
937.568	0.0138459
937.646	0.0138548
937.724	0.0139966
937.802	0.0139588
937.880	0.0140255
937.958	0.0140142
938.037	0.0140159
938.115	0.0140845
938.193	0.0139688
938.271	0.0140459
938.349	0.0140027
938.427	0.0139265
938.505	0.0139664
938.583	0.0142168
938.662	0.0140952
938.740	0.0138548
938.818	0.0141064
938.896	0.0139977
938.974	0.0140714
939.052	0.0140713
939.130	0.0138418
939.208	0.0139249
939.287	0.0140392
939.365	0.0138619
939.443	0.0140534
939.521	0.0139398
939.599	0.0139008
939.677	0.0138602
939.755	0.0139494
939.833	0.0138782
939.912	0.0138994
939.990	0.0139265
940.068	0.0139645
940.146	0.0139326
940.224	0.0138916
940.302	0.0138459
940.380	0.0140611
940.458	0.0139717
940.537	0.0139864
940.615	0.0139661
940.693	0.0139050
940.771	0.0140083
940.849	0.0140115
940.927	0.0139108
941.005	0.0141360
941.083	0.0140562
941.162	0.0139258
941.240	0.0140547
941.318	0.0139942
941.396	0.0140481
941.474	0.0140998
941.552	0.0140594
941.630	0.0140848
941.708	0.0141121
941.787	0.0140552
941.865	0.0140536
941.943	0.0140491
942.021	0.0141384
942.099	0.0139292
942.177	0.0140840
942.255	0.0140430
942.333	0.0139530
942.412	0.0140419
942.490	0.0140522
942.568	0.0140536
942.646	0.0140781
942.724	0.0141111
942.802	0.0141292
942.880	0.0141724
942.958	0.0140398
943.037	0.0140005
943.115	0.0140518
943.193	0.0140930
943.271	0.0141686
943.349	0.0140729
943.427	0.0141293
943.505	0.0142142
943.583	0.0140035
943.662	0.0138412
943.740	0.0139851
943.818	0.0139554
943.896	0.0139860
943.974	0.0140273
944.052	0.0139120
944.130	0.0139066
944.208	0.0139090
944.287	0.0138157
944.365	0.0140086
944.443	0.0139101
944.521	0.0138953
944.599	0.0138506
944.677	0.0139413
944.755	0.0138823
944.833	0.0138671
944.912	0.0139212
944.990	0.0139376
945.068	0.0139368
945.146	0.0139715
945.224	0.0140432
945.302	0.0139697
945.380	0.0139465
945.458	0.0139943
945.537	0.0140636
945.615	0.0140673
945.693	0.0139578
945.771	0.0139640
945.849	0.0140335
945.927	0.0139701
946.005	0.0139633
946.083	0.0139658
946.162	0.0139388
946.240	0.0140506
946.318	0.0140744
946.396	0.0141751
946.474	0.0140182
946.552	0.0141599
946.630	0.0139481
946.708	0.0140437
946.787	0.0139329
946.865	0.0138766
946.943	0.0139429
947.021	0.0138565
947.099	0.0139949
947.177	0.0139293
947.255	0.0139723
947.333	0.0138857
947.412	0.0138355
947.490	0.0139668
947.568	0.0139886
947.646	0.0139407
947.724	0.0140095
947.802	0.0139511
947.880	0.0139783
947.958	0.0138656
948.037	0.0139693
948.115	0.0140535
948.193	0.0139778
948.271	0.0140815
948.349	0.0140268
948.427	0.0139889
948.505	0.0139136
948.583	0.0138535
948.662	0.0138276
948.740	0.0140367
948.818	0.0140599
948.896	0.0139537
948.974	0.0140145
949.052	0.0139800
949.130	0.0139011
949.208	0.0139414
949.287	0.0139865
949.365	0.0139297
949.443	0.0139463
949.521	0.0139973
949.599	0.0138613
949.677	0.0140047
949.755	0.0139565
949.833	0.0139783
949.912	0.0138580
949.990	0.0138570
950.068	0.0140926
950.146	0.0139866
950.224	0.0140037
950.302	0.0140387
950.380	0.0139355
950.458	0.0140031
950.537	0.0140495
950.615	0.0139748
950.693	0.0140161
950.771	0.0139929
950.849	0.0139274
950.927	0.0140243
951.005	0.0141431
951.083	0.0141779
951.162	0.0139889
951.240	0.0139696
951.318	0.0139364
951.396	0.0139120
951.474	0.0138641
951.552	0.0139536
951.630	0.0140191
951.708	0.0137332
951.787	0.0139391
951.865	0.0138941
951.943	0.0140065
952.021	0.0138879
952.099	0.0141047
952.177	0.0139091
952.255	0.0139082
952.333	0.0139986
952.412	0.0141122
952.490	0.0139803
952.568	0.0140288
952.646	0.0139964
952.724	0.0139190
952.802	0.0138885
952.880	0.0139715
952.958	0.0139816
953.037	0.0139178
953.115	0.0139389
953.193	0.0142245
953.271	0.0141948
953.349	0.0141908
953.427	0.0140944
953.505	0.0139819
953.583	0.0140868
953.662	0.0139478
953.740	0.0138622
953.818	0.0139041
953.896	0.0139659
953.974	0.0137622
954.052	0.0138347
954.130	0.0140362
954.208	0.0140810
954.287	0.0140884
954.365	0.0141624
954.443	0.0140880
954.521	0.0141299
954.599	0.0140588
954.677	0.0139338
954.755	0.0140638
954.833	0.0141483
954.912	0.0140242
954.990	0.0140480
955.068	0.0139280
955.146	0.0139820
955.224	0.0137712
955.302	0.0137383
955.380	0.0137698
955.458	0.0137500
955.537	0.0137598
955.615	0.0137280
955.693	0.0137527
955.771	0.0137377
955.849	0.0136842
955.927	0.0139320
956.005	0.0139748
956.083	0.0139705
956.162	0.0141233
956.240	0.0141106
956.318	0.0141419
956.396	0.0142124
956.474	0.0142331
956.552	0.0139746
956.630	0.0141612
956.708	0.0140361
956.787	0.0139720
956.865	0.0139442
956.943	0.0138609
957.021	0.0138910
957.099	0.0138140
957.177	0.0136916
957.255	0.0138702
957.333	0.0139312
957.412	0.0137214
957.490	0.0138201
957.568	0.0135910
957.646	0.0137704
957.724	0.0138319
957.802	0.0138596
957.880	0.0138958
957.958	0.0140456
958.037	0.0140095
958.115	0.0140853
958.193	0.0140358
958.271	0.0141203
958.349	0.0140909
958.427	0.0140018
958.505	0.0141074
958.583	0.0142415
958.662	0.0141298
958.740	0.0140594
958.818	0.0141117
958.896	0.0141223
958.974	0.0140465
959.052	0.0140388
959.130	0.0139330
959.208	0.0140544
959.287	0.0138788
959.365	0.0137975
959.443	0.0138110
959.521	0.0138160
959.599	0.0137987
959.677	0.0138777
959.755	0.0138792
959.833	0.0139053
959.912	0.0138945
959.990	0.0139047
960.068	0.0136708
960.146	0.0137988
960.224	0.0139168
960.302	0.0138242
960.380	0.0138520
960.458	0.0137788
960.537	0.0139060
960.615	0.0140295
960.693	0.0140576
960.771	0.0140935
960.849	0.0139904
960.927	0.0141389
961.005	0.0140059
961.083	0.0139893
961.162	0.0140428
961.240	0.0139913
961.318	0.0139716
961.396	0.0139747
961.474	0.0139684
961.552	0.0139505
961.630	0.0138203
961.708	0.0137948
961.787	0.0138263
961.865	0.0137928
961.943	0.0138268
962.021	0.0138251
962.099	0.0139780
962.177	0.0138479
962.255	0.0138922
962.333	0.0142262
962.412	0.0141241
962.490	0.0140804
962.568	0.0141034
962.646	0.0139848
962.724	0.0140572
962.802	0.0141050
962.880	0.0137717
962.958	0.0138029
963.037	0.0139301
963.115	0.0138710
963.193	0.0139404
963.271	0.0137229
963.349	0.0138341
963.427	0.0137836
963.505	0.0138410
963.583	0.0138709
963.662	0.0138445
963.740	0.0140477
963.818	0.0139470
963.896	0.0140197
963.974	0.0139953
964.052	0.0141439
964.130	0.0140994
964.208	0.0140628
964.287	0.0140830
964.365	0.0140366
964.443	0.0141667
964.521	0.0139773
964.599	0.0140012
964.677	0.0139129
964.755	0.0138242
964.833	0.0139846
964.912	0.0138340
964.990	0.0137786
965.068	0.0138221
965.146	0.0137784
965.224	0.0136187
965.302	0.0138350
965.380	0.0138535
965.458	0.0138498
965.537	0.0138148
965.615	0.0139113
965.693	0.0141135
965.771	0.0141267
965.849	0.0140634
965.927	0.0140086
966.005	0.0140530
966.083	0.0140216
966.162	0.0142462
966.240	0.0140611
966.318	0.0141842
966.396	0.0141525
966.474	0.0142016
966.552	0.0140214
966.630	0.0141096
966.708	0.0140903
966.787	0.0141525
966.865	0.0141293
966.943	0.0141822
967.021	0.0140375
967.099	0.0140226
967.177	0.0140411
967.255	0.0138850
967.333	0.0139446
967.412	0.0140061
967.490	0.0140532
967.568	0.0140115
967.646	0.0140476
967.724	0.0141436
967.802	0.0140508
967.880	0.0139977
967.958	0.0139623
968.037	0.0140309
968.115	0.0141651
968.193	0.0139940
968.271	0.0139069
968.349	0.0138235
968.427	0.0139012
968.505	0.0137763
968.583	0.0139191
968.662	0.0140246
968.740	0.0138266
968.818	0.0140082
968.896	0.0139675
968.974	0.0139230
969.052	0.0138484
969.130	0.0139690
969.208	0.0139883
969.287	0.0141859
969.365	0.0141026
969.443	0.0139544
969.521	0.0139182
969.599	0.0140976
969.677	0.0139200
969.755	0.0138950
969.833	0.0139049
969.912	0.0138686
