05/08/2022	20:26:37	Ver.	4.1	UNKNOWN
Optical Delay	600.015094	Delta X		0.078125	Sweeps	1	Scan Rate	0/0
Coordinates	Axis 1	NaN	Axis 2	NaN	Axis 3	NaN	Axis 4	NaN	Axis 5	NaN	Axis 6	0.000000
TX Power	0.000000	RX Power	0.000000

600.015	0.0137469
600.093	0.0135883
600.171	0.0138757
600.249	0.0139034
600.328	0.0138044
600.406	0.0137306
600.484	0.0135958
600.562	0.0137789
600.640	0.0137356
600.718	0.0136422
600.796	0.0136588
600.874	0.0137492
600.953	0.0136782
601.031	0.0137603
601.109	0.0136864
601.187	0.0136777
601.265	0.0137003
601.343	0.0136809
601.421	0.0137682
601.499	0.0138597
601.578	0.0136736
601.656	0.0137502
601.734	0.0138851
601.812	0.0136806
601.890	0.0137466
601.968	0.0137268
602.046	0.0137506
602.124	0.0137334
602.203	0.0137522
602.281	0.0136971
602.359	0.0138087
602.437	0.0138245
602.515	0.0137064
602.593	0.0136388
602.671	0.0136742
602.749	0.0135596
602.828	0.0137596
602.906	0.0138400
602.984	0.0136735
603.062	0.0137923
603.140	0.0137016
603.218	0.0136909
603.296	0.0137344
603.374	0.0136913
603.453	0.0137224
603.531	0.0138598
603.609	0.0136560
603.687	0.0135920
603.765	0.0137288
603.843	0.0137341
603.921	0.0136989
603.999	0.0137879
604.078	0.0138184
604.156	0.0138248
604.234	0.0138212
604.312	0.0138823
604.390	0.0137996
604.468	0.0138460
604.546	0.0139556
604.624	0.0136651
604.703	0.0136939
604.781	0.0138028
604.859	0.0138258
604.937	0.0138549
605.015	0.0138113
605.093	0.0137442
605.171	0.0138582
605.249	0.0139585
605.328	0.0136948
605.406	0.0138022
605.484	0.0139366
605.562	0.0139238
605.640	0.0137772
605.718	0.0138033
605.796	0.0138277
605.874	0.0138166
605.953	0.0138297
606.031	0.0139542
606.109	0.0139481
606.187	0.0138769
606.265	0.0137563
606.343	0.0138907
606.421	0.0139208
606.499	0.0138148
606.578	0.0138592
606.656	0.0139374
606.734	0.0138686
606.812	0.0138664
606.890	0.0138721
606.968	0.0138663
607.046	0.0138706
607.124	0.0138446
607.203	0.0139031
607.281	0.0137572
607.359	0.0137614
607.437	0.0138240
607.515	0.0138009
607.593	0.0138866
607.671	0.0138486
607.749	0.0137471
607.828	0.0138657
607.906	0.0138546
607.984	0.0136938
608.062	0.0137610
608.140	0.0138847
608.218	0.0138961
608.296	0.0138126
608.374	0.0138674
608.453	0.0137766
608.531	0.0137402
608.609	0.0138937
608.687	0.0137526
608.765	0.0138469
608.843	0.0137942
608.921	0.0138908
608.999	0.0139323
609.078	0.0138187
609.156	0.0137335
609.234	0.0138204
609.312	0.0137612
609.390	0.0139039
609.468	0.0138380
609.546	0.0138670
609.624	0.0138506
609.703	0.0139923
609.781	0.0139444
609.859	0.0137820
609.937	0.0138333
610.015	0.0139101
610.093	0.0138586
610.171	0.0138793
610.249	0.0138346
610.328	0.0138344
610.406	0.0137698
610.484	0.0137278
610.562	0.0138113
610.640	0.0139382
610.718	0.0138047
610.796	0.0137669
610.874	0.0136729
610.953	0.0137730
611.031	0.0137841
611.109	0.0136940
611.187	0.0137799
611.265	0.0138689
611.343	0.0137074
611.421	0.0136790
611.499	0.0137238
611.578	0.0137881
611.656	0.0136919
611.734	0.0137642
611.812	0.0135908
611.890	0.0136632
611.968	0.0137370
612.046	0.0136676
612.124	0.0137155
612.203	0.0138036
612.281	0.0137518
612.359	0.0136580
612.437	0.0138232
612.515	0.0137144
612.593	0.0136759
612.671	0.0136855
612.749	0.0138589
612.828	0.0137393
612.906	0.0136372
612.984	0.0136781
613.062	0.0137985
613.140	0.0137897
613.218	0.0138266
613.296	0.0138219
613.374	0.0138647
613.453	0.0137749
613.531	0.0139003
613.609	0.0139748
613.687	0.0136898
613.765	0.0139338
613.843	0.0139378
613.921	0.0138550
613.999	0.0139944
614.078	0.0137557
614.156	0.0137780
614.234	0.0137188
614.312	0.0138907
614.390	0.0137185
614.468	0.0137541
614.546	0.0137473
614.624	0.0137707
614.703	0.0136942
614.781	0.0137560
614.859	0.0137626
614.937	0.0137409
615.015	0.0136935
615.093	0.0136742
615.171	0.0136656
615.249	0.0137590
615.328	0.0138384
615.406	0.0137997
615.484	0.0135717
615.562	0.0137158
615.640	0.0137456
615.718	0.0137069
615.796	0.0137130
615.874	0.0135400
615.953	0.0137157
616.031	0.0138092
616.109	0.0137318
616.187	0.0137421
616.265	0.0136939
616.343	0.0137257
616.421	0.0137221
616.499	0.0137660
616.578	0.0136617
616.656	0.0136665
616.734	0.0136735
616.812	0.0136932
616.890	0.0137875
616.968	0.0137895
617.046	0.0136496
617.124	0.0137348
617.203	0.0136888
617.281	0.0137241
617.359	0.0137655
617.437	0.0137157
617.515	0.0137189
617.593	0.0137814
617.671	0.0137887
617.749	0.0137029
617.828	0.0137270
617.906	0.0137845
617.984	0.0138318
618.062	0.0136866
618.140	0.0137669
618.218	0.0138347
618.296	0.0137213
618.374	0.0137012
618.453	0.0136613
618.531	0.0137177
618.609	0.0138904
618.687	0.0138413
618.765	0.0137759
618.843	0.0138002
618.921	0.0137575
618.999	0.0138418
619.078	0.0137505
619.156	0.0137864
619.234	0.0137446
619.312	0.0137821
619.390	0.0136609
619.468	0.0138065
619.546	0.0137673
619.624	0.0138787
619.703	0.0137870
619.781	0.0137292
619.859	0.0137843
619.937	0.0137627
620.015	0.0137689
620.093	0.0138853
620.171	0.0138457
620.249	0.0137287
620.328	0.0135896
620.406	0.0138297
620.484	0.0137994
620.562	0.0138131
620.640	0.0137914
620.718	0.0137695
620.796	0.0137441
620.874	0.0136978
620.953	0.0137707
621.031	0.0138468
621.109	0.0136284
621.187	0.0136613
621.265	0.0138132
621.343	0.0136665
621.421	0.0137312
621.499	0.0136327
621.578	0.0137585
621.656	0.0136062
621.734	0.0136844
621.812	0.0137613
621.890	0.0137699
621.968	0.0136597
622.046	0.0137450
622.124	0.0137741
622.203	0.0137983
622.281	0.0137794
622.359	0.0137305
622.437	0.0135478
622.515	0.0136615
622.593	0.0137415
622.671	0.0138126
622.749	0.0136192
622.828	0.0138021
622.906	0.0137074
622.984	0.0137490
623.062	0.0136620
623.140	0.0136551
623.218	0.0137882
623.296	0.0136838
623.374	0.0136874
623.453	0.0137491
623.531	0.0137901
623.609	0.0136927
623.687	0.0135686
623.765	0.0135840
623.843	0.0138029
623.921	0.0139029
623.999	0.0136902
624.078	0.0137640
624.156	0.0139046
624.234	0.0137743
624.312	0.0137440
624.390	0.0138213
624.468	0.0137488
624.546	0.0137031
624.624	0.0135911
624.703	0.0136701
624.781	0.0137266
624.859	0.0137560
624.937	0.0136511
625.015	0.0138186
625.093	0.0138874
625.171	0.0138400
625.249	0.0136877
625.328	0.0138726
625.406	0.0137496
625.484	0.0136034
625.562	0.0137897
625.640	0.0138633
625.718	0.0137874
625.796	0.0139761
625.874	0.0136366
625.953	0.0138938
626.031	0.0138184
626.109	0.0138736
626.187	0.0137000
626.265	0.0137328
626.343	0.0136829
626.421	0.0138083
626.499	0.0137567
626.578	0.0138370
626.656	0.0136309
626.734	0.0137440
626.812	0.0137531
626.890	0.0138309
626.968	0.0138635
627.046	0.0137923
627.124	0.0138081
627.203	0.0138388
627.281	0.0138826
627.359	0.0138880
627.437	0.0137656
627.515	0.0139308
627.593	0.0138705
627.671	0.0139108
627.749	0.0139690
627.828	0.0138234
627.906	0.0137886
627.984	0.0137732
628.062	0.0138276
628.140	0.0139287
628.218	0.0140020
628.296	0.0139864
628.374	0.0139557
628.453	0.0137742
628.531	0.0138611
628.609	0.0138470
628.687	0.0138287
628.765	0.0138863
628.843	0.0138384
628.921	0.0139274
628.999	0.0139012
629.078	0.0139196
629.156	0.0139750
629.234	0.0139573
629.312	0.0138039
629.390	0.0138659
629.468	0.0138591
629.546	0.0140269
629.624	0.0139272
629.703	0.0139256
629.781	0.0138258
629.859	0.0138530
629.937	0.0139166
630.015	0.0138023
630.093	0.0138605
630.171	0.0138833
630.249	0.0139365
630.328	0.0138738
630.406	0.0138235
630.484	0.0138867
630.562	0.0140004
630.640	0.0139658
630.718	0.0139153
630.796	0.0138470
630.874	0.0138657
630.953	0.0138020
631.031	0.0139940
631.109	0.0136986
631.187	0.0137466
631.265	0.0138174
631.343	0.0137582
631.421	0.0138679
631.499	0.0138229
631.578	0.0138435
631.656	0.0138289
631.734	0.0137556
631.812	0.0137167
631.890	0.0138978
631.968	0.0138127
632.046	0.0137105
632.124	0.0138919
632.203	0.0137362
632.281	0.0138078
632.359	0.0137629
632.437	0.0139014
632.515	0.0137735
632.593	0.0138227
632.671	0.0137395
632.749	0.0138245
632.828	0.0138592
632.906	0.0137337
632.984	0.0136870
633.062	0.0136272
633.140	0.0136683
633.218	0.0135947
633.296	0.0137043
633.374	0.0138255
633.453	0.0136090
633.531	0.0136617
633.609	0.0136987
633.687	0.0137626
633.765	0.0137329
633.843	0.0136614
633.921	0.0137001
633.999	0.0137643
634.078	0.0137995
634.156	0.0138020
634.234	0.0137883
634.312	0.0137739
634.390	0.0136658
634.468	0.0137523
634.546	0.0136595
634.624	0.0137738
634.703	0.0136620
634.781	0.0137280
634.859	0.0137070
634.937	0.0138061
635.015	0.0138287
635.093	0.0139062
635.171	0.0137846
635.249	0.0137453
635.328	0.0138314
635.406	0.0138050
635.484	0.0138999
635.562	0.0137294
635.640	0.0137681
635.718	0.0136920
635.796	0.0136842
635.874	0.0137901
635.953	0.0136881
636.031	0.0136752
636.109	0.0136892
636.187	0.0137007
636.265	0.0137053
636.343	0.0135355
636.421	0.0136916
636.499	0.0136313
636.578	0.0137529
636.656	0.0137704
636.734	0.0136693
636.812	0.0137231
636.890	0.0137586
636.968	0.0138934
637.046	0.0138627
637.124	0.0138398
637.203	0.0137363
637.281	0.0138437
637.359	0.0139492
637.437	0.0139621
637.515	0.0139253
637.593	0.0138461
637.671	0.0136691
637.749	0.0137605
637.828	0.0139323
637.906	0.0136504
637.984	0.0136456
638.062	0.0137030
638.140	0.0136803
638.218	0.0138380
638.296	0.0138261
638.374	0.0137505
638.453	0.0138007
638.531	0.0137901
638.609	0.0137865
638.687	0.0138585
638.765	0.0138593
638.843	0.0138764
638.921	0.0137855
638.999	0.0138279
639.078	0.0138857
639.156	0.0138354
639.234	0.0136977
639.312	0.0139021
639.390	0.0137348
639.468	0.0137495
639.546	0.0137476
639.624	0.0137723
639.703	0.0137088
639.781	0.0136934
639.859	0.0136716
639.937	0.0136803
640.015	0.0137556
640.093	0.0137000
640.171	0.0136671
640.249	0.0136792
640.328	0.0136191
640.406	0.0136718
640.484	0.0135590
640.562	0.0138042
640.640	0.0137253
640.718	0.0136693
640.796	0.0137547
640.874	0.0136986
640.953	0.0138808
641.031	0.0137389
641.109	0.0138187
641.187	0.0137859
641.265	0.0138725
641.343	0.0139574
641.421	0.0139632
641.499	0.0139548
641.578	0.0139845
641.656	0.0140125
641.734	0.0138421
641.812	0.0138720
641.890	0.0139284
641.968	0.0139595
642.046	0.0139780
642.124	0.0138892
642.203	0.0140731
642.281	0.0138814
642.359	0.0138746
642.437	0.0139499
642.515	0.0137761
642.593	0.0137645
642.671	0.0137602
642.749	0.0136567
642.828	0.0137227
642.906	0.0137068
642.984	0.0135708
643.062	0.0136431
643.140	0.0136063
643.218	0.0134753
643.296	0.0133935
643.374	0.0132985
643.453	0.0133676
643.531	0.0132468
643.609	0.0131166
643.687	0.0131881
643.765	0.0133273
643.843	0.0133195
643.921	0.0130698
643.999	0.0132244
644.078	0.0133371
644.156	0.0133727
644.234	0.0135389
644.312	0.0135711
644.390	0.0136028
644.468	0.0139040
644.546	0.0139176
644.624	0.0141621
644.703	0.0143064
644.781	0.0144215
644.859	0.0144420
644.937	0.0144854
645.015	0.0147777
645.093	0.0146257
645.171	0.0148108
645.249	0.0146898
645.328	0.0147324
645.406	0.0147752
645.484	0.0145971
645.562	0.0146149
645.640	0.0143069
645.718	0.0140938
645.796	0.0140829
645.874	0.0137899
645.953	0.0136625
646.031	0.0135265
646.109	0.0134614
646.187	0.0131280
646.265	0.0130228
646.343	0.0129190
646.421	0.0127531
646.499	0.0125803
646.578	0.0124617
646.656	0.0123811
646.734	0.0125249
646.812	0.0123878
646.890	0.0123590
646.968	0.0124762
647.046	0.0125702
647.124	0.0125394
647.203	0.0127319
647.281	0.0128377
647.359	0.0128617
647.437	0.0130125
647.515	0.0133337
647.593	0.0135153
647.671	0.0136399
647.749	0.0139107
647.828	0.0139615
647.906	0.0140961
647.984	0.0144169
648.062	0.0145876
648.140	0.0147162
648.218	0.0148174
648.296	0.0147976
648.374	0.0149592
648.453	0.0148926
648.531	0.0148311
648.609	0.0150134
648.687	0.0148432
648.765	0.0147594
648.843	0.0148883
648.921	0.0147066
648.999	0.0146230
649.078	0.0146130
649.156	0.0143803
649.234	0.0141638
649.312	0.0141047
649.390	0.0139675
649.468	0.0138819
649.546	0.0137087
649.624	0.0137072
649.703	0.0134634
649.781	0.0131496
649.859	0.0131380
649.937	0.0129234
650.015	0.0128983
650.093	0.0128613
650.171	0.0127582
650.249	0.0126592
650.328	0.0124544
650.406	0.0124418
650.484	0.0123328
650.562	0.0123965
650.640	0.0124493
650.718	0.0124229
650.796	0.0124110
650.874	0.0124762
650.953	0.0125255
651.031	0.0126743
651.109	0.0126823
651.187	0.0127106
651.265	0.0128082
651.343	0.0129757
651.421	0.0131719
651.499	0.0133425
651.578	0.0133752
651.656	0.0136086
651.734	0.0137560
651.812	0.0139800
651.890	0.0141734
651.968	0.0142079
652.046	0.0142809
652.124	0.0146134
652.203	0.0145895
652.281	0.0149206
652.359	0.0150108
652.437	0.0150672
652.515	0.0152119
652.593	0.0153513
652.671	0.0153860
652.749	0.0153740
652.828	0.0154798
652.906	0.0155891
652.984	0.0155463
653.062	0.0155973
653.140	0.0154112
653.218	0.0152451
653.296	0.0152538
653.374	0.0150470
653.453	0.0147861
653.531	0.0146591
653.609	0.0144125
653.687	0.0142039
653.765	0.0139088
653.843	0.0136162
653.921	0.0133627
653.999	0.0132262
654.078	0.0129816
654.156	0.0126391
654.234	0.0122207
654.312	0.0120986
654.390	0.0119202
654.468	0.0116966
654.546	0.0115945
654.624	0.0115008
654.703	0.0112152
654.781	0.0113758
654.859	0.0114352
654.937	0.0113430
655.015	0.0112012
655.093	0.0113593
655.171	0.0116270
655.249	0.0118693
655.328	0.0120267
655.406	0.0123168
655.484	0.0127217
655.562	0.0128737
655.640	0.0132448
655.718	0.0135827
655.796	0.0139558
655.874	0.0143745
655.953	0.0147436
656.031	0.0150600
656.109	0.0153506
656.187	0.0156986
656.265	0.0160707
656.343	0.0162312
656.421	0.0163454
656.499	0.0165948
656.578	0.0166534
656.656	0.0168050
656.734	0.0167433
656.812	0.0168580
656.890	0.0166844
656.968	0.0167477
657.046	0.0165340
657.124	0.0163730
657.203	0.0162987
657.281	0.0160234
657.359	0.0156447
657.437	0.0153728
657.515	0.0149294
657.593	0.0144446
657.671	0.0143142
657.749	0.0138251
657.828	0.0134943
657.906	0.0129985
657.984	0.0125561
658.062	0.0122729
658.140	0.0119702
658.218	0.0117510
658.296	0.0115364
658.374	0.0112560
658.453	0.0109681
658.531	0.0109578
658.609	0.0108564
658.687	0.0106806
658.765	0.0107798
658.843	0.0109098
658.921	0.0108576
658.999	0.0108654
659.078	0.0109419
659.156	0.0112596
659.234	0.0114806
659.312	0.0117220
659.390	0.0118825
659.468	0.0121059
659.546	0.0124519
659.624	0.0127781
659.703	0.0130873
659.781	0.0132013
659.859	0.0135825
659.937	0.0139968
660.015	0.0142524
660.093	0.0147112
660.171	0.0148009
660.249	0.0151766
660.328	0.0153088
660.406	0.0157893
660.484	0.0158643
660.562	0.0161478
660.640	0.0162711
660.718	0.0164388
660.796	0.0165810
660.874	0.0164933
660.953	0.0166328
661.031	0.0166119
661.109	0.0164751
661.187	0.0164097
661.265	0.0160691
661.343	0.0159528
661.421	0.0158875
661.499	0.0155500
661.578	0.0152467
661.656	0.0150291
661.734	0.0149010
661.812	0.0144968
661.890	0.0141115
661.968	0.0138647
662.046	0.0136598
662.124	0.0133137
662.203	0.0130236
662.281	0.0128210
662.359	0.0124503
662.437	0.0122737
662.515	0.0119475
662.593	0.0117464
662.671	0.0114287
662.749	0.0113853
662.828	0.0110268
662.906	0.0108935
662.984	0.0110613
663.062	0.0109388
663.140	0.0108195
663.218	0.0109451
663.296	0.0110268
663.374	0.0110217
663.453	0.0112105
663.531	0.0113340
663.609	0.0116489
663.687	0.0118604
663.765	0.0121806
663.843	0.0125333
663.921	0.0130879
663.999	0.0133038
664.078	0.0135044
664.156	0.0138447
664.234	0.0139516
664.312	0.0143489
664.390	0.0147343
664.468	0.0148735
664.546	0.0149240
664.624	0.0152549
664.703	0.0154425
664.781	0.0155013
664.859	0.0156190
664.937	0.0156688
665.015	0.0156992
665.093	0.0156783
665.171	0.0156282
665.249	0.0155914
665.328	0.0155132
665.406	0.0154265
665.484	0.0153143
665.562	0.0153841
665.640	0.0150852
665.718	0.0150969
665.796	0.0148435
665.874	0.0147433
665.953	0.0145310
666.031	0.0143952
666.109	0.0142415
666.187	0.0140464
666.265	0.0139522
666.343	0.0137990
666.421	0.0134508
666.499	0.0132643
666.578	0.0130824
666.656	0.0129227
666.734	0.0126176
666.812	0.0124975
666.890	0.0125109
666.968	0.0124738
667.046	0.0121813
667.124	0.0122245
667.203	0.0121592
667.281	0.0121144
667.359	0.0122828
667.437	0.0122329
667.515	0.0122284
667.593	0.0123675
667.671	0.0123446
667.749	0.0124918
667.828	0.0125481
667.906	0.0127189
667.984	0.0127519
668.062	0.0128416
668.140	0.0130092
668.218	0.0129813
668.296	0.0132475
668.374	0.0132390
668.453	0.0133408
668.531	0.0133549
668.609	0.0134641
668.687	0.0136570
668.765	0.0138421
668.843	0.0139584
668.921	0.0141730
668.999	0.0142411
669.078	0.0140815
669.156	0.0141206
669.234	0.0145029
669.312	0.0144668
669.390	0.0145071
669.468	0.0146803
669.546	0.0144968
669.624	0.0145571
669.703	0.0146024
669.781	0.0145965
669.859	0.0146045
669.937	0.0145710
670.015	0.0144512
670.093	0.0144090
670.171	0.0142785
670.249	0.0142683
670.328	0.0141032
670.406	0.0139958
670.484	0.0137813
670.562	0.0137736
670.640	0.0136452
670.718	0.0134759
670.796	0.0135388
670.874	0.0134761
670.953	0.0135247
671.031	0.0134908
671.109	0.0132776
671.187	0.0134365
671.265	0.0134761
671.343	0.0135808
671.421	0.0134623
671.499	0.0135965
671.578	0.0136558
671.656	0.0138346
671.734	0.0139063
671.812	0.0139217
671.890	0.0140523
671.968	0.0139863
672.046	0.0139281
672.124	0.0139894
672.203	0.0139791
672.281	0.0140133
672.359	0.0139988
672.437	0.0139974
672.515	0.0139177
672.593	0.0138544
672.671	0.0139177
672.749	0.0137878
672.828	0.0138112
672.906	0.0136468
672.984	0.0136209
673.062	0.0136290
673.140	0.0135562
673.218	0.0135919
673.296	0.0133740
673.374	0.0132380
673.453	0.0134615
673.531	0.0132298
673.609	0.0131944
673.687	0.0131620
673.765	0.0130970
673.843	0.0130731
673.921	0.0130387
673.999	0.0132025
674.078	0.0129984
674.156	0.0130951
674.234	0.0132329
674.312	0.0131247
674.390	0.0131492
674.468	0.0130814
674.546	0.0129697
674.624	0.0132638
674.703	0.0132414
674.781	0.0134296
674.859	0.0135487
674.937	0.0136380
675.015	0.0137592
675.093	0.0137150
675.171	0.0138989
675.249	0.0138932
675.328	0.0139742
675.406	0.0141980
675.484	0.0141769
675.562	0.0142847
675.640	0.0142813
675.718	0.0141630
675.796	0.0141316
675.874	0.0141685
675.953	0.0140936
676.031	0.0140617
676.109	0.0140220
676.187	0.0138834
676.265	0.0138390
676.343	0.0138548
676.421	0.0139991
676.499	0.0139827
676.578	0.0139445
676.656	0.0138909
676.734	0.0137946
676.812	0.0137805
676.890	0.0138801
676.968	0.0139875
677.046	0.0138593
677.124	0.0139567
677.203	0.0138174
677.281	0.0138761
677.359	0.0137932
677.437	0.0138116
677.515	0.0136717
677.593	0.0135891
677.671	0.0135123
677.749	0.0135318
677.828	0.0134192
677.906	0.0135056
677.984	0.0134888
678.062	0.0132509
678.140	0.0132410
678.218	0.0131715
678.296	0.0133212
678.374	0.0132613
678.453	0.0132828
678.531	0.0133131
678.609	0.0134770
678.687	0.0135189
678.765	0.0134872
678.843	0.0135712
678.921	0.0136722
678.999	0.0137425
679.078	0.0138089
679.156	0.0139143
679.234	0.0138969
679.312	0.0138760
679.390	0.0139396
679.468	0.0140238
679.546	0.0139420
679.624	0.0139499
679.703	0.0140026
679.781	0.0139623
679.859	0.0139850
679.937	0.0139840
680.015	0.0141139
680.093	0.0140873
680.171	0.0139450
680.249	0.0140052
680.328	0.0139728
680.406	0.0139172
680.484	0.0139664
680.562	0.0139262
680.640	0.0139102
680.718	0.0137540
680.796	0.0136545
680.874	0.0136872
680.953	0.0136183
681.031	0.0136652
681.109	0.0136465
681.187	0.0133567
681.265	0.0134314
681.343	0.0134985
681.421	0.0134693
681.499	0.0134522
681.578	0.0134682
681.656	0.0133260
681.734	0.0135317
681.812	0.0135023
681.890	0.0133906
681.968	0.0134692
682.046	0.0133423
682.124	0.0134101
682.203	0.0134640
682.281	0.0134545
682.359	0.0136183
682.437	0.0137108
682.515	0.0135835
682.593	0.0136425
682.671	0.0136604
682.749	0.0136716
682.828	0.0136134
682.906	0.0138161
682.984	0.0139042
683.062	0.0139484
683.140	0.0140450
683.218	0.0141042
683.296	0.0141116
683.374	0.0142414
683.453	0.0141811
683.531	0.0143494
683.609	0.0143996
683.687	0.0144378
683.765	0.0142960
683.843	0.0143734
683.921	0.0142227
683.999	0.0142590
684.078	0.0142294
684.156	0.0140422
684.234	0.0139757
684.312	0.0137919
684.390	0.0137685
684.468	0.0136926
684.546	0.0137484
684.624	0.0135035
684.703	0.0136055
684.781	0.0137219
684.859	0.0134610
684.937	0.0136784
685.015	0.0135300
685.093	0.0136813
685.171	0.0136829
685.249	0.0136057
685.328	0.0133940
685.406	0.0134409
685.484	0.0134206
685.562	0.0132615
685.640	0.0132282
685.718	0.0131721
685.796	0.0131496
685.874	0.0130463
685.953	0.0130000
686.031	0.0130376
686.109	0.0129328
686.187	0.0128917
686.265	0.0130770
686.343	0.0130704
686.421	0.0129038
686.499	0.0130306
686.578	0.0130103
686.656	0.0130894
686.734	0.0131641
686.812	0.0132497
686.890	0.0133085
686.968	0.0132919
687.046	0.0133154
687.124	0.0135334
687.203	0.0134665
687.281	0.0135473
687.359	0.0138046
687.437	0.0138614
687.515	0.0138192
687.593	0.0140359
687.671	0.0141337
687.749	0.0141025
687.828	0.0141225
687.906	0.0142304
687.984	0.0144001
688.062	0.0145442
688.140	0.0146180
688.218	0.0146783
688.296	0.0147752
688.374	0.0148573
688.453	0.0148285
688.531	0.0148804
688.609	0.0147166
688.687	0.0147643
688.765	0.0146869
688.843	0.0146302
688.921	0.0146506
688.999	0.0144917
689.078	0.0145405
689.156	0.0141938
689.234	0.0141468
689.312	0.0140534
689.390	0.0138865
689.468	0.0139460
689.546	0.0137348
689.624	0.0136829
689.703	0.0137488
689.781	0.0135341
689.859	0.0134745
689.937	0.0133395
690.015	0.0133704
690.093	0.0133975
690.171	0.0132858
690.249	0.0131071
690.328	0.0133154
690.406	0.0132548
690.484	0.0132462
690.562	0.0132910
690.640	0.0132990
690.718	0.0130902
690.796	0.0132374
690.874	0.0134474
690.953	0.0134083
691.031	0.0134465
691.109	0.0134482
691.187	0.0135200
691.265	0.0135847
691.343	0.0136217
691.421	0.0135193
691.499	0.0136037
691.578	0.0135997
691.656	0.0136888
691.734	0.0137926
691.812	0.0136253
691.890	0.0136724
691.968	0.0137005
692.046	0.0137592
692.124	0.0137465
692.203	0.0136788
692.281	0.0137536
692.359	0.0138457
692.437	0.0138126
692.515	0.0137220
692.593	0.0137037
692.671	0.0137675
692.749	0.0137731
692.828	0.0136909
692.906	0.0136349
692.984	0.0135635
693.062	0.0136754
693.140	0.0136195
693.218	0.0135690
693.296	0.0135997
693.374	0.0134834
693.453	0.0135120
693.531	0.0136182
693.609	0.0136552
693.687	0.0136152
693.765	0.0136580
693.843	0.0136474
693.921	0.0139842
693.999	0.0139214
694.078	0.0139424
694.156	0.0141042
694.234	0.0141483
694.312	0.0141486
694.390	0.0142017
694.468	0.0142243
694.546	0.0143638
694.624	0.0143552
694.703	0.0144345
694.781	0.0142278
694.859	0.0142993
694.937	0.0143427
695.015	0.0143330
695.093	0.0143227
695.171	0.0141112
695.249	0.0141640
695.328	0.0140200
695.406	0.0139594
695.484	0.0139568
695.562	0.0139526
695.640	0.0139854
695.718	0.0138662
695.796	0.0136912
695.874	0.0139234
695.953	0.0137850
696.031	0.0136771
696.109	0.0136217
696.187	0.0137004
696.265	0.0136573
696.343	0.0135606
696.421	0.0136523
696.499	0.0134584
696.578	0.0135215
696.656	0.0135110
696.734	0.0133824
696.812	0.0134237
696.890	0.0132315
696.968	0.0132061
697.046	0.0134074
697.124	0.0133899
697.203	0.0134711
697.281	0.0134406
697.359	0.0135031
697.437	0.0136008
697.515	0.0136015
697.593	0.0134716
697.671	0.0137195
697.749	0.0136463
697.828	0.0134565
697.906	0.0135993
697.984	0.0135401
698.062	0.0133983
698.140	0.0134421
698.218	0.0134079
698.296	0.0134351
698.374	0.0133235
698.453	0.0133805
698.531	0.0133404
698.609	0.0133791
698.687	0.0134496
698.765	0.0133117
698.843	0.0134631
698.921	0.0135325
698.999	0.0136189
699.078	0.0135352
699.156	0.0134978
699.234	0.0135236
699.312	0.0138007
699.390	0.0139008
699.468	0.0138625
699.546	0.0137267
699.624	0.0138407
699.703	0.0137858
699.781	0.0139516
699.859	0.0138486
699.937	0.0137996
700.015	0.0138439
700.093	0.0138171
700.171	0.0137172
700.249	0.0138364
700.328	0.0138177
700.406	0.0137939
700.484	0.0138937
700.562	0.0139032
700.640	0.0139276
700.718	0.0139474
700.796	0.0141348
700.874	0.0140633
700.953	0.0141363
701.031	0.0141366
701.109	0.0140794
701.187	0.0142321
701.265	0.0142584
701.343	0.0141646
701.421	0.0141291
701.499	0.0141484
701.578	0.0140064
701.656	0.0141779
701.734	0.0139982
701.812	0.0141985
701.890	0.0139182
701.968	0.0138413
702.046	0.0140061
702.124	0.0138573
702.203	0.0138064
702.281	0.0136122
702.359	0.0135414
702.437	0.0134843
702.515	0.0134052
702.593	0.0134920
702.671	0.0133845
702.749	0.0133273
702.828	0.0133813
702.906	0.0133295
702.984	0.0133533
703.062	0.0132754
703.140	0.0133669
703.218	0.0132664
703.296	0.0134671
703.374	0.0133773
703.453	0.0133712
703.531	0.0133733
703.609	0.0133928
703.687	0.0134087
703.765	0.0135256
703.843	0.0135159
703.921	0.0135921
703.999	0.0135458
704.078	0.0136548
704.156	0.0138435
704.234	0.0138121
704.312	0.0137528
704.390	0.0137128
704.468	0.0137834
704.546	0.0138442
704.624	0.0139658
704.703	0.0137894
704.781	0.0139278
704.859	0.0137717
704.937	0.0139845
705.015	0.0139770
705.093	0.0139201
705.171	0.0140283
705.249	0.0140517
705.328	0.0139846
705.406	0.0140752
705.484	0.0140942
705.562	0.0142496
705.640	0.0140797
705.718	0.0140096
705.796	0.0139982
705.874	0.0140434
705.953	0.0139825
706.031	0.0138501
706.109	0.0137913
706.187	0.0136607
706.265	0.0136292
706.343	0.0133757
706.421	0.0134660
706.499	0.0133881
706.578	0.0131979
706.656	0.0131762
706.734	0.0134317
706.812	0.0132617
706.890	0.0132719
706.968	0.0131631
707.046	0.0132156
707.124	0.0131773
707.203	0.0133895
707.281	0.0136305
707.359	0.0135413
707.437	0.0136076
707.515	0.0138503
707.593	0.0139300
707.671	0.0141441
707.749	0.0140979
707.828	0.0142049
707.906	0.0142387
707.984	0.0141592
708.062	0.0142592
708.140	0.0143014
708.218	0.0144294
708.296	0.0144976
708.374	0.0143834
708.453	0.0143155
708.531	0.0144727
708.609	0.0144894
708.687	0.0143073
708.765	0.0142124
708.843	0.0140165
708.921	0.0141618
708.999	0.0140759
709.078	0.0140794
709.156	0.0140739
709.234	0.0141707
709.312	0.0139268
709.390	0.0138413
709.468	0.0139661
709.546	0.0138351
709.624	0.0139534
709.703	0.0139195
709.781	0.0137697
709.859	0.0138052
709.937	0.0137312
710.015	0.0137981
710.093	0.0136845
710.171	0.0136159
710.249	0.0135052
710.328	0.0134370
710.406	0.0136227
710.484	0.0135040
710.562	0.0134021
710.640	0.0134371
710.718	0.0133881
710.796	0.0131599
710.874	0.0133347
710.953	0.0133852
711.031	0.0134076
711.109	0.0133154
711.187	0.0133821
711.265	0.0134166
711.343	0.0133985
711.421	0.0134684
711.499	0.0135042
711.578	0.0134529
711.656	0.0134790
711.734	0.0136621
711.812	0.0135583
711.890	0.0136362
711.968	0.0136356
712.046	0.0136903
712.124	0.0137887
712.203	0.0139398
712.281	0.0138790
712.359	0.0140081
712.437	0.0139426
712.515	0.0140479
712.593	0.0139986
712.671	0.0140530
712.749	0.0140742
712.828	0.0140583
712.906	0.0138778
712.984	0.0139436
713.062	0.0139457
713.140	0.0139186
713.218	0.0140685
713.296	0.0140039
713.374	0.0140025
713.453	0.0140103
713.531	0.0138860
713.609	0.0140118
713.687	0.0140365
713.765	0.0138712
713.843	0.0137685
713.921	0.0138831
713.999	0.0136893
714.078	0.0137732
714.156	0.0138941
714.234	0.0140454
714.312	0.0137753
714.390	0.0138161
714.468	0.0138568
714.546	0.0139603
714.624	0.0139204
714.703	0.0139455
714.781	0.0139804
714.859	0.0140086
714.937	0.0141652
715.015	0.0140841
715.093	0.0139770
715.171	0.0140974
715.249	0.0138443
715.328	0.0139306
715.406	0.0139037
715.484	0.0138216
715.562	0.0138471
715.640	0.0138244
715.718	0.0137527
715.796	0.0136215
715.874	0.0136106
715.953	0.0137669
716.031	0.0136343
716.109	0.0136108
716.187	0.0136974
716.265	0.0137845
716.343	0.0135453
716.421	0.0136264
716.499	0.0136098
716.578	0.0135024
716.656	0.0134256
716.734	0.0133833
716.812	0.0133987
716.890	0.0135428
716.968	0.0134489
717.046	0.0133219
717.124	0.0134786
717.203	0.0135179
717.281	0.0135491
717.359	0.0133244
717.437	0.0135337
717.515	0.0134919
717.593	0.0136292
717.671	0.0136282
717.749	0.0134814
717.828	0.0135606
717.906	0.0136007
717.984	0.0135964
718.062	0.0136617
718.140	0.0136263
718.218	0.0136900
718.296	0.0134859
718.374	0.0135545
718.453	0.0135563
718.531	0.0135667
718.609	0.0134736
718.687	0.0134669
718.765	0.0134100
718.843	0.0136166
718.921	0.0136224
718.999	0.0135636
719.078	0.0136258
719.156	0.0136010
719.234	0.0136587
719.312	0.0137446
719.390	0.0137366
719.468	0.0137656
719.546	0.0138554
719.624	0.0137128
719.703	0.0138150
719.781	0.0138694
719.859	0.0139661
719.937	0.0140170
720.015	0.0139526
720.093	0.0140070
720.171	0.0140923
720.249	0.0141521
720.328	0.0143145
720.406	0.0141723
720.484	0.0141690
720.562	0.0141840
720.640	0.0141850
720.718	0.0141405
720.796	0.0142383
720.874	0.0141361
720.953	0.0143312
721.031	0.0144242
721.109	0.0140158
721.187	0.0141116
721.265	0.0140975
721.343	0.0141676
721.421	0.0140219
721.499	0.0139783
721.578	0.0139890
721.656	0.0137775
721.734	0.0139774
721.812	0.0138432
721.890	0.0137677
721.968	0.0136342
722.046	0.0136034
722.124	0.0134953
722.203	0.0133425
722.281	0.0132380
722.359	0.0133788
722.437	0.0131483
722.515	0.0130775
722.593	0.0131899
722.671	0.0130423
722.749	0.0131596
722.828	0.0130356
722.906	0.0130522
722.984	0.0131458
723.062	0.0131127
723.140	0.0132256
723.218	0.0131593
723.296	0.0132158
723.374	0.0133654
723.453	0.0133334
723.531	0.0133499
723.609	0.0133951
723.687	0.0134743
723.765	0.0135406
723.843	0.0137632
723.921	0.0137518
723.999	0.0136968
724.078	0.0138283
724.156	0.0137465
724.234	0.0138344
724.312	0.0138330
724.390	0.0137736
724.468	0.0138135
724.546	0.0139916
724.624	0.0140084
724.703	0.0138539
724.781	0.0139150
724.859	0.0138641
724.937	0.0139748
725.015	0.0137976
725.093	0.0138580
725.171	0.0138066
725.249	0.0138956
725.328	0.0138342
725.406	0.0139116
725.484	0.0137903
725.562	0.0135120
725.640	0.0137958
725.718	0.0137352
725.796	0.0137421
725.874	0.0137109
725.953	0.0137989
726.031	0.0138596
726.109	0.0138013
726.187	0.0136572
726.265	0.0136530
726.343	0.0138174
726.421	0.0138225
726.499	0.0137557
726.578	0.0135820
726.656	0.0137105
726.734	0.0136795
726.812	0.0137170
726.890	0.0136790
726.968	0.0135912
727.046	0.0135967
727.124	0.0136173
727.203	0.0135846
727.281	0.0136240
727.359	0.0135391
727.437	0.0137535
727.515	0.0136781
727.593	0.0136681
727.671	0.0134741
727.749	0.0135967
727.828	0.0137163
727.906	0.0137166
727.984	0.0137212
728.062	0.0136980
728.140	0.0137807
728.218	0.0138706
728.296	0.0139217
728.374	0.0139010
728.453	0.0136651
728.531	0.0137311
728.609	0.0139698
728.687	0.0138052
728.765	0.0137404
728.843	0.0137994
728.921	0.0140869
728.999	0.0138677
729.078	0.0138692
729.156	0.0139821
729.234	0.0137650
729.312	0.0136029
729.390	0.0137002
729.468	0.0136900
729.546	0.0137269
729.624	0.0138705
729.703	0.0136513
729.781	0.0136607
729.859	0.0138055
729.937	0.0136468
730.015	0.0136501
730.093	0.0135684
730.171	0.0137788
730.249	0.0136211
730.328	0.0135136
730.406	0.0135010
730.484	0.0134180
730.562	0.0134363
730.640	0.0133745
730.718	0.0135454
730.796	0.0135062
730.874	0.0134454
730.953	0.0134097
731.031	0.0134702
731.109	0.0133302
731.187	0.0134426
731.265	0.0134967
731.343	0.0134669
731.421	0.0135311
731.499	0.0134563
731.578	0.0136996
731.656	0.0136992
731.734	0.0136251
731.812	0.0138067
731.890	0.0136014
731.968	0.0138733
732.046	0.0139548
732.124	0.0138298
732.203	0.0139018
732.281	0.0141042
732.359	0.0140933
732.437	0.0140307
732.515	0.0140362
732.593	0.0139451
732.671	0.0140117
732.749	0.0140852
732.828	0.0140598
732.906	0.0140588
732.984	0.0140023
733.062	0.0141389
733.140	0.0141164
733.218	0.0142083
733.296	0.0141291
733.374	0.0140553
733.453	0.0140733
733.531	0.0140644
733.609	0.0142625
733.687	0.0141340
733.765	0.0141462
733.843	0.0140572
733.921	0.0139752
733.999	0.0140313
734.078	0.0141245
734.156	0.0141425
734.234	0.0140369
734.312	0.0139577
734.390	0.0138616
734.468	0.0139969
734.546	0.0138633
734.624	0.0138978
734.703	0.0137914
734.781	0.0137181
734.859	0.0138137
734.937	0.0137724
735.015	0.0135953
735.093	0.0137189
735.171	0.0136726
735.249	0.0136170
735.328	0.0135700
735.406	0.0137411
735.484	0.0134663
735.562	0.0136301
735.640	0.0136562
735.718	0.0136287
735.796	0.0135825
735.874	0.0135770
735.953	0.0136667
736.031	0.0135363
736.109	0.0135339
736.187	0.0136142
736.265	0.0135719
736.343	0.0135329
736.421	0.0135255
736.499	0.0135065
736.578	0.0132497
736.656	0.0135224
736.734	0.0135477
736.812	0.0134850
736.890	0.0134933
736.968	0.0134826
737.046	0.0135648
737.124	0.0134923
737.203	0.0135945
737.281	0.0136156
737.359	0.0135474
737.437	0.0137186
737.515	0.0136788
737.593	0.0136882
737.671	0.0137080
737.749	0.0137661
737.828	0.0136858
737.906	0.0137995
737.984	0.0136353
738.062	0.0138445
738.140	0.0138174
738.218	0.0138441
738.296	0.0138805
738.374	0.0139635
738.453	0.0140337
738.531	0.0139430
738.609	0.0139442
738.687	0.0141161
738.765	0.0140648
738.843	0.0139668
738.921	0.0139867
738.999	0.0139621
739.078	0.0138654
739.156	0.0138724
739.234	0.0140540
739.312	0.0139742
739.390	0.0140718
739.468	0.0139452
739.546	0.0137796
739.624	0.0140560
739.703	0.0137444
739.781	0.0137524
739.859	0.0136001
739.937	0.0135563
740.015	0.0137518
740.093	0.0136367
740.171	0.0136185
740.249	0.0136257
740.328	0.0136567
740.406	0.0136099
740.484	0.0136035
740.562	0.0135297
740.640	0.0136000
740.718	0.0135977
740.796	0.0136092
740.874	0.0136006
740.953	0.0137017
741.031	0.0136321
741.109	0.0136257
741.187	0.0136427
741.265	0.0137716
741.343	0.0138033
741.421	0.0136134
741.499	0.0136269
741.578	0.0137814
741.656	0.0138734
741.734	0.0137698
741.812	0.0137151
741.890	0.0137420
741.968	0.0137245
742.046	0.0138167
742.124	0.0137464
742.203	0.0137522
742.281	0.0138014
742.359	0.0138113
742.437	0.0138053
742.515	0.0138079
742.593	0.0137350
742.671	0.0137867
742.749	0.0137514
742.828	0.0136144
742.906	0.0136714
742.984	0.0136368
743.062	0.0137120
743.140	0.0138121
743.218	0.0136983
743.296	0.0138099
743.374	0.0137009
743.453	0.0137308
743.531	0.0136507
743.609	0.0137130
743.687	0.0136046
743.765	0.0136655
743.843	0.0136856
743.921	0.0136675
743.999	0.0136300
744.078	0.0136502
744.156	0.0136852
744.234	0.0137830
744.312	0.0136501
744.390	0.0136140
744.468	0.0136858
744.546	0.0136215
744.624	0.0138596
744.703	0.0138866
744.781	0.0138267
744.859	0.0138812
744.937	0.0137354
745.015	0.0138312
745.093	0.0139250
745.171	0.0139156
745.249	0.0139897
745.328	0.0141131
745.406	0.0140691
745.484	0.0140046
745.562	0.0141859
745.640	0.0141960
745.718	0.0141441
745.796	0.0140557
745.874	0.0142130
745.953	0.0142551
746.031	0.0139995
746.109	0.0139882
746.187	0.0140364
746.265	0.0140171
746.343	0.0139400
746.421	0.0138520
746.499	0.0139020
746.578	0.0139150
746.656	0.0138281
746.734	0.0138072
746.812	0.0138718
746.890	0.0138239
746.968	0.0137514
747.046	0.0136906
747.124	0.0137658
747.203	0.0136553
747.281	0.0136013
747.359	0.0137334
747.437	0.0135817
747.515	0.0135638
747.593	0.0136191
747.671	0.0136488
747.749	0.0135165
747.828	0.0136913
747.906	0.0137402
747.984	0.0137133
748.062	0.0136304
748.140	0.0136051
748.218	0.0136732
748.296	0.0137042
748.374	0.0137178
748.453	0.0136846
748.531	0.0136376
748.609	0.0136504
748.687	0.0138012
748.765	0.0137182
748.843	0.0138231
748.921	0.0138453
748.999	0.0138931
749.078	0.0139262
749.156	0.0137975
749.234	0.0139996
749.312	0.0139849
749.390	0.0139603
749.468	0.0139581
749.546	0.0139226
749.624	0.0139149
749.703	0.0138543
749.781	0.0138693
749.859	0.0138627
749.937	0.0139360
750.015	0.0138194
750.093	0.0137251
750.171	0.0135622
750.249	0.0137254
750.328	0.0137165
750.406	0.0136443
750.484	0.0135567
750.562	0.0134531
750.640	0.0134026
750.718	0.0134612
750.796	0.0134170
750.874	0.0134740
750.953	0.0134028
751.031	0.0135018
751.109	0.0133640
751.187	0.0133636
751.265	0.0133670
751.343	0.0135197
751.421	0.0134181
751.499	0.0132410
751.578	0.0132670
751.656	0.0134067
751.734	0.0131488
751.812	0.0132698
751.890	0.0134003
751.968	0.0134409
752.046	0.0134736
752.124	0.0134467
752.203	0.0134013
752.281	0.0133243
752.359	0.0133552
752.437	0.0135405
752.515	0.0134312
752.593	0.0134600
752.671	0.0135632
752.749	0.0134880
752.828	0.0136171
752.906	0.0134978
752.984	0.0135793
753.062	0.0134689
753.140	0.0135835
753.218	0.0136399
753.296	0.0136308
753.374	0.0136124
753.453	0.0137507
753.531	0.0137078
753.609	0.0137830
753.687	0.0136207
753.765	0.0136028
753.843	0.0137274
753.921	0.0137282
753.999	0.0135802
754.078	0.0137349
754.156	0.0136572
754.234	0.0135088
754.312	0.0136933
754.390	0.0135970
754.468	0.0136559
754.546	0.0136337
754.624	0.0137624
754.703	0.0135959
754.781	0.0134882
754.859	0.0135607
754.937	0.0134842
755.015	0.0133762
755.093	0.0135239
755.171	0.0134431
755.249	0.0134289
755.328	0.0135261
755.406	0.0133920
755.484	0.0134596
755.562	0.0133575
755.640	0.0134781
755.718	0.0134313
755.796	0.0133577
755.874	0.0134383
755.953	0.0134390
756.031	0.0135206
756.109	0.0135577
756.187	0.0136068
756.265	0.0134861
756.343	0.0135876
756.421	0.0137686
756.499	0.0139006
756.578	0.0137347
756.656	0.0136964
756.734	0.0137801
756.812	0.0138188
756.890	0.0139190
756.968	0.0139854
757.046	0.0140380
757.124	0.0140201
757.203	0.0140269
757.281	0.0140237
757.359	0.0141215
757.437	0.0139844
757.515	0.0141030
757.593	0.0140219
757.671	0.0140643
757.749	0.0138545
757.828	0.0140597
757.906	0.0139314
757.984	0.0140451
758.062	0.0140072
758.140	0.0139148
758.218	0.0139725
758.296	0.0138612
758.374	0.0139223
758.453	0.0139385
758.531	0.0138936
758.609	0.0139294
758.687	0.0137333
758.765	0.0137294
758.843	0.0137973
758.921	0.0137481
758.999	0.0137457
759.078	0.0136745
759.156	0.0136839
759.234	0.0136565
759.312	0.0134625
759.390	0.0134817
759.468	0.0135338
759.546	0.0136140
759.624	0.0136576
759.703	0.0135769
759.781	0.0137784
759.859	0.0135957
759.937	0.0136478
760.015	0.0135413
760.093	0.0134657
760.171	0.0136719
760.249	0.0137311
760.328	0.0136636
760.406	0.0136610
760.484	0.0138337
760.562	0.0137385
760.640	0.0137351
760.718	0.0136929
760.796	0.0138657
760.874	0.0140121
760.953	0.0140352
761.031	0.0139831
761.109	0.0139728
761.187	0.0140086
761.265	0.0138124
761.343	0.0140703
761.421	0.0139886
761.499	0.0140396
761.578	0.0140638
761.656	0.0139249
761.734	0.0141324
761.812	0.0141998
761.890	0.0142029
761.968	0.0142721
762.046	0.0141383
762.124	0.0141969
762.203	0.0140777
762.281	0.0141075
762.359	0.0141335
762.437	0.0141704
762.515	0.0140892
762.593	0.0141007
762.671	0.0142577
762.749	0.0141237
762.828	0.0137962
762.906	0.0140598
762.984	0.0139174
763.062	0.0140173
763.140	0.0138747
763.218	0.0137750
763.296	0.0138783
763.374	0.0138731
763.453	0.0136971
763.531	0.0136456
763.609	0.0136599
763.687	0.0136176
763.765	0.0135769
763.843	0.0137167
763.921	0.0136723
763.999	0.0135516
764.078	0.0137006
764.156	0.0137078
764.234	0.0136579
764.312	0.0136082
764.390	0.0135871
764.468	0.0135860
764.546	0.0135415
764.624	0.0135815
764.703	0.0135614
764.781	0.0136884
764.859	0.0136570
764.937	0.0135593
765.015	0.0134832
765.093	0.0136562
765.171	0.0135967
765.249	0.0135284
765.328	0.0136092
765.406	0.0136696
765.484	0.0136813
765.562	0.0137376
765.640	0.0137024
765.718	0.0136205
765.796	0.0136862
765.874	0.0137747
765.953	0.0137624
766.031	0.0138843
766.109	0.0138354
766.187	0.0137869
766.265	0.0137619
766.343	0.0136180
766.421	0.0138979
766.499	0.0138980
766.578	0.0138957
766.656	0.0139704
766.734	0.0138047
766.812	0.0137287
766.890	0.0138544
766.968	0.0138557
767.046	0.0137762
767.124	0.0139111
767.203	0.0137303
767.281	0.0137698
767.359	0.0139052
767.437	0.0139542
767.515	0.0137281
767.593	0.0138937
767.671	0.0138529
767.749	0.0138297
767.828	0.0138138
767.906	0.0137887
767.984	0.0138271
768.062	0.0137827
768.140	0.0137553
768.218	0.0137575
768.296	0.0138859
768.374	0.0138071
768.453	0.0137977
768.531	0.0138448
768.609	0.0137468
768.687	0.0138400
768.765	0.0138010
768.843	0.0137949
768.921	0.0137835
768.999	0.0137910
769.078	0.0137288
769.156	0.0138712
769.234	0.0139520
769.312	0.0137808
769.390	0.0137766
769.468	0.0138606
769.546	0.0138824
769.624	0.0138885
769.703	0.0139063
769.781	0.0138480
769.859	0.0137346
769.937	0.0138866
770.015	0.0137492
770.093	0.0136618
770.171	0.0137698
770.249	0.0138998
770.328	0.0138097
770.406	0.0136465
770.484	0.0136934
770.562	0.0137660
770.640	0.0138064
770.718	0.0136758
770.796	0.0136526
770.874	0.0135815
770.953	0.0136647
771.031	0.0136386
771.109	0.0135581
771.187	0.0133665
771.265	0.0136225
771.343	0.0134114
771.421	0.0135094
771.499	0.0134645
771.578	0.0133470
771.656	0.0133121
771.734	0.0133861
771.812	0.0132938
771.890	0.0132545
771.968	0.0132406
772.046	0.0131875
772.124	0.0133648
772.203	0.0134995
772.281	0.0133054
772.359	0.0133412
772.437	0.0134192
772.515	0.0133965
772.593	0.0133296
772.671	0.0136010
772.749	0.0135793
772.828	0.0134946
772.906	0.0135705
772.984	0.0135835
773.062	0.0136209
773.140	0.0136346
773.218	0.0136381
773.296	0.0137822
773.374	0.0138263
773.453	0.0138299
773.531	0.0137057
773.609	0.0137669
773.687	0.0137615
773.765	0.0139810
773.843	0.0137247
773.921	0.0138002
773.999	0.0137373
774.078	0.0136872
774.156	0.0138000
774.234	0.0137684
774.312	0.0137367
774.390	0.0138902
774.468	0.0137144
774.546	0.0136604
774.624	0.0137982
774.703	0.0138337
774.781	0.0138585
774.859	0.0138377
774.937	0.0138540
775.015	0.0137373
775.093	0.0138608
775.171	0.0139017
775.249	0.0137687
775.328	0.0137367
775.406	0.0138403
775.484	0.0138328
775.562	0.0137200
775.640	0.0137625
775.718	0.0137399
775.796	0.0137059
775.874	0.0137324
775.953	0.0136699
776.031	0.0137895
776.109	0.0135712
776.187	0.0136250
776.265	0.0136474
776.343	0.0136953
776.421	0.0138183
776.499	0.0136893
776.578	0.0137716
776.656	0.0137154
776.734	0.0136667
776.812	0.0135926
776.890	0.0136100
776.968	0.0135325
777.046	0.0136195
777.124	0.0135559
777.203	0.0133875
777.281	0.0135743
777.359	0.0135943
777.437	0.0135026
777.515	0.0135562
777.593	0.0135622
777.671	0.0135276
777.749	0.0134717
777.828	0.0132792
777.906	0.0135467
777.984	0.0136525
778.062	0.0134631
778.140	0.0134609
778.218	0.0135606
778.296	0.0135647
778.374	0.0133417
778.453	0.0135835
778.531	0.0137013
778.609	0.0135827
778.687	0.0135612
778.765	0.0136272
778.843	0.0136818
778.921	0.0135612
778.999	0.0136253
779.078	0.0136535
779.156	0.0134354
779.234	0.0136783
779.312	0.0136799
779.390	0.0137317
779.468	0.0136211
779.546	0.0136459
779.624	0.0136898
779.703	0.0137029
779.781	0.0137133
779.859	0.0138008
779.937	0.0138013
780.015	0.0136977
780.093	0.0136027
780.171	0.0136305
780.249	0.0136839
780.328	0.0136492
780.406	0.0136284
780.484	0.0136646
780.562	0.0136612
780.640	0.0135155
780.718	0.0136108
780.796	0.0136324
780.874	0.0137139
780.953	0.0137012
781.031	0.0137510
781.109	0.0140047
781.187	0.0137057
781.265	0.0137093
781.343	0.0137186
781.421	0.0139695
781.499	0.0135902
781.578	0.0136005
781.656	0.0134826
781.734	0.0135375
781.812	0.0135261
781.890	0.0136257
781.968	0.0136803
782.046	0.0137565
782.124	0.0139240
782.203	0.0138188
782.281	0.0137428
782.359	0.0137946
782.437	0.0138235
782.515	0.0138634
782.593	0.0139710
782.671	0.0137281
782.749	0.0138321
782.828	0.0139095
782.906	0.0138325
782.984	0.0138412
783.062	0.0136993
783.140	0.0138168
783.218	0.0137805
783.296	0.0137022
783.374	0.0137077
783.453	0.0136651
783.531	0.0138071
783.609	0.0136965
783.687	0.0136792
783.765	0.0137239
783.843	0.0136456
783.921	0.0137012
783.999	0.0137012
784.078	0.0135842
784.156	0.0137740
784.234	0.0137476
784.312	0.0137510
784.390	0.0138486
784.468	0.0137301
784.546	0.0135957
784.624	0.0138811
784.703	0.0137772
784.781	0.0135583
784.859	0.0136791
784.937	0.0136037
785.015	0.0135823
785.093	0.0134756
785.171	0.0134762
785.249	0.0134373
785.328	0.0135981
785.406	0.0134696
785.484	0.0137228
785.562	0.0138219
785.640	0.0137679
785.718	0.0139187
785.796	0.0137935
785.874	0.0139746
785.953	0.0139351
786.031	0.0141042
786.109	0.0138645
786.187	0.0138544
786.265	0.0139510
786.343	0.0138464
786.421	0.0137939
786.499	0.0138244
786.578	0.0137936
786.656	0.0136031
786.734	0.0137393
786.812	0.0137169
786.890	0.0137371
786.968	0.0136827
787.046	0.0139042
787.124	0.0139843
787.203	0.0140739
787.281	0.0140642
787.359	0.0141344
787.437	0.0141821
787.515	0.0142015
787.593	0.0139942
787.671	0.0138509
787.749	0.0140346
787.828	0.0139018
787.906	0.0138194
787.984	0.0135862
788.062	0.0136055
788.140	0.0134310
788.218	0.0135163
788.296	0.0134400
788.374	0.0134198
788.453	0.0133646
788.531	0.0134678
788.609	0.0136709
788.687	0.0136662
788.765	0.0137901
788.843	0.0138619
788.921	0.0140033
788.999	0.0140520
789.078	0.0141685
789.156	0.0140791
789.234	0.0140376
789.312	0.0139851
789.390	0.0138960
789.468	0.0138158
789.546	0.0137214
789.624	0.0137969
789.703	0.0137113
789.781	0.0135750
789.859	0.0135444
789.937	0.0135918
790.015	0.0136321
790.093	0.0136841
790.171	0.0137257
790.249	0.0138404
790.328	0.0140592
790.406	0.0139317
790.484	0.0138279
790.562	0.0139201
790.640	0.0140768
790.718	0.0141096
790.796	0.0139712
790.874	0.0138056
790.953	0.0136963
791.031	0.0137635
791.109	0.0136502
791.187	0.0137994
791.265	0.0137269
791.343	0.0133791
791.421	0.0134518
791.499	0.0135422
791.578	0.0137730
791.656	0.0137408
791.734	0.0138642
791.812	0.0138070
791.890	0.0140447
791.968	0.0140108
792.046	0.0140616
792.124	0.0139362
792.203	0.0139525
792.281	0.0139700
792.359	0.0139744
792.437	0.0139166
792.515	0.0139399
792.593	0.0139754
792.671	0.0139441
792.749	0.0137503
792.828	0.0138732
792.906	0.0136662
792.984	0.0137309
793.062	0.0136645
793.140	0.0136333
793.218	0.0135359
793.296	0.0136735
793.374	0.0136198
793.453	0.0135513
793.531	0.0135637
793.609	0.0137256
793.687	0.0135580
793.765	0.0138705
793.843	0.0138636
793.921	0.0139564
793.999	0.0138692
794.078	0.0139941
794.156	0.0139602
794.234	0.0138958
794.312	0.0136929
794.390	0.0137092
794.468	0.0136973
794.546	0.0135727
794.624	0.0136384
794.703	0.0134760
794.781	0.0134431
794.859	0.0134400
794.937	0.0135270
795.015	0.0136263
795.093	0.0135770
795.171	0.0135747
795.249	0.0136977
795.328	0.0138580
795.406	0.0136304
795.484	0.0136695
795.562	0.0138170
795.640	0.0139285
795.718	0.0136902
795.796	0.0138006
795.874	0.0137508
795.953	0.0136501
796.031	0.0135812
796.109	0.0136511
796.187	0.0135649
796.265	0.0135973
796.343	0.0135313
796.421	0.0135014
796.499	0.0135303
796.578	0.0136543
796.656	0.0135373
796.734	0.0136703
796.812	0.0137203
796.890	0.0136643
796.968	0.0136346
797.046	0.0134907
797.124	0.0136740
797.203	0.0136112
797.281	0.0135088
797.359	0.0135892
797.437	0.0137297
797.515	0.0135483
797.593	0.0135770
797.671	0.0136234
797.749	0.0137102
797.828	0.0138484
797.906	0.0136623
797.984	0.0136640
798.062	0.0136273
798.140	0.0137098
798.218	0.0137045
798.296	0.0137805
798.374	0.0135554
798.453	0.0137570
798.531	0.0136524
798.609	0.0136757
798.687	0.0137628
798.765	0.0137087
798.843	0.0137729
798.921	0.0137476
798.999	0.0138114
799.078	0.0139654
799.156	0.0140611
799.234	0.0139265
799.312	0.0139533
799.390	0.0138946
799.468	0.0140037
799.546	0.0139677
799.624	0.0138319
799.703	0.0138544
799.781	0.0139275
799.859	0.0137873
799.937	0.0138969
800.015	0.0135468
800.093	0.0136878
800.171	0.0135830
800.249	0.0135075
800.328	0.0134782
800.406	0.0134319
800.484	0.0134780
800.562	0.0133170
800.640	0.0133342
800.718	0.0134099
800.796	0.0133921
800.874	0.0133138
800.953	0.0133199
801.031	0.0134308
801.109	0.0133868
801.187	0.0134097
801.265	0.0135657
801.343	0.0135520
801.421	0.0134708
801.499	0.0135715
801.578	0.0137176
801.656	0.0137905
801.734	0.0137752
801.812	0.0138557
801.890	0.0138569
801.968	0.0137677
802.046	0.0137103
802.124	0.0139758
802.203	0.0139161
802.281	0.0137955
802.359	0.0136137
802.437	0.0137793
802.515	0.0136504
802.593	0.0136442
802.671	0.0136117
802.749	0.0134777
802.828	0.0136743
802.906	0.0137012
802.984	0.0136933
803.062	0.0137933
803.140	0.0137358
803.218	0.0138271
803.296	0.0139075
803.374	0.0138272
803.453	0.0137881
803.531	0.0137570
803.609	0.0135738
803.687	0.0136755
803.765	0.0135626
803.843	0.0134969
803.921	0.0136450
803.999	0.0135445
804.078	0.0135071
804.156	0.0135429
804.234	0.0136562
804.312	0.0137233
804.390	0.0138251
804.468	0.0137795
804.546	0.0138283
804.624	0.0140003
804.703	0.0140605
804.781	0.0140604
804.859	0.0140941
804.937	0.0140627
805.015	0.0138975
805.093	0.0137815
805.171	0.0137744
805.249	0.0136053
805.328	0.0136758
805.406	0.0135795
805.484	0.0135164
805.562	0.0135947
805.640	0.0136427
805.718	0.0134605
805.796	0.0136360
805.874	0.0136385
805.953	0.0134881
806.031	0.0137521
806.109	0.0137162
806.187	0.0137661
806.265	0.0136565
806.343	0.0137002
806.421	0.0135430
806.499	0.0133682
806.578	0.0134449
806.656	0.0134653
806.734	0.0133705
806.812	0.0133555
806.890	0.0134982
806.968	0.0134165
807.046	0.0134457
807.124	0.0136368
807.203	0.0138436
807.281	0.0136370
807.359	0.0138591
807.437	0.0139903
807.515	0.0140597
807.593	0.0139986
807.671	0.0138615
807.749	0.0139405
807.828	0.0138815
807.906	0.0138331
807.984	0.0138996
808.062	0.0137504
808.140	0.0137151
808.218	0.0136500
808.296	0.0135199
808.374	0.0134087
808.453	0.0133476
808.531	0.0133744
808.609	0.0133722
808.687	0.0134667
808.765	0.0135588
808.843	0.0135561
808.921	0.0137939
808.999	0.0137235
809.078	0.0137630
809.156	0.0137700
809.234	0.0139847
809.312	0.0140069
809.390	0.0139168
809.468	0.0139775
809.546	0.0139503
809.624	0.0139085
809.703	0.0139931
809.781	0.0140636
809.859	0.0139298
809.937	0.0139611
810.015	0.0138861
810.093	0.0138964
810.171	0.0139156
810.249	0.0139330
810.328	0.0137321
810.406	0.0138044
810.484	0.0138103
810.562	0.0138968
810.640	0.0137701
810.718	0.0139192
810.796	0.0138145
810.874	0.0137238
810.953	0.0138689
811.031	0.0136195
811.109	0.0138200
811.187	0.0137213
811.265	0.0136348
811.343	0.0137817
811.421	0.0137292
811.499	0.0136658
811.578	0.0136383
811.656	0.0136849
811.734	0.0137773
811.812	0.0137090
811.890	0.0137191
811.968	0.0137290
812.046	0.0137537
812.124	0.0136737
812.203	0.0137523
812.281	0.0137466
812.359	0.0138206
812.437	0.0138524
812.515	0.0139017
812.593	0.0137894
812.671	0.0140507
812.749	0.0140286
812.828	0.0140540
812.906	0.0139892
812.984	0.0136963
813.062	0.0139258
813.140	0.0138783
813.218	0.0138777
813.296	0.0137660
813.374	0.0136174
813.453	0.0135650
813.531	0.0135227
813.609	0.0135115
813.687	0.0134526
813.765	0.0133604
813.843	0.0133715
813.921	0.0134454
813.999	0.0132697
814.078	0.0132037
814.156	0.0133794
814.234	0.0135539
814.312	0.0135941
814.390	0.0133896
814.468	0.0135970
814.546	0.0137083
814.624	0.0136459
814.703	0.0137348
814.781	0.0137627
814.859	0.0138802
814.937	0.0138655
815.015	0.0137487
815.093	0.0135493
815.171	0.0139352
815.249	0.0137849
815.328	0.0138562
815.406	0.0137029
815.484	0.0137132
815.562	0.0137334
815.640	0.0137081
815.718	0.0138155
815.796	0.0138607
815.874	0.0137757
815.953	0.0138219
816.031	0.0138424
816.109	0.0139565
816.187	0.0138986
816.265	0.0138984
816.343	0.0138369
816.421	0.0138905
816.499	0.0139861
816.578	0.0139733
816.656	0.0137593
816.734	0.0136985
816.812	0.0135610
816.890	0.0137062
816.968	0.0135732
817.046	0.0134808
817.124	0.0135343
817.203	0.0135976
817.281	0.0135344
817.359	0.0136637
817.437	0.0135874
817.515	0.0135621
817.593	0.0136733
817.671	0.0137130
817.749	0.0137499
817.828	0.0138423
817.906	0.0138757
817.984	0.0137963
818.062	0.0137856
818.140	0.0139967
818.218	0.0139931
818.296	0.0139525
818.374	0.0139770
818.453	0.0140211
818.531	0.0139389
818.609	0.0137655
818.687	0.0138504
818.765	0.0139503
818.843	0.0138500
818.921	0.0138680
818.999	0.0137531
819.078	0.0137350
819.156	0.0138184
819.234	0.0137347
819.312	0.0137567
819.390	0.0136269
819.468	0.0134571
819.546	0.0135546
819.624	0.0135917
819.703	0.0136030
819.781	0.0136835
819.859	0.0135350
819.937	0.0136624
820.015	0.0135786
820.093	0.0136730
820.171	0.0136164
820.249	0.0136581
820.328	0.0136832
820.406	0.0136324
820.484	0.0136506
820.562	0.0137473
820.640	0.0136524
820.718	0.0135307
820.796	0.0135524
820.874	0.0136404
820.953	0.0136647
821.031	0.0136251
821.109	0.0135931
821.187	0.0136258
821.265	0.0134576
821.343	0.0133518
821.421	0.0134867
821.499	0.0133350
821.578	0.0133580
821.656	0.0136057
821.734	0.0134214
821.812	0.0135197
821.890	0.0135963
821.968	0.0135147
822.046	0.0136254
822.124	0.0136034
822.203	0.0137422
822.281	0.0137438
822.359	0.0136916
822.437	0.0136661
822.515	0.0137753
822.593	0.0138396
822.671	0.0138269
822.749	0.0139448
822.828	0.0138697
822.906	0.0140030
822.984	0.0139175
823.062	0.0138393
823.140	0.0140184
823.218	0.0140067
823.296	0.0141620
823.374	0.0141763
823.453	0.0140145
823.531	0.0140778
823.609	0.0139568
823.687	0.0139594
823.765	0.0140784
823.843	0.0139810
823.921	0.0138660
823.999	0.0138791
824.078	0.0138397
824.156	0.0138634
824.234	0.0138263
824.312	0.0137652
824.390	0.0136438
824.468	0.0139587
824.546	0.0137341
824.624	0.0136693
824.703	0.0138059
824.781	0.0136935
824.859	0.0137542
824.937	0.0137639
825.015	0.0138007
825.093	0.0137263
825.171	0.0136417
825.249	0.0136033
825.328	0.0134946
825.406	0.0135828
825.484	0.0136001
825.562	0.0137768
825.640	0.0135445
825.718	0.0135195
825.796	0.0134396
825.874	0.0134121
825.953	0.0135147
826.031	0.0134705
826.109	0.0134730
826.187	0.0134785
826.265	0.0134718
826.343	0.0135511
826.421	0.0136747
826.499	0.0136694
826.578	0.0136462
826.656	0.0137064
826.734	0.0137760
826.812	0.0139532
826.890	0.0139693
826.968	0.0139064
827.046	0.0138512
827.124	0.0139886
827.203	0.0140693
827.281	0.0142046
827.359	0.0140991
827.437	0.0140607
827.515	0.0139225
827.593	0.0138287
827.671	0.0140307
827.749	0.0140290
827.828	0.0137821
827.906	0.0136872
827.984	0.0137567
828.062	0.0136906
828.140	0.0136137
828.218	0.0137353
828.296	0.0135957
828.374	0.0136096
828.453	0.0135953
828.531	0.0136460
828.609	0.0137001
828.687	0.0135994
828.765	0.0136224
828.843	0.0134622
828.921	0.0135186
828.999	0.0136626
829.078	0.0135303
829.156	0.0135619
829.234	0.0135815
829.312	0.0136379
829.390	0.0136530
829.468	0.0136671
829.546	0.0136073
829.624	0.0136076
829.703	0.0134664
829.781	0.0137308
829.859	0.0137110
829.937	0.0137099
830.015	0.0137908
830.093	0.0138136
830.171	0.0137261
830.249	0.0137869
830.328	0.0135132
830.406	0.0136657
830.484	0.0136560
830.562	0.0137184
830.640	0.0137347
830.718	0.0135317
830.796	0.0136306
830.874	0.0137656
830.953	0.0138958
831.031	0.0138229
831.109	0.0137883
831.187	0.0138645
831.265	0.0138496
831.343	0.0137827
831.421	0.0138882
831.499	0.0140094
831.578	0.0138716
831.656	0.0139025
831.734	0.0138149
831.812	0.0139488
831.890	0.0139667
831.968	0.0139555
832.046	0.0139533
832.124	0.0138515
832.203	0.0138060
832.281	0.0137357
832.359	0.0138226
832.437	0.0137563
832.515	0.0136414
832.593	0.0136655
832.671	0.0136696
832.749	0.0137569
832.828	0.0136203
832.906	0.0137239
832.984	0.0137541
833.062	0.0137772
833.140	0.0136394
833.218	0.0137571
833.296	0.0136495
833.374	0.0138378
833.453	0.0137619
833.531	0.0137962
833.609	0.0137978
833.687	0.0137726
833.765	0.0137200
833.843	0.0138128
833.921	0.0137572
833.999	0.0136188
834.078	0.0135856
834.156	0.0136903
834.234	0.0137557
834.312	0.0136262
834.390	0.0138006
834.468	0.0138417
834.546	0.0138361
834.624	0.0136890
834.703	0.0137060
834.781	0.0138222
834.859	0.0137012
834.937	0.0137900
835.015	0.0136658
835.093	0.0136575
835.171	0.0135924
835.249	0.0136627
835.328	0.0137042
835.406	0.0136221
835.484	0.0138142
835.562	0.0137175
835.640	0.0136533
835.718	0.0137466
835.796	0.0138776
835.874	0.0136654
835.953	0.0138607
836.031	0.0140042
836.109	0.0139447
836.187	0.0138372
836.265	0.0137714
836.343	0.0139433
836.421	0.0139488
836.499	0.0139241
836.578	0.0139123
836.656	0.0139400
836.734	0.0139253
836.812	0.0138888
836.890	0.0138084
836.968	0.0137696
837.046	0.0137603
837.124	0.0138683
837.203	0.0137319
837.281	0.0137950
837.359	0.0138480
837.437	0.0139322
837.515	0.0137843
837.593	0.0137333
837.671	0.0136790
837.749	0.0137761
837.828	0.0137084
837.906	0.0137222
837.984	0.0138377
838.062	0.0138706
838.140	0.0137480
838.218	0.0138294
838.296	0.0138857
838.374	0.0136871
838.453	0.0136391
838.531	0.0138674
838.609	0.0137140
838.687	0.0137289
838.765	0.0136674
838.843	0.0136539
838.921	0.0137001
838.999	0.0135313
839.078	0.0136346
839.156	0.0135984
839.234	0.0137006
839.312	0.0137688
839.390	0.0136694
839.468	0.0137144
839.546	0.0137261
839.624	0.0137413
839.703	0.0137753
839.781	0.0139116
839.859	0.0138172
839.937	0.0139138
840.015	0.0139153
840.093	0.0138246
840.171	0.0138496
840.249	0.0139211
840.328	0.0138637
840.406	0.0138432
840.484	0.0139327
840.562	0.0138870
840.640	0.0138016
840.718	0.0139052
840.796	0.0137493
840.874	0.0136720
840.953	0.0138296
841.031	0.0137904
841.109	0.0138373
841.187	0.0139487
841.265	0.0139010
841.343	0.0137630
841.421	0.0136962
841.499	0.0138222
841.578	0.0138335
841.656	0.0136015
841.734	0.0135540
841.812	0.0138037
841.890	0.0137759
841.968	0.0136575
842.046	0.0136033
842.124	0.0136162
842.203	0.0137348
842.281	0.0137247
842.359	0.0136150
842.437	0.0136357
842.515	0.0135821
842.593	0.0136972
842.671	0.0137328
842.749	0.0138672
842.828	0.0137969
842.906	0.0138117
842.984	0.0139183
843.062	0.0139768
843.140	0.0139336
843.218	0.0137707
843.296	0.0138374
843.374	0.0138532
843.453	0.0139561
843.531	0.0139067
843.609	0.0139052
843.687	0.0137737
843.765	0.0137199
843.843	0.0137662
843.921	0.0137022
843.999	0.0135992
844.078	0.0136045
844.156	0.0136443
844.234	0.0136398
844.312	0.0136037
844.390	0.0134653
844.468	0.0135651
844.546	0.0134542
844.624	0.0134908
844.703	0.0136672
844.781	0.0135842
844.859	0.0136915
844.937	0.0137468
845.015	0.0137607
845.093	0.0137035
845.171	0.0136116
845.249	0.0136317
845.328	0.0137731
845.406	0.0136277
845.484	0.0136415
845.562	0.0137674
845.640	0.0136005
845.718	0.0136015
845.796	0.0135580
845.874	0.0135845
845.953	0.0135356
846.031	0.0136472
846.109	0.0134697
846.187	0.0133608
846.265	0.0135144
846.343	0.0135508
846.421	0.0134241
846.499	0.0134694
846.578	0.0134383
846.656	0.0137180
846.734	0.0135490
846.812	0.0134992
846.890	0.0136324
846.968	0.0136323
847.046	0.0136349
847.124	0.0136743
847.203	0.0136491
847.281	0.0136750
847.359	0.0137290
847.437	0.0138402
847.515	0.0139964
847.593	0.0139152
847.671	0.0138245
847.749	0.0139024
847.828	0.0138310
847.906	0.0139184
847.984	0.0138503
848.062	0.0139560
848.140	0.0140092
848.218	0.0139320
848.296	0.0140231
848.374	0.0138766
848.453	0.0139449
848.531	0.0138640
848.609	0.0140255
848.687	0.0141074
848.765	0.0140664
848.843	0.0139056
848.921	0.0139419
848.999	0.0138992
849.078	0.0140268
849.156	0.0140085
849.234	0.0139293
849.312	0.0138766
849.390	0.0137228
849.468	0.0138814
849.546	0.0138891
849.624	0.0137344
849.703	0.0137266
849.781	0.0137091
849.859	0.0137159
849.937	0.0137226
850.015	0.0137992
850.093	0.0137709
850.171	0.0136058
850.249	0.0137513
850.328	0.0136858
850.406	0.0136451
850.484	0.0137543
850.562	0.0136082
850.640	0.0137671
850.718	0.0137576
850.796	0.0137440
850.874	0.0137747
850.953	0.0136789
851.031	0.0137653
851.109	0.0138681
851.187	0.0138206
851.265	0.0139198
851.343	0.0138206
851.421	0.0137182
851.499	0.0137989
851.578	0.0137477
851.656	0.0137818
851.734	0.0138098
851.812	0.0138670
851.890	0.0137839
851.968	0.0139142
852.046	0.0138988
852.124	0.0139481
852.203	0.0140097
852.281	0.0140032
852.359	0.0140785
852.437	0.0140141
852.515	0.0139879
852.593	0.0141052
852.671	0.0141010
852.749	0.0139775
852.828	0.0140674
852.906	0.0140186
852.984	0.0140170
853.062	0.0139620
853.140	0.0139075
853.218	0.0139149
853.296	0.0138692
853.374	0.0139462
853.453	0.0138778
853.531	0.0138527
853.609	0.0137334
853.687	0.0138602
853.765	0.0137782
853.843	0.0136946
853.921	0.0136761
853.999	0.0137380
854.078	0.0138119
854.156	0.0136828
854.234	0.0137482
854.312	0.0137254
854.390	0.0139120
854.468	0.0136523
854.546	0.0137724
854.624	0.0137791
854.703	0.0138564
854.781	0.0137852
854.859	0.0137588
854.937	0.0137498
855.015	0.0138272
855.093	0.0137182
855.171	0.0136977
855.249	0.0136376
855.328	0.0135715
855.406	0.0137872
855.484	0.0136712
855.562	0.0136312
855.640	0.0136253
855.718	0.0138635
855.796	0.0137537
855.874	0.0136792
855.953	0.0138176
856.031	0.0138131
856.109	0.0137671
856.187	0.0137798
856.265	0.0137846
856.343	0.0139142
856.421	0.0138566
856.499	0.0139401
856.578	0.0139563
856.656	0.0139246
856.734	0.0139690
856.812	0.0138136
856.890	0.0138445
856.968	0.0138218
857.046	0.0137294
857.124	0.0138602
857.203	0.0138340
857.281	0.0138017
857.359	0.0137438
857.437	0.0137030
857.515	0.0136234
857.593	0.0137609
857.671	0.0136584
857.749	0.0138706
857.828	0.0137704
857.906	0.0136202
857.984	0.0137954
858.062	0.0137605
858.140	0.0138345
858.218	0.0138168
858.296	0.0138557
858.374	0.0137746
858.453	0.0137971
858.531	0.0137762
858.609	0.0136803
858.687	0.0136767
858.765	0.0137520
858.843	0.0137140
858.921	0.0137428
858.999	0.0135910
859.078	0.0134997
859.156	0.0136021
859.234	0.0136983
859.312	0.0136555
859.390	0.0136150
859.468	0.0136127
859.546	0.0137108
859.624	0.0139529
859.703	0.0138139
859.781	0.0137749
859.859	0.0138733
859.937	0.0140026
860.015	0.0138714
860.093	0.0140037
860.171	0.0139494
860.249	0.0138478
860.328	0.0138796
860.406	0.0138034
860.484	0.0138445
860.562	0.0138000
860.640	0.0139903
860.718	0.0138161
860.796	0.0139140
860.874	0.0137798
860.953	0.0138872
861.031	0.0138638
861.109	0.0137693
861.187	0.0139018
861.265	0.0138238
861.343	0.0138364
861.421	0.0137498
861.499	0.0138058
861.578	0.0139388
861.656	0.0137798
861.734	0.0138068
861.812	0.0138612
861.890	0.0139603
861.968	0.0138070
862.046	0.0137189
862.124	0.0137853
862.203	0.0136886
862.281	0.0138567
862.359	0.0136913
862.437	0.0136205
862.515	0.0137138
862.593	0.0137247
862.671	0.0136272
862.749	0.0137505
862.828	0.0137020
862.906	0.0137177
862.984	0.0135964
863.062	0.0136206
863.140	0.0137450
863.218	0.0136621
863.296	0.0137582
863.374	0.0136853
863.453	0.0136619
863.531	0.0135966
863.609	0.0137096
863.687	0.0136662
863.765	0.0136996
863.843	0.0137730
863.921	0.0137096
863.999	0.0138112
864.078	0.0136507
864.156	0.0135623
864.234	0.0137614
864.312	0.0137843
864.390	0.0136878
864.468	0.0137110
864.546	0.0137019
864.624	0.0137080
864.703	0.0136810
864.781	0.0138090
864.859	0.0136623
864.937	0.0134087
865.015	0.0136371
865.093	0.0136131
865.171	0.0136266
865.249	0.0137299
865.328	0.0136028
865.406	0.0135766
865.484	0.0135897
865.562	0.0136704
865.640	0.0137032
865.718	0.0136397
865.796	0.0135348
865.874	0.0137067
865.953	0.0136096
866.031	0.0135730
866.109	0.0136774
866.187	0.0136044
866.265	0.0136174
866.343	0.0134984
866.421	0.0134957
866.499	0.0133419
866.578	0.0133611
866.656	0.0135075
866.734	0.0134476
866.812	0.0133685
866.890	0.0133543
866.968	0.0134111
867.046	0.0133809
867.124	0.0134526
867.203	0.0134862
867.281	0.0134572
867.359	0.0134956
867.437	0.0133247
867.515	0.0135030
867.593	0.0135984
867.671	0.0136208
867.749	0.0136716
867.828	0.0135816
867.906	0.0137735
867.984	0.0136779
868.062	0.0138805
868.140	0.0137746
868.218	0.0137402
868.296	0.0136970
868.374	0.0136765
868.453	0.0138013
868.531	0.0137295
868.609	0.0136861
868.687	0.0136109
868.765	0.0137053
868.843	0.0137574
868.921	0.0138039
868.999	0.0136886
869.078	0.0135900
869.156	0.0136745
869.234	0.0137196
869.312	0.0136443
869.390	0.0135885
869.468	0.0136716
869.546	0.0136220
869.624	0.0135815
869.703	0.0138530
869.781	0.0138193
869.859	0.0135373
869.937	0.0136884
870.015	0.0136985
870.093	0.0136949
870.171	0.0137460
870.249	0.0137408
870.328	0.0134827
870.406	0.0136336
870.484	0.0136340
870.562	0.0136413
870.640	0.0136674
870.718	0.0136245
870.796	0.0136929
870.874	0.0135575
870.953	0.0137601
871.031	0.0138145
871.109	0.0137518
871.187	0.0137561
871.265	0.0137377
871.343	0.0137611
871.421	0.0138052
871.499	0.0138123
871.578	0.0138435
871.656	0.0137109
871.734	0.0136950
871.812	0.0136602
871.890	0.0138392
871.968	0.0136037
872.046	0.0136020
872.124	0.0137354
872.203	0.0135084
872.281	0.0135612
872.359	0.0136224
872.437	0.0136192
872.515	0.0135433
872.593	0.0136320
872.671	0.0135270
872.749	0.0135400
872.828	0.0136046
872.906	0.0136806
872.984	0.0137140
873.062	0.0137033
873.140	0.0137671
873.218	0.0136873
873.296	0.0137807
873.374	0.0139376
873.453	0.0137966
873.531	0.0139987
873.609	0.0139078
873.687	0.0137991
873.765	0.0137679
873.843	0.0138847
873.921	0.0138133
873.999	0.0136866
874.078	0.0138262
874.156	0.0137613
874.234	0.0136959
874.312	0.0136251
874.390	0.0137644
874.468	0.0136913
874.546	0.0138694
874.624	0.0137581
874.703	0.0136812
874.781	0.0138349
874.859	0.0137843
874.937	0.0139296
875.015	0.0137960
875.093	0.0139085
875.171	0.0137486
875.249	0.0139048
875.328	0.0138740
875.406	0.0139298
875.484	0.0138448
875.562	0.0139369
875.640	0.0139720
875.718	0.0137948
875.796	0.0139865
875.874	0.0139554
875.953	0.0139750
876.031	0.0138589
876.109	0.0139783
876.187	0.0137775
876.265	0.0139470
876.343	0.0138652
876.421	0.0139076
876.499	0.0139490
876.578	0.0138225
876.656	0.0138303
876.734	0.0139052
876.812	0.0140374
876.890	0.0141173
876.968	0.0139835
877.046	0.0138828
877.124	0.0140248
877.203	0.0139334
877.281	0.0139884
877.359	0.0138776
877.437	0.0139638
877.515	0.0139973
877.593	0.0139188
877.671	0.0140089
877.749	0.0138019
877.828	0.0138243
877.906	0.0138831
877.984	0.0137771
878.062	0.0137803
878.140	0.0139780
878.218	0.0138429
878.296	0.0137928
878.374	0.0137225
878.453	0.0136999
878.531	0.0136276
878.609	0.0138026
878.687	0.0138485
878.765	0.0137642
878.843	0.0138722
878.921	0.0139372
878.999	0.0139487
879.078	0.0138249
879.156	0.0138399
879.234	0.0139172
879.312	0.0139059
879.390	0.0139639
879.468	0.0140333
879.546	0.0137792
879.624	0.0137849
879.703	0.0137526
879.781	0.0139695
879.859	0.0139195
879.937	0.0138780
880.015	0.0139541
880.093	0.0138518
880.171	0.0138258
880.249	0.0139603
880.328	0.0138358
880.406	0.0140161
880.484	0.0139937
880.562	0.0140061
880.640	0.0140220
880.718	0.0139367
880.796	0.0139278
880.874	0.0139035
880.953	0.0139678
881.031	0.0139500
881.109	0.0140639
881.187	0.0140250
881.265	0.0140276
881.343	0.0139358
881.421	0.0138867
881.499	0.0137902
881.578	0.0138718
881.656	0.0138316
881.734	0.0138766
881.812	0.0137865
881.890	0.0135817
881.968	0.0138900
882.046	0.0136893
882.124	0.0136296
882.203	0.0137308
882.281	0.0136990
882.359	0.0135415
882.437	0.0137533
882.515	0.0136656
882.593	0.0137700
882.671	0.0137247
882.749	0.0134514
882.828	0.0135593
882.906	0.0137025
882.984	0.0137025
883.062	0.0137271
883.140	0.0135175
883.218	0.0136695
883.296	0.0136470
883.374	0.0135981
883.453	0.0135645
883.531	0.0136810
883.609	0.0137240
883.687	0.0137270
883.765	0.0136173
883.843	0.0137507
883.921	0.0137794
883.999	0.0136534
884.078	0.0137778
884.156	0.0138735
884.234	0.0137492
884.312	0.0138287
884.390	0.0137112
884.468	0.0137060
884.546	0.0137332
884.624	0.0138426
884.703	0.0138594
884.781	0.0137009
884.859	0.0137518
884.937	0.0138000
885.015	0.0138408
885.093	0.0137390
885.171	0.0137735
885.249	0.0137690
885.328	0.0137671
885.406	0.0137366
885.484	0.0138439
885.562	0.0137433
885.640	0.0137861
885.718	0.0136842
885.796	0.0137947
885.874	0.0137410
885.953	0.0137330
886.031	0.0136753
886.109	0.0137277
886.187	0.0137926
886.265	0.0137683
886.343	0.0138036
886.421	0.0138168
886.499	0.0137870
886.578	0.0137867
886.656	0.0138718
886.734	0.0137460
886.812	0.0138514
886.890	0.0137848
886.968	0.0137433
887.046	0.0137816
887.124	0.0137668
887.203	0.0137671
887.281	0.0136649
887.359	0.0138313
887.437	0.0137813
887.515	0.0137973
887.593	0.0135633
887.671	0.0136497
887.749	0.0136950
887.828	0.0136424
887.906	0.0136532
887.984	0.0137495
888.062	0.0136931
888.140	0.0135319
888.218	0.0137304
888.296	0.0135854
888.374	0.0136509
888.453	0.0137056
888.531	0.0135421
888.609	0.0136294
888.687	0.0137573
888.765	0.0136758
888.843	0.0137376
888.921	0.0136112
888.999	0.0136387
889.078	0.0138064
889.156	0.0136285
889.234	0.0136813
889.312	0.0137462
889.390	0.0136295
889.468	0.0137109
889.546	0.0136921
889.624	0.0136707
889.703	0.0137682
889.781	0.0137373
889.859	0.0136714
889.937	0.0138235
890.015	0.0137877
890.093	0.0139081
890.171	0.0137461
890.249	0.0137012
890.328	0.0138762
890.406	0.0136808
890.484	0.0137186
890.562	0.0137867
890.640	0.0139087
890.718	0.0138594
890.796	0.0137057
890.874	0.0136741
890.953	0.0138367
891.031	0.0137550
891.109	0.0136381
891.187	0.0137801
891.265	0.0138183
891.343	0.0135949
891.421	0.0137152
891.499	0.0138020
891.578	0.0137205
891.656	0.0135395
891.734	0.0135287
891.812	0.0136814
891.890	0.0136433
891.968	0.0137459
892.046	0.0135843
892.124	0.0136192
892.203	0.0136541
892.281	0.0136001
892.359	0.0136821
892.437	0.0136893
892.515	0.0136826
892.593	0.0137435
892.671	0.0138092
892.749	0.0137254
892.828	0.0134651
892.906	0.0137464
892.984	0.0136333
893.062	0.0136801
893.140	0.0135567
893.218	0.0135578
893.296	0.0136887
893.374	0.0135707
893.453	0.0136454
893.531	0.0136984
893.609	0.0137737
893.687	0.0136691
893.765	0.0137334
893.843	0.0137172
893.921	0.0136961
893.999	0.0136012
894.078	0.0136680
894.156	0.0135937
894.234	0.0136752
894.312	0.0137440
894.390	0.0137817
894.468	0.0138267
894.546	0.0137322
894.624	0.0136805
894.703	0.0137931
894.781	0.0137315
894.859	0.0136336
894.937	0.0137889
895.015	0.0137847
895.093	0.0137109
895.171	0.0136316
895.249	0.0137283
895.328	0.0136767
895.406	0.0136068
895.484	0.0136736
895.562	0.0138052
895.640	0.0137555
895.718	0.0138405
895.796	0.0137574
895.874	0.0137386
895.953	0.0137124
896.031	0.0138297
896.109	0.0138178
896.187	0.0137632
896.265	0.0137064
896.343	0.0138114
896.421	0.0137534
896.499	0.0137865
896.578	0.0138976
896.656	0.0139023
896.734	0.0137814
896.812	0.0137033
896.890	0.0138651
896.968	0.0137780
897.046	0.0137727
897.124	0.0137113
897.203	0.0137331
897.281	0.0137592
897.359	0.0137697
897.437	0.0137531
897.515	0.0138893
897.593	0.0137835
897.671	0.0137367
897.749	0.0137302
897.828	0.0136688
897.906	0.0137924
897.984	0.0137290
898.062	0.0137323
898.140	0.0137441
898.218	0.0135923
898.296	0.0136287
898.374	0.0137189
898.453	0.0136256
898.531	0.0136087
898.609	0.0136472
898.687	0.0136223
898.765	0.0136636
898.843	0.0136435
898.921	0.0136990
898.999	0.0136341
899.078	0.0135365
899.156	0.0136415
899.234	0.0137118
899.312	0.0135586
899.390	0.0134945
899.468	0.0135954
899.546	0.0136667
899.624	0.0137401
899.703	0.0137263
899.781	0.0136893
899.859	0.0135782
899.937	0.0136447
900.015	0.0136298
900.093	0.0136513
900.171	0.0137919
900.249	0.0137436
900.328	0.0137418
900.406	0.0136910
900.484	0.0137657
900.562	0.0137637
900.640	0.0137836
900.718	0.0139222
900.796	0.0138922
900.874	0.0139109
900.953	0.0139246
901.031	0.0138682
901.109	0.0139846
901.187	0.0138123
901.265	0.0139186
901.343	0.0140249
901.421	0.0138879
901.499	0.0139204
901.578	0.0139510
901.656	0.0138978
901.734	0.0137385
901.812	0.0138686
901.890	0.0140131
901.968	0.0138847
902.046	0.0138893
902.124	0.0137885
902.203	0.0137037
902.281	0.0138660
902.359	0.0139141
902.437	0.0136475
902.515	0.0137086
902.593	0.0139080
902.671	0.0137554
902.749	0.0136809
902.828	0.0138361
902.906	0.0138207
902.984	0.0138544
903.062	0.0139131
903.140	0.0136896
903.218	0.0138270
903.296	0.0137117
903.374	0.0137168
903.453	0.0136727
903.531	0.0137075
903.609	0.0137882
903.687	0.0137583
903.765	0.0138049
903.843	0.0136655
903.921	0.0137766
903.999	0.0138542
904.078	0.0136943
904.156	0.0137491
904.234	0.0138555
904.312	0.0137953
904.390	0.0138501
904.468	0.0137222
904.546	0.0136623
904.624	0.0138908
904.703	0.0139337
904.781	0.0137699
904.859	0.0139696
904.937	0.0137944
905.015	0.0138531
905.093	0.0138899
905.171	0.0137846
905.249	0.0137844
905.328	0.0137202
905.406	0.0137809
905.484	0.0136562
905.562	0.0137650
905.640	0.0137254
905.718	0.0137978
905.796	0.0136179
905.874	0.0136920
905.953	0.0137714
906.031	0.0136318
906.109	0.0137201
906.187	0.0136215
906.265	0.0137486
906.343	0.0136293
906.421	0.0135451
906.499	0.0135773
906.578	0.0136739
906.656	0.0137076
906.734	0.0136502
906.812	0.0136712
906.890	0.0136288
906.968	0.0137289
907.046	0.0136478
907.124	0.0136844
907.203	0.0137402
907.281	0.0136752
907.359	0.0135790
907.437	0.0135975
907.515	0.0135580
907.593	0.0136599
907.671	0.0136853
907.749	0.0137273
907.828	0.0137595
907.906	0.0136555
907.984	0.0135216
908.062	0.0136940
908.140	0.0136766
908.218	0.0136346
908.296	0.0136621
908.374	0.0137680
908.453	0.0138361
908.531	0.0137593
908.609	0.0137655
908.687	0.0137019
908.765	0.0137591
908.843	0.0137943
908.921	0.0137642
908.999	0.0138305
909.078	0.0137634
909.156	0.0138482
909.234	0.0138484
909.312	0.0136600
909.390	0.0136343
909.468	0.0137267
909.546	0.0138568
909.624	0.0137668
909.703	0.0137379
909.781	0.0137890
909.859	0.0136402
909.937	0.0136234
910.015	0.0137457
910.093	0.0138180
910.171	0.0137032
910.249	0.0137291
910.328	0.0136684
910.406	0.0136466
910.484	0.0137964
910.562	0.0137257
910.640	0.0136620
910.718	0.0136736
910.796	0.0137144
910.874	0.0135778
910.953	0.0137592
911.031	0.0138022
911.109	0.0136418
911.187	0.0138138
911.265	0.0137421
911.343	0.0137817
911.421	0.0137201
911.499	0.0137189
911.578	0.0137418
911.656	0.0138081
911.734	0.0137518
911.812	0.0137714
911.890	0.0137099
911.968	0.0138203
912.046	0.0138963
912.124	0.0137955
912.203	0.0137658
912.281	0.0137700
912.359	0.0139076
912.437	0.0139074
912.515	0.0138362
912.593	0.0137973
912.671	0.0137125
912.749	0.0137227
912.828	0.0138022
912.906	0.0137814
912.984	0.0138160
913.062	0.0139019
913.140	0.0137070
913.218	0.0137174
913.296	0.0138418
913.374	0.0138687
913.453	0.0135535
913.531	0.0137478
913.609	0.0136771
913.687	0.0135975
913.765	0.0136464
913.843	0.0136836
913.921	0.0137379
913.999	0.0135817
914.078	0.0134529
914.156	0.0135619
914.234	0.0136111
914.312	0.0136104
914.390	0.0136257
914.468	0.0136677
914.546	0.0135947
914.624	0.0135550
914.703	0.0137182
914.781	0.0136884
914.859	0.0135840
914.937	0.0136695
915.015	0.0136229
915.093	0.0135175
915.171	0.0136768
915.249	0.0137222
915.328	0.0136950
915.406	0.0136012
915.484	0.0137142
915.562	0.0137820
915.640	0.0137632
915.718	0.0137666
915.796	0.0137545
915.874	0.0136177
915.953	0.0137508
916.031	0.0137314
916.109	0.0136691
916.187	0.0136772
916.265	0.0136902
916.343	0.0136729
916.421	0.0137049
916.499	0.0136089
916.578	0.0136583
916.656	0.0136475
916.734	0.0137550
916.812	0.0137406
916.890	0.0137556
916.968	0.0136552
917.046	0.0136095
917.124	0.0135946
917.203	0.0136063
917.281	0.0134795
917.359	0.0135097
917.437	0.0135126
917.515	0.0134843
917.593	0.0134704
917.671	0.0136591
917.749	0.0134820
917.828	0.0135036
917.906	0.0134556
917.984	0.0134987
918.062	0.0136223
918.140	0.0134727
918.218	0.0133875
918.296	0.0134480
918.374	0.0136138
918.453	0.0135449
918.531	0.0133352
918.609	0.0135754
918.687	0.0134291
918.765	0.0137121
918.843	0.0137000
918.921	0.0134813
918.999	0.0136004
919.078	0.0135596
919.156	0.0135410
919.234	0.0136314
919.312	0.0135812
919.390	0.0136842
919.468	0.0136620
919.546	0.0136768
919.624	0.0136974
919.703	0.0136654
919.781	0.0136349
919.859	0.0136025
919.937	0.0137145
