05/08/2022	20:27:22	Ver.	4.1	UNKNOWN
Optical Delay	600.015094	Delta X		0.078125	Sweeps	1	Scan Rate	0/0
Coordinates	Axis 1	NaN	Axis 2	NaN	Axis 3	NaN	Axis 4	NaN	Axis 5	NaN	Axis 6	0.000000
TX Power	0.000000	RX Power	0.000000

600.015	0.0139929
600.093	0.0140665
600.171	0.0140668
600.249	0.0141127
600.328	0.0140271
600.406	0.0140131
600.484	0.0140882
600.562	0.0141336
600.640	0.0141015
600.718	0.0140181
600.796	0.0140118
600.874	0.0141265
600.953	0.0139426
601.031	0.0139278
601.109	0.0140977
601.187	0.0141058
601.265	0.0141486
601.343	0.0140285
601.421	0.0140609
601.499	0.0141229
601.578	0.0140434
601.656	0.0140842
601.734	0.0141110
601.812	0.0140331
601.890	0.0141424
601.968	0.0141108
602.046	0.0140780
602.124	0.0139627
602.203	0.0140905
602.281	0.0138653
602.359	0.0140955
602.437	0.0142267
602.515	0.0141141
602.593	0.0141010
602.671	0.0140880
602.749	0.0139495
602.828	0.0141091
602.906	0.0141065
602.984	0.0140043
603.062	0.0140598
603.140	0.0141357
603.218	0.0141666
603.296	0.0141901
603.374	0.0140355
603.453	0.0141480
603.531	0.0142075
603.609	0.0141734
603.687	0.0140906
603.765	0.0140524
603.843	0.0141983
603.921	0.0141507
603.999	0.0142465
604.078	0.0139774
604.156	0.0139845
604.234	0.0140884
604.312	0.0140643
604.390	0.0140635
604.468	0.0140035
604.546	0.0140022
604.624	0.0140293
604.703	0.0141381
604.781	0.0141409
604.859	0.0140237
604.937	0.0141673
605.015	0.0141519
605.093	0.0141595
605.171	0.0141019
605.249	0.0140497
605.328	0.0139667
605.406	0.0139628
605.484	0.0140823
605.562	0.0141479
605.640	0.0140014
605.718	0.0140188
605.796	0.0140477
605.874	0.0140190
605.953	0.0140569
606.031	0.0139535
606.109	0.0139745
606.187	0.0140788
606.265	0.0139774
606.343	0.0140285
606.421	0.0139289
606.499	0.0139064
606.578	0.0141116
606.656	0.0139887
606.734	0.0140901
606.812	0.0140501
606.890	0.0140128
606.968	0.0140076
607.046	0.0140338
607.124	0.0139592
607.203	0.0139171
607.281	0.0139345
607.359	0.0139955
607.437	0.0137743
607.515	0.0138264
607.593	0.0139672
607.671	0.0139688
607.749	0.0139384
607.828	0.0138870
607.906	0.0139562
607.984	0.0137833
608.062	0.0138511
608.140	0.0140169
608.218	0.0138783
608.296	0.0140554
608.374	0.0140524
608.453	0.0140500
608.531	0.0140261
608.609	0.0141905
608.687	0.0140301
608.765	0.0140528
608.843	0.0138827
608.921	0.0140840
608.999	0.0140743
609.078	0.0140694
609.156	0.0139172
609.234	0.0140099
609.312	0.0141690
609.390	0.0140012
609.468	0.0138803
609.546	0.0140324
609.624	0.0139221
609.703	0.0139574
609.781	0.0140264
609.859	0.0139984
609.937	0.0141123
610.015	0.0139485
610.093	0.0139925
610.171	0.0140270
610.249	0.0139793
610.328	0.0140788
610.406	0.0139555
610.484	0.0138100
610.562	0.0139716
610.640	0.0138572
610.718	0.0139314
610.796	0.0138966
610.874	0.0139861
610.953	0.0138169
611.031	0.0138036
611.109	0.0138932
611.187	0.0139858
611.265	0.0138199
611.343	0.0138020
611.421	0.0139156
611.499	0.0138663
611.578	0.0137949
611.656	0.0138666
611.734	0.0138047
611.812	0.0137516
611.890	0.0137878
611.968	0.0138389
612.046	0.0137379
612.124	0.0138515
612.203	0.0137498
612.281	0.0136892
612.359	0.0137184
612.437	0.0138041
612.515	0.0137083
612.593	0.0138078
612.671	0.0138657
612.749	0.0139404
612.828	0.0137933
612.906	0.0137778
612.984	0.0139006
613.062	0.0138127
613.140	0.0138321
613.218	0.0138857
613.296	0.0138625
613.374	0.0138539
613.453	0.0138959
613.531	0.0138301
613.609	0.0138975
613.687	0.0138364
613.765	0.0139213
613.843	0.0139316
613.921	0.0138815
613.999	0.0140025
614.078	0.0139526
614.156	0.0138770
614.234	0.0138133
614.312	0.0137937
614.390	0.0139214
614.468	0.0140833
614.546	0.0139585
614.624	0.0138599
614.703	0.0139645
614.781	0.0140546
614.859	0.0140083
614.937	0.0139606
615.015	0.0139294
615.093	0.0139062
615.171	0.0140526
615.249	0.0138068
615.328	0.0138765
615.406	0.0140076
615.484	0.0138179
615.562	0.0139095
615.640	0.0138713
615.718	0.0137848
615.796	0.0138563
615.874	0.0139531
615.953	0.0139229
616.031	0.0138238
616.109	0.0137975
616.187	0.0138144
616.265	0.0137923
616.343	0.0137859
616.421	0.0137803
616.499	0.0137151
616.578	0.0137284
616.656	0.0137143
616.734	0.0137162
616.812	0.0137436
616.890	0.0137064
616.968	0.0136975
617.046	0.0138924
617.124	0.0138529
617.203	0.0139559
617.281	0.0138138
617.359	0.0138351
617.437	0.0138551
617.515	0.0139529
617.593	0.0137743
617.671	0.0137234
617.749	0.0139303
617.828	0.0139318
617.906	0.0139243
617.984	0.0136529
618.062	0.0138551
618.140	0.0139704
618.218	0.0138628
618.296	0.0139905
618.374	0.0139137
618.453	0.0139531
618.531	0.0139753
618.609	0.0139977
618.687	0.0139445
618.765	0.0139642
618.843	0.0139117
618.921	0.0139310
618.999	0.0139998
619.078	0.0139924
619.156	0.0139986
619.234	0.0139507
619.312	0.0140455
619.390	0.0141386
619.468	0.0141075
619.546	0.0139957
619.624	0.0140209
619.703	0.0140385
619.781	0.0140455
619.859	0.0141049
619.937	0.0140022
620.015	0.0140304
620.093	0.0141048
620.171	0.0142904
620.249	0.0140200
620.328	0.0140302
620.406	0.0141438
620.484	0.0141399
620.562	0.0141079
620.640	0.0140698
620.718	0.0142272
620.796	0.0142733
620.874	0.0140842
620.953	0.0140102
621.031	0.0141508
621.109	0.0140666
621.187	0.0141657
621.265	0.0140733
621.343	0.0140888
621.421	0.0140130
621.499	0.0141016
621.578	0.0140449
621.656	0.0139891
621.734	0.0141608
621.812	0.0140675
621.890	0.0140692
621.968	0.0140734
622.046	0.0140250
622.124	0.0140866
622.203	0.0141348
622.281	0.0138928
622.359	0.0141761
622.437	0.0141157
622.515	0.0141616
622.593	0.0141567
622.671	0.0138832
622.749	0.0138785
622.828	0.0138082
622.906	0.0141042
622.984	0.0140809
623.062	0.0140122
623.140	0.0139545
623.218	0.0139444
623.296	0.0139676
623.374	0.0139133
623.453	0.0138921
623.531	0.0139718
623.609	0.0140784
623.687	0.0140677
623.765	0.0140281
623.843	0.0139288
623.921	0.0139868
623.999	0.0139309
624.078	0.0139037
624.156	0.0139746
624.234	0.0141536
624.312	0.0139611
624.390	0.0139277
624.468	0.0139970
624.546	0.0141684
624.624	0.0139989
624.703	0.0139879
624.781	0.0142105
624.859	0.0140691
624.937	0.0141585
625.015	0.0140212
625.093	0.0140654
625.171	0.0140530
625.249	0.0141661
625.328	0.0140105
625.406	0.0140974
625.484	0.0140254
625.562	0.0140044
625.640	0.0142448
625.718	0.0141101
625.796	0.0141366
625.874	0.0139589
625.953	0.0141488
626.031	0.0140618
626.109	0.0141251
626.187	0.0139864
626.265	0.0140229
626.343	0.0139607
626.421	0.0140248
626.499	0.0140697
626.578	0.0141035
626.656	0.0142555
626.734	0.0140665
626.812	0.0139477
626.890	0.0141376
626.968	0.0140209
627.046	0.0140250
627.124	0.0140759
627.203	0.0140730
627.281	0.0139469
627.359	0.0139752
627.437	0.0139672
627.515	0.0139073
627.593	0.0139542
627.671	0.0138593
627.749	0.0139326
627.828	0.0139317
627.906	0.0139912
627.984	0.0140527
628.062	0.0140326
628.140	0.0139691
628.218	0.0140281
628.296	0.0139009
628.374	0.0140465
628.453	0.0139169
628.531	0.0139540
628.609	0.0139490
628.687	0.0140643
628.765	0.0139330
628.843	0.0137506
628.921	0.0137731
628.999	0.0138952
629.078	0.0140102
629.156	0.0140118
629.234	0.0139157
629.312	0.0138911
629.390	0.0138254
629.468	0.0140002
629.546	0.0139226
629.624	0.0139619
629.703	0.0139717
629.781	0.0139342
629.859	0.0138437
629.937	0.0138824
630.015	0.0139246
630.093	0.0138680
630.171	0.0138490
630.249	0.0138903
630.328	0.0137762
630.406	0.0138115
630.484	0.0138972
630.562	0.0139145
630.640	0.0140015
630.718	0.0137885
630.796	0.0138051
630.874	0.0137646
630.953	0.0136732
631.031	0.0139246
631.109	0.0139025
631.187	0.0138513
631.265	0.0137811
631.343	0.0139189
631.421	0.0138491
631.499	0.0140232
631.578	0.0138114
631.656	0.0138718
631.734	0.0139769
631.812	0.0139507
631.890	0.0139528
631.968	0.0139648
632.046	0.0139130
632.124	0.0139663
632.203	0.0139656
632.281	0.0139476
632.359	0.0140938
632.437	0.0141517
632.515	0.0140993
632.593	0.0139695
632.671	0.0141238
632.749	0.0139793
632.828	0.0139404
632.906	0.0140768
632.984	0.0140279
633.062	0.0141998
633.140	0.0140748
633.218	0.0139520
633.296	0.0140530
633.374	0.0141246
633.453	0.0140223
633.531	0.0140433
633.609	0.0139277
633.687	0.0139047
633.765	0.0141293
633.843	0.0141525
633.921	0.0139072
633.999	0.0140720
634.078	0.0138910
634.156	0.0140646
634.234	0.0141544
634.312	0.0140625
634.390	0.0140615
634.468	0.0139388
634.546	0.0141434
634.624	0.0141750
634.703	0.0140215
634.781	0.0140321
634.859	0.0140368
634.937	0.0140397
635.015	0.0141824
635.093	0.0140797
635.171	0.0140383
635.249	0.0139750
635.328	0.0141703
635.406	0.0140966
635.484	0.0138828
635.562	0.0141585
635.640	0.0140611
635.718	0.0141229
635.796	0.0140112
635.874	0.0140337
635.953	0.0140018
636.031	0.0139584
636.109	0.0140837
636.187	0.0141542
636.265	0.0139633
636.343	0.0140175
636.421	0.0140099
636.499	0.0139814
636.578	0.0139506
636.656	0.0140776
636.734	0.0140038
636.812	0.0139973
636.890	0.0139353
636.968	0.0141263
637.046	0.0141016
637.124	0.0140806
637.203	0.0139806
637.281	0.0141372
637.359	0.0139630
637.437	0.0141053
637.515	0.0139409
637.593	0.0139162
637.671	0.0139300
637.749	0.0139977
637.828	0.0138686
637.906	0.0138825
637.984	0.0140089
638.062	0.0139403
638.140	0.0138579
638.218	0.0139053
638.296	0.0138174
638.374	0.0138855
638.453	0.0139146
638.531	0.0137461
638.609	0.0137599
638.687	0.0138036
638.765	0.0138970
638.843	0.0137989
638.921	0.0138155
638.999	0.0138139
639.078	0.0138807
639.156	0.0137368
639.234	0.0139689
639.312	0.0138970
639.390	0.0139123
639.468	0.0138371
639.546	0.0137325
639.624	0.0138265
639.703	0.0137798
639.781	0.0138869
639.859	0.0137930
639.937	0.0139501
640.015	0.0137757
640.093	0.0138432
640.171	0.0138618
640.249	0.0137513
640.328	0.0137878
640.406	0.0139088
640.484	0.0138944
640.562	0.0136768
640.640	0.0138100
640.718	0.0137522
640.796	0.0136335
640.874	0.0137502
640.953	0.0136848
641.031	0.0137663
641.109	0.0136706
641.187	0.0137743
641.265	0.0136456
641.343	0.0137443
641.421	0.0137408
641.499	0.0139651
641.578	0.0138016
641.656	0.0137288
641.734	0.0137495
641.812	0.0139987
641.890	0.0139534
641.968	0.0139648
642.046	0.0140039
642.124	0.0139778
642.203	0.0140649
642.281	0.0139687
642.359	0.0141704
642.437	0.0141345
642.515	0.0140683
642.593	0.0140401
642.671	0.0140875
642.749	0.0139986
642.828	0.0141830
642.906	0.0141050
642.984	0.0139259
643.062	0.0141341
643.140	0.0139693
643.218	0.0139203
643.296	0.0137791
643.374	0.0139011
643.453	0.0138143
643.531	0.0135291
643.609	0.0134612
643.687	0.0134901
643.765	0.0134560
643.843	0.0132179
643.921	0.0132720
643.999	0.0131709
644.078	0.0133820
644.156	0.0132326
644.234	0.0131586
644.312	0.0132164
644.390	0.0133318
644.468	0.0135523
644.546	0.0135092
644.624	0.0137249
644.703	0.0137282
644.781	0.0138477
644.859	0.0140857
644.937	0.0142285
645.015	0.0141812
645.093	0.0144338
645.171	0.0147881
645.249	0.0146725
645.328	0.0148148
645.406	0.0148394
645.484	0.0149347
645.562	0.0147880
645.640	0.0148232
645.718	0.0148672
645.796	0.0147887
645.874	0.0146881
645.953	0.0144669
646.031	0.0145924
646.109	0.0142521
646.187	0.0140826
646.265	0.0139854
646.343	0.0137698
646.421	0.0135770
646.499	0.0134221
646.578	0.0131408
646.656	0.0129716
646.734	0.0130664
646.812	0.0128822
646.890	0.0125600
646.968	0.0124436
647.046	0.0123466
647.124	0.0125202
647.203	0.0126683
647.281	0.0124530
647.359	0.0125328
647.437	0.0126482
647.515	0.0128326
647.593	0.0130303
647.671	0.0131328
647.749	0.0131689
647.828	0.0135042
647.906	0.0135947
647.984	0.0138287
648.062	0.0141459
648.140	0.0143672
648.218	0.0144856
648.296	0.0147583
648.374	0.0148319
648.453	0.0150931
648.531	0.0152619
648.609	0.0153027
648.687	0.0153832
648.765	0.0153714
648.843	0.0156059
648.921	0.0155273
648.999	0.0155871
649.078	0.0154204
649.156	0.0151942
649.234	0.0152955
649.312	0.0153187
649.390	0.0149683
649.468	0.0147770
649.546	0.0145541
649.624	0.0143245
649.703	0.0140929
649.781	0.0139004
649.859	0.0137176
649.937	0.0135235
650.015	0.0134184
650.093	0.0133400
650.171	0.0132808
650.249	0.0130521
650.328	0.0129205
650.406	0.0127694
650.484	0.0128865
650.562	0.0127904
650.640	0.0127381
650.718	0.0126036
650.796	0.0127234
650.874	0.0126395
650.953	0.0126563
651.031	0.0126958
651.109	0.0127288
651.187	0.0128873
651.265	0.0129963
651.343	0.0129675
651.421	0.0132554
651.499	0.0132458
651.578	0.0133851
651.656	0.0136836
651.734	0.0137656
651.812	0.0136667
651.890	0.0139313
651.968	0.0140797
652.046	0.0143225
652.124	0.0143554
652.203	0.0144679
652.281	0.0146349
652.359	0.0145412
652.437	0.0146143
652.515	0.0148724
652.593	0.0149830
652.671	0.0148804
652.749	0.0149366
652.828	0.0149986
652.906	0.0149859
652.984	0.0151620
653.062	0.0151172
653.140	0.0150729
653.218	0.0152451
653.296	0.0152295
653.374	0.0150860
653.453	0.0151930
653.531	0.0150787
653.609	0.0148620
653.687	0.0148119
653.765	0.0145910
653.843	0.0146029
653.921	0.0144144
653.999	0.0141785
654.078	0.0139555
654.156	0.0137203
654.234	0.0136414
654.312	0.0133767
654.390	0.0132665
654.468	0.0130721
654.546	0.0128041
654.624	0.0126289
654.703	0.0124561
654.781	0.0123054
654.859	0.0122334
654.937	0.0119891
655.015	0.0120073
655.093	0.0118804
655.171	0.0117414
655.249	0.0117619
655.328	0.0116406
655.406	0.0118193
655.484	0.0118069
655.562	0.0119495
655.640	0.0120386
655.718	0.0122643
655.796	0.0124831
655.874	0.0126549
655.953	0.0130804
656.031	0.0132070
656.109	0.0135512
656.187	0.0139765
656.265	0.0142354
656.343	0.0146026
656.421	0.0147718
656.499	0.0152378
656.578	0.0154681
656.656	0.0158118
656.734	0.0160788
656.812	0.0162165
656.890	0.0164925
656.968	0.0165581
657.046	0.0166839
657.124	0.0167238
657.203	0.0168138
657.281	0.0168584
657.359	0.0167987
657.437	0.0166891
657.515	0.0165629
657.593	0.0164666
657.671	0.0161011
657.749	0.0156716
657.828	0.0155369
657.906	0.0151750
657.984	0.0148898
658.062	0.0144160
658.140	0.0139674
658.218	0.0136527
658.296	0.0131834
658.374	0.0129128
658.453	0.0125115
658.531	0.0120164
658.609	0.0118112
658.687	0.0115659
658.765	0.0113477
658.843	0.0111497
658.921	0.0110755
658.999	0.0108022
659.078	0.0108445
659.156	0.0108619
659.234	0.0109485
659.312	0.0109171
659.390	0.0110104
659.468	0.0113216
659.546	0.0115905
659.624	0.0117875
659.703	0.0119594
659.781	0.0123502
659.859	0.0126504
659.937	0.0129306
660.015	0.0132645
660.093	0.0135268
660.171	0.0138779
660.249	0.0142940
660.328	0.0145624
660.406	0.0148105
660.484	0.0150868
660.562	0.0154904
660.640	0.0156351
660.718	0.0159210
660.796	0.0161348
660.874	0.0162658
660.953	0.0162167
661.031	0.0166007
661.109	0.0166267
661.187	0.0167075
661.265	0.0165977
661.343	0.0166681
661.421	0.0165616
661.499	0.0164471
661.578	0.0164542
661.656	0.0161418
661.734	0.0160670
661.812	0.0159069
661.890	0.0156355
661.968	0.0152981
662.046	0.0149996
662.124	0.0147691
662.203	0.0144953
662.281	0.0141153
662.359	0.0138028
662.437	0.0134395
662.515	0.0132922
662.593	0.0128979
662.671	0.0126112
662.749	0.0124270
662.828	0.0123715
662.906	0.0122389
662.984	0.0120944
663.062	0.0117701
663.140	0.0114995
663.218	0.0115140
663.296	0.0115173
663.374	0.0113410
663.453	0.0112331
663.531	0.0112670
663.609	0.0111700
663.687	0.0111359
663.765	0.0112491
663.843	0.0114770
663.921	0.0114621
663.999	0.0118792
664.078	0.0120704
664.156	0.0123047
664.234	0.0126318
664.312	0.0129485
664.390	0.0131411
664.468	0.0135681
664.546	0.0139011
664.624	0.0142982
664.703	0.0147121
664.781	0.0150349
664.859	0.0152653
664.937	0.0154359
665.015	0.0156702
665.093	0.0156963
665.171	0.0160880
665.249	0.0161378
665.328	0.0161092
665.406	0.0163429
665.484	0.0161918
665.562	0.0162902
665.640	0.0162463
665.718	0.0159612
665.796	0.0160178
665.874	0.0157705
665.953	0.0156944
666.031	0.0156056
666.109	0.0153404
666.187	0.0151847
666.265	0.0150060
666.343	0.0147507
666.421	0.0146334
666.499	0.0144249
666.578	0.0142797
666.656	0.0143138
666.734	0.0140742
666.812	0.0137941
666.890	0.0134243
666.968	0.0133835
667.046	0.0133379
667.124	0.0131570
667.203	0.0130720
667.281	0.0127312
667.359	0.0127010
667.437	0.0125972
667.515	0.0125317
667.593	0.0124139
667.671	0.0123587
667.749	0.0123174
667.828	0.0123032
667.906	0.0123881
667.984	0.0124608
668.062	0.0124837
668.140	0.0126313
668.218	0.0126546
668.296	0.0127798
668.374	0.0129189
668.453	0.0129707
668.531	0.0130682
668.609	0.0130036
668.687	0.0131638
668.765	0.0133397
668.843	0.0135189
668.921	0.0135368
668.999	0.0134837
669.078	0.0137016
669.156	0.0140421
669.234	0.0138644
669.312	0.0140435
669.390	0.0140689
669.468	0.0142426
669.546	0.0144676
669.624	0.0145401
669.703	0.0145336
669.781	0.0146885
669.859	0.0148991
669.937	0.0148743
670.015	0.0148342
670.093	0.0149153
670.171	0.0150345
670.249	0.0149590
670.328	0.0149548
670.406	0.0147788
670.484	0.0149701
670.562	0.0148075
670.640	0.0147932
670.718	0.0144582
670.796	0.0145612
670.874	0.0144369
670.953	0.0142397
671.031	0.0142338
671.109	0.0140876
671.187	0.0138242
671.265	0.0137913
671.343	0.0136800
671.421	0.0136042
671.499	0.0134314
671.578	0.0132975
671.656	0.0132182
671.734	0.0133796
671.812	0.0131984
671.890	0.0132664
671.968	0.0132333
672.046	0.0133179
672.124	0.0134808
672.203	0.0134299
672.281	0.0134025
672.359	0.0133660
672.437	0.0134514
672.515	0.0136752
672.593	0.0136021
672.671	0.0136691
672.749	0.0136596
672.828	0.0136864
672.906	0.0138071
672.984	0.0139178
673.062	0.0137209
673.140	0.0137577
673.218	0.0139562
673.296	0.0138905
673.374	0.0138200
673.453	0.0139985
673.531	0.0138181
673.609	0.0140454
673.687	0.0139828
673.765	0.0138817
673.843	0.0138583
673.921	0.0138578
673.999	0.0138460
674.078	0.0136671
674.156	0.0138505
674.234	0.0139146
674.312	0.0138235
674.390	0.0137254
674.468	0.0137961
674.546	0.0136130
674.624	0.0135777
674.703	0.0136555
674.781	0.0136339
674.859	0.0137680
674.937	0.0137961
675.015	0.0138153
675.093	0.0137813
675.171	0.0138686
675.249	0.0139237
675.328	0.0140691
675.406	0.0141283
675.484	0.0142240
675.562	0.0144316
675.640	0.0143204
675.718	0.0144919
675.796	0.0144962
675.874	0.0145585
675.953	0.0147141
676.031	0.0146455
676.109	0.0147924
676.187	0.0148889
676.265	0.0148695
676.343	0.0146593
676.421	0.0146738
676.499	0.0147465
676.578	0.0146748
676.656	0.0145907
676.734	0.0144862
676.812	0.0144236
676.890	0.0143061
676.968	0.0142251
677.046	0.0141428
677.124	0.0139769
677.203	0.0141178
677.281	0.0138425
677.359	0.0139812
677.437	0.0139034
677.515	0.0140973
677.593	0.0140062
677.671	0.0138553
677.749	0.0138477
677.828	0.0139338
677.906	0.0139474
677.984	0.0138798
678.062	0.0137826
678.140	0.0137214
678.218	0.0137579
678.296	0.0135603
678.374	0.0134740
678.453	0.0135322
678.531	0.0133725
678.609	0.0134980
678.687	0.0135133
678.765	0.0133683
678.843	0.0135155
678.921	0.0135708
678.999	0.0134883
679.078	0.0136349
679.156	0.0136497
679.234	0.0136913
679.312	0.0137070
679.390	0.0137785
679.468	0.0138774
679.546	0.0141406
679.624	0.0141431
679.703	0.0141305
679.781	0.0142686
679.859	0.0142805
679.937	0.0142464
680.015	0.0143567
680.093	0.0143260
680.171	0.0143667
680.249	0.0143707
680.328	0.0144350
680.406	0.0142915
680.484	0.0142093
680.562	0.0143298
680.640	0.0142625
680.718	0.0143255
680.796	0.0142582
680.874	0.0141676
680.953	0.0141631
681.031	0.0138692
681.109	0.0140730
681.187	0.0139901
681.265	0.0140829
681.343	0.0140030
681.421	0.0139384
681.499	0.0140147
681.578	0.0141428
681.656	0.0140826
681.734	0.0139473
681.812	0.0139442
681.890	0.0138990
681.968	0.0138866
682.046	0.0138864
682.124	0.0137515
682.203	0.0139636
682.281	0.0137292
682.359	0.0135757
682.437	0.0135844
682.515	0.0137416
682.593	0.0135947
682.671	0.0137112
682.749	0.0136159
682.828	0.0135311
682.906	0.0135998
682.984	0.0137077
683.062	0.0137943
683.140	0.0136890
683.218	0.0137466
683.296	0.0136905
683.374	0.0137852
683.453	0.0139352
683.531	0.0139867
683.609	0.0139036
683.687	0.0138518
683.765	0.0139606
683.843	0.0139645
683.921	0.0138738
683.999	0.0138837
684.078	0.0141470
684.156	0.0140710
684.234	0.0139358
684.312	0.0141681
684.390	0.0141412
684.468	0.0140873
684.546	0.0142917
684.624	0.0141917
684.703	0.0143310
684.781	0.0142192
684.859	0.0142745
684.937	0.0143847
685.015	0.0144881
685.093	0.0143034
685.171	0.0142672
685.249	0.0143738
685.328	0.0144067
685.406	0.0142907
685.484	0.0140334
685.562	0.0142699
685.640	0.0141323
685.718	0.0140524
685.796	0.0138730
685.874	0.0138330
685.953	0.0137981
686.031	0.0137868
686.109	0.0137041
686.187	0.0135201
686.265	0.0135184
686.343	0.0134254
686.421	0.0132934
686.499	0.0132384
686.578	0.0133443
686.656	0.0132973
686.734	0.0131492
686.812	0.0131952
686.890	0.0130734
686.968	0.0130461
687.046	0.0130657
687.124	0.0129658
687.203	0.0130698
687.281	0.0130695
687.359	0.0130479
687.437	0.0133150
687.515	0.0134031
687.593	0.0134212
687.671	0.0135577
687.749	0.0135709
687.828	0.0138055
687.906	0.0139516
687.984	0.0139068
688.062	0.0139890
688.140	0.0140791
688.218	0.0142512
688.296	0.0142918
688.374	0.0143147
688.453	0.0144869
688.531	0.0146651
688.609	0.0147484
688.687	0.0146506
688.765	0.0148752
688.843	0.0148315
688.921	0.0148325
688.999	0.0150327
689.078	0.0149213
689.156	0.0149841
689.234	0.0151035
689.312	0.0149380
689.390	0.0148777
689.468	0.0148750
689.546	0.0148083
689.624	0.0150121
689.703	0.0147951
689.781	0.0146313
689.859	0.0144245
689.937	0.0144440
690.015	0.0142583
690.093	0.0141535
690.171	0.0138733
690.249	0.0137392
690.328	0.0137768
690.406	0.0135405
690.484	0.0134002
690.562	0.0133984
690.640	0.0132322
690.718	0.0133250
690.796	0.0132114
690.874	0.0132361
690.953	0.0131942
691.031	0.0133488
691.109	0.0131773
691.187	0.0132172
691.265	0.0133827
691.343	0.0132941
691.421	0.0133729
691.499	0.0134396
691.578	0.0135320
691.656	0.0134979
691.734	0.0135471
691.812	0.0136142
691.890	0.0136555
691.968	0.0136810
692.046	0.0137537
692.124	0.0136945
692.203	0.0137756
692.281	0.0138654
692.359	0.0139214
692.437	0.0139467
692.515	0.0141080
692.593	0.0140991
692.671	0.0141502
692.749	0.0140907
692.828	0.0141669
692.906	0.0140884
692.984	0.0139363
693.062	0.0140773
693.140	0.0140994
693.218	0.0140790
693.296	0.0138598
693.374	0.0138039
693.453	0.0137627
693.531	0.0138100
693.609	0.0136560
693.687	0.0134852
693.765	0.0134607
693.843	0.0134789
693.921	0.0135160
693.999	0.0134727
694.078	0.0134763
694.156	0.0134847
694.234	0.0136514
694.312	0.0137616
694.390	0.0137442
694.468	0.0136805
694.546	0.0139095
694.624	0.0139253
694.703	0.0141079
694.781	0.0141240
694.859	0.0142443
694.937	0.0143057
695.015	0.0142502
695.093	0.0143488
695.171	0.0143068
695.249	0.0142844
695.328	0.0144032
695.406	0.0144460
695.484	0.0143134
695.562	0.0143922
695.640	0.0143466
695.718	0.0142436
695.796	0.0142408
695.874	0.0142742
695.953	0.0141765
696.031	0.0142433
696.109	0.0141861
696.187	0.0141522
696.265	0.0142113
696.343	0.0141539
696.421	0.0142088
696.499	0.0141422
696.578	0.0141074
696.656	0.0140762
696.734	0.0140875
696.812	0.0141564
696.890	0.0140197
696.968	0.0140323
697.046	0.0138741
697.124	0.0138577
697.203	0.0138245
697.281	0.0138795
697.359	0.0138020
697.437	0.0137473
697.515	0.0137564
697.593	0.0136916
697.671	0.0135976
697.749	0.0136052
697.828	0.0136650
697.906	0.0134277
697.984	0.0135936
698.062	0.0135278
698.140	0.0134684
698.218	0.0136395
698.296	0.0135665
698.374	0.0136516
698.453	0.0135749
698.531	0.0135389
698.609	0.0137000
698.687	0.0136984
698.765	0.0136558
698.843	0.0135991
698.921	0.0136124
698.999	0.0138182
699.078	0.0136057
699.156	0.0137322
699.234	0.0137412
699.312	0.0137048
699.390	0.0136959
699.468	0.0137683
699.546	0.0138193
699.624	0.0138010
699.703	0.0138313
699.781	0.0139732
699.859	0.0139464
699.937	0.0139348
700.015	0.0139922
700.093	0.0141351
700.171	0.0144299
700.249	0.0141951
700.328	0.0144314
700.406	0.0144704
700.484	0.0145029
700.562	0.0144007
700.640	0.0144693
700.718	0.0144604
700.796	0.0145287
700.874	0.0145471
700.953	0.0144346
701.031	0.0144851
701.109	0.0145642
701.187	0.0143983
701.265	0.0143509
701.343	0.0143343
701.421	0.0141913
701.499	0.0144067
701.578	0.0142612
701.656	0.0139973
701.734	0.0142594
701.812	0.0141652
701.890	0.0140525
701.968	0.0141175
702.046	0.0141397
702.124	0.0140220
702.203	0.0139346
702.281	0.0141447
702.359	0.0141518
702.437	0.0141229
702.515	0.0140994
702.593	0.0138542
702.671	0.0138624
702.749	0.0138332
702.828	0.0138551
702.906	0.0137600
702.984	0.0139749
703.062	0.0137936
703.140	0.0136909
703.218	0.0136523
703.296	0.0136649
703.374	0.0137672
703.453	0.0137020
703.531	0.0135248
703.609	0.0136887
703.687	0.0136278
703.765	0.0136909
703.843	0.0137028
703.921	0.0136046
703.999	0.0136006
704.078	0.0137395
704.156	0.0138081
704.234	0.0136961
704.312	0.0137900
704.390	0.0137579
704.468	0.0138696
704.546	0.0138675
704.624	0.0139759
704.703	0.0139893
704.781	0.0140063
704.859	0.0140739
704.937	0.0140544
705.015	0.0141346
705.093	0.0140303
705.171	0.0140800
705.249	0.0138893
705.328	0.0139837
705.406	0.0140462
705.484	0.0140882
705.562	0.0141245
705.640	0.0139921
705.718	0.0139959
705.796	0.0140435
705.874	0.0141464
705.953	0.0140038
706.031	0.0140916
706.109	0.0140741
706.187	0.0140105
706.265	0.0141537
706.343	0.0141684
706.421	0.0141612
706.499	0.0141292
706.578	0.0142336
706.656	0.0141591
706.734	0.0141499
706.812	0.0141374
706.890	0.0140115
706.968	0.0140956
707.046	0.0141818
707.124	0.0139624
707.203	0.0139130
707.281	0.0138988
707.359	0.0141145
707.437	0.0140361
707.515	0.0138774
707.593	0.0140479
707.671	0.0141113
707.749	0.0140166
707.828	0.0139257
707.906	0.0140393
707.984	0.0138818
708.062	0.0139819
708.140	0.0139693
708.218	0.0139724
708.296	0.0140800
708.374	0.0139706
708.453	0.0139698
708.531	0.0139362
708.609	0.0139517
708.687	0.0139802
708.765	0.0138819
708.843	0.0138763
708.921	0.0139257
708.999	0.0139657
709.078	0.0139757
709.156	0.0139435
709.234	0.0139718
709.312	0.0139151
709.390	0.0139841
709.468	0.0138856
709.546	0.0140044
709.624	0.0139980
709.703	0.0139766
709.781	0.0139468
709.859	0.0139461
709.937	0.0137259
710.015	0.0138683
710.093	0.0138452
710.171	0.0138792
710.249	0.0139047
710.328	0.0139822
710.406	0.0137560
710.484	0.0137612
710.562	0.0137547
710.640	0.0138716
710.718	0.0138410
710.796	0.0137469
710.874	0.0138953
710.953	0.0138055
711.031	0.0137553
711.109	0.0136368
711.187	0.0137029
711.265	0.0138612
711.343	0.0137780
711.421	0.0137452
711.499	0.0138639
711.578	0.0139590
711.656	0.0140294
711.734	0.0140257
711.812	0.0140261
711.890	0.0141750
711.968	0.0140312
712.046	0.0141882
712.124	0.0141723
712.203	0.0140994
712.281	0.0140622
712.359	0.0142259
712.437	0.0142313
712.515	0.0140102
712.593	0.0140791
712.671	0.0140417
712.749	0.0141224
712.828	0.0141319
712.906	0.0140667
712.984	0.0140576
713.062	0.0139520
713.140	0.0137790
713.218	0.0138854
713.296	0.0139897
713.374	0.0139317
713.453	0.0139600
713.531	0.0139314
713.609	0.0138637
713.687	0.0139806
713.765	0.0140727
713.843	0.0139567
713.921	0.0140434
713.999	0.0141090
714.078	0.0142018
714.156	0.0140826
714.234	0.0141112
714.312	0.0142362
714.390	0.0142052
714.468	0.0140145
714.546	0.0142398
714.624	0.0142576
714.703	0.0140448
714.781	0.0140455
714.859	0.0140910
714.937	0.0139926
715.015	0.0140089
715.093	0.0140232
715.171	0.0139493
715.249	0.0140448
715.328	0.0139954
715.406	0.0138608
715.484	0.0140896
715.562	0.0140567
715.640	0.0140928
715.718	0.0141611
715.796	0.0140408
715.874	0.0139111
715.953	0.0139410
716.031	0.0139177
716.109	0.0138878
716.187	0.0138146
716.265	0.0137764
716.343	0.0137174
716.421	0.0135461
716.499	0.0136290
716.578	0.0135082
716.656	0.0133994
716.734	0.0135018
716.812	0.0134541
716.890	0.0134995
716.968	0.0134882
717.046	0.0134579
717.124	0.0135798
717.203	0.0135848
717.281	0.0135911
717.359	0.0134821
717.437	0.0135242
717.515	0.0135104
717.593	0.0138863
717.671	0.0139385
717.749	0.0139500
717.828	0.0138538
717.906	0.0138772
717.984	0.0139123
718.062	0.0141275
718.140	0.0138537
718.218	0.0140284
718.296	0.0139368
718.374	0.0140583
718.453	0.0140874
718.531	0.0139275
718.609	0.0140227
718.687	0.0140824
718.765	0.0139429
718.843	0.0139214
718.921	0.0139853
718.999	0.0141008
719.078	0.0139247
719.156	0.0138972
719.234	0.0138148
719.312	0.0139230
719.390	0.0139374
719.468	0.0137582
719.546	0.0138122
719.624	0.0137238
719.703	0.0136780
719.781	0.0136086
719.859	0.0136485
719.937	0.0136132
720.015	0.0137066
720.093	0.0136765
720.171	0.0136665
720.249	0.0136571
720.328	0.0135064
720.406	0.0136473
720.484	0.0135124
720.562	0.0136437
720.640	0.0136408
720.718	0.0136606
720.796	0.0138559
720.874	0.0139510
720.953	0.0140920
721.031	0.0142144
721.109	0.0140680
721.187	0.0142206
721.265	0.0143587
721.343	0.0144107
721.421	0.0144984
721.499	0.0145560
721.578	0.0145090
721.656	0.0144598
721.734	0.0146455
721.812	0.0145641
721.890	0.0144693
721.968	0.0144617
722.046	0.0143096
722.124	0.0144649
722.203	0.0142342
722.281	0.0142438
722.359	0.0142147
722.437	0.0141082
722.515	0.0141129
722.593	0.0139391
722.671	0.0139542
722.749	0.0140443
722.828	0.0139716
722.906	0.0138141
722.984	0.0139685
723.062	0.0138609
723.140	0.0137212
723.218	0.0136876
723.296	0.0135844
723.374	0.0134863
723.453	0.0134189
723.531	0.0134908
723.609	0.0134573
723.687	0.0134872
723.765	0.0135345
723.843	0.0135271
723.921	0.0134353
723.999	0.0134177
724.078	0.0132811
724.156	0.0133214
724.234	0.0133440
724.312	0.0133777
724.390	0.0132588
724.468	0.0133590
724.546	0.0133894
724.624	0.0134877
724.703	0.0135539
724.781	0.0134693
724.859	0.0135989
724.937	0.0136536
725.015	0.0136043
725.093	0.0137028
725.171	0.0138470
725.249	0.0139530
725.328	0.0139867
725.406	0.0139540
725.484	0.0139278
725.562	0.0141275
725.640	0.0140413
725.718	0.0140600
725.796	0.0141101
725.874	0.0140254
725.953	0.0141785
726.031	0.0140868
726.109	0.0141445
726.187	0.0141431
726.265	0.0141143
726.343	0.0141858
726.421	0.0142186
726.499	0.0142266
726.578	0.0143124
726.656	0.0141883
726.734	0.0143554
726.812	0.0142345
726.890	0.0143763
726.968	0.0144205
727.046	0.0143243
727.124	0.0143733
727.203	0.0142863
727.281	0.0143791
727.359	0.0145030
727.437	0.0143481
727.515	0.0143452
727.593	0.0142759
727.671	0.0142390
727.749	0.0142500
727.828	0.0141733
727.906	0.0142119
727.984	0.0141483
728.062	0.0139521
728.140	0.0141187
728.218	0.0141447
728.296	0.0141600
728.374	0.0140103
728.453	0.0140160
728.531	0.0140295
728.609	0.0138593
728.687	0.0139507
728.765	0.0139649
728.843	0.0138227
728.921	0.0138911
728.999	0.0137944
729.078	0.0137816
729.156	0.0138418
729.234	0.0140557
729.312	0.0139362
729.390	0.0139292
729.468	0.0137122
729.546	0.0137917
729.624	0.0138914
729.703	0.0138916
729.781	0.0137197
729.859	0.0137228
729.937	0.0137685
730.015	0.0138276
730.093	0.0138287
730.171	0.0138430
730.249	0.0137299
730.328	0.0137479
730.406	0.0137949
730.484	0.0139574
730.562	0.0138592
730.640	0.0139139
730.718	0.0138438
730.796	0.0139505
730.874	0.0139540
730.953	0.0138878
731.031	0.0139275
731.109	0.0139799
731.187	0.0138798
731.265	0.0140294
731.343	0.0137125
731.421	0.0138689
731.499	0.0139258
731.578	0.0138795
731.656	0.0136643
731.734	0.0137917
731.812	0.0137345
731.890	0.0136120
731.968	0.0136942
732.046	0.0137323
732.124	0.0136497
732.203	0.0137755
732.281	0.0138012
732.359	0.0137608
732.437	0.0138532
732.515	0.0138081
732.593	0.0139252
732.671	0.0138901
732.749	0.0139877
732.828	0.0141003
732.906	0.0140086
732.984	0.0139039
733.062	0.0140468
733.140	0.0139843
733.218	0.0139472
733.296	0.0140421
733.374	0.0138824
733.453	0.0139189
733.531	0.0140499
733.609	0.0141634
733.687	0.0141113
733.765	0.0140559
733.843	0.0140778
733.921	0.0141723
733.999	0.0142242
734.078	0.0141403
734.156	0.0141893
734.234	0.0141920
734.312	0.0142723
734.390	0.0143401
734.468	0.0143777
734.546	0.0143635
734.624	0.0143416
734.703	0.0143947
734.781	0.0144777
734.859	0.0144265
734.937	0.0145803
735.015	0.0144981
735.093	0.0143544
735.171	0.0144055
735.249	0.0143279
735.328	0.0142896
735.406	0.0143141
735.484	0.0142329
735.562	0.0140487
735.640	0.0141752
735.718	0.0139904
735.796	0.0140258
735.874	0.0140621
735.953	0.0138818
736.031	0.0139065
736.109	0.0139495
736.187	0.0139368
736.265	0.0137536
736.343	0.0139045
736.421	0.0137778
736.499	0.0136868
736.578	0.0137316
736.656	0.0137302
736.734	0.0136817
736.812	0.0135902
736.890	0.0135867
736.968	0.0136221
737.046	0.0135923
737.124	0.0135516
737.203	0.0136461
737.281	0.0136267
737.359	0.0136182
737.437	0.0137729
737.515	0.0136707
737.593	0.0137102
737.671	0.0137254
737.749	0.0136877
737.828	0.0137609
737.906	0.0138036
737.984	0.0139136
738.062	0.0138371
738.140	0.0137997
738.218	0.0139691
738.296	0.0140395
738.374	0.0141457
738.453	0.0141933
738.531	0.0141110
738.609	0.0142531
738.687	0.0142699
738.765	0.0143240
738.843	0.0143275
738.921	0.0142586
738.999	0.0144341
739.078	0.0143053
739.156	0.0143694
739.234	0.0143570
739.312	0.0141975
739.390	0.0141393
739.468	0.0140748
739.546	0.0141827
739.624	0.0141174
739.703	0.0142104
739.781	0.0140234
739.859	0.0141182
739.937	0.0140120
740.015	0.0139843
740.093	0.0141711
740.171	0.0139640
740.249	0.0139093
740.328	0.0140417
740.406	0.0140479
740.484	0.0139674
740.562	0.0141341
740.640	0.0138934
740.718	0.0139704
740.796	0.0139784
740.874	0.0141560
740.953	0.0140159
741.031	0.0139207
741.109	0.0139653
741.187	0.0140289
741.265	0.0139248
741.343	0.0139996
741.421	0.0138852
741.499	0.0138279
741.578	0.0137472
741.656	0.0138271
741.734	0.0139372
741.812	0.0139738
741.890	0.0138873
741.968	0.0138301
742.046	0.0138602
742.124	0.0138377
742.203	0.0139180
742.281	0.0138910
742.359	0.0139649
742.437	0.0140042
742.515	0.0139076
742.593	0.0139378
742.671	0.0139741
742.749	0.0140173
742.828	0.0139248
742.906	0.0138976
742.984	0.0137946
743.062	0.0137866
743.140	0.0138430
743.218	0.0137822
743.296	0.0138756
743.374	0.0138840
743.453	0.0138137
743.531	0.0137273
743.609	0.0138351
743.687	0.0137414
743.765	0.0136709
743.843	0.0136795
743.921	0.0136026
743.999	0.0137220
744.078	0.0138560
744.156	0.0137071
744.234	0.0136713
744.312	0.0136588
744.390	0.0136295
744.468	0.0135682
744.546	0.0136118
744.624	0.0136028
744.703	0.0136082
744.781	0.0135368
744.859	0.0134448
744.937	0.0135048
745.015	0.0135511
745.093	0.0135909
745.171	0.0134911
745.249	0.0135476
745.328	0.0135922
745.406	0.0135696
745.484	0.0136400
745.562	0.0136829
745.640	0.0135999
745.718	0.0138074
745.796	0.0138561
745.874	0.0137804
745.953	0.0138914
746.031	0.0138867
746.109	0.0138525
746.187	0.0141107
746.265	0.0140392
746.343	0.0139487
746.421	0.0139979
746.499	0.0139684
746.578	0.0139594
746.656	0.0139704
746.734	0.0139490
746.812	0.0139560
746.890	0.0138639
746.968	0.0138971
747.046	0.0138461
747.124	0.0137988
747.203	0.0139381
747.281	0.0137827
747.359	0.0137366
747.437	0.0137184
747.515	0.0136012
747.593	0.0136655
747.671	0.0137178
747.749	0.0136504
747.828	0.0137286
747.906	0.0137074
747.984	0.0136544
748.062	0.0137103
748.140	0.0135348
748.218	0.0137206
748.296	0.0135873
748.374	0.0136138
748.453	0.0137550
748.531	0.0138373
748.609	0.0138126
748.687	0.0138053
748.765	0.0137651
748.843	0.0138389
748.921	0.0138900
748.999	0.0138406
749.078	0.0139629
749.156	0.0139568
749.234	0.0139957
749.312	0.0139637
749.390	0.0139553
749.468	0.0140315
749.546	0.0141380
749.624	0.0142426
749.703	0.0142134
749.781	0.0141515
749.859	0.0141682
749.937	0.0141364
750.015	0.0142223
750.093	0.0142173
750.171	0.0142857
750.249	0.0141430
750.328	0.0141772
750.406	0.0142007
750.484	0.0141499
750.562	0.0141430
750.640	0.0141672
750.718	0.0141133
750.796	0.0139600
750.874	0.0140624
750.953	0.0140235
751.031	0.0139899
751.109	0.0140250
751.187	0.0138918
751.265	0.0139231
751.343	0.0140212
751.421	0.0139748
751.499	0.0140427
751.578	0.0139924
751.656	0.0140424
751.734	0.0140620
751.812	0.0139859
751.890	0.0138692
751.968	0.0139156
752.046	0.0139867
752.124	0.0138766
752.203	0.0139665
752.281	0.0140588
752.359	0.0138422
752.437	0.0137874
752.515	0.0139240
752.593	0.0139554
752.671	0.0139806
752.749	0.0138194
752.828	0.0138486
752.906	0.0139581
752.984	0.0138405
753.062	0.0139332
753.140	0.0137840
753.218	0.0139336
753.296	0.0140333
753.374	0.0140570
753.453	0.0140198
753.531	0.0139047
753.609	0.0140160
753.687	0.0139091
753.765	0.0140122
753.843	0.0139881
753.921	0.0140499
753.999	0.0140742
754.078	0.0140668
754.156	0.0139907
754.234	0.0141687
754.312	0.0139777
754.390	0.0139737
754.468	0.0140427
754.546	0.0141354
754.624	0.0139941
754.703	0.0139513
754.781	0.0139556
754.859	0.0140513
754.937	0.0140521
755.015	0.0140285
755.093	0.0139645
755.171	0.0140005
755.249	0.0139989
755.328	0.0140388
755.406	0.0140032
755.484	0.0139555
755.562	0.0139222
755.640	0.0140160
755.718	0.0138417
755.796	0.0138918
755.874	0.0138406
755.953	0.0138868
756.031	0.0139642
756.109	0.0138018
756.187	0.0137775
756.265	0.0136343
756.343	0.0136465
756.421	0.0137654
756.499	0.0137047
756.578	0.0137718
756.656	0.0137722
756.734	0.0139201
756.812	0.0137595
756.890	0.0137859
756.968	0.0137495
757.046	0.0137674
757.124	0.0137998
757.203	0.0139957
757.281	0.0139856
757.359	0.0140854
757.437	0.0140945
757.515	0.0140922
757.593	0.0142813
757.671	0.0142471
757.749	0.0142017
757.828	0.0142607
757.906	0.0142519
757.984	0.0143478
758.062	0.0143298
758.140	0.0143264
758.218	0.0142902
758.296	0.0141006
758.374	0.0142306
758.453	0.0142442
758.531	0.0141420
758.609	0.0141747
758.687	0.0141389
758.765	0.0141695
758.843	0.0139911
758.921	0.0140016
758.999	0.0140369
759.078	0.0139660
759.156	0.0140496
759.234	0.0140095
759.312	0.0139088
759.390	0.0139993
759.468	0.0139399
759.546	0.0139212
759.624	0.0139531
759.703	0.0137973
759.781	0.0137675
759.859	0.0138094
759.937	0.0137248
760.015	0.0138118
760.093	0.0136570
760.171	0.0137510
760.249	0.0137048
760.328	0.0136121
760.406	0.0137093
760.484	0.0137051
760.562	0.0136020
760.640	0.0137466
760.718	0.0137325
760.796	0.0136666
760.874	0.0137682
760.953	0.0136690
761.031	0.0137410
761.109	0.0137812
761.187	0.0137284
761.265	0.0139182
761.343	0.0139075
761.421	0.0139935
761.499	0.0138549
761.578	0.0139395
761.656	0.0139392
761.734	0.0139408
761.812	0.0138792
761.890	0.0139518
761.968	0.0140263
762.046	0.0139445
762.124	0.0141563
762.203	0.0141936
762.281	0.0140308
762.359	0.0141729
762.437	0.0141762
762.515	0.0140573
762.593	0.0141571
762.671	0.0141852
762.749	0.0142249
762.828	0.0142712
762.906	0.0142342
762.984	0.0142442
763.062	0.0142699
763.140	0.0143576
763.218	0.0142525
763.296	0.0142248
763.374	0.0142575
763.453	0.0141182
763.531	0.0142104
763.609	0.0141730
763.687	0.0141138
763.765	0.0140485
763.843	0.0139820
763.921	0.0140553
763.999	0.0139746
764.078	0.0138821
764.156	0.0139890
764.234	0.0139229
764.312	0.0139198
764.390	0.0138355
764.468	0.0138168
764.546	0.0138982
764.624	0.0138594
764.703	0.0138587
764.781	0.0137410
764.859	0.0137090
764.937	0.0137751
765.015	0.0136803
765.093	0.0138169
765.171	0.0136892
765.249	0.0135551
765.328	0.0137803
765.406	0.0139165
765.484	0.0137210
765.562	0.0136622
765.640	0.0137218
765.718	0.0137382
765.796	0.0138354
765.874	0.0137199
765.953	0.0137000
766.031	0.0137441
766.109	0.0137585
766.187	0.0138573
766.265	0.0137926
766.343	0.0138374
766.421	0.0138326
766.499	0.0139141
766.578	0.0140089
766.656	0.0139607
766.734	0.0140563
766.812	0.0137911
766.890	0.0138773
766.968	0.0140388
767.046	0.0140110
767.124	0.0138228
767.203	0.0137240
767.281	0.0137603
767.359	0.0139104
767.437	0.0136774
767.515	0.0136984
767.593	0.0139394
767.671	0.0136780
767.749	0.0136944
767.828	0.0136887
767.906	0.0137872
767.984	0.0137470
768.062	0.0136246
768.140	0.0137948
768.218	0.0136707
768.296	0.0137394
768.374	0.0137786
768.453	0.0137875
768.531	0.0137707
768.609	0.0136899
768.687	0.0137527
768.765	0.0137925
768.843	0.0135793
768.921	0.0138208
768.999	0.0139402
769.078	0.0138495
769.156	0.0136659
769.234	0.0136977
769.312	0.0136607
769.390	0.0137787
769.468	0.0136839
769.546	0.0139466
769.624	0.0139211
769.703	0.0138429
769.781	0.0138870
769.859	0.0137764
769.937	0.0138376
770.015	0.0138384
770.093	0.0138744
770.171	0.0138493
770.249	0.0139185
770.328	0.0139159
770.406	0.0138745
770.484	0.0138744
770.562	0.0138173
770.640	0.0138246
770.718	0.0137669
770.796	0.0138882
770.874	0.0138697
770.953	0.0139101
771.031	0.0136865
771.109	0.0138606
771.187	0.0138132
771.265	0.0136516
771.343	0.0137724
771.421	0.0137882
771.499	0.0137633
771.578	0.0136012
771.656	0.0135739
771.734	0.0136922
771.812	0.0137529
771.890	0.0137880
771.968	0.0136423
772.046	0.0136018
772.124	0.0135937
772.203	0.0136597
772.281	0.0137764
772.359	0.0137499
772.437	0.0136990
772.515	0.0137603
772.593	0.0135677
772.671	0.0135677
772.749	0.0137177
772.828	0.0137629
772.906	0.0138259
772.984	0.0137429
773.062	0.0137831
773.140	0.0138206
773.218	0.0137572
773.296	0.0139338
773.374	0.0139687
773.453	0.0139818
773.531	0.0139732
773.609	0.0139969
773.687	0.0140394
773.765	0.0140311
773.843	0.0140040
773.921	0.0141158
773.999	0.0141164
774.078	0.0140473
774.156	0.0140302
774.234	0.0141264
774.312	0.0141904
774.390	0.0141156
774.468	0.0141040
774.546	0.0140179
774.624	0.0140719
774.703	0.0139274
774.781	0.0141747
774.859	0.0140406
774.937	0.0140686
775.015	0.0140547
775.093	0.0140125
775.171	0.0138731
775.249	0.0139651
775.328	0.0139816
775.406	0.0139632
775.484	0.0142509
775.562	0.0140236
775.640	0.0139556
775.718	0.0140162
775.796	0.0139918
775.874	0.0141046
775.953	0.0141869
776.031	0.0141267
776.109	0.0140549
776.187	0.0141326
776.265	0.0140955
776.343	0.0140009
776.421	0.0140569
776.499	0.0139921
776.578	0.0140115
776.656	0.0138910
776.734	0.0139480
776.812	0.0139255
776.890	0.0139636
776.968	0.0139584
777.046	0.0139960
777.124	0.0140123
777.203	0.0139931
777.281	0.0138784
777.359	0.0137550
777.437	0.0137736
777.515	0.0138327
777.593	0.0138596
777.671	0.0138039
777.749	0.0138444
777.828	0.0138641
777.906	0.0136333
777.984	0.0136919
778.062	0.0138455
778.140	0.0137834
778.218	0.0137911
778.296	0.0138659
778.374	0.0138805
778.453	0.0138995
778.531	0.0139323
778.609	0.0140643
778.687	0.0139825
778.765	0.0139538
778.843	0.0137607
778.921	0.0139352
778.999	0.0138947
779.078	0.0139540
779.156	0.0139478
779.234	0.0141312
779.312	0.0138050
779.390	0.0139828
779.468	0.0140854
779.546	0.0139344
779.624	0.0139481
779.703	0.0140443
779.781	0.0140784
779.859	0.0139818
779.937	0.0140499
780.015	0.0141610
780.093	0.0140839
780.171	0.0141492
780.249	0.0141700
780.328	0.0141113
780.406	0.0142550
780.484	0.0141540
780.562	0.0142186
780.640	0.0141515
780.718	0.0141953
780.796	0.0140327
780.874	0.0142616
780.953	0.0140414
781.031	0.0139396
781.109	0.0140642
781.187	0.0140556
781.265	0.0140443
781.343	0.0142166
781.421	0.0140563
781.499	0.0141691
781.578	0.0141251
781.656	0.0141496
781.734	0.0144037
781.812	0.0142371
781.890	0.0143076
781.968	0.0140930
782.046	0.0141556
782.124	0.0140794
782.203	0.0141547
782.281	0.0141367
782.359	0.0140002
782.437	0.0139977
782.515	0.0141121
782.593	0.0142500
782.671	0.0140126
782.749	0.0142454
782.828	0.0141621
782.906	0.0141335
782.984	0.0139997
783.062	0.0141355
783.140	0.0140450
783.218	0.0138564
783.296	0.0140505
783.374	0.0139996
783.453	0.0138716
783.531	0.0139919
783.609	0.0139760
783.687	0.0138815
783.765	0.0138661
783.843	0.0137910
783.921	0.0140327
783.999	0.0141270
784.078	0.0140916
784.156	0.0139989
784.234	0.0137955
784.312	0.0137529
784.390	0.0138741
784.468	0.0136960
784.546	0.0136189
784.624	0.0136291
784.703	0.0136378
784.781	0.0136044
784.859	0.0135641
784.937	0.0135928
785.015	0.0135325
785.093	0.0135909
785.171	0.0136237
785.249	0.0135941
785.328	0.0137224
785.406	0.0137461
785.484	0.0136207
785.562	0.0138181
785.640	0.0138615
785.718	0.0140458
785.796	0.0138311
785.874	0.0138329
785.953	0.0137574
786.031	0.0137456
786.109	0.0137129
786.187	0.0135769
786.265	0.0136787
786.343	0.0134920
786.421	0.0136031
786.499	0.0136351
786.578	0.0136228
786.656	0.0137389
786.734	0.0138365
786.812	0.0140990
786.890	0.0140891
786.968	0.0140753
787.046	0.0140804
787.124	0.0142509
787.203	0.0142301
787.281	0.0141407
787.359	0.0139904
787.437	0.0138806
787.515	0.0137894
787.593	0.0138703
787.671	0.0138476
787.749	0.0137465
787.828	0.0137156
787.906	0.0136954
787.984	0.0138600
788.062	0.0138755
788.140	0.0140313
788.218	0.0140527
788.296	0.0139348
788.374	0.0141670
788.453	0.0141235
788.531	0.0141463
788.609	0.0140365
788.687	0.0140773
788.765	0.0140396
788.843	0.0140415
788.921	0.0140288
788.999	0.0140461
789.078	0.0139229
789.156	0.0138725
789.234	0.0139543
789.312	0.0139665
789.390	0.0139858
789.468	0.0138937
789.546	0.0137720
789.624	0.0139176
789.703	0.0138649
789.781	0.0137722
789.859	0.0139481
789.937	0.0140652
790.015	0.0141186
790.093	0.0139977
790.171	0.0141070
790.249	0.0141221
790.328	0.0140726
790.406	0.0140099
790.484	0.0140250
790.562	0.0140787
790.640	0.0140186
790.718	0.0138193
790.796	0.0138585
790.874	0.0137815
790.953	0.0136800
791.031	0.0136880
791.109	0.0136789
791.187	0.0137231
791.265	0.0137452
791.343	0.0140096
791.421	0.0139999
791.499	0.0139053
791.578	0.0140448
791.656	0.0140807
791.734	0.0140248
791.812	0.0141312
791.890	0.0143255
791.968	0.0140519
792.046	0.0140011
792.124	0.0140150
792.203	0.0140034
792.281	0.0137983
792.359	0.0137884
792.437	0.0137928
792.515	0.0137618
792.593	0.0137543
792.671	0.0138290
792.749	0.0138335
792.828	0.0138436
792.906	0.0138196
792.984	0.0137675
793.062	0.0137087
793.140	0.0136963
793.218	0.0136193
793.296	0.0136879
793.374	0.0137429
793.453	0.0137262
793.531	0.0137149
793.609	0.0136771
793.687	0.0138956
793.765	0.0139564
793.843	0.0138340
793.921	0.0138098
793.999	0.0140244
794.078	0.0139876
794.156	0.0140712
794.234	0.0140933
794.312	0.0141116
794.390	0.0140683
794.468	0.0139253
794.546	0.0136852
794.624	0.0137532
794.703	0.0134003
794.781	0.0135703
794.859	0.0136326
794.937	0.0133977
795.015	0.0135334
795.093	0.0135454
795.171	0.0137699
795.249	0.0138197
795.328	0.0139115
795.406	0.0137530
795.484	0.0137267
795.562	0.0139436
795.640	0.0138277
795.718	0.0137248
795.796	0.0137010
795.874	0.0136804
795.953	0.0136636
796.031	0.0136699
796.109	0.0136047
796.187	0.0136104
796.265	0.0135939
796.343	0.0135390
796.421	0.0136792
796.499	0.0134925
796.578	0.0136231
796.656	0.0135271
796.734	0.0135291
796.812	0.0137184
796.890	0.0134776
796.968	0.0137049
797.046	0.0136784
797.124	0.0136287
797.203	0.0136958
797.281	0.0139046
797.359	0.0136366
797.437	0.0136037
797.515	0.0137297
797.593	0.0138029
797.671	0.0138808
797.749	0.0139072
797.828	0.0139194
797.906	0.0141304
797.984	0.0140414
798.062	0.0140736
798.140	0.0142940
798.218	0.0144104
798.296	0.0142466
798.374	0.0142756
798.453	0.0142059
798.531	0.0140340
798.609	0.0139681
798.687	0.0141154
798.765	0.0139297
798.843	0.0138121
798.921	0.0137659
798.999	0.0136977
799.078	0.0136739
799.156	0.0137128
799.234	0.0138721
799.312	0.0138810
799.390	0.0139094
799.468	0.0138834
799.546	0.0139542
799.624	0.0139414
799.703	0.0139856
799.781	0.0138334
799.859	0.0139683
799.937	0.0138885
800.015	0.0139240
800.093	0.0138049
800.171	0.0137131
800.249	0.0138850
800.328	0.0138127
800.406	0.0137832
800.484	0.0138762
800.562	0.0138065
800.640	0.0137804
800.718	0.0139243
800.796	0.0140514
800.874	0.0141085
800.953	0.0141709
801.031	0.0140589
801.109	0.0140623
801.187	0.0140660
801.265	0.0141116
801.343	0.0141203
801.421	0.0140833
801.499	0.0139917
801.578	0.0137920
801.656	0.0138404
801.734	0.0139056
801.812	0.0137900
801.890	0.0137456
801.968	0.0138210
802.046	0.0138714
802.124	0.0138780
802.203	0.0138778
802.281	0.0138251
802.359	0.0139959
802.437	0.0138834
802.515	0.0138618
802.593	0.0137875
802.671	0.0136229
802.749	0.0136033
802.828	0.0136678
802.906	0.0136134
802.984	0.0135747
803.062	0.0135849
803.140	0.0136916
803.218	0.0137923
803.296	0.0139111
803.374	0.0138934
803.453	0.0139122
803.531	0.0140282
803.609	0.0142745
803.687	0.0142615
803.765	0.0143877
803.843	0.0145095
803.921	0.0144746
803.999	0.0144913
804.078	0.0145710
804.156	0.0145326
804.234	0.0145045
804.312	0.0144749
804.390	0.0143227
804.468	0.0142839
804.546	0.0142425
804.624	0.0141344
804.703	0.0140613
804.781	0.0140820
804.859	0.0138895
804.937	0.0138145
805.015	0.0137747
805.093	0.0138876
805.171	0.0137991
805.249	0.0136358
805.328	0.0135651
805.406	0.0135869
805.484	0.0137431
805.562	0.0135162
805.640	0.0136846
805.718	0.0134935
805.796	0.0135944
805.874	0.0137862
805.953	0.0136932
806.031	0.0136023
806.109	0.0138805
806.187	0.0138398
806.265	0.0138065
806.343	0.0138931
806.421	0.0139406
806.499	0.0140234
806.578	0.0141231
806.656	0.0141601
806.734	0.0141687
806.812	0.0142719
806.890	0.0144238
806.968	0.0143805
807.046	0.0144180
807.124	0.0145980
807.203	0.0145828
807.281	0.0144051
807.359	0.0143629
807.437	0.0144312
807.515	0.0142699
807.593	0.0141470
807.671	0.0140694
807.749	0.0141439
807.828	0.0139906
807.906	0.0138255
807.984	0.0137052
808.062	0.0135345
808.140	0.0135436
808.218	0.0137083
808.296	0.0137337
808.374	0.0135114
808.453	0.0135895
808.531	0.0137066
808.609	0.0136081
808.687	0.0138480
808.765	0.0137396
808.843	0.0137134
808.921	0.0138637
808.999	0.0138600
809.078	0.0138926
809.156	0.0139681
809.234	0.0140028
809.312	0.0140525
809.390	0.0140486
809.468	0.0141006
809.546	0.0142498
809.624	0.0142151
809.703	0.0143008
809.781	0.0142343
809.859	0.0141422
809.937	0.0143797
810.015	0.0143407
810.093	0.0144176
810.171	0.0143067
810.249	0.0143027
810.328	0.0141370
810.406	0.0140890
810.484	0.0141560
810.562	0.0141642
810.640	0.0141018
810.718	0.0139747
810.796	0.0140417
810.874	0.0139292
810.953	0.0138204
811.031	0.0136211
811.109	0.0136495
811.187	0.0136579
811.265	0.0134795
811.343	0.0134274
811.421	0.0133310
811.499	0.0134407
811.578	0.0133701
811.656	0.0134052
811.734	0.0134540
811.812	0.0135356
811.890	0.0136355
811.968	0.0137585
812.046	0.0139427
812.124	0.0140839
812.203	0.0140733
812.281	0.0141743
812.359	0.0142133
812.437	0.0142175
812.515	0.0143833
812.593	0.0142788
812.671	0.0141136
812.749	0.0142135
812.828	0.0142879
812.906	0.0140950
812.984	0.0140314
813.062	0.0138630
813.140	0.0139885
813.218	0.0139349
813.296	0.0138882
813.374	0.0139692
813.453	0.0139362
813.531	0.0138452
813.609	0.0137850
813.687	0.0137978
813.765	0.0138178
813.843	0.0136969
813.921	0.0137286
813.999	0.0134667
814.078	0.0135241
814.156	0.0133851
814.234	0.0134729
814.312	0.0132428
814.390	0.0131694
814.468	0.0133754
814.546	0.0133035
814.624	0.0132941
814.703	0.0134117
814.781	0.0134715
814.859	0.0134773
814.937	0.0135150
815.015	0.0136897
815.093	0.0137432
815.171	0.0138707
815.249	0.0139045
815.328	0.0137888
815.406	0.0140019
815.484	0.0141545
815.562	0.0141104
815.640	0.0139994
815.718	0.0139706
815.796	0.0139223
815.874	0.0138705
815.953	0.0137708
816.031	0.0137479
816.109	0.0138322
816.187	0.0139045
816.265	0.0138286
816.343	0.0137716
816.421	0.0138771
816.499	0.0137904
816.578	0.0136772
816.656	0.0138181
816.734	0.0135025
816.812	0.0136051
816.890	0.0136749
816.968	0.0135751
817.046	0.0136118
817.124	0.0135666
817.203	0.0136629
817.281	0.0136143
817.359	0.0136341
817.437	0.0137898
817.515	0.0137276
817.593	0.0138645
817.671	0.0138805
817.749	0.0139204
817.828	0.0139905
817.906	0.0141711
817.984	0.0138986
818.062	0.0141190
818.140	0.0141267
818.218	0.0141010
818.296	0.0140425
818.374	0.0138725
818.453	0.0138513
818.531	0.0140238
818.609	0.0139146
818.687	0.0138540
818.765	0.0138482
818.843	0.0137981
818.921	0.0137120
818.999	0.0136864
819.078	0.0138423
819.156	0.0137937
819.234	0.0137846
819.312	0.0138970
819.390	0.0138820
819.468	0.0140918
819.546	0.0139223
819.624	0.0142233
819.703	0.0143230
819.781	0.0141761
819.859	0.0141002
819.937	0.0141846
820.015	0.0143107
820.093	0.0141505
820.171	0.0141061
820.249	0.0139208
820.328	0.0139755
820.406	0.0139711
820.484	0.0140783
820.562	0.0137527
820.640	0.0139196
820.718	0.0139063
820.796	0.0138708
820.874	0.0139080
820.953	0.0138848
821.031	0.0139577
821.109	0.0140503
821.187	0.0140173
821.265	0.0139743
821.343	0.0141452
821.421	0.0141574
821.499	0.0140549
821.578	0.0142448
821.656	0.0142439
821.734	0.0141715
821.812	0.0141104
821.890	0.0140848
821.968	0.0141727
822.046	0.0141093
822.124	0.0141222
822.203	0.0141158
822.281	0.0139759
822.359	0.0139468
822.437	0.0139658
822.515	0.0138782
822.593	0.0139495
822.671	0.0138828
822.749	0.0139368
822.828	0.0139533
822.906	0.0139749
822.984	0.0139545
823.062	0.0139660
823.140	0.0139651
823.218	0.0139510
823.296	0.0141154
823.374	0.0142161
823.453	0.0141162
823.531	0.0141727
823.609	0.0142624
823.687	0.0140526
823.765	0.0142097
823.843	0.0142542
823.921	0.0142704
823.999	0.0141251
824.078	0.0141289
824.156	0.0142770
824.234	0.0143116
824.312	0.0141690
824.390	0.0142136
824.468	0.0142372
824.546	0.0140711
824.624	0.0141242
824.703	0.0140466
824.781	0.0139934
824.859	0.0140039
824.937	0.0138318
825.015	0.0139883
825.093	0.0137944
825.171	0.0137505
825.249	0.0139152
825.328	0.0138417
825.406	0.0139720
825.484	0.0138139
825.562	0.0139345
825.640	0.0138100
825.718	0.0138367
825.796	0.0138091
825.874	0.0137756
825.953	0.0137416
826.031	0.0137567
826.109	0.0136236
826.187	0.0137173
826.265	0.0138023
826.343	0.0138077
826.421	0.0138713
826.499	0.0138271
826.578	0.0138046
826.656	0.0138310
826.734	0.0139196
826.812	0.0140238
826.890	0.0138525
826.968	0.0139407
827.046	0.0140078
827.124	0.0141540
827.203	0.0141837
827.281	0.0141768
827.359	0.0141806
827.437	0.0142828
827.515	0.0140280
827.593	0.0139900
827.671	0.0140153
827.749	0.0140125
827.828	0.0139427
827.906	0.0140808
827.984	0.0139175
828.062	0.0138426
828.140	0.0138013
828.218	0.0138819
828.296	0.0138208
828.374	0.0137639
828.453	0.0137708
828.531	0.0139832
828.609	0.0138889
828.687	0.0137829
828.765	0.0137840
828.843	0.0139162
828.921	0.0139882
828.999	0.0139513
829.078	0.0138331
829.156	0.0138993
829.234	0.0139552
829.312	0.0139195
829.390	0.0139494
829.468	0.0139157
829.546	0.0139841
829.624	0.0138091
829.703	0.0138860
829.781	0.0138362
829.859	0.0139355
829.937	0.0138690
830.015	0.0138990
830.093	0.0138707
830.171	0.0137691
830.249	0.0138790
830.328	0.0138262
830.406	0.0137939
830.484	0.0137955
830.562	0.0137682
830.640	0.0137125
830.718	0.0137616
830.796	0.0137233
830.874	0.0138036
830.953	0.0139415
831.031	0.0138275
831.109	0.0137958
831.187	0.0138575
831.265	0.0140993
831.343	0.0140710
831.421	0.0141328
831.499	0.0141036
831.578	0.0143584
831.656	0.0141960
831.734	0.0141355
831.812	0.0140651
831.890	0.0141741
831.968	0.0141850
832.046	0.0143661
832.124	0.0140960
832.203	0.0140381
832.281	0.0140035
832.359	0.0140015
832.437	0.0139089
832.515	0.0138871
832.593	0.0138905
832.671	0.0138314
832.749	0.0136856
832.828	0.0137612
832.906	0.0138605
832.984	0.0137450
833.062	0.0137768
833.140	0.0136967
833.218	0.0137396
833.296	0.0138545
833.374	0.0138029
833.453	0.0138609
833.531	0.0138412
833.609	0.0141125
833.687	0.0139948
833.765	0.0139525
833.843	0.0139746
833.921	0.0139981
833.999	0.0139960
834.078	0.0139448
834.156	0.0139892
834.234	0.0141245
834.312	0.0140279
834.390	0.0139567
834.468	0.0139222
834.546	0.0140062
834.624	0.0140519
834.703	0.0140195
834.781	0.0139612
834.859	0.0140558
834.937	0.0139560
835.015	0.0138644
835.093	0.0140289
835.171	0.0138394
835.249	0.0138734
835.328	0.0138769
835.406	0.0137794
835.484	0.0139505
835.562	0.0138854
835.640	0.0138633
835.718	0.0138570
835.796	0.0139058
835.874	0.0140113
835.953	0.0139381
836.031	0.0139941
836.109	0.0140316
836.187	0.0140631
836.265	0.0142113
836.343	0.0140665
836.421	0.0141288
836.499	0.0140907
836.578	0.0140450
836.656	0.0141149
836.734	0.0142274
836.812	0.0141927
836.890	0.0141509
836.968	0.0141721
837.046	0.0142683
837.124	0.0140511
837.203	0.0140860
837.281	0.0140952
837.359	0.0140932
837.437	0.0140084
837.515	0.0139328
837.593	0.0140108
837.671	0.0139083
837.749	0.0137518
837.828	0.0137321
837.906	0.0137840
837.984	0.0137093
838.062	0.0138284
838.140	0.0138158
838.218	0.0137616
838.296	0.0139250
838.374	0.0138530
838.453	0.0139030
838.531	0.0140093
838.609	0.0138908
838.687	0.0139517
838.765	0.0136857
838.843	0.0137922
838.921	0.0139371
838.999	0.0139696
839.078	0.0138085
839.156	0.0138039
839.234	0.0138571
839.312	0.0137976
839.390	0.0139244
839.468	0.0138982
839.546	0.0140347
839.624	0.0139834
839.703	0.0138998
839.781	0.0139070
839.859	0.0138696
839.937	0.0140145
840.015	0.0140255
840.093	0.0140897
840.171	0.0139225
840.249	0.0140384
840.328	0.0141717
840.406	0.0140646
840.484	0.0139905
840.562	0.0140142
840.640	0.0140671
840.718	0.0138487
840.796	0.0139516
840.874	0.0141145
840.953	0.0139034
841.031	0.0137366
841.109	0.0138584
841.187	0.0138809
841.265	0.0137584
841.343	0.0138200
841.421	0.0138536
841.499	0.0137058
841.578	0.0138239
841.656	0.0138341
841.734	0.0137273
841.812	0.0137286
841.890	0.0138837
841.968	0.0138148
842.046	0.0138163
842.124	0.0138563
842.203	0.0138820
842.281	0.0138067
842.359	0.0139143
842.437	0.0138019
842.515	0.0136500
842.593	0.0137710
842.671	0.0137128
842.749	0.0136393
842.828	0.0136092
842.906	0.0138704
842.984	0.0138202
843.062	0.0137492
843.140	0.0138542
843.218	0.0139777
843.296	0.0139700
843.374	0.0138378
843.453	0.0138659
843.531	0.0140192
843.609	0.0140028
843.687	0.0139776
843.765	0.0139718
843.843	0.0140327
843.921	0.0139950
843.999	0.0137769
844.078	0.0138288
844.156	0.0137751
844.234	0.0138663
844.312	0.0137846
844.390	0.0137638
844.468	0.0136961
844.546	0.0137994
844.624	0.0138554
844.703	0.0138734
844.781	0.0139093
844.859	0.0138622
844.937	0.0139596
845.015	0.0138908
845.093	0.0140225
845.171	0.0138882
845.249	0.0140544
845.328	0.0139752
845.406	0.0139241
845.484	0.0139601
845.562	0.0141055
845.640	0.0139044
845.718	0.0138549
845.796	0.0139321
845.874	0.0141092
845.953	0.0137406
846.031	0.0138007
846.109	0.0137460
846.187	0.0137753
846.265	0.0137116
846.343	0.0137477
846.421	0.0138708
846.499	0.0136558
846.578	0.0138235
846.656	0.0137221
846.734	0.0138595
846.812	0.0139213
846.890	0.0138464
846.968	0.0138770
847.046	0.0138491
847.124	0.0138941
847.203	0.0139732
847.281	0.0141004
847.359	0.0139553
847.437	0.0138451
847.515	0.0140771
847.593	0.0139871
847.671	0.0139899
847.749	0.0140604
847.828	0.0142036
847.906	0.0140224
847.984	0.0140906
848.062	0.0141330
848.140	0.0140916
848.218	0.0140453
848.296	0.0140192
848.374	0.0141004
848.453	0.0141341
848.531	0.0142045
848.609	0.0142436
848.687	0.0142106
848.765	0.0140415
848.843	0.0141717
848.921	0.0141369
848.999	0.0140688
849.078	0.0142834
849.156	0.0140659
849.234	0.0140611
849.312	0.0142146
849.390	0.0140781
849.468	0.0140356
849.546	0.0139451
849.624	0.0140873
849.703	0.0140512
849.781	0.0140768
849.859	0.0139780
849.937	0.0139858
850.015	0.0139068
850.093	0.0139383
850.171	0.0140410
850.249	0.0139703
850.328	0.0139926
850.406	0.0137430
850.484	0.0139472
850.562	0.0138487
850.640	0.0137290
850.718	0.0137597
850.796	0.0138104
850.874	0.0136691
850.953	0.0135716
851.031	0.0136921
851.109	0.0136670
851.187	0.0137646
851.265	0.0135096
851.343	0.0136803
851.421	0.0136832
851.499	0.0136114
851.578	0.0136550
851.656	0.0137786
851.734	0.0136145
851.812	0.0137939
851.890	0.0137966
851.968	0.0138564
852.046	0.0139372
852.124	0.0137916
852.203	0.0139055
852.281	0.0141672
852.359	0.0140506
852.437	0.0140766
852.515	0.0141690
852.593	0.0140936
852.671	0.0140289
852.749	0.0141792
852.828	0.0140838
852.906	0.0140796
852.984	0.0142534
853.062	0.0140680
853.140	0.0140274
853.218	0.0139707
853.296	0.0139051
853.374	0.0139724
853.453	0.0139209
853.531	0.0139191
853.609	0.0138663
853.687	0.0138714
853.765	0.0139004
853.843	0.0139229
853.921	0.0138321
853.999	0.0138308
854.078	0.0138420
854.156	0.0138459
854.234	0.0137066
854.312	0.0138109
854.390	0.0139042
854.468	0.0137452
854.546	0.0138074
854.624	0.0137870
854.703	0.0137124
854.781	0.0138524
854.859	0.0137348
854.937	0.0138050
855.015	0.0139281
855.093	0.0140010
855.171	0.0138071
855.249	0.0139077
855.328	0.0139632
855.406	0.0138776
855.484	0.0137670
855.562	0.0140285
855.640	0.0139526
855.718	0.0139040
855.796	0.0140760
855.874	0.0139660
855.953	0.0138177
856.031	0.0140312
856.109	0.0140331
856.187	0.0141034
856.265	0.0140772
856.343	0.0140710
856.421	0.0140350
856.499	0.0140157
856.578	0.0141064
856.656	0.0138219
856.734	0.0139841
856.812	0.0140903
856.890	0.0138594
856.968	0.0139522
857.046	0.0138332
857.124	0.0138053
857.203	0.0139937
857.281	0.0138605
857.359	0.0138493
857.437	0.0139944
857.515	0.0139370
857.593	0.0140034
857.671	0.0138933
857.749	0.0138551
857.828	0.0139210
857.906	0.0138805
857.984	0.0139471
858.062	0.0138713
858.140	0.0137534
858.218	0.0137823
858.296	0.0136958
858.374	0.0136274
858.453	0.0136149
858.531	0.0135562
858.609	0.0137273
858.687	0.0137084
858.765	0.0136320
858.843	0.0135909
858.921	0.0137296
858.999	0.0136616
859.078	0.0136616
859.156	0.0136657
859.234	0.0137054
859.312	0.0137465
859.390	0.0137863
859.468	0.0136353
859.546	0.0138063
859.624	0.0138937
859.703	0.0137861
859.781	0.0137685
859.859	0.0139153
859.937	0.0137755
860.015	0.0138347
860.093	0.0138528
860.171	0.0139987
860.249	0.0138685
860.328	0.0137744
860.406	0.0136657
860.484	0.0138567
860.562	0.0138055
860.640	0.0138422
860.718	0.0139304
860.796	0.0138858
860.874	0.0137983
860.953	0.0138842
861.031	0.0138831
861.109	0.0138155
861.187	0.0139406
861.265	0.0139246
861.343	0.0138329
861.421	0.0141156
861.499	0.0139731
861.578	0.0139274
861.656	0.0139668
861.734	0.0140069
861.812	0.0139937
861.890	0.0140329
861.968	0.0137668
862.046	0.0138885
862.124	0.0139233
862.203	0.0138686
862.281	0.0138122
862.359	0.0139548
862.437	0.0139645
862.515	0.0137611
862.593	0.0138728
862.671	0.0138438
862.749	0.0138786
862.828	0.0138251
862.906	0.0139584
862.984	0.0138740
863.062	0.0138924
863.140	0.0139120
863.218	0.0138789
863.296	0.0139126
863.374	0.0139890
863.453	0.0140143
863.531	0.0138945
863.609	0.0139004
863.687	0.0138841
863.765	0.0139783
863.843	0.0139396
863.921	0.0139382
863.999	0.0138956
864.078	0.0138742
864.156	0.0139355
864.234	0.0140314
864.312	0.0139153
864.390	0.0140188
864.468	0.0140461
864.546	0.0139666
864.624	0.0139294
864.703	0.0138618
864.781	0.0140809
864.859	0.0140827
864.937	0.0140071
865.015	0.0140115
865.093	0.0140485
865.171	0.0141625
865.249	0.0139777
865.328	0.0139562
865.406	0.0139394
865.484	0.0140116
865.562	0.0139798
865.640	0.0139935
865.718	0.0140144
865.796	0.0138886
865.874	0.0139668
865.953	0.0140333
866.031	0.0139622
866.109	0.0139958
866.187	0.0140289
866.265	0.0139104
866.343	0.0139680
866.421	0.0138343
866.499	0.0138501
866.578	0.0140805
866.656	0.0137807
866.734	0.0139249
866.812	0.0139777
866.890	0.0140585
866.968	0.0140438
867.046	0.0139455
867.124	0.0138320
867.203	0.0139619
867.281	0.0141306
867.359	0.0140420
867.437	0.0139889
867.515	0.0141015
867.593	0.0140601
867.671	0.0140669
867.749	0.0141812
867.828	0.0140691
867.906	0.0141470
867.984	0.0142555
868.062	0.0140933
868.140	0.0140818
868.218	0.0141412
868.296	0.0140797
868.374	0.0142033
868.453	0.0141327
868.531	0.0141496
868.609	0.0142790
868.687	0.0141864
868.765	0.0141988
868.843	0.0141621
868.921	0.0141004
868.999	0.0141732
869.078	0.0140578
869.156	0.0139120
869.234	0.0139520
869.312	0.0140696
869.390	0.0139610
869.468	0.0139333
869.546	0.0140102
869.624	0.0140763
869.703	0.0138061
869.781	0.0138185
869.859	0.0139068
869.937	0.0139069
870.015	0.0138935
870.093	0.0139086
870.171	0.0138588
870.249	0.0139077
870.328	0.0138641
870.406	0.0137716
870.484	0.0137936
870.562	0.0140101
870.640	0.0139631
870.718	0.0139375
870.796	0.0139222
870.874	0.0139395
870.953	0.0139923
871.031	0.0139938
871.109	0.0140298
871.187	0.0141274
871.265	0.0141699
871.343	0.0141324
871.421	0.0141205
871.499	0.0140408
871.578	0.0141958
871.656	0.0141227
871.734	0.0141550
871.812	0.0141601
871.890	0.0141709
871.968	0.0140549
872.046	0.0141676
872.124	0.0142336
872.203	0.0142237
872.281	0.0142997
872.359	0.0141409
872.437	0.0141858
872.515	0.0141433
872.593	0.0141025
872.671	0.0140789
872.749	0.0142243
872.828	0.0141504
872.906	0.0141501
872.984	0.0141290
873.062	0.0141161
873.140	0.0140685
873.218	0.0141389
873.296	0.0140199
873.374	0.0139880
873.453	0.0139766
873.531	0.0141126
873.609	0.0139977
873.687	0.0139806
873.765	0.0140808
873.843	0.0139478
873.921	0.0138926
873.999	0.0139479
874.078	0.0139579
874.156	0.0140355
874.234	0.0139392
874.312	0.0138773
874.390	0.0138551
874.468	0.0138046
874.546	0.0138264
874.624	0.0137998
874.703	0.0138342
874.781	0.0137299
874.859	0.0137825
874.937	0.0137691
875.015	0.0136721
875.093	0.0136501
875.171	0.0137948
875.249	0.0137856
875.328	0.0138069
875.406	0.0136826
875.484	0.0138456
875.562	0.0138039
875.640	0.0138376
875.718	0.0138885
875.796	0.0138433
875.874	0.0137333
875.953	0.0138619
876.031	0.0137440
876.109	0.0137428
876.187	0.0138942
876.265	0.0137904
876.343	0.0139085
876.421	0.0139594
876.499	0.0139082
876.578	0.0139139
876.656	0.0140403
876.734	0.0139830
876.812	0.0140128
876.890	0.0141497
876.968	0.0140929
877.046	0.0140859
877.124	0.0141148
877.203	0.0140789
877.281	0.0139886
877.359	0.0139309
877.437	0.0139294
877.515	0.0139856
877.593	0.0139252
877.671	0.0138819
877.749	0.0138952
877.828	0.0139601
877.906	0.0138035
877.984	0.0138335
878.062	0.0137991
878.140	0.0137752
878.218	0.0137060
878.296	0.0136969
878.374	0.0139063
878.453	0.0137646
878.531	0.0137124
878.609	0.0138035
878.687	0.0136689
878.765	0.0136822
878.843	0.0136272
878.921	0.0136938
878.999	0.0136221
879.078	0.0136687
879.156	0.0137102
879.234	0.0135934
879.312	0.0135921
879.390	0.0137240
879.468	0.0136762
879.546	0.0135570
879.624	0.0137020
879.703	0.0137215
879.781	0.0136025
879.859	0.0137206
879.937	0.0136264
880.015	0.0136919
880.093	0.0138642
880.171	0.0138260
880.249	0.0138215
880.328	0.0136912
880.406	0.0137820
880.484	0.0138093
880.562	0.0138132
880.640	0.0138704
880.718	0.0138152
880.796	0.0139034
880.874	0.0139961
880.953	0.0139645
881.031	0.0139594
881.109	0.0141487
881.187	0.0139417
881.265	0.0139723
881.343	0.0138690
881.421	0.0139137
881.499	0.0139777
881.578	0.0139062
881.656	0.0139059
881.734	0.0140097
881.812	0.0138332
881.890	0.0138622
881.968	0.0139683
882.046	0.0138902
882.124	0.0137833
882.203	0.0139806
882.281	0.0138464
882.359	0.0137620
882.437	0.0137773
882.515	0.0137048
882.593	0.0136414
882.671	0.0138134
882.749	0.0137466
882.828	0.0136420
882.906	0.0136474
882.984	0.0136780
883.062	0.0136711
883.140	0.0138354
883.218	0.0137767
883.296	0.0136887
883.374	0.0137595
883.453	0.0139271
883.531	0.0138096
883.609	0.0137073
883.687	0.0138152
883.765	0.0138466
883.843	0.0139527
883.921	0.0140093
883.999	0.0139079
884.078	0.0138931
884.156	0.0138338
884.234	0.0139703
884.312	0.0140070
884.390	0.0140499
884.468	0.0140543
884.546	0.0139561
884.624	0.0141187
884.703	0.0141504
884.781	0.0140197
884.859	0.0141525
884.937	0.0140881
885.015	0.0140554
885.093	0.0141505
885.171	0.0140362
885.249	0.0140147
885.328	0.0140717
885.406	0.0140270
885.484	0.0139947
885.562	0.0138801
885.640	0.0139104
885.718	0.0140820
885.796	0.0139832
885.874	0.0141235
885.953	0.0139147
886.031	0.0140060
886.109	0.0138892
886.187	0.0140946
886.265	0.0139489
886.343	0.0140048
886.421	0.0138187
886.499	0.0140288
886.578	0.0139599
886.656	0.0139450
886.734	0.0139452
886.812	0.0139297
886.890	0.0140482
886.968	0.0138535
887.046	0.0138296
887.124	0.0139382
887.203	0.0141196
887.281	0.0138926
887.359	0.0139363
887.437	0.0139651
887.515	0.0138881
887.593	0.0137320
887.671	0.0138378
887.749	0.0138039
887.828	0.0137795
887.906	0.0139340
887.984	0.0138963
888.062	0.0137517
888.140	0.0138353
888.218	0.0140826
888.296	0.0140059
888.374	0.0138228
888.453	0.0139673
888.531	0.0137874
888.609	0.0139962
888.687	0.0140559
888.765	0.0139253
888.843	0.0139554
888.921	0.0139141
888.999	0.0138901
889.078	0.0136309
889.156	0.0138627
889.234	0.0139587
889.312	0.0139320
889.390	0.0139691
889.468	0.0137711
889.546	0.0138580
889.624	0.0138995
889.703	0.0139040
889.781	0.0140015
889.859	0.0140038
889.937	0.0138474
890.015	0.0139607
890.093	0.0139468
890.171	0.0139849
890.249	0.0140216
890.328	0.0139875
890.406	0.0139825
890.484	0.0141043
890.562	0.0139557
890.640	0.0139929
890.718	0.0140378
890.796	0.0141343
890.874	0.0140795
890.953	0.0140377
891.031	0.0138981
891.109	0.0139633
891.187	0.0141222
891.265	0.0141181
891.343	0.0139428
891.421	0.0140835
891.499	0.0141318
891.578	0.0139624
891.656	0.0140388
891.734	0.0139474
891.812	0.0139631
891.890	0.0139571
891.968	0.0140163
892.046	0.0140003
892.124	0.0140057
892.203	0.0138866
892.281	0.0138831
892.359	0.0138864
892.437	0.0139632
892.515	0.0140417
892.593	0.0139206
892.671	0.0138557
892.749	0.0140432
892.828	0.0140124
892.906	0.0138895
892.984	0.0138953
893.062	0.0139122
893.140	0.0138968
893.218	0.0139477
893.296	0.0139348
893.374	0.0138866
893.453	0.0138199
893.531	0.0138756
893.609	0.0138624
893.687	0.0138734
893.765	0.0138078
893.843	0.0138113
893.921	0.0139819
893.999	0.0138489
894.078	0.0137845
894.156	0.0138007
894.234	0.0139349
894.312	0.0140594
894.390	0.0138521
894.468	0.0138158
894.546	0.0140573
894.624	0.0138063
894.703	0.0139486
894.781	0.0140562
894.859	0.0138560
894.937	0.0138552
895.015	0.0138770
895.093	0.0139056
895.171	0.0139117
895.249	0.0139472
895.328	0.0139791
895.406	0.0139217
895.484	0.0138989
895.562	0.0138641
895.640	0.0139577
895.718	0.0139296
895.796	0.0138580
895.874	0.0139056
895.953	0.0139522
896.031	0.0139191
896.109	0.0138473
896.187	0.0140211
896.265	0.0138800
896.343	0.0138971
896.421	0.0139849
896.499	0.0140115
896.578	0.0139745
896.656	0.0140246
896.734	0.0140195
896.812	0.0139082
896.890	0.0140347
896.968	0.0140213
897.046	0.0139208
897.124	0.0140345
897.203	0.0140897
897.281	0.0139017
897.359	0.0139786
897.437	0.0139229
897.515	0.0138721
897.593	0.0139166
897.671	0.0139774
897.749	0.0138785
897.828	0.0138784
897.906	0.0138773
897.984	0.0139387
898.062	0.0139527
898.140	0.0139401
898.218	0.0138715
898.296	0.0139598
898.374	0.0138485
898.453	0.0137793
898.531	0.0137344
898.609	0.0138139
898.687	0.0138174
898.765	0.0138276
898.843	0.0137423
898.921	0.0137206
898.999	0.0138458
899.078	0.0136351
899.156	0.0137853
899.234	0.0138042
899.312	0.0137165
899.390	0.0136949
899.468	0.0136647
899.546	0.0137131
899.624	0.0137820
899.703	0.0136988
899.781	0.0137597
899.859	0.0137440
899.937	0.0136094
900.015	0.0136423
900.093	0.0136637
900.171	0.0137544
900.249	0.0138027
900.328	0.0138123
900.406	0.0137408
900.484	0.0135839
900.562	0.0137518
900.640	0.0137862
900.718	0.0137991
900.796	0.0137913
900.874	0.0139291
900.953	0.0138662
901.031	0.0138726
901.109	0.0137793
901.187	0.0138762
901.265	0.0140807
901.343	0.0138884
901.421	0.0139906
901.499	0.0139757
901.578	0.0139545
901.656	0.0139243
901.734	0.0138963
901.812	0.0138124
901.890	0.0139803
901.968	0.0139088
902.046	0.0139279
902.124	0.0139316
902.203	0.0139101
902.281	0.0138933
902.359	0.0137610
902.437	0.0138734
902.515	0.0139949
902.593	0.0138273
902.671	0.0137859
902.749	0.0138390
902.828	0.0137675
902.906	0.0139391
902.984	0.0138836
903.062	0.0138432
903.140	0.0139011
903.218	0.0139195
903.296	0.0137563
903.374	0.0138152
903.453	0.0139159
903.531	0.0139035
903.609	0.0138174
903.687	0.0139078
903.765	0.0138776
903.843	0.0139168
903.921	0.0138017
903.999	0.0138780
904.078	0.0140069
904.156	0.0136994
904.234	0.0138587
904.312	0.0139337
904.390	0.0139719
904.468	0.0138099
904.546	0.0139732
904.624	0.0137569
904.703	0.0138277
904.781	0.0138698
904.859	0.0137689
904.937	0.0139901
905.015	0.0139295
905.093	0.0138800
905.171	0.0138452
905.249	0.0138903
905.328	0.0138660
905.406	0.0137714
905.484	0.0138014
905.562	0.0138998
905.640	0.0137761
905.718	0.0138758
905.796	0.0139091
905.874	0.0138931
905.953	0.0139194
906.031	0.0137695
906.109	0.0137254
906.187	0.0137832
906.265	0.0137538
906.343	0.0138486
906.421	0.0139416
906.499	0.0139359
906.578	0.0138322
906.656	0.0138344
906.734	0.0137457
906.812	0.0136375
906.890	0.0137762
906.968	0.0138600
907.046	0.0137810
907.124	0.0136860
907.203	0.0137807
907.281	0.0137466
907.359	0.0136963
907.437	0.0136603
907.515	0.0135806
907.593	0.0136488
907.671	0.0137730
907.749	0.0137050
907.828	0.0136372
907.906	0.0136365
907.984	0.0136977
908.062	0.0136457
908.140	0.0136352
908.218	0.0136239
908.296	0.0136946
908.374	0.0137104
908.453	0.0137234
908.531	0.0136651
908.609	0.0135796
908.687	0.0137457
908.765	0.0137518
908.843	0.0137834
908.921	0.0136819
908.999	0.0138340
909.078	0.0137924
909.156	0.0139917
909.234	0.0139486
909.312	0.0138550
909.390	0.0140100
909.468	0.0139446
909.546	0.0138725
909.624	0.0137994
909.703	0.0140052
909.781	0.0140477
909.859	0.0140589
909.937	0.0139803
910.015	0.0139070
910.093	0.0138422
910.171	0.0139536
910.249	0.0138300
910.328	0.0139696
910.406	0.0139096
910.484	0.0139079
910.562	0.0138372
910.640	0.0138435
910.718	0.0138552
910.796	0.0137972
910.874	0.0140355
910.953	0.0137694
911.031	0.0137708
911.109	0.0137662
911.187	0.0136647
911.265	0.0136729
911.343	0.0138506
911.421	0.0138590
911.499	0.0137062
911.578	0.0136440
911.656	0.0138123
911.734	0.0136078
911.812	0.0137611
911.890	0.0136646
911.968	0.0136510
912.046	0.0138113
912.124	0.0137828
912.203	0.0138195
912.281	0.0137727
912.359	0.0138251
912.437	0.0138499
912.515	0.0137718
912.593	0.0139440
912.671	0.0137388
912.749	0.0137455
912.828	0.0138618
912.906	0.0137937
912.984	0.0139269
913.062	0.0139154
913.140	0.0139716
913.218	0.0138498
913.296	0.0139643
913.374	0.0139413
913.453	0.0140202
913.531	0.0137944
913.609	0.0139877
913.687	0.0139454
913.765	0.0140590
913.843	0.0139745
913.921	0.0140862
913.999	0.0139754
914.078	0.0139777
914.156	0.0140263
914.234	0.0140141
914.312	0.0139217
914.390	0.0138777
914.468	0.0140304
914.546	0.0140703
914.624	0.0140479
914.703	0.0139389
914.781	0.0138217
914.859	0.0140302
914.937	0.0139526
915.015	0.0138911
915.093	0.0140079
915.171	0.0139415
915.249	0.0140141
915.328	0.0139642
915.406	0.0140133
915.484	0.0139934
915.562	0.0138976
915.640	0.0139691
915.718	0.0139192
915.796	0.0138348
915.874	0.0139132
915.953	0.0139065
916.031	0.0139735
916.109	0.0139001
916.187	0.0139429
916.265	0.0138255
916.343	0.0139717
916.421	0.0138969
916.499	0.0138199
916.578	0.0137980
916.656	0.0139030
916.734	0.0139170
916.812	0.0136806
916.890	0.0138365
916.968	0.0138021
917.046	0.0137540
917.124	0.0139583
917.203	0.0138366
917.281	0.0139217
917.359	0.0139281
917.437	0.0138857
917.515	0.0138284
917.593	0.0138061
917.671	0.0139041
917.749	0.0138342
917.828	0.0139970
917.906	0.0137713
917.984	0.0138001
918.062	0.0137531
918.140	0.0140048
918.218	0.0139208
918.296	0.0137436
918.374	0.0138359
918.453	0.0139580
918.531	0.0138483
918.609	0.0137914
918.687	0.0139874
918.765	0.0138929
918.843	0.0139767
918.921	0.0140150
918.999	0.0139515
919.078	0.0138761
919.156	0.0140123
919.234	0.0139638
919.312	0.0138648
919.390	0.0138860
919.468	0.0139240
919.546	0.0139438
919.624	0.0139309
919.703	0.0139199
919.781	0.0139059
919.859	0.0139772
919.937	0.0139174
