05/08/2022	20:28:47	Ver.	4.1	UNKNOWN
Optical Delay	600.015094	Delta X		0.078125	Sweeps	1	Scan Rate	0/0
Coordinates	Axis 1	NaN	Axis 2	NaN	Axis 3	NaN	Axis 4	NaN	Axis 5	NaN	Axis 6	0.000000
TX Power	0.000000	RX Power	0.000000

600.015	0.0135266
600.093	0.0131988
600.171	0.0132417
600.249	0.0131687
600.328	0.0131841
600.406	0.0131139
600.484	0.0132788
600.562	0.0130918
600.640	0.0132362
600.718	0.0132779
600.796	0.0132742
600.874	0.0131473
600.953	0.0133199
601.031	0.0132362
601.109	0.0132565
601.187	0.0134082
601.265	0.0134275
601.343	0.0132513
601.421	0.0133691
601.499	0.0134461
601.578	0.0133401
601.656	0.0132072
601.734	0.0133893
601.812	0.0133693
601.890	0.0132433
601.968	0.0131789
602.046	0.0132770
602.124	0.0132182
602.203	0.0131340
602.281	0.0132071
602.359	0.0132737
602.437	0.0131399
602.515	0.0132537
602.593	0.0134933
602.671	0.0133041
602.749	0.0133058
602.828	0.0135378
602.906	0.0133756
602.984	0.0133664
603.062	0.0134736
603.140	0.0133138
603.218	0.0134273
603.296	0.0134361
603.374	0.0134102
603.453	0.0133551
603.531	0.0132111
603.609	0.0133529
603.687	0.0132742
603.765	0.0132555
603.843	0.0131336
603.921	0.0131604
603.999	0.0131258
604.078	0.0130952
604.156	0.0130373
604.234	0.0130774
604.312	0.0130433
604.390	0.0130932
604.468	0.0130922
604.546	0.0130517
604.624	0.0132767
604.703	0.0132702
604.781	0.0132518
604.859	0.0132295
604.937	0.0133986
605.015	0.0132660
605.093	0.0131161
605.171	0.0132352
605.249	0.0133154
605.328	0.0132738
605.406	0.0131625
605.484	0.0131294
605.562	0.0131993
605.640	0.0131665
605.718	0.0130134
605.796	0.0131506
605.874	0.0131237
605.953	0.0132597
606.031	0.0132330
606.109	0.0131925
606.187	0.0130330
606.265	0.0131915
606.343	0.0133661
606.421	0.0132470
606.499	0.0131831
606.578	0.0134867
606.656	0.0134991
606.734	0.0132482
606.812	0.0133617
606.890	0.0135343
606.968	0.0133189
607.046	0.0134609
607.124	0.0133276
607.203	0.0135501
607.281	0.0133129
607.359	0.0133943
607.437	0.0133118
607.515	0.0134030
607.593	0.0133913
607.671	0.0134629
607.749	0.0135064
607.828	0.0134209
607.906	0.0134216
607.984	0.0134692
608.062	0.0134421
608.140	0.0134340
608.218	0.0134010
608.296	0.0135470
608.374	0.0135278
608.453	0.0134833
608.531	0.0134678
608.609	0.0135190
608.687	0.0135117
608.765	0.0135350
608.843	0.0134380
608.921	0.0135512
608.999	0.0134258
609.078	0.0133359
609.156	0.0134295
609.234	0.0135608
609.312	0.0135590
609.390	0.0134029
609.468	0.0134571
609.546	0.0133479
609.624	0.0133823
609.703	0.0132642
609.781	0.0133695
609.859	0.0134804
609.937	0.0134858
610.015	0.0133652
610.093	0.0132159
610.171	0.0134055
610.249	0.0134465
610.328	0.0133176
610.406	0.0133406
610.484	0.0132697
610.562	0.0133208
610.640	0.0132781
610.718	0.0132852
610.796	0.0133142
610.874	0.0133158
610.953	0.0133347
611.031	0.0133032
611.109	0.0132244
611.187	0.0133897
611.265	0.0132001
611.343	0.0132927
611.421	0.0133130
611.499	0.0134550
611.578	0.0134131
611.656	0.0133524
611.734	0.0133749
611.812	0.0134584
611.890	0.0133559
611.968	0.0133958
612.046	0.0133290
612.124	0.0134031
612.203	0.0132890
612.281	0.0135069
612.359	0.0133452
612.437	0.0132729
612.515	0.0134180
612.593	0.0132973
612.671	0.0133498
612.749	0.0133033
612.828	0.0133482
612.906	0.0133504
612.984	0.0131856
613.062	0.0133329
613.140	0.0133420
613.218	0.0132697
613.296	0.0133139
613.374	0.0133028
613.453	0.0134429
613.531	0.0135201
613.609	0.0134044
613.687	0.0133638
613.765	0.0133992
613.843	0.0133172
613.921	0.0134709
613.999	0.0134294
614.078	0.0133694
614.156	0.0134743
614.234	0.0133291
614.312	0.0135255
614.390	0.0135136
614.468	0.0134284
614.546	0.0133875
614.624	0.0134862
614.703	0.0135857
614.781	0.0136628
614.859	0.0136195
614.937	0.0136749
615.015	0.0134184
615.093	0.0135152
615.171	0.0136412
615.249	0.0135722
615.328	0.0135807
615.406	0.0134093
615.484	0.0133537
615.562	0.0134272
615.640	0.0133898
615.718	0.0134313
615.796	0.0134898
615.874	0.0134100
615.953	0.0133302
616.031	0.0132327
616.109	0.0134126
616.187	0.0134180
616.265	0.0133304
616.343	0.0134057
616.421	0.0133888
616.499	0.0134686
616.578	0.0135146
616.656	0.0134512
616.734	0.0134358
616.812	0.0133366
616.890	0.0134914
616.968	0.0135859
617.046	0.0134940
617.124	0.0135200
617.203	0.0134950
617.281	0.0134875
617.359	0.0135172
617.437	0.0135059
617.515	0.0134494
617.593	0.0133639
617.671	0.0135094
617.749	0.0134435
617.828	0.0133892
617.906	0.0132364
617.984	0.0133633
618.062	0.0133194
618.140	0.0133052
618.218	0.0132896
618.296	0.0132529
618.374	0.0132815
618.453	0.0132628
618.531	0.0131804
618.609	0.0133291
618.687	0.0132110
618.765	0.0133063
618.843	0.0134322
618.921	0.0133012
618.999	0.0133336
619.078	0.0132695
619.156	0.0133183
619.234	0.0131889
619.312	0.0132782
619.390	0.0133318
619.468	0.0132146
619.546	0.0131736
619.624	0.0132334
619.703	0.0134000
619.781	0.0131423
619.859	0.0132108
619.937	0.0132703
620.015	0.0133098
620.093	0.0132748
620.171	0.0130711
620.249	0.0131000
620.328	0.0133894
620.406	0.0133324
620.484	0.0132078
620.562	0.0131664
620.640	0.0133526
620.718	0.0133095
620.796	0.0131068
620.874	0.0130685
620.953	0.0131449
621.031	0.0131475
621.109	0.0131127
621.187	0.0130750
621.265	0.0130759
621.343	0.0129588
621.421	0.0129871
621.499	0.0129229
621.578	0.0129030
621.656	0.0128303
621.734	0.0127511
621.812	0.0128465
621.890	0.0128275
621.968	0.0128902
622.046	0.0129224
622.124	0.0128672
622.203	0.0128443
622.281	0.0128944
622.359	0.0129929
622.437	0.0130624
622.515	0.0130334
622.593	0.0128099
622.671	0.0128927
622.749	0.0129778
622.828	0.0130934
622.906	0.0130776
622.984	0.0131290
623.062	0.0131324
623.140	0.0132085
623.218	0.0131933
623.296	0.0132149
623.374	0.0132812
623.453	0.0133820
623.531	0.0132993
623.609	0.0133504
623.687	0.0133344
623.765	0.0133349
623.843	0.0131959
623.921	0.0132788
623.999	0.0134160
624.078	0.0132074
624.156	0.0131075
624.234	0.0132330
624.312	0.0132133
624.390	0.0130438
624.468	0.0130499
624.546	0.0131606
624.624	0.0132197
624.703	0.0132693
624.781	0.0131116
624.859	0.0130811
624.937	0.0130905
625.015	0.0132701
625.093	0.0131461
625.171	0.0133724
625.249	0.0133141
625.328	0.0132530
625.406	0.0132271
625.484	0.0134213
625.562	0.0132313
625.640	0.0133302
625.718	0.0133401
625.796	0.0135590
625.874	0.0134135
625.953	0.0133851
626.031	0.0135406
626.109	0.0135562
626.187	0.0135723
626.265	0.0134604
626.343	0.0135653
626.421	0.0135604
626.499	0.0136636
626.578	0.0135982
626.656	0.0134029
626.734	0.0134762
626.812	0.0136864
626.890	0.0137291
626.968	0.0135120
627.046	0.0134962
627.124	0.0135336
627.203	0.0134801
627.281	0.0134358
627.359	0.0135397
627.437	0.0135358
627.515	0.0135228
627.593	0.0136230
627.671	0.0134931
627.749	0.0134993
627.828	0.0134289
627.906	0.0135876
627.984	0.0136613
628.062	0.0134961
628.140	0.0135910
628.218	0.0135724
628.296	0.0134763
628.374	0.0134926
628.453	0.0133865
628.531	0.0135226
628.609	0.0133536
628.687	0.0132876
628.765	0.0134021
628.843	0.0134126
628.921	0.0133656
628.999	0.0131886
629.078	0.0132169
629.156	0.0132962
629.234	0.0132712
629.312	0.0132384
629.390	0.0132227
629.468	0.0132772
629.546	0.0133575
629.624	0.0133446
629.703	0.0132510
629.781	0.0134808
629.859	0.0134149
629.937	0.0133639
630.015	0.0134072
630.093	0.0133277
630.171	0.0133463
630.249	0.0133752
630.328	0.0135232
630.406	0.0135617
630.484	0.0135508
630.562	0.0135579
630.640	0.0135815
630.718	0.0135509
630.796	0.0136254
630.874	0.0135223
630.953	0.0135768
631.031	0.0135685
631.109	0.0135546
631.187	0.0136105
631.265	0.0135516
631.343	0.0135219
631.421	0.0134672
631.499	0.0135240
631.578	0.0135244
631.656	0.0133813
631.734	0.0133286
631.812	0.0134297
631.890	0.0133936
631.968	0.0133778
632.046	0.0133485
632.124	0.0131606
632.203	0.0133263
632.281	0.0131850
632.359	0.0133083
632.437	0.0131732
632.515	0.0133678
632.593	0.0133524
632.671	0.0132087
632.749	0.0132259
632.828	0.0131898
632.906	0.0131870
632.984	0.0131066
633.062	0.0131997
633.140	0.0132453
633.218	0.0131764
633.296	0.0130523
633.374	0.0130575
633.453	0.0132193
633.531	0.0131364
633.609	0.0132219
633.687	0.0130429
633.765	0.0131796
633.843	0.0129855
633.921	0.0130068
633.999	0.0130645
634.078	0.0130128
634.156	0.0128070
634.234	0.0129790
634.312	0.0129837
634.390	0.0128651
634.468	0.0129490
634.546	0.0129535
634.624	0.0128274
634.703	0.0128085
634.781	0.0129549
634.859	0.0129323
634.937	0.0128989
635.015	0.0128638
635.093	0.0129762
635.171	0.0128725
635.249	0.0128555
635.328	0.0128740
635.406	0.0129221
635.484	0.0129691
635.562	0.0128679
635.640	0.0128631
635.718	0.0127843
635.796	0.0129321
635.874	0.0129863
635.953	0.0130144
636.031	0.0128617
636.109	0.0128738
636.187	0.0130589
636.265	0.0128961
636.343	0.0128910
636.421	0.0129948
636.499	0.0129527
636.578	0.0129951
636.656	0.0129075
636.734	0.0129999
636.812	0.0129085
636.890	0.0128973
636.968	0.0130233
637.046	0.0128983
637.124	0.0129482
637.203	0.0129446
637.281	0.0129512
637.359	0.0132278
637.437	0.0131606
637.515	0.0131390
637.593	0.0131826
637.671	0.0132152
637.749	0.0132655
637.828	0.0133268
637.906	0.0133845
637.984	0.0133265
638.062	0.0132996
638.140	0.0132534
638.218	0.0133051
638.296	0.0132143
638.374	0.0132988
638.453	0.0131535
638.531	0.0131209
638.609	0.0132728
638.687	0.0132577
638.765	0.0131077
638.843	0.0129843
638.921	0.0130349
638.999	0.0128770
639.078	0.0130698
639.156	0.0130419
639.234	0.0130595
639.312	0.0130251
639.390	0.0130273
639.468	0.0132141
639.546	0.0131204
639.624	0.0130637
639.703	0.0130439
639.781	0.0131770
639.859	0.0130447
639.937	0.0130766
640.015	0.0131626
640.093	0.0132148
640.171	0.0132317
640.249	0.0132868
640.328	0.0132918
640.406	0.0131976
640.484	0.0131161
640.562	0.0133419
640.640	0.0132470
640.718	0.0132351
640.796	0.0131737
640.874	0.0133405
640.953	0.0130801
641.031	0.0132327
641.109	0.0133285
641.187	0.0132539
641.265	0.0133441
641.343	0.0132803
641.421	0.0133098
641.499	0.0132386
641.578	0.0133411
641.656	0.0132024
641.734	0.0131746
641.812	0.0133291
641.890	0.0133709
641.968	0.0133124
642.046	0.0133668
642.124	0.0134948
642.203	0.0136189
642.281	0.0134781
642.359	0.0134643
642.437	0.0135349
642.515	0.0135416
642.593	0.0135375
642.671	0.0136732
642.749	0.0136782
642.828	0.0134840
642.906	0.0134985
642.984	0.0136235
643.062	0.0136177
643.140	0.0134595
643.218	0.0133315
643.296	0.0135550
643.374	0.0134095
643.453	0.0134066
643.531	0.0134071
643.609	0.0132461
643.687	0.0133813
643.765	0.0133031
643.843	0.0132207
643.921	0.0130290
643.999	0.0130750
644.078	0.0127952
644.156	0.0127955
644.234	0.0128313
644.312	0.0128903
644.390	0.0128499
644.468	0.0125625
644.546	0.0128056
644.624	0.0128790
644.703	0.0128545
644.781	0.0129194
644.859	0.0129404
644.937	0.0130804
645.015	0.0131599
645.093	0.0133286
645.171	0.0136214
645.249	0.0136579
645.328	0.0136089
645.406	0.0139758
645.484	0.0139373
645.562	0.0140466
645.640	0.0139691
645.718	0.0139602
645.796	0.0139098
645.874	0.0140328
645.953	0.0140412
646.031	0.0138493
646.109	0.0137678
646.187	0.0136563
646.265	0.0134643
646.343	0.0133270
646.421	0.0131832
646.499	0.0130077
646.578	0.0127381
646.656	0.0125632
646.734	0.0125279
646.812	0.0123206
646.890	0.0122209
646.968	0.0120138
647.046	0.0118568
647.124	0.0118144
647.203	0.0117302
647.281	0.0117485
647.359	0.0117334
647.437	0.0119240
647.515	0.0118449
647.593	0.0118694
647.671	0.0120704
647.749	0.0122217
647.828	0.0123433
647.906	0.0123396
647.984	0.0125655
648.062	0.0128282
648.140	0.0128961
648.218	0.0132794
648.296	0.0134647
648.374	0.0135439
648.453	0.0137399
648.531	0.0138766
648.609	0.0140573
648.687	0.0141028
648.765	0.0142164
648.843	0.0142525
648.921	0.0142934
648.999	0.0142036
649.078	0.0141343
649.156	0.0141363
649.234	0.0140947
649.312	0.0139104
649.390	0.0138577
649.468	0.0139198
649.546	0.0137448
649.624	0.0134756
649.703	0.0135789
649.781	0.0133476
649.859	0.0130663
649.937	0.0130389
650.015	0.0129427
650.093	0.0127312
650.171	0.0125603
650.249	0.0124585
650.328	0.0122896
650.406	0.0122238
650.484	0.0122443
650.562	0.0120975
650.640	0.0120546
650.718	0.0121059
650.796	0.0120757
650.874	0.0119108
650.953	0.0120284
651.031	0.0121546
651.109	0.0121887
651.187	0.0121334
651.265	0.0124187
651.343	0.0124480
651.421	0.0125253
651.499	0.0127522
651.578	0.0128722
651.656	0.0129429
651.734	0.0129623
651.812	0.0131304
651.890	0.0133952
651.968	0.0135361
652.046	0.0136848
652.124	0.0137319
652.203	0.0137471
652.281	0.0138520
652.359	0.0140621
652.437	0.0141255
652.515	0.0142671
652.593	0.0143150
652.671	0.0142767
652.749	0.0143488
652.828	0.0143339
652.906	0.0143845
652.984	0.0141143
653.062	0.0140959
653.140	0.0140162
653.218	0.0139668
653.296	0.0140688
653.374	0.0139977
653.453	0.0137423
653.531	0.0136763
653.609	0.0137666
653.687	0.0136591
653.765	0.0138309
653.843	0.0135124
653.921	0.0134242
653.999	0.0133489
654.078	0.0134653
654.156	0.0133591
654.234	0.0130135
654.312	0.0129494
654.390	0.0129513
654.468	0.0128929
654.546	0.0127615
654.624	0.0126020
654.703	0.0126766
654.781	0.0124578
654.859	0.0122901
654.937	0.0122778
655.015	0.0120969
655.093	0.0120432
655.171	0.0117767
655.249	0.0119905
655.328	0.0118838
655.406	0.0117628
655.484	0.0118298
655.562	0.0117313
655.640	0.0117776
655.718	0.0118242
655.796	0.0117648
655.874	0.0119767
655.953	0.0121032
656.031	0.0123020
656.109	0.0124048
656.187	0.0125568
656.265	0.0126988
656.343	0.0128437
656.421	0.0132154
656.499	0.0134556
656.578	0.0136240
656.656	0.0138034
656.734	0.0141190
656.812	0.0144798
656.890	0.0146698
656.968	0.0148132
657.046	0.0150523
657.124	0.0152240
657.203	0.0152489
657.281	0.0154220
657.359	0.0156329
657.437	0.0156030
657.515	0.0155785
657.593	0.0156065
657.671	0.0155418
657.749	0.0153816
657.828	0.0152272
657.906	0.0151007
657.984	0.0148999
658.062	0.0146829
658.140	0.0144182
658.218	0.0142439
658.296	0.0138606
658.374	0.0135011
658.453	0.0132277
658.531	0.0127699
658.609	0.0126173
658.687	0.0122514
658.765	0.0117415
658.843	0.0116445
658.921	0.0115609
658.999	0.0113387
659.078	0.0109547
659.156	0.0109858
659.234	0.0108320
659.312	0.0107153
659.390	0.0107660
659.468	0.0107623
659.546	0.0109993
659.624	0.0111777
659.703	0.0112187
659.781	0.0114922
659.859	0.0116750
659.937	0.0119492
660.015	0.0122236
660.093	0.0125964
660.171	0.0126724
660.249	0.0130724
660.328	0.0133376
660.406	0.0134947
660.484	0.0139310
660.562	0.0141344
660.640	0.0143813
660.718	0.0145863
660.796	0.0147131
660.874	0.0150609
660.953	0.0151165
661.031	0.0151366
661.109	0.0152509
661.187	0.0153412
661.265	0.0151777
661.343	0.0154516
661.421	0.0152658
661.499	0.0151222
661.578	0.0150465
661.656	0.0150720
661.734	0.0150475
661.812	0.0145589
661.890	0.0145791
661.968	0.0144620
662.046	0.0142677
662.124	0.0141668
662.203	0.0137943
662.281	0.0137582
662.359	0.0134451
662.437	0.0134184
662.515	0.0131479
662.593	0.0129339
662.671	0.0128400
662.749	0.0126073
662.828	0.0123411
662.906	0.0122253
662.984	0.0119965
663.062	0.0119154
663.140	0.0117383
663.218	0.0115292
663.296	0.0116035
663.374	0.0114716
663.453	0.0114704
663.531	0.0113641
663.609	0.0113041
663.687	0.0112033
663.765	0.0113432
663.843	0.0114608
663.921	0.0114130
663.999	0.0114581
664.078	0.0116204
664.156	0.0117118
664.234	0.0119088
664.312	0.0119582
664.390	0.0121653
664.468	0.0123978
664.546	0.0126476
664.624	0.0128337
664.703	0.0131670
664.781	0.0133826
664.859	0.0135719
664.937	0.0139503
665.015	0.0139493
665.093	0.0142081
665.171	0.0145949
665.249	0.0147565
665.328	0.0149799
665.406	0.0150232
665.484	0.0152701
665.562	0.0151997
665.640	0.0152588
665.718	0.0152583
665.796	0.0154392
665.874	0.0153855
665.953	0.0152045
666.031	0.0149972
666.109	0.0150124
666.187	0.0148421
666.265	0.0145473
666.343	0.0144658
666.421	0.0142829
666.499	0.0141940
666.578	0.0139333
666.656	0.0137372
666.734	0.0135542
666.812	0.0132244
666.890	0.0129969
666.968	0.0130391
667.046	0.0128038
667.124	0.0125871
667.203	0.0124731
667.281	0.0124083
667.359	0.0121917
667.437	0.0120446
667.515	0.0120944
667.593	0.0120232
667.671	0.0122008
667.749	0.0119992
667.828	0.0119428
667.906	0.0119593
667.984	0.0119829
668.062	0.0121188
668.140	0.0120111
668.218	0.0119783
668.296	0.0120527
668.374	0.0123333
668.453	0.0122517
668.531	0.0123404
668.609	0.0125022
668.687	0.0124945
668.765	0.0125694
668.843	0.0129145
668.921	0.0127973
668.999	0.0130259
669.078	0.0130454
669.156	0.0131092
669.234	0.0132563
669.312	0.0132951
669.390	0.0133664
669.468	0.0134692
669.546	0.0134392
669.624	0.0136239
669.703	0.0136122
669.781	0.0136223
669.859	0.0136285
669.937	0.0137984
670.015	0.0139412
670.093	0.0139964
670.171	0.0141367
670.249	0.0141348
670.328	0.0142348
670.406	0.0142603
670.484	0.0142416
670.562	0.0143176
670.640	0.0142523
670.718	0.0142013
670.796	0.0141151
670.874	0.0139542
670.953	0.0140710
671.031	0.0138530
671.109	0.0137112
671.187	0.0136452
671.265	0.0135279
671.343	0.0132592
671.421	0.0131449
671.499	0.0131592
671.578	0.0129881
671.656	0.0128403
671.734	0.0126023
671.812	0.0124595
671.890	0.0124210
671.968	0.0123605
672.046	0.0121531
672.124	0.0121052
672.203	0.0120750
672.281	0.0121061
672.359	0.0122520
672.437	0.0121227
672.515	0.0121062
672.593	0.0121658
672.671	0.0121350
672.749	0.0122095
672.828	0.0121622
672.906	0.0122687
672.984	0.0123995
673.062	0.0123563
673.140	0.0126039
673.218	0.0126846
673.296	0.0128657
673.374	0.0129353
673.453	0.0131838
673.531	0.0131749
673.609	0.0133701
673.687	0.0135864
673.765	0.0134269
673.843	0.0137493
673.921	0.0140318
673.999	0.0137785
674.078	0.0140402
674.156	0.0140641
674.234	0.0140252
674.312	0.0140210
674.390	0.0141365
674.468	0.0141367
674.546	0.0141991
674.624	0.0141248
674.703	0.0140684
674.781	0.0141751
674.859	0.0142521
674.937	0.0140881
675.015	0.0140070
675.093	0.0138942
675.171	0.0140921
675.249	0.0137920
675.328	0.0138120
675.406	0.0138802
675.484	0.0135849
675.562	0.0135829
675.640	0.0135117
675.718	0.0133807
675.796	0.0135572
675.874	0.0135149
675.953	0.0135098
676.031	0.0134572
676.109	0.0134658
676.187	0.0134353
676.265	0.0134412
676.343	0.0136069
676.421	0.0135630
676.499	0.0134975
676.578	0.0137073
676.656	0.0138247
676.734	0.0138449
676.812	0.0136309
676.890	0.0138069
676.968	0.0136755
677.046	0.0138231
677.124	0.0136969
677.203	0.0137102
677.281	0.0137105
677.359	0.0136954
677.437	0.0136056
677.515	0.0135457
677.593	0.0135216
677.671	0.0134660
677.749	0.0135940
677.828	0.0133350
677.906	0.0131915
677.984	0.0133726
678.062	0.0132123
678.140	0.0130884
678.218	0.0133656
678.296	0.0131745
678.374	0.0130696
678.453	0.0131147
678.531	0.0132146
678.609	0.0132586
678.687	0.0131920
678.765	0.0132645
678.843	0.0131458
678.921	0.0130767
678.999	0.0131030
679.078	0.0131425
679.156	0.0129852
679.234	0.0129498
679.312	0.0129955
679.390	0.0129874
679.468	0.0129920
679.546	0.0129547
679.624	0.0129275
679.703	0.0128754
679.781	0.0128524
679.859	0.0127402
679.937	0.0128773
680.015	0.0129321
680.093	0.0129694
680.171	0.0129478
680.249	0.0130910
680.328	0.0129874
680.406	0.0129858
680.484	0.0131207
680.562	0.0131953
680.640	0.0131436
680.718	0.0132384
680.796	0.0132216
680.874	0.0131971
680.953	0.0134074
681.031	0.0132957
681.109	0.0133723
681.187	0.0132584
681.265	0.0133731
681.343	0.0133967
681.421	0.0133042
681.499	0.0134308
681.578	0.0133141
681.656	0.0133582
681.734	0.0134029
681.812	0.0133809
681.890	0.0132547
681.968	0.0132763
682.046	0.0133723
682.124	0.0133846
682.203	0.0133826
682.281	0.0133991
682.359	0.0133452
682.437	0.0132741
682.515	0.0134866
682.593	0.0134764
682.671	0.0134666
682.749	0.0135124
682.828	0.0134551
682.906	0.0135759
682.984	0.0135656
683.062	0.0134666
683.140	0.0135136
683.218	0.0135126
683.296	0.0133703
683.374	0.0133276
683.453	0.0134744
683.531	0.0131791
683.609	0.0132243
683.687	0.0131625
683.765	0.0132290
683.843	0.0133215
683.921	0.0132108
683.999	0.0132053
684.078	0.0132379
684.156	0.0131542
684.234	0.0133231
684.312	0.0133535
684.390	0.0132706
684.468	0.0133443
684.546	0.0134124
684.624	0.0136836
684.703	0.0135962
684.781	0.0137179
684.859	0.0137272
684.937	0.0136438
685.015	0.0136808
685.093	0.0138222
685.171	0.0136552
685.249	0.0136578
685.328	0.0138042
685.406	0.0139672
685.484	0.0138739
685.562	0.0139173
685.640	0.0138142
685.718	0.0138548
685.796	0.0139413
685.874	0.0138428
685.953	0.0137870
686.031	0.0138326
686.109	0.0139312
686.187	0.0139745
686.265	0.0139225
686.343	0.0138367
686.421	0.0138511
686.499	0.0139272
686.578	0.0137913
686.656	0.0136561
686.734	0.0137292
686.812	0.0134681
686.890	0.0134073
686.968	0.0133237
687.046	0.0131933
687.124	0.0131815
687.203	0.0130460
687.281	0.0128850
687.359	0.0128614
687.437	0.0127945
687.515	0.0128378
687.593	0.0127539
687.671	0.0127244
687.749	0.0129144
687.828	0.0128452
687.906	0.0128793
687.984	0.0128945
688.062	0.0129219
688.140	0.0130268
688.218	0.0129321
688.296	0.0131990
688.374	0.0132904
688.453	0.0131667
688.531	0.0132602
688.609	0.0133524
688.687	0.0132767
688.765	0.0133695
688.843	0.0133067
688.921	0.0133615
688.999	0.0133575
689.078	0.0132016
689.156	0.0135391
689.234	0.0135840
689.312	0.0134866
689.390	0.0135357
689.468	0.0134534
689.546	0.0135641
689.624	0.0136968
689.703	0.0137244
689.781	0.0137148
689.859	0.0137675
689.937	0.0138201
690.015	0.0138471
690.093	0.0137088
690.171	0.0139200
690.249	0.0136977
690.328	0.0137898
690.406	0.0136444
690.484	0.0137921
690.562	0.0136169
690.640	0.0135577
690.718	0.0135275
690.796	0.0134852
690.874	0.0136647
690.953	0.0137357
691.031	0.0136881
691.109	0.0134742
691.187	0.0134641
691.265	0.0136549
691.343	0.0135621
691.421	0.0134136
691.499	0.0132877
691.578	0.0133604
691.656	0.0132051
691.734	0.0131328
691.812	0.0129705
691.890	0.0129478
691.968	0.0128845
692.046	0.0129905
692.124	0.0127359
692.203	0.0127779
692.281	0.0127567
692.359	0.0125211
692.437	0.0126686
692.515	0.0126242
692.593	0.0125447
692.671	0.0124846
692.749	0.0126937
692.828	0.0127711
692.906	0.0127980
692.984	0.0129160
693.062	0.0129876
693.140	0.0129966
693.218	0.0130957
693.296	0.0130890
693.374	0.0132623
693.453	0.0133359
693.531	0.0134218
693.609	0.0134843
693.687	0.0134132
693.765	0.0134377
693.843	0.0136083
693.921	0.0135554
693.999	0.0134944
694.078	0.0135330
694.156	0.0135699
694.234	0.0135943
694.312	0.0136858
694.390	0.0136030
694.468	0.0135906
694.546	0.0136385
694.624	0.0135284
694.703	0.0134364
694.781	0.0134081
694.859	0.0133620
694.937	0.0133111
695.015	0.0134374
695.093	0.0133720
695.171	0.0134686
695.249	0.0133625
695.328	0.0132953
695.406	0.0133076
695.484	0.0133100
695.562	0.0130568
695.640	0.0132249
695.718	0.0132579
695.796	0.0132974
695.874	0.0131467
695.953	0.0132342
696.031	0.0132604
696.109	0.0132719
696.187	0.0133597
696.265	0.0134690
696.343	0.0134725
696.421	0.0134219
696.499	0.0136429
696.578	0.0135165
696.656	0.0136777
696.734	0.0136761
696.812	0.0137395
696.890	0.0136913
696.968	0.0135600
697.046	0.0136057
697.124	0.0134904
697.203	0.0134982
697.281	0.0135014
697.359	0.0133661
697.437	0.0133179
697.515	0.0131229
697.593	0.0130718
697.671	0.0131155
697.749	0.0130590
697.828	0.0131519
697.906	0.0130093
697.984	0.0131113
698.062	0.0131133
698.140	0.0130827
698.218	0.0130856
698.296	0.0132351
698.374	0.0132969
698.453	0.0132922
698.531	0.0133595
698.609	0.0134500
698.687	0.0133453
698.765	0.0135143
698.843	0.0132764
698.921	0.0133478
698.999	0.0134286
699.078	0.0134503
699.156	0.0133549
699.234	0.0135276
699.312	0.0135571
699.390	0.0134158
699.468	0.0134774
699.546	0.0133409
699.624	0.0134399
699.703	0.0133977
699.781	0.0134548
699.859	0.0134578
699.937	0.0134814
700.015	0.0132697
700.093	0.0132546
700.171	0.0131677
700.249	0.0131912
700.328	0.0131448
700.406	0.0131676
700.484	0.0131181
700.562	0.0130765
700.640	0.0129832
700.718	0.0129761
700.796	0.0131179
700.874	0.0131458
700.953	0.0132939
701.031	0.0133228
701.109	0.0133256
701.187	0.0132551
701.265	0.0133619
701.343	0.0135094
701.421	0.0135152
701.499	0.0135946
701.578	0.0136703
701.656	0.0138394
701.734	0.0138302
701.812	0.0137838
701.890	0.0139314
701.968	0.0140112
702.046	0.0140723
702.124	0.0140762
702.203	0.0140411
702.281	0.0140800
702.359	0.0140139
702.437	0.0140381
702.515	0.0141026
702.593	0.0139792
702.671	0.0139899
702.749	0.0137419
702.828	0.0137639
702.906	0.0136379
702.984	0.0135390
703.062	0.0133388
703.140	0.0131650
703.218	0.0131167
703.296	0.0130268
703.374	0.0129404
703.453	0.0128889
703.531	0.0129455
703.609	0.0127034
703.687	0.0126244
703.765	0.0126765
703.843	0.0126282
703.921	0.0126839
703.999	0.0126091
704.078	0.0126098
704.156	0.0126983
704.234	0.0126398
704.312	0.0126277
704.390	0.0128164
704.468	0.0127422
704.546	0.0127804
704.624	0.0128632
704.703	0.0129039
704.781	0.0130393
704.859	0.0128731
704.937	0.0129271
705.015	0.0130981
705.093	0.0130924
705.171	0.0129068
705.249	0.0130731
705.328	0.0129869
705.406	0.0130098
705.484	0.0130466
705.562	0.0131205
705.640	0.0130353
705.718	0.0129716
705.796	0.0129762
705.874	0.0131654
705.953	0.0131174
706.031	0.0128780
706.109	0.0127886
706.187	0.0129865
706.265	0.0130470
706.343	0.0130260
706.421	0.0130190
706.499	0.0132500
706.578	0.0131970
706.656	0.0131839
706.734	0.0133522
706.812	0.0134024
706.890	0.0133228
706.968	0.0134603
707.046	0.0134858
707.124	0.0136027
707.203	0.0137539
707.281	0.0136949
707.359	0.0135011
707.437	0.0136943
707.515	0.0136246
707.593	0.0136092
707.671	0.0137074
707.749	0.0136910
707.828	0.0136193
707.906	0.0137890
707.984	0.0137566
708.062	0.0136522
708.140	0.0137551
708.218	0.0138648
708.296	0.0137550
708.374	0.0138818
708.453	0.0137957
708.531	0.0136552
708.609	0.0136812
708.687	0.0137255
708.765	0.0135988
708.843	0.0137230
708.921	0.0135727
708.999	0.0135908
709.078	0.0134557
709.156	0.0134158
709.234	0.0133880
709.312	0.0133129
709.390	0.0133416
709.468	0.0132419
709.546	0.0133338
709.624	0.0130672
709.703	0.0131412
709.781	0.0131937
709.859	0.0131960
709.937	0.0130377
710.015	0.0131895
710.093	0.0131834
710.171	0.0132653
710.249	0.0132145
710.328	0.0130663
710.406	0.0133618
710.484	0.0132020
710.562	0.0132626
710.640	0.0132882
710.718	0.0134189
710.796	0.0133085
710.874	0.0132822
710.953	0.0133076
711.031	0.0133303
711.109	0.0133913
711.187	0.0134265
711.265	0.0133860
711.343	0.0134679
711.421	0.0135973
711.499	0.0134855
711.578	0.0135667
711.656	0.0137357
711.734	0.0134932
711.812	0.0136608
711.890	0.0138068
711.968	0.0138178
712.046	0.0139039
712.124	0.0138768
712.203	0.0139143
712.281	0.0138831
712.359	0.0139455
712.437	0.0138186
712.515	0.0138742
712.593	0.0138702
712.671	0.0140176
712.749	0.0138788
712.828	0.0138501
712.906	0.0137585
712.984	0.0137938
713.062	0.0136794
713.140	0.0137495
713.218	0.0135350
713.296	0.0135271
713.374	0.0134058
713.453	0.0133109
713.531	0.0131622
713.609	0.0131880
713.687	0.0131576
713.765	0.0129771
713.843	0.0128430
713.921	0.0128351
713.999	0.0128477
714.078	0.0128267
714.156	0.0127917
714.234	0.0126960
714.312	0.0125169
714.390	0.0126159
714.468	0.0126959
714.546	0.0125935
714.624	0.0125806
714.703	0.0125223
714.781	0.0128111
714.859	0.0127219
714.937	0.0126485
715.015	0.0127872
715.093	0.0131396
715.171	0.0130652
715.249	0.0131355
715.328	0.0132499
715.406	0.0134225
715.484	0.0134020
715.562	0.0134737
715.640	0.0135217
715.718	0.0134767
715.796	0.0134727
715.874	0.0135563
715.953	0.0135709
716.031	0.0136226
716.109	0.0136939
716.187	0.0136766
716.265	0.0136523
716.343	0.0136847
716.421	0.0137899
716.499	0.0136648
716.578	0.0136008
716.656	0.0136053
716.734	0.0137640
716.812	0.0136772
716.890	0.0135466
716.968	0.0135954
717.046	0.0134848
717.124	0.0135912
717.203	0.0135046
717.281	0.0135903
717.359	0.0135063
717.437	0.0133953
717.515	0.0135498
717.593	0.0133266
717.671	0.0132218
717.749	0.0133611
717.828	0.0132831
717.906	0.0133090
717.984	0.0132375
718.062	0.0130852
718.140	0.0131554
718.218	0.0131120
718.296	0.0129845
718.374	0.0130897
718.453	0.0131302
718.531	0.0129700
718.609	0.0130178
718.687	0.0131042
718.765	0.0130844
718.843	0.0130639
718.921	0.0131617
718.999	0.0131731
719.078	0.0131498
719.156	0.0132169
719.234	0.0131622
719.312	0.0130016
719.390	0.0132180
719.468	0.0132365
719.546	0.0130988
719.624	0.0131139
719.703	0.0132351
719.781	0.0130824
719.859	0.0129424
719.937	0.0130249
720.015	0.0130861
720.093	0.0130139
720.171	0.0128947
720.249	0.0130966
720.328	0.0130132
720.406	0.0130254
720.484	0.0129705
720.562	0.0129101
720.640	0.0129288
720.718	0.0128896
720.796	0.0129097
720.874	0.0129545
720.953	0.0129691
721.031	0.0130268
721.109	0.0128533
721.187	0.0130006
721.265	0.0128854
721.343	0.0131122
721.421	0.0130990
721.499	0.0131012
721.578	0.0131693
721.656	0.0131210
721.734	0.0132122
721.812	0.0133086
721.890	0.0132539
721.968	0.0132451
722.046	0.0133221
722.124	0.0132469
722.203	0.0133566
722.281	0.0132358
722.359	0.0132575
722.437	0.0134687
722.515	0.0134509
722.593	0.0134225
722.671	0.0134687
722.749	0.0135326
722.828	0.0137111
722.906	0.0137997
722.984	0.0137401
723.062	0.0137566
723.140	0.0137357
723.218	0.0137509
723.296	0.0136452
723.374	0.0136320
723.453	0.0135113
723.531	0.0135242
723.609	0.0134679
723.687	0.0132107
723.765	0.0132808
723.843	0.0130978
723.921	0.0131687
723.999	0.0130959
724.078	0.0131114
724.156	0.0130331
724.234	0.0128951
724.312	0.0130453
724.390	0.0131522
724.468	0.0131573
724.546	0.0130321
724.624	0.0131479
724.703	0.0131752
724.781	0.0132007
724.859	0.0130855
724.937	0.0132618
725.015	0.0132363
725.093	0.0131613
725.171	0.0133057
725.249	0.0130443
725.328	0.0129559
725.406	0.0130004
725.484	0.0130638
725.562	0.0129286
725.640	0.0131016
725.718	0.0128543
725.796	0.0128423
725.874	0.0129127
725.953	0.0130870
726.031	0.0127386
726.109	0.0127584
726.187	0.0126546
726.265	0.0128988
726.343	0.0128008
726.421	0.0129343
726.499	0.0129828
726.578	0.0130214
726.656	0.0129457
726.734	0.0129758
726.812	0.0129940
726.890	0.0130639
726.968	0.0132859
727.046	0.0131090
727.124	0.0131295
727.203	0.0131995
727.281	0.0131366
727.359	0.0132472
727.437	0.0133630
727.515	0.0133308
727.593	0.0132915
727.671	0.0132363
727.749	0.0133095
727.828	0.0134375
727.906	0.0136226
727.984	0.0134663
728.062	0.0136816
728.140	0.0135213
728.218	0.0134375
728.296	0.0135569
728.374	0.0135521
728.453	0.0136338
728.531	0.0137048
728.609	0.0134967
728.687	0.0133435
728.765	0.0135596
728.843	0.0135085
728.921	0.0134671
728.999	0.0134907
729.078	0.0134038
729.156	0.0136375
729.234	0.0134111
729.312	0.0133240
729.390	0.0133470
729.468	0.0134140
729.546	0.0131991
729.624	0.0131932
729.703	0.0132561
729.781	0.0132664
729.859	0.0130797
729.937	0.0131434
730.015	0.0131259
730.093	0.0131277
730.171	0.0130510
730.249	0.0131184
730.328	0.0130399
730.406	0.0130942
730.484	0.0129958
730.562	0.0130550
730.640	0.0131182
730.718	0.0129050
730.796	0.0130762
730.874	0.0130627
730.953	0.0130821
731.031	0.0130075
731.109	0.0131326
731.187	0.0131931
731.265	0.0133067
731.343	0.0131825
731.421	0.0132597
731.499	0.0133537
731.578	0.0133710
731.656	0.0133444
731.734	0.0131374
731.812	0.0132699
731.890	0.0132587
731.968	0.0132011
732.046	0.0131850
732.124	0.0132718
732.203	0.0133454
732.281	0.0133242
732.359	0.0132600
732.437	0.0131345
732.515	0.0133105
732.593	0.0134549
732.671	0.0134332
732.749	0.0134711
732.828	0.0134845
732.906	0.0134250
732.984	0.0134720
733.062	0.0134621
733.140	0.0133686
733.218	0.0134745
733.296	0.0135152
733.374	0.0136089
733.453	0.0135832
733.531	0.0134503
733.609	0.0134204
733.687	0.0136302
733.765	0.0134859
733.843	0.0135899
733.921	0.0134116
733.999	0.0135107
734.078	0.0135214
734.156	0.0136992
734.234	0.0135687
734.312	0.0134509
734.390	0.0135483
734.468	0.0136748
734.546	0.0135169
734.624	0.0134815
734.703	0.0134769
734.781	0.0135265
734.859	0.0136472
734.937	0.0135114
735.015	0.0135904
735.093	0.0137476
735.171	0.0136465
735.249	0.0136825
735.328	0.0136563
735.406	0.0137096
735.484	0.0136153
735.562	0.0139075
735.640	0.0137565
735.718	0.0135479
735.796	0.0135953
735.874	0.0137621
735.953	0.0136366
736.031	0.0135869
736.109	0.0134505
736.187	0.0135078
736.265	0.0134387
736.343	0.0133987
736.421	0.0133120
736.499	0.0133102
736.578	0.0130385
736.656	0.0130590
736.734	0.0131289
736.812	0.0130866
736.890	0.0129948
736.968	0.0128558
737.046	0.0128115
737.124	0.0127679
737.203	0.0129336
737.281	0.0126670
737.359	0.0126556
737.437	0.0129229
737.515	0.0128993
737.593	0.0127705
737.671	0.0126486
737.749	0.0126893
737.828	0.0128558
737.906	0.0128408
737.984	0.0129723
738.062	0.0128558
738.140	0.0130565
738.218	0.0130521
738.296	0.0131471
738.374	0.0132545
738.453	0.0131248
738.531	0.0132758
738.609	0.0133312
738.687	0.0132785
738.765	0.0134352
738.843	0.0133370
738.921	0.0135172
738.999	0.0136794
739.078	0.0134840
739.156	0.0134982
739.234	0.0135198
739.312	0.0135011
739.390	0.0135140
739.468	0.0134522
739.546	0.0135295
739.624	0.0133968
739.703	0.0135083
739.781	0.0135687
739.859	0.0135709
739.937	0.0133759
740.015	0.0132295
740.093	0.0132861
740.171	0.0132181
740.249	0.0132404
740.328	0.0132254
740.406	0.0130677
740.484	0.0131940
740.562	0.0132999
740.640	0.0132180
740.718	0.0133622
740.796	0.0132468
740.874	0.0133279
740.953	0.0132191
741.031	0.0131761
741.109	0.0132428
741.187	0.0133579
741.265	0.0132470
741.343	0.0131512
741.421	0.0129578
741.499	0.0131757
741.578	0.0130221
741.656	0.0130271
741.734	0.0129892
741.812	0.0130189
741.890	0.0129950
741.968	0.0129557
742.046	0.0129840
742.124	0.0129606
742.203	0.0130716
742.281	0.0129858
742.359	0.0128540
742.437	0.0130437
742.515	0.0131598
742.593	0.0130464
742.671	0.0130437
742.749	0.0131114
742.828	0.0130485
742.906	0.0130768
742.984	0.0129115
743.062	0.0130933
743.140	0.0129377
743.218	0.0130084
743.296	0.0132497
743.374	0.0131499
743.453	0.0131565
743.531	0.0131571
743.609	0.0132476
743.687	0.0133647
743.765	0.0132500
743.843	0.0132447
743.921	0.0132921
743.999	0.0133447
744.078	0.0133397
744.156	0.0135088
744.234	0.0132639
744.312	0.0133394
744.390	0.0133943
744.468	0.0134135
744.546	0.0134222
744.624	0.0134793
744.703	0.0135625
744.781	0.0133791
744.859	0.0133818
744.937	0.0133447
745.015	0.0133553
745.093	0.0134751
745.171	0.0133443
745.249	0.0132436
745.328	0.0132395
745.406	0.0132898
745.484	0.0133073
745.562	0.0132449
745.640	0.0132291
745.718	0.0131343
745.796	0.0131233
745.874	0.0131245
745.953	0.0132254
746.031	0.0132559
746.109	0.0131208
746.187	0.0132726
746.265	0.0133878
746.343	0.0132825
746.421	0.0133774
746.499	0.0134170
746.578	0.0133115
746.656	0.0132082
746.734	0.0132376
746.812	0.0134572
746.890	0.0132896
746.968	0.0132360
747.046	0.0131557
747.124	0.0131550
747.203	0.0131471
747.281	0.0129147
747.359	0.0129721
747.437	0.0129649
747.515	0.0131325
747.593	0.0128729
747.671	0.0130038
747.749	0.0130928
747.828	0.0129314
747.906	0.0129599
747.984	0.0129417
748.062	0.0130750
748.140	0.0130234
748.218	0.0129709
748.296	0.0129633
748.374	0.0131139
748.453	0.0130077
748.531	0.0128699
748.609	0.0131024
748.687	0.0131559
748.765	0.0131676
748.843	0.0130141
748.921	0.0132034
748.999	0.0132467
749.078	0.0131421
749.156	0.0132603
749.234	0.0134012
749.312	0.0133789
749.390	0.0134007
749.468	0.0134663
749.546	0.0135469
749.624	0.0134424
749.703	0.0135372
749.781	0.0135583
749.859	0.0135192
749.937	0.0133911
750.015	0.0133472
750.093	0.0134676
750.171	0.0134866
750.249	0.0135113
750.328	0.0133083
750.406	0.0134079
750.484	0.0133308
750.562	0.0132947
750.640	0.0132581
750.718	0.0131637
750.796	0.0130225
750.874	0.0130370
750.953	0.0129175
751.031	0.0131895
751.109	0.0129818
751.187	0.0130471
751.265	0.0129295
751.343	0.0129871
751.421	0.0129560
751.499	0.0128853
751.578	0.0128309
751.656	0.0130438
751.734	0.0129299
751.812	0.0130100
751.890	0.0131139
751.968	0.0131865
752.046	0.0130795
752.124	0.0130357
752.203	0.0130630
752.281	0.0131329
752.359	0.0132168
752.437	0.0131547
752.515	0.0132578
752.593	0.0134464
752.671	0.0133866
752.749	0.0132528
752.828	0.0135036
752.906	0.0134299
752.984	0.0135081
753.062	0.0134613
753.140	0.0136346
753.218	0.0135598
753.296	0.0136857
753.374	0.0136310
753.453	0.0136578
753.531	0.0136019
753.609	0.0136414
753.687	0.0135905
753.765	0.0136081
753.843	0.0135271
753.921	0.0137250
753.999	0.0135565
754.078	0.0136073
754.156	0.0136578
754.234	0.0134719
754.312	0.0136369
754.390	0.0136711
754.468	0.0137206
754.546	0.0135731
754.624	0.0134166
754.703	0.0135636
754.781	0.0135596
754.859	0.0135281
754.937	0.0133924
755.015	0.0133611
755.093	0.0133360
755.171	0.0135674
755.249	0.0133933
755.328	0.0134769
755.406	0.0134373
755.484	0.0133640
755.562	0.0133383
755.640	0.0132912
755.718	0.0132579
755.796	0.0131794
755.874	0.0132280
755.953	0.0133212
756.031	0.0131892
756.109	0.0131364
756.187	0.0129877
756.265	0.0130035
756.343	0.0130688
756.421	0.0130117
756.499	0.0130666
756.578	0.0130729
756.656	0.0131317
756.734	0.0132117
756.812	0.0132240
756.890	0.0131561
756.968	0.0133916
757.046	0.0134401
757.124	0.0133947
757.203	0.0135703
757.281	0.0134499
757.359	0.0136299
757.437	0.0136155
757.515	0.0136702
757.593	0.0136266
757.671	0.0137495
757.749	0.0137275
757.828	0.0137371
757.906	0.0137685
757.984	0.0138000
758.062	0.0137170
758.140	0.0136426
758.218	0.0136516
758.296	0.0136830
758.374	0.0137866
758.453	0.0137826
758.531	0.0136549
758.609	0.0137805
758.687	0.0138502
758.765	0.0136572
758.843	0.0138365
758.921	0.0136467
758.999	0.0135893
759.078	0.0135983
759.156	0.0136139
759.234	0.0135308
759.312	0.0133710
759.390	0.0135107
759.468	0.0133713
759.546	0.0132895
759.624	0.0131185
759.703	0.0129948
759.781	0.0131241
759.859	0.0130074
759.937	0.0128914
760.015	0.0128384
760.093	0.0129209
760.171	0.0128188
760.249	0.0127988
760.328	0.0129342
760.406	0.0127898
760.484	0.0127075
760.562	0.0128061
760.640	0.0129364
760.718	0.0130411
760.796	0.0129484
760.874	0.0129954
760.953	0.0129382
761.031	0.0130681
761.109	0.0128553
761.187	0.0129482
761.265	0.0130211
761.343	0.0130669
761.421	0.0130913
761.499	0.0131447
761.578	0.0130791
761.656	0.0131901
761.734	0.0133139
761.812	0.0130743
761.890	0.0131714
761.968	0.0131467
762.046	0.0132185
762.124	0.0133296
762.203	0.0131955
762.281	0.0131062
762.359	0.0132696
762.437	0.0132495
762.515	0.0133662
762.593	0.0133910
762.671	0.0132955
762.749	0.0132018
762.828	0.0133401
762.906	0.0133422
762.984	0.0134729
763.062	0.0134516
763.140	0.0136160
763.218	0.0134841
763.296	0.0133727
763.374	0.0134028
763.453	0.0134508
763.531	0.0133805
763.609	0.0133002
763.687	0.0131945
763.765	0.0132059
763.843	0.0132029
763.921	0.0132775
763.999	0.0129776
764.078	0.0129985
764.156	0.0130405
764.234	0.0130098
764.312	0.0129857
764.390	0.0129846
764.468	0.0130378
764.546	0.0131155
764.624	0.0131767
764.703	0.0132501
764.781	0.0131622
764.859	0.0134494
764.937	0.0133711
765.015	0.0133533
765.093	0.0133849
765.171	0.0134841
765.249	0.0134682
765.328	0.0135229
765.406	0.0135543
765.484	0.0134795
765.562	0.0135362
765.640	0.0133921
765.718	0.0132803
765.796	0.0133090
765.874	0.0133789
765.953	0.0134589
766.031	0.0133409
766.109	0.0132199
766.187	0.0132560
766.265	0.0132604
766.343	0.0132344
766.421	0.0132315
766.499	0.0133279
766.578	0.0132711
766.656	0.0132586
766.734	0.0132735
766.812	0.0132477
766.890	0.0132697
766.968	0.0133859
767.046	0.0132350
767.124	0.0132011
767.203	0.0132407
767.281	0.0132708
767.359	0.0132626
767.437	0.0131579
767.515	0.0131187
767.593	0.0132220
767.671	0.0131361
767.749	0.0129156
767.828	0.0130405
767.906	0.0130267
767.984	0.0129150
768.062	0.0129279
768.140	0.0129871
768.218	0.0127847
768.296	0.0131026
768.374	0.0129564
768.453	0.0127224
768.531	0.0127493
768.609	0.0126956
768.687	0.0126662
768.765	0.0126420
768.843	0.0126628
768.921	0.0126488
768.999	0.0125327
769.078	0.0127391
769.156	0.0127180
769.234	0.0128522
769.312	0.0129151
769.390	0.0130157
769.468	0.0131183
769.546	0.0130912
769.624	0.0131821
769.703	0.0133289
769.781	0.0133711
769.859	0.0133830
769.937	0.0132719
770.015	0.0134560
770.093	0.0134029
770.171	0.0134737
770.249	0.0136004
770.328	0.0135343
770.406	0.0135233
770.484	0.0134618
770.562	0.0134489
770.640	0.0134360
770.718	0.0134689
770.796	0.0132178
770.874	0.0132744
770.953	0.0131541
771.031	0.0131889
771.109	0.0131363
771.187	0.0130269
771.265	0.0129401
771.343	0.0129656
771.421	0.0129934
771.499	0.0129283
771.578	0.0127912
771.656	0.0129667
771.734	0.0129995
771.812	0.0130132
771.890	0.0129807
771.968	0.0129906
772.046	0.0130991
772.124	0.0130663
772.203	0.0131899
772.281	0.0131843
772.359	0.0133504
772.437	0.0132790
772.515	0.0131718
772.593	0.0132066
772.671	0.0132301
772.749	0.0132713
772.828	0.0133120
772.906	0.0132598
772.984	0.0133398
773.062	0.0131828
773.140	0.0130803
773.218	0.0132848
773.296	0.0130930
773.374	0.0132934
773.453	0.0133392
773.531	0.0134154
773.609	0.0134539
773.687	0.0132723
773.765	0.0134290
773.843	0.0134476
773.921	0.0135989
773.999	0.0135978
774.078	0.0135674
774.156	0.0136489
774.234	0.0135414
774.312	0.0137213
774.390	0.0137305
774.468	0.0137789
774.546	0.0138123
774.624	0.0138433
774.703	0.0137973
774.781	0.0137078
774.859	0.0137511
774.937	0.0138602
775.015	0.0136631
775.093	0.0137021
775.171	0.0137238
775.249	0.0136877
775.328	0.0136912
775.406	0.0135403
775.484	0.0136353
775.562	0.0136074
775.640	0.0136258
775.718	0.0137986
775.796	0.0136829
775.874	0.0136273
775.953	0.0135546
776.031	0.0136213
776.109	0.0135651
776.187	0.0135396
776.265	0.0135371
776.343	0.0134546
776.421	0.0136048
776.499	0.0136010
776.578	0.0135161
776.656	0.0134660
776.734	0.0135190
776.812	0.0134290
776.890	0.0135906
776.968	0.0133784
777.046	0.0135223
777.124	0.0135125
777.203	0.0134866
777.281	0.0134064
777.359	0.0135192
777.437	0.0135597
777.515	0.0135946
777.593	0.0134804
777.671	0.0135000
777.749	0.0133926
777.828	0.0135332
777.906	0.0134652
777.984	0.0135445
778.062	0.0134146
778.140	0.0135577
778.218	0.0134621
778.296	0.0135250
778.374	0.0134750
778.453	0.0135038
778.531	0.0134103
778.609	0.0132657
778.687	0.0133397
778.765	0.0134299
778.843	0.0134028
778.921	0.0132431
778.999	0.0132271
779.078	0.0132890
779.156	0.0132249
779.234	0.0132361
779.312	0.0133058
779.390	0.0133079
779.468	0.0133792
779.546	0.0133286
779.624	0.0131757
779.703	0.0132433
779.781	0.0133227
779.859	0.0133758
779.937	0.0131957
780.015	0.0131380
780.093	0.0131915
780.171	0.0132295
780.249	0.0130673
780.328	0.0130185
780.406	0.0130850
780.484	0.0131076
780.562	0.0132600
780.640	0.0130289
780.718	0.0130584
780.796	0.0131389
780.874	0.0132243
780.953	0.0131652
781.031	0.0131447
781.109	0.0129680
781.187	0.0130463
781.265	0.0130543
781.343	0.0130792
781.421	0.0130721
781.499	0.0131252
781.578	0.0130378
781.656	0.0130320
781.734	0.0130065
781.812	0.0130665
781.890	0.0131921
781.968	0.0132851
782.046	0.0131523
782.124	0.0131174
782.203	0.0130071
782.281	0.0132758
782.359	0.0131915
782.437	0.0132638
782.515	0.0132792
782.593	0.0131531
782.671	0.0132594
782.749	0.0133596
782.828	0.0135482
782.906	0.0134623
782.984	0.0135090
783.062	0.0133561
783.140	0.0134624
783.218	0.0134516
783.296	0.0134852
783.374	0.0134451
783.453	0.0134733
783.531	0.0134092
783.609	0.0133478
783.687	0.0133968
783.765	0.0134973
783.843	0.0134322
783.921	0.0134771
783.999	0.0132861
784.078	0.0135219
784.156	0.0133815
784.234	0.0133601
784.312	0.0134148
784.390	0.0132861
784.468	0.0132769
784.546	0.0133449
784.624	0.0133849
784.703	0.0133452
784.781	0.0132964
784.859	0.0134538
784.937	0.0135548
785.015	0.0134735
785.093	0.0133503
785.171	0.0133374
785.249	0.0132732
785.328	0.0132824
785.406	0.0132152
785.484	0.0130997
785.562	0.0129291
785.640	0.0131430
785.718	0.0132160
785.796	0.0131462
785.874	0.0132498
785.953	0.0133725
786.031	0.0134161
786.109	0.0133998
786.187	0.0134046
786.265	0.0134926
786.343	0.0134679
786.421	0.0135069
786.499	0.0133398
786.578	0.0133736
786.656	0.0133044
786.734	0.0133188
786.812	0.0131290
786.890	0.0133871
786.968	0.0133842
787.046	0.0133206
787.124	0.0132980
787.203	0.0133991
787.281	0.0134287
787.359	0.0134391
787.437	0.0133701
787.515	0.0134695
787.593	0.0134199
787.671	0.0134502
787.749	0.0132819
787.828	0.0132844
787.906	0.0133693
787.984	0.0133490
788.062	0.0132635
788.140	0.0133763
788.218	0.0134497
788.296	0.0133426
788.374	0.0133447
788.453	0.0133543
788.531	0.0134062
788.609	0.0131680
788.687	0.0131907
788.765	0.0132364
788.843	0.0131168
788.921	0.0130639
788.999	0.0130538
789.078	0.0130795
789.156	0.0130874
789.234	0.0130886
789.312	0.0131011
789.390	0.0131573
789.468	0.0133280
789.546	0.0133927
789.624	0.0134818
789.703	0.0133162
789.781	0.0134575
789.859	0.0134721
789.937	0.0134856
790.015	0.0136340
790.093	0.0134293
790.171	0.0134661
790.249	0.0134669
790.328	0.0133085
790.406	0.0135340
790.484	0.0132848
790.562	0.0132539
790.640	0.0132056
790.718	0.0131245
790.796	0.0133522
790.874	0.0131196
790.953	0.0132240
791.031	0.0131969
791.109	0.0134102
791.187	0.0133073
791.265	0.0134360
791.343	0.0136577
791.421	0.0135391
791.499	0.0134488
791.578	0.0133994
791.656	0.0134145
791.734	0.0132740
791.812	0.0132314
791.890	0.0130921
791.968	0.0130888
792.046	0.0128982
792.124	0.0128977
792.203	0.0131053
792.281	0.0131538
792.359	0.0130655
792.437	0.0130428
792.515	0.0130872
792.593	0.0133131
792.671	0.0131870
792.749	0.0131040
792.828	0.0131213
792.906	0.0131532
792.984	0.0131332
793.062	0.0131786
793.140	0.0132072
793.218	0.0130319
793.296	0.0129574
793.374	0.0129274
793.453	0.0129739
793.531	0.0129692
793.609	0.0129462
793.687	0.0132530
793.765	0.0132192
793.843	0.0130354
793.921	0.0130431
793.999	0.0130932
794.078	0.0131504
794.156	0.0131632
794.234	0.0132194
794.312	0.0130734
794.390	0.0130656
794.468	0.0130132
794.546	0.0129559
794.624	0.0130052
794.703	0.0130747
794.781	0.0129634
794.859	0.0129798
794.937	0.0130780
795.015	0.0131117
795.093	0.0130920
795.171	0.0131381
795.249	0.0131403
795.328	0.0132912
795.406	0.0131271
795.484	0.0130832
795.562	0.0131395
795.640	0.0131180
795.718	0.0131069
795.796	0.0130409
795.874	0.0129503
795.953	0.0131765
796.031	0.0131260
796.109	0.0130291
796.187	0.0130636
796.265	0.0131974
796.343	0.0132752
796.421	0.0131896
796.499	0.0134547
796.578	0.0134329
796.656	0.0133072
796.734	0.0135587
796.812	0.0136497
796.890	0.0134660
796.968	0.0134856
797.046	0.0133900
797.124	0.0134542
797.203	0.0133929
797.281	0.0135303
797.359	0.0134525
797.437	0.0135313
797.515	0.0135390
797.593	0.0134122
797.671	0.0134351
797.749	0.0135123
797.828	0.0134839
797.906	0.0134236
797.984	0.0133504
798.062	0.0132398
798.140	0.0133984
798.218	0.0134049
798.296	0.0132741
798.374	0.0133006
798.453	0.0132713
798.531	0.0133296
798.609	0.0133681
798.687	0.0133331
798.765	0.0134452
798.843	0.0133911
798.921	0.0134691
798.999	0.0134933
799.078	0.0133680
799.156	0.0134603
799.234	0.0132829
799.312	0.0132169
799.390	0.0134899
799.468	0.0135931
799.546	0.0134172
799.624	0.0134514
799.703	0.0133904
799.781	0.0134648
799.859	0.0135139
799.937	0.0135664
800.015	0.0135638
800.093	0.0134611
800.171	0.0135078
800.249	0.0135124
800.328	0.0135060
800.406	0.0134456
800.484	0.0135191
800.562	0.0134545
800.640	0.0134241
800.718	0.0135764
800.796	0.0134447
800.874	0.0132867
800.953	0.0134200
801.031	0.0133334
801.109	0.0133435
801.187	0.0133405
801.265	0.0132661
801.343	0.0132750
801.421	0.0132827
801.499	0.0133154
801.578	0.0132887
801.656	0.0131009
801.734	0.0131093
801.812	0.0132381
801.890	0.0132368
801.968	0.0134163
802.046	0.0133553
802.124	0.0133870
802.203	0.0135313
802.281	0.0137044
802.359	0.0136794
802.437	0.0136899
802.515	0.0136120
802.593	0.0136479
802.671	0.0136429
802.749	0.0136903
802.828	0.0135448
802.906	0.0137010
802.984	0.0136249
803.062	0.0133434
803.140	0.0133908
803.218	0.0135287
803.296	0.0133762
803.374	0.0133070
803.453	0.0133102
803.531	0.0132327
803.609	0.0132359
803.687	0.0131829
803.765	0.0133427
803.843	0.0133171
803.921	0.0131753
803.999	0.0132936
804.078	0.0132826
804.156	0.0133085
804.234	0.0134264
804.312	0.0134274
804.390	0.0131879
804.468	0.0133312
804.546	0.0132829
804.624	0.0134591
804.703	0.0133173
804.781	0.0131982
804.859	0.0132523
804.937	0.0132283
805.015	0.0131791
805.093	0.0130627
805.171	0.0130473
805.249	0.0129903
805.328	0.0129694
805.406	0.0130308
805.484	0.0129868
805.562	0.0129776
805.640	0.0130704
805.718	0.0129795
805.796	0.0129469
805.874	0.0130634
805.953	0.0129624
806.031	0.0130557
806.109	0.0130630
806.187	0.0130118
806.265	0.0129283
806.343	0.0130991
806.421	0.0130061
806.499	0.0130953
806.578	0.0131184
806.656	0.0130952
806.734	0.0130896
806.812	0.0129680
806.890	0.0129619
806.968	0.0130396
807.046	0.0129823
807.124	0.0131898
807.203	0.0130423
807.281	0.0131419
807.359	0.0131294
807.437	0.0131750
807.515	0.0132298
807.593	0.0133440
807.671	0.0134053
807.749	0.0135602
807.828	0.0135231
807.906	0.0134422
807.984	0.0135046
808.062	0.0134088
808.140	0.0132681
808.218	0.0132826
808.296	0.0132734
808.374	0.0132932
808.453	0.0131327
808.531	0.0130255
808.609	0.0131035
808.687	0.0131421
808.765	0.0131062
808.843	0.0131540
808.921	0.0130890
808.999	0.0131436
809.078	0.0132418
809.156	0.0133112
809.234	0.0133421
809.312	0.0133963
809.390	0.0135286
809.468	0.0137849
809.546	0.0137652
809.624	0.0137681
809.703	0.0137000
809.781	0.0137128
809.859	0.0138585
809.937	0.0138739
810.015	0.0136967
810.093	0.0135522
810.171	0.0136294
810.249	0.0136689
810.328	0.0134360
810.406	0.0133696
810.484	0.0135303
810.562	0.0134546
810.640	0.0134271
810.718	0.0135258
810.796	0.0135522
810.874	0.0135677
810.953	0.0136640
811.031	0.0135757
811.109	0.0135499
811.187	0.0136176
811.265	0.0135014
811.343	0.0135665
811.421	0.0132983
811.499	0.0135390
811.578	0.0135596
811.656	0.0135970
811.734	0.0133047
811.812	0.0134827
811.890	0.0133678
811.968	0.0133277
812.046	0.0133524
812.124	0.0133887
812.203	0.0132745
812.281	0.0133119
812.359	0.0132616
812.437	0.0130956
812.515	0.0133167
812.593	0.0134094
812.671	0.0134883
812.749	0.0134087
812.828	0.0133794
812.906	0.0136391
812.984	0.0134853
813.062	0.0136028
813.140	0.0137064
813.218	0.0136334
813.296	0.0137218
813.374	0.0137261
813.453	0.0136990
813.531	0.0134794
813.609	0.0135551
813.687	0.0134418
813.765	0.0132500
813.843	0.0131781
813.921	0.0130481
813.999	0.0131254
814.078	0.0129490
814.156	0.0128720
814.234	0.0127943
814.312	0.0126396
814.390	0.0128107
814.468	0.0128965
814.546	0.0129988
814.624	0.0128612
814.703	0.0129573
814.781	0.0131596
814.859	0.0131010
814.937	0.0132874
815.015	0.0133216
815.093	0.0133915
815.171	0.0133087
815.249	0.0135281
815.328	0.0135044
815.406	0.0133015
815.484	0.0134000
815.562	0.0133721
815.640	0.0134172
815.718	0.0134459
815.796	0.0134169
815.874	0.0134607
815.953	0.0134081
816.031	0.0135394
816.109	0.0135236
816.187	0.0134335
816.265	0.0136030
816.343	0.0134115
816.421	0.0134735
816.499	0.0133939
816.578	0.0133920
816.656	0.0132099
816.734	0.0132471
816.812	0.0130959
816.890	0.0130853
816.968	0.0130294
817.046	0.0129361
817.124	0.0128954
817.203	0.0130038
817.281	0.0128743
817.359	0.0128126
817.437	0.0129444
817.515	0.0128182
817.593	0.0129027
817.671	0.0129275
817.749	0.0129630
817.828	0.0130891
817.906	0.0131322
817.984	0.0130897
818.062	0.0131696
818.140	0.0132378
818.218	0.0132083
818.296	0.0133839
818.374	0.0135272
818.453	0.0134310
818.531	0.0134373
818.609	0.0133733
818.687	0.0134556
818.765	0.0134505
818.843	0.0133904
818.921	0.0134140
818.999	0.0132912
819.078	0.0133788
819.156	0.0132246
819.234	0.0131721
819.312	0.0130398
819.390	0.0131538
819.468	0.0132196
819.546	0.0130943
819.624	0.0132659
819.703	0.0131958
819.781	0.0132075
819.859	0.0133781
819.937	0.0134737
820.015	0.0136649
820.093	0.0137377
820.171	0.0135421
820.249	0.0138100
820.328	0.0137826
820.406	0.0137611
820.484	0.0139039
820.562	0.0138329
820.640	0.0135954
820.718	0.0136271
820.796	0.0136269
820.874	0.0135126
820.953	0.0132016
821.031	0.0130756
821.109	0.0131448
821.187	0.0131098
821.265	0.0129718
821.343	0.0130396
821.421	0.0128790
821.499	0.0128663
821.578	0.0129778
821.656	0.0129756
821.734	0.0129826
821.812	0.0129807
821.890	0.0130280
821.968	0.0131455
822.046	0.0132811
822.124	0.0131998
822.203	0.0132492
822.281	0.0131474
822.359	0.0131689
822.437	0.0132783
822.515	0.0132345
822.593	0.0133757
822.671	0.0131693
822.749	0.0131538
822.828	0.0131733
822.906	0.0130704
822.984	0.0131482
823.062	0.0131693
823.140	0.0130713
823.218	0.0130598
823.296	0.0130618
823.374	0.0131860
823.453	0.0130538
823.531	0.0131618
823.609	0.0131625
823.687	0.0132629
823.765	0.0132577
823.843	0.0133380
823.921	0.0133165
823.999	0.0133896
824.078	0.0134584
824.156	0.0133886
824.234	0.0134659
824.312	0.0132956
824.390	0.0134576
824.468	0.0134351
824.546	0.0133002
824.624	0.0132242
824.703	0.0133823
824.781	0.0133176
824.859	0.0132195
824.937	0.0132468
825.015	0.0132864
825.093	0.0132800
825.171	0.0132734
825.249	0.0131768
825.328	0.0131284
825.406	0.0129231
825.484	0.0129939
825.562	0.0129289
825.640	0.0130230
825.718	0.0131432
825.796	0.0130132
825.874	0.0129006
825.953	0.0128251
826.031	0.0128730
826.109	0.0130003
826.187	0.0130576
826.265	0.0130401
826.343	0.0131290
826.421	0.0131779
826.499	0.0132106
826.578	0.0131911
826.656	0.0133262
826.734	0.0132511
826.812	0.0133415
826.890	0.0135555
826.968	0.0135679
827.046	0.0136716
827.124	0.0136314
827.203	0.0136221
827.281	0.0136689
827.359	0.0137264
827.437	0.0136406
827.515	0.0135901
827.593	0.0135456
827.671	0.0136424
827.749	0.0137120
827.828	0.0136704
827.906	0.0136369
827.984	0.0134241
828.062	0.0136177
828.140	0.0134995
828.218	0.0134673
828.296	0.0133697
828.374	0.0133869
828.453	0.0132323
828.531	0.0133080
828.609	0.0133157
828.687	0.0131819
828.765	0.0132104
828.843	0.0131467
828.921	0.0131986
828.999	0.0132439
829.078	0.0131848
829.156	0.0132394
829.234	0.0131902
829.312	0.0132512
829.390	0.0133703
829.468	0.0134008
829.546	0.0132811
829.624	0.0132804
829.703	0.0132858
829.781	0.0134602
829.859	0.0134986
829.937	0.0134672
830.015	0.0133793
830.093	0.0133079
830.171	0.0132500
830.249	0.0133335
830.328	0.0133572
830.406	0.0133149
830.484	0.0131493
830.562	0.0131869
830.640	0.0132943
830.718	0.0133750
830.796	0.0132863
830.874	0.0132185
830.953	0.0133829
831.031	0.0132561
831.109	0.0133743
831.187	0.0133983
831.265	0.0134334
831.343	0.0134512
831.421	0.0135353
831.499	0.0135206
831.578	0.0137013
831.656	0.0136945
831.734	0.0137346
831.812	0.0136933
831.890	0.0136429
831.968	0.0139093
832.046	0.0138396
832.124	0.0137675
832.203	0.0139436
832.281	0.0136971
832.359	0.0137243
832.437	0.0136168
832.515	0.0134924
832.593	0.0134883
832.671	0.0135108
832.749	0.0133691
832.828	0.0133523
832.906	0.0132285
832.984	0.0131632
833.062	0.0132973
833.140	0.0132570
833.218	0.0132230
833.296	0.0131966
833.374	0.0132755
833.453	0.0132179
833.531	0.0132962
833.609	0.0131967
833.687	0.0131449
833.765	0.0132377
833.843	0.0132557
833.921	0.0133256
833.999	0.0134499
834.078	0.0133028
834.156	0.0132436
834.234	0.0132785
834.312	0.0132919
834.390	0.0131925
834.468	0.0132317
834.546	0.0131322
834.624	0.0131284
834.703	0.0132041
834.781	0.0130080
834.859	0.0128423
834.937	0.0130078
835.015	0.0129530
835.093	0.0128056
835.171	0.0127091
835.249	0.0127242
835.328	0.0127388
835.406	0.0128481
835.484	0.0126938
835.562	0.0128366
835.640	0.0126938
835.718	0.0127556
835.796	0.0127489
835.874	0.0128992
835.953	0.0129874
836.031	0.0129716
836.109	0.0129480
836.187	0.0130431
836.265	0.0131053
836.343	0.0131995
836.421	0.0132387
836.499	0.0132282
836.578	0.0131892
836.656	0.0133368
836.734	0.0133266
836.812	0.0135136
836.890	0.0134703
836.968	0.0134053
837.046	0.0132954
837.124	0.0132259
837.203	0.0132571
837.281	0.0132782
837.359	0.0131281
837.437	0.0131368
837.515	0.0132687
837.593	0.0132471
837.671	0.0131792
837.749	0.0132359
837.828	0.0133179
837.906	0.0133154
837.984	0.0133195
838.062	0.0133546
838.140	0.0134704
838.218	0.0133990
838.296	0.0132129
838.374	0.0132132
838.453	0.0132048
838.531	0.0131317
838.609	0.0133211
838.687	0.0131962
838.765	0.0132427
838.843	0.0132168
838.921	0.0133173
838.999	0.0134397
839.078	0.0134776
839.156	0.0134715
839.234	0.0134539
839.312	0.0133867
839.390	0.0135449
839.468	0.0136187
839.546	0.0136340
839.624	0.0136018
839.703	0.0135107
839.781	0.0135658
839.859	0.0135899
839.937	0.0135213
840.015	0.0135227
840.093	0.0135907
840.171	0.0135610
840.249	0.0134290
840.328	0.0133751
840.406	0.0134901
840.484	0.0133720
840.562	0.0132952
840.640	0.0132568
840.718	0.0133895
840.796	0.0134887
840.874	0.0133215
840.953	0.0133363
841.031	0.0135229
841.109	0.0134952
841.187	0.0134464
841.265	0.0133147
841.343	0.0134251
841.421	0.0133278
841.499	0.0132923
841.578	0.0133612
841.656	0.0132885
841.734	0.0133820
841.812	0.0134017
841.890	0.0131673
841.968	0.0130423
842.046	0.0130959
842.124	0.0131833
842.203	0.0130235
842.281	0.0130611
842.359	0.0130600
842.437	0.0128769
842.515	0.0131209
842.593	0.0132816
842.671	0.0130762
842.749	0.0130944
842.828	0.0133161
842.906	0.0133318
842.984	0.0133510
843.062	0.0131893
843.140	0.0132834
843.218	0.0134129
843.296	0.0135058
843.374	0.0133099
843.453	0.0132809
843.531	0.0133905
843.609	0.0135071
843.687	0.0133431
843.765	0.0132446
843.843	0.0132664
843.921	0.0132339
843.999	0.0132353
844.078	0.0132362
844.156	0.0131155
844.234	0.0131225
844.312	0.0130444
844.390	0.0129800
844.468	0.0131578
844.546	0.0130417
844.624	0.0130942
844.703	0.0130700
844.781	0.0131397
844.859	0.0132031
844.937	0.0131478
845.015	0.0131603
845.093	0.0132877
845.171	0.0131740
845.249	0.0131953
845.328	0.0132117
845.406	0.0131753
845.484	0.0131803
845.562	0.0132569
845.640	0.0133758
845.718	0.0131042
845.796	0.0133150
845.874	0.0134695
845.953	0.0133853
846.031	0.0134151
846.109	0.0134377
846.187	0.0134712
846.265	0.0134570
846.343	0.0134393
846.421	0.0134532
846.499	0.0133569
846.578	0.0133270
846.656	0.0133188
846.734	0.0133313
846.812	0.0133106
846.890	0.0132887
846.968	0.0131161
847.046	0.0132845
847.124	0.0130785
847.203	0.0128294
847.281	0.0131244
847.359	0.0131217
847.437	0.0130218
847.515	0.0130840
847.593	0.0132066
847.671	0.0131142
847.749	0.0132381
847.828	0.0133499
847.906	0.0133286
847.984	0.0133111
848.062	0.0134769
848.140	0.0135375
848.218	0.0134289
848.296	0.0135035
848.374	0.0134628
848.453	0.0135159
848.531	0.0133469
848.609	0.0134531
848.687	0.0133437
848.765	0.0133111
848.843	0.0133387
848.921	0.0134033
848.999	0.0133587
849.078	0.0133566
849.156	0.0133287
849.234	0.0135754
849.312	0.0131947
849.390	0.0131548
849.468	0.0134710
849.546	0.0134618
849.624	0.0133368
849.703	0.0133775
849.781	0.0133452
849.859	0.0131819
849.937	0.0132372
850.015	0.0133652
850.093	0.0133694
850.171	0.0133100
850.249	0.0132189
850.328	0.0133409
850.406	0.0133942
850.484	0.0132232
850.562	0.0131052
850.640	0.0133219
850.718	0.0132536
850.796	0.0132625
850.874	0.0131835
850.953	0.0132062
851.031	0.0133278
851.109	0.0131626
851.187	0.0133028
851.265	0.0132232
851.343	0.0132536
851.421	0.0132596
851.499	0.0132710
851.578	0.0132019
851.656	0.0131931
851.734	0.0132816
851.812	0.0132002
851.890	0.0131902
851.968	0.0131847
852.046	0.0129952
852.124	0.0131119
852.203	0.0132523
852.281	0.0132802
852.359	0.0132146
852.437	0.0133025
852.515	0.0134311
852.593	0.0133846
852.671	0.0134789
852.749	0.0135432
852.828	0.0134715
852.906	0.0134534
852.984	0.0136462
853.062	0.0137231
853.140	0.0135660
853.218	0.0135320
853.296	0.0135250
853.374	0.0136130
853.453	0.0133116
853.531	0.0134422
853.609	0.0134575
853.687	0.0134082
853.765	0.0134527
853.843	0.0133124
853.921	0.0132735
853.999	0.0131506
854.078	0.0132919
854.156	0.0132964
854.234	0.0132516
854.312	0.0132177
854.390	0.0131364
854.468	0.0132268
854.546	0.0132327
854.624	0.0131232
854.703	0.0131672
854.781	0.0131470
854.859	0.0132276
854.937	0.0131921
855.015	0.0129999
855.093	0.0130367
855.171	0.0132385
855.249	0.0130591
855.328	0.0131234
855.406	0.0131102
855.484	0.0132762
855.562	0.0130743
855.640	0.0133260
855.718	0.0132634
855.796	0.0134763
855.874	0.0134345
855.953	0.0133080
856.031	0.0135017
856.109	0.0134193
856.187	0.0133927
856.265	0.0134904
856.343	0.0134097
856.421	0.0134779
856.499	0.0133865
856.578	0.0133658
856.656	0.0134382
856.734	0.0134081
856.812	0.0134965
856.890	0.0134378
856.968	0.0133950
857.046	0.0133570
857.124	0.0133965
857.203	0.0133150
857.281	0.0135588
857.359	0.0134287
857.437	0.0132697
857.515	0.0135109
857.593	0.0133714
857.671	0.0134161
857.749	0.0134736
857.828	0.0132908
857.906	0.0132428
857.984	0.0133515
858.062	0.0131929
858.140	0.0132785
858.218	0.0132069
858.296	0.0131310
858.374	0.0133105
858.453	0.0132306
858.531	0.0131694
858.609	0.0132899
858.687	0.0132475
858.765	0.0132617
858.843	0.0132791
858.921	0.0132964
858.999	0.0134060
859.078	0.0133071
859.156	0.0133040
859.234	0.0133888
859.312	0.0133766
859.390	0.0133878
859.468	0.0133956
859.546	0.0134829
859.624	0.0134184
859.703	0.0134358
859.781	0.0134364
859.859	0.0134763
859.937	0.0133702
860.015	0.0134895
860.093	0.0132800
860.171	0.0133947
860.249	0.0135414
860.328	0.0134792
860.406	0.0133034
860.484	0.0133978
860.562	0.0135664
860.640	0.0133938
860.718	0.0134163
860.796	0.0134086
860.874	0.0134297
860.953	0.0133738
861.031	0.0134046
861.109	0.0133527
861.187	0.0133220
861.265	0.0133995
861.343	0.0135291
861.421	0.0133948
861.499	0.0134296
861.578	0.0134583
861.656	0.0135035
861.734	0.0136098
861.812	0.0133541
861.890	0.0133864
861.968	0.0133881
862.046	0.0135181
862.124	0.0136218
862.203	0.0134904
862.281	0.0134921
862.359	0.0134470
862.437	0.0134734
862.515	0.0136227
862.593	0.0135094
862.671	0.0135306
862.749	0.0135118
862.828	0.0133198
862.906	0.0134895
862.984	0.0134989
863.062	0.0132574
863.140	0.0132344
863.218	0.0131679
863.296	0.0133328
863.374	0.0132789
863.453	0.0133352
863.531	0.0133350
863.609	0.0132314
863.687	0.0133251
863.765	0.0133183
863.843	0.0131313
863.921	0.0132467
863.999	0.0132825
864.078	0.0132331
864.156	0.0133392
864.234	0.0132907
864.312	0.0132867
864.390	0.0132671
864.468	0.0134241
864.546	0.0133682
864.624	0.0132409
864.703	0.0134657
864.781	0.0133633
864.859	0.0131852
864.937	0.0132920
865.015	0.0133270
865.093	0.0133934
865.171	0.0133321
865.249	0.0133552
865.328	0.0134718
865.406	0.0135410
865.484	0.0136341
865.562	0.0134729
865.640	0.0134260
865.718	0.0135019
865.796	0.0136197
865.874	0.0136324
865.953	0.0135709
866.031	0.0135680
866.109	0.0134196
866.187	0.0134813
866.265	0.0134334
866.343	0.0133727
866.421	0.0134608
866.499	0.0134147
866.578	0.0133671
866.656	0.0131784
866.734	0.0133131
866.812	0.0132394
866.890	0.0132285
866.968	0.0132153
867.046	0.0129969
867.124	0.0130489
867.203	0.0131353
867.281	0.0131375
867.359	0.0132157
867.437	0.0130472
867.515	0.0130746
867.593	0.0130821
867.671	0.0129787
867.749	0.0129813
867.828	0.0130241
867.906	0.0130122
867.984	0.0129016
868.062	0.0129024
868.140	0.0128535
868.218	0.0128050
868.296	0.0128139
868.374	0.0128347
868.453	0.0128629
868.531	0.0127649
868.609	0.0128015
868.687	0.0129495
868.765	0.0129258
868.843	0.0130001
868.921	0.0130155
868.999	0.0130775
869.078	0.0130156
869.156	0.0130702
869.234	0.0131892
869.312	0.0131860
869.390	0.0130868
869.468	0.0133210
869.546	0.0132183
869.624	0.0130167
869.703	0.0131463
869.781	0.0131044
869.859	0.0130882
869.937	0.0129712
870.015	0.0130251
870.093	0.0131741
870.171	0.0131098
870.249	0.0128851
870.328	0.0130145
870.406	0.0130660
870.484	0.0130701
870.562	0.0130315
870.640	0.0130905
870.718	0.0130029
870.796	0.0129253
870.874	0.0130674
870.953	0.0130869
871.031	0.0131370
871.109	0.0130463
871.187	0.0130453
871.265	0.0132330
871.343	0.0130688
871.421	0.0130386
871.499	0.0131544
871.578	0.0132246
871.656	0.0132169
871.734	0.0131747
871.812	0.0131583
871.890	0.0132809
871.968	0.0131727
872.046	0.0132555
872.124	0.0134366
872.203	0.0132735
872.281	0.0132728
872.359	0.0132851
872.437	0.0134378
872.515	0.0133946
872.593	0.0133967
872.671	0.0135017
872.749	0.0134422
872.828	0.0135860
872.906	0.0134332
872.984	0.0134201
873.062	0.0134336
873.140	0.0136791
873.218	0.0133119
873.296	0.0133826
873.374	0.0134721
873.453	0.0135184
873.531	0.0136310
873.609	0.0135158
873.687	0.0135543
873.765	0.0134916
873.843	0.0135323
873.921	0.0136002
873.999	0.0135253
874.078	0.0136568
874.156	0.0134692
874.234	0.0135641
874.312	0.0136073
874.390	0.0136523
874.468	0.0133724
874.546	0.0135014
874.624	0.0135104
874.703	0.0134576
874.781	0.0134511
874.859	0.0134070
874.937	0.0133231
875.015	0.0132177
875.093	0.0133330
875.171	0.0133038
875.249	0.0131680
875.328	0.0131630
875.406	0.0132092
875.484	0.0132214
875.562	0.0131333
875.640	0.0131042
875.718	0.0131470
875.796	0.0130654
875.874	0.0131924
875.953	0.0131567
876.031	0.0131789
876.109	0.0132018
876.187	0.0132613
876.265	0.0133495
876.343	0.0133773
876.421	0.0134087
876.499	0.0134230
876.578	0.0135989
876.656	0.0135667
876.734	0.0136238
876.812	0.0135992
876.890	0.0137733
876.968	0.0136817
877.046	0.0137299
877.124	0.0136681
877.203	0.0135271
877.281	0.0136255
877.359	0.0135847
877.437	0.0136916
877.515	0.0135948
877.593	0.0134927
877.671	0.0135091
877.749	0.0135168
877.828	0.0136445
877.906	0.0134904
877.984	0.0135487
878.062	0.0135513
878.140	0.0134502
878.218	0.0135925
878.296	0.0135719
878.374	0.0134524
878.453	0.0135584
878.531	0.0134503
878.609	0.0136356
878.687	0.0134054
878.765	0.0134981
878.843	0.0133774
878.921	0.0132931
878.999	0.0132888
879.078	0.0131294
879.156	0.0131038
879.234	0.0132265
879.312	0.0132716
879.390	0.0132438
879.468	0.0130974
879.546	0.0131059
879.624	0.0131580
879.703	0.0130970
879.781	0.0131620
879.859	0.0132906
879.937	0.0131805
880.015	0.0131188
880.093	0.0131773
880.171	0.0132890
880.249	0.0133345
880.328	0.0133198
880.406	0.0133778
880.484	0.0133376
880.562	0.0133524
880.640	0.0131846
880.718	0.0133966
880.796	0.0132235
880.874	0.0131384
880.953	0.0131938
881.031	0.0131916
881.109	0.0133744
881.187	0.0133176
881.265	0.0131471
881.343	0.0132024
881.421	0.0131886
881.499	0.0132003
881.578	0.0131679
881.656	0.0129919
881.734	0.0130775
881.812	0.0132070
881.890	0.0130154
881.968	0.0131377
882.046	0.0132208
882.124	0.0131145
882.203	0.0130572
882.281	0.0131985
882.359	0.0129091
882.437	0.0130399
882.515	0.0130512
882.593	0.0130084
882.671	0.0130180
882.749	0.0130910
882.828	0.0129223
882.906	0.0129833
882.984	0.0130085
883.062	0.0129259
883.140	0.0128876
883.218	0.0130378
883.296	0.0130718
883.374	0.0130875
883.453	0.0130191
883.531	0.0131387
883.609	0.0131464
883.687	0.0129087
883.765	0.0129306
883.843	0.0129957
883.921	0.0128820
883.999	0.0129358
884.078	0.0130478
884.156	0.0130178
884.234	0.0129940
884.312	0.0128744
884.390	0.0130195
884.468	0.0130093
884.546	0.0128954
884.624	0.0130878
884.703	0.0130871
884.781	0.0130247
884.859	0.0130682
884.937	0.0131319
885.015	0.0131140
885.093	0.0130040
885.171	0.0130712
885.249	0.0132225
885.328	0.0130972
885.406	0.0130724
885.484	0.0130282
885.562	0.0131996
885.640	0.0130838
885.718	0.0131302
885.796	0.0132544
885.874	0.0132661
885.953	0.0131658
886.031	0.0132977
886.109	0.0132074
886.187	0.0132307
886.265	0.0131186
886.343	0.0132018
886.421	0.0131107
886.499	0.0131374
886.578	0.0131141
886.656	0.0134671
886.734	0.0132561
886.812	0.0131813
886.890	0.0132606
886.968	0.0132793
887.046	0.0133049
887.124	0.0134287
887.203	0.0133474
887.281	0.0134395
887.359	0.0134491
887.437	0.0134024
887.515	0.0134678
887.593	0.0134135
887.671	0.0134669
887.749	0.0133775
887.828	0.0135101
887.906	0.0133663
887.984	0.0133607
888.062	0.0133156
888.140	0.0133562
888.218	0.0132795
888.296	0.0133662
888.374	0.0133442
888.453	0.0133897
888.531	0.0132876
888.609	0.0131324
888.687	0.0132019
888.765	0.0133151
888.843	0.0134112
888.921	0.0132693
888.999	0.0132392
889.078	0.0132733
889.156	0.0132595
889.234	0.0132571
889.312	0.0134093
889.390	0.0134032
889.468	0.0133934
889.546	0.0134118
889.624	0.0133821
889.703	0.0134137
889.781	0.0133057
889.859	0.0134758
889.937	0.0133831
890.015	0.0133383
890.093	0.0133559
890.171	0.0134910
890.249	0.0133221
890.328	0.0134708
890.406	0.0135520
890.484	0.0134874
890.562	0.0134114
890.640	0.0134083
890.718	0.0135060
890.796	0.0135294
890.874	0.0134557
890.953	0.0133131
891.031	0.0133986
891.109	0.0134476
891.187	0.0134624
891.265	0.0133870
891.343	0.0131718
891.421	0.0133452
891.499	0.0133286
891.578	0.0133565
891.656	0.0133028
891.734	0.0133234
891.812	0.0131034
891.890	0.0132305
891.968	0.0132924
892.046	0.0133179
892.124	0.0131236
892.203	0.0132378
892.281	0.0130997
892.359	0.0132530
892.437	0.0131500
892.515	0.0131496
892.593	0.0130619
892.671	0.0129987
892.749	0.0129902
892.828	0.0129210
892.906	0.0130079
892.984	0.0129087
893.062	0.0128262
893.140	0.0129336
893.218	0.0129285
893.296	0.0129886
893.374	0.0128430
893.453	0.0129278
893.531	0.0128434
893.609	0.0129681
893.687	0.0130415
893.765	0.0129131
893.843	0.0129858
893.921	0.0129690
893.999	0.0129811
894.078	0.0130109
894.156	0.0131533
894.234	0.0131961
894.312	0.0130933
894.390	0.0131331
894.468	0.0130595
894.546	0.0131187
894.624	0.0130936
894.703	0.0131326
894.781	0.0130824
894.859	0.0130679
894.937	0.0130334
895.015	0.0130092
895.093	0.0130554
895.171	0.0129167
895.249	0.0129581
895.328	0.0129712
895.406	0.0130351
895.484	0.0129330
895.562	0.0128682
895.640	0.0128224
895.718	0.0129767
895.796	0.0129002
895.874	0.0128442
895.953	0.0130094
896.031	0.0131793
896.109	0.0131333
896.187	0.0129745
896.265	0.0132063
896.343	0.0133211
896.421	0.0131123
896.499	0.0132602
896.578	0.0133216
896.656	0.0131680
896.734	0.0132151
896.812	0.0132182
896.890	0.0132200
896.968	0.0130854
897.046	0.0131039
897.124	0.0130809
897.203	0.0130613
897.281	0.0130470
897.359	0.0131478
897.437	0.0132047
897.515	0.0131836
897.593	0.0130093
897.671	0.0131548
897.749	0.0132659
897.828	0.0131621
897.906	0.0133202
897.984	0.0134646
898.062	0.0133834
898.140	0.0133904
898.218	0.0134119
898.296	0.0132477
898.374	0.0134140
898.453	0.0133472
898.531	0.0132876
898.609	0.0132749
898.687	0.0132990
898.765	0.0133351
898.843	0.0131641
898.921	0.0133121
898.999	0.0132835
899.078	0.0133940
899.156	0.0132420
899.234	0.0133321
899.312	0.0133810
899.390	0.0135009
899.468	0.0134316
899.546	0.0135065
899.624	0.0134471
899.703	0.0134332
899.781	0.0133249
899.859	0.0134560
899.937	0.0136076
900.015	0.0133958
900.093	0.0134422
900.171	0.0135624
900.249	0.0134162
900.328	0.0134277
900.406	0.0132935
900.484	0.0131934
900.562	0.0133190
900.640	0.0132705
900.718	0.0132700
900.796	0.0132191
900.874	0.0131695
900.953	0.0131879
901.031	0.0130885
901.109	0.0132077
901.187	0.0130718
901.265	0.0129811
901.343	0.0130910
901.421	0.0131035
901.499	0.0130615
901.578	0.0131898
901.656	0.0131590
901.734	0.0133341
901.812	0.0131424
901.890	0.0133315
901.968	0.0133363
902.046	0.0133774
902.124	0.0133577
902.203	0.0133521
902.281	0.0134095
902.359	0.0134525
902.437	0.0133651
902.515	0.0132385
902.593	0.0132368
902.671	0.0132591
902.749	0.0132066
902.828	0.0133459
902.906	0.0132259
902.984	0.0131925
903.062	0.0132293
903.140	0.0131587
903.218	0.0131059
903.296	0.0130927
903.374	0.0130782
903.453	0.0130915
903.531	0.0131529
903.609	0.0131646
903.687	0.0130946
903.765	0.0131322
903.843	0.0133444
903.921	0.0131413
903.999	0.0131739
904.078	0.0132333
904.156	0.0131967
904.234	0.0131877
904.312	0.0132649
904.390	0.0133533
904.468	0.0131958
904.546	0.0132804
904.624	0.0131860
904.703	0.0131506
904.781	0.0132424
904.859	0.0131717
904.937	0.0132463
905.015	0.0131940
905.093	0.0131819
905.171	0.0133485
905.249	0.0131993
905.328	0.0130814
905.406	0.0132024
905.484	0.0132279
905.562	0.0130803
905.640	0.0132507
905.718	0.0132057
905.796	0.0131902
905.874	0.0133974
905.953	0.0133317
906.031	0.0131883
906.109	0.0132314
906.187	0.0131873
906.265	0.0132094
906.343	0.0132824
906.421	0.0131149
906.499	0.0130179
906.578	0.0131403
906.656	0.0133265
906.734	0.0132980
906.812	0.0132241
906.890	0.0131112
906.968	0.0131967
907.046	0.0131942
907.124	0.0129585
907.203	0.0130881
907.281	0.0131229
907.359	0.0130460
907.437	0.0130199
907.515	0.0129963
907.593	0.0129962
907.671	0.0130048
907.749	0.0130223
907.828	0.0130447
907.906	0.0130099
907.984	0.0130479
908.062	0.0131366
908.140	0.0132031
908.218	0.0130673
908.296	0.0131264
908.374	0.0131348
908.453	0.0131081
908.531	0.0132638
908.609	0.0131224
908.687	0.0130913
908.765	0.0131478
908.843	0.0132171
908.921	0.0131783
908.999	0.0131875
909.078	0.0132373
909.156	0.0132161
909.234	0.0131846
909.312	0.0129974
909.390	0.0131825
909.468	0.0131237
909.546	0.0130310
909.624	0.0132003
909.703	0.0132830
909.781	0.0132745
909.859	0.0133904
909.937	0.0134277
910.015	0.0134754
910.093	0.0134213
910.171	0.0132590
910.249	0.0132555
910.328	0.0135897
910.406	0.0134138
910.484	0.0132860
910.562	0.0133765
910.640	0.0134946
910.718	0.0135061
910.796	0.0134419
910.874	0.0134882
910.953	0.0133965
911.031	0.0134280
911.109	0.0135036
911.187	0.0131820
911.265	0.0133336
911.343	0.0134936
911.421	0.0134655
911.499	0.0133967
911.578	0.0133482
911.656	0.0133987
911.734	0.0134009
911.812	0.0134187
911.890	0.0134146
911.968	0.0132475
912.046	0.0133433
912.124	0.0133046
912.203	0.0133170
912.281	0.0133030
912.359	0.0133469
912.437	0.0133241
912.515	0.0132811
912.593	0.0132642
912.671	0.0133141
912.749	0.0132016
912.828	0.0132600
912.906	0.0133622
912.984	0.0132186
913.062	0.0133495
913.140	0.0132425
913.218	0.0133136
913.296	0.0132898
913.374	0.0133025
913.453	0.0132022
913.531	0.0132832
913.609	0.0132916
913.687	0.0132026
913.765	0.0132413
913.843	0.0133379
913.921	0.0132478
913.999	0.0132833
914.078	0.0132049
914.156	0.0132079
914.234	0.0132493
914.312	0.0132990
914.390	0.0132441
914.468	0.0131965
914.546	0.0132718
914.624	0.0131583
914.703	0.0132184
914.781	0.0131812
914.859	0.0132662
914.937	0.0130605
915.015	0.0133265
915.093	0.0132387
915.171	0.0132993
915.249	0.0132174
915.328	0.0131892
915.406	0.0133868
915.484	0.0134563
915.562	0.0134228
915.640	0.0133846
915.718	0.0132668
915.796	0.0135209
915.874	0.0136042
915.953	0.0135122
916.031	0.0134552
916.109	0.0133772
916.187	0.0134319
916.265	0.0134884
916.343	0.0133025
916.421	0.0133218
916.499	0.0133524
916.578	0.0132262
916.656	0.0132594
916.734	0.0133013
916.812	0.0133673
916.890	0.0132441
916.968	0.0132859
917.046	0.0131481
917.124	0.0130488
917.203	0.0131840
917.281	0.0133582
917.359	0.0130635
917.437	0.0131373
917.515	0.0130314
917.593	0.0131131
917.671	0.0131200
917.749	0.0130471
917.828	0.0130486
917.906	0.0130937
917.984	0.0132623
918.062	0.0132266
918.140	0.0131824
918.218	0.0131814
918.296	0.0131584
918.374	0.0131955
918.453	0.0131736
918.531	0.0132660
918.609	0.0132259
918.687	0.0131741
918.765	0.0133399
918.843	0.0133356
918.921	0.0134083
918.999	0.0132096
919.078	0.0132512
919.156	0.0132517
919.234	0.0133659
919.312	0.0133128
919.390	0.0133922
919.468	0.0132133
919.546	0.0131935
919.624	0.0133871
919.703	0.0133971
919.781	0.0133309
919.859	0.0134140
919.937	0.0134518
