05/08/2022	19:36:30	Ver.	4.1	UNKNOWN
Optical Delay	649.989667	Delta X		0.078125	Sweeps	1	Scan Rate	0/0
Coordinates	Axis 1	NaN	Axis 2	NaN	Axis 3	NaN	Axis 4	NaN	Axis 5	NaN	Axis 6	0.000000
TX Power	0.000000	RX Power	0.000000

649.990	0.0137321
650.068	0.0136822
650.146	0.0137600
650.224	0.0138761
650.302	0.0137298
650.380	0.0136875
650.458	0.0136731
650.537	0.0135648
650.615	0.0136440
650.693	0.0137717
650.771	0.0137537
650.849	0.0136446
650.927	0.0137054
651.005	0.0136554
651.083	0.0136822
651.162	0.0136702
651.240	0.0137937
651.318	0.0136963
651.396	0.0136471
651.474	0.0136705
651.552	0.0138564
651.630	0.0137748
651.708	0.0136176
651.787	0.0136237
651.865	0.0137114
651.943	0.0136755
652.021	0.0135966
652.099	0.0136069
652.177	0.0135599
652.255	0.0137197
652.333	0.0137248
652.412	0.0138138
652.490	0.0137482
652.568	0.0136038
652.646	0.0137051
652.724	0.0137046
652.802	0.0137962
652.880	0.0137660
652.958	0.0136019
653.037	0.0135936
653.115	0.0136247
653.193	0.0137310
653.271	0.0137267
653.349	0.0136445
653.427	0.0137220
653.505	0.0135822
653.583	0.0136485
653.662	0.0137304
653.740	0.0137014
653.818	0.0136951
653.896	0.0137032
653.974	0.0137399
654.052	0.0136790
654.130	0.0137507
654.208	0.0137443
654.287	0.0137477
654.365	0.0137639
654.443	0.0135460
654.521	0.0135310
654.599	0.0137418
654.677	0.0137250
654.755	0.0137020
654.833	0.0136360
654.912	0.0136662
654.990	0.0135232
655.068	0.0137963
655.146	0.0137739
655.224	0.0137038
655.302	0.0137704
655.380	0.0137329
655.458	0.0136816
655.537	0.0137258
655.615	0.0137254
655.693	0.0136831
655.771	0.0137712
655.849	0.0136591
655.927	0.0136454
656.005	0.0136524
656.083	0.0136922
656.162	0.0136636
656.240	0.0137644
656.318	0.0137428
656.396	0.0137714
656.474	0.0137222
656.552	0.0137626
656.630	0.0138548
656.708	0.0136250
656.787	0.0136032
656.865	0.0136958
656.943	0.0137140
657.021	0.0136849
657.099	0.0137150
657.177	0.0136772
657.255	0.0137020
657.333	0.0137772
657.412	0.0137134
657.490	0.0136166
657.568	0.0137581
657.646	0.0138056
657.724	0.0136968
657.802	0.0137164
657.880	0.0137132
657.958	0.0136903
658.037	0.0136562
658.115	0.0135069
658.193	0.0137713
658.271	0.0138116
658.349	0.0137981
658.427	0.0137832
658.505	0.0136214
658.583	0.0137408
658.662	0.0137516
658.740	0.0137267
658.818	0.0137248
658.896	0.0136816
658.974	0.0137932
659.052	0.0137427
659.130	0.0136973
659.208	0.0136638
659.287	0.0136656
659.365	0.0136764
659.443	0.0136798
659.521	0.0136956
659.599	0.0137672
659.677	0.0138563
659.755	0.0137176
659.833	0.0136032
659.912	0.0135786
659.990	0.0137681
660.068	0.0137238
660.146	0.0136400
660.224	0.0135425
660.302	0.0137691
660.380	0.0137616
660.458	0.0138631
660.537	0.0138593
660.615	0.0137183
660.693	0.0135957
660.771	0.0135458
660.849	0.0136336
660.927	0.0136448
661.005	0.0136433
661.083	0.0136584
661.162	0.0137615
661.240	0.0136865
661.318	0.0136217
661.396	0.0137506
661.474	0.0137296
661.552	0.0137361
661.630	0.0136752
661.708	0.0136427
661.787	0.0137858
661.865	0.0136472
661.943	0.0137027
662.021	0.0137069
662.099	0.0136819
662.177	0.0136472
662.255	0.0137180
662.333	0.0136623
662.412	0.0135945
662.490	0.0136115
662.568	0.0137539
662.646	0.0136652
662.724	0.0136410
662.802	0.0136121
662.880	0.0136148
662.958	0.0137802
663.037	0.0136843
663.115	0.0137097
663.193	0.0135305
663.271	0.0137588
663.349	0.0137736
663.427	0.0136774
663.505	0.0136619
663.583	0.0136848
663.662	0.0136924
663.740	0.0136707
663.818	0.0137879
663.896	0.0136861
663.974	0.0136639
664.052	0.0136458
664.130	0.0137676
664.208	0.0136474
664.287	0.0137028
664.365	0.0137820
664.443	0.0137185
664.521	0.0136327
664.599	0.0136407
664.677	0.0136914
664.755	0.0137343
664.833	0.0137771
664.912	0.0136388
664.990	0.0138099
665.068	0.0137489
665.146	0.0136781
665.224	0.0137896
665.302	0.0137749
665.380	0.0138683
665.458	0.0138365
665.537	0.0137538
665.615	0.0138373
665.693	0.0137046
665.771	0.0137833
665.849	0.0137688
665.927	0.0138033
666.005	0.0136435
666.083	0.0137176
666.162	0.0138978
666.240	0.0138649
666.318	0.0138354
666.396	0.0137761
666.474	0.0138946
666.552	0.0137955
666.630	0.0139059
666.708	0.0138385
666.787	0.0136251
666.865	0.0137515
666.943	0.0139408
667.021	0.0137141
667.099	0.0138119
667.177	0.0138409
667.255	0.0139484
667.333	0.0137938
667.412	0.0137875
667.490	0.0139200
667.568	0.0137720
667.646	0.0137717
667.724	0.0137696
667.802	0.0138905
667.880	0.0136624
667.958	0.0137157
668.037	0.0138179
668.115	0.0138556
668.193	0.0137029
668.271	0.0138282
668.349	0.0138524
668.427	0.0137962
668.505	0.0138271
668.583	0.0138255
668.662	0.0138510
668.740	0.0137940
668.818	0.0137985
668.896	0.0137987
668.974	0.0138787
669.052	0.0137418
669.130	0.0137498
669.208	0.0139021
669.287	0.0138641
669.365	0.0137692
669.443	0.0138400
669.521	0.0137074
669.599	0.0136685
669.677	0.0137589
669.755	0.0137047
669.833	0.0137125
669.912	0.0138218
669.990	0.0137315
670.068	0.0137247
670.146	0.0137097
670.224	0.0136989
670.302	0.0138103
670.380	0.0137392
670.458	0.0138068
670.537	0.0137680
670.615	0.0137107
670.693	0.0137655
670.771	0.0137251
670.849	0.0136494
670.927	0.0136072
671.005	0.0136695
671.083	0.0137244
671.162	0.0137648
671.240	0.0137083
671.318	0.0135934
671.396	0.0136375
671.474	0.0137164
671.552	0.0137601
671.630	0.0136356
671.708	0.0136662
671.787	0.0137556
671.865	0.0137558
671.943	0.0138165
672.021	0.0136948
672.099	0.0137479
672.177	0.0137022
672.255	0.0137051
672.333	0.0137637
672.412	0.0136626
672.490	0.0135805
672.568	0.0135647
672.646	0.0135767
672.724	0.0137282
672.802	0.0136497
672.880	0.0135410
672.958	0.0137862
673.037	0.0137620
673.115	0.0136565
673.193	0.0136853
673.271	0.0136620
673.349	0.0135756
673.427	0.0136400
673.505	0.0136977
673.583	0.0137024
673.662	0.0136588
673.740	0.0135587
673.818	0.0137164
673.896	0.0136028
673.974	0.0136525
674.052	0.0135318
674.130	0.0135273
674.208	0.0137228
674.287	0.0135779
674.365	0.0136987
674.443	0.0137682
674.521	0.0136314
674.599	0.0136446
674.677	0.0135886
674.755	0.0136530
674.833	0.0137322
674.912	0.0137446
674.990	0.0135985
675.068	0.0136654
675.146	0.0136143
675.224	0.0135112
675.302	0.0136952
675.380	0.0136718
675.458	0.0136671
675.537	0.0135751
675.615	0.0135053
675.693	0.0137439
675.771	0.0137119
675.849	0.0134837
675.927	0.0136416
676.005	0.0135809
676.083	0.0136459
676.162	0.0137489
676.240	0.0137087
676.318	0.0136813
676.396	0.0136911
676.474	0.0136699
676.552	0.0135503
676.630	0.0137344
676.708	0.0135941
676.787	0.0136317
676.865	0.0138503
676.943	0.0135359
677.021	0.0137029
677.099	0.0136790
677.177	0.0136772
677.255	0.0136243
677.333	0.0136805
677.412	0.0138163
677.490	0.0137399
677.568	0.0137160
677.646	0.0136864
677.724	0.0137335
677.802	0.0137985
677.880	0.0138032
677.958	0.0136220
678.037	0.0136819
678.115	0.0136658
678.193	0.0137774
678.271	0.0137368
678.349	0.0136884
678.427	0.0138040
678.505	0.0137903
678.583	0.0136323
678.662	0.0136457
678.740	0.0138351
678.818	0.0137592
678.896	0.0136385
678.974	0.0137520
679.052	0.0136949
679.130	0.0137076
679.208	0.0136346
679.287	0.0136087
679.365	0.0135562
679.443	0.0136356
679.521	0.0135545
679.599	0.0136112
679.677	0.0137439
679.755	0.0137116
679.833	0.0138853
679.912	0.0142071
679.990	0.0138600
680.068	0.0140195
680.146	0.0140082
680.224	0.0139362
680.302	0.0139664
680.380	0.0138146
680.458	0.0136533
680.537	0.0135645
680.615	0.0134901
680.693	0.0131763
680.771	0.0131248
680.849	0.0130750
680.927	0.0132372
681.005	0.0133562
681.083	0.0134609
681.162	0.0136105
681.240	0.0137555
681.318	0.0140479
681.396	0.0141239
681.474	0.0143332
681.552	0.0142683
681.630	0.0144110
681.708	0.0146264
681.787	0.0146538
681.865	0.0148271
681.943	0.0149075
682.021	0.0149184
682.099	0.0147436
682.177	0.0145624
682.255	0.0138625
682.333	0.0134670
682.412	0.0129545
682.490	0.0123313
682.568	0.0117655
682.646	0.0114931
682.724	0.0111790
682.802	0.0111376
682.880	0.0111335
682.958	0.0115282
683.037	0.0122644
683.115	0.0129155
683.193	0.0135983
683.271	0.0142596
683.349	0.0150408
683.427	0.0156623
683.505	0.0159589
683.583	0.0164126
683.662	0.0167876
683.740	0.0169473
683.818	0.0167979
683.896	0.0166658
683.974	0.0162321
684.052	0.0158364
684.130	0.0153618
684.208	0.0147505
684.287	0.0140607
684.365	0.0131638
684.443	0.0122627
684.521	0.0114959
684.599	0.0107323
684.677	0.0100708
684.755	0.00971489
684.833	0.00945793
684.912	0.00942322
684.990	0.00980530
685.068	0.0103783
685.146	0.0110835
685.224	0.0120900
685.302	0.0127845
685.380	0.0137722
685.458	0.0146641
685.537	0.0153851
685.615	0.0158972
685.693	0.0163379
685.771	0.0165540
685.849	0.0167494
685.927	0.0167627
686.005	0.0167810
686.083	0.0165855
686.162	0.0163226
686.240	0.0160867
686.318	0.0158223
686.396	0.0154266
686.474	0.0151453
686.552	0.0147044
686.630	0.0143336
686.708	0.0139356
686.787	0.0134769
686.865	0.0132091
686.943	0.0127174
687.021	0.0121857
687.099	0.0116577
687.177	0.0112453
687.255	0.0108993
687.333	0.0106284
687.412	0.0106322
687.490	0.0107208
687.568	0.0108626
687.646	0.0112704
687.724	0.0116534
687.802	0.0122287
687.880	0.0126519
687.958	0.0132034
688.037	0.0136662
688.115	0.0140652
688.193	0.0143742
688.271	0.0144902
688.349	0.0146541
688.427	0.0148140
688.505	0.0149854
688.583	0.0149752
688.662	0.0149132
688.740	0.0149731
688.818	0.0150747
688.896	0.0152667
688.974	0.0153054
689.052	0.0155137
689.130	0.0155186
689.208	0.0156134
689.287	0.0158295
689.365	0.0157434
689.443	0.0157714
689.521	0.0156040
689.599	0.0155405
689.677	0.0151453
689.755	0.0147701
689.833	0.0141680
689.912	0.0135257
689.990	0.0130805
690.068	0.0123804
690.146	0.0117878
690.224	0.0113193
690.302	0.0110762
690.380	0.0107828
690.458	0.0105797
690.537	0.0105637
690.615	0.0104778
690.693	0.0106281
690.771	0.0110765
690.849	0.0111166
690.927	0.0116338
691.005	0.0119722
691.083	0.0125098
691.162	0.0130972
691.240	0.0138098
691.318	0.0141339
691.396	0.0147205
691.474	0.0155235
691.552	0.0160577
691.630	0.0165201
691.708	0.0169064
691.787	0.0172434
691.865	0.0175004
691.943	0.0174222
692.021	0.0171539
692.099	0.0168497
692.177	0.0163838
692.255	0.0157013
692.333	0.0149570
692.412	0.0141174
692.490	0.0134375
692.568	0.0124988
692.646	0.0119355
692.724	0.0113181
692.802	0.0109206
692.880	0.0105582
692.958	0.0103970
693.037	0.0104255
693.115	0.0107294
693.193	0.0109717
693.271	0.0112743
693.349	0.0118393
693.427	0.0125986
693.505	0.0132328
693.583	0.0137543
693.662	0.0143907
693.740	0.0150226
693.818	0.0154703
693.896	0.0160002
693.974	0.0163231
694.052	0.0165087
694.130	0.0167399
694.208	0.0167956
694.287	0.0166720
694.365	0.0164107
694.443	0.0159193
694.521	0.0156190
694.599	0.0150668
694.677	0.0144439
694.755	0.0139043
694.833	0.0132614
694.912	0.0124957
694.990	0.0121690
695.068	0.0117963
695.146	0.0113606
695.224	0.0111461
695.302	0.0110868
695.380	0.0111166
695.458	0.0111275
695.537	0.0112664
695.615	0.0114719
695.693	0.0119093
695.771	0.0122465
695.849	0.0127714
695.927	0.0130125
696.005	0.0132404
696.083	0.0134070
696.162	0.0136856
696.240	0.0139799
696.318	0.0143439
696.396	0.0142961
696.474	0.0144014
696.552	0.0145789
696.630	0.0145772
696.708	0.0145894
696.787	0.0147791
696.865	0.0147719
696.943	0.0147858
697.021	0.0145953
697.099	0.0146362
697.177	0.0146469
697.255	0.0145450
697.333	0.0145493
697.412	0.0143784
697.490	0.0144741
697.568	0.0144473
697.646	0.0143758
697.724	0.0145217
697.802	0.0146205
697.880	0.0147545
697.958	0.0146757
698.037	0.0149103
698.115	0.0148061
698.193	0.0149290
698.271	0.0149809
698.349	0.0150484
698.427	0.0148936
698.505	0.0147894
698.583	0.0144969
698.662	0.0143036
698.740	0.0140682
698.818	0.0136450
698.896	0.0132061
698.974	0.0127649
699.052	0.0123441
699.130	0.0120483
699.208	0.0116441
699.287	0.0112707
699.365	0.0110667
699.443	0.0107098
699.521	0.0106961
699.599	0.0107172
699.677	0.0109314
699.755	0.0110167
699.833	0.0113371
699.912	0.0116079
699.990	0.0121011
700.068	0.0125813
700.146	0.0128907
700.224	0.0132728
700.302	0.0135160
700.380	0.0141751
700.458	0.0145287
700.537	0.0149447
700.615	0.0151343
700.693	0.0153435
700.771	0.0152959
700.849	0.0154272
700.927	0.0153880
701.005	0.0153059
701.083	0.0152016
701.162	0.0151888
701.240	0.0149501
701.318	0.0146399
701.396	0.0145533
701.474	0.0143652
701.552	0.0143028
701.630	0.0143871
701.708	0.0143122
701.787	0.0144035
701.865	0.0143723
701.943	0.0145429
702.021	0.0146468
702.099	0.0147291
702.177	0.0149973
702.255	0.0149961
702.333	0.0151134
702.412	0.0151975
702.490	0.0150174
702.568	0.0149651
702.646	0.0148466
702.724	0.0147099
702.802	0.0144357
702.880	0.0142898
702.958	0.0140615
703.037	0.0137611
703.115	0.0133578
703.193	0.0130527
703.271	0.0128773
703.349	0.0125542
703.427	0.0120551
703.505	0.0116376
703.583	0.0114876
703.662	0.0112406
703.740	0.0109654
703.818	0.0107911
703.896	0.0106461
703.974	0.0104755
704.052	0.0104861
704.130	0.0106350
704.208	0.0109212
704.287	0.0108677
704.365	0.0114054
704.443	0.0117004
704.521	0.0122100
704.599	0.0127568
704.677	0.0132458
704.755	0.0139848
704.833	0.0143802
704.912	0.0146506
704.990	0.0151762
705.068	0.0154819
705.146	0.0159058
705.224	0.0162244
705.302	0.0165420
705.380	0.0165487
705.458	0.0165002
705.537	0.0165479
705.615	0.0163529
705.693	0.0161582
705.771	0.0161369
705.849	0.0158253
705.927	0.0155205
706.005	0.0150901
706.083	0.0148298
706.162	0.0145793
706.240	0.0143015
706.318	0.0141460
706.396	0.0139520
706.474	0.0136819
706.552	0.0135497
706.630	0.0135241
706.708	0.0133807
706.787	0.0134093
706.865	0.0132903
706.943	0.0133851
707.021	0.0135346
707.099	0.0135879
707.177	0.0138670
707.255	0.0139607
707.333	0.0138892
707.412	0.0138068
707.490	0.0137168
707.568	0.0137414
707.646	0.0135291
707.724	0.0133304
707.802	0.0130308
707.880	0.0129021
707.958	0.0125828
708.037	0.0124181
708.115	0.0121194
708.193	0.0119247
708.271	0.0118115
708.349	0.0118831
708.427	0.0116997
708.505	0.0116754
708.583	0.0117264
708.662	0.0118144
708.740	0.0118951
708.818	0.0121123
708.896	0.0122571
708.974	0.0124743
709.052	0.0126257
709.130	0.0130913
709.208	0.0133523
709.287	0.0136112
709.365	0.0140267
709.443	0.0146658
709.521	0.0147737
709.599	0.0151567
709.677	0.0152522
709.755	0.0154122
709.833	0.0157707
709.912	0.0158903
709.990	0.0159624
710.068	0.0156721
710.146	0.0154868
710.224	0.0155433
710.302	0.0154140
710.380	0.0149187
710.458	0.0147305
710.537	0.0144023
710.615	0.0142577
710.693	0.0140778
710.771	0.0138081
710.849	0.0135664
710.927	0.0135744
711.005	0.0136229
711.083	0.0134882
711.162	0.0134979
711.240	0.0135489
711.318	0.0134076
711.396	0.0135097
711.474	0.0135266
711.552	0.0134243
711.630	0.0134529
711.708	0.0134834
711.787	0.0134959
711.865	0.0134156
711.943	0.0136688
712.021	0.0134906
712.099	0.0133579
712.177	0.0135064
712.255	0.0133846
712.333	0.0134932
712.412	0.0132694
712.490	0.0133062
712.568	0.0133887
712.646	0.0134166
712.724	0.0133408
712.802	0.0134543
712.880	0.0133945
712.958	0.0134399
713.037	0.0134422
713.115	0.0133398
713.193	0.0133984
713.271	0.0133738
713.349	0.0134605
713.427	0.0135090
713.505	0.0133412
713.583	0.0133198
713.662	0.0134359
713.740	0.0132712
713.818	0.0133614
713.896	0.0132915
713.974	0.0133159
714.052	0.0132448
714.130	0.0133025
714.208	0.0134148
714.287	0.0135231
714.365	0.0135626
714.443	0.0135469
714.521	0.0137781
714.599	0.0138498
714.677	0.0139317
714.755	0.0142031
714.833	0.0140193
714.912	0.0141301
714.990	0.0142868
715.068	0.0141162
715.146	0.0141421
715.224	0.0141317
715.302	0.0141000
715.380	0.0140295
715.458	0.0139352
715.537	0.0138909
715.615	0.0137323
715.693	0.0138820
715.771	0.0137537
715.849	0.0137318
715.927	0.0137874
716.005	0.0137337
716.083	0.0139183
716.162	0.0140811
716.240	0.0140618
716.318	0.0140837
716.396	0.0141060
716.474	0.0139808
716.552	0.0140442
716.630	0.0140546
716.708	0.0138602
716.787	0.0138963
716.865	0.0139338
716.943	0.0137294
717.021	0.0137972
717.099	0.0136375
717.177	0.0135992
717.255	0.0137987
717.333	0.0137104
717.412	0.0137258
717.490	0.0137659
717.568	0.0137653
717.646	0.0136285
717.724	0.0136324
717.802	0.0135635
717.880	0.0136825
717.958	0.0137256
718.037	0.0137396
718.115	0.0137032
718.193	0.0137310
718.271	0.0136381
718.349	0.0135580
718.427	0.0136489
718.505	0.0135609
718.583	0.0135906
718.662	0.0136962
718.740	0.0134181
718.818	0.0133819
718.896	0.0132430
718.974	0.0133450
719.052	0.0131882
719.130	0.0131294
719.208	0.0131172
719.287	0.0131833
719.365	0.0131992
719.443	0.0132132
719.521	0.0131284
719.599	0.0131135
719.677	0.0133181
719.755	0.0133556
719.833	0.0134689
719.912	0.0134957
719.990	0.0135269
720.068	0.0136781
720.146	0.0137153
720.224	0.0137745
720.302	0.0137920
720.380	0.0137459
720.458	0.0138934
720.537	0.0138544
720.615	0.0138792
720.693	0.0140257
720.771	0.0141283
720.849	0.0140870
720.927	0.0143680
721.005	0.0142454
721.083	0.0142101
721.162	0.0143501
721.240	0.0143952
721.318	0.0144316
721.396	0.0142306
721.474	0.0142628
721.552	0.0142387
721.630	0.0140336
721.708	0.0140295
721.787	0.0140234
721.865	0.0138271
721.943	0.0137946
722.021	0.0136999
722.099	0.0135954
722.177	0.0136421
722.255	0.0134872
722.333	0.0133867
722.412	0.0134829
722.490	0.0133040
722.568	0.0134333
722.646	0.0133386
722.724	0.0133282
722.802	0.0136052
722.880	0.0133919
722.958	0.0134166
723.037	0.0134255
723.115	0.0136640
723.193	0.0136850
723.271	0.0135960
723.349	0.0137547
723.427	0.0138493
723.505	0.0139618
723.583	0.0139238
723.662	0.0140936
723.740	0.0139562
723.818	0.0138551
723.896	0.0139499
723.974	0.0138789
724.052	0.0136528
724.130	0.0135829
724.208	0.0136873
724.287	0.0137308
724.365	0.0134991
724.443	0.0135387
724.521	0.0134471
724.599	0.0132456
724.677	0.0133977
724.755	0.0136404
724.833	0.0135780
724.912	0.0136559
724.990	0.0135513
725.068	0.0135353
725.146	0.0136227
725.224	0.0137083
725.302	0.0137610
725.380	0.0136899
725.458	0.0137937
725.537	0.0137321
725.615	0.0135516
725.693	0.0135398
725.771	0.0134133
725.849	0.0134091
725.927	0.0133576
726.005	0.0134026
726.083	0.0133379
726.162	0.0133790
726.240	0.0132913
726.318	0.0132552
726.396	0.0134373
726.474	0.0133871
726.552	0.0137202
726.630	0.0136965
726.708	0.0135944
726.787	0.0137489
726.865	0.0138004
726.943	0.0140714
727.021	0.0140922
727.099	0.0141532
727.177	0.0141587
727.255	0.0141790
727.333	0.0141147
727.412	0.0141190
727.490	0.0141672
727.568	0.0139806
727.646	0.0139106
727.724	0.0139183
727.802	0.0140679
727.880	0.0137822
727.958	0.0137277
728.037	0.0136642
728.115	0.0137300
728.193	0.0137260
728.271	0.0135502
728.349	0.0137302
728.427	0.0137103
728.505	0.0137400
728.583	0.0136087
728.662	0.0136728
728.740	0.0136002
728.818	0.0137017
728.896	0.0135210
728.974	0.0135029
729.052	0.0135374
729.130	0.0136256
729.208	0.0136613
729.287	0.0136264
729.365	0.0136726
729.443	0.0138474
729.521	0.0139586
729.599	0.0138795
729.677	0.0139946
729.755	0.0141589
729.833	0.0141893
729.912	0.0141272
729.990	0.0140414
730.068	0.0140054
730.146	0.0142284
730.224	0.0140550
730.302	0.0139307
730.380	0.0137502
730.458	0.0139396
730.537	0.0138312
730.615	0.0137260
730.693	0.0137526
730.771	0.0134366
730.849	0.0134770
730.927	0.0136082
731.005	0.0135069
731.083	0.0134051
731.162	0.0135258
731.240	0.0133750
731.318	0.0132847
731.396	0.0131338
731.474	0.0131506
731.552	0.0131654
731.630	0.0129897
731.708	0.0130739
731.787	0.0131577
731.865	0.0130772
731.943	0.0132330
732.021	0.0131581
732.099	0.0133063
732.177	0.0133964
732.255	0.0135879
732.333	0.0135573
732.412	0.0136809
732.490	0.0138503
732.568	0.0137624
732.646	0.0138852
732.724	0.0140556
732.802	0.0140842
732.880	0.0140435
732.958	0.0141084
733.037	0.0140208
733.115	0.0142533
733.193	0.0141935
733.271	0.0140346
733.349	0.0140289
733.427	0.0138985
733.505	0.0140384
733.583	0.0139872
733.662	0.0139055
733.740	0.0138167
733.818	0.0137916
733.896	0.0136938
733.974	0.0137061
734.052	0.0137737
734.130	0.0139028
734.208	0.0137842
734.287	0.0138844
734.365	0.0140351
734.443	0.0139954
734.521	0.0140994
734.599	0.0141502
734.677	0.0141715
734.755	0.0140444
734.833	0.0141286
734.912	0.0139883
734.990	0.0139832
735.068	0.0139137
735.146	0.0139594
735.224	0.0137245
735.302	0.0136553
735.380	0.0138720
735.458	0.0137693
735.537	0.0136793
735.615	0.0136397
735.693	0.0136164
735.771	0.0135951
735.849	0.0135965
735.927	0.0134539
736.005	0.0135957
736.083	0.0133744
736.162	0.0134898
736.240	0.0134330
736.318	0.0134284
736.396	0.0134537
736.474	0.0133948
736.552	0.0132492
736.630	0.0133975
736.708	0.0133626
736.787	0.0135885
736.865	0.0134885
736.943	0.0134683
737.021	0.0136353
737.099	0.0136269
737.177	0.0136801
737.255	0.0137061
737.333	0.0136276
737.412	0.0137438
737.490	0.0136401
737.568	0.0137424
737.646	0.0136113
737.724	0.0136061
737.802	0.0136310
737.880	0.0135312
737.958	0.0134799
738.037	0.0134298
738.115	0.0134855
738.193	0.0135971
738.271	0.0137159
738.349	0.0136649
738.427	0.0136411
738.505	0.0137760
738.583	0.0137405
738.662	0.0139118
738.740	0.0137543
738.818	0.0138540
738.896	0.0138061
738.974	0.0138177
739.052	0.0139120
739.130	0.0138208
739.208	0.0138333
739.287	0.0136963
739.365	0.0136858
739.443	0.0137684
739.521	0.0136891
739.599	0.0137862
739.677	0.0137727
739.755	0.0136945
739.833	0.0137273
739.912	0.0138431
739.990	0.0137973
740.068	0.0138838
740.146	0.0139196
740.224	0.0138427
740.302	0.0139528
740.380	0.0138931
740.458	0.0140420
740.537	0.0140542
740.615	0.0140723
740.693	0.0139391
740.771	0.0139149
740.849	0.0138762
740.927	0.0138822
741.005	0.0136764
741.083	0.0136149
741.162	0.0136076
741.240	0.0136324
741.318	0.0136996
741.396	0.0135790
741.474	0.0135249
741.552	0.0135403
741.630	0.0134975
741.708	0.0134268
741.787	0.0134412
741.865	0.0134759
741.943	0.0134641
742.021	0.0135513
742.099	0.0135328
742.177	0.0136497
742.255	0.0137643
742.333	0.0137455
742.412	0.0137566
742.490	0.0137351
742.568	0.0139362
742.646	0.0137951
742.724	0.0138632
742.802	0.0137296
742.880	0.0138618
742.958	0.0138568
743.037	0.0138301
743.115	0.0137587
743.193	0.0136531
743.271	0.0137447
743.349	0.0136878
743.427	0.0135937
743.505	0.0134783
743.583	0.0133497
743.662	0.0133982
743.740	0.0133154
743.818	0.0133355
743.896	0.0131369
743.974	0.0132080
744.052	0.0131458
744.130	0.0130847
744.208	0.0131213
744.287	0.0131439
744.365	0.0131834
744.443	0.0133248
744.521	0.0132706
744.599	0.0133882
744.677	0.0134561
744.755	0.0135461
744.833	0.0135875
744.912	0.0138615
744.990	0.0138470
745.068	0.0139341
745.146	0.0141479
745.224	0.0142148
745.302	0.0142128
745.380	0.0142582
745.458	0.0142558
745.537	0.0144656
745.615	0.0144704
745.693	0.0143915
745.771	0.0142813
745.849	0.0144977
745.927	0.0143507
746.005	0.0143712
746.083	0.0144341
746.162	0.0141507
746.240	0.0141425
746.318	0.0139864
746.396	0.0139428
746.474	0.0139944
746.552	0.0140231
746.630	0.0138210
746.708	0.0137841
746.787	0.0136852
746.865	0.0137408
746.943	0.0136287
747.021	0.0135869
747.099	0.0137237
747.177	0.0136903
747.255	0.0136794
747.333	0.0136076
747.412	0.0135755
747.490	0.0136375
747.568	0.0136593
747.646	0.0135033
747.724	0.0134834
747.802	0.0133705
747.880	0.0134638
747.958	0.0134332
748.037	0.0134170
748.115	0.0133353
748.193	0.0133430
748.271	0.0132798
748.349	0.0132352
748.427	0.0132320
748.505	0.0132343
748.583	0.0132871
748.662	0.0133105
748.740	0.0132973
748.818	0.0133639
748.896	0.0131725
748.974	0.0132368
749.052	0.0132932
749.130	0.0133488
749.208	0.0133939
749.287	0.0134025
749.365	0.0136306
749.443	0.0134088
749.521	0.0136366
749.599	0.0137701
749.677	0.0137254
749.755	0.0138046
749.833	0.0139577
749.912	0.0138779
749.990	0.0139799
750.068	0.0140199
750.146	0.0141374
750.224	0.0141870
750.302	0.0139333
750.380	0.0139896
750.458	0.0140621
750.537	0.0139857
750.615	0.0138857
750.693	0.0139747
750.771	0.0139931
750.849	0.0138966
750.927	0.0139466
751.005	0.0139565
751.083	0.0137202
751.162	0.0135818
751.240	0.0136274
751.318	0.0137260
751.396	0.0136674
751.474	0.0136812
751.552	0.0136137
751.630	0.0137198
751.708	0.0134470
751.787	0.0134691
751.865	0.0133195
751.943	0.0135396
752.021	0.0134496
752.099	0.0134011
752.177	0.0134898
752.255	0.0135806
752.333	0.0135948
752.412	0.0136008
752.490	0.0137319
752.568	0.0138248
752.646	0.0138802
752.724	0.0139579
752.802	0.0138953
752.880	0.0138746
752.958	0.0141731
753.037	0.0141927
753.115	0.0141903
753.193	0.0141849
753.271	0.0140858
753.349	0.0141792
753.427	0.0140697
753.505	0.0142715
753.583	0.0142764
753.662	0.0141776
753.740	0.0141353
753.818	0.0140747
753.896	0.0139913
753.974	0.0139703
754.052	0.0139611
754.130	0.0139787
754.208	0.0137433
754.287	0.0136588
754.365	0.0136044
754.443	0.0135942
754.521	0.0134381
754.599	0.0133980
754.677	0.0133994
754.755	0.0134992
754.833	0.0134389
754.912	0.0133627
754.990	0.0133295
755.068	0.0134008
755.146	0.0134388
755.224	0.0134873
755.302	0.0134998
755.380	0.0134902
755.458	0.0135238
755.537	0.0135806
755.615	0.0137309
755.693	0.0136467
755.771	0.0138233
755.849	0.0137837
755.927	0.0137933
756.005	0.0139925
756.083	0.0139243
756.162	0.0140101
756.240	0.0140209
756.318	0.0138428
756.396	0.0137398
756.474	0.0138165
756.552	0.0138480
756.630	0.0136864
756.708	0.0136310
756.787	0.0134771
756.865	0.0134203
756.943	0.0133582
757.021	0.0133135
757.099	0.0132809
757.177	0.0133229
757.255	0.0132978
757.333	0.0133266
757.412	0.0133453
757.490	0.0134455
757.568	0.0134409
757.646	0.0134332
757.724	0.0136339
757.802	0.0135218
757.880	0.0136268
757.958	0.0137385
758.037	0.0138419
758.115	0.0136621
758.193	0.0139143
758.271	0.0140791
758.349	0.0138943
758.427	0.0139894
758.505	0.0139956
758.583	0.0140412
758.662	0.0140923
758.740	0.0142333
758.818	0.0141425
758.896	0.0140724
758.974	0.0141121
759.052	0.0142044
759.130	0.0141095
759.208	0.0140524
759.287	0.0139826
759.365	0.0138755
759.443	0.0139932
759.521	0.0139787
759.599	0.0137698
759.677	0.0138123
759.755	0.0137509
759.833	0.0136340
759.912	0.0137508
759.990	0.0136629
760.068	0.0138501
760.146	0.0137984
760.224	0.0136195
760.302	0.0135615
760.380	0.0137339
760.458	0.0137617
760.537	0.0137585
760.615	0.0137756
760.693	0.0136232
760.771	0.0136570
760.849	0.0136012
760.927	0.0134035
761.005	0.0135291
761.083	0.0133942
761.162	0.0134088
761.240	0.0133008
761.318	0.0132001
761.396	0.0132783
761.474	0.0131674
761.552	0.0130936
761.630	0.0129913
761.708	0.0132080
761.787	0.0130853
761.865	0.0130933
761.943	0.0131523
762.021	0.0133199
762.099	0.0133334
762.177	0.0132706
762.255	0.0135087
762.333	0.0134602
762.412	0.0136441
762.490	0.0137236
762.568	0.0138178
762.646	0.0140192
762.724	0.0140656
762.802	0.0141076
762.880	0.0140939
762.958	0.0142735
763.037	0.0142047
763.115	0.0142805
763.193	0.0142824
763.271	0.0141808
763.349	0.0141917
763.427	0.0142681
763.505	0.0140628
763.583	0.0139028
763.662	0.0141270
763.740	0.0140431
763.818	0.0138522
763.896	0.0138139
763.974	0.0138790
764.052	0.0139087
764.130	0.0138555
764.208	0.0137783
764.287	0.0138037
764.365	0.0137537
764.443	0.0137721
764.521	0.0136727
764.599	0.0137760
764.677	0.0138614
764.755	0.0137967
764.833	0.0137640
764.912	0.0138172
764.990	0.0137556
765.068	0.0137571
765.146	0.0138063
765.224	0.0137295
765.302	0.0138697
765.380	0.0137595
765.458	0.0137159
765.537	0.0137629
765.615	0.0137422
765.693	0.0138156
765.771	0.0137998
765.849	0.0135935
765.927	0.0135345
766.005	0.0135780
766.083	0.0134689
766.162	0.0135804
766.240	0.0135888
766.318	0.0135832
766.396	0.0135979
766.474	0.0136858
766.552	0.0134772
766.630	0.0136488
766.708	0.0137228
766.787	0.0137578
766.865	0.0137186
766.943	0.0137981
767.021	0.0138566
767.099	0.0138425
767.177	0.0139202
767.255	0.0139045
767.333	0.0139141
767.412	0.0140125
767.490	0.0139329
767.568	0.0138973
767.646	0.0139007
767.724	0.0138569
767.802	0.0138528
767.880	0.0138372
767.958	0.0137936
768.037	0.0138688
768.115	0.0138052
768.193	0.0137230
768.271	0.0138461
768.349	0.0137484
768.427	0.0137483
768.505	0.0138475
768.583	0.0138617
768.662	0.0138481
768.740	0.0137640
768.818	0.0136952
768.896	0.0137003
768.974	0.0136966
769.052	0.0136652
769.130	0.0136297
769.208	0.0135605
769.287	0.0137514
769.365	0.0137337
769.443	0.0135448
769.521	0.0135603
769.599	0.0136288
769.677	0.0135593
769.755	0.0136347
769.833	0.0135274
769.912	0.0136575
769.990	0.0137056
770.068	0.0135493
770.146	0.0136672
770.224	0.0136175
770.302	0.0136279
770.380	0.0136749
770.458	0.0136128
770.537	0.0137778
770.615	0.0137485
770.693	0.0137682
770.771	0.0137709
770.849	0.0137163
770.927	0.0137454
771.005	0.0138051
771.083	0.0136752
771.162	0.0137521
771.240	0.0137888
771.318	0.0137052
771.396	0.0135069
771.474	0.0137041
771.552	0.0136541
771.630	0.0136320
771.708	0.0136755
771.787	0.0137611
771.865	0.0136317
771.943	0.0135209
772.021	0.0135542
772.099	0.0136059
772.177	0.0135182
772.255	0.0135207
772.333	0.0134690
772.412	0.0136156
772.490	0.0135467
772.568	0.0135008
772.646	0.0134888
772.724	0.0136083
772.802	0.0136396
772.880	0.0135712
772.958	0.0137611
773.037	0.0137453
773.115	0.0136718
773.193	0.0139193
773.271	0.0138961
773.349	0.0139723
773.427	0.0138615
773.505	0.0138261
773.583	0.0139040
773.662	0.0138979
773.740	0.0138725
773.818	0.0140149
773.896	0.0139046
773.974	0.0137832
774.052	0.0138260
774.130	0.0136955
774.208	0.0138651
774.287	0.0136953
774.365	0.0137598
774.443	0.0136159
774.521	0.0137226
774.599	0.0135841
774.677	0.0135576
774.755	0.0136465
774.833	0.0134933
774.912	0.0134987
774.990	0.0135689
775.068	0.0134998
775.146	0.0134289
775.224	0.0135413
775.302	0.0136102
775.380	0.0136085
775.458	0.0134928
775.537	0.0136627
775.615	0.0137457
775.693	0.0138105
775.771	0.0136280
775.849	0.0137778
775.927	0.0137708
776.005	0.0138238
776.083	0.0137420
776.162	0.0139214
776.240	0.0137537
776.318	0.0138869
776.396	0.0137517
776.474	0.0136935
776.552	0.0138763
776.630	0.0138464
776.708	0.0137436
776.787	0.0137856
776.865	0.0138293
776.943	0.0138960
777.021	0.0137190
777.099	0.0137421
777.177	0.0137746
777.255	0.0136820
777.333	0.0138153
777.412	0.0137450
777.490	0.0136012
777.568	0.0134981
777.646	0.0137818
777.724	0.0136374
777.802	0.0136598
777.880	0.0138289
777.958	0.0137225
778.037	0.0137164
778.115	0.0138720
778.193	0.0137717
778.271	0.0137257
778.349	0.0138319
778.427	0.0138259
778.505	0.0138079
778.583	0.0137994
778.662	0.0138338
778.740	0.0138148
778.818	0.0137145
778.896	0.0137711
778.974	0.0137939
779.052	0.0137035
779.130	0.0138683
779.208	0.0139363
779.287	0.0139301
779.365	0.0138864
779.443	0.0137756
779.521	0.0137994
779.599	0.0138441
779.677	0.0138788
779.755	0.0138838
779.833	0.0137254
779.912	0.0136614
779.990	0.0138872
780.068	0.0137459
780.146	0.0137008
780.224	0.0136741
780.302	0.0137234
780.380	0.0137215
780.458	0.0135181
780.537	0.0136723
780.615	0.0137312
780.693	0.0135678
780.771	0.0135628
780.849	0.0135982
780.927	0.0136007
781.005	0.0136587
781.083	0.0136283
781.162	0.0135487
781.240	0.0136803
781.318	0.0137131
781.396	0.0135534
781.474	0.0136531
781.552	0.0135778
781.630	0.0133981
781.708	0.0135152
781.787	0.0136147
781.865	0.0135320
781.943	0.0136653
782.021	0.0136137
782.099	0.0136765
782.177	0.0136065
782.255	0.0136548
782.333	0.0137343
782.412	0.0136533
782.490	0.0136004
782.568	0.0136555
782.646	0.0137312
782.724	0.0137890
782.802	0.0137428
782.880	0.0138747
782.958	0.0138715
783.037	0.0138410
783.115	0.0137174
783.193	0.0138569
783.271	0.0138076
783.349	0.0138956
783.427	0.0138619
783.505	0.0138750
783.583	0.0138554
783.662	0.0136317
783.740	0.0137621
783.818	0.0137559
783.896	0.0136791
783.974	0.0135088
784.052	0.0136721
784.130	0.0136553
784.208	0.0135219
784.287	0.0135757
784.365	0.0134249
784.443	0.0135455
784.521	0.0135172
784.599	0.0135831
784.677	0.0134624
784.755	0.0135903
784.833	0.0136067
784.912	0.0136163
784.990	0.0137028
785.068	0.0136500
785.146	0.0136749
785.224	0.0138328
785.302	0.0138648
785.380	0.0137833
785.458	0.0138764
785.537	0.0139057
785.615	0.0139552
785.693	0.0140012
785.771	0.0139194
785.849	0.0139916
785.927	0.0140717
786.005	0.0138558
786.083	0.0138309
786.162	0.0139178
786.240	0.0137105
786.318	0.0137373
786.396	0.0137440
786.474	0.0137272
786.552	0.0136623
786.630	0.0136330
786.708	0.0136631
786.787	0.0136573
786.865	0.0135214
786.943	0.0135657
787.021	0.0136546
787.099	0.0137872
787.177	0.0135251
787.255	0.0134721
787.333	0.0136795
787.412	0.0137103
787.490	0.0137636
787.568	0.0136569
787.646	0.0137894
787.724	0.0139624
787.802	0.0138397
787.880	0.0137088
787.958	0.0138775
788.037	0.0139494
788.115	0.0137372
788.193	0.0138081
788.271	0.0139478
788.349	0.0137270
788.427	0.0138183
788.505	0.0138294
788.583	0.0138936
788.662	0.0138243
788.740	0.0139032
788.818	0.0135992
788.896	0.0138190
788.974	0.0137115
789.052	0.0137073
789.130	0.0136876
789.208	0.0136065
789.287	0.0135945
789.365	0.0135981
789.443	0.0135265
789.521	0.0137117
789.599	0.0137679
789.677	0.0135666
789.755	0.0135583
789.833	0.0135992
789.912	0.0136322
789.990	0.0136308
790.068	0.0134571
790.146	0.0136338
790.224	0.0136849
790.302	0.0135840
790.380	0.0136521
790.458	0.0137090
790.537	0.0137955
790.615	0.0136594
790.693	0.0137395
790.771	0.0136923
790.849	0.0136262
790.927	0.0138020
791.005	0.0138261
791.083	0.0136374
791.162	0.0136245
791.240	0.0137138
791.318	0.0136733
791.396	0.0137601
791.474	0.0136108
791.552	0.0136704
791.630	0.0136638
791.708	0.0136607
791.787	0.0136259
791.865	0.0135905
791.943	0.0135545
792.021	0.0135371
792.099	0.0135906
792.177	0.0135349
792.255	0.0135107
792.333	0.0133740
792.412	0.0136088
792.490	0.0135009
792.568	0.0133949
792.646	0.0133994
792.724	0.0135014
792.802	0.0133926
792.880	0.0135026
792.958	0.0135394
793.037	0.0135503
793.115	0.0135470
793.193	0.0137701
793.271	0.0137366
793.349	0.0137914
793.427	0.0139090
793.505	0.0139246
793.583	0.0138657
793.662	0.0140674
793.740	0.0140721
793.818	0.0140003
793.896	0.0141930
793.974	0.0141163
794.052	0.0142261
794.130	0.0143520
794.208	0.0142206
794.287	0.0142474
794.365	0.0142590
794.443	0.0143810
794.521	0.0141744
794.599	0.0141534
794.677	0.0142001
794.755	0.0141027
794.833	0.0139790
794.912	0.0139398
794.990	0.0139115
795.068	0.0137623
795.146	0.0136162
795.224	0.0136125
795.302	0.0136121
795.380	0.0134559
795.458	0.0133912
795.537	0.0132140
795.615	0.0134070
795.693	0.0133705
795.771	0.0132351
795.849	0.0132443
795.927	0.0131696
796.005	0.0132732
796.083	0.0132805
796.162	0.0132689
796.240	0.0132365
796.318	0.0132410
796.396	0.0133389
796.474	0.0132312
796.552	0.0133469
796.630	0.0133364
796.708	0.0134261
796.787	0.0135478
796.865	0.0134337
796.943	0.0135017
797.021	0.0135458
797.099	0.0134265
797.177	0.0134966
797.255	0.0134928
797.333	0.0135189
797.412	0.0135984
797.490	0.0135972
797.568	0.0136458
797.646	0.0134894
797.724	0.0135059
797.802	0.0136716
797.880	0.0137215
797.958	0.0138719
798.037	0.0137373
798.115	0.0137589
798.193	0.0138338
798.271	0.0138940
798.349	0.0138947
798.427	0.0138948
798.505	0.0138636
798.583	0.0138277
798.662	0.0139494
798.740	0.0139700
798.818	0.0141765
798.896	0.0139654
798.974	0.0140476
799.052	0.0140650
799.130	0.0139354
799.208	0.0141185
799.287	0.0140011
799.365	0.0139714
799.443	0.0139301
799.521	0.0140298
799.599	0.0139288
799.677	0.0138639
799.755	0.0136983
799.833	0.0135654
799.912	0.0135995
799.990	0.0136221
800.068	0.0136555
800.146	0.0134428
800.224	0.0134335
800.302	0.0133360
800.380	0.0133530
800.458	0.0134142
800.537	0.0134003
800.615	0.0133714
800.693	0.0135549
800.771	0.0135210
800.849	0.0134757
800.927	0.0135606
801.005	0.0135951
801.083	0.0136929
801.162	0.0135899
801.240	0.0137126
801.318	0.0137050
801.396	0.0137252
801.474	0.0136986
801.552	0.0137335
801.630	0.0139274
801.708	0.0138528
801.787	0.0138727
801.865	0.0138528
801.943	0.0138863
802.021	0.0139418
802.099	0.0138435
802.177	0.0138050
802.255	0.0139816
802.333	0.0137030
802.412	0.0137391
802.490	0.0138844
802.568	0.0137814
802.646	0.0137241
802.724	0.0136211
802.802	0.0137870
802.880	0.0137669
802.958	0.0138516
803.037	0.0136708
803.115	0.0136904
803.193	0.0136676
803.271	0.0135155
803.349	0.0137238
803.427	0.0136541
803.505	0.0137022
803.583	0.0135818
803.662	0.0137029
803.740	0.0137426
803.818	0.0135880
803.896	0.0137433
803.974	0.0138066
804.052	0.0137984
804.130	0.0137722
804.208	0.0137789
804.287	0.0137444
804.365	0.0138035
804.443	0.0137582
804.521	0.0137025
804.599	0.0138220
804.677	0.0136722
804.755	0.0138148
804.833	0.0138374
804.912	0.0135802
804.990	0.0136298
805.068	0.0136741
805.146	0.0136250
805.224	0.0136179
805.302	0.0136155
805.380	0.0137019
805.458	0.0136451
805.537	0.0134909
805.615	0.0132806
805.693	0.0135823
805.771	0.0135315
805.849	0.0134618
805.927	0.0134893
806.005	0.0135078
806.083	0.0135697
806.162	0.0135362
806.240	0.0135546
806.318	0.0134901
806.396	0.0136600
806.474	0.0135586
806.552	0.0136102
806.630	0.0136220
806.708	0.0136882
806.787	0.0136735
806.865	0.0135720
806.943	0.0136998
807.021	0.0137778
807.099	0.0137608
807.177	0.0137574
807.255	0.0137691
807.333	0.0136063
807.412	0.0136709
807.490	0.0135788
807.568	0.0137223
807.646	0.0135992
807.724	0.0136629
807.802	0.0136581
807.880	0.0135538
807.958	0.0136245
808.037	0.0136101
808.115	0.0137826
808.193	0.0137476
808.271	0.0136461
808.349	0.0137093
808.427	0.0136031
808.505	0.0136683
808.583	0.0137234
808.662	0.0136822
808.740	0.0137839
808.818	0.0136919
808.896	0.0138179
808.974	0.0137970
809.052	0.0137064
809.130	0.0136645
809.208	0.0136308
809.287	0.0137692
809.365	0.0137138
809.443	0.0135312
809.521	0.0135923
809.599	0.0136711
809.677	0.0135378
809.755	0.0135281
809.833	0.0135684
809.912	0.0134995
809.990	0.0134515
810.068	0.0136056
810.146	0.0135726
810.224	0.0134857
810.302	0.0134718
810.380	0.0136629
810.458	0.0135484
810.537	0.0135670
810.615	0.0137131
810.693	0.0137381
810.771	0.0137561
810.849	0.0137299
810.927	0.0137023
811.005	0.0137698
811.083	0.0137196
811.162	0.0137971
811.240	0.0137654
811.318	0.0139163
811.396	0.0138367
811.474	0.0138454
811.552	0.0138200
811.630	0.0139138
811.708	0.0138245
811.787	0.0136862
811.865	0.0137296
811.943	0.0137058
812.021	0.0136554
812.099	0.0136668
812.177	0.0137955
812.255	0.0138148
812.333	0.0137431
812.412	0.0137834
812.490	0.0136774
812.568	0.0136678
812.646	0.0137254
812.724	0.0137742
812.802	0.0137590
812.880	0.0137726
812.958	0.0138258
813.037	0.0139175
813.115	0.0138738
813.193	0.0137771
813.271	0.0137765
813.349	0.0138194
813.427	0.0137587
813.505	0.0138213
813.583	0.0138604
813.662	0.0138074
813.740	0.0137822
813.818	0.0137880
813.896	0.0137349
813.974	0.0136861
814.052	0.0136455
814.130	0.0135999
814.208	0.0136525
814.287	0.0137303
814.365	0.0135520
814.443	0.0136037
814.521	0.0136967
814.599	0.0136273
814.677	0.0135889
814.755	0.0135823
814.833	0.0136127
814.912	0.0137708
814.990	0.0137314
815.068	0.0137737
815.146	0.0136407
815.224	0.0136816
815.302	0.0136873
815.380	0.0137740
815.458	0.0137915
815.537	0.0137270
815.615	0.0138339
815.693	0.0137826
815.771	0.0138132
815.849	0.0137485
815.927	0.0137524
816.005	0.0136956
816.083	0.0137814
816.162	0.0138597
816.240	0.0137798
816.318	0.0138165
816.396	0.0138601
816.474	0.0137952
816.552	0.0139458
816.630	0.0138409
816.708	0.0138335
816.787	0.0138905
816.865	0.0137944
816.943	0.0138994
817.021	0.0137544
817.099	0.0136411
817.177	0.0136379
817.255	0.0136432
817.333	0.0137222
817.412	0.0136109
817.490	0.0135928
817.568	0.0134403
817.646	0.0134888
817.724	0.0135381
817.802	0.0135954
817.880	0.0135070
817.958	0.0135566
818.037	0.0134896
818.115	0.0136061
818.193	0.0134963
818.271	0.0134798
818.349	0.0134580
818.427	0.0135364
818.505	0.0136775
818.583	0.0136372
818.662	0.0136341
818.740	0.0137373
818.818	0.0136452
818.896	0.0137151
818.974	0.0136687
819.052	0.0137480
819.130	0.0137411
819.208	0.0138164
819.287	0.0137366
819.365	0.0137637
819.443	0.0137823
819.521	0.0137551
819.599	0.0136371
819.677	0.0136190
819.755	0.0137685
819.833	0.0136680
819.912	0.0135245
819.990	0.0134492
820.068	0.0135003
820.146	0.0135111
820.224	0.0134791
820.302	0.0134575
820.380	0.0134985
820.458	0.0134496
820.537	0.0134808
820.615	0.0134823
820.693	0.0133370
820.771	0.0134698
820.849	0.0134220
820.927	0.0135282
821.005	0.0136263
821.083	0.0135094
821.162	0.0135647
821.240	0.0136213
821.318	0.0136604
821.396	0.0136373
821.474	0.0137384
821.552	0.0137827
821.630	0.0138520
821.708	0.0137485
821.787	0.0136821
821.865	0.0138129
821.943	0.0138482
822.021	0.0138840
822.099	0.0138331
822.177	0.0137821
822.255	0.0138148
822.333	0.0137189
822.412	0.0137576
822.490	0.0137694
822.568	0.0136716
822.646	0.0136308
822.724	0.0136153
822.802	0.0135639
822.880	0.0136092
822.958	0.0137029
823.037	0.0135794
823.115	0.0136419
823.193	0.0136936
823.271	0.0135948
823.349	0.0135443
823.427	0.0136295
823.505	0.0137904
823.583	0.0136647
823.662	0.0137494
823.740	0.0137644
823.818	0.0139301
823.896	0.0137421
823.974	0.0138748
824.052	0.0141451
824.130	0.0138586
824.208	0.0139780
824.287	0.0139002
824.365	0.0139474
824.443	0.0138799
824.521	0.0139630
824.599	0.0140619
824.677	0.0139936
824.755	0.0139935
824.833	0.0139237
824.912	0.0139739
824.990	0.0138635
825.068	0.0139084
825.146	0.0139286
825.224	0.0138483
825.302	0.0138399
825.380	0.0137228
825.458	0.0136977
825.537	0.0137010
825.615	0.0136743
825.693	0.0136368
825.771	0.0137745
825.849	0.0137382
825.927	0.0135352
826.005	0.0135333
826.083	0.0136674
826.162	0.0134624
826.240	0.0137134
826.318	0.0137844
826.396	0.0137660
826.474	0.0137286
826.552	0.0137572
826.630	0.0136729
826.708	0.0137757
826.787	0.0139225
826.865	0.0136627
826.943	0.0137867
827.021	0.0138720
827.099	0.0138261
827.177	0.0137771
827.255	0.0137642
827.333	0.0139065
827.412	0.0137466
827.490	0.0138321
827.568	0.0137525
827.646	0.0137478
827.724	0.0138203
827.802	0.0136211
827.880	0.0136590
827.958	0.0136333
828.037	0.0136614
828.115	0.0135109
828.193	0.0135693
828.271	0.0136916
828.349	0.0135802
828.427	0.0137083
828.505	0.0135508
828.583	0.0134444
828.662	0.0135381
828.740	0.0135349
828.818	0.0135551
828.896	0.0136387
828.974	0.0137037
829.052	0.0135437
829.130	0.0136814
829.208	0.0135709
829.287	0.0137266
829.365	0.0135929
829.443	0.0136863
829.521	0.0137005
829.599	0.0137140
829.677	0.0136992
829.755	0.0136920
829.833	0.0138651
829.912	0.0139232
829.990	0.0138148
830.068	0.0138093
830.146	0.0138375
830.224	0.0139376
830.302	0.0138637
830.380	0.0138329
830.458	0.0138046
830.537	0.0140035
830.615	0.0137558
830.693	0.0137473
830.771	0.0137706
830.849	0.0136921
830.927	0.0137772
831.005	0.0137376
831.083	0.0135993
831.162	0.0137669
831.240	0.0136977
831.318	0.0136414
831.396	0.0137843
831.474	0.0136911
831.552	0.0137653
831.630	0.0136996
831.708	0.0137326
831.787	0.0138243
831.865	0.0138163
831.943	0.0137753
832.021	0.0135964
832.099	0.0137740
832.177	0.0140400
832.255	0.0137494
832.333	0.0136913
832.412	0.0137713
832.490	0.0138006
832.568	0.0137591
832.646	0.0137156
832.724	0.0138117
832.802	0.0136454
832.880	0.0137396
832.958	0.0136601
833.037	0.0136615
833.115	0.0135780
833.193	0.0135527
833.271	0.0137440
833.349	0.0136057
833.427	0.0135436
833.505	0.0135365
833.583	0.0135894
833.662	0.0135052
833.740	0.0134736
833.818	0.0137101
833.896	0.0137225
833.974	0.0136398
834.052	0.0135430
834.130	0.0136643
834.208	0.0136208
834.287	0.0136227
834.365	0.0137036
834.443	0.0138009
834.521	0.0137231
834.599	0.0136563
834.677	0.0137653
834.755	0.0137255
834.833	0.0138412
834.912	0.0140474
834.990	0.0138898
835.068	0.0138362
835.146	0.0140065
835.224	0.0139148
835.302	0.0139926
835.380	0.0138459
835.458	0.0139957
835.537	0.0139553
835.615	0.0138438
835.693	0.0139285
835.771	0.0138916
835.849	0.0140198
835.927	0.0139643
836.005	0.0140021
836.083	0.0138037
836.162	0.0137076
836.240	0.0139059
836.318	0.0138748
836.396	0.0138285
836.474	0.0139186
836.552	0.0138970
836.630	0.0137190
836.708	0.0138882
836.787	0.0138567
836.865	0.0138628
836.943	0.0139375
837.021	0.0138754
837.099	0.0138689
837.177	0.0137923
837.255	0.0138422
837.333	0.0139906
837.412	0.0139465
837.490	0.0138398
837.568	0.0138988
837.646	0.0138878
837.724	0.0137237
837.802	0.0136376
837.880	0.0135567
837.958	0.0136929
838.037	0.0137737
838.115	0.0135629
838.193	0.0136006
838.271	0.0135905
838.349	0.0136081
838.427	0.0136694
838.505	0.0136345
838.583	0.0135812
838.662	0.0135072
838.740	0.0134210
838.818	0.0136639
838.896	0.0137250
838.974	0.0138079
839.052	0.0136731
839.130	0.0137709
839.208	0.0138455
839.287	0.0137357
839.365	0.0137493
839.443	0.0137955
839.521	0.0136700
839.599	0.0138046
839.677	0.0138020
839.755	0.0138937
839.833	0.0138190
839.912	0.0136814
839.990	0.0137181
840.068	0.0136333
840.146	0.0137637
840.224	0.0137280
840.302	0.0136182
840.380	0.0136479
840.458	0.0137393
840.537	0.0136871
840.615	0.0137449
840.693	0.0136336
840.771	0.0137186
840.849	0.0137463
840.927	0.0136301
841.005	0.0136401
841.083	0.0137888
841.162	0.0137232
841.240	0.0136369
841.318	0.0135026
841.396	0.0135531
841.474	0.0136519
841.552	0.0136182
841.630	0.0137383
841.708	0.0137978
841.787	0.0136015
841.865	0.0135819
841.943	0.0137738
842.021	0.0137142
842.099	0.0136745
842.177	0.0136167
842.255	0.0136120
842.333	0.0136410
842.412	0.0137563
842.490	0.0138663
842.568	0.0137006
842.646	0.0137621
842.724	0.0138207
842.802	0.0137685
842.880	0.0137195
842.958	0.0138612
843.037	0.0138097
843.115	0.0138126
843.193	0.0138470
843.271	0.0138395
843.349	0.0137226
843.427	0.0138029
843.505	0.0138128
843.583	0.0138871
843.662	0.0138838
843.740	0.0137794
843.818	0.0137198
843.896	0.0136518
843.974	0.0136650
844.052	0.0136352
844.130	0.0137203
844.208	0.0137375
844.287	0.0136658
844.365	0.0135979
844.443	0.0136021
844.521	0.0136764
844.599	0.0138886
844.677	0.0136096
844.755	0.0136393
844.833	0.0136936
844.912	0.0138934
844.990	0.0137332
845.068	0.0137070
845.146	0.0136784
845.224	0.0137831
845.302	0.0138013
845.380	0.0135843
845.458	0.0136697
845.537	0.0137594
845.615	0.0137570
845.693	0.0137031
845.771	0.0134824
845.849	0.0135862
845.927	0.0135936
846.005	0.0136488
846.083	0.0136261
846.162	0.0137673
846.240	0.0138270
846.318	0.0137717
846.396	0.0137801
846.474	0.0137398
846.552	0.0139692
846.630	0.0140153
846.708	0.0139882
846.787	0.0138921
846.865	0.0139138
846.943	0.0140031
847.021	0.0139862
847.099	0.0139134
847.177	0.0139153
847.255	0.0139056
847.333	0.0139865
847.412	0.0138911
847.490	0.0138487
847.568	0.0138527
847.646	0.0138395
847.724	0.0138760
847.802	0.0137479
847.880	0.0138519
847.958	0.0138054
848.037	0.0134810
848.115	0.0137100
848.193	0.0137805
848.271	0.0136790
848.349	0.0137345
848.427	0.0137275
848.505	0.0138803
848.583	0.0139225
848.662	0.0139036
848.740	0.0138005
848.818	0.0139408
848.896	0.0137389
848.974	0.0139120
849.052	0.0139796
849.130	0.0139242
849.208	0.0138679
849.287	0.0138966
849.365	0.0138695
849.443	0.0138394
849.521	0.0138582
849.599	0.0139806
849.677	0.0138787
849.755	0.0136663
849.833	0.0138136
849.912	0.0137298
849.990	0.0137244
850.068	0.0136723
850.146	0.0136823
850.224	0.0137404
850.302	0.0136520
850.380	0.0137029
850.458	0.0137095
850.537	0.0138141
850.615	0.0137446
850.693	0.0137429
850.771	0.0137666
850.849	0.0137502
850.927	0.0137703
851.005	0.0137142
851.083	0.0136816
851.162	0.0136528
851.240	0.0136787
851.318	0.0138410
851.396	0.0138212
851.474	0.0137830
851.552	0.0135210
851.630	0.0135869
851.708	0.0136263
851.787	0.0138046
851.865	0.0136781
851.943	0.0136629
852.021	0.0135281
852.099	0.0136539
852.177	0.0137222
852.255	0.0137370
852.333	0.0135443
852.412	0.0134986
852.490	0.0136167
852.568	0.0135594
852.646	0.0134603
852.724	0.0135683
852.802	0.0136783
852.880	0.0137719
852.958	0.0135195
853.037	0.0135602
853.115	0.0137566
853.193	0.0137379
853.271	0.0138023
853.349	0.0138223
853.427	0.0137218
853.505	0.0137379
853.583	0.0138088
853.662	0.0136866
853.740	0.0138540
853.818	0.0137868
853.896	0.0139247
853.974	0.0138697
854.052	0.0138546
854.130	0.0140005
854.208	0.0138841
854.287	0.0139024
854.365	0.0139593
854.443	0.0138766
854.521	0.0138986
854.599	0.0138631
854.677	0.0139217
854.755	0.0137186
854.833	0.0137592
854.912	0.0137451
854.990	0.0136833
855.068	0.0137321
855.146	0.0136356
855.224	0.0136827
855.302	0.0136954
855.380	0.0137191
855.458	0.0136556
855.537	0.0137537
855.615	0.0136943
855.693	0.0135699
855.771	0.0137589
855.849	0.0137187
855.927	0.0136967
856.005	0.0137939
856.083	0.0136185
856.162	0.0137022
856.240	0.0137901
856.318	0.0138271
856.396	0.0137383
856.474	0.0137118
856.552	0.0137757
856.630	0.0138181
856.708	0.0136878
856.787	0.0138109
856.865	0.0138270
856.943	0.0137895
857.021	0.0137489
857.099	0.0136867
857.177	0.0137469
857.255	0.0137461
857.333	0.0135943
857.412	0.0136157
857.490	0.0135032
857.568	0.0135133
857.646	0.0136871
857.724	0.0135420
857.802	0.0135185
857.880	0.0134736
857.958	0.0134648
858.037	0.0135829
858.115	0.0134295
858.193	0.0134683
858.271	0.0135638
858.349	0.0135086
858.427	0.0135283
858.505	0.0134338
858.583	0.0136350
858.662	0.0135416
858.740	0.0136945
858.818	0.0137405
858.896	0.0137119
858.974	0.0137553
859.052	0.0137838
859.130	0.0138256
859.208	0.0138549
859.287	0.0138634
859.365	0.0138936
859.443	0.0138831
859.521	0.0139591
859.599	0.0139413
859.677	0.0138743
859.755	0.0139156
859.833	0.0140099
859.912	0.0138007
859.990	0.0138334
860.068	0.0138056
860.146	0.0137090
860.224	0.0137004
860.302	0.0138241
860.380	0.0137240
860.458	0.0136720
860.537	0.0137636
860.615	0.0137278
860.693	0.0138061
860.771	0.0137211
860.849	0.0137126
860.927	0.0136974
861.005	0.0136753
861.083	0.0135611
861.162	0.0137825
861.240	0.0137761
861.318	0.0136472
861.396	0.0138674
861.474	0.0139301
861.552	0.0137413
861.630	0.0139578
861.708	0.0138324
861.787	0.0139403
861.865	0.0138908
861.943	0.0138396
862.021	0.0137275
862.099	0.0137547
862.177	0.0137974
862.255	0.0137882
862.333	0.0137217
862.412	0.0138231
862.490	0.0136172
862.568	0.0136071
862.646	0.0134099
862.724	0.0135715
862.802	0.0135840
862.880	0.0135240
862.958	0.0134537
863.037	0.0134610
863.115	0.0135243
863.193	0.0134908
863.271	0.0135044
863.349	0.0135824
863.427	0.0136217
863.505	0.0136223
863.583	0.0135827
863.662	0.0137000
863.740	0.0137925
863.818	0.0136682
863.896	0.0137051
863.974	0.0137359
864.052	0.0137711
864.130	0.0137032
864.208	0.0137429
864.287	0.0139237
864.365	0.0137798
864.443	0.0138081
864.521	0.0137293
864.599	0.0135847
864.677	0.0137674
864.755	0.0137562
864.833	0.0137622
864.912	0.0138109
864.990	0.0136369
865.068	0.0135628
865.146	0.0136871
865.224	0.0136668
865.302	0.0136185
865.380	0.0135920
865.458	0.0135975
865.537	0.0137113
865.615	0.0136674
865.693	0.0134809
865.771	0.0135673
865.849	0.0135960
865.927	0.0136752
866.005	0.0135071
866.083	0.0134937
866.162	0.0136305
866.240	0.0135847
866.318	0.0136732
866.396	0.0135474
866.474	0.0135456
866.552	0.0136768
866.630	0.0136388
866.708	0.0136449
866.787	0.0138010
866.865	0.0138026
866.943	0.0137480
867.021	0.0136860
867.099	0.0137014
867.177	0.0137427
867.255	0.0139581
867.333	0.0139298
867.412	0.0137728
867.490	0.0137439
867.568	0.0136787
867.646	0.0138805
867.724	0.0137418
867.802	0.0137530
867.880	0.0138581
867.958	0.0139024
868.037	0.0139352
868.115	0.0138740
868.193	0.0137716
868.271	0.0137577
868.349	0.0138387
868.427	0.0138284
868.505	0.0138325
868.583	0.0137770
868.662	0.0136717
868.740	0.0138104
868.818	0.0138227
868.896	0.0138023
868.974	0.0136366
869.052	0.0137133
869.130	0.0136366
869.208	0.0135133
869.287	0.0134441
869.365	0.0136423
869.443	0.0134853
869.521	0.0134765
869.599	0.0134502
869.677	0.0135155
869.755	0.0134998
869.833	0.0134914
869.912	0.0133681
869.990	0.0134200
870.068	0.0134646
870.146	0.0135556
870.224	0.0136234
870.302	0.0135284
870.380	0.0135323
870.458	0.0136846
870.537	0.0136570
870.615	0.0136331
870.693	0.0136136
870.771	0.0137911
870.849	0.0137675
870.927	0.0136005
871.005	0.0138031
871.083	0.0136500
871.162	0.0136466
871.240	0.0137193
871.318	0.0138027
871.396	0.0135895
871.474	0.0135766
871.552	0.0136436
871.630	0.0137098
871.708	0.0137045
871.787	0.0137527
871.865	0.0136004
871.943	0.0136465
872.021	0.0136575
872.099	0.0136742
872.177	0.0136006
872.255	0.0137398
872.333	0.0136742
872.412	0.0135814
872.490	0.0135666
872.568	0.0136463
872.646	0.0136529
872.724	0.0136657
872.802	0.0135004
872.880	0.0136514
872.958	0.0137180
873.037	0.0137567
873.115	0.0137054
873.193	0.0138969
873.271	0.0138228
873.349	0.0138109
873.427	0.0138564
873.505	0.0137770
873.583	0.0138798
873.662	0.0138579
873.740	0.0137569
873.818	0.0138616
873.896	0.0137431
873.974	0.0137677
874.052	0.0136296
874.130	0.0136761
874.208	0.0135673
874.287	0.0136399
874.365	0.0134686
874.443	0.0133128
874.521	0.0136102
874.599	0.0136230
874.677	0.0135061
874.755	0.0135188
874.833	0.0135895
874.912	0.0136114
874.990	0.0137396
875.068	0.0136957
875.146	0.0136131
875.224	0.0136941
875.302	0.0139610
875.380	0.0138789
875.458	0.0139719
875.537	0.0139203
875.615	0.0140903
875.693	0.0140990
875.771	0.0139269
875.849	0.0137901
875.927	0.0139096
876.005	0.0138226
876.083	0.0137660
876.162	0.0138589
876.240	0.0136557
876.318	0.0136429
876.396	0.0136134
876.474	0.0135616
876.552	0.0135184
876.630	0.0135591
876.708	0.0135138
876.787	0.0134131
876.865	0.0133979
876.943	0.0135431
877.021	0.0135069
877.099	0.0135229
877.177	0.0136450
877.255	0.0137398
877.333	0.0138216
877.412	0.0137832
877.490	0.0137939
877.568	0.0140424
877.646	0.0140879
877.724	0.0140845
877.802	0.0140896
877.880	0.0140868
877.958	0.0139388
878.037	0.0138976
878.115	0.0140397
878.193	0.0140102
878.271	0.0140180
878.349	0.0138752
878.427	0.0139207
878.505	0.0137115
878.583	0.0137228
878.662	0.0137286
878.740	0.0136479
878.818	0.0135815
878.896	0.0134016
878.974	0.0133096
879.052	0.0133295
879.130	0.0132487
879.208	0.0133225
879.287	0.0134444
879.365	0.0135297
879.443	0.0133936
879.521	0.0134958
879.599	0.0136776
879.677	0.0136537
879.755	0.0139177
879.833	0.0138060
879.912	0.0138413
879.990	0.0139893
880.068	0.0140875
880.146	0.0140668
880.224	0.0140424
880.302	0.0139851
880.380	0.0141152
880.458	0.0140160
880.537	0.0140696
880.615	0.0138728
880.693	0.0138361
880.771	0.0139409
880.849	0.0139275
880.927	0.0137883
881.005	0.0138071
881.083	0.0138131
881.162	0.0138073
881.240	0.0136609
881.318	0.0134780
881.396	0.0134274
881.474	0.0133424
881.552	0.0133936
881.630	0.0133848
881.708	0.0132870
881.787	0.0132308
881.865	0.0133322
881.943	0.0133584
882.021	0.0132144
882.099	0.0134673
882.177	0.0134226
882.255	0.0133981
882.333	0.0135360
882.412	0.0136282
882.490	0.0136926
882.568	0.0137595
882.646	0.0138929
882.724	0.0139780
882.802	0.0140408
882.880	0.0140134
882.958	0.0140662
883.037	0.0139646
883.115	0.0140039
883.193	0.0139483
883.271	0.0140169
883.349	0.0139660
883.427	0.0139645
883.505	0.0138960
883.583	0.0138850
883.662	0.0136971
883.740	0.0136117
883.818	0.0136346
883.896	0.0136504
883.974	0.0135889
884.052	0.0135025
884.130	0.0135579
884.208	0.0135883
884.287	0.0133775
884.365	0.0134443
884.443	0.0132915
884.521	0.0133881
884.599	0.0133642
884.677	0.0134418
884.755	0.0135105
884.833	0.0134955
884.912	0.0135419
884.990	0.0136493
885.068	0.0136969
885.146	0.0137098
885.224	0.0136965
885.302	0.0138333
885.380	0.0138039
885.458	0.0137653
885.537	0.0138831
885.615	0.0139867
885.693	0.0137980
885.771	0.0139317
885.849	0.0139982
885.927	0.0138522
886.005	0.0138567
886.083	0.0138342
886.162	0.0137473
886.240	0.0137552
886.318	0.0136013
886.396	0.0136894
886.474	0.0134938
886.552	0.0134869
886.630	0.0135579
886.708	0.0134883
886.787	0.0135336
886.865	0.0135726
886.943	0.0134617
887.021	0.0133347
887.099	0.0134345
887.177	0.0134853
887.255	0.0136404
887.333	0.0135008
887.412	0.0136073
887.490	0.0135178
887.568	0.0135014
887.646	0.0136243
887.724	0.0136964
887.802	0.0138333
887.880	0.0137435
887.958	0.0137808
888.037	0.0137200
888.115	0.0138891
888.193	0.0139778
888.271	0.0138987
888.349	0.0140017
888.427	0.0140678
888.505	0.0140971
888.583	0.0140784
888.662	0.0139317
888.740	0.0139565
888.818	0.0139553
888.896	0.0139032
888.974	0.0137298
889.052	0.0137504
889.130	0.0136459
889.208	0.0137261
889.287	0.0138217
889.365	0.0136843
889.443	0.0135919
889.521	0.0136078
889.599	0.0137029
889.677	0.0136146
889.755	0.0137433
889.833	0.0136319
889.912	0.0137611
889.990	0.0137209
890.068	0.0136552
890.146	0.0137102
890.224	0.0137040
890.302	0.0139388
890.380	0.0137907
890.458	0.0136618
890.537	0.0138093
890.615	0.0138743
890.693	0.0135970
890.771	0.0137228
890.849	0.0136394
890.927	0.0134548
891.005	0.0134200
891.083	0.0134381
891.162	0.0133889
891.240	0.0133102
891.318	0.0134741
891.396	0.0134222
891.474	0.0132059
891.552	0.0133228
891.630	0.0133027
891.708	0.0132976
891.787	0.0133566
891.865	0.0134334
891.943	0.0134458
892.021	0.0135302
892.099	0.0135741
892.177	0.0136693
892.255	0.0135062
892.333	0.0136476
892.412	0.0136763
892.490	0.0136806
892.568	0.0137540
892.646	0.0137449
892.724	0.0137874
892.802	0.0137390
892.880	0.0137983
892.958	0.0137583
893.037	0.0138233
893.115	0.0137917
893.193	0.0137427
893.271	0.0137663
893.349	0.0138791
893.427	0.0137456
893.505	0.0137332
893.583	0.0137859
893.662	0.0136391
893.740	0.0137498
893.818	0.0136713
893.896	0.0137053
893.974	0.0137067
894.052	0.0137394
894.130	0.0136536
894.208	0.0136303
894.287	0.0135851
894.365	0.0136329
894.443	0.0136259
894.521	0.0136394
894.599	0.0135951
894.677	0.0135453
894.755	0.0134421
894.833	0.0135813
894.912	0.0136159
894.990	0.0134247
895.068	0.0134930
895.146	0.0134358
895.224	0.0135719
895.302	0.0135022
895.380	0.0135242
895.458	0.0135847
895.537	0.0137617
895.615	0.0135139
895.693	0.0137027
895.771	0.0135838
895.849	0.0135832
895.927	0.0136880
896.005	0.0136821
896.083	0.0138473
896.162	0.0137968
896.240	0.0137522
896.318	0.0140646
896.396	0.0138651
896.474	0.0138168
896.552	0.0139684
896.630	0.0140882
896.708	0.0139531
896.787	0.0139606
896.865	0.0139011
896.943	0.0140162
897.021	0.0139790
897.099	0.0138517
897.177	0.0137919
897.255	0.0137135
897.333	0.0137312
897.412	0.0137855
897.490	0.0138271
897.568	0.0137293
897.646	0.0136460
897.724	0.0136160
897.802	0.0136704
897.880	0.0137572
897.958	0.0136639
898.037	0.0137888
898.115	0.0137360
898.193	0.0139343
898.271	0.0139045
898.349	0.0139169
898.427	0.0138456
898.505	0.0138866
898.583	0.0138573
898.662	0.0139451
898.740	0.0139413
898.818	0.0139947
898.896	0.0138754
898.974	0.0139654
899.052	0.0140038
899.130	0.0139554
899.208	0.0139428
899.287	0.0138564
899.365	0.0138349
899.443	0.0138536
899.521	0.0136922
899.599	0.0135663
899.677	0.0135483
899.755	0.0136127
899.833	0.0136779
899.912	0.0134984
899.990	0.0134870
900.068	0.0135643
900.146	0.0134146
900.224	0.0134103
900.302	0.0135902
900.380	0.0135596
900.458	0.0134405
900.537	0.0136066
900.615	0.0136413
900.693	0.0135716
900.771	0.0136458
900.849	0.0136521
900.927	0.0136285
901.005	0.0138176
901.083	0.0139128
901.162	0.0138491
901.240	0.0138299
901.318	0.0138634
901.396	0.0139381
901.474	0.0139392
901.552	0.0139603
901.630	0.0140018
901.708	0.0139858
901.787	0.0139034
901.865	0.0139423
901.943	0.0140382
902.021	0.0139245
902.099	0.0138238
902.177	0.0138196
902.255	0.0138105
902.333	0.0136263
902.412	0.0136285
902.490	0.0137222
902.568	0.0137390
902.646	0.0135197
902.724	0.0135540
902.802	0.0136191
902.880	0.0135620
902.958	0.0134684
903.037	0.0134563
903.115	0.0133895
903.193	0.0133967
903.271	0.0135074
903.349	0.0134728
903.427	0.0134781
903.505	0.0134696
903.583	0.0135799
903.662	0.0134811
903.740	0.0134817
903.818	0.0136387
903.896	0.0135957
903.974	0.0137736
904.052	0.0138017
904.130	0.0137038
904.208	0.0136738
904.287	0.0137450
904.365	0.0137613
904.443	0.0137556
904.521	0.0138486
904.599	0.0137394
904.677	0.0137125
904.755	0.0137020
904.833	0.0136422
904.912	0.0136447
904.990	0.0137077
905.068	0.0137698
905.146	0.0136462
905.224	0.0136400
905.302	0.0136507
905.380	0.0136852
905.458	0.0136004
905.537	0.0136313
905.615	0.0136181
905.693	0.0135843
905.771	0.0134685
905.849	0.0136670
905.927	0.0137280
906.005	0.0136176
906.083	0.0136451
906.162	0.0136790
906.240	0.0137532
906.318	0.0136765
906.396	0.0136971
906.474	0.0137380
906.552	0.0138424
906.630	0.0137334
906.708	0.0138181
906.787	0.0137967
906.865	0.0138194
906.943	0.0137540
907.021	0.0138925
907.099	0.0138014
907.177	0.0137948
907.255	0.0137995
907.333	0.0136942
907.412	0.0135914
907.490	0.0136350
907.568	0.0136981
907.646	0.0137616
907.724	0.0136866
907.802	0.0136700
907.880	0.0136452
907.958	0.0136581
908.037	0.0137538
908.115	0.0136660
908.193	0.0136677
908.271	0.0138264
908.349	0.0138447
908.427	0.0136601
908.505	0.0135509
908.583	0.0136800
908.662	0.0137463
908.740	0.0138283
908.818	0.0136230
908.896	0.0136871
908.974	0.0137218
909.052	0.0137941
909.130	0.0137414
909.208	0.0138218
909.287	0.0139066
909.365	0.0137107
909.443	0.0137116
909.521	0.0137564
909.599	0.0138130
909.677	0.0137945
909.755	0.0136714
909.833	0.0135759
909.912	0.0135858
909.990	0.0138336
910.068	0.0138770
910.146	0.0137020
910.224	0.0136575
910.302	0.0137368
910.380	0.0135412
910.458	0.0136764
910.537	0.0137093
910.615	0.0138075
910.693	0.0136718
910.771	0.0137955
910.849	0.0135905
910.927	0.0136165
911.005	0.0136148
911.083	0.0136015
911.162	0.0136461
911.240	0.0136388
911.318	0.0137079
911.396	0.0135480
911.474	0.0138015
911.552	0.0137067
911.630	0.0136844
911.708	0.0136851
911.787	0.0136391
911.865	0.0136787
911.943	0.0136649
912.021	0.0137074
912.099	0.0135811
912.177	0.0136417
912.255	0.0138304
912.333	0.0136757
912.412	0.0136833
912.490	0.0137495
912.568	0.0137329
912.646	0.0137611
912.724	0.0138289
912.802	0.0137814
912.880	0.0136338
912.958	0.0136685
913.037	0.0136245
913.115	0.0137721
913.193	0.0137222
913.271	0.0136134
913.349	0.0137688
913.427	0.0137250
913.505	0.0136168
913.583	0.0136135
913.662	0.0136986
913.740	0.0135358
913.818	0.0134672
913.896	0.0136422
913.974	0.0136642
914.052	0.0135630
914.130	0.0136747
914.208	0.0136076
914.287	0.0136333
914.365	0.0135310
914.443	0.0137569
914.521	0.0136642
914.599	0.0136047
914.677	0.0136752
914.755	0.0136143
914.833	0.0137554
914.912	0.0137726
914.990	0.0137196
915.068	0.0137133
915.146	0.0137836
915.224	0.0136005
915.302	0.0137572
915.380	0.0138293
915.458	0.0137577
915.537	0.0137181
915.615	0.0136770
915.693	0.0136739
915.771	0.0136655
915.849	0.0135998
915.927	0.0136632
916.005	0.0136752
916.083	0.0137056
916.162	0.0135461
916.240	0.0136753
916.318	0.0135892
916.396	0.0135241
916.474	0.0137486
916.552	0.0137569
916.630	0.0137608
916.708	0.0134898
916.787	0.0137380
916.865	0.0137785
916.943	0.0137975
917.021	0.0137000
917.099	0.0136363
917.177	0.0136981
917.255	0.0137825
917.333	0.0137347
917.412	0.0137740
917.490	0.0137511
917.568	0.0137405
917.646	0.0136471
917.724	0.0136670
917.802	0.0137590
917.880	0.0137574
917.958	0.0137505
918.037	0.0136860
918.115	0.0136518
918.193	0.0137696
918.271	0.0137448
918.349	0.0137686
918.427	0.0136640
918.505	0.0136909
918.583	0.0138661
918.662	0.0139751
918.740	0.0137186
918.818	0.0138058
918.896	0.0137653
918.974	0.0137737
919.052	0.0138291
919.130	0.0136893
919.208	0.0137317
919.287	0.0138355
919.365	0.0139326
919.443	0.0137919
919.521	0.0137711
919.599	0.0136195
919.677	0.0136274
919.755	0.0138202
919.833	0.0136957
919.912	0.0136839
919.990	0.0136761
920.068	0.0138219
920.146	0.0138386
920.224	0.0139764
920.302	0.0138263
920.380	0.0137781
920.458	0.0139380
920.537	0.0138993
920.615	0.0138186
920.693	0.0137589
920.771	0.0138107
920.849	0.0138109
920.927	0.0139162
921.005	0.0138149
921.083	0.0136976
921.162	0.0136755
921.240	0.0135419
921.318	0.0137079
921.396	0.0136221
921.474	0.0135551
921.552	0.0136088
921.630	0.0137298
921.708	0.0136926
921.787	0.0135786
921.865	0.0136467
921.943	0.0136797
922.021	0.0136049
922.099	0.0136567
922.177	0.0138081
922.255	0.0138863
922.333	0.0137872
922.412	0.0138087
922.490	0.0138603
922.568	0.0138063
922.646	0.0138573
922.724	0.0138878
922.802	0.0138669
922.880	0.0137356
922.958	0.0137624
923.037	0.0137640
923.115	0.0138872
923.193	0.0138019
923.271	0.0136856
923.349	0.0134237
923.427	0.0136578
923.505	0.0137468
923.583	0.0135843
923.662	0.0136433
923.740	0.0136586
923.818	0.0135023
923.896	0.0135190
923.974	0.0134614
924.052	0.0136192
924.130	0.0137225
924.208	0.0136778
924.287	0.0137159
924.365	0.0137266
924.443	0.0138131
924.521	0.0139320
924.599	0.0137354
924.677	0.0137639
924.755	0.0138744
924.833	0.0138792
924.912	0.0138781
924.990	0.0138089
925.068	0.0139979
925.146	0.0138495
925.224	0.0137241
925.302	0.0137309
925.380	0.0137249
925.458	0.0136701
925.537	0.0138098
925.615	0.0139330
925.693	0.0138347
925.771	0.0136092
925.849	0.0137845
925.927	0.0136975
926.005	0.0138332
926.083	0.0137362
926.162	0.0137373
926.240	0.0136939
926.318	0.0137176
926.396	0.0137537
926.474	0.0137663
926.552	0.0136967
926.630	0.0136964
926.708	0.0136129
926.787	0.0137364
926.865	0.0135831
926.943	0.0137109
927.021	0.0137689
927.099	0.0137500
927.177	0.0137731
927.255	0.0137008
927.333	0.0138242
927.412	0.0137758
927.490	0.0136794
927.568	0.0138325
927.646	0.0137540
927.724	0.0137356
927.802	0.0137243
927.880	0.0137209
927.958	0.0136553
928.037	0.0137824
928.115	0.0136935
928.193	0.0136654
928.271	0.0137088
928.349	0.0138351
928.427	0.0137096
928.505	0.0137086
928.583	0.0135839
928.662	0.0137398
928.740	0.0137749
928.818	0.0137643
928.896	0.0137531
928.974	0.0137148
929.052	0.0137910
929.130	0.0135712
929.208	0.0135782
929.287	0.0137151
929.365	0.0136510
929.443	0.0136559
929.521	0.0137017
929.599	0.0136622
929.677	0.0136179
929.755	0.0136844
929.833	0.0136993
929.912	0.0136473
929.990	0.0136110
930.068	0.0137843
930.146	0.0137873
930.224	0.0137617
930.302	0.0138579
930.380	0.0138574
930.458	0.0138491
930.537	0.0140215
930.615	0.0139659
930.693	0.0138448
930.771	0.0138650
930.849	0.0138741
930.927	0.0138032
931.005	0.0137775
931.083	0.0138025
931.162	0.0137411
931.240	0.0136830
931.318	0.0137046
931.396	0.0137531
931.474	0.0137106
931.552	0.0137894
931.630	0.0136065
931.708	0.0135844
931.787	0.0135037
931.865	0.0135915
931.943	0.0135960
932.021	0.0136031
932.099	0.0136607
932.177	0.0136851
932.255	0.0136614
932.333	0.0137261
932.412	0.0138982
932.490	0.0137480
932.568	0.0137817
932.646	0.0137528
932.724	0.0138062
932.802	0.0138380
932.880	0.0137297
932.958	0.0137199
933.037	0.0139024
933.115	0.0137212
933.193	0.0136606
933.271	0.0138734
933.349	0.0136707
933.427	0.0137160
933.505	0.0136228
933.583	0.0136546
933.662	0.0136756
933.740	0.0134944
933.818	0.0137109
933.896	0.0135298
933.974	0.0135927
934.052	0.0135622
934.130	0.0136737
934.208	0.0135816
934.287	0.0137211
934.365	0.0137124
934.443	0.0135294
934.521	0.0136201
934.599	0.0137781
934.677	0.0136510
934.755	0.0135744
934.833	0.0136794
934.912	0.0137434
934.990	0.0137352
935.068	0.0137077
935.146	0.0137680
935.224	0.0137733
935.302	0.0138936
935.380	0.0138387
935.458	0.0137119
935.537	0.0137855
935.615	0.0137004
935.693	0.0137997
935.771	0.0137648
935.849	0.0136993
935.927	0.0138241
936.005	0.0137904
936.083	0.0137465
936.162	0.0138786
936.240	0.0138309
936.318	0.0137953
936.396	0.0137854
936.474	0.0138573
936.552	0.0136607
936.630	0.0138223
936.708	0.0139088
936.787	0.0138261
936.865	0.0137067
936.943	0.0137476
937.021	0.0136697
937.099	0.0139841
937.177	0.0138931
937.255	0.0138152
937.333	0.0138750
937.412	0.0138675
937.490	0.0137842
937.568	0.0138866
937.646	0.0137907
937.724	0.0138863
937.802	0.0138447
937.880	0.0139010
937.958	0.0137545
938.037	0.0138690
938.115	0.0137980
938.193	0.0137382
938.271	0.0137766
938.349	0.0137798
938.427	0.0137427
938.505	0.0138228
938.583	0.0137304
938.662	0.0137386
938.740	0.0136926
938.818	0.0137692
938.896	0.0136994
938.974	0.0138702
939.052	0.0137781
939.130	0.0138529
939.208	0.0136580
939.287	0.0137760
939.365	0.0138628
939.443	0.0138195
939.521	0.0136536
939.599	0.0137822
939.677	0.0137626
939.755	0.0137928
939.833	0.0137760
939.912	0.0138379
939.990	0.0136806
940.068	0.0138261
940.146	0.0137891
940.224	0.0137741
940.302	0.0136037
940.380	0.0137991
940.458	0.0137224
940.537	0.0136819
940.615	0.0137924
940.693	0.0136763
940.771	0.0135736
940.849	0.0136839
940.927	0.0136507
941.005	0.0137228
941.083	0.0137135
941.162	0.0137556
941.240	0.0137090
941.318	0.0138540
941.396	0.0138120
941.474	0.0138888
941.552	0.0138425
941.630	0.0138552
941.708	0.0138403
941.787	0.0138234
941.865	0.0138577
941.943	0.0139016
942.021	0.0139418
942.099	0.0136983
942.177	0.0137073
942.255	0.0137822
942.333	0.0137453
942.412	0.0135856
942.490	0.0136147
942.568	0.0136451
942.646	0.0136218
942.724	0.0137463
942.802	0.0137891
942.880	0.0136393
942.958	0.0135429
943.037	0.0135699
943.115	0.0135169
943.193	0.0135634
943.271	0.0136452
943.349	0.0136674
943.427	0.0135950
943.505	0.0136506
943.583	0.0135984
943.662	0.0135872
943.740	0.0138483
943.818	0.0136343
943.896	0.0136577
943.974	0.0137592
944.052	0.0137705
944.130	0.0136737
944.208	0.0138033
944.287	0.0137976
944.365	0.0137931
944.443	0.0139272
944.521	0.0138022
944.599	0.0137688
944.677	0.0138863
944.755	0.0137365
944.833	0.0136756
944.912	0.0137321
944.990	0.0138298
945.068	0.0137754
945.146	0.0136460
945.224	0.0136696
945.302	0.0136438
945.380	0.0137575
945.458	0.0136690
945.537	0.0136745
945.615	0.0136697
945.693	0.0136534
945.771	0.0135497
945.849	0.0136686
945.927	0.0136582
946.005	0.0136171
946.083	0.0137207
946.162	0.0137247
946.240	0.0137370
946.318	0.0135498
946.396	0.0137311
946.474	0.0136330
946.552	0.0138664
946.630	0.0138614
946.708	0.0138764
946.787	0.0137669
946.865	0.0139280
946.943	0.0138708
947.021	0.0137273
947.099	0.0137724
947.177	0.0137824
947.255	0.0137876
947.333	0.0136647
947.412	0.0137702
947.490	0.0137538
947.568	0.0137256
947.646	0.0137910
947.724	0.0137209
947.802	0.0137817
947.880	0.0138015
947.958	0.0138548
948.037	0.0137988
948.115	0.0137080
948.193	0.0138484
948.271	0.0139404
948.349	0.0139066
948.427	0.0138996
948.505	0.0139953
948.583	0.0138628
948.662	0.0138241
948.740	0.0137597
948.818	0.0137095
948.896	0.0137108
948.974	0.0136761
949.052	0.0136967
949.130	0.0136010
949.208	0.0136272
949.287	0.0136735
949.365	0.0137118
949.443	0.0136136
949.521	0.0136317
949.599	0.0137757
949.677	0.0137965
949.755	0.0137408
949.833	0.0138110
949.912	0.0136614
949.990	0.0137361
950.068	0.0136958
950.146	0.0136967
950.224	0.0136572
950.302	0.0137180
950.380	0.0136347
950.458	0.0136068
950.537	0.0136414
950.615	0.0137437
950.693	0.0136326
950.771	0.0136843
950.849	0.0136779
950.927	0.0136612
951.005	0.0137284
951.083	0.0136270
951.162	0.0137158
951.240	0.0138735
951.318	0.0137173
951.396	0.0138563
951.474	0.0138975
951.552	0.0137996
951.630	0.0138854
951.708	0.0138403
951.787	0.0136756
951.865	0.0135912
951.943	0.0137091
952.021	0.0136275
952.099	0.0135941
952.177	0.0136597
952.255	0.0136099
952.333	0.0137065
952.412	0.0136324
952.490	0.0135704
952.568	0.0136320
952.646	0.0136408
952.724	0.0138084
952.802	0.0137366
952.880	0.0137046
952.958	0.0137395
953.037	0.0136621
953.115	0.0139114
953.193	0.0138845
953.271	0.0139342
953.349	0.0139192
953.427	0.0139577
953.505	0.0138759
953.583	0.0137890
953.662	0.0137398
953.740	0.0136897
953.818	0.0137035
953.896	0.0137791
953.974	0.0137125
954.052	0.0136552
954.130	0.0135166
954.208	0.0136683
954.287	0.0136286
954.365	0.0136668
954.443	0.0137103
954.521	0.0135991
954.599	0.0135149
954.677	0.0135298
954.755	0.0135706
954.833	0.0137910
954.912	0.0136379
954.990	0.0136211
955.068	0.0137069
955.146	0.0136890
955.224	0.0135800
955.302	0.0134985
955.380	0.0136765
955.458	0.0138526
955.537	0.0136987
955.615	0.0136080
955.693	0.0137396
955.771	0.0137074
955.849	0.0137656
955.927	0.0137466
956.005	0.0136623
956.083	0.0135544
956.162	0.0135648
956.240	0.0137520
956.318	0.0136620
956.396	0.0135654
956.474	0.0136462
956.552	0.0137884
956.630	0.0137222
956.708	0.0136295
956.787	0.0136477
956.865	0.0137105
956.943	0.0137535
957.021	0.0137257
957.099	0.0135445
957.177	0.0136383
957.255	0.0136177
957.333	0.0137144
957.412	0.0134280
957.490	0.0136002
957.568	0.0134626
957.646	0.0136025
957.724	0.0134988
957.802	0.0136917
957.880	0.0136558
957.958	0.0137846
958.037	0.0136475
958.115	0.0137336
958.193	0.0137348
958.271	0.0138686
958.349	0.0137871
958.427	0.0138546
958.505	0.0138095
958.583	0.0138001
958.662	0.0139008
958.740	0.0138203
958.818	0.0138809
958.896	0.0139455
958.974	0.0138802
959.052	0.0138155
959.130	0.0138942
959.208	0.0137955
959.287	0.0137185
959.365	0.0138262
959.443	0.0137838
959.521	0.0137061
959.599	0.0136469
959.677	0.0135181
959.755	0.0136025
959.833	0.0135744
959.912	0.0135908
959.990	0.0136848
960.068	0.0135151
960.146	0.0135749
960.224	0.0136076
960.302	0.0137923
960.380	0.0136790
960.458	0.0137057
960.537	0.0138184
960.615	0.0137839
960.693	0.0137897
960.771	0.0137807
960.849	0.0139130
960.927	0.0139517
961.005	0.0139081
961.083	0.0138693
961.162	0.0137817
961.240	0.0138391
961.318	0.0137433
961.396	0.0137531
961.474	0.0138264
961.552	0.0137113
961.630	0.0137717
961.708	0.0138503
961.787	0.0136347
961.865	0.0137095
961.943	0.0137524
962.021	0.0136697
962.099	0.0137002
962.177	0.0136458
962.255	0.0137386
962.333	0.0135952
962.412	0.0138370
962.490	0.0137650
962.568	0.0137655
962.646	0.0136729
962.724	0.0136378
962.802	0.0137589
962.880	0.0139080
962.958	0.0136957
963.037	0.0135878
963.115	0.0137321
963.193	0.0136660
963.271	0.0136800
963.349	0.0137881
963.427	0.0138364
963.505	0.0138178
963.583	0.0138457
963.662	0.0138616
963.740	0.0139423
963.818	0.0138248
963.896	0.0137014
963.974	0.0138705
964.052	0.0137838
964.130	0.0137388
964.208	0.0137392
964.287	0.0137804
964.365	0.0135971
964.443	0.0137508
964.521	0.0137093
964.599	0.0134257
964.677	0.0135572
964.755	0.0136613
964.833	0.0135791
964.912	0.0135347
964.990	0.0134834
965.068	0.0137059
965.146	0.0136669
965.224	0.0137344
965.302	0.0137231
965.380	0.0137846
965.458	0.0138356
965.537	0.0138376
965.615	0.0138918
965.693	0.0138975
965.771	0.0138549
965.849	0.0138483
965.927	0.0138145
966.005	0.0139014
966.083	0.0138414
966.162	0.0139546
966.240	0.0136819
966.318	0.0136884
966.396	0.0137068
966.474	0.0136694
966.552	0.0137430
966.630	0.0135509
966.708	0.0135721
966.787	0.0136237
966.865	0.0134648
966.943	0.0135645
967.021	0.0136575
967.099	0.0136037
967.177	0.0136406
967.255	0.0136742
967.333	0.0134575
967.412	0.0134958
967.490	0.0136771
967.568	0.0135651
967.646	0.0135288
967.724	0.0134637
967.802	0.0135786
967.880	0.0135638
967.958	0.0136536
968.037	0.0137159
968.115	0.0136836
968.193	0.0137700
968.271	0.0138581
968.349	0.0137743
968.427	0.0136937
968.505	0.0137860
968.583	0.0136510
968.662	0.0136951
968.740	0.0136379
968.818	0.0135550
968.896	0.0136487
968.974	0.0136813
969.052	0.0136431
969.130	0.0137120
969.208	0.0136728
969.287	0.0135345
969.365	0.0135480
969.443	0.0136812
969.521	0.0135131
969.599	0.0135175
969.677	0.0135804
969.755	0.0135542
969.833	0.0135757
969.912	0.0135557
