05/08/2022	19:44:00	Ver.	4.1	UNKNOWN
Optical Delay	649.989667	Delta X		0.078125	Sweeps	1	Scan Rate	0/0
Coordinates	Axis 1	NaN	Axis 2	NaN	Axis 3	NaN	Axis 4	NaN	Axis 5	NaN	Axis 6	0.000000
TX Power	0.000000	RX Power	0.000000

649.990	0.0137611
650.068	0.0136193
650.146	0.0135361
650.224	0.0139790
650.302	0.0137827
650.380	0.0138026
650.458	0.0137159
650.537	0.0137144
650.615	0.0137177
650.693	0.0137411
650.771	0.0137886
650.849	0.0138230
650.927	0.0136545
651.005	0.0138484
651.083	0.0137843
651.162	0.0135941
651.240	0.0135775
651.318	0.0136732
651.396	0.0138184
651.474	0.0137585
651.552	0.0136570
651.630	0.0135957
651.708	0.0138189
651.787	0.0137824
651.865	0.0137348
651.943	0.0137513
652.021	0.0138556
652.099	0.0138113
652.177	0.0136900
652.255	0.0136670
652.333	0.0137327
652.412	0.0137066
652.490	0.0137408
652.568	0.0138371
652.646	0.0137924
652.724	0.0137846
652.802	0.0137950
652.880	0.0137801
652.958	0.0137363
653.037	0.0136491
653.115	0.0137741
653.193	0.0136606
653.271	0.0136967
653.349	0.0136823
653.427	0.0137570
653.505	0.0137233
653.583	0.0137283
653.662	0.0136615
653.740	0.0137354
653.818	0.0138170
653.896	0.0137186
653.974	0.0137087
654.052	0.0137827
654.130	0.0136492
654.208	0.0136739
654.287	0.0137127
654.365	0.0137309
654.443	0.0138300
654.521	0.0138313
654.599	0.0138187
654.677	0.0136839
654.755	0.0137207
654.833	0.0137461
654.912	0.0137696
654.990	0.0136050
655.068	0.0136671
655.146	0.0137711
655.224	0.0137859
655.302	0.0137284
655.380	0.0136302
655.458	0.0137747
655.537	0.0137608
655.615	0.0137613
655.693	0.0136393
655.771	0.0135870
655.849	0.0137243
655.927	0.0136183
656.005	0.0136737
656.083	0.0137985
656.162	0.0136385
656.240	0.0137809
656.318	0.0137460
656.396	0.0136806
656.474	0.0137138
656.552	0.0136949
656.630	0.0137029
656.708	0.0137630
656.787	0.0136857
656.865	0.0138051
656.943	0.0138434
657.021	0.0136530
657.099	0.0137428
657.177	0.0137254
657.255	0.0136997
657.333	0.0137708
657.412	0.0138316
657.490	0.0137877
657.568	0.0136769
657.646	0.0137440
657.724	0.0137569
657.802	0.0136622
657.880	0.0137838
657.958	0.0137765
658.037	0.0137007
658.115	0.0137218
658.193	0.0138344
658.271	0.0138016
658.349	0.0137106
658.427	0.0137202
658.505	0.0138129
658.583	0.0137347
658.662	0.0136222
658.740	0.0138380
658.818	0.0138298
658.896	0.0137022
658.974	0.0137246
659.052	0.0138327
659.130	0.0138271
659.208	0.0136208
659.287	0.0136496
659.365	0.0136683
659.443	0.0137268
659.521	0.0138432
659.599	0.0137872
659.677	0.0137527
659.755	0.0136967
659.833	0.0138168
659.912	0.0137823
659.990	0.0137044
660.068	0.0137432
660.146	0.0138025
660.224	0.0137403
660.302	0.0137514
660.380	0.0138068
660.458	0.0137712
660.537	0.0137511
660.615	0.0137032
660.693	0.0136869
660.771	0.0137919
660.849	0.0137329
660.927	0.0137776
661.005	0.0137048
661.083	0.0138420
661.162	0.0137356
661.240	0.0136710
661.318	0.0137492
661.396	0.0137827
661.474	0.0137509
661.552	0.0136963
661.630	0.0138744
661.708	0.0137857
661.787	0.0138812
661.865	0.0138718
661.943	0.0137081
662.021	0.0137857
662.099	0.0137375
662.177	0.0139336
662.255	0.0137409
662.333	0.0138252
662.412	0.0137911
662.490	0.0136550
662.568	0.0137128
662.646	0.0136977
662.724	0.0137614
662.802	0.0137099
662.880	0.0138243
662.958	0.0136914
663.037	0.0138116
663.115	0.0138876
663.193	0.0136435
663.271	0.0137563
663.349	0.0138918
663.427	0.0138457
663.505	0.0137691
663.583	0.0137623
663.662	0.0139178
663.740	0.0138338
663.818	0.0138705
663.896	0.0136723
663.974	0.0138194
664.052	0.0137132
664.130	0.0136934
664.208	0.0138229
664.287	0.0138245
664.365	0.0137791
664.443	0.0138829
664.521	0.0137585
664.599	0.0137106
664.677	0.0137572
664.755	0.0137334
664.833	0.0137924
664.912	0.0137736
664.990	0.0138202
665.068	0.0137050
665.146	0.0137881
665.224	0.0137213
665.302	0.0137125
665.380	0.0139211
665.458	0.0137386
665.537	0.0138734
665.615	0.0138107
665.693	0.0137879
665.771	0.0138834
665.849	0.0138756
665.927	0.0137771
666.005	0.0138109
666.083	0.0137058
666.162	0.0137178
666.240	0.0137241
666.318	0.0138321
666.396	0.0136707
666.474	0.0137132
666.552	0.0138496
666.630	0.0137896
666.708	0.0136672
666.787	0.0136874
666.865	0.0138412
666.943	0.0138080
667.021	0.0137184
667.099	0.0137233
667.177	0.0137160
667.255	0.0137062
667.333	0.0136144
667.412	0.0137634
667.490	0.0136011
667.568	0.0138483
667.646	0.0138586
667.724	0.0137740
667.802	0.0137965
667.880	0.0137682
667.958	0.0136326
668.037	0.0137838
668.115	0.0137659
668.193	0.0136562
668.271	0.0139117
668.349	0.0137581
668.427	0.0136785
668.505	0.0136674
668.583	0.0137207
668.662	0.0139199
668.740	0.0137694
668.818	0.0137885
668.896	0.0136214
668.974	0.0136967
669.052	0.0137765
669.130	0.0137165
669.208	0.0137650
669.287	0.0137631
669.365	0.0136757
669.443	0.0135116
669.521	0.0137924
669.599	0.0137006
669.677	0.0136092
669.755	0.0137261
669.833	0.0138735
669.912	0.0137057
669.990	0.0137258
670.068	0.0137141
670.146	0.0135572
670.224	0.0137973
670.302	0.0137103
670.380	0.0137934
670.458	0.0136623
670.537	0.0138429
670.615	0.0137206
670.693	0.0137955
670.771	0.0136678
670.849	0.0137585
670.927	0.0137049
671.005	0.0136710
671.083	0.0135702
671.162	0.0137196
671.240	0.0137344
671.318	0.0136757
671.396	0.0135822
671.474	0.0137112
671.552	0.0138008
671.630	0.0137829
671.708	0.0137623
671.787	0.0137911
671.865	0.0135706
671.943	0.0137002
672.021	0.0137081
672.099	0.0136852
672.177	0.0136748
672.255	0.0137208
672.333	0.0136890
672.412	0.0137260
672.490	0.0137959
672.568	0.0138122
672.646	0.0136093
672.724	0.0137493
672.802	0.0138355
672.880	0.0136733
672.958	0.0136330
673.037	0.0136793
673.115	0.0136448
673.193	0.0137225
673.271	0.0135484
673.349	0.0136327
673.427	0.0137384
673.505	0.0137170
673.583	0.0135907
673.662	0.0137886
673.740	0.0137098
673.818	0.0137787
673.896	0.0136798
673.974	0.0137239
674.052	0.0136223
674.130	0.0137684
674.208	0.0138879
674.287	0.0137917
674.365	0.0136801
674.443	0.0137328
674.521	0.0137848
674.599	0.0138184
674.677	0.0138739
674.755	0.0137557
674.833	0.0136387
674.912	0.0137650
674.990	0.0138181
675.068	0.0138841
675.146	0.0138724
675.224	0.0137377
675.302	0.0137106
675.380	0.0137468
675.458	0.0136669
675.537	0.0136085
675.615	0.0136263
675.693	0.0137305
675.771	0.0138808
675.849	0.0137994
675.927	0.0136749
676.005	0.0137329
676.083	0.0137430
676.162	0.0139029
676.240	0.0137331
676.318	0.0136964
676.396	0.0137476
676.474	0.0138500
676.552	0.0137146
676.630	0.0137415
676.708	0.0136105
676.787	0.0136523
676.865	0.0136314
676.943	0.0136628
677.021	0.0135635
677.099	0.0136122
677.177	0.0137654
677.255	0.0137749
677.333	0.0137837
677.412	0.0139330
677.490	0.0139896
677.568	0.0140256
677.646	0.0138906
677.724	0.0139288
677.802	0.0138668
677.880	0.0136264
677.958	0.0136506
678.037	0.0134269
678.115	0.0133286
678.193	0.0133044
678.271	0.0132292
678.349	0.0133635
678.427	0.0133822
678.505	0.0134641
678.583	0.0137148
678.662	0.0137521
678.740	0.0139053
678.818	0.0140846
678.896	0.0142136
678.974	0.0143924
679.052	0.0142958
679.130	0.0143539
679.208	0.0143469
679.287	0.0143581
679.365	0.0143677
679.443	0.0142822
679.521	0.0141949
679.599	0.0140035
679.677	0.0137933
679.755	0.0136626
679.833	0.0133026
679.912	0.0129689
679.990	0.0125831
680.068	0.0123786
680.146	0.0123581
680.224	0.0122936
680.302	0.0121606
680.380	0.0123057
680.458	0.0126183
680.537	0.0129021
680.615	0.0132500
680.693	0.0136504
680.771	0.0141740
680.849	0.0142997
680.927	0.0147805
681.005	0.0149606
681.083	0.0152032
681.162	0.0153889
681.240	0.0153279
681.318	0.0152917
681.396	0.0150458
681.474	0.0148546
681.552	0.0146977
681.630	0.0145625
681.708	0.0142296
681.787	0.0140865
681.865	0.0140650
681.943	0.0138518
682.021	0.0139210
682.099	0.0137628
682.177	0.0136921
682.255	0.0135816
682.333	0.0134475
682.412	0.0132076
682.490	0.0129176
682.568	0.0125157
682.646	0.0122184
682.724	0.0118053
682.802	0.0113923
682.880	0.0112457
682.958	0.0112566
683.037	0.0110410
683.115	0.0111028
683.193	0.0117574
683.271	0.0120242
683.349	0.0124387
683.427	0.0132245
683.505	0.0138995
683.583	0.0147035
683.662	0.0153025
683.740	0.0159182
683.818	0.0165215
683.896	0.0167973
683.974	0.0168745
684.052	0.0169363
684.130	0.0169913
684.208	0.0168832
684.287	0.0167371
684.365	0.0162579
684.443	0.0160450
684.521	0.0157293
684.599	0.0154453
684.677	0.0151295
684.755	0.0146304
684.833	0.0142316
684.912	0.0138921
684.990	0.0136691
685.068	0.0131235
685.146	0.0126240
685.224	0.0122599
685.302	0.0116973
685.380	0.0110478
685.458	0.0105626
685.537	0.00994560
685.615	0.00947639
685.693	0.00900620
685.771	0.00843140
685.849	0.00818993
685.927	0.00809135
686.005	0.00804680
686.083	0.00862198
686.162	0.00916214
686.240	0.0101611
686.318	0.0113150
686.396	0.0125269
686.474	0.0142703
686.552	0.0157405
686.630	0.0172375
686.708	0.0188689
686.787	0.0201879
686.865	0.0211314
686.943	0.0218835
687.021	0.0221278
687.099	0.0222472
687.177	0.0219556
687.255	0.0211767
687.333	0.0202386
687.412	0.0193706
687.490	0.0183765
687.568	0.0171929
687.646	0.0159695
687.724	0.0149725
687.802	0.0139799
687.880	0.0129787
687.958	0.0120244
688.037	0.0111398
688.115	0.0102054
688.193	0.00938232
688.271	0.00855392
688.349	0.00780556
688.427	0.00695587
688.505	0.00629890
688.583	0.00583496
688.662	0.00533325
688.740	0.00529594
688.818	0.00528923
688.896	0.00556473
688.974	0.00626831
689.052	0.00722443
689.130	0.00838791
689.208	0.0101057
689.287	0.0116785
689.365	0.0135605
689.443	0.0153568
689.521	0.0170996
689.599	0.0184954
689.677	0.0198973
689.755	0.0210912
689.833	0.0218927
689.912	0.0222374
689.990	0.0224209
690.068	0.0222595
690.146	0.0219353
690.224	0.0213357
690.302	0.0206993
690.380	0.0197914
690.458	0.0189165
690.537	0.0181905
690.615	0.0172250
690.693	0.0163056
690.771	0.0154654
690.849	0.0145259
690.927	0.0136501
691.005	0.0127865
691.083	0.0118645
691.162	0.0112406
691.240	0.0105421
691.318	0.00998215
691.396	0.00945076
691.474	0.00879707
691.552	0.00829933
691.630	0.00810585
691.708	0.00778198
691.787	0.00768944
691.865	0.00776794
691.943	0.00781143
692.021	0.00806175
692.099	0.00856987
692.177	0.00910492
692.255	0.00959656
692.333	0.0102840
692.412	0.0112456
692.490	0.0120604
692.568	0.0130325
692.646	0.0139597
692.724	0.0149918
692.802	0.0160899
692.880	0.0170891
692.958	0.0179790
693.037	0.0188432
693.115	0.0193914
693.193	0.0195688
693.271	0.0197674
693.349	0.0197866
693.427	0.0196550
693.505	0.0190631
693.583	0.0185133
693.662	0.0176476
693.740	0.0170911
693.818	0.0161211
693.896	0.0150285
693.974	0.0142120
694.052	0.0132185
694.130	0.0123764
694.208	0.0117062
694.287	0.0111643
694.365	0.0108865
694.443	0.0105982
694.521	0.0104647
694.599	0.0104447
694.677	0.0108331
694.755	0.0109519
694.833	0.0112038
694.912	0.0115605
694.990	0.0120455
695.068	0.0124252
695.146	0.0126792
695.224	0.0132835
695.302	0.0135203
695.380	0.0137833
695.458	0.0141626
695.537	0.0142801
695.615	0.0143810
695.693	0.0145648
695.771	0.0146243
695.849	0.0147891
695.927	0.0148927
696.005	0.0150900
696.083	0.0149992
696.162	0.0151842
696.240	0.0151411
696.318	0.0150818
696.396	0.0148609
696.474	0.0146724
696.552	0.0144334
696.630	0.0141261
696.708	0.0135993
696.787	0.0132416
696.865	0.0127866
696.943	0.0124238
697.021	0.0119730
697.099	0.0117947
697.177	0.0115656
697.255	0.0114801
697.333	0.0115467
697.412	0.0116133
697.490	0.0118040
697.568	0.0121069
697.646	0.0125462
697.724	0.0129929
697.802	0.0132731
697.880	0.0138058
697.958	0.0143346
698.037	0.0146523
698.115	0.0150118
698.193	0.0153870
698.271	0.0157223
698.349	0.0157765
698.427	0.0158743
698.505	0.0159563
698.583	0.0158952
698.662	0.0158475
698.740	0.0157706
698.818	0.0156319
698.896	0.0153600
698.974	0.0148960
699.052	0.0145443
699.130	0.0141973
699.208	0.0137064
699.287	0.0132874
699.365	0.0127743
699.443	0.0122752
699.521	0.0121222
699.599	0.0116808
699.677	0.0116453
699.755	0.0114340
699.833	0.0111946
699.912	0.0114284
699.990	0.0114622
700.068	0.0119556
700.146	0.0123402
700.224	0.0127191
700.302	0.0132533
700.380	0.0138046
700.458	0.0143447
700.537	0.0149090
700.615	0.0153089
700.693	0.0158538
700.771	0.0161145
700.849	0.0163330
700.927	0.0164204
701.005	0.0163258
701.083	0.0163423
701.162	0.0159360
701.240	0.0156869
701.318	0.0150484
701.396	0.0145662
701.474	0.0141560
701.552	0.0135594
701.630	0.0131709
701.708	0.0128624
701.787	0.0123306
701.865	0.0120670
701.943	0.0117647
702.021	0.0115925
702.099	0.0113906
702.177	0.0113064
702.255	0.0111285
702.333	0.0110748
702.412	0.0111758
702.490	0.0111375
702.568	0.0112340
702.646	0.0115489
702.724	0.0116901
702.802	0.0119595
702.880	0.0123302
702.958	0.0126940
703.037	0.0128883
703.115	0.0135141
703.193	0.0138719
703.271	0.0140695
703.349	0.0146547
703.427	0.0149482
703.505	0.0152241
703.583	0.0154834
703.662	0.0157312
703.740	0.0158678
703.818	0.0160994
703.896	0.0162267
703.974	0.0161451
704.052	0.0160560
704.130	0.0159560
704.208	0.0157843
704.287	0.0157349
704.365	0.0157416
704.443	0.0156300
704.521	0.0153393
704.599	0.0153129
704.677	0.0152084
704.755	0.0153320
704.833	0.0150043
704.912	0.0147404
704.990	0.0147169
705.068	0.0146193
705.146	0.0143480
705.224	0.0139382
705.302	0.0136670
705.380	0.0134895
705.458	0.0131339
705.537	0.0129323
705.615	0.0125566
705.693	0.0123830
705.771	0.0119960
705.849	0.0119370
705.927	0.0119587
706.005	0.0117934
706.083	0.0116602
706.162	0.0116658
706.240	0.0117361
706.318	0.0115989
706.396	0.0117622
706.474	0.0116684
706.552	0.0117173
706.630	0.0118004
706.708	0.0116168
706.787	0.0117772
706.865	0.0117803
706.943	0.0118833
707.021	0.0119225
707.099	0.0118942
707.177	0.0121807
707.255	0.0123058
707.333	0.0125784
707.412	0.0128284
707.490	0.0131093
707.568	0.0135419
707.646	0.0139040
707.724	0.0143573
707.802	0.0144729
707.880	0.0148469
707.958	0.0152341
708.037	0.0155753
708.115	0.0158829
708.193	0.0161777
708.271	0.0162589
708.349	0.0164669
708.427	0.0164803
708.505	0.0165895
708.583	0.0165382
708.662	0.0165451
708.740	0.0165984
708.818	0.0163820
708.896	0.0161268
708.974	0.0158875
709.052	0.0156709
709.130	0.0154750
709.208	0.0152020
709.287	0.0148578
709.365	0.0144598
709.443	0.0140747
709.521	0.0136755
709.599	0.0134676
709.677	0.0131228
709.755	0.0128476
709.833	0.0125533
709.912	0.0122371
709.990	0.0120753
710.068	0.0117250
710.146	0.0117234
710.224	0.0115988
710.302	0.0114494
710.380	0.0114575
710.458	0.0116945
710.537	0.0117076
710.615	0.0116279
710.693	0.0117828
710.771	0.0119904
710.849	0.0121016
710.927	0.0122442
711.005	0.0124950
711.083	0.0127129
711.162	0.0130372
711.240	0.0130824
711.318	0.0133313
711.396	0.0135111
711.474	0.0137091
711.552	0.0138696
711.630	0.0139360
711.708	0.0140842
711.787	0.0141841
711.865	0.0141931
711.943	0.0143172
712.021	0.0145185
712.099	0.0144876
712.177	0.0143098
712.255	0.0143404
712.333	0.0145313
712.412	0.0145200
712.490	0.0143826
712.568	0.0144135
712.646	0.0144314
712.724	0.0144744
712.802	0.0145564
712.880	0.0144199
712.958	0.0144258
713.037	0.0143775
713.115	0.0141579
713.193	0.0141957
713.271	0.0142845
713.349	0.0142918
713.427	0.0142367
713.505	0.0142062
713.583	0.0142796
713.662	0.0142032
713.740	0.0142091
713.818	0.0143629
713.896	0.0143740
713.974	0.0143766
714.052	0.0142942
714.130	0.0143403
714.208	0.0142508
714.287	0.0141100
714.365	0.0137576
714.443	0.0137759
714.521	0.0136510
714.599	0.0134606
714.677	0.0134042
714.755	0.0133294
714.833	0.0132153
714.912	0.0133387
714.990	0.0134686
715.068	0.0134357
715.146	0.0134440
715.224	0.0135220
715.302	0.0136046
715.380	0.0134295
715.458	0.0134548
715.537	0.0137144
715.615	0.0134796
715.693	0.0135576
715.771	0.0136369
715.849	0.0137212
715.927	0.0137656
716.005	0.0139706
716.083	0.0140545
716.162	0.0139131
716.240	0.0138933
716.318	0.0140667
716.396	0.0140366
716.474	0.0139574
716.552	0.0138699
716.630	0.0139164
716.708	0.0136321
716.787	0.0134216
716.865	0.0134066
716.943	0.0133572
717.021	0.0132890
717.099	0.0131539
717.177	0.0131037
717.255	0.0129495
717.333	0.0129739
717.412	0.0130252
717.490	0.0130768
717.568	0.0131559
717.646	0.0130264
717.724	0.0132168
717.802	0.0131226
717.880	0.0132980
717.958	0.0132612
718.037	0.0134670
718.115	0.0135887
718.193	0.0137611
718.271	0.0137099
718.349	0.0138134
718.427	0.0140656
718.505	0.0140839
718.583	0.0142107
718.662	0.0142731
718.740	0.0144133
718.818	0.0143465
718.896	0.0144085
718.974	0.0144288
719.052	0.0143784
719.130	0.0145714
719.208	0.0144321
719.287	0.0143635
719.365	0.0144873
719.443	0.0143793
719.521	0.0144409
719.599	0.0143521
719.677	0.0144786
719.755	0.0143639
719.833	0.0141741
719.912	0.0141333
719.990	0.0140930
720.068	0.0138802
720.146	0.0137099
720.224	0.0138123
720.302	0.0137096
720.380	0.0136443
720.458	0.0136855
720.537	0.0136306
720.615	0.0137226
720.693	0.0137197
720.771	0.0137860
720.849	0.0138734
720.927	0.0139591
721.005	0.0139555
721.083	0.0138217
721.162	0.0137865
721.240	0.0139278
721.318	0.0137610
721.396	0.0138510
721.474	0.0138477
721.552	0.0137992
721.630	0.0136656
721.708	0.0136573
721.787	0.0135107
721.865	0.0134420
721.943	0.0132565
722.021	0.0134116
722.099	0.0133416
722.177	0.0131198
722.255	0.0131891
722.333	0.0131580
722.412	0.0130943
722.490	0.0130546
722.568	0.0131229
722.646	0.0131147
722.724	0.0130129
722.802	0.0130456
722.880	0.0130981
722.958	0.0131496
723.037	0.0132865
723.115	0.0133960
723.193	0.0135206
723.271	0.0136532
723.349	0.0136613
723.427	0.0137373
723.505	0.0136792
723.583	0.0137576
723.662	0.0139097
723.740	0.0138282
723.818	0.0139463
723.896	0.0139140
723.974	0.0138940
724.052	0.0138740
724.130	0.0140099
724.208	0.0139031
724.287	0.0141134
724.365	0.0141382
724.443	0.0140758
724.521	0.0140649
724.599	0.0142426
724.677	0.0141431
724.755	0.0141077
724.833	0.0140780
724.912	0.0142202
724.990	0.0142527
725.068	0.0142213
725.146	0.0138319
725.224	0.0141209
725.302	0.0141122
725.380	0.0141587
725.458	0.0140363
725.537	0.0142738
725.615	0.0141100
725.693	0.0141277
725.771	0.0141087
725.849	0.0141400
725.927	0.0141169
726.005	0.0142477
726.083	0.0141198
726.162	0.0140583
726.240	0.0140469
726.318	0.0140147
726.396	0.0138029
726.474	0.0137248
726.552	0.0136681
726.630	0.0135753
726.708	0.0133801
726.787	0.0133304
726.865	0.0131773
726.943	0.0131530
727.021	0.0130975
727.099	0.0133099
727.177	0.0131966
727.255	0.0133398
727.333	0.0133362
727.412	0.0134346
727.490	0.0134633
727.568	0.0136275
727.646	0.0134686
727.724	0.0136401
727.802	0.0136926
727.880	0.0134269
727.958	0.0135555
728.037	0.0135835
728.115	0.0135553
728.193	0.0136682
728.271	0.0136909
728.349	0.0137153
728.427	0.0138476
728.505	0.0139722
728.583	0.0137847
728.662	0.0138034
728.740	0.0139381
728.818	0.0139299
728.896	0.0139366
728.974	0.0138373
729.052	0.0140084
729.130	0.0139149
729.208	0.0136945
729.287	0.0136340
729.365	0.0136726
729.443	0.0135278
729.521	0.0134826
729.599	0.0135165
729.677	0.0134827
729.755	0.0135088
729.833	0.0134853
729.912	0.0133493
729.990	0.0134318
730.068	0.0133614
730.146	0.0134299
730.224	0.0135557
730.302	0.0135097
730.380	0.0134534
730.458	0.0136581
730.537	0.0137115
730.615	0.0138567
730.693	0.0137620
730.771	0.0139650
730.849	0.0142681
730.927	0.0143810
731.005	0.0142558
731.083	0.0144345
731.162	0.0144363
731.240	0.0144239
731.318	0.0144348
731.396	0.0145221
731.474	0.0144445
731.552	0.0144008
731.630	0.0141011
731.708	0.0140370
731.787	0.0139523
731.865	0.0138921
731.943	0.0137227
732.021	0.0136028
732.099	0.0135443
732.177	0.0133572
732.255	0.0133925
732.333	0.0133379
732.412	0.0133202
732.490	0.0131322
732.568	0.0132948
732.646	0.0132224
732.724	0.0131030
732.802	0.0131895
732.880	0.0132932
732.958	0.0131960
733.037	0.0133260
733.115	0.0134121
733.193	0.0135287
733.271	0.0136053
733.349	0.0137437
733.427	0.0138138
733.505	0.0140211
733.583	0.0139006
733.662	0.0140887
733.740	0.0142215
733.818	0.0142580
733.896	0.0142079
733.974	0.0142786
734.052	0.0141035
734.130	0.0138262
734.208	0.0137853
734.287	0.0137682
734.365	0.0137310
734.443	0.0134937
734.521	0.0134789
734.599	0.0132819
734.677	0.0132369
734.755	0.0132866
734.833	0.0131982
734.912	0.0131764
734.990	0.0132049
735.068	0.0130227
735.146	0.0132902
735.224	0.0132229
735.302	0.0134710
735.380	0.0132587
735.458	0.0136349
735.537	0.0136889
735.615	0.0137195
735.693	0.0136910
735.771	0.0137801
735.849	0.0139553
735.927	0.0140206
736.005	0.0140974
736.083	0.0139675
736.162	0.0139462
736.240	0.0141573
736.318	0.0141678
736.396	0.0141719
736.474	0.0140802
736.552	0.0140071
736.630	0.0141503
736.708	0.0142044
736.787	0.0140723
736.865	0.0140555
736.943	0.0140361
737.021	0.0140265
737.099	0.0139971
737.177	0.0139093
737.255	0.0138248
737.333	0.0138018
737.412	0.0136067
737.490	0.0135526
737.568	0.0135668
737.646	0.0133928
737.724	0.0133419
737.802	0.0135062
737.880	0.0135654
737.958	0.0135383
738.037	0.0136855
738.115	0.0136492
738.193	0.0136650
738.271	0.0138209
738.349	0.0139500
738.427	0.0138409
738.505	0.0140095
738.583	0.0138879
738.662	0.0141160
738.740	0.0142992
738.818	0.0141387
738.896	0.0140957
738.974	0.0139646
739.052	0.0140017
739.130	0.0141740
739.208	0.0138838
739.287	0.0139091
739.365	0.0138607
739.443	0.0137052
739.521	0.0135744
739.599	0.0136214
739.677	0.0138214
739.755	0.0136179
739.833	0.0135339
739.912	0.0136387
739.990	0.0135665
740.068	0.0135650
740.146	0.0136163
740.224	0.0135802
740.302	0.0135576
740.380	0.0134912
740.458	0.0133611
740.537	0.0135966
740.615	0.0136115
740.693	0.0134743
740.771	0.0135321
740.849	0.0135378
740.927	0.0134837
741.005	0.0136590
741.083	0.0138086
741.162	0.0138789
741.240	0.0139841
741.318	0.0139018
741.396	0.0141181
741.474	0.0141032
741.552	0.0140806
741.630	0.0140201
741.708	0.0140129
741.787	0.0141484
741.865	0.0139363
741.943	0.0138094
742.021	0.0136333
742.099	0.0136501
742.177	0.0137482
742.255	0.0137222
742.333	0.0134450
742.412	0.0137004
742.490	0.0135317
742.568	0.0135226
742.646	0.0134161
742.724	0.0136171
742.802	0.0136491
742.880	0.0136391
742.958	0.0137642
743.037	0.0137922
743.115	0.0138577
743.193	0.0139432
743.271	0.0138719
743.349	0.0140578
743.427	0.0142067
743.505	0.0141000
743.583	0.0140928
743.662	0.0142051
743.740	0.0142954
743.818	0.0141608
743.896	0.0142406
743.974	0.0143138
744.052	0.0141866
744.130	0.0141364
744.208	0.0141561
744.287	0.0141237
744.365	0.0142301
744.443	0.0141249
744.521	0.0140699
744.599	0.0140092
744.677	0.0138842
744.755	0.0139339
744.833	0.0138322
744.912	0.0138103
744.990	0.0136789
745.068	0.0136474
745.146	0.0134857
745.224	0.0135055
745.302	0.0134710
745.380	0.0133102
745.458	0.0134088
745.537	0.0133041
745.615	0.0131984
745.693	0.0134120
745.771	0.0133508
745.849	0.0135044
745.927	0.0135711
746.005	0.0136227
746.083	0.0137086
746.162	0.0138165
746.240	0.0139165
746.318	0.0138503
746.396	0.0138686
746.474	0.0139190
746.552	0.0138324
746.630	0.0139499
746.708	0.0139421
746.787	0.0138644
746.865	0.0138728
746.943	0.0138155
747.021	0.0138818
747.099	0.0139328
747.177	0.0138594
747.255	0.0136887
747.333	0.0138494
747.412	0.0137482
747.490	0.0137928
747.568	0.0137528
747.646	0.0137332
747.724	0.0137239
747.802	0.0135873
747.880	0.0137281
747.958	0.0137607
748.037	0.0136684
748.115	0.0136504
748.193	0.0135986
748.271	0.0136819
748.349	0.0135269
748.427	0.0136457
748.505	0.0136459
748.583	0.0135846
748.662	0.0135973
748.740	0.0138501
748.818	0.0138134
748.896	0.0139254
748.974	0.0140327
749.052	0.0140505
749.130	0.0140214
749.208	0.0140308
749.287	0.0141362
749.365	0.0140047
749.443	0.0141220
749.521	0.0141651
749.599	0.0139980
749.677	0.0139783
749.755	0.0139507
749.833	0.0138708
749.912	0.0137160
749.990	0.0138991
750.068	0.0137140
750.146	0.0134158
750.224	0.0134925
750.302	0.0135674
750.380	0.0134132
750.458	0.0135577
750.537	0.0133537
750.615	0.0132932
750.693	0.0134648
750.771	0.0134569
750.849	0.0135899
750.927	0.0137375
751.005	0.0137929
751.083	0.0138173
751.162	0.0139241
751.240	0.0139287
751.318	0.0138987
751.396	0.0140060
751.474	0.0140675
751.552	0.0141502
751.630	0.0143423
751.708	0.0141913
751.787	0.0141315
751.865	0.0141855
751.943	0.0141054
752.021	0.0140920
752.099	0.0140201
752.177	0.0138689
752.255	0.0137543
752.333	0.0138388
752.412	0.0137335
752.490	0.0135832
752.568	0.0136636
752.646	0.0135840
752.724	0.0134757
752.802	0.0135056
752.880	0.0134174
752.958	0.0134415
753.037	0.0134106
753.115	0.0134504
753.193	0.0132996
753.271	0.0135033
753.349	0.0133788
753.427	0.0133028
753.505	0.0133282
753.583	0.0134698
753.662	0.0136082
753.740	0.0135983
753.818	0.0135207
753.896	0.0135725
753.974	0.0136294
754.052	0.0135988
754.130	0.0135110
754.208	0.0135840
754.287	0.0136314
754.365	0.0136465
754.443	0.0136061
754.521	0.0135332
754.599	0.0135484
754.677	0.0135880
754.755	0.0137165
754.833	0.0136204
754.912	0.0135635
754.990	0.0137105
755.068	0.0135980
755.146	0.0137244
755.224	0.0137823
755.302	0.0137968
755.380	0.0138885
755.458	0.0140331
755.537	0.0140855
755.615	0.0140147
755.693	0.0140067
755.771	0.0140742
755.849	0.0139478
755.927	0.0140118
756.005	0.0140266
756.083	0.0140446
756.162	0.0138708
756.240	0.0140546
756.318	0.0140746
756.396	0.0139536
756.474	0.0138577
756.552	0.0140207
756.630	0.0140019
756.708	0.0139376
756.787	0.0138761
756.865	0.0139957
756.943	0.0138440
757.021	0.0139996
757.099	0.0140228
757.177	0.0137051
757.255	0.0136336
757.333	0.0137138
757.412	0.0136362
757.490	0.0136134
757.568	0.0135487
757.646	0.0136498
757.724	0.0135228
757.802	0.0134445
757.880	0.0134070
757.958	0.0133065
758.037	0.0135271
758.115	0.0136695
758.193	0.0135712
758.271	0.0135006
758.349	0.0135660
758.427	0.0137260
758.505	0.0135788
758.583	0.0135786
758.662	0.0137521
758.740	0.0135748
758.818	0.0135521
758.896	0.0137685
758.974	0.0137058
759.052	0.0136051
759.130	0.0137099
759.208	0.0136714
759.287	0.0136025
759.365	0.0137736
759.443	0.0136299
759.521	0.0137230
759.599	0.0136964
759.677	0.0134026
759.755	0.0136436
759.833	0.0137912
759.912	0.0136565
759.990	0.0137138
760.068	0.0137831
760.146	0.0136804
760.224	0.0138235
760.302	0.0139088
760.380	0.0138430
760.458	0.0139369
760.537	0.0139823
760.615	0.0139743
760.693	0.0140088
760.771	0.0140220
760.849	0.0140178
760.927	0.0140723
761.005	0.0140708
761.083	0.0141084
761.162	0.0141188
761.240	0.0139024
761.318	0.0139268
761.396	0.0138592
761.474	0.0138798
761.552	0.0138505
761.630	0.0137186
761.708	0.0136459
761.787	0.0137121
761.865	0.0136427
761.943	0.0135398
762.021	0.0136115
762.099	0.0135650
762.177	0.0134682
762.255	0.0134928
762.333	0.0135198
762.412	0.0135052
762.490	0.0135152
762.568	0.0135385
762.646	0.0135963
762.724	0.0135226
762.802	0.0135468
762.880	0.0135413
762.958	0.0136035
763.037	0.0136961
763.115	0.0136850
763.193	0.0138604
763.271	0.0138213
763.349	0.0137228
763.427	0.0138451
763.505	0.0140039
763.583	0.0141476
763.662	0.0141290
763.740	0.0140002
763.818	0.0140459
763.896	0.0141502
763.974	0.0141830
764.052	0.0141336
764.130	0.0140166
764.208	0.0140533
764.287	0.0141642
764.365	0.0141853
764.443	0.0140304
764.521	0.0140347
764.599	0.0140461
764.677	0.0139587
764.755	0.0138950
764.833	0.0139410
764.912	0.0137843
764.990	0.0136425
765.068	0.0137554
765.146	0.0136527
765.224	0.0136440
765.302	0.0137041
765.380	0.0134567
765.458	0.0135751
765.537	0.0136665
765.615	0.0134798
765.693	0.0134943
765.771	0.0137154
765.849	0.0136296
765.927	0.0136326
766.005	0.0136968
766.083	0.0136933
766.162	0.0136679
766.240	0.0138093
766.318	0.0138745
766.396	0.0138799
766.474	0.0138691
766.552	0.0137953
766.630	0.0137523
766.708	0.0138486
766.787	0.0136126
766.865	0.0136767
766.943	0.0137717
767.021	0.0138054
767.099	0.0137022
767.177	0.0137305
767.255	0.0137402
767.333	0.0136384
767.412	0.0137345
767.490	0.0137331
767.568	0.0137777
767.646	0.0136399
767.724	0.0136164
767.802	0.0136610
767.880	0.0136276
767.958	0.0136603
768.037	0.0135212
768.115	0.0134776
768.193	0.0133836
768.271	0.0135223
768.349	0.0133891
768.427	0.0131901
768.505	0.0133185
768.583	0.0134439
768.662	0.0134613
768.740	0.0134730
768.818	0.0135343
768.896	0.0135941
768.974	0.0137659
769.052	0.0138093
769.130	0.0138662
769.208	0.0138604
769.287	0.0139067
769.365	0.0141007
769.443	0.0141533
769.521	0.0140905
769.599	0.0141428
769.677	0.0141160
769.755	0.0140664
769.833	0.0141335
769.912	0.0139922
769.990	0.0139838
770.068	0.0138532
770.146	0.0137354
770.224	0.0137453
770.302	0.0136852
770.380	0.0138000
770.458	0.0137373
770.537	0.0135628
770.615	0.0137330
770.693	0.0136602
770.771	0.0136163
770.849	0.0135603
770.927	0.0137782
771.005	0.0135683
771.083	0.0136328
771.162	0.0137534
771.240	0.0137354
771.318	0.0137885
771.396	0.0139164
771.474	0.0139165
771.552	0.0139880
771.630	0.0138989
771.708	0.0138861
771.787	0.0139855
771.865	0.0140104
771.943	0.0138621
772.021	0.0139863
772.099	0.0139974
772.177	0.0138480
772.255	0.0139739
772.333	0.0137554
772.412	0.0136930
772.490	0.0136790
772.568	0.0135988
772.646	0.0134951
772.724	0.0134645
772.802	0.0133408
772.880	0.0132578
772.958	0.0133621
773.037	0.0131140
773.115	0.0130933
773.193	0.0134082
773.271	0.0132642
773.349	0.0131624
773.427	0.0132184
773.505	0.0133739
773.583	0.0133293
773.662	0.0134046
773.740	0.0134308
773.818	0.0135165
773.896	0.0136157
773.974	0.0136525
774.052	0.0135765
774.130	0.0137659
774.208	0.0138212
774.287	0.0139222
774.365	0.0139321
774.443	0.0139013
774.521	0.0140006
774.599	0.0140958
774.677	0.0140228
774.755	0.0139996
774.833	0.0140565
774.912	0.0141159
774.990	0.0141390
775.068	0.0139888
775.146	0.0139127
775.224	0.0139555
775.302	0.0139273
775.380	0.0139030
775.458	0.0137625
775.537	0.0138596
775.615	0.0138811
775.693	0.0136278
775.771	0.0135648
775.849	0.0136615
775.927	0.0134704
776.005	0.0135627
776.083	0.0136063
776.162	0.0133652
776.240	0.0135071
776.318	0.0136200
776.396	0.0135079
776.474	0.0135155
776.552	0.0136193
776.630	0.0136336
776.708	0.0137661
776.787	0.0137922
776.865	0.0137908
776.943	0.0138234
777.021	0.0137970
777.099	0.0139509
777.177	0.0137723
777.255	0.0137813
777.333	0.0140074
777.412	0.0139312
777.490	0.0137410
777.568	0.0137005
777.646	0.0138448
777.724	0.0138144
777.802	0.0138596
777.880	0.0137726
777.958	0.0136954
778.037	0.0138101
778.115	0.0138757
778.193	0.0137923
778.271	0.0138592
778.349	0.0137508
778.427	0.0138081
778.505	0.0138395
778.583	0.0138821
778.662	0.0137537
778.740	0.0138022
778.818	0.0139301
778.896	0.0138712
778.974	0.0138554
779.052	0.0137962
779.130	0.0137902
779.208	0.0137392
779.287	0.0136787
779.365	0.0138130
779.443	0.0137744
779.521	0.0136708
779.599	0.0136437
779.677	0.0135189
779.755	0.0134490
779.833	0.0134838
779.912	0.0135395
779.990	0.0135552
780.068	0.0136410
780.146	0.0135350
780.224	0.0136039
780.302	0.0135701
780.380	0.0135970
780.458	0.0136217
780.537	0.0137219
780.615	0.0136610
780.693	0.0136108
780.771	0.0137072
780.849	0.0138676
780.927	0.0137867
781.005	0.0135964
781.083	0.0138572
781.162	0.0139764
781.240	0.0139697
781.318	0.0137957
781.396	0.0137635
781.474	0.0138738
781.552	0.0139626
781.630	0.0139843
781.708	0.0137563
781.787	0.0137244
781.865	0.0136592
781.943	0.0135954
782.021	0.0136246
782.099	0.0136102
782.177	0.0134738
782.255	0.0134671
782.333	0.0135732
782.412	0.0136232
782.490	0.0134229
782.568	0.0134284
782.646	0.0135864
782.724	0.0134867
782.802	0.0136165
782.880	0.0136238
782.958	0.0136237
783.037	0.0137912
783.115	0.0137515
783.193	0.0138596
783.271	0.0139426
783.349	0.0139352
783.427	0.0139781
783.505	0.0140044
783.583	0.0140964
783.662	0.0139765
783.740	0.0141549
783.818	0.0141120
783.896	0.0140704
783.974	0.0140942
784.052	0.0141039
784.130	0.0141369
784.208	0.0140059
784.287	0.0139171
784.365	0.0138991
784.443	0.0139702
784.521	0.0139448
784.599	0.0138187
784.677	0.0138407
784.755	0.0135490
784.833	0.0134975
784.912	0.0134635
784.990	0.0134116
785.068	0.0133849
785.146	0.0133974
785.224	0.0133408
785.302	0.0132619
785.380	0.0134134
785.458	0.0133788
785.537	0.0135379
785.615	0.0136896
785.693	0.0133857
785.771	0.0135143
785.849	0.0135108
785.927	0.0135423
786.005	0.0136977
786.083	0.0134325
786.162	0.0136618
786.240	0.0137573
786.318	0.0137859
786.396	0.0137302
786.474	0.0138125
786.552	0.0139750
786.630	0.0138184
786.708	0.0140025
786.787	0.0139737
786.865	0.0140271
786.943	0.0140257
787.021	0.0141351
787.099	0.0142284
787.177	0.0141526
787.255	0.0143557
787.333	0.0143018
787.412	0.0141837
787.490	0.0142490
787.568	0.0142442
787.646	0.0141238
787.724	0.0140733
787.802	0.0140532
787.880	0.0138972
787.958	0.0138486
788.037	0.0136981
788.115	0.0135947
788.193	0.0135856
788.271	0.0134841
788.349	0.0133462
788.427	0.0134782
788.505	0.0134138
788.583	0.0132822
788.662	0.0133100
788.740	0.0131919
788.818	0.0132225
788.896	0.0132533
788.974	0.0131990
789.052	0.0133105
789.130	0.0134602
789.208	0.0135711
789.287	0.0136250
789.365	0.0136312
789.443	0.0138432
789.521	0.0139454
789.599	0.0140236
789.677	0.0140720
789.755	0.0141614
789.833	0.0142461
789.912	0.0142326
789.990	0.0144180
790.068	0.0142416
790.146	0.0142966
790.224	0.0143954
790.302	0.0143505
790.380	0.0144711
790.458	0.0142902
790.537	0.0142915
790.615	0.0141937
790.693	0.0140707
790.771	0.0138604
790.849	0.0139220
790.927	0.0138046
791.005	0.0139063
791.083	0.0135349
791.162	0.0134134
791.240	0.0135281
791.318	0.0134450
791.396	0.0132195
791.474	0.0133018
791.552	0.0133623
791.630	0.0134016
791.708	0.0133655
791.787	0.0133572
791.865	0.0134423
791.943	0.0134571
792.021	0.0136897
792.099	0.0136112
792.177	0.0136708
792.255	0.0137670
792.333	0.0138212
792.412	0.0136538
792.490	0.0137478
792.568	0.0138419
792.646	0.0137282
792.724	0.0137913
792.802	0.0136166
792.880	0.0137831
792.958	0.0137526
793.037	0.0138191
793.115	0.0137919
793.193	0.0138327
793.271	0.0139037
793.349	0.0138414
793.427	0.0137933
793.505	0.0136744
793.583	0.0137785
793.662	0.0137912
793.740	0.0137206
793.818	0.0136504
793.896	0.0138593
793.974	0.0137949
794.052	0.0137009
794.130	0.0136890
794.208	0.0136649
794.287	0.0136336
794.365	0.0135976
794.443	0.0134518
794.521	0.0135875
794.599	0.0135465
794.677	0.0134648
794.755	0.0135178
794.833	0.0134444
794.912	0.0135690
794.990	0.0134780
795.068	0.0134000
795.146	0.0136406
795.224	0.0137369
795.302	0.0136105
795.380	0.0135062
795.458	0.0136089
795.537	0.0136395
795.615	0.0136239
795.693	0.0138286
795.771	0.0136935
795.849	0.0138165
795.927	0.0138817
796.005	0.0137430
796.083	0.0138519
796.162	0.0139001
796.240	0.0137387
796.318	0.0138548
796.396	0.0140480
796.474	0.0139455
796.552	0.0140213
796.630	0.0139185
796.708	0.0138611
796.787	0.0138705
796.865	0.0139043
796.943	0.0138280
797.021	0.0138409
797.099	0.0136858
797.177	0.0137400
797.255	0.0137888
797.333	0.0138424
797.412	0.0136848
797.490	0.0137707
797.568	0.0136219
797.646	0.0135103
797.724	0.0134816
797.802	0.0136163
797.880	0.0137814
797.958	0.0135727
798.037	0.0135703
798.115	0.0136028
798.193	0.0135452
798.271	0.0137350
798.349	0.0135686
798.427	0.0135855
798.505	0.0134648
798.583	0.0136511
798.662	0.0136490
798.740	0.0137305
798.818	0.0136536
798.896	0.0136577
798.974	0.0136507
799.052	0.0137268
799.130	0.0137875
799.208	0.0135851
799.287	0.0138335
799.365	0.0136935
799.443	0.0137859
799.521	0.0135828
799.599	0.0136242
799.677	0.0136729
799.755	0.0135887
799.833	0.0136916
799.912	0.0136385
799.990	0.0135601
800.068	0.0135455
800.146	0.0136517
800.224	0.0134640
800.302	0.0134544
800.380	0.0135338
800.458	0.0135920
800.537	0.0135170
800.615	0.0136179
800.693	0.0136919
800.771	0.0134952
800.849	0.0136293
800.927	0.0137918
801.005	0.0137476
801.083	0.0137601
801.162	0.0137466
801.240	0.0138740
801.318	0.0138499
801.396	0.0137627
801.474	0.0137897
801.552	0.0137108
801.630	0.0138842
801.708	0.0138741
801.787	0.0137708
801.865	0.0138103
801.943	0.0137572
802.021	0.0139227
802.099	0.0138916
802.177	0.0138914
802.255	0.0139050
802.333	0.0137241
802.412	0.0138907
802.490	0.0138808
802.568	0.0137783
802.646	0.0138564
802.724	0.0138002
802.802	0.0136748
802.880	0.0136541
802.958	0.0136168
803.037	0.0134776
803.115	0.0133681
803.193	0.0133556
803.271	0.0133854
803.349	0.0133547
803.427	0.0135211
803.505	0.0134159
803.583	0.0133030
803.662	0.0133916
803.740	0.0132174
803.818	0.0132574
803.896	0.0133507
803.974	0.0136016
804.052	0.0135490
804.130	0.0136185
804.208	0.0137521
804.287	0.0136476
804.365	0.0137094
804.443	0.0138489
804.521	0.0140759
804.599	0.0139270
804.677	0.0139680
804.755	0.0140649
804.833	0.0141831
804.912	0.0141784
804.990	0.0141411
805.068	0.0139670
805.146	0.0141839
805.224	0.0141319
805.302	0.0141454
805.380	0.0141470
805.458	0.0141854
805.537	0.0140417
805.615	0.0140932
805.693	0.0139974
805.771	0.0140881
805.849	0.0141315
805.927	0.0139893
806.005	0.0138574
806.083	0.0138824
806.162	0.0137514
806.240	0.0136653
806.318	0.0135378
806.396	0.0135992
806.474	0.0135176
806.552	0.0133658
806.630	0.0134109
806.708	0.0133031
806.787	0.0134023
806.865	0.0133990
806.943	0.0132839
807.021	0.0133224
807.099	0.0135190
807.177	0.0137077
807.255	0.0135398
807.333	0.0135593
807.412	0.0136510
807.490	0.0137930
807.568	0.0138816
807.646	0.0137691
807.724	0.0139924
807.802	0.0138387
807.880	0.0139697
807.958	0.0139686
808.037	0.0139335
808.115	0.0140237
808.193	0.0140502
808.271	0.0140028
808.349	0.0139273
808.427	0.0139786
808.505	0.0140704
808.583	0.0139290
808.662	0.0138651
808.740	0.0138180
808.818	0.0140144
808.896	0.0139189
808.974	0.0138212
809.052	0.0138185
809.130	0.0137074
809.208	0.0136570
809.287	0.0137052
809.365	0.0136275
809.443	0.0137104
809.521	0.0136682
809.599	0.0136784
809.677	0.0136647
809.755	0.0136050
809.833	0.0136169
809.912	0.0137836
809.990	0.0136516
810.068	0.0137024
810.146	0.0138038
810.224	0.0138331
810.302	0.0139200
810.380	0.0138704
810.458	0.0138667
810.537	0.0138863
810.615	0.0139507
810.693	0.0138685
810.771	0.0137766
810.849	0.0137983
810.927	0.0139147
811.005	0.0138668
811.083	0.0138297
811.162	0.0138598
811.240	0.0137329
811.318	0.0136698
811.396	0.0138325
811.474	0.0137289
811.552	0.0137136
811.630	0.0139539
811.708	0.0135754
811.787	0.0137608
811.865	0.0137112
811.943	0.0136084
812.021	0.0135311
812.099	0.0136517
812.177	0.0136550
812.255	0.0135735
812.333	0.0136649
812.412	0.0134648
812.490	0.0136700
812.568	0.0136774
812.646	0.0134430
812.724	0.0134956
812.802	0.0135648
812.880	0.0136370
812.958	0.0136171
813.037	0.0136804
813.115	0.0135025
813.193	0.0135160
813.271	0.0135166
813.349	0.0135702
813.427	0.0136082
813.505	0.0136685
813.583	0.0136452
813.662	0.0137512
813.740	0.0137862
813.818	0.0139222
813.896	0.0136315
813.974	0.0138686
814.052	0.0138411
814.130	0.0137529
814.208	0.0138588
814.287	0.0137709
814.365	0.0137954
814.443	0.0139587
814.521	0.0138302
814.599	0.0139043
814.677	0.0138208
814.755	0.0138464
814.833	0.0140551
814.912	0.0138582
814.990	0.0140121
815.068	0.0138519
815.146	0.0138470
815.224	0.0138680
815.302	0.0138027
815.380	0.0136762
815.458	0.0137429
815.537	0.0136611
815.615	0.0136987
815.693	0.0135643
815.771	0.0136393
815.849	0.0136591
815.927	0.0136838
816.005	0.0135616
816.083	0.0137424
816.162	0.0136840
816.240	0.0137833
816.318	0.0138413
816.396	0.0137405
816.474	0.0139285
816.552	0.0137167
816.630	0.0138024
816.708	0.0138371
816.787	0.0138020
816.865	0.0138744
816.943	0.0137126
817.021	0.0137785
817.099	0.0138775
817.177	0.0138091
817.255	0.0138296
817.333	0.0139109
817.412	0.0139438
817.490	0.0138149
817.568	0.0138817
817.646	0.0138546
817.724	0.0138815
817.802	0.0139610
817.880	0.0138961
817.958	0.0139148
818.037	0.0138255
818.115	0.0137200
818.193	0.0136964
818.271	0.0138662
818.349	0.0137225
818.427	0.0136822
818.505	0.0136614
818.583	0.0137804
818.662	0.0136409
818.740	0.0135734
818.818	0.0136186
818.896	0.0136749
818.974	0.0136857
819.052	0.0135168
819.130	0.0137537
819.208	0.0137247
819.287	0.0137040
819.365	0.0138247
819.443	0.0138664
819.521	0.0139450
819.599	0.0138950
819.677	0.0137373
819.755	0.0139761
819.833	0.0139000
819.912	0.0140300
819.990	0.0141288
820.068	0.0140165
820.146	0.0140620
820.224	0.0140347
820.302	0.0138256
820.380	0.0139684
820.458	0.0139246
820.537	0.0137936
820.615	0.0138272
820.693	0.0136362
820.771	0.0136966
820.849	0.0137621
820.927	0.0137466
821.005	0.0135260
821.083	0.0135752
821.162	0.0135574
821.240	0.0136059
821.318	0.0134549
821.396	0.0135038
821.474	0.0134763
821.552	0.0134827
821.630	0.0134306
821.708	0.0135937
821.787	0.0136388
821.865	0.0134624
821.943	0.0137051
822.021	0.0136702
822.099	0.0136995
822.177	0.0136437
822.255	0.0137458
822.333	0.0138459
822.412	0.0138759
822.490	0.0140922
822.568	0.0139472
822.646	0.0140347
822.724	0.0141462
822.802	0.0141042
822.880	0.0140100
822.958	0.0139998
823.037	0.0139949
823.115	0.0140754
823.193	0.0139886
823.271	0.0140205
823.349	0.0139087
823.427	0.0139084
823.505	0.0138180
823.583	0.0138942
823.662	0.0138023
823.740	0.0139345
823.818	0.0138781
823.896	0.0137389
823.974	0.0137190
824.052	0.0135704
824.130	0.0134583
824.208	0.0135530
824.287	0.0134503
824.365	0.0134330
824.443	0.0135225
824.521	0.0132783
824.599	0.0134389
824.677	0.0135336
824.755	0.0135366
824.833	0.0135883
824.912	0.0134409
824.990	0.0135303
825.068	0.0135905
825.146	0.0137503
825.224	0.0136913
825.302	0.0137844
825.380	0.0137464
825.458	0.0138472
825.537	0.0138728
825.615	0.0139739
825.693	0.0139203
825.771	0.0139124
825.849	0.0137805
825.927	0.0139180
826.005	0.0139285
826.083	0.0139098
826.162	0.0138541
826.240	0.0139378
826.318	0.0138799
826.396	0.0138563
826.474	0.0139028
826.552	0.0136530
826.630	0.0136662
826.708	0.0137610
826.787	0.0138255
826.865	0.0137405
826.943	0.0137379
827.021	0.0136605
827.099	0.0137368
827.177	0.0137749
827.255	0.0136215
827.333	0.0137182
827.412	0.0138460
827.490	0.0138832
827.568	0.0137874
827.646	0.0139088
827.724	0.0137357
827.802	0.0137724
827.880	0.0138483
827.958	0.0139303
828.037	0.0139968
828.115	0.0140333
828.193	0.0138700
828.271	0.0139575
828.349	0.0141073
828.427	0.0139472
828.505	0.0141352
828.583	0.0140284
828.662	0.0140074
828.740	0.0139578
828.818	0.0139046
828.896	0.0138300
828.974	0.0138361
829.052	0.0140154
829.130	0.0140759
829.208	0.0140009
829.287	0.0138847
829.365	0.0138081
829.443	0.0137846
829.521	0.0136818
829.599	0.0136564
829.677	0.0136501
829.755	0.0136855
829.833	0.0135419
829.912	0.0136759
829.990	0.0137119
830.068	0.0134834
830.146	0.0135876
830.224	0.0135133
830.302	0.0135871
830.380	0.0136697
830.458	0.0135632
830.537	0.0136706
830.615	0.0136897
830.693	0.0137680
830.771	0.0137606
830.849	0.0138550
830.927	0.0137155
831.005	0.0137968
831.083	0.0138086
831.162	0.0139639
831.240	0.0137202
831.318	0.0138624
831.396	0.0138618
831.474	0.0139347
831.552	0.0137896
831.630	0.0137402
831.708	0.0137234
831.787	0.0137711
831.865	0.0138852
831.943	0.0138278
832.021	0.0137061
832.099	0.0138770
832.177	0.0139573
832.255	0.0137555
832.333	0.0137930
832.412	0.0138261
832.490	0.0138699
832.568	0.0138677
832.646	0.0138488
832.724	0.0137445
832.802	0.0138825
832.880	0.0139458
832.958	0.0139886
833.037	0.0138808
833.115	0.0139123
833.193	0.0138132
833.271	0.0138739
833.349	0.0139127
833.427	0.0137366
833.505	0.0137595
833.583	0.0137934
833.662	0.0138120
833.740	0.0137958
833.818	0.0137042
833.896	0.0136960
833.974	0.0137873
834.052	0.0136962
834.130	0.0136198
834.208	0.0137443
834.287	0.0137585
834.365	0.0137916
834.443	0.0139630
834.521	0.0138920
834.599	0.0138087
834.677	0.0139031
834.755	0.0137925
834.833	0.0138198
834.912	0.0139056
834.990	0.0137455
835.068	0.0137350
835.146	0.0140039
835.224	0.0139698
835.302	0.0138486
835.380	0.0137637
835.458	0.0138004
835.537	0.0138738
835.615	0.0137067
835.693	0.0137759
835.771	0.0138431
835.849	0.0138856
835.927	0.0138139
836.005	0.0137781
836.083	0.0138415
836.162	0.0137492
836.240	0.0136411
836.318	0.0137100
836.396	0.0136664
836.474	0.0136298
836.552	0.0137022
836.630	0.0136586
836.708	0.0136652
836.787	0.0138287
836.865	0.0137048
836.943	0.0136310
837.021	0.0136450
837.099	0.0137934
837.177	0.0138496
837.255	0.0138034
837.333	0.0136362
837.412	0.0135927
837.490	0.0138480
837.568	0.0138325
837.646	0.0137772
837.724	0.0138678
837.802	0.0137075
837.880	0.0137821
837.958	0.0138393
838.037	0.0140474
838.115	0.0139731
838.193	0.0140556
838.271	0.0138346
838.349	0.0137200
838.427	0.0139102
838.505	0.0139989
838.583	0.0138470
838.662	0.0137426
838.740	0.0138301
838.818	0.0137630
838.896	0.0137717
838.974	0.0139497
839.052	0.0138393
839.130	0.0138709
839.208	0.0139082
839.287	0.0137897
839.365	0.0138021
839.443	0.0138325
839.521	0.0139006
839.599	0.0137695
839.677	0.0137882
839.755	0.0139188
839.833	0.0136845
839.912	0.0137094
839.990	0.0138031
840.068	0.0137124
840.146	0.0137820
840.224	0.0137739
840.302	0.0136469
840.380	0.0137392
840.458	0.0136991
840.537	0.0137137
840.615	0.0137206
840.693	0.0137369
840.771	0.0139327
840.849	0.0137962
840.927	0.0138060
841.005	0.0138176
841.083	0.0138918
841.162	0.0137868
841.240	0.0138749
841.318	0.0139038
841.396	0.0138242
841.474	0.0137865
841.552	0.0138155
841.630	0.0138454
841.708	0.0137796
841.787	0.0138026
841.865	0.0137717
841.943	0.0137679
842.021	0.0139161
842.099	0.0138246
842.177	0.0137675
842.255	0.0138873
842.333	0.0138935
842.412	0.0138316
842.490	0.0137318
842.568	0.0137283
842.646	0.0139691
842.724	0.0138004
842.802	0.0137287
842.880	0.0138269
842.958	0.0138433
843.037	0.0137916
843.115	0.0137754
843.193	0.0137343
843.271	0.0137287
843.349	0.0137517
843.427	0.0136425
843.505	0.0137076
843.583	0.0136774
843.662	0.0137264
843.740	0.0135681
843.818	0.0137324
843.896	0.0138535
843.974	0.0139022
844.052	0.0136234
844.130	0.0136789
844.208	0.0137349
844.287	0.0137498
844.365	0.0138030
844.443	0.0138755
844.521	0.0138105
844.599	0.0137207
844.677	0.0138383
844.755	0.0138184
844.833	0.0137853
844.912	0.0138448
844.990	0.0138888
845.068	0.0137899
845.146	0.0139310
845.224	0.0139922
845.302	0.0137201
845.380	0.0137269
845.458	0.0137410
845.537	0.0138814
845.615	0.0138406
845.693	0.0137940
845.771	0.0136676
845.849	0.0136087
845.927	0.0136975
846.005	0.0137047
846.083	0.0138942
846.162	0.0136379
846.240	0.0136250
846.318	0.0137215
846.396	0.0137796
846.474	0.0137870
846.552	0.0137107
846.630	0.0139007
846.708	0.0138954
846.787	0.0136595
846.865	0.0138496
846.943	0.0138705
847.021	0.0139355
847.099	0.0140248
847.177	0.0139165
847.255	0.0138235
847.333	0.0137608
847.412	0.0139678
847.490	0.0139439
847.568	0.0138218
847.646	0.0138972
847.724	0.0137774
847.802	0.0138622
847.880	0.0136882
847.958	0.0138885
848.037	0.0137874
848.115	0.0137719
848.193	0.0138764
848.271	0.0137221
848.349	0.0136185
848.427	0.0136242
848.505	0.0136171
848.583	0.0137343
848.662	0.0138202
848.740	0.0137205
848.818	0.0135649
848.896	0.0137350
848.974	0.0136909
849.052	0.0135818
849.130	0.0136846
849.208	0.0137485
849.287	0.0137398
849.365	0.0137180
849.443	0.0138046
849.521	0.0135330
849.599	0.0137045
849.677	0.0136790
849.755	0.0136945
849.833	0.0137571
849.912	0.0138871
849.990	0.0139113
850.068	0.0137096
850.146	0.0136825
850.224	0.0138543
850.302	0.0137421
850.380	0.0136806
850.458	0.0137532
850.537	0.0138090
850.615	0.0139029
850.693	0.0138703
850.771	0.0137249
850.849	0.0137929
850.927	0.0137324
851.005	0.0137556
851.083	0.0137747
851.162	0.0137773
851.240	0.0137231
851.318	0.0138233
851.396	0.0138258
851.474	0.0136347
851.552	0.0136140
851.630	0.0135747
851.708	0.0136407
851.787	0.0136958
851.865	0.0136919
851.943	0.0137402
852.021	0.0137959
852.099	0.0137079
852.177	0.0137482
852.255	0.0138346
852.333	0.0137887
852.412	0.0138274
852.490	0.0139113
852.568	0.0138165
852.646	0.0137991
852.724	0.0137997
852.802	0.0137485
852.880	0.0137823
852.958	0.0138058
853.037	0.0138992
853.115	0.0139149
853.193	0.0139399
853.271	0.0138311
853.349	0.0137299
853.427	0.0138766
853.505	0.0137214
853.583	0.0137402
853.662	0.0137221
853.740	0.0137975
853.818	0.0137392
853.896	0.0138647
853.974	0.0138522
854.052	0.0136852
854.130	0.0137895
854.208	0.0137055
854.287	0.0137015
854.365	0.0139014
854.443	0.0137641
854.521	0.0137094
854.599	0.0138628
854.677	0.0138315
854.755	0.0136929
854.833	0.0137308
854.912	0.0138592
854.990	0.0136776
855.068	0.0136147
855.146	0.0135201
855.224	0.0137423
855.302	0.0135200
855.380	0.0135430
855.458	0.0135623
855.537	0.0136489
855.615	0.0136184
855.693	0.0135447
855.771	0.0134469
855.849	0.0135944
855.927	0.0136825
856.005	0.0135840
856.083	0.0136277
856.162	0.0137932
856.240	0.0138459
856.318	0.0137975
856.396	0.0137112
856.474	0.0138078
856.552	0.0137921
856.630	0.0136896
856.708	0.0135981
856.787	0.0137402
856.865	0.0138444
856.943	0.0137922
857.021	0.0137733
857.099	0.0137802
857.177	0.0138786
857.255	0.0139099
857.333	0.0139990
857.412	0.0139451
857.490	0.0138565
857.568	0.0139774
857.646	0.0138551
857.724	0.0139750
857.802	0.0138835
857.880	0.0139018
857.958	0.0137914
858.037	0.0139228
858.115	0.0139405
858.193	0.0137485
858.271	0.0138044
858.349	0.0138683
858.427	0.0137018
858.505	0.0137305
858.583	0.0135918
858.662	0.0136664
858.740	0.0137314
858.818	0.0135493
858.896	0.0135509
858.974	0.0135854
859.052	0.0135585
859.130	0.0135477
859.208	0.0135110
859.287	0.0136347
859.365	0.0136123
859.443	0.0136119
859.521	0.0137129
859.599	0.0138052
859.677	0.0139662
859.755	0.0138384
859.833	0.0139104
859.912	0.0141062
859.990	0.0139909
860.068	0.0139358
860.146	0.0139852
860.224	0.0140224
860.302	0.0140708
860.380	0.0141007
860.458	0.0139720
860.537	0.0138395
860.615	0.0139057
860.693	0.0138512
860.771	0.0138451
860.849	0.0138680
860.927	0.0138141
861.005	0.0137951
861.083	0.0137991
861.162	0.0136839
861.240	0.0138023
861.318	0.0136853
861.396	0.0137521
861.474	0.0135576
861.552	0.0136674
861.630	0.0135474
861.708	0.0136159
861.787	0.0134818
861.865	0.0136495
861.943	0.0135941
862.021	0.0136309
862.099	0.0136850
862.177	0.0136579
862.255	0.0137617
862.333	0.0137878
862.412	0.0136958
862.490	0.0137865
862.568	0.0138245
862.646	0.0137955
862.724	0.0139467
862.802	0.0137133
862.880	0.0138346
862.958	0.0139303
863.037	0.0137920
863.115	0.0139165
863.193	0.0139229
863.271	0.0138972
863.349	0.0138387
863.427	0.0137612
863.505	0.0137711
863.583	0.0138235
863.662	0.0138979
863.740	0.0138737
863.818	0.0136472
863.896	0.0136690
863.974	0.0138316
864.052	0.0138683
864.130	0.0136998
864.208	0.0136177
864.287	0.0136221
864.365	0.0135603
864.443	0.0135516
864.521	0.0135999
864.599	0.0134924
864.677	0.0137168
864.755	0.0134816
864.833	0.0134965
864.912	0.0135236
864.990	0.0135038
865.068	0.0135747
865.146	0.0134809
865.224	0.0136786
865.302	0.0135790
865.380	0.0136050
865.458	0.0137498
865.537	0.0137608
865.615	0.0138107
865.693	0.0139168
865.771	0.0138353
865.849	0.0138139
865.927	0.0138919
866.005	0.0138025
866.083	0.0139989
866.162	0.0139990
866.240	0.0140028
866.318	0.0138418
866.396	0.0137371
866.474	0.0138881
866.552	0.0139685
866.630	0.0137856
866.708	0.0138988
866.787	0.0140371
866.865	0.0138997
866.943	0.0138222
867.021	0.0137038
867.099	0.0137727
867.177	0.0135653
867.255	0.0137493
867.333	0.0137177
867.412	0.0138014
867.490	0.0137411
867.568	0.0136709
867.646	0.0137415
867.724	0.0137980
867.802	0.0135923
867.880	0.0136616
867.958	0.0136124
868.037	0.0138552
868.115	0.0138015
868.193	0.0136665
868.271	0.0137236
868.349	0.0138113
868.427	0.0138483
868.505	0.0137543
868.583	0.0138995
868.662	0.0137956
868.740	0.0138517
868.818	0.0140067
868.896	0.0138933
868.974	0.0138140
869.052	0.0138035
869.130	0.0138857
869.208	0.0138747
869.287	0.0137643
869.365	0.0138657
869.443	0.0137492
869.521	0.0138303
869.599	0.0137289
869.677	0.0137093
869.755	0.0136115
869.833	0.0136900
869.912	0.0136102
869.990	0.0135338
870.068	0.0136600
870.146	0.0135526
870.224	0.0136805
870.302	0.0136264
870.380	0.0136912
870.458	0.0137711
870.537	0.0137856
870.615	0.0138480
870.693	0.0137571
870.771	0.0139293
870.849	0.0137463
870.927	0.0138834
871.005	0.0139021
871.083	0.0139861
871.162	0.0139146
871.240	0.0139235
871.318	0.0138483
871.396	0.0138743
871.474	0.0138174
871.552	0.0139093
871.630	0.0138492
871.708	0.0137966
871.787	0.0138239
871.865	0.0138327
871.943	0.0140028
872.021	0.0138757
872.099	0.0138168
872.177	0.0138220
872.255	0.0137444
872.333	0.0138271
872.412	0.0137293
872.490	0.0137323
872.568	0.0137860
872.646	0.0137192
872.724	0.0137062
872.802	0.0135656
872.880	0.0136568
872.958	0.0136777
873.037	0.0136538
873.115	0.0136687
873.193	0.0135837
873.271	0.0136643
873.349	0.0137199
873.427	0.0136504
873.505	0.0135934
873.583	0.0137885
873.662	0.0136739
873.740	0.0136285
873.818	0.0136702
873.896	0.0138146
873.974	0.0137493
874.052	0.0138430
874.130	0.0138844
874.208	0.0138177
874.287	0.0137557
874.365	0.0136718
874.443	0.0138168
874.521	0.0136712
874.599	0.0135052
874.677	0.0135500
874.755	0.0135999
874.833	0.0135735
874.912	0.0134837
874.990	0.0133971
875.068	0.0135009
875.146	0.0134793
875.224	0.0134475
875.302	0.0136727
875.380	0.0137631
875.458	0.0137878
875.537	0.0137817
875.615	0.0136790
875.693	0.0139375
875.771	0.0139107
875.849	0.0138725
875.927	0.0137711
876.005	0.0138976
876.083	0.0138593
876.162	0.0137355
876.240	0.0137147
876.318	0.0136608
876.396	0.0136411
876.474	0.0137154
876.552	0.0136520
876.630	0.0136093
876.708	0.0134701
876.787	0.0134563
876.865	0.0136135
876.943	0.0135817
877.021	0.0135698
877.099	0.0135992
877.177	0.0135199
877.255	0.0135888
877.333	0.0134481
877.412	0.0136193
877.490	0.0134945
877.568	0.0134766
877.646	0.0134237
877.724	0.0134555
877.802	0.0135346
877.880	0.0135576
877.958	0.0136040
878.037	0.0136593
878.115	0.0137535
878.193	0.0138906
878.271	0.0140984
878.349	0.0141388
878.427	0.0142299
878.505	0.0142683
878.583	0.0144395
878.662	0.0144604
878.740	0.0143424
878.818	0.0144944
878.896	0.0144534
878.974	0.0143068
879.052	0.0141605
879.130	0.0139972
879.208	0.0139021
879.287	0.0137618
879.365	0.0135643
879.443	0.0133356
879.521	0.0132195
879.599	0.0130753
879.677	0.0130923
879.755	0.0130834
879.833	0.0130162
879.912	0.0129380
879.990	0.0129776
880.068	0.0129839
880.146	0.0129363
880.224	0.0130775
880.302	0.0131541
880.380	0.0131245
880.458	0.0132401
880.537	0.0133784
880.615	0.0133931
880.693	0.0134803
880.771	0.0136075
880.849	0.0138225
880.927	0.0138844
881.005	0.0139558
881.083	0.0141120
881.162	0.0141978
881.240	0.0142907
881.318	0.0145779
881.396	0.0147072
881.474	0.0146497
881.552	0.0146687
881.630	0.0147646
881.708	0.0148502
881.787	0.0146045
881.865	0.0147105
881.943	0.0146278
882.021	0.0143564
882.099	0.0143852
882.177	0.0141577
882.255	0.0139046
882.333	0.0136670
882.412	0.0136203
882.490	0.0133448
882.568	0.0133613
882.646	0.0132030
882.724	0.0129842
882.802	0.0130452
882.880	0.0130370
882.958	0.0128634
883.037	0.0129793
883.115	0.0129517
883.193	0.0128762
883.271	0.0129294
883.349	0.0131085
883.427	0.0129095
883.505	0.0133553
883.583	0.0134985
883.662	0.0133959
883.740	0.0135465
883.818	0.0137222
883.896	0.0138301
883.974	0.0141014
884.052	0.0140579
884.130	0.0140121
884.208	0.0142455
884.287	0.0142294
884.365	0.0143599
884.443	0.0142427
884.521	0.0143983
884.599	0.0143633
884.677	0.0142092
884.755	0.0143726
884.833	0.0142667
884.912	0.0142017
884.990	0.0143037
885.068	0.0143443
885.146	0.0140142
885.224	0.0140697
885.302	0.0140620
885.380	0.0140041
885.458	0.0138963
885.537	0.0135991
885.615	0.0136806
885.693	0.0136051
885.771	0.0134897
885.849	0.0134698
885.927	0.0133717
886.005	0.0133389
886.083	0.0135004
886.162	0.0133998
886.240	0.0132593
886.318	0.0132977
886.396	0.0135189
886.474	0.0135355
886.552	0.0135311
886.630	0.0136137
886.708	0.0136169
886.787	0.0137879
886.865	0.0136777
886.943	0.0136656
887.021	0.0137717
887.099	0.0138441
887.177	0.0137019
887.255	0.0136996
887.333	0.0136745
887.412	0.0136318
887.490	0.0136907
887.568	0.0136755
887.646	0.0135545
887.724	0.0137151
887.802	0.0136297
887.880	0.0136581
887.958	0.0136193
888.037	0.0138069
888.115	0.0137245
888.193	0.0138459
888.271	0.0138718
888.349	0.0138927
888.427	0.0138593
888.505	0.0137236
888.583	0.0139590
888.662	0.0139443
888.740	0.0140813
888.818	0.0139510
888.896	0.0139191
888.974	0.0139900
889.052	0.0139502
889.130	0.0139104
889.208	0.0137933
889.287	0.0138483
889.365	0.0139450
889.443	0.0138178
889.521	0.0138223
889.599	0.0136868
889.677	0.0136249
889.755	0.0136731
889.833	0.0136138
889.912	0.0134795
889.990	0.0134660
890.068	0.0134469
890.146	0.0133558
890.224	0.0132320
890.302	0.0134134
890.380	0.0134985
890.458	0.0133490
890.537	0.0132871
890.615	0.0134801
890.693	0.0135222
890.771	0.0136609
890.849	0.0137570
890.927	0.0136986
891.005	0.0137348
891.083	0.0137761
891.162	0.0138049
891.240	0.0138557
891.318	0.0138416
891.396	0.0139749
891.474	0.0138955
891.552	0.0140634
891.630	0.0141425
891.708	0.0141695
891.787	0.0141544
891.865	0.0142507
891.943	0.0142018
892.021	0.0142789
892.099	0.0142171
892.177	0.0141355
892.255	0.0141221
892.333	0.0142561
892.412	0.0142076
892.490	0.0141313
892.568	0.0141058
892.646	0.0140409
892.724	0.0138051
892.802	0.0136978
892.880	0.0137386
892.958	0.0137119
893.037	0.0134684
893.115	0.0132948
893.193	0.0134185
893.271	0.0132925
893.349	0.0131990
893.427	0.0131650
893.505	0.0132845
893.583	0.0132401
893.662	0.0131837
893.740	0.0133721
893.818	0.0133476
893.896	0.0133105
893.974	0.0133816
894.052	0.0134470
894.130	0.0135246
894.208	0.0135418
894.287	0.0134383
894.365	0.0137956
894.443	0.0138117
894.521	0.0137836
894.599	0.0137987
894.677	0.0137288
894.755	0.0137951
894.833	0.0138678
894.912	0.0139086
894.990	0.0140750
895.068	0.0140466
895.146	0.0140112
895.224	0.0139326
895.302	0.0139974
895.380	0.0139604
895.458	0.0140974
895.537	0.0140297
895.615	0.0139179
895.693	0.0139728
895.771	0.0139835
895.849	0.0139714
895.927	0.0138474
896.005	0.0138535
896.083	0.0138247
896.162	0.0138102
896.240	0.0137823
896.318	0.0138573
896.396	0.0138762
896.474	0.0136984
896.552	0.0137913
896.630	0.0138778
896.708	0.0137052
896.787	0.0137228
896.865	0.0136938
896.943	0.0136154
897.021	0.0136797
897.099	0.0135482
897.177	0.0137187
897.255	0.0136510
897.333	0.0136443
897.412	0.0137424
897.490	0.0136206
897.568	0.0136307
897.646	0.0137875
897.724	0.0135617
897.802	0.0135142
897.880	0.0136931
897.958	0.0138136
898.037	0.0137666
898.115	0.0136923
898.193	0.0136709
898.271	0.0136245
898.349	0.0135697
898.427	0.0135447
898.505	0.0134420
898.583	0.0134850
898.662	0.0134708
898.740	0.0134281
898.818	0.0135048
898.896	0.0134808
898.974	0.0134052
899.052	0.0136293
899.130	0.0136147
899.208	0.0136410
899.287	0.0137408
899.365	0.0139817
899.443	0.0140811
899.521	0.0141582
899.599	0.0141045
899.677	0.0141962
899.755	0.0141681
899.833	0.0141247
899.912	0.0143933
899.990	0.0143154
900.068	0.0142615
900.146	0.0143333
900.224	0.0141941
900.302	0.0140936
900.380	0.0142505
900.458	0.0140524
900.537	0.0139809
900.615	0.0140162
900.693	0.0139720
900.771	0.0138800
900.849	0.0135737
900.927	0.0137357
901.005	0.0136263
901.083	0.0134841
901.162	0.0134284
901.240	0.0133525
901.318	0.0132460
901.396	0.0132868
901.474	0.0130600
901.552	0.0132996
901.630	0.0132773
901.708	0.0132129
901.787	0.0131575
901.865	0.0132590
901.943	0.0132779
902.021	0.0134301
902.099	0.0134782
902.177	0.0134837
902.255	0.0135815
902.333	0.0136337
902.412	0.0138384
902.490	0.0137803
902.568	0.0138107
902.646	0.0138107
902.724	0.0138342
902.802	0.0139745
902.880	0.0139620
902.958	0.0140993
903.037	0.0141854
903.115	0.0142001
903.193	0.0138946
903.271	0.0140633
903.349	0.0140293
903.427	0.0139668
903.505	0.0139471
903.583	0.0137981
903.662	0.0138360
903.740	0.0137660
903.818	0.0138961
903.896	0.0138383
903.974	0.0138479
904.052	0.0137681
904.130	0.0138359
904.208	0.0137336
904.287	0.0136765
904.365	0.0137061
904.443	0.0137263
904.521	0.0137127
904.599	0.0135879
904.677	0.0137088
904.755	0.0136515
904.833	0.0137138
904.912	0.0137119
904.990	0.0138059
905.068	0.0137863
905.146	0.0137335
905.224	0.0135979
905.302	0.0137261
905.380	0.0137449
905.458	0.0138071
905.537	0.0138152
905.615	0.0137997
905.693	0.0137929
905.771	0.0136738
905.849	0.0137255
905.927	0.0137761
906.005	0.0137521
906.083	0.0136842
906.162	0.0136940
906.240	0.0136761
906.318	0.0136176
906.396	0.0135526
906.474	0.0134686
906.552	0.0134875
906.630	0.0135576
906.708	0.0135021
906.787	0.0135944
906.865	0.0136870
906.943	0.0135558
907.021	0.0135818
907.099	0.0136468
907.177	0.0133842
907.255	0.0136269
907.333	0.0136538
907.412	0.0136871
907.490	0.0136174
907.568	0.0136872
907.646	0.0136667
907.724	0.0138094
907.802	0.0137088
907.880	0.0136221
907.958	0.0135369
908.037	0.0137943
908.115	0.0137797
908.193	0.0137752
908.271	0.0137103
908.349	0.0137879
908.427	0.0137251
908.505	0.0138238
908.583	0.0136973
908.662	0.0137418
908.740	0.0136607
908.818	0.0136801
908.896	0.0137064
908.974	0.0135471
909.052	0.0135909
909.130	0.0137473
909.208	0.0136254
909.287	0.0138004
909.365	0.0135928
909.443	0.0134888
909.521	0.0136292
909.599	0.0137572
909.677	0.0137318
909.755	0.0137244
909.833	0.0137123
909.912	0.0137682
909.990	0.0136349
910.068	0.0136678
910.146	0.0137179
910.224	0.0136369
910.302	0.0137316
910.380	0.0137686
910.458	0.0136392
910.537	0.0138181
910.615	0.0137186
910.693	0.0137540
910.771	0.0138544
910.849	0.0136667
910.927	0.0139099
911.005	0.0137325
911.083	0.0137506
911.162	0.0137857
911.240	0.0137389
911.318	0.0138177
911.396	0.0137621
911.474	0.0137054
911.552	0.0138631
911.630	0.0138525
911.708	0.0137473
911.787	0.0137335
911.865	0.0137073
911.943	0.0135257
912.021	0.0137022
912.099	0.0137777
912.177	0.0136866
912.255	0.0136359
912.333	0.0136821
912.412	0.0137612
912.490	0.0138821
912.568	0.0138427
912.646	0.0136469
912.724	0.0138868
912.802	0.0138835
912.880	0.0139120
912.958	0.0139938
913.037	0.0139586
913.115	0.0138683
913.193	0.0138839
913.271	0.0138172
913.349	0.0138306
913.427	0.0137386
913.505	0.0136684
913.583	0.0138660
913.662	0.0137288
913.740	0.0136350
913.818	0.0137320
913.896	0.0136416
913.974	0.0136557
914.052	0.0136137
914.130	0.0137610
914.208	0.0138136
914.287	0.0137840
914.365	0.0137451
914.443	0.0137370
914.521	0.0139449
914.599	0.0137521
914.677	0.0138448
914.755	0.0138643
914.833	0.0136964
914.912	0.0137454
914.990	0.0139361
915.068	0.0139285
915.146	0.0138795
915.224	0.0137425
915.302	0.0138840
915.380	0.0139157
915.458	0.0138538
915.537	0.0138107
915.615	0.0138845
915.693	0.0138659
915.771	0.0138373
915.849	0.0139877
915.927	0.0137703
916.005	0.0137086
916.083	0.0139322
916.162	0.0138349
916.240	0.0139563
916.318	0.0139427
916.396	0.0139490
916.474	0.0139773
916.552	0.0137115
916.630	0.0138992
916.708	0.0138155
916.787	0.0139346
916.865	0.0138728
916.943	0.0137708
917.021	0.0137463
917.099	0.0138256
917.177	0.0137157
917.255	0.0137846
917.333	0.0139154
917.412	0.0138427
917.490	0.0138125
917.568	0.0137518
917.646	0.0138923
917.724	0.0139838
917.802	0.0138931
917.880	0.0138982
917.958	0.0138911
918.037	0.0138944
918.115	0.0140569
918.193	0.0139416
918.271	0.0138917
918.349	0.0138789
918.427	0.0136876
918.505	0.0139211
918.583	0.0136628
918.662	0.0136958
918.740	0.0137785
918.818	0.0135941
918.896	0.0136089
918.974	0.0136653
919.052	0.0136761
919.130	0.0135625
919.208	0.0136835
919.287	0.0137096
919.365	0.0137038
919.443	0.0135991
919.521	0.0135898
919.599	0.0137715
919.677	0.0137101
919.755	0.0136175
919.833	0.0138013
919.912	0.0137780
919.990	0.0138429
920.068	0.0137802
920.146	0.0137833
920.224	0.0139386
920.302	0.0139330
920.380	0.0139512
920.458	0.0138715
920.537	0.0138287
920.615	0.0139398
920.693	0.0139677
920.771	0.0139569
920.849	0.0138687
920.927	0.0139220
921.005	0.0137873
921.083	0.0138194
921.162	0.0139461
921.240	0.0138017
921.318	0.0137865
921.396	0.0138153
921.474	0.0138920
921.552	0.0138455
921.630	0.0138207
921.708	0.0138179
921.787	0.0138000
921.865	0.0138157
921.943	0.0139259
922.021	0.0137873
922.099	0.0139183
922.177	0.0140482
922.255	0.0139386
922.333	0.0139372
922.412	0.0138578
922.490	0.0139320
922.568	0.0138724
922.646	0.0139644
922.724	0.0139404
922.802	0.0138333
922.880	0.0137820
922.958	0.0137237
923.037	0.0138457
923.115	0.0137991
923.193	0.0137257
923.271	0.0138135
923.349	0.0138042
923.427	0.0137624
923.505	0.0137789
923.583	0.0137502
923.662	0.0136662
923.740	0.0137904
923.818	0.0136310
923.896	0.0134955
923.974	0.0135679
924.052	0.0136356
924.130	0.0136272
924.208	0.0136286
924.287	0.0136677
924.365	0.0136395
924.443	0.0135288
924.521	0.0137572
924.599	0.0137833
924.677	0.0138408
924.755	0.0137725
924.833	0.0138167
924.912	0.0138877
924.990	0.0138363
925.068	0.0138468
925.146	0.0139500
925.224	0.0139351
925.302	0.0138764
925.380	0.0139053
925.458	0.0138818
925.537	0.0138577
925.615	0.0138836
925.693	0.0138149
925.771	0.0138140
925.849	0.0139507
925.927	0.0138024
926.005	0.0138863
926.083	0.0138810
926.162	0.0137394
926.240	0.0136690
926.318	0.0136732
926.396	0.0138303
926.474	0.0136730
926.552	0.0135696
926.630	0.0136053
926.708	0.0135254
926.787	0.0135478
926.865	0.0134868
926.943	0.0135538
927.021	0.0135420
927.099	0.0134900
927.177	0.0134781
927.255	0.0135651
927.333	0.0136481
927.412	0.0136758
927.490	0.0135320
927.568	0.0135512
927.646	0.0139524
927.724	0.0139026
927.802	0.0138041
927.880	0.0137975
927.958	0.0137853
928.037	0.0139706
928.115	0.0139421
928.193	0.0139092
928.271	0.0139881
928.349	0.0140294
928.427	0.0140433
928.505	0.0139411
928.583	0.0139719
928.662	0.0140955
928.740	0.0138134
928.818	0.0137153
928.896	0.0138628
928.974	0.0137961
929.052	0.0137670
929.130	0.0138555
929.208	0.0136914
929.287	0.0136427
929.365	0.0136630
929.443	0.0137030
929.521	0.0136706
929.599	0.0136270
929.677	0.0134727
929.755	0.0134072
929.833	0.0135688
929.912	0.0135793
929.990	0.0135117
930.068	0.0134822
930.146	0.0136220
930.224	0.0136288
930.302	0.0137019
930.380	0.0136005
930.458	0.0135841
930.537	0.0137231
930.615	0.0136974
930.693	0.0136739
930.771	0.0137233
930.849	0.0137350
930.927	0.0138193
931.005	0.0137589
931.083	0.0138417
931.162	0.0138905
931.240	0.0138760
931.318	0.0138713
931.396	0.0139030
931.474	0.0137899
931.552	0.0138625
931.630	0.0140049
931.708	0.0137698
931.787	0.0138874
931.865	0.0137959
931.943	0.0139217
932.021	0.0138084
932.099	0.0137616
932.177	0.0138657
932.255	0.0138449
932.333	0.0136437
932.412	0.0137109
932.490	0.0136327
932.568	0.0136144
932.646	0.0135569
932.724	0.0137283
932.802	0.0136272
932.880	0.0136350
932.958	0.0137583
933.037	0.0137389
933.115	0.0137299
933.193	0.0137333
933.271	0.0138183
933.349	0.0138051
933.427	0.0137458
933.505	0.0136214
933.583	0.0139057
933.662	0.0139478
933.740	0.0137234
933.818	0.0137675
933.896	0.0137457
933.974	0.0138670
934.052	0.0138038
934.130	0.0137651
934.208	0.0137472
934.287	0.0136549
934.365	0.0136812
934.443	0.0136906
934.521	0.0137857
934.599	0.0139233
934.677	0.0137470
934.755	0.0137020
934.833	0.0138313
934.912	0.0135958
934.990	0.0136708
935.068	0.0135953
935.146	0.0136741
935.224	0.0136669
935.302	0.0134615
935.380	0.0135303
935.458	0.0135488
935.537	0.0136350
935.615	0.0137025
935.693	0.0136765
935.771	0.0135139
935.849	0.0136736
935.927	0.0136501
936.005	0.0136024
936.083	0.0135710
936.162	0.0135551
936.240	0.0136953
936.318	0.0137534
936.396	0.0137656
936.474	0.0137369
936.552	0.0137139
936.630	0.0137304
936.708	0.0139043
936.787	0.0136913
936.865	0.0138998
936.943	0.0137009
937.021	0.0139674
937.099	0.0138062
937.177	0.0138399
937.255	0.0139890
937.333	0.0139612
937.412	0.0139000
937.490	0.0139354
937.568	0.0139757
937.646	0.0138834
937.724	0.0137840
937.802	0.0138388
937.880	0.0138403
937.958	0.0137615
938.037	0.0137912
938.115	0.0136758
938.193	0.0136845
938.271	0.0137128
938.349	0.0136288
938.427	0.0135329
938.505	0.0135589
938.583	0.0135480
938.662	0.0136857
938.740	0.0136512
938.818	0.0135249
938.896	0.0135856
938.974	0.0136227
939.052	0.0135145
939.130	0.0138003
939.208	0.0137351
939.287	0.0136414
939.365	0.0137132
939.443	0.0137794
939.521	0.0139350
939.599	0.0141076
939.677	0.0138963
939.755	0.0139743
939.833	0.0139374
939.912	0.0139641
939.990	0.0140582
940.068	0.0140703
940.146	0.0140517
940.224	0.0141654
940.302	0.0139462
940.380	0.0139247
940.458	0.0139032
940.537	0.0139535
940.615	0.0138754
940.693	0.0139104
940.771	0.0137545
940.849	0.0138003
940.927	0.0138696
941.005	0.0138280
941.083	0.0137680
941.162	0.0137778
941.240	0.0136600
941.318	0.0135558
941.396	0.0137241
941.474	0.0137213
941.552	0.0135970
941.630	0.0134914
941.708	0.0135303
941.787	0.0134881
941.865	0.0134321
941.943	0.0134585
942.021	0.0135546
942.099	0.0136214
942.177	0.0137268
942.255	0.0138721
942.333	0.0137568
942.412	0.0138432
942.490	0.0138663
942.568	0.0138474
942.646	0.0139420
942.724	0.0139317
942.802	0.0139207
942.880	0.0137923
942.958	0.0140870
943.037	0.0139393
943.115	0.0137679
943.193	0.0139108
943.271	0.0139398
943.349	0.0139002
943.427	0.0141715
943.505	0.0140921
943.583	0.0139848
943.662	0.0139697
943.740	0.0139472
943.818	0.0137955
943.896	0.0139220
943.974	0.0139591
944.052	0.0138660
944.130	0.0138149
944.208	0.0139530
944.287	0.0138374
944.365	0.0138876
944.443	0.0139021
944.521	0.0138476
944.599	0.0138520
944.677	0.0138874
944.755	0.0137992
944.833	0.0138056
944.912	0.0138054
944.990	0.0137177
945.068	0.0138036
945.146	0.0139839
945.224	0.0138152
945.302	0.0137691
945.380	0.0138036
945.458	0.0137138
945.537	0.0138359
945.615	0.0138068
945.693	0.0137555
945.771	0.0137868
945.849	0.0137690
945.927	0.0138423
946.005	0.0138344
946.083	0.0138451
946.162	0.0136984
946.240	0.0137812
946.318	0.0136662
946.396	0.0136460
946.474	0.0136629
946.552	0.0136023
946.630	0.0136182
946.708	0.0136568
946.787	0.0137564
946.865	0.0136360
946.943	0.0135884
947.021	0.0136349
947.099	0.0136309
947.177	0.0135728
947.255	0.0137420
947.333	0.0137682
947.412	0.0136337
947.490	0.0138052
947.568	0.0137280
947.646	0.0138091
947.724	0.0137080
947.802	0.0138653
947.880	0.0138253
947.958	0.0138208
948.037	0.0139401
948.115	0.0138245
948.193	0.0139240
948.271	0.0139454
948.349	0.0138350
948.427	0.0138920
948.505	0.0139708
948.583	0.0138714
948.662	0.0138161
948.740	0.0137709
948.818	0.0137205
948.896	0.0137009
948.974	0.0137653
949.052	0.0138682
949.130	0.0136777
949.208	0.0137887
949.287	0.0138141
949.365	0.0136338
949.443	0.0136139
949.521	0.0136830
949.599	0.0136781
949.677	0.0135877
949.755	0.0135834
949.833	0.0135876
949.912	0.0136155
949.990	0.0136703
950.068	0.0136364
950.146	0.0135246
950.224	0.0136581
950.302	0.0138142
950.380	0.0137012
950.458	0.0137256
950.537	0.0137495
950.615	0.0138339
950.693	0.0138273
950.771	0.0137794
950.849	0.0139874
950.927	0.0139379
951.005	0.0138153
951.083	0.0137783
951.162	0.0139560
951.240	0.0139058
951.318	0.0139352
951.396	0.0139831
951.474	0.0138583
951.552	0.0138749
951.630	0.0138314
951.708	0.0136858
951.787	0.0139420
951.865	0.0137576
951.943	0.0138374
952.021	0.0137405
952.099	0.0136277
952.177	0.0137049
952.255	0.0136885
952.333	0.0138323
952.412	0.0137421
952.490	0.0136638
952.568	0.0136335
952.646	0.0136349
952.724	0.0137813
952.802	0.0137504
952.880	0.0137780
952.958	0.0136720
953.037	0.0137215
953.115	0.0136050
953.193	0.0137588
953.271	0.0137009
953.349	0.0138223
953.427	0.0137257
953.505	0.0136742
953.583	0.0137212
953.662	0.0137870
953.740	0.0136962
953.818	0.0137661
953.896	0.0138461
953.974	0.0138052
954.052	0.0136983
954.130	0.0137946
954.208	0.0138929
954.287	0.0138161
954.365	0.0139082
954.443	0.0136716
954.521	0.0137799
954.599	0.0137948
954.677	0.0136435
954.755	0.0136755
954.833	0.0136814
954.912	0.0136872
954.990	0.0136291
955.068	0.0136360
955.146	0.0136031
955.224	0.0136145
955.302	0.0136142
955.380	0.0136896
955.458	0.0137728
955.537	0.0134745
955.615	0.0135999
955.693	0.0135875
955.771	0.0137773
955.849	0.0137692
955.927	0.0135743
956.005	0.0136995
956.083	0.0137678
956.162	0.0138467
956.240	0.0137320
956.318	0.0138316
956.396	0.0137153
956.474	0.0138136
956.552	0.0139477
956.630	0.0139403
956.708	0.0138786
956.787	0.0138223
956.865	0.0139667
956.943	0.0138596
957.021	0.0138059
957.099	0.0138481
957.177	0.0137408
957.255	0.0138629
957.333	0.0138271
957.412	0.0135542
957.490	0.0136671
957.568	0.0137907
957.646	0.0137220
957.724	0.0136275
957.802	0.0136650
957.880	0.0136201
957.958	0.0137255
958.037	0.0137687
958.115	0.0137211
958.193	0.0137288
958.271	0.0137267
958.349	0.0136738
958.427	0.0137359
958.505	0.0136900
958.583	0.0137229
958.662	0.0136996
958.740	0.0137649
958.818	0.0136537
958.896	0.0137259
958.974	0.0136782
959.052	0.0138145
959.130	0.0137572
959.208	0.0137258
959.287	0.0137168
959.365	0.0137547
959.443	0.0136059
959.521	0.0136923
959.599	0.0137798
959.677	0.0137971
959.755	0.0136923
959.833	0.0137584
959.912	0.0136913
959.990	0.0136827
960.068	0.0137414
960.146	0.0137215
960.224	0.0136177
960.302	0.0136434
960.380	0.0135386
960.458	0.0135664
960.537	0.0136637
960.615	0.0135681
960.693	0.0136372
960.771	0.0135592
960.849	0.0136287
960.927	0.0136710
961.005	0.0137180
961.083	0.0136202
961.162	0.0137228
961.240	0.0135850
961.318	0.0136064
961.396	0.0137498
961.474	0.0137027
961.552	0.0137226
961.630	0.0137695
961.708	0.0135349
961.787	0.0136368
961.865	0.0136739
961.943	0.0136377
962.021	0.0135521
962.099	0.0137002
962.177	0.0137029
962.255	0.0136523
962.333	0.0136545
962.412	0.0136933
962.490	0.0136274
962.568	0.0138432
962.646	0.0138165
962.724	0.0138456
962.802	0.0139545
962.880	0.0140396
962.958	0.0139453
963.037	0.0139835
963.115	0.0139348
963.193	0.0138004
963.271	0.0139214
963.349	0.0138516
963.427	0.0137945
963.505	0.0137427
963.583	0.0137957
963.662	0.0137738
963.740	0.0137360
963.818	0.0136562
963.896	0.0137374
963.974	0.0136613
964.052	0.0137819
964.130	0.0137413
964.208	0.0138099
964.287	0.0135427
964.365	0.0137907
964.443	0.0137860
964.521	0.0136282
964.599	0.0136980
964.677	0.0136225
964.755	0.0137365
964.833	0.0136237
964.912	0.0136572
964.990	0.0136198
965.068	0.0136240
965.146	0.0136215
965.224	0.0135883
965.302	0.0135705
965.380	0.0135213
965.458	0.0136945
965.537	0.0137560
965.615	0.0138236
965.693	0.0138567
965.771	0.0137395
965.849	0.0139136
965.927	0.0139227
966.005	0.0138959
966.083	0.0139534
966.162	0.0138972
966.240	0.0138131
966.318	0.0137492
966.396	0.0140155
966.474	0.0138823
966.552	0.0139331
966.630	0.0139253
966.708	0.0139375
966.787	0.0138012
966.865	0.0136590
966.943	0.0137709
967.021	0.0137022
967.099	0.0137460
967.177	0.0137330
967.255	0.0138795
967.333	0.0137602
967.412	0.0137071
967.490	0.0137911
967.568	0.0137719
967.646	0.0138023
967.724	0.0136984
967.802	0.0136488
967.880	0.0137007
967.958	0.0138316
968.037	0.0137019
968.115	0.0136839
968.193	0.0137090
968.271	0.0137917
968.349	0.0137034
968.427	0.0136054
968.505	0.0137409
968.583	0.0138007
968.662	0.0136454
968.740	0.0136576
968.818	0.0138304
968.896	0.0138839
968.974	0.0138176
969.052	0.0138003
969.130	0.0138575
969.208	0.0137309
969.287	0.0138815
969.365	0.0138649
969.443	0.0137820
969.521	0.0138036
969.599	0.0136810
969.677	0.0137662
969.755	0.0137856
969.833	0.0137413
969.912	0.0137054
