05/08/2022	19:44:35	Ver.	4.1	UNKNOWN
Optical Delay	649.989667	Delta X		0.078125	Sweeps	1	Scan Rate	0/0
Coordinates	Axis 1	NaN	Axis 2	NaN	Axis 3	NaN	Axis 4	NaN	Axis 5	NaN	Axis 6	0.000000
TX Power	0.000000	RX Power	0.000000

649.990	0.0136749
650.068	0.0136809
650.146	0.0137071
650.224	0.0136459
650.302	0.0135966
650.380	0.0135160
650.458	0.0136299
650.537	0.0136816
650.615	0.0136373
650.693	0.0137344
650.771	0.0136699
650.849	0.0137103
650.927	0.0137557
651.005	0.0136006
651.083	0.0136142
651.162	0.0136576
651.240	0.0135589
651.318	0.0136422
651.396	0.0137314
651.474	0.0137813
651.552	0.0136580
651.630	0.0137772
651.708	0.0135500
651.787	0.0136694
651.865	0.0136275
651.943	0.0137207
652.021	0.0136072
652.099	0.0137150
652.177	0.0135922
652.255	0.0135953
652.333	0.0137677
652.412	0.0136077
652.490	0.0136607
652.568	0.0136419
652.646	0.0135972
652.724	0.0135349
652.802	0.0137383
652.880	0.0135744
652.958	0.0136389
653.037	0.0137067
653.115	0.0135556
653.193	0.0136950
653.271	0.0136787
653.349	0.0135127
653.427	0.0136295
653.505	0.0137338
653.583	0.0136947
653.662	0.0136753
653.740	0.0137135
653.818	0.0135893
653.896	0.0137823
653.974	0.0136784
654.052	0.0137803
654.130	0.0135656
654.208	0.0135702
654.287	0.0137008
654.365	0.0138260
654.443	0.0136315
654.521	0.0135889
654.599	0.0135558
654.677	0.0137725
654.755	0.0137041
654.833	0.0138322
654.912	0.0137169
654.990	0.0136024
655.068	0.0138407
655.146	0.0137172
655.224	0.0136378
655.302	0.0136429
655.380	0.0135284
655.458	0.0137630
655.537	0.0137280
655.615	0.0136197
655.693	0.0136948
655.771	0.0136354
655.849	0.0135341
655.927	0.0135616
656.005	0.0135502
656.083	0.0134754
656.162	0.0136014
656.240	0.0136059
656.318	0.0136839
656.396	0.0137372
656.474	0.0136296
656.552	0.0136285
656.630	0.0136943
656.708	0.0137865
656.787	0.0136874
656.865	0.0137221
656.943	0.0136784
657.021	0.0136446
657.099	0.0137119
657.177	0.0137446
657.255	0.0137000
657.333	0.0136993
657.412	0.0136089
657.490	0.0137141
657.568	0.0137380
657.646	0.0137459
657.724	0.0138111
657.802	0.0138290
657.880	0.0137360
657.958	0.0138246
658.037	0.0136374
658.115	0.0137138
658.193	0.0138139
658.271	0.0137720
658.349	0.0136983
658.427	0.0137326
658.505	0.0137797
658.583	0.0136906
658.662	0.0137070
658.740	0.0137486
658.818	0.0138161
658.896	0.0137426
658.974	0.0137315
659.052	0.0138439
659.130	0.0136573
659.208	0.0138801
659.287	0.0137407
659.365	0.0137375
659.443	0.0137541
659.521	0.0136977
659.599	0.0137366
659.677	0.0136613
659.755	0.0137392
659.833	0.0137382
659.912	0.0136533
659.990	0.0137397
660.068	0.0136393
660.146	0.0136404
660.224	0.0137412
660.302	0.0137327
660.380	0.0136697
660.458	0.0136904
660.537	0.0136839
660.615	0.0136722
660.693	0.0137707
660.771	0.0138052
660.849	0.0138495
660.927	0.0137236
661.005	0.0135638
661.083	0.0137076
661.162	0.0138381
661.240	0.0136846
661.318	0.0137671
661.396	0.0135968
661.474	0.0136113
661.552	0.0137189
661.630	0.0137212
661.708	0.0137125
661.787	0.0136172
661.865	0.0136016
661.943	0.0137288
662.021	0.0138136
662.099	0.0136970
662.177	0.0138364
662.255	0.0138686
662.333	0.0135701
662.412	0.0137193
662.490	0.0138457
662.568	0.0136990
662.646	0.0137260
662.724	0.0136572
662.802	0.0135942
662.880	0.0136800
662.958	0.0139169
663.037	0.0138352
663.115	0.0137102
663.193	0.0138375
663.271	0.0137553
663.349	0.0138127
663.427	0.0136585
663.505	0.0137722
663.583	0.0138701
663.662	0.0137404
663.740	0.0136066
663.818	0.0138323
663.896	0.0137515
663.974	0.0136723
664.052	0.0138734
664.130	0.0136743
664.208	0.0136453
664.287	0.0138907
664.365	0.0138292
664.443	0.0137240
664.521	0.0137890
664.599	0.0137780
664.677	0.0139111
664.755	0.0137399
664.833	0.0135874
664.912	0.0135880
664.990	0.0136970
665.068	0.0138364
665.146	0.0136813
665.224	0.0137202
665.302	0.0135683
665.380	0.0136981
665.458	0.0136831
665.537	0.0136259
665.615	0.0137550
665.693	0.0136627
665.771	0.0138160
665.849	0.0137105
665.927	0.0135784
666.005	0.0137173
666.083	0.0136937
666.162	0.0137231
666.240	0.0135726
666.318	0.0137249
666.396	0.0136594
666.474	0.0136695
666.552	0.0138069
666.630	0.0138625
666.708	0.0137367
666.787	0.0136962
666.865	0.0137207
666.943	0.0136864
667.021	0.0136899
667.099	0.0137000
667.177	0.0138248
667.255	0.0136529
667.333	0.0135970
667.412	0.0136234
667.490	0.0136529
667.568	0.0136488
667.646	0.0137281
667.724	0.0136427
667.802	0.0136031
667.880	0.0136997
667.958	0.0137029
668.037	0.0137190
668.115	0.0135919
668.193	0.0138078
668.271	0.0137224
668.349	0.0135503
668.427	0.0136909
668.505	0.0136634
668.583	0.0136708
668.662	0.0136519
668.740	0.0136349
668.818	0.0135659
668.896	0.0137283
668.974	0.0136231
669.052	0.0136621
669.130	0.0137749
669.208	0.0137230
669.287	0.0136867
669.365	0.0136435
669.443	0.0135625
669.521	0.0135962
669.599	0.0135840
669.677	0.0137486
669.755	0.0136879
669.833	0.0136176
669.912	0.0136058
669.990	0.0136299
670.068	0.0137412
670.146	0.0135674
670.224	0.0137701
670.302	0.0136945
670.380	0.0136599
670.458	0.0136919
670.537	0.0137121
670.615	0.0137215
670.693	0.0136366
670.771	0.0136790
670.849	0.0137884
670.927	0.0136951
671.005	0.0136961
671.083	0.0137012
671.162	0.0137290
671.240	0.0137268
671.318	0.0136401
671.396	0.0137395
671.474	0.0137292
671.552	0.0136556
671.630	0.0136652
671.708	0.0136285
671.787	0.0136967
671.865	0.0136713
671.943	0.0137932
672.021	0.0136736
672.099	0.0136019
672.177	0.0136041
672.255	0.0136488
672.333	0.0136695
672.412	0.0135072
672.490	0.0136431
672.568	0.0136194
672.646	0.0135880
672.724	0.0136004
672.802	0.0136479
672.880	0.0137064
672.958	0.0134927
673.037	0.0136951
673.115	0.0135263
673.193	0.0136144
673.271	0.0135558
673.349	0.0135868
673.427	0.0136702
673.505	0.0135393
673.583	0.0136073
673.662	0.0137577
673.740	0.0136720
673.818	0.0135760
673.896	0.0136324
673.974	0.0135689
674.052	0.0136842
674.130	0.0136980
674.208	0.0135477
674.287	0.0136457
674.365	0.0136984
674.443	0.0137117
674.521	0.0137843
674.599	0.0138004
674.677	0.0136901
674.755	0.0137060
674.833	0.0136803
674.912	0.0137612
674.990	0.0136915
675.068	0.0136491
675.146	0.0135630
675.224	0.0135998
675.302	0.0136697
675.380	0.0135093
675.458	0.0135538
675.537	0.0136842
675.615	0.0137280
675.693	0.0136300
675.771	0.0136477
675.849	0.0136487
675.927	0.0138330
676.005	0.0137479
676.083	0.0139400
676.162	0.0138405
676.240	0.0141219
676.318	0.0141390
676.396	0.0139132
676.474	0.0137615
676.552	0.0137766
676.630	0.0134827
676.708	0.0133685
676.787	0.0133484
676.865	0.0131987
676.943	0.0131450
677.021	0.0131730
677.099	0.0133050
677.177	0.0133414
677.255	0.0136015
677.333	0.0138731
677.412	0.0139507
677.490	0.0141236
677.568	0.0141498
677.646	0.0143648
677.724	0.0146101
677.802	0.0146780
677.880	0.0146203
677.958	0.0145993
678.037	0.0145056
678.115	0.0143235
678.193	0.0141313
678.271	0.0137384
678.349	0.0133820
678.427	0.0129352
678.505	0.0128231
678.583	0.0125613
678.662	0.0124385
678.740	0.0124291
678.818	0.0122999
678.896	0.0123211
678.974	0.0125879
679.052	0.0129098
679.130	0.0132014
679.208	0.0136521
679.287	0.0139793
679.365	0.0142593
679.443	0.0145858
679.521	0.0146928
679.599	0.0145673
679.677	0.0145828
679.755	0.0144016
679.833	0.0143275
679.912	0.0141502
679.990	0.0141720
680.068	0.0141483
680.146	0.0141805
680.224	0.0143296
680.302	0.0144887
680.380	0.0146340
680.458	0.0146340
680.537	0.0147946
680.615	0.0148020
680.693	0.0146183
680.771	0.0143070
680.849	0.0139077
680.927	0.0136014
681.005	0.0129622
681.083	0.0127058
681.162	0.0124474
681.240	0.0119630
681.318	0.0116510
681.396	0.0114545
681.474	0.0113750
681.552	0.0112913
681.630	0.0113388
681.708	0.0115682
681.787	0.0115954
681.865	0.0121178
681.943	0.0127122
682.021	0.0129963
682.099	0.0135174
682.177	0.0142520
682.255	0.0148305
682.333	0.0154510
682.412	0.0157792
682.490	0.0159239
682.568	0.0163206
682.646	0.0162409
682.724	0.0164127
682.802	0.0161613
682.880	0.0160406
682.958	0.0158182
683.037	0.0155756
683.115	0.0153259
683.193	0.0152520
683.271	0.0150244
683.349	0.0145760
683.427	0.0142900
683.505	0.0139676
683.583	0.0136439
683.662	0.0131825
683.740	0.0127419
683.818	0.0123615
683.896	0.0120865
683.974	0.0118220
684.052	0.0116821
684.130	0.0113177
684.208	0.0113178
684.287	0.0114034
684.365	0.0111020
684.443	0.0109568
684.521	0.0109169
684.599	0.0109125
684.677	0.0108049
684.755	0.0106895
684.833	0.0107507
684.912	0.0107869
684.990	0.0109407
685.068	0.0112073
685.146	0.0115448
685.224	0.0119956
685.302	0.0129861
685.380	0.0137975
685.458	0.0148086
685.537	0.0160970
685.615	0.0173317
685.693	0.0184246
685.771	0.0195149
685.849	0.0202847
685.927	0.0207912
686.005	0.0210590
686.083	0.0211126
686.162	0.0208065
686.240	0.0201985
686.318	0.0194116
686.396	0.0182015
686.474	0.0171336
686.552	0.0157513
686.630	0.0142736
686.708	0.0129784
686.787	0.0117181
686.865	0.0106998
686.943	0.00983101
687.021	0.00898369
687.099	0.00860786
687.177	0.00823631
687.255	0.00800659
687.333	0.00805733
687.412	0.00800690
687.490	0.00823059
687.568	0.00825760
687.646	0.00861778
687.724	0.00875290
687.802	0.00904358
687.880	0.00939713
687.958	0.00963676
688.037	0.0100755
688.115	0.0103355
688.193	0.0107169
688.271	0.0112016
688.349	0.0117559
688.427	0.0125095
688.505	0.0135236
688.583	0.0145265
688.662	0.0157186
688.740	0.0170534
688.818	0.0184602
688.896	0.0195975
688.974	0.0207504
689.052	0.0217139
689.130	0.0225328
689.208	0.0228439
689.287	0.0227457
689.365	0.0226045
689.443	0.0221609
689.521	0.0212384
689.599	0.0203025
689.677	0.0190995
689.755	0.0176302
689.833	0.0165353
689.912	0.0151179
689.990	0.0138218
690.068	0.0125809
690.146	0.0115239
690.224	0.0103376
690.302	0.00933266
690.380	0.00860146
690.458	0.00808723
690.537	0.00744766
690.615	0.00698639
690.693	0.00692802
690.771	0.00686707
690.849	0.00693436
690.927	0.00686577
691.005	0.00702629
691.083	0.00733902
691.162	0.00757195
691.240	0.00780571
691.318	0.00810524
691.396	0.00863388
691.474	0.00929405
691.552	0.0100523
691.630	0.0108657
691.708	0.0119328
691.787	0.0130866
691.865	0.0143351
691.943	0.0156626
692.021	0.0168684
692.099	0.0182942
692.177	0.0196485
692.255	0.0208511
692.333	0.0217001
692.412	0.0224553
692.490	0.0227837
692.568	0.0227068
692.646	0.0225149
692.724	0.0218046
692.802	0.0207963
692.880	0.0197879
692.958	0.0185633
693.037	0.0173200
693.115	0.0161945
693.193	0.0147237
693.271	0.0134187
693.349	0.0123633
693.427	0.0114460
693.505	0.0105453
693.583	0.00985306
693.662	0.00942177
693.740	0.00919441
693.818	0.00905006
693.896	0.00917999
693.974	0.00926376
694.052	0.00956627
694.130	0.00991554
694.208	0.0103876
694.287	0.0107445
694.365	0.0112099
694.443	0.0116518
694.521	0.0121239
694.599	0.0124782
694.677	0.0128767
694.755	0.0132289
694.833	0.0133895
694.912	0.0134999
694.990	0.0136221
695.068	0.0136648
695.146	0.0134934
695.224	0.0134937
695.302	0.0133351
695.380	0.0132018
695.458	0.0132195
695.537	0.0131355
695.615	0.0130888
695.693	0.0132847
695.771	0.0132951
695.849	0.0134610
695.927	0.0134586
696.005	0.0137047
696.083	0.0140063
696.162	0.0141061
696.240	0.0145441
696.318	0.0147097
696.396	0.0150072
696.474	0.0153085
696.552	0.0156316
696.630	0.0157031
696.708	0.0158493
696.787	0.0158908
696.865	0.0160406
696.943	0.0158772
697.021	0.0159338
697.099	0.0158168
697.177	0.0157387
697.255	0.0156608
697.333	0.0153761
697.412	0.0151606
697.490	0.0148104
697.568	0.0143510
697.646	0.0142837
697.724	0.0139533
697.802	0.0135203
697.880	0.0132806
697.958	0.0131107
698.037	0.0127525
698.115	0.0124670
698.193	0.0122974
698.271	0.0122131
698.349	0.0119529
698.427	0.0117094
698.505	0.0115276
698.583	0.0112434
698.662	0.0111650
698.740	0.0109708
698.818	0.0107021
698.896	0.0107056
698.974	0.0109136
699.052	0.0111431
699.130	0.0112584
699.208	0.0115546
699.287	0.0120102
699.365	0.0125811
699.443	0.0131053
699.521	0.0138366
699.599	0.0145595
699.677	0.0148781
699.755	0.0155223
699.833	0.0162917
699.912	0.0163921
699.990	0.0165838
700.068	0.0166003
700.146	0.0165513
700.224	0.0162827
700.302	0.0159716
700.380	0.0155365
700.458	0.0151023
700.537	0.0146707
700.615	0.0143207
700.693	0.0136966
700.771	0.0133168
700.849	0.0129431
700.927	0.0126831
701.005	0.0126460
701.083	0.0125398
701.162	0.0125858
701.240	0.0125245
701.318	0.0128822
701.396	0.0129656
701.474	0.0131046
701.552	0.0131297
701.630	0.0134461
701.708	0.0134464
701.787	0.0133086
701.865	0.0133128
701.943	0.0132015
702.021	0.0129638
702.099	0.0128830
702.177	0.0127647
702.255	0.0126823
702.333	0.0125980
702.412	0.0125386
702.490	0.0126551
702.568	0.0126576
702.646	0.0128070
702.724	0.0130289
702.802	0.0131511
702.880	0.0133156
702.958	0.0138314
703.037	0.0140816
703.115	0.0145332
703.193	0.0149468
703.271	0.0150655
703.349	0.0156289
703.427	0.0157002
703.505	0.0156893
703.583	0.0161404
703.662	0.0160547
703.740	0.0160604
703.818	0.0159013
703.896	0.0156830
703.974	0.0155386
704.052	0.0151738
704.130	0.0147194
704.208	0.0144044
704.287	0.0140258
704.365	0.0136863
704.443	0.0134361
704.521	0.0132100
704.599	0.0129171
704.677	0.0127681
704.755	0.0125700
704.833	0.0123507
704.912	0.0122897
704.990	0.0121832
705.068	0.0121294
705.146	0.0120120
705.224	0.0119975
705.302	0.0120187
705.380	0.0117947
705.458	0.0116311
705.537	0.0117818
705.615	0.0117561
705.693	0.0115916
705.771	0.0117197
705.849	0.0117422
705.927	0.0117657
706.005	0.0116698
706.083	0.0119373
706.162	0.0121120
706.240	0.0122059
706.318	0.0124522
706.396	0.0127066
706.474	0.0129559
706.552	0.0133932
706.630	0.0136000
706.708	0.0141164
706.787	0.0144956
706.865	0.0147404
706.943	0.0151563
707.021	0.0155547
707.099	0.0157381
707.177	0.0159430
707.255	0.0160942
707.333	0.0162125
707.412	0.0162542
707.490	0.0162981
707.568	0.0163914
707.646	0.0162200
707.724	0.0161598
707.802	0.0162711
707.880	0.0159892
707.958	0.0160041
708.037	0.0158636
708.115	0.0156402
708.193	0.0155478
708.271	0.0151160
708.349	0.0149563
708.427	0.0148299
708.505	0.0141696
708.583	0.0139232
708.662	0.0134370
708.740	0.0127683
708.818	0.0125067
708.896	0.0120535
708.974	0.0117855
709.052	0.0115288
709.130	0.0109258
709.208	0.0107423
709.287	0.0106183
709.365	0.0105056
709.443	0.0104571
709.521	0.0106171
709.599	0.0109189
709.677	0.0111552
709.755	0.0114962
709.833	0.0118941
709.912	0.0120840
709.990	0.0124762
710.068	0.0128475
710.146	0.0131738
710.224	0.0135085
710.302	0.0139433
710.380	0.0141437
710.458	0.0142500
710.537	0.0144968
710.615	0.0144934
710.693	0.0146178
710.771	0.0145090
710.849	0.0146434
710.927	0.0145049
711.005	0.0142652
711.083	0.0141359
711.162	0.0140527
711.240	0.0138538
711.318	0.0138306
711.396	0.0138779
711.474	0.0139109
711.552	0.0139271
711.630	0.0139685
711.708	0.0141079
711.787	0.0141023
711.865	0.0142722
711.943	0.0143246
712.021	0.0143845
712.099	0.0143904
712.177	0.0144285
712.255	0.0145364
712.333	0.0145280
712.412	0.0146553
712.490	0.0145934
712.568	0.0146887
712.646	0.0146313
712.724	0.0145602
712.802	0.0146271
712.880	0.0146120
712.958	0.0143929
713.037	0.0143932
713.115	0.0142167
713.193	0.0139115
713.271	0.0140499
713.349	0.0138083
713.427	0.0137597
713.505	0.0136378
713.583	0.0135494
713.662	0.0134434
713.740	0.0132887
713.818	0.0132426
713.896	0.0129956
713.974	0.0131580
714.052	0.0130894
714.130	0.0129855
714.208	0.0129005
714.287	0.0128863
714.365	0.0130319
714.443	0.0128968
714.521	0.0128732
714.599	0.0131289
714.677	0.0131538
714.755	0.0134142
714.833	0.0133847
714.912	0.0134343
714.990	0.0136474
715.068	0.0137640
715.146	0.0140281
715.224	0.0142631
715.302	0.0142406
715.380	0.0143094
715.458	0.0143748
715.537	0.0142260
715.615	0.0143272
715.693	0.0143557
715.771	0.0141242
715.849	0.0138535
715.927	0.0137247
716.005	0.0135244
716.083	0.0134589
716.162	0.0132533
716.240	0.0131631
716.318	0.0129745
716.396	0.0129037
716.474	0.0126937
716.552	0.0126944
716.630	0.0127887
716.708	0.0128849
716.787	0.0129974
716.865	0.0129886
716.943	0.0132349
717.021	0.0133258
717.099	0.0134368
717.177	0.0137313
717.255	0.0139735
717.333	0.0139355
717.412	0.0140738
717.490	0.0140309
717.568	0.0143121
717.646	0.0142860
717.724	0.0143287
717.802	0.0142267
717.880	0.0142190
717.958	0.0142115
718.037	0.0141470
718.115	0.0141333
718.193	0.0140587
718.271	0.0141010
718.349	0.0142975
718.427	0.0141727
718.505	0.0142984
718.583	0.0143610
718.662	0.0143641
718.740	0.0143728
718.818	0.0144946
718.896	0.0142622
718.974	0.0141676
719.052	0.0141457
719.130	0.0138782
719.208	0.0137496
719.287	0.0135661
719.365	0.0135864
719.443	0.0134324
719.521	0.0134546
719.599	0.0133851
719.677	0.0133569
719.755	0.0133680
719.833	0.0135638
719.912	0.0135221
719.990	0.0134451
720.068	0.0137022
720.146	0.0136492
720.224	0.0136422
720.302	0.0136588
720.380	0.0137267
720.458	0.0134972
720.537	0.0135845
720.615	0.0135741
720.693	0.0135297
720.771	0.0135110
720.849	0.0134649
720.927	0.0134719
721.005	0.0134393
721.083	0.0134039
721.162	0.0133145
721.240	0.0131961
721.318	0.0131686
721.396	0.0130264
721.474	0.0130849
721.552	0.0129086
721.630	0.0128320
721.708	0.0128561
721.787	0.0128703
721.865	0.0130543
721.943	0.0131799
722.021	0.0131131
722.099	0.0132751
722.177	0.0133202
722.255	0.0133308
722.333	0.0133560
722.412	0.0135227
722.490	0.0134785
722.568	0.0133861
722.646	0.0134990
722.724	0.0135593
722.802	0.0134679
722.880	0.0137741
722.958	0.0137733
723.037	0.0135764
723.115	0.0139372
723.193	0.0140434
723.271	0.0140721
723.349	0.0141220
723.427	0.0143500
723.505	0.0142522
723.583	0.0143414
723.662	0.0143994
723.740	0.0142990
723.818	0.0143488
723.896	0.0143152
723.974	0.0143743
724.052	0.0144252
724.130	0.0143157
724.208	0.0143745
724.287	0.0143243
724.365	0.0143327
724.443	0.0142934
724.521	0.0143323
724.599	0.0143640
724.677	0.0141615
724.755	0.0141414
724.833	0.0141634
724.912	0.0140131
724.990	0.0138727
725.068	0.0138629
725.146	0.0138439
725.224	0.0137503
725.302	0.0137788
725.380	0.0137543
725.458	0.0136374
725.537	0.0137034
725.615	0.0135778
725.693	0.0135716
725.771	0.0137009
725.849	0.0135831
725.927	0.0134547
726.005	0.0133550
726.083	0.0135026
726.162	0.0133585
726.240	0.0131839
726.318	0.0132736
726.396	0.0131188
726.474	0.0131387
726.552	0.0129665
726.630	0.0129933
726.708	0.0130255
726.787	0.0131178
726.865	0.0131974
726.943	0.0131549
727.021	0.0131654
727.099	0.0131832
727.177	0.0131986
727.255	0.0134011
727.333	0.0134092
727.412	0.0133158
727.490	0.0134941
727.568	0.0133898
727.646	0.0134486
727.724	0.0135555
727.802	0.0136432
727.880	0.0134592
727.958	0.0135435
728.037	0.0136508
728.115	0.0136029
728.193	0.0135520
728.271	0.0136401
728.349	0.0137603
728.427	0.0137286
728.505	0.0138541
728.583	0.0137928
728.662	0.0138422
728.740	0.0138507
728.818	0.0140618
728.896	0.0141880
728.974	0.0141582
729.052	0.0140455
729.130	0.0141301
729.208	0.0142664
729.287	0.0142467
729.365	0.0141943
729.443	0.0142121
729.521	0.0140614
729.599	0.0140872
729.677	0.0141829
729.755	0.0139513
729.833	0.0140833
729.912	0.0140233
729.990	0.0140576
730.068	0.0139423
730.146	0.0140113
730.224	0.0140186
730.302	0.0138300
730.380	0.0139632
730.458	0.0137639
730.537	0.0138922
730.615	0.0138577
730.693	0.0137689
730.771	0.0137624
730.849	0.0136935
730.927	0.0136282
731.005	0.0136082
731.083	0.0135744
731.162	0.0134244
731.240	0.0133369
731.318	0.0131539
731.396	0.0132919
731.474	0.0131648
731.552	0.0130682
731.630	0.0130252
731.708	0.0132019
731.787	0.0131227
731.865	0.0131783
731.943	0.0131625
732.021	0.0133102
732.099	0.0133563
732.177	0.0133967
732.255	0.0133016
732.333	0.0134184
732.412	0.0134468
732.490	0.0136250
732.568	0.0136464
732.646	0.0136696
732.724	0.0138108
732.802	0.0137922
732.880	0.0139451
732.958	0.0138727
733.037	0.0138584
733.115	0.0139931
733.193	0.0138528
733.271	0.0139050
733.349	0.0138297
733.427	0.0135815
733.505	0.0135741
733.583	0.0135748
733.662	0.0133785
733.740	0.0133388
733.818	0.0133386
733.896	0.0131643
733.974	0.0130887
734.052	0.0130437
734.130	0.0132359
734.208	0.0132793
734.287	0.0131938
734.365	0.0132436
734.443	0.0134636
734.521	0.0134770
734.599	0.0136266
734.677	0.0137057
734.755	0.0138882
734.833	0.0138969
734.912	0.0140852
734.990	0.0140343
735.068	0.0141270
735.146	0.0142313
735.224	0.0141045
735.302	0.0141867
735.380	0.0141249
735.458	0.0139050
735.537	0.0141331
735.615	0.0139857
735.693	0.0139667
735.771	0.0140928
735.849	0.0139735
735.927	0.0139215
736.005	0.0138996
736.083	0.0138010
736.162	0.0136946
736.240	0.0137946
736.318	0.0137095
736.396	0.0137342
736.474	0.0137234
736.552	0.0137437
736.630	0.0138189
736.708	0.0138678
736.787	0.0137502
736.865	0.0138037
736.943	0.0138885
737.021	0.0136698
737.099	0.0137553
737.177	0.0137995
737.255	0.0135892
737.333	0.0135072
737.412	0.0137194
737.490	0.0135198
737.568	0.0133170
737.646	0.0134293
737.724	0.0134521
737.802	0.0133966
737.880	0.0135407
737.958	0.0135587
738.037	0.0136618
738.115	0.0135634
738.193	0.0134473
738.271	0.0134299
738.349	0.0134740
738.427	0.0134874
738.505	0.0136446
738.583	0.0136052
738.662	0.0135556
738.740	0.0136675
738.818	0.0136759
738.896	0.0135899
738.974	0.0136523
739.052	0.0136817
739.130	0.0134978
739.208	0.0135818
739.287	0.0135914
739.365	0.0134872
739.443	0.0134283
739.521	0.0134557
739.599	0.0132899
739.677	0.0134414
739.755	0.0133468
739.833	0.0134058
739.912	0.0133369
739.990	0.0134319
740.068	0.0134515
740.146	0.0136206
740.224	0.0136666
740.302	0.0137301
740.380	0.0138174
740.458	0.0139362
740.537	0.0141346
740.615	0.0139816
740.693	0.0139587
740.771	0.0139381
740.849	0.0141351
740.927	0.0138396
741.005	0.0137894
741.083	0.0137823
741.162	0.0137462
741.240	0.0136285
741.318	0.0136690
741.396	0.0137460
741.474	0.0137411
741.552	0.0137416
741.630	0.0137183
741.708	0.0136951
741.787	0.0137537
741.865	0.0137896
741.943	0.0138987
742.021	0.0138652
742.099	0.0138615
742.177	0.0137156
742.255	0.0138172
742.333	0.0137816
742.412	0.0138671
742.490	0.0138630
742.568	0.0137242
742.646	0.0138396
742.724	0.0139673
742.802	0.0138998
742.880	0.0137239
742.958	0.0137560
743.037	0.0138430
743.115	0.0137273
743.193	0.0137939
743.271	0.0138018
743.349	0.0139070
743.427	0.0138702
743.505	0.0137906
743.583	0.0137877
743.662	0.0138513
743.740	0.0136557
743.818	0.0136003
743.896	0.0136536
743.974	0.0136133
744.052	0.0135461
744.130	0.0134772
744.208	0.0134268
744.287	0.0133297
744.365	0.0132542
744.443	0.0134198
744.521	0.0135480
744.599	0.0135560
744.677	0.0134792
744.755	0.0136399
744.833	0.0136124
744.912	0.0136120
744.990	0.0137260
745.068	0.0137402
745.146	0.0137399
745.224	0.0140130
745.302	0.0138610
745.380	0.0138667
745.458	0.0139217
745.537	0.0138515
745.615	0.0138811
745.693	0.0137273
745.771	0.0139149
745.849	0.0138377
745.927	0.0137218
746.005	0.0137236
746.083	0.0137981
746.162	0.0137060
746.240	0.0135583
746.318	0.0136489
746.396	0.0136275
746.474	0.0134841
746.552	0.0134645
746.630	0.0135033
746.708	0.0134046
746.787	0.0135190
746.865	0.0133316
746.943	0.0133415
747.021	0.0134627
747.099	0.0133967
747.177	0.0132961
747.255	0.0133714
747.333	0.0133883
747.412	0.0135207
747.490	0.0136041
747.568	0.0136296
747.646	0.0137772
747.724	0.0139358
747.802	0.0138868
747.880	0.0140353
747.958	0.0140642
748.037	0.0140836
748.115	0.0140481
748.193	0.0140706
748.271	0.0141599
748.349	0.0141332
748.427	0.0140510
748.505	0.0139302
748.583	0.0140285
748.662	0.0139845
748.740	0.0139829
748.818	0.0138199
748.896	0.0137885
748.974	0.0137943
749.052	0.0136561
749.130	0.0136459
749.208	0.0136726
749.287	0.0136948
749.365	0.0136952
749.443	0.0137510
749.521	0.0136445
749.599	0.0136938
749.677	0.0135847
749.755	0.0137251
749.833	0.0137576
749.912	0.0137932
749.990	0.0137386
750.068	0.0137994
750.146	0.0138171
750.224	0.0135791
750.302	0.0137099
750.380	0.0136923
750.458	0.0136765
750.537	0.0135857
750.615	0.0135946
750.693	0.0135117
750.771	0.0135143
750.849	0.0134922
750.927	0.0135009
751.005	0.0134793
751.083	0.0135416
751.162	0.0134635
751.240	0.0136141
751.318	0.0134915
751.396	0.0135397
751.474	0.0134611
751.552	0.0134392
751.630	0.0135085
751.708	0.0137063
751.787	0.0134801
751.865	0.0135507
751.943	0.0135473
752.021	0.0136411
752.099	0.0136412
752.177	0.0137712
752.255	0.0136811
752.333	0.0136166
752.412	0.0136971
752.490	0.0138049
752.568	0.0138381
752.646	0.0137589
752.724	0.0137589
752.802	0.0138118
752.880	0.0139021
752.958	0.0137503
753.037	0.0137933
753.115	0.0138589
753.193	0.0135983
753.271	0.0137637
753.349	0.0135170
753.427	0.0136500
753.505	0.0136098
753.583	0.0135283
753.662	0.0134929
753.740	0.0135648
753.818	0.0134297
753.896	0.0134556
753.974	0.0136137
754.052	0.0135607
754.130	0.0136207
754.208	0.0136174
754.287	0.0136485
754.365	0.0137395
754.443	0.0137546
754.521	0.0138506
754.599	0.0138500
754.677	0.0139484
754.755	0.0139613
754.833	0.0140074
754.912	0.0140296
754.990	0.0141171
755.068	0.0140489
755.146	0.0140163
755.224	0.0139858
755.302	0.0139194
755.380	0.0140400
755.458	0.0139994
755.537	0.0138464
755.615	0.0138369
755.693	0.0139131
755.771	0.0139120
755.849	0.0138916
755.927	0.0137889
756.005	0.0138796
756.083	0.0135995
756.162	0.0135509
756.240	0.0136960
756.318	0.0137209
756.396	0.0136907
756.474	0.0135841
756.552	0.0133983
756.630	0.0135760
756.708	0.0135227
756.787	0.0135561
756.865	0.0134380
756.943	0.0133572
757.021	0.0132886
757.099	0.0134013
757.177	0.0133115
757.255	0.0133860
757.333	0.0132735
757.412	0.0135223
757.490	0.0135111
757.568	0.0134874
757.646	0.0134495
757.724	0.0135587
757.802	0.0135735
757.880	0.0136783
757.958	0.0136731
758.037	0.0137511
758.115	0.0138389
758.193	0.0140047
758.271	0.0139220
758.349	0.0139122
758.427	0.0139436
758.505	0.0139372
758.583	0.0139103
758.662	0.0137701
758.740	0.0139613
758.818	0.0139247
758.896	0.0139136
758.974	0.0139103
759.052	0.0140149
759.130	0.0137994
759.208	0.0140073
759.287	0.0138755
759.365	0.0136931
759.443	0.0137896
759.521	0.0137705
759.599	0.0137503
759.677	0.0134881
759.755	0.0136172
759.833	0.0135331
759.912	0.0135767
759.990	0.0136135
760.068	0.0134632
760.146	0.0135139
760.224	0.0135184
760.302	0.0134927
760.380	0.0135892
760.458	0.0136240
760.537	0.0135151
760.615	0.0135419
760.693	0.0134437
760.771	0.0135461
760.849	0.0134949
760.927	0.0134804
761.005	0.0133608
761.083	0.0135513
761.162	0.0134627
761.240	0.0134029
761.318	0.0133032
761.396	0.0132870
761.474	0.0134000
761.552	0.0134631
761.630	0.0134281
761.708	0.0135209
761.787	0.0135474
761.865	0.0135857
761.943	0.0138206
762.021	0.0139622
762.099	0.0137976
762.177	0.0139252
762.255	0.0140458
762.333	0.0139528
762.412	0.0141378
762.490	0.0139893
762.568	0.0140096
762.646	0.0140910
762.724	0.0140520
762.802	0.0140173
762.880	0.0140652
762.958	0.0139225
763.037	0.0140472
763.115	0.0140580
763.193	0.0139973
763.271	0.0139636
763.349	0.0140050
763.427	0.0140106
763.505	0.0138450
763.583	0.0139027
763.662	0.0138931
763.740	0.0138464
763.818	0.0138033
763.896	0.0137115
763.974	0.0136787
764.052	0.0136649
764.130	0.0135757
764.208	0.0135983
764.287	0.0134751
764.365	0.0133770
764.443	0.0136290
764.521	0.0134907
764.599	0.0132970
764.677	0.0133521
764.755	0.0132921
764.833	0.0134180
764.912	0.0134735
764.990	0.0134160
765.068	0.0134203
765.146	0.0135966
765.224	0.0135774
765.302	0.0136884
765.380	0.0136709
765.458	0.0138586
765.537	0.0136479
765.615	0.0137926
765.693	0.0137065
765.771	0.0137029
765.849	0.0137718
765.927	0.0138656
766.005	0.0138132
766.083	0.0135954
766.162	0.0135804
766.240	0.0136290
766.318	0.0135505
766.396	0.0135671
766.474	0.0135531
766.552	0.0136373
766.630	0.0135379
766.708	0.0134633
766.787	0.0136634
766.865	0.0136578
766.943	0.0137403
767.021	0.0137183
767.099	0.0136329
767.177	0.0137594
767.255	0.0136840
767.333	0.0136458
767.412	0.0135951
767.490	0.0136314
767.568	0.0136380
767.646	0.0136300
767.724	0.0136113
767.802	0.0135330
767.880	0.0135315
767.958	0.0136230
768.037	0.0136429
768.115	0.0135470
768.193	0.0136205
768.271	0.0136710
768.349	0.0136896
768.427	0.0136594
768.505	0.0137488
768.583	0.0137092
768.662	0.0138432
768.740	0.0138771
768.818	0.0138026
768.896	0.0137856
768.974	0.0137531
769.052	0.0137811
769.130	0.0138559
769.208	0.0137227
769.287	0.0136862
769.365	0.0137366
769.443	0.0136961
769.521	0.0136874
769.599	0.0136944
769.677	0.0137180
769.755	0.0138004
769.833	0.0136159
769.912	0.0135051
769.990	0.0136758
770.068	0.0136570
770.146	0.0135544
770.224	0.0135896
770.302	0.0135274
770.380	0.0135675
770.458	0.0137207
770.537	0.0136076
770.615	0.0137515
770.693	0.0137893
770.771	0.0137184
770.849	0.0137675
770.927	0.0138225
771.005	0.0138255
771.083	0.0139012
771.162	0.0138214
771.240	0.0139671
771.318	0.0137505
771.396	0.0137988
771.474	0.0137947
771.552	0.0136841
771.630	0.0136620
771.708	0.0136173
771.787	0.0135105
771.865	0.0134740
771.943	0.0133575
772.021	0.0133887
772.099	0.0133919
772.177	0.0132121
772.255	0.0133421
772.333	0.0131989
772.412	0.0132562
772.490	0.0131642
772.568	0.0131484
772.646	0.0132018
772.724	0.0131478
772.802	0.0134785
772.880	0.0135335
772.958	0.0135503
773.037	0.0135221
773.115	0.0135345
773.193	0.0135645
773.271	0.0137090
773.349	0.0137719
773.427	0.0137064
773.505	0.0137815
773.583	0.0137957
773.662	0.0138184
773.740	0.0139228
773.818	0.0139522
773.896	0.0139577
773.974	0.0139904
774.052	0.0138803
774.130	0.0137714
774.208	0.0137488
774.287	0.0137695
774.365	0.0136819
774.443	0.0138093
774.521	0.0137648
774.599	0.0136389
774.677	0.0136697
774.755	0.0137305
774.833	0.0135929
774.912	0.0136022
774.990	0.0136394
775.068	0.0135043
775.146	0.0135551
775.224	0.0134946
775.302	0.0135950
775.380	0.0134756
775.458	0.0134599
775.537	0.0134695
775.615	0.0137027
775.693	0.0136241
775.771	0.0135520
775.849	0.0136716
775.927	0.0135970
776.005	0.0138533
776.083	0.0137837
776.162	0.0137377
776.240	0.0138074
776.318	0.0137768
776.396	0.0138348
776.474	0.0135670
776.552	0.0137849
776.630	0.0137662
776.708	0.0136203
776.787	0.0137101
776.865	0.0137185
776.943	0.0136890
777.021	0.0137181
777.099	0.0136590
777.177	0.0136623
777.255	0.0136748
777.333	0.0136517
777.412	0.0137719
777.490	0.0137795
777.568	0.0138698
777.646	0.0137185
777.724	0.0139022
777.802	0.0139500
777.880	0.0138657
777.958	0.0137631
778.037	0.0137598
778.115	0.0138322
778.193	0.0137649
778.271	0.0137041
778.349	0.0137301
778.427	0.0135169
778.505	0.0135072
778.583	0.0134564
778.662	0.0135262
778.740	0.0134617
778.818	0.0133446
778.896	0.0134538
778.974	0.0134596
779.052	0.0134250
779.130	0.0135496
779.208	0.0134673
779.287	0.0134777
779.365	0.0135036
779.443	0.0135501
779.521	0.0136584
779.599	0.0137202
779.677	0.0135228
779.755	0.0135875
779.833	0.0136472
779.912	0.0137573
779.990	0.0137334
780.068	0.0138687
780.146	0.0137075
780.224	0.0137560
780.302	0.0137222
780.380	0.0137326
780.458	0.0136503
780.537	0.0134267
780.615	0.0135153
780.693	0.0135250
780.771	0.0135316
780.849	0.0134096
780.927	0.0133431
781.005	0.0134007
781.083	0.0134551
781.162	0.0133974
781.240	0.0135348
781.318	0.0133517
781.396	0.0132198
781.474	0.0135142
781.552	0.0135019
781.630	0.0133936
781.708	0.0136021
781.787	0.0135408
781.865	0.0136577
781.943	0.0138317
782.021	0.0139960
782.099	0.0139850
782.177	0.0140049
782.255	0.0139647
782.333	0.0140814
782.412	0.0141134
782.490	0.0139691
782.568	0.0141045
782.646	0.0140116
782.724	0.0139701
782.802	0.0139102
782.880	0.0140090
782.958	0.0140765
783.037	0.0139371
783.115	0.0139197
783.193	0.0137895
783.271	0.0136849
783.349	0.0137548
783.427	0.0135670
783.505	0.0136883
783.583	0.0135622
783.662	0.0135586
783.740	0.0135130
783.818	0.0134393
783.896	0.0132851
783.974	0.0133833
784.052	0.0133170
784.130	0.0132975
784.208	0.0133368
784.287	0.0131616
784.365	0.0132105
784.443	0.0132730
784.521	0.0132652
784.599	0.0132410
784.677	0.0133411
784.755	0.0132581
784.833	0.0132408
784.912	0.0134865
784.990	0.0134749
785.068	0.0135764
785.146	0.0137609
785.224	0.0137539
785.302	0.0137666
785.380	0.0138213
785.458	0.0137923
785.537	0.0138589
785.615	0.0138815
785.693	0.0139789
785.771	0.0140321
785.849	0.0139952
785.927	0.0140417
786.005	0.0140448
786.083	0.0142046
786.162	0.0141083
786.240	0.0141373
786.318	0.0143048
786.396	0.0141076
786.474	0.0140858
786.552	0.0141058
786.630	0.0139670
786.708	0.0138616
786.787	0.0138625
786.865	0.0137216
786.943	0.0135648
787.021	0.0134457
787.099	0.0135255
787.177	0.0133407
787.255	0.0132885
787.333	0.0131370
787.412	0.0130388
787.490	0.0129675
787.568	0.0128820
787.646	0.0129256
787.724	0.0129197
787.802	0.0128072
787.880	0.0129215
787.958	0.0129726
788.037	0.0131881
788.115	0.0131198
788.193	0.0132646
788.271	0.0133846
788.349	0.0133655
788.427	0.0134533
788.505	0.0137045
788.583	0.0139107
788.662	0.0139452
788.740	0.0141203
788.818	0.0142477
788.896	0.0142395
788.974	0.0142326
789.052	0.0143431
789.130	0.0144875
789.208	0.0143527
789.287	0.0143884
789.365	0.0145531
789.443	0.0144379
789.521	0.0143875
789.599	0.0144194
789.677	0.0144528
789.755	0.0143684
789.833	0.0143519
789.912	0.0140545
789.990	0.0142126
790.068	0.0139975
790.146	0.0138156
790.224	0.0137356
790.302	0.0137396
790.380	0.0135086
790.458	0.0133941
790.537	0.0133586
790.615	0.0132488
790.693	0.0132024
790.771	0.0131043
790.849	0.0131868
790.927	0.0131666
791.005	0.0132315
791.083	0.0130801
791.162	0.0131184
791.240	0.0131154
791.318	0.0131893
791.396	0.0133587
791.474	0.0132395
791.552	0.0132596
791.630	0.0133422
791.708	0.0134369
791.787	0.0134401
791.865	0.0137260
791.943	0.0134470
792.021	0.0137624
792.099	0.0137585
792.177	0.0137093
792.255	0.0136699
792.333	0.0135271
792.412	0.0137877
792.490	0.0138963
792.568	0.0138888
792.646	0.0139056
792.724	0.0139125
792.802	0.0138657
792.880	0.0139979
792.958	0.0140791
793.037	0.0140382
793.115	0.0140804
793.193	0.0140286
793.271	0.0139009
793.349	0.0139820
793.427	0.0138097
793.505	0.0138152
793.583	0.0137739
793.662	0.0137446
793.740	0.0137357
793.818	0.0136325
793.896	0.0136257
793.974	0.0134449
794.052	0.0135219
794.130	0.0134129
794.208	0.0134708
794.287	0.0134251
794.365	0.0132653
794.443	0.0132600
794.521	0.0132775
794.599	0.0132499
794.677	0.0133912
794.755	0.0134067
794.833	0.0133428
794.912	0.0135929
794.990	0.0134054
795.068	0.0134024
795.146	0.0135099
795.224	0.0134803
795.302	0.0136501
795.380	0.0135943
795.458	0.0137122
795.537	0.0137467
795.615	0.0138748
795.693	0.0137535
795.771	0.0138155
795.849	0.0137704
795.927	0.0139175
796.005	0.0138308
796.083	0.0139210
796.162	0.0139391
796.240	0.0138495
796.318	0.0137915
796.396	0.0138334
796.474	0.0137507
796.552	0.0137150
796.630	0.0136281
796.708	0.0135741
796.787	0.0136311
796.865	0.0135890
796.943	0.0136833
797.021	0.0135574
797.099	0.0136020
797.177	0.0137040
797.255	0.0134770
797.333	0.0135142
797.412	0.0135281
797.490	0.0135598
797.568	0.0135239
797.646	0.0135059
797.724	0.0134771
797.802	0.0132854
797.880	0.0135156
797.958	0.0134380
798.037	0.0135140
798.115	0.0136086
798.193	0.0134701
798.271	0.0134892
798.349	0.0137032
798.427	0.0134782
798.505	0.0134309
798.583	0.0136185
798.662	0.0134880
798.740	0.0135291
798.818	0.0135799
798.896	0.0135924
798.974	0.0134099
799.052	0.0136762
799.130	0.0135331
799.208	0.0136223
799.287	0.0137502
799.365	0.0136617
799.443	0.0136909
799.521	0.0136637
799.599	0.0136834
799.677	0.0137305
799.755	0.0137015
799.833	0.0137717
799.912	0.0136501
799.990	0.0136596
800.068	0.0138921
800.146	0.0139114
800.224	0.0138942
800.302	0.0136906
800.380	0.0136342
800.458	0.0138258
800.537	0.0138660
800.615	0.0138787
800.693	0.0137430
800.771	0.0139107
800.849	0.0138657
800.927	0.0138834
801.005	0.0138417
801.083	0.0139977
801.162	0.0139782
801.240	0.0140110
801.318	0.0138555
801.396	0.0138767
801.474	0.0139720
801.552	0.0139457
801.630	0.0139420
801.708	0.0137572
801.787	0.0138638
801.865	0.0137701
801.943	0.0136381
802.021	0.0136042
802.099	0.0134338
802.177	0.0134904
802.255	0.0134872
802.333	0.0134397
802.412	0.0134159
802.490	0.0133833
802.568	0.0134669
802.646	0.0133892
802.724	0.0133776
802.802	0.0134095
802.880	0.0135189
802.958	0.0133996
803.037	0.0134311
803.115	0.0135657
803.193	0.0135736
803.271	0.0135621
803.349	0.0137383
803.427	0.0137244
803.505	0.0136924
803.583	0.0139241
803.662	0.0139355
803.740	0.0139368
803.818	0.0139895
803.896	0.0139953
803.974	0.0141297
804.052	0.0141888
804.130	0.0141632
804.208	0.0141173
804.287	0.0141421
804.365	0.0142235
804.443	0.0139764
804.521	0.0141222
804.599	0.0141080
804.677	0.0140257
804.755	0.0141705
804.833	0.0141265
804.912	0.0139803
804.990	0.0138680
805.068	0.0139111
805.146	0.0137549
805.224	0.0137660
805.302	0.0136871
805.380	0.0135677
805.458	0.0133297
805.537	0.0132820
805.615	0.0132660
805.693	0.0132801
805.771	0.0132145
805.849	0.0130720
805.927	0.0131233
806.005	0.0130016
806.083	0.0130996
806.162	0.0132956
806.240	0.0133137
806.318	0.0131969
806.396	0.0133668
806.474	0.0135175
806.552	0.0136292
806.630	0.0135898
806.708	0.0137283
806.787	0.0137399
806.865	0.0138463
806.943	0.0139890
807.021	0.0139677
807.099	0.0140208
807.177	0.0140321
807.255	0.0140146
807.333	0.0140042
807.412	0.0139967
807.490	0.0142424
807.568	0.0140012
807.646	0.0139971
807.724	0.0140131
807.802	0.0140086
807.880	0.0139496
807.958	0.0138615
808.037	0.0140195
808.115	0.0137968
808.193	0.0138836
808.271	0.0138084
808.349	0.0137437
808.427	0.0136288
808.505	0.0134924
808.583	0.0137100
808.662	0.0136022
808.740	0.0136000
808.818	0.0135824
808.896	0.0134432
808.974	0.0135668
809.052	0.0135738
809.130	0.0134384
809.208	0.0133407
809.287	0.0134464
809.365	0.0133418
809.443	0.0134024
809.521	0.0134977
809.599	0.0134897
809.677	0.0135011
809.755	0.0134538
809.833	0.0135881
809.912	0.0136799
809.990	0.0138103
810.068	0.0135950
810.146	0.0136639
810.224	0.0137053
810.302	0.0138308
810.380	0.0139258
810.458	0.0137643
810.537	0.0137471
810.615	0.0138202
810.693	0.0139139
810.771	0.0138138
810.849	0.0139172
810.927	0.0138230
811.005	0.0138731
811.083	0.0137675
811.162	0.0138081
811.240	0.0137082
811.318	0.0137001
811.396	0.0135892
811.474	0.0135601
811.552	0.0137267
811.630	0.0136673
811.708	0.0137177
811.787	0.0136402
811.865	0.0136799
811.943	0.0137720
812.021	0.0137576
812.099	0.0137466
812.177	0.0138618
812.255	0.0138281
812.333	0.0138303
812.412	0.0137740
812.490	0.0136739
812.568	0.0136850
812.646	0.0135934
812.724	0.0136028
812.802	0.0135431
812.880	0.0135110
812.958	0.0135577
813.037	0.0133730
813.115	0.0132577
813.193	0.0133743
813.271	0.0133406
813.349	0.0133243
813.427	0.0134231
813.505	0.0134476
813.583	0.0133295
813.662	0.0133785
813.740	0.0135553
813.818	0.0135669
813.896	0.0136208
813.974	0.0136581
814.052	0.0135150
814.130	0.0136442
814.208	0.0137377
814.287	0.0136418
814.365	0.0135166
814.443	0.0136749
814.521	0.0137887
814.599	0.0136822
814.677	0.0137074
814.755	0.0137595
814.833	0.0138425
814.912	0.0137530
814.990	0.0137668
815.068	0.0137925
815.146	0.0138896
815.224	0.0137677
815.302	0.0138520
815.380	0.0139120
815.458	0.0138527
815.537	0.0139096
815.615	0.0139747
815.693	0.0138889
815.771	0.0139751
815.849	0.0140376
815.927	0.0138671
816.005	0.0139212
816.083	0.0139869
816.162	0.0138379
816.240	0.0137801
816.318	0.0138824
816.396	0.0138598
816.474	0.0139844
816.552	0.0138017
816.630	0.0137030
816.708	0.0136990
816.787	0.0135979
816.865	0.0136546
816.943	0.0135013
817.021	0.0135167
817.099	0.0135143
817.177	0.0136418
817.255	0.0133842
817.333	0.0134100
817.412	0.0135545
817.490	0.0136230
817.568	0.0134734
817.646	0.0134663
817.724	0.0133693
817.802	0.0134546
817.880	0.0134502
817.958	0.0135619
818.037	0.0135152
818.115	0.0133733
818.193	0.0134785
818.271	0.0135224
818.349	0.0135437
818.427	0.0135641
818.505	0.0135207
818.583	0.0135976
818.662	0.0137250
818.740	0.0137357
818.818	0.0138348
818.896	0.0138802
818.974	0.0138300
819.052	0.0138039
819.130	0.0138350
819.208	0.0138120
819.287	0.0136756
819.365	0.0137788
819.443	0.0138635
819.521	0.0139065
819.599	0.0138329
819.677	0.0136689
819.755	0.0136520
819.833	0.0137580
819.912	0.0136899
819.990	0.0135884
820.068	0.0135507
820.146	0.0136369
820.224	0.0134297
820.302	0.0135318
820.380	0.0136459
820.458	0.0135973
820.537	0.0135254
820.615	0.0135717
820.693	0.0135624
820.771	0.0136148
820.849	0.0136787
820.927	0.0136010
821.005	0.0137144
821.083	0.0137682
821.162	0.0136815
821.240	0.0136221
821.318	0.0136140
821.396	0.0137891
821.474	0.0137266
821.552	0.0137472
821.630	0.0138601
821.708	0.0137701
821.787	0.0137343
821.865	0.0136749
821.943	0.0137665
822.021	0.0136741
822.099	0.0137974
822.177	0.0138940
822.255	0.0137750
822.333	0.0137090
822.412	0.0137215
822.490	0.0137564
822.568	0.0137215
822.646	0.0137028
822.724	0.0136864
822.802	0.0138232
822.880	0.0136884
822.958	0.0136411
823.037	0.0137375
823.115	0.0137413
823.193	0.0137297
823.271	0.0137271
823.349	0.0137942
823.427	0.0137508
823.505	0.0135203
823.583	0.0136674
823.662	0.0136359
823.740	0.0134749
823.818	0.0136253
823.896	0.0135891
823.974	0.0135336
824.052	0.0135851
824.130	0.0135939
824.208	0.0136738
824.287	0.0135954
824.365	0.0135829
824.443	0.0135480
824.521	0.0137350
824.599	0.0135609
824.677	0.0136536
824.755	0.0137948
824.833	0.0135799
824.912	0.0137667
824.990	0.0135718
825.068	0.0137244
825.146	0.0137722
825.224	0.0135471
825.302	0.0137009
825.380	0.0138879
825.458	0.0137370
825.537	0.0137657
825.615	0.0138845
825.693	0.0138496
825.771	0.0137541
825.849	0.0137122
825.927	0.0138522
826.005	0.0137115
826.083	0.0137823
826.162	0.0137996
826.240	0.0137463
826.318	0.0138731
826.396	0.0137830
826.474	0.0136850
826.552	0.0138982
826.630	0.0139312
826.708	0.0137566
826.787	0.0137775
826.865	0.0138627
826.943	0.0139146
827.021	0.0138628
827.099	0.0138664
827.177	0.0139059
827.255	0.0138368
827.333	0.0137816
827.412	0.0138343
827.490	0.0138203
827.568	0.0138351
827.646	0.0138087
827.724	0.0137442
827.802	0.0136928
827.880	0.0137888
827.958	0.0137272
828.037	0.0137783
828.115	0.0138406
828.193	0.0137327
828.271	0.0136691
828.349	0.0135415
828.427	0.0134901
828.505	0.0136985
828.583	0.0134438
828.662	0.0134474
828.740	0.0136184
828.818	0.0136139
828.896	0.0132466
828.974	0.0133227
829.052	0.0134309
829.130	0.0134357
829.208	0.0133751
829.287	0.0134328
829.365	0.0134351
829.443	0.0134074
829.521	0.0134775
829.599	0.0135899
829.677	0.0136475
829.755	0.0135373
829.833	0.0135613
829.912	0.0135474
829.990	0.0136688
830.068	0.0135735
830.146	0.0136068
830.224	0.0136349
830.302	0.0136610
830.380	0.0136521
830.458	0.0137122
830.537	0.0138127
830.615	0.0137753
830.693	0.0139232
830.771	0.0138670
830.849	0.0138090
830.927	0.0137936
831.005	0.0138557
831.083	0.0138992
831.162	0.0138657
831.240	0.0138163
831.318	0.0138422
831.396	0.0138190
831.474	0.0138259
831.552	0.0138087
831.630	0.0137549
831.708	0.0137992
831.787	0.0137236
831.865	0.0136527
831.943	0.0136944
832.021	0.0136993
832.099	0.0136445
832.177	0.0136227
832.255	0.0136788
832.333	0.0136275
832.412	0.0136406
832.490	0.0136053
832.568	0.0135815
832.646	0.0134470
832.724	0.0135588
832.802	0.0136756
832.880	0.0138077
832.958	0.0135996
833.037	0.0135915
833.115	0.0135717
833.193	0.0136107
833.271	0.0136976
833.349	0.0136137
833.427	0.0135414
833.505	0.0136152
833.583	0.0135545
833.662	0.0137811
833.740	0.0137439
833.818	0.0137075
833.896	0.0136864
833.974	0.0137347
834.052	0.0137291
834.130	0.0137978
834.208	0.0138139
834.287	0.0138841
834.365	0.0138115
834.443	0.0137644
834.521	0.0137044
834.599	0.0138417
834.677	0.0138008
834.755	0.0138472
834.833	0.0139275
834.912	0.0138073
834.990	0.0136977
835.068	0.0136544
835.146	0.0137421
835.224	0.0137675
835.302	0.0136293
835.380	0.0137492
835.458	0.0136426
835.537	0.0134390
835.615	0.0136294
835.693	0.0134836
835.771	0.0134856
835.849	0.0134039
835.927	0.0135281
836.005	0.0134859
836.083	0.0134122
836.162	0.0134486
836.240	0.0135701
836.318	0.0135095
836.396	0.0135867
836.474	0.0135002
836.552	0.0135013
836.630	0.0134349
836.708	0.0136562
836.787	0.0136415
836.865	0.0135830
836.943	0.0137129
837.021	0.0138345
837.099	0.0137677
837.177	0.0136378
837.255	0.0138191
837.333	0.0137610
837.412	0.0138964
837.490	0.0138364
837.568	0.0138015
837.646	0.0137577
837.724	0.0138820
837.802	0.0138739
837.880	0.0137798
837.958	0.0138441
838.037	0.0138708
838.115	0.0138966
838.193	0.0139369
838.271	0.0138667
838.349	0.0139316
838.427	0.0138248
838.505	0.0139662
838.583	0.0139021
838.662	0.0138488
838.740	0.0138058
838.818	0.0138102
838.896	0.0139248
838.974	0.0137045
839.052	0.0136717
839.130	0.0136398
839.208	0.0136741
839.287	0.0135802
839.365	0.0137422
839.443	0.0136947
839.521	0.0136023
839.599	0.0136539
839.677	0.0136813
839.755	0.0136697
839.833	0.0136234
839.912	0.0136727
839.990	0.0136897
840.068	0.0136258
840.146	0.0136505
840.224	0.0136716
840.302	0.0138276
840.380	0.0137774
840.458	0.0137471
840.537	0.0138599
840.615	0.0137679
840.693	0.0137477
840.771	0.0137453
840.849	0.0137086
840.927	0.0137656
841.005	0.0138274
841.083	0.0136517
841.162	0.0136472
841.240	0.0136157
841.318	0.0136002
841.396	0.0136366
841.474	0.0135636
841.552	0.0135821
841.630	0.0134904
841.708	0.0135995
841.787	0.0135802
841.865	0.0135870
841.943	0.0135506
842.021	0.0135502
842.099	0.0136052
842.177	0.0135129
842.255	0.0136758
842.333	0.0136031
842.412	0.0135243
842.490	0.0137106
842.568	0.0136586
842.646	0.0137146
842.724	0.0136742
842.802	0.0136837
842.880	0.0136285
842.958	0.0135423
843.037	0.0137685
843.115	0.0137003
843.193	0.0137537
843.271	0.0138006
843.349	0.0137196
843.427	0.0137458
843.505	0.0137197
843.583	0.0137714
843.662	0.0138490
843.740	0.0138411
843.818	0.0138694
843.896	0.0137844
843.974	0.0138231
844.052	0.0137963
844.130	0.0136967
844.208	0.0137566
844.287	0.0137688
844.365	0.0136543
844.443	0.0135331
844.521	0.0138412
844.599	0.0135116
844.677	0.0133942
844.755	0.0135229
844.833	0.0136592
844.912	0.0135784
844.990	0.0134309
845.068	0.0136035
845.146	0.0136613
845.224	0.0135607
845.302	0.0136684
845.380	0.0136298
845.458	0.0137395
845.537	0.0137384
845.615	0.0137510
845.693	0.0138123
845.771	0.0138232
845.849	0.0138862
845.927	0.0138387
846.005	0.0138193
846.083	0.0138575
846.162	0.0138445
846.240	0.0138066
846.318	0.0138010
846.396	0.0138927
846.474	0.0138300
846.552	0.0136211
846.630	0.0137077
846.708	0.0138370
846.787	0.0138599
846.865	0.0137851
846.943	0.0135892
847.021	0.0136283
847.099	0.0138229
847.177	0.0137292
847.255	0.0136131
847.333	0.0137300
847.412	0.0135824
847.490	0.0137833
847.568	0.0137354
847.646	0.0137683
847.724	0.0136467
847.802	0.0136518
847.880	0.0136216
847.958	0.0135690
848.037	0.0134649
848.115	0.0134881
848.193	0.0135603
848.271	0.0136816
848.349	0.0135134
848.427	0.0135661
848.505	0.0135140
848.583	0.0136137
848.662	0.0135152
848.740	0.0135971
848.818	0.0136038
848.896	0.0135292
848.974	0.0134619
849.052	0.0136688
849.130	0.0137080
849.208	0.0136771
849.287	0.0136901
849.365	0.0136359
849.443	0.0135469
849.521	0.0136166
849.599	0.0136632
849.677	0.0137096
849.755	0.0137033
849.833	0.0136250
849.912	0.0137337
849.990	0.0138016
850.068	0.0136794
850.146	0.0136961
850.224	0.0135835
850.302	0.0138678
850.380	0.0137071
850.458	0.0137918
850.537	0.0138467
850.615	0.0139115
850.693	0.0138190
850.771	0.0137417
850.849	0.0137620
850.927	0.0136652
851.005	0.0137518
851.083	0.0136508
851.162	0.0137386
851.240	0.0137370
851.318	0.0138446
851.396	0.0137164
851.474	0.0137540
851.552	0.0136917
851.630	0.0137286
851.708	0.0137803
851.787	0.0138456
851.865	0.0138496
851.943	0.0138644
852.021	0.0137443
852.099	0.0136653
852.177	0.0137802
852.255	0.0138544
852.333	0.0137270
852.412	0.0137339
852.490	0.0137067
852.568	0.0137764
852.646	0.0136500
852.724	0.0137690
852.802	0.0135720
852.880	0.0135461
852.958	0.0136254
853.037	0.0135978
853.115	0.0135918
853.193	0.0134992
853.271	0.0135793
853.349	0.0135094
853.427	0.0136344
853.505	0.0135031
853.583	0.0134692
853.662	0.0135332
853.740	0.0134322
853.818	0.0135349
853.896	0.0134651
853.974	0.0134540
854.052	0.0134308
854.130	0.0133471
854.208	0.0135619
854.287	0.0135468
854.365	0.0135102
854.443	0.0134758
854.521	0.0135088
854.599	0.0135698
854.677	0.0135836
854.755	0.0135607
854.833	0.0136206
854.912	0.0135689
854.990	0.0136679
855.068	0.0135883
855.146	0.0137743
855.224	0.0137991
855.302	0.0138675
855.380	0.0139382
855.458	0.0137632
855.537	0.0138525
855.615	0.0137475
855.693	0.0140018
855.771	0.0139291
855.849	0.0137458
855.927	0.0137566
856.005	0.0139516
856.083	0.0138985
856.162	0.0138892
856.240	0.0137613
856.318	0.0137106
856.396	0.0138589
856.474	0.0138875
856.552	0.0136551
856.630	0.0137206
856.708	0.0138255
856.787	0.0136503
856.865	0.0137112
856.943	0.0136302
857.021	0.0135977
857.099	0.0135969
857.177	0.0135279
857.255	0.0136609
857.333	0.0136477
857.412	0.0136123
857.490	0.0135932
857.568	0.0134988
857.646	0.0135574
857.724	0.0135372
857.802	0.0135612
857.880	0.0136139
857.958	0.0136718
858.037	0.0136938
858.115	0.0134513
858.193	0.0136496
858.271	0.0136458
858.349	0.0134360
858.427	0.0134934
858.505	0.0136151
858.583	0.0136321
858.662	0.0136649
858.740	0.0136286
858.818	0.0137297
858.896	0.0136452
858.974	0.0136266
859.052	0.0138670
859.130	0.0137040
859.208	0.0138618
859.287	0.0139367
859.365	0.0139424
859.443	0.0138735
859.521	0.0140890
859.599	0.0138390
859.677	0.0137128
859.755	0.0139722
859.833	0.0139181
859.912	0.0137988
859.990	0.0139039
860.068	0.0137091
860.146	0.0137116
860.224	0.0137351
860.302	0.0135657
860.380	0.0136501
860.458	0.0135836
860.537	0.0135930
860.615	0.0134415
860.693	0.0133803
860.771	0.0135050
860.849	0.0133897
860.927	0.0133625
861.005	0.0134096
861.083	0.0133882
861.162	0.0134734
861.240	0.0135410
861.318	0.0134892
861.396	0.0135589
861.474	0.0135178
861.552	0.0135722
861.630	0.0136414
861.708	0.0137450
861.787	0.0136695
861.865	0.0137650
861.943	0.0137531
862.021	0.0137651
862.099	0.0138665
862.177	0.0137832
862.255	0.0135914
862.333	0.0136963
862.412	0.0139117
862.490	0.0138239
862.568	0.0138187
862.646	0.0137631
862.724	0.0137946
862.802	0.0137794
862.880	0.0138589
862.958	0.0138604
863.037	0.0138473
863.115	0.0137167
863.193	0.0134941
863.271	0.0137305
863.349	0.0138232
863.427	0.0136491
863.505	0.0134905
863.583	0.0137985
863.662	0.0136480
863.740	0.0135585
863.818	0.0134436
863.896	0.0134399
863.974	0.0135709
864.052	0.0135735
864.130	0.0136440
864.208	0.0135812
864.287	0.0137043
864.365	0.0136478
864.443	0.0136853
864.521	0.0137899
864.599	0.0138024
864.677	0.0137437
864.755	0.0137272
864.833	0.0137539
864.912	0.0137466
864.990	0.0137032
865.068	0.0136327
865.146	0.0137729
865.224	0.0137827
865.302	0.0137730
865.380	0.0135629
865.458	0.0135378
865.537	0.0136380
865.615	0.0136670
865.693	0.0135088
865.771	0.0134168
865.849	0.0135178
865.927	0.0135898
866.005	0.0133695
866.083	0.0134826
866.162	0.0135999
866.240	0.0134714
866.318	0.0134282
866.396	0.0135394
866.474	0.0134400
866.552	0.0135010
866.630	0.0135677
866.708	0.0134542
866.787	0.0135385
866.865	0.0136416
866.943	0.0134873
867.021	0.0136508
867.099	0.0136443
867.177	0.0136668
867.255	0.0137050
867.333	0.0137350
867.412	0.0139422
867.490	0.0139342
867.568	0.0139534
867.646	0.0139324
867.724	0.0138990
867.802	0.0139092
867.880	0.0138387
867.958	0.0137560
868.037	0.0138551
868.115	0.0138127
868.193	0.0138909
868.271	0.0137595
868.349	0.0137882
868.427	0.0136674
868.505	0.0135979
868.583	0.0135994
868.662	0.0135896
868.740	0.0135042
868.818	0.0135287
868.896	0.0136810
868.974	0.0134261
869.052	0.0135435
869.130	0.0134496
869.208	0.0135579
869.287	0.0135299
869.365	0.0137214
869.443	0.0134969
869.521	0.0134771
869.599	0.0135406
869.677	0.0135836
869.755	0.0136819
869.833	0.0137080
869.912	0.0136544
869.990	0.0136194
870.068	0.0136249
870.146	0.0135859
870.224	0.0136922
870.302	0.0136593
870.380	0.0135728
870.458	0.0136115
870.537	0.0136684
870.615	0.0137486
870.693	0.0137107
870.771	0.0136580
870.849	0.0138201
870.927	0.0138478
871.005	0.0138408
871.083	0.0137263
871.162	0.0138361
871.240	0.0138208
871.318	0.0138381
871.396	0.0137019
871.474	0.0136631
871.552	0.0136480
871.630	0.0135980
871.708	0.0135917
871.787	0.0135864
871.865	0.0135841
871.943	0.0135457
872.021	0.0136632
872.099	0.0135771
872.177	0.0136022
872.255	0.0137645
872.333	0.0138064
872.412	0.0137557
872.490	0.0138507
872.568	0.0137065
872.646	0.0138220
872.724	0.0137750
872.802	0.0137003
872.880	0.0136166
872.958	0.0135470
873.037	0.0136185
873.115	0.0134755
873.193	0.0134139
873.271	0.0135741
873.349	0.0135818
873.427	0.0136001
873.505	0.0135534
873.583	0.0135278
873.662	0.0137173
873.740	0.0138695
873.818	0.0136469
873.896	0.0137628
873.974	0.0138043
874.052	0.0139430
874.130	0.0139099
874.208	0.0138860
874.287	0.0140079
874.365	0.0137859
874.443	0.0138042
874.521	0.0138484
874.599	0.0138734
874.677	0.0137474
874.755	0.0137338
874.833	0.0137620
874.912	0.0135997
874.990	0.0134806
875.068	0.0135812
875.146	0.0134795
875.224	0.0133556
875.302	0.0133671
875.380	0.0134225
875.458	0.0134634
875.537	0.0134117
875.615	0.0134032
875.693	0.0133794
875.771	0.0132980
875.849	0.0135258
875.927	0.0134284
876.005	0.0134023
876.083	0.0134139
876.162	0.0133557
876.240	0.0135520
876.318	0.0134496
876.396	0.0135778
876.474	0.0135583
876.552	0.0136276
876.630	0.0137211
876.708	0.0137177
876.787	0.0135342
876.865	0.0136716
876.943	0.0138667
877.021	0.0138712
877.099	0.0137474
877.177	0.0139118
877.255	0.0139414
877.333	0.0139942
877.412	0.0140205
877.490	0.0141884
877.568	0.0141033
877.646	0.0141819
877.724	0.0141678
877.802	0.0143414
877.880	0.0142425
877.958	0.0141692
878.037	0.0138832
878.115	0.0139149
878.193	0.0137167
878.271	0.0136649
878.349	0.0136234
878.427	0.0133852
878.505	0.0133592
878.583	0.0134151
878.662	0.0132146
878.740	0.0132513
878.818	0.0131093
878.896	0.0129836
878.974	0.0131529
879.052	0.0130808
879.130	0.0131929
879.208	0.0131081
879.287	0.0131787
879.365	0.0133985
879.443	0.0133856
879.521	0.0133989
879.599	0.0134454
879.677	0.0135712
879.755	0.0136961
879.833	0.0137735
879.912	0.0136018
879.990	0.0137654
880.068	0.0138665
880.146	0.0138950
880.224	0.0140318
880.302	0.0139939
880.380	0.0141747
880.458	0.0140296
880.537	0.0140268
880.615	0.0142806
880.693	0.0143340
880.771	0.0144843
880.849	0.0144917
880.927	0.0144479
881.005	0.0146236
881.083	0.0145541
881.162	0.0144175
881.240	0.0142577
881.318	0.0141953
881.396	0.0140562
881.474	0.0137749
881.552	0.0135309
881.630	0.0133208
881.708	0.0131414
881.787	0.0129115
881.865	0.0129156
881.943	0.0126682
882.021	0.0126378
882.099	0.0127138
882.177	0.0126033
882.255	0.0126465
882.333	0.0127010
882.412	0.0127902
882.490	0.0130756
882.568	0.0131499
882.646	0.0132112
882.724	0.0133618
882.802	0.0134245
882.880	0.0136661
882.958	0.0139251
883.037	0.0139565
883.115	0.0140387
883.193	0.0141665
883.271	0.0140393
883.349	0.0141241
883.427	0.0142612
883.505	0.0141070
883.583	0.0141757
883.662	0.0141228
883.740	0.0143507
883.818	0.0142621
883.896	0.0144339
883.974	0.0144364
884.052	0.0142468
884.130	0.0143851
884.208	0.0144814
884.287	0.0143752
884.365	0.0142673
884.443	0.0142555
884.521	0.0142710
884.599	0.0142258
884.677	0.0139805
884.755	0.0138107
884.833	0.0137686
884.912	0.0135989
884.990	0.0135281
885.068	0.0132263
885.146	0.0131866
885.224	0.0132455
885.302	0.0130122
885.380	0.0131126
885.458	0.0129848
885.537	0.0130060
885.615	0.0130067
885.693	0.0130933
885.771	0.0129936
885.849	0.0130336
885.927	0.0131971
886.005	0.0132699
886.083	0.0132184
886.162	0.0134682
886.240	0.0134850
886.318	0.0135167
886.396	0.0135788
886.474	0.0136855
886.552	0.0137997
886.630	0.0137572
886.708	0.0137925
886.787	0.0137424
886.865	0.0137307
886.943	0.0137894
887.021	0.0138016
887.099	0.0137587
887.177	0.0137578
887.255	0.0137856
887.333	0.0138432
887.412	0.0138747
887.490	0.0137194
887.568	0.0138794
887.646	0.0140096
887.724	0.0140098
887.802	0.0139973
887.880	0.0140597
887.958	0.0142160
888.037	0.0141357
888.115	0.0141830
888.193	0.0141443
888.271	0.0141647
888.349	0.0139476
888.427	0.0140476
888.505	0.0138931
888.583	0.0137797
888.662	0.0137188
888.740	0.0136057
888.818	0.0135245
888.896	0.0134256
888.974	0.0132305
889.052	0.0132931
889.130	0.0131599
889.208	0.0131921
889.287	0.0131721
889.365	0.0130653
889.443	0.0130334
889.521	0.0132156
889.599	0.0133166
889.677	0.0132967
889.755	0.0133133
889.833	0.0133636
889.912	0.0135240
889.990	0.0135977
890.068	0.0137754
890.146	0.0137029
890.224	0.0138834
890.302	0.0138183
890.380	0.0139980
890.458	0.0139101
890.537	0.0138947
890.615	0.0139361
890.693	0.0138654
890.771	0.0140353
890.849	0.0139568
890.927	0.0140247
891.005	0.0141492
891.083	0.0139619
891.162	0.0141287
891.240	0.0141159
891.318	0.0140679
891.396	0.0138876
891.474	0.0139922
891.552	0.0140985
891.630	0.0140556
891.708	0.0141286
891.787	0.0140303
891.865	0.0140891
891.943	0.0139288
892.021	0.0139154
892.099	0.0137534
892.177	0.0135442
892.255	0.0134322
892.333	0.0134557
892.412	0.0133163
892.490	0.0131483
892.568	0.0133788
892.646	0.0131693
892.724	0.0132413
892.802	0.0132135
892.880	0.0130122
892.958	0.0130769
893.037	0.0131794
893.115	0.0132092
893.193	0.0131832
893.271	0.0132555
893.349	0.0134798
893.427	0.0133781
893.505	0.0134234
893.583	0.0133937
893.662	0.0136263
893.740	0.0137231
893.818	0.0136935
893.896	0.0138278
893.974	0.0138663
894.052	0.0139314
894.130	0.0139124
894.208	0.0139644
894.287	0.0140273
894.365	0.0140324
894.443	0.0141641
894.521	0.0140018
894.599	0.0140169
894.677	0.0141215
894.755	0.0141153
894.833	0.0140269
894.912	0.0141397
894.990	0.0140457
895.068	0.0140127
895.146	0.0141199
895.224	0.0141197
895.302	0.0139992
895.380	0.0139565
895.458	0.0138788
895.537	0.0137945
895.615	0.0138864
895.693	0.0138238
895.771	0.0137964
895.849	0.0136304
895.927	0.0135835
896.005	0.0136153
896.083	0.0136530
896.162	0.0134676
896.240	0.0135517
896.318	0.0134970
896.396	0.0135387
896.474	0.0136362
896.552	0.0134052
896.630	0.0135425
896.708	0.0134821
896.787	0.0134125
896.865	0.0133988
896.943	0.0135443
897.021	0.0135286
897.099	0.0134207
897.177	0.0133821
897.255	0.0134023
897.333	0.0134843
897.412	0.0134001
897.490	0.0132950
897.568	0.0133479
897.646	0.0135890
897.724	0.0135619
897.802	0.0135796
897.880	0.0134058
897.958	0.0135166
898.037	0.0137293
898.115	0.0136641
898.193	0.0137808
898.271	0.0138565
898.349	0.0138737
898.427	0.0140179
898.505	0.0139813
898.583	0.0141077
898.662	0.0139977
898.740	0.0140841
898.818	0.0140458
898.896	0.0141985
898.974	0.0142181
899.052	0.0141872
899.130	0.0140215
899.208	0.0140677
899.287	0.0141855
899.365	0.0140207
899.443	0.0140221
899.521	0.0138741
899.599	0.0138652
899.677	0.0137509
899.755	0.0137898
899.833	0.0137610
899.912	0.0136387
899.990	0.0133976
900.068	0.0135148
900.146	0.0133642
900.224	0.0134231
900.302	0.0133192
900.380	0.0132966
900.458	0.0133279
900.537	0.0132993
900.615	0.0131870
900.693	0.0133253
900.771	0.0131184
900.849	0.0132202
900.927	0.0132573
901.005	0.0132600
901.083	0.0133260
901.162	0.0134029
901.240	0.0135250
901.318	0.0136409
901.396	0.0137123
901.474	0.0139452
901.552	0.0139793
901.630	0.0138374
901.708	0.0139286
901.787	0.0140528
901.865	0.0140535
901.943	0.0141191
902.021	0.0141385
902.099	0.0140959
902.177	0.0140849
902.255	0.0140860
902.333	0.0140707
902.412	0.0140619
902.490	0.0141070
902.568	0.0139113
902.646	0.0139276
902.724	0.0137609
902.802	0.0137456
902.880	0.0137302
902.958	0.0138137
903.037	0.0137395
903.115	0.0137797
903.193	0.0136302
903.271	0.0137460
903.349	0.0137370
903.427	0.0135753
903.505	0.0135871
903.583	0.0136001
903.662	0.0136872
903.740	0.0136417
903.818	0.0136640
903.896	0.0136581
903.974	0.0137211
904.052	0.0136836
904.130	0.0136836
904.208	0.0137203
904.287	0.0137166
904.365	0.0137690
904.443	0.0136941
904.521	0.0137499
904.599	0.0139152
904.677	0.0139471
904.755	0.0138956
904.833	0.0140567
904.912	0.0138980
904.990	0.0139928
905.068	0.0139500
905.146	0.0139346
905.224	0.0138825
905.302	0.0138261
905.380	0.0138739
905.458	0.0137843
905.537	0.0138124
905.615	0.0137801
905.693	0.0136824
905.771	0.0136195
905.849	0.0135918
905.927	0.0136112
906.005	0.0136289
906.083	0.0136319
906.162	0.0136653
906.240	0.0136624
906.318	0.0135756
906.396	0.0136905
906.474	0.0135458
906.552	0.0137495
906.630	0.0136214
906.708	0.0136347
906.787	0.0136736
906.865	0.0138357
906.943	0.0137395
907.021	0.0137507
907.099	0.0138341
907.177	0.0138081
907.255	0.0137825
907.333	0.0136517
907.412	0.0136858
907.490	0.0134640
907.568	0.0135906
907.646	0.0136136
907.724	0.0134392
907.802	0.0135287
907.880	0.0134908
907.958	0.0134621
908.037	0.0135358
908.115	0.0133970
908.193	0.0134084
908.271	0.0134655
908.349	0.0135563
908.427	0.0136308
908.505	0.0135990
908.583	0.0134712
908.662	0.0136066
908.740	0.0137642
908.818	0.0137082
908.896	0.0137412
908.974	0.0136530
909.052	0.0136802
909.130	0.0138010
909.208	0.0138522
909.287	0.0137878
909.365	0.0136896
909.443	0.0137315
909.521	0.0138234
909.599	0.0137657
909.677	0.0137283
909.755	0.0137974
909.833	0.0137843
909.912	0.0136421
909.990	0.0137481
910.068	0.0136664
910.146	0.0137360
910.224	0.0136825
910.302	0.0136377
910.380	0.0135912
910.458	0.0136990
910.537	0.0135606
910.615	0.0134740
910.693	0.0135590
910.771	0.0136129
910.849	0.0136559
910.927	0.0136952
911.005	0.0136208
911.083	0.0135782
911.162	0.0135341
911.240	0.0135954
911.318	0.0135905
911.396	0.0136552
911.474	0.0137563
911.552	0.0136081
911.630	0.0137093
911.708	0.0138288
911.787	0.0136811
911.865	0.0136628
911.943	0.0138245
912.021	0.0138717
912.099	0.0137673
912.177	0.0137968
912.255	0.0138116
912.333	0.0138680
912.412	0.0136102
912.490	0.0136595
912.568	0.0138038
912.646	0.0135954
912.724	0.0136861
912.802	0.0136020
912.880	0.0136510
912.958	0.0136066
913.037	0.0135702
913.115	0.0135223
913.193	0.0134839
913.271	0.0136174
913.349	0.0135819
913.427	0.0134869
913.505	0.0135576
913.583	0.0136213
913.662	0.0134871
913.740	0.0135343
913.818	0.0136196
913.896	0.0135049
913.974	0.0136681
914.052	0.0136556
914.130	0.0136008
914.208	0.0136533
914.287	0.0136405
914.365	0.0136749
914.443	0.0135492
914.521	0.0136448
914.599	0.0136190
914.677	0.0136252
914.755	0.0138816
914.833	0.0137029
914.912	0.0136520
914.990	0.0137491
915.068	0.0138863
915.146	0.0138316
915.224	0.0138673
915.302	0.0138326
915.380	0.0137620
915.458	0.0137907
915.537	0.0135889
915.615	0.0136682
915.693	0.0136353
915.771	0.0136942
915.849	0.0138651
915.927	0.0138017
916.005	0.0137333
916.083	0.0137067
916.162	0.0136530
916.240	0.0137058
916.318	0.0137477
916.396	0.0139334
916.474	0.0139722
916.552	0.0139384
916.630	0.0137924
916.708	0.0137285
916.787	0.0138232
916.865	0.0137612
916.943	0.0137231
917.021	0.0137711
917.099	0.0136955
917.177	0.0136697
917.255	0.0135517
917.333	0.0137021
917.412	0.0135044
917.490	0.0136823
917.568	0.0136581
917.646	0.0135014
917.724	0.0135272
917.802	0.0134138
917.880	0.0136076
917.958	0.0136809
918.037	0.0136215
918.115	0.0135333
918.193	0.0136237
918.271	0.0136436
918.349	0.0136544
918.427	0.0136062
918.505	0.0136549
918.583	0.0135719
918.662	0.0136646
918.740	0.0137441
918.818	0.0137643
918.896	0.0137260
918.974	0.0138584
919.052	0.0137721
919.130	0.0137210
919.208	0.0137273
919.287	0.0138428
919.365	0.0139303
919.443	0.0139474
919.521	0.0139099
919.599	0.0139397
919.677	0.0139832
919.755	0.0140575
919.833	0.0139565
919.912	0.0139628
919.990	0.0139836
920.068	0.0139402
920.146	0.0140353
920.224	0.0138175
920.302	0.0139087
920.380	0.0138802
920.458	0.0139206
920.537	0.0139032
920.615	0.0138905
920.693	0.0139029
920.771	0.0139375
920.849	0.0138994
920.927	0.0138865
921.005	0.0137875
921.083	0.0138777
921.162	0.0140063
921.240	0.0137074
921.318	0.0137929
921.396	0.0138042
921.474	0.0137856
921.552	0.0138332
921.630	0.0137999
921.708	0.0137032
921.787	0.0136649
921.865	0.0136189
921.943	0.0135334
922.021	0.0138225
922.099	0.0136315
922.177	0.0136059
922.255	0.0136486
922.333	0.0135069
922.412	0.0135587
922.490	0.0135518
922.568	0.0135780
922.646	0.0136172
922.724	0.0135227
922.802	0.0135621
922.880	0.0135317
922.958	0.0134348
923.037	0.0136379
923.115	0.0137045
923.193	0.0135490
923.271	0.0136694
923.349	0.0136478
923.427	0.0137103
923.505	0.0137857
923.583	0.0138680
923.662	0.0140168
923.740	0.0139309
923.818	0.0137260
923.896	0.0139176
923.974	0.0140761
924.052	0.0138358
924.130	0.0139592
924.208	0.0139599
924.287	0.0137962
924.365	0.0139432
924.443	0.0139312
924.521	0.0139438
924.599	0.0138154
924.677	0.0140280
924.755	0.0139372
924.833	0.0138522
924.912	0.0139009
924.990	0.0138976
925.068	0.0137476
925.146	0.0138290
925.224	0.0137940
925.302	0.0137656
925.380	0.0136369
925.458	0.0135749
925.537	0.0135855
925.615	0.0135691
925.693	0.0136387
925.771	0.0137193
925.849	0.0134631
925.927	0.0135423
926.005	0.0135891
926.083	0.0135225
926.162	0.0133925
926.240	0.0136827
926.318	0.0137450
926.396	0.0136365
926.474	0.0136198
926.552	0.0139199
926.630	0.0137518
926.708	0.0136804
926.787	0.0136707
926.865	0.0138188
926.943	0.0138851
927.021	0.0137843
927.099	0.0138412
927.177	0.0138278
927.255	0.0138249
927.333	0.0138222
927.412	0.0139476
927.490	0.0138150
927.568	0.0138381
927.646	0.0136688
927.724	0.0137873
927.802	0.0137497
927.880	0.0136294
927.958	0.0136033
928.037	0.0135988
928.115	0.0136904
928.193	0.0136286
928.271	0.0134885
928.349	0.0135775
928.427	0.0134959
928.505	0.0134801
928.583	0.0135815
928.662	0.0134606
928.740	0.0134053
928.818	0.0134472
928.896	0.0134494
928.974	0.0134929
929.052	0.0134834
929.130	0.0133721
929.208	0.0132561
929.287	0.0133837
929.365	0.0134843
929.443	0.0134540
929.521	0.0136061
929.599	0.0134299
929.677	0.0134052
929.755	0.0135608
929.833	0.0135892
929.912	0.0136205
929.990	0.0137124
930.068	0.0136695
930.146	0.0138029
930.224	0.0138310
930.302	0.0137733
930.380	0.0137922
930.458	0.0138947
930.537	0.0137432
930.615	0.0138739
930.693	0.0139393
930.771	0.0139707
930.849	0.0138238
930.927	0.0138123
931.005	0.0136233
931.083	0.0136436
931.162	0.0136107
931.240	0.0137305
931.318	0.0135820
931.396	0.0136236
931.474	0.0136472
931.552	0.0135625
931.630	0.0135898
931.708	0.0135789
931.787	0.0135717
931.865	0.0135378
931.943	0.0133929
932.021	0.0134373
932.099	0.0135230
932.177	0.0134322
932.255	0.0134238
932.333	0.0135561
932.412	0.0135754
932.490	0.0134569
932.568	0.0135604
932.646	0.0135559
932.724	0.0134569
932.802	0.0134264
932.880	0.0135365
932.958	0.0134688
933.037	0.0134325
933.115	0.0135487
933.193	0.0135894
933.271	0.0135645
933.349	0.0136183
933.427	0.0136272
933.505	0.0137673
933.583	0.0136832
933.662	0.0136509
933.740	0.0135983
933.818	0.0136330
933.896	0.0137354
933.974	0.0135413
934.052	0.0135397
934.130	0.0136145
934.208	0.0135432
934.287	0.0134953
934.365	0.0135803
934.443	0.0135720
934.521	0.0134985
934.599	0.0135123
934.677	0.0136128
934.755	0.0133478
934.833	0.0135545
934.912	0.0135985
934.990	0.0134583
935.068	0.0134718
935.146	0.0135087
935.224	0.0135883
935.302	0.0135645
935.380	0.0134181
935.458	0.0136177
935.537	0.0137262
935.615	0.0136680
935.693	0.0136327
935.771	0.0136032
935.849	0.0136863
935.927	0.0137579
936.005	0.0137725
936.083	0.0138542
936.162	0.0138543
936.240	0.0139110
936.318	0.0137571
936.396	0.0137666
936.474	0.0137033
936.552	0.0137979
936.630	0.0138349
936.708	0.0137214
936.787	0.0137387
936.865	0.0136407
936.943	0.0136089
937.021	0.0137157
937.099	0.0136592
937.177	0.0134688
937.255	0.0135708
937.333	0.0135580
937.412	0.0136388
937.490	0.0135216
937.568	0.0134893
937.646	0.0136159
937.724	0.0135921
937.802	0.0135308
937.880	0.0134471
937.958	0.0135725
938.037	0.0136732
938.115	0.0137242
938.193	0.0137103
938.271	0.0136269
938.349	0.0136759
938.427	0.0137288
938.505	0.0137778
938.583	0.0136921
938.662	0.0137379
938.740	0.0138689
938.818	0.0138530
938.896	0.0139574
938.974	0.0139485
939.052	0.0138437
939.130	0.0139656
939.208	0.0139438
939.287	0.0138183
939.365	0.0138545
939.443	0.0138662
939.521	0.0140455
939.599	0.0138852
939.677	0.0138773
939.755	0.0138074
939.833	0.0138001
939.912	0.0138568
939.990	0.0137001
940.068	0.0136567
940.146	0.0138071
940.224	0.0136586
940.302	0.0135145
940.380	0.0137000
940.458	0.0136082
940.537	0.0136278
940.615	0.0135135
940.693	0.0135855
940.771	0.0133662
940.849	0.0134386
940.927	0.0135474
941.005	0.0136126
941.083	0.0135571
941.162	0.0134746
941.240	0.0135127
941.318	0.0135506
941.396	0.0135783
941.474	0.0137539
941.552	0.0136102
941.630	0.0135641
941.708	0.0137061
941.787	0.0137003
941.865	0.0135882
941.943	0.0137954
942.021	0.0137952
942.099	0.0136830
942.177	0.0138038
942.255	0.0138467
942.333	0.0137146
942.412	0.0137807
942.490	0.0138654
942.568	0.0137962
942.646	0.0140038
942.724	0.0139667
942.802	0.0141175
942.880	0.0140273
942.958	0.0139217
943.037	0.0139086
943.115	0.0139238
943.193	0.0139884
943.271	0.0138895
943.349	0.0138789
943.427	0.0139121
943.505	0.0139351
943.583	0.0138763
943.662	0.0137175
943.740	0.0138713
943.818	0.0138332
943.896	0.0138347
943.974	0.0137740
944.052	0.0137989
944.130	0.0138610
944.208	0.0137652
944.287	0.0138275
944.365	0.0137188
944.443	0.0138398
944.521	0.0137236
944.599	0.0137708
944.677	0.0137440
944.755	0.0136794
944.833	0.0135291
944.912	0.0137178
944.990	0.0138142
945.068	0.0138073
945.146	0.0136257
945.224	0.0137002
945.302	0.0136331
945.380	0.0135098
945.458	0.0135384
945.537	0.0135814
945.615	0.0135429
945.693	0.0134409
945.771	0.0136532
945.849	0.0135782
945.927	0.0136674
946.005	0.0136082
946.083	0.0136826
946.162	0.0135731
946.240	0.0134189
946.318	0.0137258
946.396	0.0136036
946.474	0.0135580
946.552	0.0137407
946.630	0.0135993
946.708	0.0136446
946.787	0.0137419
946.865	0.0136237
946.943	0.0137156
947.021	0.0138153
947.099	0.0137411
947.177	0.0137955
947.255	0.0137696
947.333	0.0138172
947.412	0.0137438
947.490	0.0137128
947.568	0.0137524
947.646	0.0138571
947.724	0.0136417
947.802	0.0136685
947.880	0.0138002
947.958	0.0136327
948.037	0.0135612
948.115	0.0136591
948.193	0.0135712
948.271	0.0136049
948.349	0.0137664
948.427	0.0136795
948.505	0.0134938
948.583	0.0137024
948.662	0.0136757
948.740	0.0135155
948.818	0.0136741
948.896	0.0136900
948.974	0.0137489
949.052	0.0135909
949.130	0.0137291
949.208	0.0136771
949.287	0.0136992
949.365	0.0136629
949.443	0.0135146
949.521	0.0136139
949.599	0.0136342
949.677	0.0135708
949.755	0.0135103
949.833	0.0135880
949.912	0.0136395
949.990	0.0135485
950.068	0.0136549
950.146	0.0137395
950.224	0.0136422
950.302	0.0137310
950.380	0.0136295
950.458	0.0135980
950.537	0.0136848
950.615	0.0138111
950.693	0.0138211
950.771	0.0137082
950.849	0.0138046
950.927	0.0137179
951.005	0.0135825
951.083	0.0135486
951.162	0.0136078
951.240	0.0136264
951.318	0.0135193
951.396	0.0136369
951.474	0.0135497
951.552	0.0136108
951.630	0.0135462
951.708	0.0136461
951.787	0.0137188
951.865	0.0137312
951.943	0.0135949
952.021	0.0135815
952.099	0.0135619
952.177	0.0136741
952.255	0.0137287
952.333	0.0136917
952.412	0.0135720
952.490	0.0137633
952.568	0.0137558
952.646	0.0136878
952.724	0.0136082
952.802	0.0136689
952.880	0.0138004
952.958	0.0138087
953.037	0.0138428
953.115	0.0136224
953.193	0.0136703
953.271	0.0135301
953.349	0.0134557
953.427	0.0136964
953.505	0.0135522
953.583	0.0134117
953.662	0.0135965
953.740	0.0135211
953.818	0.0135715
953.896	0.0135950
953.974	0.0134596
954.052	0.0135176
954.130	0.0136264
954.208	0.0136873
954.287	0.0136205
954.365	0.0136371
954.443	0.0134764
954.521	0.0135237
954.599	0.0136906
954.677	0.0136133
954.755	0.0136190
954.833	0.0135870
954.912	0.0136063
954.990	0.0136620
955.068	0.0136797
955.146	0.0136517
955.224	0.0136301
955.302	0.0137336
955.380	0.0136347
955.458	0.0136855
955.537	0.0136605
955.615	0.0137057
955.693	0.0138174
955.771	0.0135977
955.849	0.0136079
955.927	0.0137074
956.005	0.0137231
956.083	0.0137407
956.162	0.0136634
956.240	0.0137151
956.318	0.0135995
956.396	0.0135517
956.474	0.0136283
956.552	0.0136948
956.630	0.0136399
956.708	0.0138145
956.787	0.0137269
956.865	0.0135831
956.943	0.0137233
957.021	0.0137975
957.099	0.0136900
957.177	0.0136298
957.255	0.0135537
957.333	0.0137024
957.412	0.0137138
957.490	0.0134986
957.568	0.0135645
957.646	0.0136304
957.724	0.0134903
957.802	0.0134542
957.880	0.0135281
957.958	0.0134877
958.037	0.0135732
958.115	0.0136012
958.193	0.0134374
958.271	0.0135310
958.349	0.0137116
958.427	0.0137088
958.505	0.0135479
958.583	0.0135154
958.662	0.0136135
958.740	0.0136118
958.818	0.0135573
958.896	0.0136844
958.974	0.0137167
959.052	0.0135712
959.130	0.0135094
959.208	0.0135378
959.287	0.0136182
959.365	0.0136591
959.443	0.0135646
959.521	0.0135074
959.599	0.0135686
959.677	0.0134721
959.755	0.0134928
959.833	0.0136817
959.912	0.0135837
959.990	0.0134985
960.068	0.0135189
960.146	0.0136063
960.224	0.0136388
960.302	0.0134396
960.380	0.0134737
960.458	0.0134959
960.537	0.0134940
960.615	0.0134999
960.693	0.0134193
960.771	0.0135254
960.849	0.0134816
960.927	0.0134479
961.005	0.0135089
961.083	0.0136008
961.162	0.0134467
961.240	0.0135526
961.318	0.0135188
961.396	0.0135333
961.474	0.0136187
961.552	0.0136008
961.630	0.0137135
961.708	0.0138125
961.787	0.0137334
961.865	0.0138078
961.943	0.0138424
962.021	0.0138866
962.099	0.0138652
962.177	0.0139548
962.255	0.0139394
962.333	0.0138686
962.412	0.0137490
962.490	0.0138664
962.568	0.0136890
962.646	0.0136780
962.724	0.0137186
962.802	0.0137628
962.880	0.0136139
962.958	0.0136288
963.037	0.0135970
963.115	0.0137727
963.193	0.0135860
963.271	0.0135164
963.349	0.0136313
963.427	0.0136443
963.505	0.0137188
963.583	0.0136047
963.662	0.0136364
963.740	0.0135008
963.818	0.0135028
963.896	0.0136959
963.974	0.0135288
964.052	0.0135529
964.130	0.0135390
964.208	0.0134286
964.287	0.0134879
964.365	0.0135159
964.443	0.0135857
964.521	0.0134184
964.599	0.0135737
964.677	0.0135511
964.755	0.0134779
964.833	0.0136411
964.912	0.0137183
964.990	0.0136610
965.068	0.0136978
965.146	0.0137480
965.224	0.0137682
965.302	0.0138200
965.380	0.0136819
965.458	0.0138078
965.537	0.0139352
965.615	0.0137976
965.693	0.0136240
965.771	0.0137571
965.849	0.0135762
965.927	0.0135103
966.005	0.0137082
966.083	0.0135464
966.162	0.0137012
966.240	0.0136271
966.318	0.0136222
966.396	0.0137394
966.474	0.0138157
966.552	0.0137361
966.630	0.0138722
966.708	0.0138803
966.787	0.0138542
966.865	0.0137845
966.943	0.0138013
967.021	0.0137036
967.099	0.0136264
967.177	0.0136483
967.255	0.0135885
967.333	0.0135490
967.412	0.0134853
967.490	0.0134950
967.568	0.0134541
967.646	0.0134000
967.724	0.0132305
967.802	0.0134845
967.880	0.0133208
967.958	0.0136382
968.037	0.0135067
968.115	0.0135188
968.193	0.0137153
968.271	0.0136935
968.349	0.0137635
968.427	0.0136996
968.505	0.0136604
968.583	0.0136576
968.662	0.0137542
968.740	0.0135271
968.818	0.0137012
968.896	0.0137343
968.974	0.0136723
969.052	0.0135561
969.130	0.0135274
969.208	0.0134506
969.287	0.0135013
969.365	0.0135492
969.443	0.0135944
969.521	0.0135365
969.599	0.0136418
969.677	0.0135667
969.755	0.0135265
969.833	0.0137481
969.912	0.0137292
