05/08/2022	19:44:50	Ver.	4.1	UNKNOWN
Optical Delay	649.989667	Delta X		0.078125	Sweeps	1	Scan Rate	0/0
Coordinates	Axis 1	NaN	Axis 2	NaN	Axis 3	NaN	Axis 4	NaN	Axis 5	NaN	Axis 6	0.000000
TX Power	0.000000	RX Power	0.000000

649.990	0.0138943
650.068	0.0138789
650.146	0.0138343
650.224	0.0137621
650.302	0.0138654
650.380	0.0138239
650.458	0.0138737
650.537	0.0139168
650.615	0.0139406
650.693	0.0138433
650.771	0.0139396
650.849	0.0139485
650.927	0.0137588
651.005	0.0138229
651.083	0.0138489
651.162	0.0138663
651.240	0.0138220
651.318	0.0138097
651.396	0.0138933
651.474	0.0139455
651.552	0.0138847
651.630	0.0139738
651.708	0.0137519
651.787	0.0137273
651.865	0.0138576
651.943	0.0138853
652.021	0.0139915
652.099	0.0138570
652.177	0.0137732
652.255	0.0138878
652.333	0.0138493
652.412	0.0139372
652.490	0.0138208
652.568	0.0138394
652.646	0.0137495
652.724	0.0139441
652.802	0.0139302
652.880	0.0139260
652.958	0.0138649
653.037	0.0138699
653.115	0.0138729
653.193	0.0138869
653.271	0.0138783
653.349	0.0139581
653.427	0.0137730
653.505	0.0137782
653.583	0.0138419
653.662	0.0138436
653.740	0.0139712
653.818	0.0139188
653.896	0.0139331
653.974	0.0138873
654.052	0.0139409
654.130	0.0138396
654.208	0.0139214
654.287	0.0139923
654.365	0.0138863
654.443	0.0138844
654.521	0.0139020
654.599	0.0139996
654.677	0.0139327
654.755	0.0139764
654.833	0.0138803
654.912	0.0139974
654.990	0.0139263
655.068	0.0139049
655.146	0.0139723
655.224	0.0137671
655.302	0.0138159
655.380	0.0138551
655.458	0.0138590
655.537	0.0139034
655.615	0.0138436
655.693	0.0139264
655.771	0.0139247
655.849	0.0139319
655.927	0.0140195
656.005	0.0139456
656.083	0.0138236
656.162	0.0139931
656.240	0.0139729
656.318	0.0138345
656.396	0.0138997
656.474	0.0140144
656.552	0.0139272
656.630	0.0138590
656.708	0.0138187
656.787	0.0138855
656.865	0.0139806
656.943	0.0140291
657.021	0.0139831
657.099	0.0138654
657.177	0.0138877
657.255	0.0140071
657.333	0.0139080
657.412	0.0139126
657.490	0.0139104
657.568	0.0137872
657.646	0.0138999
657.724	0.0139143
657.802	0.0139114
657.880	0.0138770
657.958	0.0138768
658.037	0.0138521
658.115	0.0140262
658.193	0.0139600
658.271	0.0139536
658.349	0.0138949
658.427	0.0138084
658.505	0.0139571
658.583	0.0139359
658.662	0.0138470
658.740	0.0138778
658.818	0.0138308
658.896	0.0140908
658.974	0.0140096
659.052	0.0139082
659.130	0.0139048
659.208	0.0139594
659.287	0.0140026
659.365	0.0139065
659.443	0.0139358
659.521	0.0138852
659.599	0.0139989
659.677	0.0138775
659.755	0.0139394
659.833	0.0139606
659.912	0.0139040
659.990	0.0138976
660.068	0.0137128
660.146	0.0138953
660.224	0.0139671
660.302	0.0139135
660.380	0.0139113
660.458	0.0139549
660.537	0.0139277
660.615	0.0139905
660.693	0.0138953
660.771	0.0138676
660.849	0.0139870
660.927	0.0139243
661.005	0.0140472
661.083	0.0138848
661.162	0.0138768
661.240	0.0139655
661.318	0.0138783
661.396	0.0138592
661.474	0.0140279
661.552	0.0139420
661.630	0.0137595
661.708	0.0138284
661.787	0.0139658
661.865	0.0138632
661.943	0.0138389
662.021	0.0138332
662.099	0.0139707
662.177	0.0139335
662.255	0.0139296
662.333	0.0139594
662.412	0.0138913
662.490	0.0138611
662.568	0.0138130
662.646	0.0138509
662.724	0.0137206
662.802	0.0139396
662.880	0.0138274
662.958	0.0137639
663.037	0.0139144
663.115	0.0138635
663.193	0.0138409
663.271	0.0138814
663.349	0.0139103
663.427	0.0140390
663.505	0.0139811
663.583	0.0138829
663.662	0.0137857
663.740	0.0138943
663.818	0.0138937
663.896	0.0139047
663.974	0.0138972
664.052	0.0139491
664.130	0.0139592
664.208	0.0139661
664.287	0.0138009
664.365	0.0137531
664.443	0.0139733
664.521	0.0139953
664.599	0.0138715
664.677	0.0139100
664.755	0.0139610
664.833	0.0139176
664.912	0.0138101
664.990	0.0138563
665.068	0.0139545
665.146	0.0140176
665.224	0.0139452
665.302	0.0137026
665.380	0.0137928
665.458	0.0139427
665.537	0.0139524
665.615	0.0139877
665.693	0.0140939
665.771	0.0140198
665.849	0.0138354
665.927	0.0138390
666.005	0.0137149
666.083	0.0140450
666.162	0.0138721
666.240	0.0140034
666.318	0.0139922
666.396	0.0138206
666.474	0.0139785
666.552	0.0139125
666.630	0.0138496
666.708	0.0138764
666.787	0.0139368
666.865	0.0139620
666.943	0.0137852
667.021	0.0138490
667.099	0.0138953
667.177	0.0139308
667.255	0.0138065
667.333	0.0138602
667.412	0.0139422
667.490	0.0138702
667.568	0.0138935
667.646	0.0137795
667.724	0.0139329
667.802	0.0138560
667.880	0.0139005
667.958	0.0139497
668.037	0.0138407
668.115	0.0138830
668.193	0.0138141
668.271	0.0139230
668.349	0.0137372
668.427	0.0138113
668.505	0.0138176
668.583	0.0138930
668.662	0.0138042
668.740	0.0138317
668.818	0.0138525
668.896	0.0138826
668.974	0.0139594
669.052	0.0139925
669.130	0.0137990
669.208	0.0138732
669.287	0.0138978
669.365	0.0138065
669.443	0.0137771
669.521	0.0139223
669.599	0.0138911
669.677	0.0138723
669.755	0.0139053
669.833	0.0138564
669.912	0.0138493
669.990	0.0138997
670.068	0.0137611
670.146	0.0138958
670.224	0.0138425
670.302	0.0139378
670.380	0.0138664
670.458	0.0138902
670.537	0.0138671
670.615	0.0138589
670.693	0.0138757
670.771	0.0138964
670.849	0.0137844
670.927	0.0138453
671.005	0.0138521
671.083	0.0137476
671.162	0.0138235
671.240	0.0139143
671.318	0.0138653
671.396	0.0140231
671.474	0.0138959
671.552	0.0137809
671.630	0.0137515
671.708	0.0139483
671.787	0.0138578
671.865	0.0138283
671.943	0.0137778
672.021	0.0140141
672.099	0.0139610
672.177	0.0139021
672.255	0.0138560
672.333	0.0139095
672.412	0.0138326
672.490	0.0137762
672.568	0.0138177
672.646	0.0137861
672.724	0.0138714
672.802	0.0138584
672.880	0.0138798
672.958	0.0139934
673.037	0.0138789
673.115	0.0136920
673.193	0.0139725
673.271	0.0137783
673.349	0.0139410
673.427	0.0139113
673.505	0.0139452
673.583	0.0139984
673.662	0.0138515
673.740	0.0138381
673.818	0.0139718
673.896	0.0140206
673.974	0.0137543
674.052	0.0137801
674.130	0.0138974
674.208	0.0138846
674.287	0.0140176
674.365	0.0139440
674.443	0.0140337
674.521	0.0139027
674.599	0.0138328
674.677	0.0139590
674.755	0.0137742
674.833	0.0137617
674.912	0.0137803
674.990	0.0139371
675.068	0.0138264
675.146	0.0137312
675.224	0.0139091
675.302	0.0139286
675.380	0.0139230
675.458	0.0138605
675.537	0.0141052
675.615	0.0141767
675.693	0.0142232
675.771	0.0141225
675.849	0.0142101
675.927	0.0139931
676.005	0.0138909
676.083	0.0137643
676.162	0.0137154
676.240	0.0134089
676.318	0.0132497
676.396	0.0132864
676.474	0.0134704
676.552	0.0134525
676.630	0.0135716
676.708	0.0137203
676.787	0.0139615
676.865	0.0141633
676.943	0.0143889
677.021	0.0145185
677.099	0.0147019
677.177	0.0148164
677.255	0.0148695
677.333	0.0148629
677.412	0.0147834
677.490	0.0145874
677.568	0.0145872
677.646	0.0142481
677.724	0.0138864
677.802	0.0136412
677.880	0.0132420
677.958	0.0128464
678.037	0.0125745
678.115	0.0123824
678.193	0.0124678
678.271	0.0123771
678.349	0.0124205
678.427	0.0127897
678.505	0.0131664
678.583	0.0135883
678.662	0.0138892
678.740	0.0143352
678.818	0.0146555
678.896	0.0148945
678.974	0.0150457
679.052	0.0148352
679.130	0.0149191
679.208	0.0146355
679.287	0.0143727
679.365	0.0144132
679.443	0.0142079
679.521	0.0140250
679.599	0.0140160
679.677	0.0140957
679.755	0.0143258
679.833	0.0144514
679.912	0.0147162
679.990	0.0148302
680.068	0.0150899
680.146	0.0150378
680.224	0.0148082
680.302	0.0144803
680.380	0.0141971
680.458	0.0137270
680.537	0.0132093
680.615	0.0127805
680.693	0.0122736
680.771	0.0117021
680.849	0.0114333
680.927	0.0112507
681.005	0.0113360
681.083	0.0113145
681.162	0.0115340
681.240	0.0117233
681.318	0.0122627
681.396	0.0128092
681.474	0.0134472
681.552	0.0141399
681.630	0.0147854
681.708	0.0151479
681.787	0.0159279
681.865	0.0162734
681.943	0.0163952
682.021	0.0164909
682.099	0.0165143
682.177	0.0165928
682.255	0.0162885
682.333	0.0159061
682.412	0.0158312
682.490	0.0156203
682.568	0.0152934
682.646	0.0151190
682.724	0.0149888
682.802	0.0146175
682.880	0.0145662
682.958	0.0140858
683.037	0.0139276
683.115	0.0134781
683.193	0.0130801
683.271	0.0127028
683.349	0.0123197
683.427	0.0120233
683.505	0.0117506
683.583	0.0115703
683.662	0.0113465
683.740	0.0112383
683.818	0.0110447
683.896	0.0108936
683.974	0.0111787
684.052	0.0111008
684.130	0.0110983
684.208	0.0112097
684.287	0.0113394
684.365	0.0114908
684.443	0.0117548
684.521	0.0119458
684.599	0.0124002
684.677	0.0128177
684.755	0.0134481
684.833	0.0142212
684.912	0.0151107
684.990	0.0159749
685.068	0.0169118
685.146	0.0180601
685.224	0.0188178
685.302	0.0194311
685.380	0.0198843
685.458	0.0200736
685.537	0.0202569
685.615	0.0200064
685.693	0.0195397
685.771	0.0188416
685.849	0.0181434
685.927	0.0173228
686.005	0.0162479
686.083	0.0151575
686.162	0.0140840
686.240	0.0128426
686.318	0.0117567
686.396	0.0108083
686.474	0.00994118
686.552	0.00940887
686.630	0.00889343
686.708	0.00840714
686.787	0.00832367
686.865	0.00841232
686.943	0.00867432
687.021	0.00893852
687.099	0.00937714
687.177	0.00972412
687.255	0.0100974
687.333	0.0105826
687.412	0.0108261
687.490	0.0112518
687.568	0.0113297
687.646	0.0116460
687.724	0.0116371
687.802	0.0117805
687.880	0.0120279
687.958	0.0124173
688.037	0.0129464
688.115	0.0136783
688.193	0.0144578
688.271	0.0155613
688.349	0.0170379
688.427	0.0182738
688.505	0.0195848
688.583	0.0208640
688.662	0.0220231
688.740	0.0227788
688.818	0.0232885
688.896	0.0232933
688.974	0.0230101
689.052	0.0223264
689.130	0.0214407
689.208	0.0202439
689.287	0.0188428
689.365	0.0175577
689.443	0.0159569
689.521	0.0144778
689.599	0.0130835
689.677	0.0118427
689.755	0.0106155
689.833	0.00959991
689.912	0.00872070
689.990	0.00798843
690.068	0.00748070
690.146	0.00713791
690.224	0.00692101
690.302	0.00701241
690.380	0.00692535
690.458	0.00701439
690.537	0.00718658
690.615	0.00736832
690.693	0.00762054
690.771	0.00808098
690.849	0.00819786
690.927	0.00878555
691.005	0.00947014
691.083	0.0100530
691.162	0.0107372
691.240	0.0117013
691.318	0.0126051
691.396	0.0137618
691.474	0.0148913
691.552	0.0161844
691.630	0.0175066
691.708	0.0187250
691.787	0.0201350
691.865	0.0210881
691.943	0.0220566
692.021	0.0227598
692.099	0.0230836
692.177	0.0231145
692.255	0.0227034
692.333	0.0221473
692.412	0.0213556
692.490	0.0203112
692.568	0.0190454
692.646	0.0176552
692.724	0.0165815
692.802	0.0153136
692.880	0.0140213
692.958	0.0128077
693.037	0.0117632
693.115	0.0108370
693.193	0.00997894
693.271	0.00950661
693.349	0.00908630
693.427	0.00902634
693.505	0.00908478
693.583	0.00918167
693.662	0.00923653
693.740	0.00965172
693.818	0.00998245
693.896	0.0103162
693.974	0.0108293
694.052	0.0112855
694.130	0.0117085
694.208	0.0122569
694.287	0.0124917
694.365	0.0129127
694.443	0.0133510
694.521	0.0132449
694.599	0.0132765
694.677	0.0133519
694.755	0.0130977
694.833	0.0128716
694.912	0.0127821
694.990	0.0128410
695.068	0.0128538
695.146	0.0128285
695.224	0.0130397
695.302	0.0134522
695.380	0.0137013
695.458	0.0140762
695.537	0.0145019
695.615	0.0150271
695.693	0.0153197
695.771	0.0158183
695.849	0.0163312
695.927	0.0166769
696.005	0.0169457
696.083	0.0172598
696.162	0.0172276
696.240	0.0171097
696.318	0.0172061
696.396	0.0169566
696.474	0.0166495
696.552	0.0163849
696.630	0.0161533
696.708	0.0157996
696.787	0.0156782
696.865	0.0152426
696.943	0.0148730
697.021	0.0146409
697.099	0.0141596
697.177	0.0136853
697.255	0.0134454
697.333	0.0131187
697.412	0.0127277
697.490	0.0124419
697.568	0.0123447
697.646	0.0121923
697.724	0.0121796
697.802	0.0119258
697.880	0.0118850
697.958	0.0117843
698.037	0.0115041
698.115	0.0114974
698.193	0.0112872
698.271	0.0112540
698.349	0.0111691
698.427	0.0111687
698.505	0.0111166
698.583	0.0111539
698.662	0.0113214
698.740	0.0113618
698.818	0.0118366
698.896	0.0122515
698.974	0.0128061
699.052	0.0134759
699.130	0.0139415
699.208	0.0146950
699.287	0.0152591
699.365	0.0158697
699.443	0.0163935
699.521	0.0167612
699.599	0.0169296
699.677	0.0168616
699.755	0.0168361
699.833	0.0165267
699.912	0.0161946
699.990	0.0159788
700.068	0.0153777
700.146	0.0150548
700.224	0.0145313
700.302	0.0141589
700.380	0.0138560
700.458	0.0134427
700.537	0.0132881
700.615	0.0132703
700.693	0.0132230
700.771	0.0132957
700.849	0.0135425
700.927	0.0136740
701.005	0.0139111
701.083	0.0138305
701.162	0.0139586
701.240	0.0140628
701.318	0.0139980
701.396	0.0136340
701.474	0.0135889
701.552	0.0132559
701.630	0.0130998
701.708	0.0126945
701.787	0.0126397
701.865	0.0123956
701.943	0.0121722
702.021	0.0123515
702.099	0.0122553
702.177	0.0121767
702.255	0.0123713
702.333	0.0126901
702.412	0.0128024
702.490	0.0131696
702.568	0.0136051
702.646	0.0140195
702.724	0.0142968
702.802	0.0148661
702.880	0.0154082
702.958	0.0158109
703.037	0.0158614
703.115	0.0160963
703.193	0.0162022
703.271	0.0162305
703.349	0.0159800
703.427	0.0158853
703.505	0.0156900
703.583	0.0155737
703.662	0.0151273
703.740	0.0148714
703.818	0.0145699
703.896	0.0144720
703.974	0.0140700
704.052	0.0137514
704.130	0.0135077
704.208	0.0133592
704.287	0.0132762
704.365	0.0131120
704.443	0.0129945
704.521	0.0128786
704.599	0.0127850
704.677	0.0126608
704.755	0.0125334
704.833	0.0124691
704.912	0.0123034
704.990	0.0120990
705.068	0.0119100
705.146	0.0117921
705.224	0.0119024
705.302	0.0118449
705.380	0.0116796
705.458	0.0117677
705.537	0.0119154
705.615	0.0119173
705.693	0.0119831
705.771	0.0122710
705.849	0.0124226
705.927	0.0127579
706.005	0.0130045
706.083	0.0135527
706.162	0.0139497
706.240	0.0143919
706.318	0.0146423
706.396	0.0150349
706.474	0.0154349
706.552	0.0157922
706.630	0.0158840
706.708	0.0161890
706.787	0.0162445
706.865	0.0163008
706.943	0.0162589
707.021	0.0163689
707.099	0.0164809
707.177	0.0163591
707.255	0.0161829
707.333	0.0162418
707.412	0.0161108
707.490	0.0160159
707.568	0.0158411
707.646	0.0156658
707.724	0.0156355
707.802	0.0154982
707.880	0.0152962
707.958	0.0149993
708.037	0.0147178
708.115	0.0141964
708.193	0.0138663
708.271	0.0133994
708.349	0.0127448
708.427	0.0123932
708.505	0.0119334
708.583	0.0116464
708.662	0.0110775
708.740	0.0108215
708.818	0.0108810
708.896	0.0108645
708.974	0.0107153
709.052	0.0107041
709.130	0.0110125
709.208	0.0112628
709.287	0.0114733
709.365	0.0118812
709.443	0.0124226
709.521	0.0127390
709.599	0.0133054
709.677	0.0138224
709.755	0.0141126
709.833	0.0144555
709.912	0.0146198
709.990	0.0146530
710.068	0.0149699
710.146	0.0149162
710.224	0.0149550
710.302	0.0148631
710.380	0.0147150
710.458	0.0146672
710.537	0.0143372
710.615	0.0143020
710.693	0.0141629
710.771	0.0140105
710.849	0.0138246
710.927	0.0138959
711.005	0.0137980
711.083	0.0138634
711.162	0.0139529
711.240	0.0142254
711.318	0.0142795
711.396	0.0143039
711.474	0.0143098
711.552	0.0145528
711.630	0.0146809
711.708	0.0148208
711.787	0.0149773
711.865	0.0148835
711.943	0.0149850
712.021	0.0151622
712.099	0.0149424
712.177	0.0149662
712.255	0.0149842
712.333	0.0146767
712.412	0.0148316
712.490	0.0145367
712.568	0.0143606
712.646	0.0143011
712.724	0.0142341
712.802	0.0139571
712.880	0.0138868
712.958	0.0138491
713.037	0.0138276
713.115	0.0136340
713.193	0.0134241
713.271	0.0134183
713.349	0.0135558
713.427	0.0132794
713.505	0.0131661
713.583	0.0132128
713.662	0.0131335
713.740	0.0132093
713.818	0.0130439
713.896	0.0128951
713.974	0.0129037
714.052	0.0129079
714.130	0.0130703
714.208	0.0132822
714.287	0.0133018
714.365	0.0134402
714.443	0.0135562
714.521	0.0139873
714.599	0.0140906
714.677	0.0141633
714.755	0.0143242
714.833	0.0144286
714.912	0.0146569
714.990	0.0146449
715.068	0.0146828
715.146	0.0146880
715.224	0.0146414
715.302	0.0144722
715.380	0.0142915
715.458	0.0141385
715.537	0.0138948
715.615	0.0138116
715.693	0.0137400
715.771	0.0134388
715.849	0.0131657
715.927	0.0130556
716.005	0.0129937
716.083	0.0129084
716.162	0.0128624
716.240	0.0129411
716.318	0.0129842
716.396	0.0131826
716.474	0.0132378
716.552	0.0133566
716.630	0.0136715
716.708	0.0138389
716.787	0.0138376
716.865	0.0140714
716.943	0.0142657
717.021	0.0142438
717.099	0.0143645
717.177	0.0145294
717.255	0.0144218
717.333	0.0144199
717.412	0.0144303
717.490	0.0143736
717.568	0.0141838
717.646	0.0143725
717.724	0.0145352
717.802	0.0145272
717.880	0.0145081
717.958	0.0145146
718.037	0.0146947
718.115	0.0147496
718.193	0.0146249
718.271	0.0145840
718.349	0.0148544
718.427	0.0144376
718.505	0.0143866
718.583	0.0142912
718.662	0.0141414
718.740	0.0141280
718.818	0.0140707
718.896	0.0140273
718.974	0.0138570
719.052	0.0137659
719.130	0.0136879
719.208	0.0135596
719.287	0.0136590
719.365	0.0136072
719.443	0.0134935
719.521	0.0134923
719.599	0.0136700
719.677	0.0136597
719.755	0.0136572
719.833	0.0138229
719.912	0.0138146
719.990	0.0136725
720.068	0.0138624
720.146	0.0139397
720.224	0.0138254
720.302	0.0137638
720.380	0.0138175
720.458	0.0138013
720.537	0.0137090
720.615	0.0138555
720.693	0.0137329
720.771	0.0135187
720.849	0.0135697
720.927	0.0134042
721.005	0.0134176
721.083	0.0132321
721.162	0.0132092
721.240	0.0131219
721.318	0.0130538
721.396	0.0133293
721.474	0.0133089
721.552	0.0132972
721.630	0.0134476
721.708	0.0134859
721.787	0.0135486
721.865	0.0135547
721.943	0.0136692
722.021	0.0136803
722.099	0.0137575
722.177	0.0136129
722.255	0.0137568
722.333	0.0138263
722.412	0.0138740
722.490	0.0137413
722.568	0.0138965
722.646	0.0140993
722.724	0.0141309
722.802	0.0142384
722.880	0.0143434
722.958	0.0145432
723.037	0.0146626
723.115	0.0144170
723.193	0.0145808
723.271	0.0145764
723.349	0.0147205
723.427	0.0147276
723.505	0.0146916
723.583	0.0148345
723.662	0.0145782
723.740	0.0147069
723.818	0.0146560
723.896	0.0145790
723.974	0.0145814
724.052	0.0145286
724.130	0.0146739
724.208	0.0145378
724.287	0.0144811
724.365	0.0141833
724.443	0.0141663
724.521	0.0140442
724.599	0.0138985
724.677	0.0138716
724.755	0.0137784
724.833	0.0135937
724.912	0.0136742
724.990	0.0136154
725.068	0.0137381
725.146	0.0136980
725.224	0.0136074
725.302	0.0137707
725.380	0.0137569
725.458	0.0137717
725.537	0.0137121
725.615	0.0136815
725.693	0.0134854
725.771	0.0135014
725.849	0.0133481
725.927	0.0132371
726.005	0.0130836
726.083	0.0131078
726.162	0.0130198
726.240	0.0131715
726.318	0.0131243
726.396	0.0132569
726.474	0.0132500
726.552	0.0133961
726.630	0.0133511
726.708	0.0135122
726.787	0.0135490
726.865	0.0135426
726.943	0.0135378
727.021	0.0135983
727.099	0.0135057
727.177	0.0135736
727.255	0.0135863
727.333	0.0134636
727.412	0.0137019
727.490	0.0135042
727.568	0.0135280
727.646	0.0136997
727.724	0.0136938
727.802	0.0136441
727.880	0.0136661
727.958	0.0140174
728.037	0.0139021
728.115	0.0139561
728.193	0.0140424
728.271	0.0142931
728.349	0.0142341
728.427	0.0144781
728.505	0.0145232
728.583	0.0146194
728.662	0.0146749
728.740	0.0145247
728.818	0.0145700
728.896	0.0146774
728.974	0.0144533
729.052	0.0144382
729.130	0.0143829
729.208	0.0144038
729.287	0.0143314
729.365	0.0142314
729.443	0.0141830
729.521	0.0140749
729.599	0.0141108
729.677	0.0140657
729.755	0.0139259
729.833	0.0139252
729.912	0.0139478
729.990	0.0139432
730.068	0.0138017
730.146	0.0137170
730.224	0.0138387
730.302	0.0138172
730.380	0.0135694
730.458	0.0136893
730.537	0.0137433
730.615	0.0134933
730.693	0.0135737
730.771	0.0135883
730.849	0.0134835
730.927	0.0134225
731.005	0.0135117
731.083	0.0133916
731.162	0.0132492
731.240	0.0133774
731.318	0.0133758
731.396	0.0133475
731.474	0.0134709
731.552	0.0133549
731.630	0.0134930
731.708	0.0136314
731.787	0.0135966
731.865	0.0136444
731.943	0.0136850
732.021	0.0135592
732.099	0.0136807
732.177	0.0138582
732.255	0.0139660
732.333	0.0139970
732.412	0.0139439
732.490	0.0139155
732.568	0.0140674
732.646	0.0141304
732.724	0.0140327
732.802	0.0140089
732.880	0.0140256
732.958	0.0139924
733.037	0.0136890
733.115	0.0135128
733.193	0.0134779
733.271	0.0135102
733.349	0.0131982
733.427	0.0133224
733.505	0.0133909
733.583	0.0133452
733.662	0.0134888
733.740	0.0133411
733.818	0.0134586
733.896	0.0136040
733.974	0.0137760
734.052	0.0138011
734.130	0.0138642
734.208	0.0141151
734.287	0.0141045
734.365	0.0142381
734.443	0.0141561
734.521	0.0141835
734.599	0.0142709
734.677	0.0144687
734.755	0.0143410
734.833	0.0143127
734.912	0.0144317
734.990	0.0143900
735.068	0.0142005
735.146	0.0141389
735.224	0.0142123
735.302	0.0141841
735.380	0.0141476
735.458	0.0139662
735.537	0.0139703
735.615	0.0140462
735.693	0.0138766
735.771	0.0139761
735.849	0.0138789
735.927	0.0140060
736.005	0.0139314
736.083	0.0139990
736.162	0.0140490
736.240	0.0140208
736.318	0.0141666
736.396	0.0140387
736.474	0.0140273
736.552	0.0141182
736.630	0.0140101
736.708	0.0139140
736.787	0.0135669
736.865	0.0137747
736.943	0.0137479
737.021	0.0137012
737.099	0.0135187
737.177	0.0135255
737.255	0.0134724
737.333	0.0133859
737.412	0.0135574
737.490	0.0134000
737.568	0.0134408
737.646	0.0135070
737.724	0.0135307
737.802	0.0136453
737.880	0.0136818
737.958	0.0136613
738.037	0.0136777
738.115	0.0136433
738.193	0.0137525
738.271	0.0137083
738.349	0.0137807
738.427	0.0140221
738.505	0.0139865
738.583	0.0138045
738.662	0.0138173
738.740	0.0139211
738.818	0.0138620
738.896	0.0137433
738.974	0.0139110
739.052	0.0137237
739.130	0.0135721
739.208	0.0136794
739.287	0.0136002
739.365	0.0136198
739.443	0.0135822
739.521	0.0136356
739.599	0.0137927
739.677	0.0138335
739.755	0.0141300
739.833	0.0141682
739.912	0.0141576
739.990	0.0141345
740.068	0.0142182
740.146	0.0142171
740.224	0.0140574
740.302	0.0142284
740.380	0.0140496
740.458	0.0142140
740.537	0.0140855
740.615	0.0140266
740.693	0.0139397
740.771	0.0136903
740.849	0.0138086
740.927	0.0139767
741.005	0.0138997
741.083	0.0138986
741.162	0.0139111
741.240	0.0137789
741.318	0.0139474
741.396	0.0139378
741.474	0.0139759
741.552	0.0140370
741.630	0.0140289
741.708	0.0140523
741.787	0.0140235
741.865	0.0141393
741.943	0.0141312
742.021	0.0139318
742.099	0.0138773
742.177	0.0139471
742.255	0.0141354
742.333	0.0140201
742.412	0.0139495
742.490	0.0141121
742.568	0.0139240
742.646	0.0139407
742.724	0.0138850
742.802	0.0139547
742.880	0.0139889
742.958	0.0140048
743.037	0.0139333
743.115	0.0138018
743.193	0.0137220
743.271	0.0138342
743.349	0.0137592
743.427	0.0136232
743.505	0.0136225
743.583	0.0135268
743.662	0.0137016
743.740	0.0137681
743.818	0.0135927
743.896	0.0137286
743.974	0.0136507
744.052	0.0135583
744.130	0.0138552
744.208	0.0137380
744.287	0.0137751
744.365	0.0139780
744.443	0.0140141
744.521	0.0141095
744.599	0.0139862
744.677	0.0141405
744.755	0.0141061
744.833	0.0141644
744.912	0.0140960
744.990	0.0141245
745.068	0.0139381
745.146	0.0140097
745.224	0.0140490
745.302	0.0139098
745.380	0.0140517
745.458	0.0138605
745.537	0.0137705
745.615	0.0138647
745.693	0.0138692
745.771	0.0138467
745.849	0.0137657
745.927	0.0137363
746.005	0.0135738
746.083	0.0136725
746.162	0.0137265
746.240	0.0135621
746.318	0.0136094
746.396	0.0135556
746.474	0.0137159
746.552	0.0135601
746.630	0.0134898
746.708	0.0134316
746.787	0.0135376
746.865	0.0135945
746.943	0.0137180
747.021	0.0136811
747.099	0.0138557
747.177	0.0139820
747.255	0.0141382
747.333	0.0141306
747.412	0.0141386
747.490	0.0143409
747.568	0.0143242
747.646	0.0142327
747.724	0.0142350
747.802	0.0143571
747.880	0.0143665
747.958	0.0142979
748.037	0.0142625
748.115	0.0142112
748.193	0.0141254
748.271	0.0141409
748.349	0.0139270
748.427	0.0139672
748.505	0.0138618
748.583	0.0140791
748.662	0.0139479
748.740	0.0138531
748.818	0.0138425
748.896	0.0138453
748.974	0.0137814
749.052	0.0138004
749.130	0.0140072
749.208	0.0138756
749.287	0.0138444
749.365	0.0140119
749.443	0.0138877
749.521	0.0138786
749.599	0.0138869
749.677	0.0138363
749.755	0.0138511
749.833	0.0137933
749.912	0.0137119
749.990	0.0137870
750.068	0.0136353
750.146	0.0136131
750.224	0.0137367
750.302	0.0135629
750.380	0.0135762
750.458	0.0135782
750.537	0.0135653
750.615	0.0136301
750.693	0.0136130
750.771	0.0135731
750.849	0.0136440
750.927	0.0136257
751.005	0.0136251
751.083	0.0137638
751.162	0.0136929
751.240	0.0137431
751.318	0.0137488
751.396	0.0138520
751.474	0.0138564
751.552	0.0138995
751.630	0.0139221
751.708	0.0138805
751.787	0.0139564
751.865	0.0139112
751.943	0.0139477
752.021	0.0140749
752.099	0.0142382
752.177	0.0139652
752.255	0.0140256
752.333	0.0140086
752.412	0.0140266
752.490	0.0140443
752.568	0.0140508
752.646	0.0140045
752.724	0.0139448
752.802	0.0136603
752.880	0.0138375
752.958	0.0138579
753.037	0.0137228
753.115	0.0137547
753.193	0.0137279
753.271	0.0137239
753.349	0.0136684
753.427	0.0137413
753.505	0.0137769
753.583	0.0135648
753.662	0.0137445
753.740	0.0137353
753.818	0.0137251
753.896	0.0138927
753.974	0.0139633
754.052	0.0140038
754.130	0.0141077
754.208	0.0141100
754.287	0.0141029
754.365	0.0141598
754.443	0.0141257
754.521	0.0142854
754.599	0.0141118
754.677	0.0142394
754.755	0.0142779
754.833	0.0142631
754.912	0.0141261
754.990	0.0140209
755.068	0.0141401
755.146	0.0142960
755.224	0.0141029
755.302	0.0140256
755.380	0.0139640
755.458	0.0140425
755.537	0.0139997
755.615	0.0139445
755.693	0.0140096
755.771	0.0138648
755.849	0.0137670
755.927	0.0137839
756.005	0.0139841
756.083	0.0137821
756.162	0.0137363
756.240	0.0137764
756.318	0.0135726
756.396	0.0135349
756.474	0.0135260
756.552	0.0133852
756.630	0.0136114
756.708	0.0134971
756.787	0.0135413
756.865	0.0135000
756.943	0.0136055
757.021	0.0136233
757.099	0.0136727
757.177	0.0135796
757.255	0.0135737
757.333	0.0137586
757.412	0.0138483
757.490	0.0139249
757.568	0.0139476
757.646	0.0141208
757.724	0.0141586
757.802	0.0140748
757.880	0.0141946
757.958	0.0142410
758.037	0.0141386
758.115	0.0142181
758.193	0.0142041
758.271	0.0142533
758.349	0.0140376
758.427	0.0142059
758.505	0.0142303
758.583	0.0140368
758.662	0.0141964
758.740	0.0141384
758.818	0.0140640
758.896	0.0140257
758.974	0.0139685
759.052	0.0138454
759.130	0.0138393
759.208	0.0137728
759.287	0.0137738
759.365	0.0137643
759.443	0.0137240
759.521	0.0137105
759.599	0.0135729
759.677	0.0136205
759.755	0.0135816
759.833	0.0136386
759.912	0.0137537
759.990	0.0136950
760.068	0.0137822
760.146	0.0136248
760.224	0.0135720
760.302	0.0136188
760.380	0.0136162
760.458	0.0136336
760.537	0.0135455
760.615	0.0135085
760.693	0.0135049
760.771	0.0136599
760.849	0.0136836
760.927	0.0135801
761.005	0.0136662
761.083	0.0136749
761.162	0.0136805
761.240	0.0136537
761.318	0.0137543
761.396	0.0137493
761.474	0.0139383
761.552	0.0140643
761.630	0.0141214
761.708	0.0141183
761.787	0.0140821
761.865	0.0142647
761.943	0.0142133
762.021	0.0142422
762.099	0.0142300
762.177	0.0141090
762.255	0.0142601
762.333	0.0142980
762.412	0.0141392
762.490	0.0141881
762.568	0.0141809
762.646	0.0141812
762.724	0.0140493
762.802	0.0138831
762.880	0.0142234
762.958	0.0139656
763.037	0.0139539
763.115	0.0140956
763.193	0.0141188
763.271	0.0139492
763.349	0.0140175
763.427	0.0138713
763.505	0.0139642
763.583	0.0137526
763.662	0.0137665
763.740	0.0136446
763.818	0.0135301
763.896	0.0136919
763.974	0.0135581
764.052	0.0134387
764.130	0.0134798
764.208	0.0136026
764.287	0.0133863
764.365	0.0134512
764.443	0.0134009
764.521	0.0133987
764.599	0.0136005
764.677	0.0136019
764.755	0.0137122
764.833	0.0137309
764.912	0.0138729
764.990	0.0138025
765.068	0.0137951
765.146	0.0139439
765.224	0.0138559
765.302	0.0138303
765.380	0.0138599
765.458	0.0139851
765.537	0.0138441
765.615	0.0139993
765.693	0.0138428
765.771	0.0138367
765.849	0.0138498
765.927	0.0136949
766.005	0.0137748
766.083	0.0136960
766.162	0.0139195
766.240	0.0139185
766.318	0.0138035
766.396	0.0139165
766.474	0.0139017
766.552	0.0140092
766.630	0.0139462
766.708	0.0139615
766.787	0.0139992
766.865	0.0140033
766.943	0.0140462
767.021	0.0139240
767.099	0.0139915
767.177	0.0140457
767.255	0.0138248
767.333	0.0139265
767.412	0.0137616
767.490	0.0137298
767.568	0.0137790
767.646	0.0138399
767.724	0.0137221
767.802	0.0138207
767.880	0.0137919
767.958	0.0138042
768.037	0.0138347
768.115	0.0138764
768.193	0.0138661
768.271	0.0139019
768.349	0.0139633
768.427	0.0139215
768.505	0.0138603
768.583	0.0138196
768.662	0.0139674
768.740	0.0138391
768.818	0.0139809
768.896	0.0139436
768.974	0.0138956
769.052	0.0139449
769.130	0.0140538
769.208	0.0138397
769.287	0.0138878
769.365	0.0138052
769.443	0.0137112
769.521	0.0137536
769.599	0.0138517
769.677	0.0137801
769.755	0.0137579
769.833	0.0137508
769.912	0.0136030
769.990	0.0138319
770.068	0.0139060
770.146	0.0137527
770.224	0.0137607
770.302	0.0138525
770.380	0.0139092
770.458	0.0139822
770.537	0.0139689
770.615	0.0140756
770.693	0.0141953
770.771	0.0141110
770.849	0.0141373
770.927	0.0140210
771.005	0.0139355
771.083	0.0140176
771.162	0.0137479
771.240	0.0139056
771.318	0.0137952
771.396	0.0137346
771.474	0.0136308
771.552	0.0135594
771.630	0.0136621
771.708	0.0136180
771.787	0.0135781
771.865	0.0135453
771.943	0.0135873
772.021	0.0135684
772.099	0.0134921
772.177	0.0134592
772.255	0.0136410
772.333	0.0137641
772.412	0.0137824
772.490	0.0137256
772.568	0.0137898
772.646	0.0137579
772.724	0.0138984
772.802	0.0138187
772.880	0.0138315
772.958	0.0139159
773.037	0.0140407
773.115	0.0140437
773.193	0.0139502
773.271	0.0140266
773.349	0.0139541
773.427	0.0140668
773.505	0.0139618
773.583	0.0140046
773.662	0.0140168
773.740	0.0140491
773.818	0.0140409
773.896	0.0139449
773.974	0.0140942
774.052	0.0140983
774.130	0.0140418
774.208	0.0140061
774.287	0.0138783
774.365	0.0138358
774.443	0.0139510
774.521	0.0140331
774.599	0.0139772
774.677	0.0137867
774.755	0.0137270
774.833	0.0138094
774.912	0.0138994
774.990	0.0137720
775.068	0.0139271
775.146	0.0137926
775.224	0.0139623
775.302	0.0137819
775.380	0.0137363
775.458	0.0137369
775.537	0.0138046
775.615	0.0138000
775.693	0.0138059
775.771	0.0139055
775.849	0.0140671
775.927	0.0137867
776.005	0.0140037
776.083	0.0139799
776.162	0.0139499
776.240	0.0137895
776.318	0.0137314
776.396	0.0138647
776.474	0.0139414
776.552	0.0138738
776.630	0.0138235
776.708	0.0139444
776.787	0.0140228
776.865	0.0139748
776.943	0.0139896
777.021	0.0141018
777.099	0.0141972
777.177	0.0141120
777.255	0.0140820
777.333	0.0141405
777.412	0.0141666
777.490	0.0140036
777.568	0.0140142
777.646	0.0138970
777.724	0.0138742
777.802	0.0139986
777.880	0.0139753
777.958	0.0138133
778.037	0.0137965
778.115	0.0137209
778.193	0.0136189
778.271	0.0134769
778.349	0.0135064
778.427	0.0135842
778.505	0.0135761
778.583	0.0136243
778.662	0.0135609
778.740	0.0134447
778.818	0.0136089
778.896	0.0135567
778.974	0.0136380
779.052	0.0138095
779.130	0.0137146
779.208	0.0139221
779.287	0.0140624
779.365	0.0139552
779.443	0.0139841
779.521	0.0138802
779.599	0.0139828
779.677	0.0140874
779.755	0.0138872
779.833	0.0138235
779.912	0.0139973
779.990	0.0138435
780.068	0.0139666
780.146	0.0139078
780.224	0.0137753
780.302	0.0137115
780.380	0.0138126
780.458	0.0134990
780.537	0.0137141
780.615	0.0136942
780.693	0.0136047
780.771	0.0137215
780.849	0.0135889
780.927	0.0135980
781.005	0.0136720
781.083	0.0137830
781.162	0.0137823
781.240	0.0138021
781.318	0.0139491
781.396	0.0139897
781.474	0.0139890
781.552	0.0140794
781.630	0.0142131
781.708	0.0141624
781.787	0.0141892
781.865	0.0142570
781.943	0.0144375
782.021	0.0143149
782.099	0.0142794
782.177	0.0143400
782.255	0.0142889
782.333	0.0142160
782.412	0.0141412
782.490	0.0140354
782.568	0.0140576
782.646	0.0140226
782.724	0.0140358
782.802	0.0138480
782.880	0.0139290
782.958	0.0137983
783.037	0.0136903
783.115	0.0138050
783.193	0.0137724
783.271	0.0136434
783.349	0.0136140
783.427	0.0136604
783.505	0.0134852
783.583	0.0134448
783.662	0.0133998
783.740	0.0133089
783.818	0.0132909
783.896	0.0134676
783.974	0.0133146
784.052	0.0134066
784.130	0.0134689
784.208	0.0133346
784.287	0.0133824
784.365	0.0134045
784.443	0.0134377
784.521	0.0135835
784.599	0.0137119
784.677	0.0137317
784.755	0.0139748
784.833	0.0139957
784.912	0.0140872
784.990	0.0141364
785.068	0.0140364
785.146	0.0140578
785.224	0.0143208
785.302	0.0143154
785.380	0.0142852
785.458	0.0142347
785.537	0.0143171
785.615	0.0143319
785.693	0.0144199
785.771	0.0142578
785.849	0.0143385
785.927	0.0144214
786.005	0.0143730
786.083	0.0142828
786.162	0.0141282
786.240	0.0140851
786.318	0.0141724
786.396	0.0138464
786.474	0.0138200
786.552	0.0136823
786.630	0.0135957
786.708	0.0133643
786.787	0.0134240
786.865	0.0131455
786.943	0.0131100
787.021	0.0132165
787.099	0.0130582
787.177	0.0130628
787.255	0.0130238
787.333	0.0130943
787.412	0.0130409
787.490	0.0132260
787.568	0.0132803
787.646	0.0134708
787.724	0.0135043
787.802	0.0134347
787.880	0.0137593
787.958	0.0138799
788.037	0.0139294
788.115	0.0140506
788.193	0.0140666
788.271	0.0142872
788.349	0.0141524
788.427	0.0144938
788.505	0.0144465
788.583	0.0144438
788.662	0.0146124
788.740	0.0146231
788.818	0.0145824
788.896	0.0146157
788.974	0.0147054
789.052	0.0145535
789.130	0.0144424
789.208	0.0143732
789.287	0.0143097
789.365	0.0144392
789.443	0.0143516
789.521	0.0142745
789.599	0.0141896
789.677	0.0140804
789.755	0.0139886
789.833	0.0137257
789.912	0.0136881
789.990	0.0137605
790.068	0.0137611
790.146	0.0135349
790.224	0.0134648
790.302	0.0134421
790.380	0.0131863
790.458	0.0131641
790.537	0.0132192
790.615	0.0132007
790.693	0.0133679
790.771	0.0133891
790.849	0.0133855
790.927	0.0134264
791.005	0.0133610
791.083	0.0135361
791.162	0.0136829
791.240	0.0136035
791.318	0.0135526
791.396	0.0137306
791.474	0.0138303
791.552	0.0137653
791.630	0.0138028
791.708	0.0137331
791.787	0.0138251
791.865	0.0138230
791.943	0.0139418
792.021	0.0140225
792.099	0.0140901
792.177	0.0140301
792.255	0.0139844
792.333	0.0141118
792.412	0.0140478
792.490	0.0143449
792.568	0.0141791
792.646	0.0141856
792.724	0.0141376
792.802	0.0141740
792.880	0.0140987
792.958	0.0141068
793.037	0.0143009
793.115	0.0142102
793.193	0.0141817
793.271	0.0141113
793.349	0.0139270
793.427	0.0139167
793.505	0.0138342
793.583	0.0137294
793.662	0.0137478
793.740	0.0137255
793.818	0.0136074
793.896	0.0135294
793.974	0.0135180
794.052	0.0136049
794.130	0.0135953
794.208	0.0134462
794.287	0.0134363
794.365	0.0134178
794.443	0.0134741
794.521	0.0134703
794.599	0.0135358
794.677	0.0135264
794.755	0.0135518
794.833	0.0135275
794.912	0.0134898
794.990	0.0135778
795.068	0.0135796
795.146	0.0138894
795.224	0.0137427
795.302	0.0137723
795.380	0.0138608
795.458	0.0138269
795.537	0.0140200
795.615	0.0138920
795.693	0.0140211
795.771	0.0139687
795.849	0.0139458
795.927	0.0139648
796.005	0.0139316
796.083	0.0140714
796.162	0.0139700
796.240	0.0138940
796.318	0.0139594
796.396	0.0139020
796.474	0.0138309
796.552	0.0139267
796.630	0.0138046
796.708	0.0137569
796.787	0.0138538
796.865	0.0138257
796.943	0.0138035
797.021	0.0137649
797.099	0.0138231
797.177	0.0137759
797.255	0.0136411
797.333	0.0137677
797.412	0.0137997
797.490	0.0138037
797.568	0.0136794
797.646	0.0137424
797.724	0.0138392
797.802	0.0137857
797.880	0.0138473
797.958	0.0135637
798.037	0.0138081
798.115	0.0137523
798.193	0.0136374
798.271	0.0136974
798.349	0.0137330
798.427	0.0136211
798.505	0.0136825
798.583	0.0136381
798.662	0.0137624
798.740	0.0136994
798.818	0.0138026
798.896	0.0138307
798.974	0.0136805
799.052	0.0137466
799.130	0.0138000
799.208	0.0139507
799.287	0.0138341
799.365	0.0137099
799.443	0.0138317
799.521	0.0138034
799.599	0.0136388
799.677	0.0138099
799.755	0.0139011
799.833	0.0138400
799.912	0.0139931
799.990	0.0140408
800.068	0.0139604
800.146	0.0138657
800.224	0.0140094
800.302	0.0140150
800.380	0.0140545
800.458	0.0141265
800.537	0.0142340
800.615	0.0141695
800.693	0.0141980
800.771	0.0140944
800.849	0.0143294
800.927	0.0141075
801.005	0.0142165
801.083	0.0142435
801.162	0.0142074
801.240	0.0140073
801.318	0.0139497
801.396	0.0139307
801.474	0.0138249
801.552	0.0137125
801.630	0.0138383
801.708	0.0136948
801.787	0.0135763
801.865	0.0134772
801.943	0.0135471
802.021	0.0135181
802.099	0.0136208
802.177	0.0136082
802.255	0.0135820
802.333	0.0135072
802.412	0.0134126
802.490	0.0137770
802.568	0.0137992
802.646	0.0136389
802.724	0.0137674
802.802	0.0138007
802.880	0.0138660
802.958	0.0138326
803.037	0.0139687
803.115	0.0140195
803.193	0.0140729
803.271	0.0140588
803.349	0.0140884
803.427	0.0142464
803.505	0.0142645
803.583	0.0141650
803.662	0.0142562
803.740	0.0142850
803.818	0.0143784
803.896	0.0142915
803.974	0.0143497
804.052	0.0143442
804.130	0.0142454
804.208	0.0141853
804.287	0.0141667
804.365	0.0142694
804.443	0.0141956
804.521	0.0140203
804.599	0.0140105
804.677	0.0139345
804.755	0.0138355
804.833	0.0136604
804.912	0.0136114
804.990	0.0136447
805.068	0.0136094
805.146	0.0135389
805.224	0.0132812
805.302	0.0134077
805.380	0.0133649
805.458	0.0133916
805.537	0.0133281
805.615	0.0133636
805.693	0.0134523
805.771	0.0133595
805.849	0.0134758
805.927	0.0136591
806.005	0.0136069
806.083	0.0138934
806.162	0.0138058
806.240	0.0139188
806.318	0.0139900
806.396	0.0140810
806.474	0.0142466
806.552	0.0140489
806.630	0.0141301
806.708	0.0142325
806.787	0.0142586
806.865	0.0142064
806.943	0.0142953
807.021	0.0142483
807.099	0.0141464
807.177	0.0142168
807.255	0.0141628
807.333	0.0143006
807.412	0.0139997
807.490	0.0141161
807.568	0.0140190
807.646	0.0140495
807.724	0.0138924
807.802	0.0140749
807.880	0.0140727
807.958	0.0138472
808.037	0.0137856
808.115	0.0139507
808.193	0.0139252
808.271	0.0137320
808.349	0.0137965
808.427	0.0136747
808.505	0.0135485
808.583	0.0136422
808.662	0.0135432
808.740	0.0136552
808.818	0.0137123
808.896	0.0137751
808.974	0.0134982
809.052	0.0135027
809.130	0.0137621
809.208	0.0136873
809.287	0.0138432
809.365	0.0136748
809.443	0.0139154
809.521	0.0138554
809.599	0.0139370
809.677	0.0140004
809.755	0.0140255
809.833	0.0140596
809.912	0.0142635
809.990	0.0142509
810.068	0.0141868
810.146	0.0140686
810.224	0.0142412
810.302	0.0141497
810.380	0.0140047
810.458	0.0139647
810.537	0.0140668
810.615	0.0139497
810.693	0.0138963
810.771	0.0138413
810.849	0.0138532
810.927	0.0138648
811.005	0.0138381
811.083	0.0137891
811.162	0.0137495
811.240	0.0137817
811.318	0.0137524
811.396	0.0138065
811.474	0.0139574
811.552	0.0137487
811.630	0.0139038
811.708	0.0140186
811.787	0.0138309
811.865	0.0138820
811.943	0.0138706
812.021	0.0138975
812.099	0.0138367
812.177	0.0137959
812.255	0.0137288
812.333	0.0135880
812.412	0.0136884
812.490	0.0136849
812.568	0.0135348
812.646	0.0136492
812.724	0.0137073
812.802	0.0135941
812.880	0.0135334
812.958	0.0135156
813.037	0.0136092
813.115	0.0135503
813.193	0.0136860
813.271	0.0138528
813.349	0.0138464
813.427	0.0137798
813.505	0.0139758
813.583	0.0139691
813.662	0.0139173
813.740	0.0139531
813.818	0.0138808
813.896	0.0140968
813.974	0.0140300
814.052	0.0139642
814.130	0.0140218
814.208	0.0139806
814.287	0.0141282
814.365	0.0140363
814.443	0.0140515
814.521	0.0140353
814.599	0.0139310
814.677	0.0138931
814.755	0.0141650
814.833	0.0140377
814.912	0.0142018
814.990	0.0140308
815.068	0.0141193
815.146	0.0141515
815.224	0.0141262
815.302	0.0142356
815.380	0.0141454
815.458	0.0140897
815.537	0.0140929
815.615	0.0140223
815.693	0.0139890
815.771	0.0139912
815.849	0.0139077
815.927	0.0140417
816.005	0.0139421
816.083	0.0137910
816.162	0.0138650
816.240	0.0140258
816.318	0.0138041
816.396	0.0137959
816.474	0.0137516
816.552	0.0137833
816.630	0.0137524
816.708	0.0136736
816.787	0.0138467
816.865	0.0138781
816.943	0.0137935
817.021	0.0138775
817.099	0.0137798
817.177	0.0137958
817.255	0.0137112
817.333	0.0136340
817.412	0.0137330
817.490	0.0136281
817.568	0.0138667
817.646	0.0137497
817.724	0.0138641
817.802	0.0138020
817.880	0.0136250
817.958	0.0138079
818.037	0.0136953
818.115	0.0139393
818.193	0.0139139
818.271	0.0139300
818.349	0.0139995
818.427	0.0140699
818.505	0.0141361
818.583	0.0141677
818.662	0.0139545
818.740	0.0139449
818.818	0.0141617
818.896	0.0140644
818.974	0.0140592
819.052	0.0139870
819.130	0.0139477
819.208	0.0139209
819.287	0.0140307
819.365	0.0137871
819.443	0.0138842
819.521	0.0138746
819.599	0.0139085
819.677	0.0136939
819.755	0.0137034
819.833	0.0136620
819.912	0.0135892
819.990	0.0137424
820.068	0.0136922
820.146	0.0135822
820.224	0.0137778
820.302	0.0137981
820.380	0.0137229
820.458	0.0138888
820.537	0.0137639
820.615	0.0137462
820.693	0.0138454
820.771	0.0140228
820.849	0.0140213
820.927	0.0139612
821.005	0.0141383
821.083	0.0139668
821.162	0.0140746
821.240	0.0139820
821.318	0.0139266
821.396	0.0140726
821.474	0.0141010
821.552	0.0140010
821.630	0.0141429
821.708	0.0140070
821.787	0.0139391
821.865	0.0137969
821.943	0.0139869
822.021	0.0138828
822.099	0.0139034
822.177	0.0138629
822.255	0.0139314
822.333	0.0138756
822.412	0.0137759
822.490	0.0139490
822.568	0.0138300
822.646	0.0138297
822.724	0.0137395
822.802	0.0137791
822.880	0.0136761
822.958	0.0138767
823.037	0.0138769
823.115	0.0137238
823.193	0.0137483
823.271	0.0137720
823.349	0.0137856
823.427	0.0137211
823.505	0.0135754
823.583	0.0139430
823.662	0.0137166
823.740	0.0138605
823.818	0.0137589
823.896	0.0137610
823.974	0.0138443
824.052	0.0138015
824.130	0.0138752
824.208	0.0139568
824.287	0.0138490
824.365	0.0137926
824.443	0.0138276
824.521	0.0137679
824.599	0.0139024
824.677	0.0138253
824.755	0.0139632
824.833	0.0139657
824.912	0.0138938
824.990	0.0139471
825.068	0.0139920
825.146	0.0140862
825.224	0.0140925
825.302	0.0140104
825.380	0.0139853
825.458	0.0139926
825.537	0.0138903
825.615	0.0139321
825.693	0.0141213
825.771	0.0140215
825.849	0.0140128
825.927	0.0140500
826.005	0.0141048
826.083	0.0139699
826.162	0.0140118
826.240	0.0140672
826.318	0.0140279
826.396	0.0140979
826.474	0.0140642
826.552	0.0139071
826.630	0.0139454
826.708	0.0140046
826.787	0.0138849
826.865	0.0137417
826.943	0.0138930
827.021	0.0139791
827.099	0.0138941
827.177	0.0139003
827.255	0.0140165
827.333	0.0139304
827.412	0.0137971
827.490	0.0138991
827.568	0.0138751
827.646	0.0137809
827.724	0.0137740
827.802	0.0138904
827.880	0.0138633
827.958	0.0136403
828.037	0.0138241
828.115	0.0137608
828.193	0.0135054
828.271	0.0137897
828.349	0.0137426
828.427	0.0136665
828.505	0.0136915
828.583	0.0137690
828.662	0.0135828
828.740	0.0136125
828.818	0.0137044
828.896	0.0136521
828.974	0.0136533
829.052	0.0138061
829.130	0.0137746
829.208	0.0138483
829.287	0.0137724
829.365	0.0136296
829.443	0.0137563
829.521	0.0138737
829.599	0.0139361
829.677	0.0137951
829.755	0.0139091
829.833	0.0139433
829.912	0.0139445
829.990	0.0140963
830.068	0.0139337
830.146	0.0140083
830.224	0.0139901
830.302	0.0140396
830.380	0.0140841
830.458	0.0139324
830.537	0.0139088
830.615	0.0138873
830.693	0.0140904
830.771	0.0140139
830.849	0.0140835
830.927	0.0139470
831.005	0.0141255
831.083	0.0140024
831.162	0.0140029
831.240	0.0140115
831.318	0.0138367
831.396	0.0138960
831.474	0.0139172
831.552	0.0139531
831.630	0.0138561
831.708	0.0138880
831.787	0.0138976
831.865	0.0137774
831.943	0.0139725
832.021	0.0137984
832.099	0.0138449
832.177	0.0139166
832.255	0.0138893
832.333	0.0138482
832.412	0.0138055
832.490	0.0138651
832.568	0.0138947
832.646	0.0138483
832.724	0.0138258
832.802	0.0139200
832.880	0.0138426
832.958	0.0139281
833.037	0.0138034
833.115	0.0139210
833.193	0.0139106
833.271	0.0138396
833.349	0.0140611
833.427	0.0138842
833.505	0.0138591
833.583	0.0137657
833.662	0.0139457
833.740	0.0140446
833.818	0.0140537
833.896	0.0139853
833.974	0.0140189
834.052	0.0139950
834.130	0.0139378
834.208	0.0139165
834.287	0.0139260
834.365	0.0139566
834.443	0.0140269
834.521	0.0139515
834.599	0.0139422
834.677	0.0137833
834.755	0.0138727
834.833	0.0138308
834.912	0.0138708
834.990	0.0136993
835.068	0.0138390
835.146	0.0137135
835.224	0.0136121
835.302	0.0136491
835.380	0.0136826
835.458	0.0136098
835.537	0.0136972
835.615	0.0137482
835.693	0.0136797
835.771	0.0135706
835.849	0.0136553
835.927	0.0136240
836.005	0.0136925
836.083	0.0136057
836.162	0.0137389
836.240	0.0138411
836.318	0.0136816
836.396	0.0136258
836.474	0.0137799
836.552	0.0139695
836.630	0.0140165
836.708	0.0138815
836.787	0.0139568
836.865	0.0139825
836.943	0.0140505
837.021	0.0141545
837.099	0.0140085
837.177	0.0139600
837.255	0.0140112
837.333	0.0141801
837.412	0.0140772
837.490	0.0139294
837.568	0.0140977
837.646	0.0140816
837.724	0.0140023
837.802	0.0141881
837.880	0.0142398
837.958	0.0140331
838.037	0.0138539
838.115	0.0139426
838.193	0.0139687
838.271	0.0139346
838.349	0.0139901
838.427	0.0138914
838.505	0.0138534
838.583	0.0139042
838.662	0.0138432
838.740	0.0139555
838.818	0.0138149
838.896	0.0137631
838.974	0.0136944
839.052	0.0138259
839.130	0.0137132
839.208	0.0137357
839.287	0.0138357
839.365	0.0139404
839.443	0.0137594
839.521	0.0137617
839.599	0.0138329
839.677	0.0138484
839.755	0.0138316
839.833	0.0138752
839.912	0.0139423
839.990	0.0139500
840.068	0.0139706
840.146	0.0138036
840.224	0.0139147
840.302	0.0138394
840.380	0.0138764
840.458	0.0139734
840.537	0.0137625
840.615	0.0137819
840.693	0.0137529
840.771	0.0137817
840.849	0.0138326
840.927	0.0137651
841.005	0.0136913
841.083	0.0136880
841.162	0.0137713
841.240	0.0137410
841.318	0.0137627
841.396	0.0137666
841.474	0.0137566
841.552	0.0138307
841.630	0.0137344
841.708	0.0138197
841.787	0.0138708
841.865	0.0138527
841.943	0.0137141
842.021	0.0138237
842.099	0.0137940
842.177	0.0138071
842.255	0.0138800
842.333	0.0138416
842.412	0.0137593
842.490	0.0138850
842.568	0.0140271
842.646	0.0139278
842.724	0.0139819
842.802	0.0138702
842.880	0.0138992
842.958	0.0139967
843.037	0.0140838
843.115	0.0139945
843.193	0.0139445
843.271	0.0140089
843.349	0.0140771
843.427	0.0140794
843.505	0.0139986
843.583	0.0139871
843.662	0.0139033
843.740	0.0138212
843.818	0.0138330
843.896	0.0138938
843.974	0.0138050
844.052	0.0138752
844.130	0.0137494
844.208	0.0137242
844.287	0.0138464
844.365	0.0136962
844.443	0.0137102
844.521	0.0137798
844.599	0.0137988
844.677	0.0138002
844.755	0.0138799
844.833	0.0138881
844.912	0.0137737
844.990	0.0139182
845.068	0.0139489
845.146	0.0138428
845.224	0.0141236
845.302	0.0139674
845.380	0.0141245
845.458	0.0139651
845.537	0.0140673
845.615	0.0140698
845.693	0.0139223
845.771	0.0141003
845.849	0.0139770
845.927	0.0139697
846.005	0.0138937
846.083	0.0138877
846.162	0.0138291
846.240	0.0139654
846.318	0.0139398
846.396	0.0138366
846.474	0.0138949
846.552	0.0139165
846.630	0.0139647
846.708	0.0139312
846.787	0.0140035
846.865	0.0139293
846.943	0.0138082
847.021	0.0136668
847.099	0.0137801
847.177	0.0139120
847.255	0.0138206
847.333	0.0137558
847.412	0.0137314
847.490	0.0138127
847.568	0.0136557
847.646	0.0136690
847.724	0.0138197
847.802	0.0136363
847.880	0.0136841
847.958	0.0137420
848.037	0.0138190
848.115	0.0138050
848.193	0.0138334
848.271	0.0138644
848.349	0.0137968
848.427	0.0139297
848.505	0.0140379
848.583	0.0137569
848.662	0.0139799
848.740	0.0140130
848.818	0.0139122
848.896	0.0139566
848.974	0.0138853
849.052	0.0138818
849.130	0.0138468
849.208	0.0139687
849.287	0.0139151
849.365	0.0138668
849.443	0.0141221
849.521	0.0139932
849.599	0.0140431
849.677	0.0140558
849.755	0.0139809
849.833	0.0141071
849.912	0.0140030
849.990	0.0139511
850.068	0.0140125
850.146	0.0141723
850.224	0.0139362
850.302	0.0139381
850.380	0.0139732
850.458	0.0139891
850.537	0.0140841
850.615	0.0140231
850.693	0.0138653
850.771	0.0138869
850.849	0.0139706
850.927	0.0138779
851.005	0.0139329
851.083	0.0137698
851.162	0.0136326
851.240	0.0137107
851.318	0.0137553
851.396	0.0138035
851.474	0.0139745
851.552	0.0138377
851.630	0.0138850
851.708	0.0139934
851.787	0.0138750
851.865	0.0138713
851.943	0.0139613
852.021	0.0138133
852.099	0.0138953
852.177	0.0139764
852.255	0.0138984
852.333	0.0139152
852.412	0.0138458
852.490	0.0137442
852.568	0.0137920
852.646	0.0139530
852.724	0.0139017
852.802	0.0136901
852.880	0.0137990
852.958	0.0137707
853.037	0.0137479
853.115	0.0136677
853.193	0.0136143
853.271	0.0136716
853.349	0.0136635
853.427	0.0135513
853.505	0.0136296
853.583	0.0136597
853.662	0.0136616
853.740	0.0136190
853.818	0.0138222
853.896	0.0137359
853.974	0.0138883
854.052	0.0137006
854.130	0.0138154
854.208	0.0138909
854.287	0.0137298
854.365	0.0139339
854.443	0.0140273
854.521	0.0139355
854.599	0.0139642
854.677	0.0139713
854.755	0.0139004
854.833	0.0140438
854.912	0.0140487
854.990	0.0139832
855.068	0.0139824
855.146	0.0139578
855.224	0.0140929
855.302	0.0140137
855.380	0.0139328
855.458	0.0140250
855.537	0.0140353
855.615	0.0138519
855.693	0.0138760
855.771	0.0137949
855.849	0.0139610
855.927	0.0140166
856.005	0.0138634
856.083	0.0138892
856.162	0.0139626
856.240	0.0140028
856.318	0.0137274
856.396	0.0137376
856.474	0.0137730
856.552	0.0138358
856.630	0.0137799
856.708	0.0137170
856.787	0.0137827
856.865	0.0136996
856.943	0.0138071
857.021	0.0138746
857.099	0.0137215
857.177	0.0136620
857.255	0.0136930
857.333	0.0138048
857.412	0.0138805
857.490	0.0138515
857.568	0.0137609
857.646	0.0138055
857.724	0.0139406
857.802	0.0139117
857.880	0.0137118
857.958	0.0137884
858.037	0.0137784
858.115	0.0137817
858.193	0.0136314
858.271	0.0138359
858.349	0.0138229
858.427	0.0138381
858.505	0.0137758
858.583	0.0138503
858.662	0.0139577
858.740	0.0137682
858.818	0.0140221
858.896	0.0139910
858.974	0.0140044
859.052	0.0141019
859.130	0.0139372
859.208	0.0138734
859.287	0.0138171
859.365	0.0139926
859.443	0.0138937
859.521	0.0138714
859.599	0.0139841
859.677	0.0138183
859.755	0.0138512
859.833	0.0139986
859.912	0.0137581
859.990	0.0137595
860.068	0.0137038
860.146	0.0136541
860.224	0.0135831
860.302	0.0135597
860.380	0.0135625
860.458	0.0136752
860.537	0.0135960
860.615	0.0137277
860.693	0.0136841
860.771	0.0136585
860.849	0.0136227
860.927	0.0135786
861.005	0.0136727
861.083	0.0137872
861.162	0.0136623
861.240	0.0139427
861.318	0.0138248
861.396	0.0139516
861.474	0.0137973
861.552	0.0138504
861.630	0.0138091
861.708	0.0138215
861.787	0.0139704
861.865	0.0140044
861.943	0.0138831
862.021	0.0139273
862.099	0.0138099
862.177	0.0140349
862.255	0.0140513
862.333	0.0138844
862.412	0.0138828
862.490	0.0138938
862.568	0.0138736
862.646	0.0138830
862.724	0.0140851
862.802	0.0136932
862.880	0.0137790
862.958	0.0138506
863.037	0.0140246
863.115	0.0138046
863.193	0.0137704
863.271	0.0137569
863.349	0.0138123
863.427	0.0137969
863.505	0.0137715
863.583	0.0136790
863.662	0.0137265
863.740	0.0137891
863.818	0.0137346
863.896	0.0137690
863.974	0.0137912
864.052	0.0137531
864.130	0.0138334
864.208	0.0138893
864.287	0.0137984
864.365	0.0139664
864.443	0.0138895
864.521	0.0139629
864.599	0.0137614
864.677	0.0138531
864.755	0.0138192
864.833	0.0137579
864.912	0.0137563
864.990	0.0137121
865.068	0.0137426
865.146	0.0136173
865.224	0.0136673
865.302	0.0136766
865.380	0.0136171
865.458	0.0136642
865.537	0.0135788
865.615	0.0136092
865.693	0.0136600
865.771	0.0137083
865.849	0.0137774
865.927	0.0136118
866.005	0.0138129
866.083	0.0137469
866.162	0.0136706
866.240	0.0137204
866.318	0.0139091
866.396	0.0138712
866.474	0.0139436
866.552	0.0138612
866.630	0.0137894
866.708	0.0138047
866.787	0.0138112
866.865	0.0138200
866.943	0.0140054
867.021	0.0140651
867.099	0.0140724
867.177	0.0140128
867.255	0.0142323
867.333	0.0140923
867.412	0.0140127
867.490	0.0141827
867.568	0.0140028
867.646	0.0140430
867.724	0.0140424
867.802	0.0139721
867.880	0.0139999
867.958	0.0138134
868.037	0.0137969
868.115	0.0137948
868.193	0.0136441
868.271	0.0136696
868.349	0.0137635
868.427	0.0136892
868.505	0.0135896
868.583	0.0136556
868.662	0.0138867
868.740	0.0137528
868.818	0.0138081
868.896	0.0138483
868.974	0.0137622
869.052	0.0137412
869.130	0.0138260
869.208	0.0138824
869.287	0.0138929
869.365	0.0138116
869.443	0.0137470
869.521	0.0138215
869.599	0.0136532
869.677	0.0137122
869.755	0.0138055
869.833	0.0137172
869.912	0.0137935
869.990	0.0137537
870.068	0.0137930
870.146	0.0138871
870.224	0.0138725
870.302	0.0137882
870.380	0.0137835
870.458	0.0140167
870.537	0.0139883
870.615	0.0140755
870.693	0.0141275
870.771	0.0139494
870.849	0.0138664
870.927	0.0139190
871.005	0.0138144
871.083	0.0138123
871.162	0.0138037
871.240	0.0136996
871.318	0.0136576
871.396	0.0137522
871.474	0.0136811
871.552	0.0137918
871.630	0.0136800
871.708	0.0138754
871.787	0.0138503
871.865	0.0138312
871.943	0.0140646
872.021	0.0138905
872.099	0.0140217
872.177	0.0139792
872.255	0.0139186
872.333	0.0139405
872.412	0.0138804
872.490	0.0136398
872.568	0.0137340
872.646	0.0136037
872.724	0.0136199
872.802	0.0137455
872.880	0.0137057
872.958	0.0136210
873.037	0.0137279
873.115	0.0137245
873.193	0.0138737
873.271	0.0138855
873.349	0.0138658
873.427	0.0138736
873.505	0.0139306
873.583	0.0140205
873.662	0.0141140
873.740	0.0140390
873.818	0.0140932
873.896	0.0140722
873.974	0.0139261
874.052	0.0138085
874.130	0.0140346
874.208	0.0138075
874.287	0.0137410
874.365	0.0137068
874.443	0.0137876
874.521	0.0138171
874.599	0.0137748
874.677	0.0137802
874.755	0.0137789
874.833	0.0135237
874.912	0.0136560
874.990	0.0135363
875.068	0.0136497
875.146	0.0135636
875.224	0.0134869
875.302	0.0135453
875.380	0.0134288
875.458	0.0135580
875.537	0.0136614
875.615	0.0135712
875.693	0.0136658
875.771	0.0135224
875.849	0.0136942
875.927	0.0137183
876.005	0.0138819
876.083	0.0137910
876.162	0.0137460
876.240	0.0138493
876.318	0.0140141
876.396	0.0138829
876.474	0.0139618
876.552	0.0140678
876.630	0.0141037
876.708	0.0140732
876.787	0.0141641
876.865	0.0143136
876.943	0.0142903
877.021	0.0141475
877.099	0.0143410
877.177	0.0143014
877.255	0.0143496
877.333	0.0142374
877.412	0.0141936
877.490	0.0142753
877.568	0.0141521
877.646	0.0139528
877.724	0.0138561
877.802	0.0137370
877.880	0.0136037
877.958	0.0136299
878.037	0.0135831
878.115	0.0135929
878.193	0.0134952
878.271	0.0133418
878.349	0.0132763
878.427	0.0132500
878.505	0.0134264
878.583	0.0133160
878.662	0.0132434
878.740	0.0133201
878.818	0.0133934
878.896	0.0134399
878.974	0.0135785
879.052	0.0136233
879.130	0.0136544
879.208	0.0138928
879.287	0.0139584
879.365	0.0139046
879.443	0.0139313
879.521	0.0139273
879.599	0.0141553
879.677	0.0140431
879.755	0.0139777
879.833	0.0141417
879.912	0.0140733
879.990	0.0143109
880.068	0.0143163
880.146	0.0142702
880.224	0.0144529
880.302	0.0145183
880.380	0.0144998
880.458	0.0145320
880.537	0.0146157
880.615	0.0146751
880.693	0.0145790
880.771	0.0145503
880.849	0.0143514
880.927	0.0142553
881.005	0.0140929
881.083	0.0138619
881.162	0.0137735
881.240	0.0135757
881.318	0.0133897
881.396	0.0132209
881.474	0.0130878
881.552	0.0130499
881.630	0.0129403
881.708	0.0128711
881.787	0.0127786
881.865	0.0128085
881.943	0.0127839
882.021	0.0130462
882.099	0.0132014
882.177	0.0132755
882.255	0.0132519
882.333	0.0136495
882.412	0.0137883
882.490	0.0138095
882.568	0.0138997
882.646	0.0141345
882.724	0.0143011
882.802	0.0143163
882.880	0.0142930
882.958	0.0143554
883.037	0.0145039
883.115	0.0144189
883.193	0.0143713
883.271	0.0143724
883.349	0.0145123
883.427	0.0144307
883.505	0.0144678
883.583	0.0145315
883.662	0.0144701
883.740	0.0145073
883.818	0.0144289
883.896	0.0146108
883.974	0.0145213
884.052	0.0143758
884.130	0.0143285
884.208	0.0141449
884.287	0.0141589
884.365	0.0142123
884.443	0.0139735
884.521	0.0137283
884.599	0.0135847
884.677	0.0135016
884.755	0.0132852
884.833	0.0132410
884.912	0.0131138
884.990	0.0130986
885.068	0.0131146
885.146	0.0129877
885.224	0.0131552
885.302	0.0129415
885.380	0.0130353
885.458	0.0130326
885.537	0.0131754
885.615	0.0133540
885.693	0.0133605
885.771	0.0136244
885.849	0.0135887
885.927	0.0137202
886.005	0.0139191
886.083	0.0139643
886.162	0.0139740
886.240	0.0139490
886.318	0.0140358
886.396	0.0140770
886.474	0.0141053
886.552	0.0139883
886.630	0.0140984
886.708	0.0140334
886.787	0.0140899
886.865	0.0140289
886.943	0.0139131
887.021	0.0141190
887.099	0.0142725
887.177	0.0142085
887.255	0.0142168
887.333	0.0143695
887.412	0.0143312
887.490	0.0144012
887.568	0.0142908
887.646	0.0144259
887.724	0.0144122
887.802	0.0142912
887.880	0.0143478
887.958	0.0143502
888.037	0.0142389
888.115	0.0139728
888.193	0.0140385
888.271	0.0138462
888.349	0.0137380
888.427	0.0136401
888.505	0.0135454
888.583	0.0133567
888.662	0.0133730
888.740	0.0133128
888.818	0.0133379
888.896	0.0133057
888.974	0.0133563
889.052	0.0134403
889.130	0.0133909
889.208	0.0134908
889.287	0.0135741
889.365	0.0134751
889.443	0.0136448
889.521	0.0137941
889.599	0.0138245
889.677	0.0139811
889.755	0.0138413
889.833	0.0139608
889.912	0.0140704
889.990	0.0139604
890.068	0.0140131
890.146	0.0140652
890.224	0.0140941
890.302	0.0141293
890.380	0.0141279
890.458	0.0141180
890.537	0.0142228
890.615	0.0141772
890.693	0.0143480
890.771	0.0142683
890.849	0.0141113
890.927	0.0143468
891.005	0.0142449
891.083	0.0144154
891.162	0.0142099
891.240	0.0143185
891.318	0.0142289
891.396	0.0142231
891.474	0.0142961
891.552	0.0140298
891.630	0.0139717
891.708	0.0140247
891.787	0.0138211
891.865	0.0137298
891.943	0.0135857
892.021	0.0135962
892.099	0.0133847
892.177	0.0134501
892.255	0.0132986
892.333	0.0131863
892.412	0.0134158
892.490	0.0133801
892.568	0.0132588
892.646	0.0133347
892.724	0.0134193
892.802	0.0134306
892.880	0.0133819
892.958	0.0135316
893.037	0.0135513
893.115	0.0135677
893.193	0.0136446
893.271	0.0135909
893.349	0.0138519
893.427	0.0138824
893.505	0.0139217
893.583	0.0140726
893.662	0.0139592
893.740	0.0140443
893.818	0.0141216
893.896	0.0141262
893.974	0.0142529
894.052	0.0142482
894.130	0.0143497
894.208	0.0142574
894.287	0.0142271
894.365	0.0143790
894.443	0.0143476
894.521	0.0141849
894.599	0.0143082
894.677	0.0142112
894.755	0.0141434
894.833	0.0142086
894.912	0.0140097
894.990	0.0142104
895.068	0.0140416
895.146	0.0138663
895.224	0.0139338
895.302	0.0139612
895.380	0.0139957
895.458	0.0138862
895.537	0.0138446
895.615	0.0138543
895.693	0.0138300
895.771	0.0137534
895.849	0.0138779
895.927	0.0137955
896.005	0.0136588
896.083	0.0136382
896.162	0.0136776
896.240	0.0137077
896.318	0.0136947
896.396	0.0136861
896.474	0.0135460
896.552	0.0136092
896.630	0.0136234
896.708	0.0136277
896.787	0.0136656
896.865	0.0137437
896.943	0.0135076
897.021	0.0136156
897.099	0.0136890
897.177	0.0135564
897.255	0.0137141
897.333	0.0136594
897.412	0.0136877
897.490	0.0139703
897.568	0.0138615
897.646	0.0138901
897.724	0.0141364
897.802	0.0140236
897.880	0.0141512
897.958	0.0140699
898.037	0.0140958
898.115	0.0142189
898.193	0.0141569
898.271	0.0142268
898.349	0.0142501
898.427	0.0143240
898.505	0.0142883
898.583	0.0141877
898.662	0.0142381
898.740	0.0141364
898.818	0.0141972
898.896	0.0141315
898.974	0.0142355
899.052	0.0141943
899.130	0.0140919
899.208	0.0139411
899.287	0.0139901
899.365	0.0139256
899.443	0.0138065
899.521	0.0139110
899.599	0.0137275
899.677	0.0136568
899.755	0.0137157
899.833	0.0137679
899.912	0.0136454
899.990	0.0134707
900.068	0.0133994
900.146	0.0135249
900.224	0.0135665
900.302	0.0134898
900.380	0.0134347
900.458	0.0135338
900.537	0.0134690
900.615	0.0136044
900.693	0.0136086
900.771	0.0135987
900.849	0.0138604
900.927	0.0137804
901.005	0.0140014
901.083	0.0140875
901.162	0.0140850
901.240	0.0141718
901.318	0.0142592
901.396	0.0141618
901.474	0.0144404
901.552	0.0142311
901.630	0.0142760
901.708	0.0141973
901.787	0.0142316
901.865	0.0142906
901.943	0.0143554
902.021	0.0142742
902.099	0.0139601
902.177	0.0140694
902.255	0.0140057
902.333	0.0141213
902.412	0.0139313
902.490	0.0140028
902.568	0.0139217
902.646	0.0138859
902.724	0.0138605
902.802	0.0139156
902.880	0.0138862
902.958	0.0138397
903.037	0.0138435
903.115	0.0138229
903.193	0.0139062
903.271	0.0138467
903.349	0.0138694
903.427	0.0137399
903.505	0.0138987
903.583	0.0139385
903.662	0.0140440
903.740	0.0139988
903.818	0.0139548
903.896	0.0140798
903.974	0.0140845
904.052	0.0139950
904.130	0.0141288
904.208	0.0140162
904.287	0.0139314
904.365	0.0141000
904.443	0.0141903
904.521	0.0141756
904.599	0.0142062
904.677	0.0141618
904.755	0.0142296
904.833	0.0142028
904.912	0.0140786
904.990	0.0140935
905.068	0.0140269
905.146	0.0141110
905.224	0.0140009
905.302	0.0137574
905.380	0.0138016
905.458	0.0139191
905.537	0.0139951
905.615	0.0138239
905.693	0.0137885
905.771	0.0137836
905.849	0.0139436
905.927	0.0139240
906.005	0.0137875
906.083	0.0137812
906.162	0.0139674
906.240	0.0139394
906.318	0.0139040
906.396	0.0140774
906.474	0.0139335
906.552	0.0138663
906.630	0.0140088
906.708	0.0140553
906.787	0.0140252
906.865	0.0139639
906.943	0.0139067
907.021	0.0138586
907.099	0.0139262
907.177	0.0138349
907.255	0.0136976
907.333	0.0137462
907.412	0.0137626
907.490	0.0137077
907.568	0.0136674
907.646	0.0137337
907.724	0.0137126
907.802	0.0136487
907.880	0.0137115
907.958	0.0136678
908.037	0.0138172
908.115	0.0139035
908.193	0.0140191
908.271	0.0139424
908.349	0.0139154
908.427	0.0139708
908.505	0.0139574
908.583	0.0139619
908.662	0.0140833
908.740	0.0139531
908.818	0.0140791
908.896	0.0141566
908.974	0.0140458
909.052	0.0140543
909.130	0.0139204
909.208	0.0141521
909.287	0.0140674
909.365	0.0139000
909.443	0.0138491
909.521	0.0140098
909.599	0.0139912
909.677	0.0137975
909.755	0.0138743
909.833	0.0139278
909.912	0.0137118
909.990	0.0139489
910.068	0.0138360
910.146	0.0137582
910.224	0.0137935
910.302	0.0138280
910.380	0.0138988
910.458	0.0137276
910.537	0.0138436
910.615	0.0139034
910.693	0.0138184
910.771	0.0138380
910.849	0.0137373
910.927	0.0139886
911.005	0.0138593
911.083	0.0139294
911.162	0.0139433
911.240	0.0139908
911.318	0.0139790
911.396	0.0139713
911.474	0.0139189
911.552	0.0140313
911.630	0.0140069
911.708	0.0139753
911.787	0.0140206
911.865	0.0139443
911.943	0.0140460
912.021	0.0140013
912.099	0.0140843
912.177	0.0138046
912.255	0.0138985
912.333	0.0138258
912.412	0.0137768
912.490	0.0138660
912.568	0.0137578
912.646	0.0136774
912.724	0.0136247
912.802	0.0136793
912.880	0.0137191
912.958	0.0138095
913.037	0.0137510
913.115	0.0136980
913.193	0.0136502
913.271	0.0138431
913.349	0.0138004
913.427	0.0137590
913.505	0.0138347
913.583	0.0139388
913.662	0.0137682
913.740	0.0138633
913.818	0.0138941
913.896	0.0139913
913.974	0.0138837
914.052	0.0138055
914.130	0.0139679
914.208	0.0139367
914.287	0.0139648
914.365	0.0139494
914.443	0.0139753
914.521	0.0140131
914.599	0.0141696
914.677	0.0140877
914.755	0.0140547
914.833	0.0140161
914.912	0.0140469
914.990	0.0139317
915.068	0.0139976
915.146	0.0139787
915.224	0.0138754
915.302	0.0139551
915.380	0.0139175
915.458	0.0139103
915.537	0.0139359
915.615	0.0141264
915.693	0.0140192
915.771	0.0140041
915.849	0.0141730
915.927	0.0139598
916.005	0.0140540
916.083	0.0141412
916.162	0.0141870
916.240	0.0139749
916.318	0.0139848
916.396	0.0139341
916.474	0.0139563
916.552	0.0139016
916.630	0.0139741
916.708	0.0137354
916.787	0.0137252
916.865	0.0137412
916.943	0.0138452
917.021	0.0138892
917.099	0.0137726
917.177	0.0136138
917.255	0.0136801
917.333	0.0137362
917.412	0.0138306
917.490	0.0137981
917.568	0.0138286
917.646	0.0137217
917.724	0.0137978
917.802	0.0137373
917.880	0.0138692
917.958	0.0138513
918.037	0.0137920
918.115	0.0138277
918.193	0.0139223
918.271	0.0139516
918.349	0.0138639
918.427	0.0138213
918.505	0.0139356
918.583	0.0140692
918.662	0.0139477
918.740	0.0140479
918.818	0.0140438
918.896	0.0139898
918.974	0.0139894
919.052	0.0138898
919.130	0.0140584
919.208	0.0141203
919.287	0.0141383
919.365	0.0140816
919.443	0.0142519
919.521	0.0140993
919.599	0.0140337
919.677	0.0141638
919.755	0.0141714
919.833	0.0141054
919.912	0.0140601
919.990	0.0141507
920.068	0.0140528
920.146	0.0140929
920.224	0.0140170
920.302	0.0141698
920.380	0.0141276
920.458	0.0141250
920.537	0.0140654
920.615	0.0141053
920.693	0.0141833
920.771	0.0140569
920.849	0.0140844
920.927	0.0139874
921.005	0.0140549
921.083	0.0139371
921.162	0.0140085
921.240	0.0139551
921.318	0.0138509
921.396	0.0138403
921.474	0.0138256
921.552	0.0139502
921.630	0.0137788
921.708	0.0139037
921.787	0.0137223
921.865	0.0137315
921.943	0.0138074
922.021	0.0138234
922.099	0.0136970
922.177	0.0137040
922.255	0.0137219
922.333	0.0137571
922.412	0.0138088
922.490	0.0138793
922.568	0.0140070
922.646	0.0138201
922.724	0.0139680
922.802	0.0138908
922.880	0.0139845
922.958	0.0140341
923.037	0.0139802
923.115	0.0140488
923.193	0.0141904
923.271	0.0141918
923.349	0.0140903
923.427	0.0140539
923.505	0.0141910
923.583	0.0141340
923.662	0.0141394
923.740	0.0142456
923.818	0.0142419
923.896	0.0140641
923.974	0.0142316
924.052	0.0142450
924.130	0.0141759
924.208	0.0140809
924.287	0.0141510
924.365	0.0140281
924.443	0.0141315
924.521	0.0140759
924.599	0.0139531
924.677	0.0140546
924.755	0.0140410
924.833	0.0139490
924.912	0.0139040
924.990	0.0139295
925.068	0.0139638
925.146	0.0138723
925.224	0.0137094
925.302	0.0138286
925.380	0.0137070
925.458	0.0138187
925.537	0.0138501
925.615	0.0135561
925.693	0.0136679
925.771	0.0139315
925.849	0.0139492
925.927	0.0139040
926.005	0.0138153
926.083	0.0139175
926.162	0.0140166
926.240	0.0140427
926.318	0.0139440
926.396	0.0139935
926.474	0.0140810
926.552	0.0139831
926.630	0.0141219
926.708	0.0141837
926.787	0.0140736
926.865	0.0141335
926.943	0.0140055
927.021	0.0141151
927.099	0.0141270
927.177	0.0139172
927.255	0.0139943
927.333	0.0139433
927.412	0.0139169
927.490	0.0138802
927.568	0.0138283
927.646	0.0138382
927.724	0.0139627
927.802	0.0138239
927.880	0.0137702
927.958	0.0137627
928.037	0.0136721
928.115	0.0137746
928.193	0.0136633
928.271	0.0136937
928.349	0.0137659
928.427	0.0137508
928.505	0.0136566
928.583	0.0136659
928.662	0.0136481
928.740	0.0137080
928.818	0.0137045
928.896	0.0137309
928.974	0.0136458
929.052	0.0136719
929.130	0.0136575
929.208	0.0136915
929.287	0.0137192
929.365	0.0138200
929.443	0.0137346
929.521	0.0136888
929.599	0.0139009
929.677	0.0138846
929.755	0.0139523
929.833	0.0140498
929.912	0.0140330
929.990	0.0139645
930.068	0.0141510
930.146	0.0140366
930.224	0.0139626
930.302	0.0141170
930.380	0.0141129
930.458	0.0141423
930.537	0.0141817
930.615	0.0140461
930.693	0.0140113
930.771	0.0139211
930.849	0.0139054
930.927	0.0137602
931.005	0.0138525
931.083	0.0138055
931.162	0.0137585
931.240	0.0138788
931.318	0.0138047
931.396	0.0137943
931.474	0.0138033
931.552	0.0137167
931.630	0.0136821
931.708	0.0136987
931.787	0.0137727
931.865	0.0136919
931.943	0.0136166
932.021	0.0137866
932.099	0.0137215
932.177	0.0136747
932.255	0.0137087
932.333	0.0138115
932.412	0.0137162
932.490	0.0137577
932.568	0.0137817
932.646	0.0137318
932.724	0.0137186
932.802	0.0138344
932.880	0.0137784
932.958	0.0137778
933.037	0.0137737
933.115	0.0139379
933.193	0.0138351
933.271	0.0137963
933.349	0.0138920
933.427	0.0138824
933.505	0.0139426
933.583	0.0140190
933.662	0.0137267
933.740	0.0137637
933.818	0.0137882
933.896	0.0138611
933.974	0.0137697
934.052	0.0136902
934.130	0.0137578
934.208	0.0136381
934.287	0.0136375
934.365	0.0137097
934.443	0.0135905
934.521	0.0137584
934.599	0.0136816
934.677	0.0136448
934.755	0.0137411
934.833	0.0136854
934.912	0.0137711
934.990	0.0138948
935.068	0.0138573
935.146	0.0139905
935.224	0.0139838
935.302	0.0140762
935.380	0.0140666
935.458	0.0139918
935.537	0.0140906
935.615	0.0140509
935.693	0.0139938
935.771	0.0139882
935.849	0.0138312
935.927	0.0139695
936.005	0.0139954
936.083	0.0139459
936.162	0.0138933
936.240	0.0139233
936.318	0.0138719
936.396	0.0138862
936.474	0.0139836
936.552	0.0137263
936.630	0.0137809
936.708	0.0139062
936.787	0.0138570
936.865	0.0139425
936.943	0.0138995
937.021	0.0139247
937.099	0.0137706
937.177	0.0138342
937.255	0.0138021
937.333	0.0138615
937.412	0.0138793
937.490	0.0139406
937.568	0.0138459
937.646	0.0138368
937.724	0.0139751
937.802	0.0138614
937.880	0.0140359
937.958	0.0139097
938.037	0.0139095
938.115	0.0139960
938.193	0.0140529
938.271	0.0140485
938.349	0.0140560
938.427	0.0141930
938.505	0.0141032
938.583	0.0140381
938.662	0.0141492
938.740	0.0140525
938.818	0.0140454
938.896	0.0141303
938.974	0.0140044
939.052	0.0139117
939.130	0.0141407
939.208	0.0140382
939.287	0.0140070
939.365	0.0138900
939.443	0.0139311
939.521	0.0139716
939.599	0.0138844
939.677	0.0137377
939.755	0.0138681
939.833	0.0139217
939.912	0.0138522
939.990	0.0137008
940.068	0.0137540
940.146	0.0139072
940.224	0.0137394
940.302	0.0138192
940.380	0.0136856
940.458	0.0135895
940.537	0.0135808
940.615	0.0137222
940.693	0.0136251
940.771	0.0137547
940.849	0.0137386
940.927	0.0138042
941.005	0.0138941
941.083	0.0138227
941.162	0.0138641
941.240	0.0138302
941.318	0.0139011
941.396	0.0139133
941.474	0.0137801
941.552	0.0139603
941.630	0.0140644
941.708	0.0140927
941.787	0.0140466
941.865	0.0141376
941.943	0.0141748
942.021	0.0140908
942.099	0.0141730
942.177	0.0142036
942.255	0.0141464
942.333	0.0140057
942.412	0.0140852
942.490	0.0141428
942.568	0.0140402
942.646	0.0141331
942.724	0.0140726
942.802	0.0139639
942.880	0.0140027
942.958	0.0139491
943.037	0.0139897
943.115	0.0139615
943.193	0.0139264
943.271	0.0138748
943.349	0.0140564
943.427	0.0140098
943.505	0.0139542
943.583	0.0140923
943.662	0.0140903
943.740	0.0141351
943.818	0.0140680
943.896	0.0139405
943.974	0.0140031
944.052	0.0140874
944.130	0.0140688
944.208	0.0140934
944.287	0.0139346
944.365	0.0140925
944.443	0.0139712
944.521	0.0138436
944.599	0.0138005
944.677	0.0138543
944.755	0.0138585
944.833	0.0138278
944.912	0.0138148
944.990	0.0139432
945.068	0.0138328
945.146	0.0137843
945.224	0.0137991
945.302	0.0138644
945.380	0.0139171
945.458	0.0137500
945.537	0.0137521
945.615	0.0138197
945.693	0.0138749
945.771	0.0139293
945.849	0.0138101
945.927	0.0137958
946.005	0.0139732
946.083	0.0139454
946.162	0.0138176
946.240	0.0139478
946.318	0.0139324
946.396	0.0138816
946.474	0.0140197
946.552	0.0139408
946.630	0.0139465
946.708	0.0139832
946.787	0.0140083
946.865	0.0139544
946.943	0.0139390
947.021	0.0139706
947.099	0.0140462
947.177	0.0139767
947.255	0.0138799
947.333	0.0139790
947.412	0.0139520
947.490	0.0139294
947.568	0.0141366
947.646	0.0139340
947.724	0.0138713
947.802	0.0137671
947.880	0.0139555
947.958	0.0140698
948.037	0.0138794
948.115	0.0139160
948.193	0.0139748
948.271	0.0138461
948.349	0.0137650
948.427	0.0137360
948.505	0.0139834
948.583	0.0138516
948.662	0.0138184
948.740	0.0137308
948.818	0.0137298
948.896	0.0136106
948.974	0.0137537
949.052	0.0138369
949.130	0.0137632
949.208	0.0138190
949.287	0.0139101
949.365	0.0138468
949.443	0.0138046
949.521	0.0139449
949.599	0.0139996
949.677	0.0138614
949.755	0.0139808
949.833	0.0140359
949.912	0.0140305
949.990	0.0139754
950.068	0.0139948
950.146	0.0140049
950.224	0.0139902
950.302	0.0138607
950.380	0.0137278
950.458	0.0139033
950.537	0.0138770
950.615	0.0138457
950.693	0.0138764
950.771	0.0138805
950.849	0.0138843
950.927	0.0138113
951.005	0.0138721
951.083	0.0138449
951.162	0.0138176
951.240	0.0137139
951.318	0.0137911
951.396	0.0138035
951.474	0.0138407
951.552	0.0137644
951.630	0.0138834
951.708	0.0137814
951.787	0.0138799
951.865	0.0138375
951.943	0.0138235
952.021	0.0137748
952.099	0.0138928
952.177	0.0139153
952.255	0.0139719
952.333	0.0139375
952.412	0.0139463
952.490	0.0139089
952.568	0.0138902
952.646	0.0139501
952.724	0.0138834
952.802	0.0138326
952.880	0.0138418
952.958	0.0139580
953.037	0.0136802
953.115	0.0135992
953.193	0.0137693
953.271	0.0136657
953.349	0.0139017
953.427	0.0138838
953.505	0.0137559
953.583	0.0138432
953.662	0.0137357
953.740	0.0137914
953.818	0.0139214
953.896	0.0138621
953.974	0.0138641
954.052	0.0137299
954.130	0.0137253
954.208	0.0139005
954.287	0.0138650
954.365	0.0138012
954.443	0.0136715
954.521	0.0138815
954.599	0.0139533
954.677	0.0137847
954.755	0.0139626
954.833	0.0138789
954.912	0.0137808
954.990	0.0138765
955.068	0.0137650
955.146	0.0137840
955.224	0.0138999
955.302	0.0139785
955.380	0.0139107
955.458	0.0138704
955.537	0.0137818
955.615	0.0138632
955.693	0.0139837
955.771	0.0139906
955.849	0.0138529
955.927	0.0136996
956.005	0.0138721
956.083	0.0138493
956.162	0.0138702
956.240	0.0139116
956.318	0.0138684
956.396	0.0138545
956.474	0.0138221
956.552	0.0138172
956.630	0.0138692
956.708	0.0138779
956.787	0.0138896
956.865	0.0139079
956.943	0.0138737
957.021	0.0138193
957.099	0.0137416
957.177	0.0137646
957.255	0.0137305
957.333	0.0137408
957.412	0.0136739
957.490	0.0137629
957.568	0.0135732
957.646	0.0136028
957.724	0.0136950
957.802	0.0138304
957.880	0.0137260
957.958	0.0137772
958.037	0.0139059
958.115	0.0140234
958.193	0.0139828
958.271	0.0139110
958.349	0.0139847
958.427	0.0138393
958.505	0.0139664
958.583	0.0139735
958.662	0.0139650
958.740	0.0137428
958.818	0.0138716
958.896	0.0138818
958.974	0.0139027
959.052	0.0139053
959.130	0.0138562
959.208	0.0138667
959.287	0.0137675
959.365	0.0139039
959.443	0.0138119
959.521	0.0139093
959.599	0.0138432
959.677	0.0138459
959.755	0.0137767
959.833	0.0137025
959.912	0.0136525
959.990	0.0137336
960.068	0.0137086
960.146	0.0137761
960.224	0.0136337
960.302	0.0137247
960.380	0.0136575
960.458	0.0137336
960.537	0.0136395
960.615	0.0137090
960.693	0.0137840
960.771	0.0138177
960.849	0.0137734
960.927	0.0139275
961.005	0.0139811
961.083	0.0139087
961.162	0.0140269
961.240	0.0140408
961.318	0.0139552
961.396	0.0139630
961.474	0.0141165
961.552	0.0141020
961.630	0.0140250
961.708	0.0139444
961.787	0.0139697
961.865	0.0139146
961.943	0.0140074
962.021	0.0139729
962.099	0.0139960
962.177	0.0139555
962.255	0.0138820
962.333	0.0137702
962.412	0.0138222
962.490	0.0139925
962.568	0.0138468
962.646	0.0138873
962.724	0.0137623
962.802	0.0138957
962.880	0.0139760
962.958	0.0138913
963.037	0.0138174
963.115	0.0138412
963.193	0.0137759
963.271	0.0138862
963.349	0.0138531
963.427	0.0140048
963.505	0.0137666
963.583	0.0137821
963.662	0.0136702
963.740	0.0137571
963.818	0.0135758
963.896	0.0136610
963.974	0.0135759
964.052	0.0136618
964.130	0.0136912
964.208	0.0135688
964.287	0.0137222
964.365	0.0138311
964.443	0.0138589
964.521	0.0138007
964.599	0.0139780
964.677	0.0139917
964.755	0.0139980
964.833	0.0140176
964.912	0.0139345
964.990	0.0140324
965.068	0.0139741
965.146	0.0139153
965.224	0.0138329
965.302	0.0137625
965.380	0.0139492
965.458	0.0138386
965.537	0.0138438
965.615	0.0138706
965.693	0.0137571
965.771	0.0138324
965.849	0.0139452
965.927	0.0138046
966.005	0.0138932
966.083	0.0139772
966.162	0.0139932
966.240	0.0140148
966.318	0.0140295
966.396	0.0140206
966.474	0.0141140
966.552	0.0139603
966.630	0.0138161
966.708	0.0139220
966.787	0.0138411
966.865	0.0137109
966.943	0.0136807
967.021	0.0137738
967.099	0.0136082
967.177	0.0135835
967.255	0.0136704
967.333	0.0137023
967.412	0.0136729
967.490	0.0137226
967.568	0.0136850
967.646	0.0137081
967.724	0.0138671
967.802	0.0137930
967.880	0.0138303
967.958	0.0138971
968.037	0.0140588
968.115	0.0139655
968.193	0.0140939
968.271	0.0139761
968.349	0.0137080
968.427	0.0139542
968.505	0.0139679
968.583	0.0136865
968.662	0.0137537
968.740	0.0139014
968.818	0.0136529
968.896	0.0136250
968.974	0.0136833
969.052	0.0137105
969.130	0.0137959
969.208	0.0138691
969.287	0.0137724
969.365	0.0139017
969.443	0.0139195
969.521	0.0139259
969.599	0.0138166
969.677	0.0140634
969.755	0.0140883
969.833	0.0139830
969.912	0.0139395
