05/08/2022	19:46:40	Ver.	4.1	UNKNOWN
Optical Delay	649.989667	Delta X		0.078125	Sweeps	1	Scan Rate	0/0
Coordinates	Axis 1	NaN	Axis 2	NaN	Axis 3	NaN	Axis 4	NaN	Axis 5	NaN	Axis 6	0.000000
TX Power	0.000000	RX Power	0.000000

649.990	0.0138596
650.068	0.0138879
650.146	0.0140160
650.224	0.0137562
650.302	0.0137650
650.380	0.0138637
650.458	0.0138324
650.537	0.0138951
650.615	0.0138261
650.693	0.0139165
650.771	0.0139558
650.849	0.0138300
650.927	0.0139234
651.005	0.0139216
651.083	0.0137856
651.162	0.0138301
651.240	0.0137107
651.318	0.0137259
651.396	0.0138605
651.474	0.0137523
651.552	0.0138433
651.630	0.0137275
651.708	0.0139413
651.787	0.0138730
651.865	0.0139514
651.943	0.0137682
652.021	0.0139407
652.099	0.0139580
652.177	0.0139465
652.255	0.0138785
652.333	0.0139381
652.412	0.0138267
652.490	0.0137609
652.568	0.0138575
652.646	0.0138316
652.724	0.0139377
652.802	0.0138927
652.880	0.0138109
652.958	0.0138812
653.037	0.0138352
653.115	0.0139539
653.193	0.0138165
653.271	0.0137527
653.349	0.0139133
653.427	0.0138609
653.505	0.0137717
653.583	0.0139093
653.662	0.0138419
653.740	0.0139433
653.818	0.0137536
653.896	0.0138150
653.974	0.0138979
654.052	0.0138073
654.130	0.0137951
654.208	0.0138010
654.287	0.0139708
654.365	0.0139714
654.443	0.0138633
654.521	0.0138339
654.599	0.0140580
654.677	0.0139418
654.755	0.0138539
654.833	0.0137578
654.912	0.0137850
654.990	0.0140507
655.068	0.0138731
655.146	0.0137920
655.224	0.0139933
655.302	0.0140341
655.380	0.0138300
655.458	0.0137225
655.537	0.0137893
655.615	0.0139275
655.693	0.0137518
655.771	0.0138832
655.849	0.0137938
655.927	0.0138620
656.005	0.0138505
656.083	0.0138515
656.162	0.0138850
656.240	0.0138658
656.318	0.0139283
656.396	0.0137720
656.474	0.0139027
656.552	0.0139033
656.630	0.0138113
656.708	0.0138705
656.787	0.0137720
656.865	0.0138543
656.943	0.0139243
657.021	0.0138608
657.099	0.0139996
657.177	0.0139164
657.255	0.0138838
657.333	0.0138745
657.412	0.0139890
657.490	0.0138729
657.568	0.0137885
657.646	0.0138942
657.724	0.0139087
657.802	0.0138730
657.880	0.0138741
657.958	0.0137919
658.037	0.0139596
658.115	0.0138759
658.193	0.0138866
658.271	0.0139020
658.349	0.0138574
658.427	0.0138282
658.505	0.0138722
658.583	0.0139060
658.662	0.0138944
658.740	0.0138847
658.818	0.0139252
658.896	0.0137389
658.974	0.0139085
659.052	0.0138225
659.130	0.0137307
659.208	0.0138078
659.287	0.0138671
659.365	0.0137691
659.443	0.0139478
659.521	0.0138462
659.599	0.0139280
659.677	0.0139141
659.755	0.0137679
659.833	0.0138700
659.912	0.0138390
659.990	0.0138509
660.068	0.0140331
660.146	0.0139494
660.224	0.0139201
660.302	0.0138799
660.380	0.0137933
660.458	0.0138319
660.537	0.0138097
660.615	0.0139063
660.693	0.0137899
660.771	0.0139782
660.849	0.0137543
660.927	0.0137672
661.005	0.0138289
661.083	0.0139507
661.162	0.0139740
661.240	0.0139043
661.318	0.0139558
661.396	0.0138539
661.474	0.0138584
661.552	0.0138369
661.630	0.0138017
661.708	0.0137651
661.787	0.0138750
661.865	0.0138276
661.943	0.0138511
662.021	0.0137437
662.099	0.0139469
662.177	0.0137526
662.255	0.0138148
662.333	0.0139485
662.412	0.0138531
662.490	0.0138925
662.568	0.0138997
662.646	0.0137395
662.724	0.0137647
662.802	0.0137896
662.880	0.0138183
662.958	0.0138100
663.037	0.0138447
663.115	0.0137622
663.193	0.0137897
663.271	0.0139218
663.349	0.0137801
663.427	0.0138453
663.505	0.0137801
663.583	0.0136839
663.662	0.0138385
663.740	0.0138628
663.818	0.0138873
663.896	0.0138466
663.974	0.0139312
664.052	0.0138185
664.130	0.0137769
664.208	0.0138333
664.287	0.0138850
664.365	0.0138300
664.443	0.0137343
664.521	0.0139395
664.599	0.0137613
664.677	0.0138794
664.755	0.0139855
664.833	0.0139611
664.912	0.0138277
664.990	0.0138241
665.068	0.0137759
665.146	0.0138503
665.224	0.0138373
665.302	0.0139147
665.380	0.0138947
665.458	0.0138360
665.537	0.0139072
665.615	0.0138062
665.693	0.0138673
665.771	0.0138428
665.849	0.0140472
665.927	0.0138677
666.005	0.0139193
666.083	0.0138171
666.162	0.0138007
666.240	0.0137715
666.318	0.0138525
666.396	0.0138506
666.474	0.0136951
666.552	0.0137286
666.630	0.0139345
666.708	0.0139046
666.787	0.0137076
666.865	0.0139034
666.943	0.0138718
667.021	0.0137886
667.099	0.0137109
667.177	0.0137846
667.255	0.0138928
667.333	0.0138191
667.412	0.0138866
667.490	0.0139793
667.568	0.0139085
667.646	0.0138552
667.724	0.0138136
667.802	0.0137723
667.880	0.0138065
667.958	0.0138467
668.037	0.0138049
668.115	0.0137565
668.193	0.0138261
668.271	0.0138106
668.349	0.0138645
668.427	0.0139079
668.505	0.0136576
668.583	0.0138297
668.662	0.0137237
668.740	0.0139017
668.818	0.0137029
668.896	0.0137234
668.974	0.0138324
669.052	0.0138488
669.130	0.0138582
669.208	0.0137731
669.287	0.0137643
669.365	0.0137794
669.443	0.0137077
669.521	0.0139307
669.599	0.0138345
669.677	0.0138789
669.755	0.0138978
669.833	0.0138995
669.912	0.0138847
669.990	0.0137774
670.068	0.0138020
670.146	0.0138271
670.224	0.0139552
670.302	0.0139648
670.380	0.0137991
670.458	0.0139333
670.537	0.0138083
670.615	0.0137302
670.693	0.0138820
670.771	0.0139482
670.849	0.0138181
670.927	0.0136500
671.005	0.0139458
671.083	0.0138741
671.162	0.0138601
671.240	0.0137371
671.318	0.0137556
671.396	0.0138973
671.474	0.0138779
671.552	0.0138860
671.630	0.0138857
671.708	0.0139051
671.787	0.0138864
671.865	0.0137282
671.943	0.0137942
672.021	0.0138271
672.099	0.0138232
672.177	0.0139639
672.255	0.0139335
672.333	0.0140089
672.412	0.0141985
672.490	0.0139992
672.568	0.0140509
672.646	0.0140974
672.724	0.0139356
672.802	0.0139612
672.880	0.0137595
672.958	0.0137450
673.037	0.0138139
673.115	0.0136971
673.193	0.0135831
673.271	0.0136396
673.349	0.0135210
673.427	0.0135227
673.505	0.0136270
673.583	0.0135463
673.662	0.0135626
673.740	0.0136572
673.818	0.0138484
673.896	0.0137313
673.974	0.0138210
674.052	0.0140878
674.130	0.0142870
674.208	0.0144176
674.287	0.0145647
674.365	0.0147076
674.443	0.0146873
674.521	0.0145886
674.599	0.0145425
674.677	0.0145048
674.755	0.0142472
674.833	0.0139436
674.912	0.0137782
674.990	0.0131593
675.068	0.0129569
675.146	0.0128561
675.224	0.0125494
675.302	0.0125523
675.380	0.0125858
675.458	0.0125751
675.537	0.0129188
675.615	0.0130598
675.693	0.0132099
675.771	0.0136691
675.849	0.0137506
675.927	0.0140898
676.005	0.0143694
676.083	0.0147429
676.162	0.0149475
676.240	0.0150395
676.318	0.0151557
676.396	0.0150927
676.474	0.0149236
676.552	0.0149379
676.630	0.0147267
676.708	0.0144746
676.787	0.0143268
676.865	0.0142477
676.943	0.0140430
677.021	0.0140221
677.099	0.0138823
677.177	0.0139003
677.255	0.0137575
677.333	0.0136716
677.412	0.0135030
677.490	0.0132357
677.568	0.0132175
677.646	0.0131047
677.724	0.0128993
677.802	0.0127665
677.880	0.0127271
677.958	0.0126003
678.037	0.0125240
678.115	0.0122899
678.193	0.0122350
678.271	0.0124150
678.349	0.0125786
678.427	0.0126973
678.505	0.0129951
678.583	0.0137711
678.662	0.0140384
678.740	0.0143352
678.818	0.0149765
678.896	0.0152202
678.974	0.0156204
679.052	0.0159032
679.130	0.0160004
679.208	0.0160705
679.287	0.0160316
679.365	0.0158173
679.443	0.0156416
679.521	0.0152793
679.599	0.0151111
679.677	0.0147071
679.755	0.0144047
679.833	0.0142386
679.912	0.0139460
679.990	0.0137856
680.068	0.0136612
680.146	0.0136019
680.224	0.0133678
680.302	0.0133408
680.380	0.0131606
680.458	0.0131469
680.537	0.0129141
680.615	0.0126731
680.693	0.0125043
680.771	0.0122139
680.849	0.0119220
680.927	0.0119088
681.005	0.0116457
681.083	0.0114134
681.162	0.0113810
681.240	0.0112512
681.318	0.0111738
681.396	0.0112936
681.474	0.0114405
681.552	0.0118291
681.630	0.0120596
681.708	0.0127117
681.787	0.0131297
681.865	0.0138193
681.943	0.0146049
682.021	0.0154861
682.099	0.0162343
682.177	0.0170262
682.255	0.0177831
682.333	0.0182874
682.412	0.0186994
682.490	0.0188200
682.568	0.0186106
682.646	0.0184272
682.724	0.0178145
682.802	0.0172706
682.880	0.0166673
682.958	0.0160622
683.037	0.0153176
683.115	0.0145747
683.193	0.0141093
683.271	0.0135226
683.349	0.0128830
683.427	0.0123211
683.505	0.0120853
683.583	0.0117045
683.662	0.0111289
683.740	0.0110877
683.818	0.0106979
683.896	0.0104582
683.974	0.0103017
684.052	0.0103365
684.130	0.0102850
684.208	0.0103908
684.287	0.0105323
684.365	0.0107018
684.443	0.0110934
684.521	0.0116206
684.599	0.0120712
684.677	0.0125127
684.755	0.0129913
684.833	0.0133423
684.912	0.0135146
684.990	0.0138172
685.068	0.0139366
685.146	0.0139545
685.224	0.0141496
685.302	0.0141370
685.380	0.0141250
685.458	0.0141121
685.537	0.0143082
685.615	0.0147038
685.693	0.0149103
685.771	0.0154366
685.849	0.0161224
685.927	0.0167407
686.005	0.0173383
686.083	0.0177898
686.162	0.0182288
686.240	0.0185576
686.318	0.0187399
686.396	0.0189316
686.474	0.0186333
686.552	0.0185184
686.630	0.0180695
686.708	0.0176037
686.787	0.0170365
686.865	0.0159952
686.943	0.0151068
687.021	0.0143225
687.099	0.0132717
687.177	0.0126013
687.255	0.0117009
687.333	0.0109453
687.412	0.0105007
687.490	0.00984573
687.568	0.00948578
687.646	0.00921074
687.724	0.00883270
687.802	0.00862801
687.880	0.00840225
687.958	0.00818474
688.037	0.00820747
688.115	0.00853668
688.193	0.00886719
688.271	0.00957039
688.349	0.0103168
688.427	0.0111847
688.505	0.0122977
688.583	0.0132848
688.662	0.0141720
688.740	0.0149873
688.818	0.0157002
688.896	0.0162670
688.974	0.0166807
689.052	0.0166743
689.130	0.0168760
689.208	0.0166189
689.287	0.0164794
689.365	0.0160187
689.443	0.0155176
689.521	0.0148552
689.599	0.0144043
689.677	0.0139927
689.755	0.0137938
689.833	0.0137806
689.912	0.0137009
689.990	0.0141294
690.068	0.0145737
690.146	0.0148884
690.224	0.0154757
690.302	0.0159662
690.380	0.0164541
690.458	0.0168914
690.537	0.0174452
690.615	0.0179236
690.693	0.0182013
690.771	0.0182037
690.849	0.0185717
690.927	0.0184717
691.005	0.0180444
691.083	0.0179652
691.162	0.0173531
691.240	0.0166264
691.318	0.0157206
691.396	0.0150391
691.474	0.0139478
691.552	0.0130499
691.630	0.0120486
691.708	0.0112482
691.787	0.0103445
691.865	0.00926323
691.943	0.00861992
692.021	0.00778488
692.099	0.00716469
692.177	0.00666618
692.255	0.00622322
692.333	0.00594933
692.412	0.00586075
692.490	0.00607925
692.568	0.00637787
692.646	0.00701408
692.724	0.00770821
692.802	0.00865891
692.880	0.00980721
692.958	0.0109782
693.037	0.0121696
693.115	0.0132199
693.193	0.0142393
693.271	0.0154131
693.349	0.0160658
693.427	0.0165671
693.505	0.0172009
693.583	0.0174810
693.662	0.0177019
693.740	0.0178390
693.818	0.0180125
693.896	0.0180983
693.974	0.0183926
694.052	0.0187904
694.130	0.0189571
694.208	0.0193835
694.287	0.0197462
694.365	0.0201515
694.443	0.0205875
694.521	0.0207214
694.599	0.0205966
694.677	0.0206967
694.755	0.0204205
694.833	0.0201020
694.912	0.0193880
694.990	0.0185703
695.068	0.0176775
695.146	0.0165697
695.224	0.0151670
695.302	0.0138546
695.380	0.0125451
695.458	0.0114170
695.537	0.0102974
695.615	0.00946983
695.693	0.00852043
695.771	0.00798752
695.849	0.00746536
695.927	0.00712463
696.005	0.00680336
696.083	0.00655724
696.162	0.00649300
696.240	0.00645554
696.318	0.00647697
696.396	0.00668526
696.474	0.00710632
696.552	0.00757065
696.630	0.00803452
696.708	0.00882751
696.787	0.00965981
696.865	0.0104745
696.943	0.0113721
697.021	0.0122646
697.099	0.0129845
697.177	0.0137336
697.255	0.0143404
697.333	0.0147817
697.412	0.0153887
697.490	0.0156187
697.568	0.0158234
697.646	0.0159153
697.724	0.0160136
697.802	0.0160190
697.880	0.0162119
697.958	0.0164178
698.037	0.0166879
698.115	0.0169916
698.193	0.0177322
698.271	0.0183215
698.349	0.0189172
698.427	0.0194769
698.505	0.0199496
698.583	0.0202012
698.662	0.0203866
698.740	0.0201373
698.818	0.0200523
698.896	0.0196547
698.974	0.0191177
699.052	0.0183885
699.130	0.0176583
699.208	0.0169121
699.287	0.0160147
699.365	0.0150730
699.443	0.0141110
699.521	0.0134069
699.599	0.0126505
699.677	0.0120988
699.755	0.0115396
699.833	0.0111262
699.912	0.0108548
699.990	0.0105630
700.068	0.0101678
700.146	0.00995094
700.224	0.00959457
700.302	0.00913544
700.380	0.00888992
700.458	0.00875999
700.537	0.00829346
700.615	0.00824539
700.693	0.00814415
700.771	0.00822990
700.849	0.00828056
700.927	0.00843697
701.005	0.00878067
701.083	0.00919960
701.162	0.0101572
701.240	0.0108654
701.318	0.0117340
701.396	0.0124483
701.474	0.0133617
701.552	0.0141911
701.630	0.0148867
701.708	0.0154097
701.787	0.0159486
701.865	0.0163109
701.943	0.0166351
702.021	0.0166216
702.099	0.0167165
702.177	0.0168314
702.255	0.0166544
702.333	0.0166714
702.412	0.0167880
702.490	0.0167902
702.568	0.0168470
702.646	0.0169203
702.724	0.0169934
702.802	0.0167110
702.880	0.0166544
702.958	0.0165302
703.037	0.0165087
703.115	0.0161750
703.193	0.0159483
703.271	0.0158356
703.349	0.0157704
703.427	0.0155387
703.505	0.0154645
703.583	0.0153870
703.662	0.0149362
703.740	0.0148768
703.818	0.0146730
703.896	0.0143628
703.974	0.0142270
704.052	0.0139246
704.130	0.0136413
704.208	0.0135177
704.287	0.0131710
704.365	0.0128941
704.443	0.0126791
704.521	0.0124316
704.599	0.0120545
704.677	0.0117194
704.755	0.0115845
704.833	0.0111861
704.912	0.0109946
704.990	0.0109193
705.068	0.0110130
705.146	0.0110553
705.224	0.0111117
705.302	0.0114124
705.380	0.0118041
705.458	0.0121012
705.537	0.0123503
705.615	0.0127103
705.693	0.0127221
705.771	0.0131274
705.849	0.0132957
705.927	0.0132259
706.005	0.0133875
706.083	0.0133096
706.162	0.0133141
706.240	0.0133601
706.318	0.0133884
706.396	0.0135143
706.474	0.0136102
706.552	0.0138992
706.630	0.0139497
706.708	0.0143402
706.787	0.0148540
706.865	0.0152530
706.943	0.0155128
707.021	0.0158158
707.099	0.0159879
707.177	0.0161778
707.255	0.0163584
707.333	0.0163869
707.412	0.0163351
707.490	0.0161368
707.568	0.0157701
707.646	0.0154205
707.724	0.0152016
707.802	0.0148874
707.880	0.0144796
707.958	0.0142442
708.037	0.0140279
708.115	0.0139307
708.193	0.0140348
708.271	0.0139185
708.349	0.0138441
708.427	0.0137979
708.505	0.0137589
708.583	0.0138333
708.662	0.0136749
708.740	0.0134692
708.818	0.0136060
708.896	0.0134303
708.974	0.0135078
709.052	0.0133087
709.130	0.0133271
709.208	0.0131948
709.287	0.0131244
709.365	0.0130379
709.443	0.0128934
709.521	0.0128738
709.599	0.0132211
709.677	0.0132827
709.755	0.0131339
709.833	0.0133059
709.912	0.0135329
709.990	0.0136536
710.068	0.0139256
710.146	0.0139561
710.224	0.0142329
710.302	0.0145364
710.380	0.0146015
710.458	0.0146107
710.537	0.0147986
710.615	0.0147538
710.693	0.0147662
710.771	0.0146946
710.849	0.0145627
710.927	0.0145101
711.005	0.0142705
711.083	0.0138206
711.162	0.0136617
711.240	0.0133507
711.318	0.0130802
711.396	0.0127448
711.474	0.0125580
711.552	0.0124543
711.630	0.0124180
711.708	0.0122940
711.787	0.0122509
711.865	0.0123581
711.943	0.0126112
712.021	0.0126981
712.099	0.0129824
712.177	0.0132948
712.255	0.0136960
712.333	0.0139487
712.412	0.0143532
712.490	0.0145844
712.568	0.0149551
712.646	0.0152643
712.724	0.0154540
712.802	0.0154259
712.880	0.0156921
712.958	0.0156607
713.037	0.0157772
713.115	0.0157752
713.193	0.0155843
713.271	0.0155106
713.349	0.0152767
713.427	0.0150557
713.505	0.0147574
713.583	0.0147212
713.662	0.0142825
713.740	0.0139974
713.818	0.0138190
713.896	0.0134270
713.974	0.0131158
714.052	0.0129921
714.130	0.0128390
714.208	0.0125168
714.287	0.0125053
714.365	0.0122520
714.443	0.0123112
714.521	0.0123458
714.599	0.0122917
714.677	0.0124371
714.755	0.0127349
714.833	0.0128363
714.912	0.0130267
714.990	0.0132317
715.068	0.0134228
715.146	0.0137061
715.224	0.0141489
715.302	0.0141956
715.380	0.0142331
715.458	0.0144211
715.537	0.0145335
715.615	0.0145827
715.693	0.0145940
715.771	0.0145829
715.849	0.0146226
715.927	0.0145731
716.005	0.0145902
716.083	0.0145102
716.162	0.0144239
716.240	0.0142396
716.318	0.0143456
716.396	0.0140794
716.474	0.0140884
716.552	0.0141277
716.630	0.0139547
716.708	0.0138284
716.787	0.0136332
716.865	0.0138754
716.943	0.0138848
717.021	0.0137930
717.099	0.0137698
717.177	0.0139452
717.255	0.0139091
717.333	0.0140159
717.412	0.0139639
717.490	0.0139982
717.568	0.0138270
717.646	0.0136061
717.724	0.0136847
717.802	0.0134692
717.880	0.0134217
717.958	0.0133768
718.037	0.0131435
718.115	0.0132429
718.193	0.0131329
718.271	0.0131635
718.349	0.0132223
718.427	0.0136179
718.505	0.0137930
718.583	0.0138437
718.662	0.0140642
718.740	0.0143754
718.818	0.0143042
718.896	0.0146013
718.974	0.0145646
719.052	0.0147845
719.130	0.0147533
719.208	0.0145981
719.287	0.0145921
719.365	0.0143077
719.443	0.0141502
719.521	0.0138290
719.599	0.0136767
719.677	0.0131964
719.755	0.0131063
719.833	0.0129537
719.912	0.0125087
719.990	0.0123128
720.068	0.0124280
720.146	0.0121349
720.224	0.0120293
720.302	0.0119988
720.380	0.0119895
720.458	0.0121584
720.537	0.0124610
720.615	0.0126071
720.693	0.0128065
720.771	0.0131701
720.849	0.0135118
720.927	0.0139209
721.005	0.0141920
721.083	0.0144798
721.162	0.0147162
721.240	0.0150668
721.318	0.0152782
721.396	0.0152562
721.474	0.0155392
721.552	0.0155485
721.630	0.0156158
721.708	0.0155837
721.787	0.0155051
721.865	0.0156076
721.943	0.0154759
722.021	0.0153672
722.099	0.0153273
722.177	0.0152203
722.255	0.0149409
722.333	0.0148414
722.412	0.0146351
722.490	0.0145776
722.568	0.0143552
722.646	0.0141042
722.724	0.0138120
722.802	0.0137027
722.880	0.0135065
722.958	0.0132905
723.037	0.0131042
723.115	0.0127701
723.193	0.0127213
723.271	0.0125349
723.349	0.0124261
723.427	0.0124602
723.505	0.0123260
723.583	0.0123727
723.662	0.0124218
723.740	0.0125791
723.818	0.0127674
723.896	0.0127386
723.974	0.0130088
724.052	0.0131289
724.130	0.0134042
724.208	0.0136165
724.287	0.0137914
724.365	0.0138663
724.443	0.0139163
724.521	0.0141956
724.599	0.0141523
724.677	0.0140177
724.755	0.0140128
724.833	0.0139124
724.912	0.0136548
724.990	0.0136736
725.068	0.0134850
725.146	0.0133469
725.224	0.0132343
725.302	0.0131335
725.380	0.0131711
725.458	0.0131284
725.537	0.0132262
725.615	0.0133484
725.693	0.0135844
725.771	0.0136069
725.849	0.0138689
725.927	0.0138306
726.005	0.0138242
726.083	0.0142005
726.162	0.0143939
726.240	0.0144280
726.318	0.0144436
726.396	0.0145963
726.474	0.0147644
726.552	0.0150471
726.630	0.0152137
726.708	0.0150719
726.787	0.0150628
726.865	0.0151772
726.943	0.0149325
727.021	0.0150977
727.099	0.0150372
727.177	0.0148834
727.255	0.0150424
727.333	0.0148351
727.412	0.0148103
727.490	0.0148428
727.568	0.0147558
727.646	0.0147226
727.724	0.0146145
727.802	0.0145539
727.880	0.0142577
727.958	0.0141746
728.037	0.0140415
728.115	0.0139084
728.193	0.0138744
728.271	0.0137388
728.349	0.0134984
728.427	0.0134006
728.505	0.0132395
728.583	0.0131934
728.662	0.0132740
728.740	0.0128728
728.818	0.0127850
728.896	0.0128571
728.974	0.0127452
729.052	0.0128458
729.130	0.0128494
729.208	0.0128329
729.287	0.0127634
729.365	0.0128046
729.443	0.0127997
729.521	0.0129968
729.599	0.0129732
729.677	0.0132007
729.755	0.0133447
729.833	0.0132640
729.912	0.0135992
729.990	0.0138762
730.068	0.0138474
730.146	0.0140023
730.224	0.0140979
730.302	0.0142695
730.380	0.0143910
730.458	0.0142934
730.537	0.0143509
730.615	0.0144302
730.693	0.0145435
730.771	0.0144189
730.849	0.0143678
730.927	0.0142461
731.005	0.0142077
731.083	0.0141812
731.162	0.0140780
731.240	0.0140822
731.318	0.0139098
731.396	0.0139124
731.474	0.0138219
731.552	0.0138126
731.630	0.0138450
731.708	0.0136876
731.787	0.0136617
731.865	0.0137833
731.943	0.0138731
732.021	0.0139359
732.099	0.0137716
732.177	0.0137623
732.255	0.0138090
732.333	0.0137540
732.412	0.0139540
732.490	0.0139921
732.568	0.0139088
732.646	0.0140981
732.724	0.0142066
732.802	0.0142062
732.880	0.0144899
732.958	0.0145281
733.037	0.0146170
733.115	0.0147316
733.193	0.0147631
733.271	0.0147854
733.349	0.0148203
733.427	0.0148289
733.505	0.0148710
733.583	0.0146570
733.662	0.0146635
733.740	0.0143883
733.818	0.0142286
733.896	0.0141414
733.974	0.0139466
734.052	0.0139113
734.130	0.0136491
734.208	0.0136418
734.287	0.0136086
734.365	0.0135462
734.443	0.0133360
734.521	0.0132518
734.599	0.0133667
734.677	0.0133154
734.755	0.0132681
734.833	0.0133041
734.912	0.0135473
734.990	0.0135322
735.068	0.0136625
735.146	0.0135152
735.224	0.0134968
735.302	0.0136818
735.380	0.0136565
735.458	0.0135160
735.537	0.0135780
735.615	0.0134865
735.693	0.0136224
735.771	0.0134415
735.849	0.0133854
735.927	0.0134946
736.005	0.0135901
736.083	0.0135062
736.162	0.0136166
736.240	0.0137289
736.318	0.0137200
736.396	0.0137029
736.474	0.0138049
736.552	0.0136724
736.630	0.0137971
736.708	0.0138113
736.787	0.0138900
736.865	0.0138988
736.943	0.0138136
737.021	0.0138081
737.099	0.0137781
737.177	0.0136811
737.255	0.0136805
737.333	0.0136266
737.412	0.0136844
737.490	0.0136969
737.568	0.0137199
737.646	0.0137928
737.724	0.0136131
737.802	0.0139491
737.880	0.0140597
737.958	0.0140127
738.037	0.0141331
738.115	0.0142905
738.193	0.0143933
738.271	0.0142931
738.349	0.0142757
738.427	0.0143058
738.505	0.0142826
738.583	0.0142451
738.662	0.0141993
738.740	0.0142374
738.818	0.0142860
738.896	0.0141241
738.974	0.0142767
739.052	0.0143645
739.130	0.0144048
739.208	0.0143752
739.287	0.0142838
739.365	0.0143107
739.443	0.0142893
739.521	0.0141107
739.599	0.0141999
739.677	0.0142616
739.755	0.0141231
739.833	0.0138929
739.912	0.0138081
739.990	0.0138850
740.068	0.0138322
740.146	0.0136078
740.224	0.0137212
740.302	0.0135405
740.380	0.0136467
740.458	0.0136106
740.537	0.0135914
740.615	0.0133728
740.693	0.0133882
740.771	0.0134608
740.849	0.0132200
740.927	0.0132478
741.005	0.0133611
741.083	0.0132497
741.162	0.0132533
741.240	0.0133039
741.318	0.0131947
741.396	0.0133846
741.474	0.0133573
741.552	0.0134365
741.630	0.0134333
741.708	0.0134730
741.787	0.0135226
741.865	0.0133907
741.943	0.0135796
742.021	0.0135777
742.099	0.0135172
742.177	0.0134406
742.255	0.0134957
742.333	0.0135143
742.412	0.0135729
742.490	0.0137017
742.568	0.0136181
742.646	0.0136561
742.724	0.0138132
742.802	0.0138078
742.880	0.0137245
742.958	0.0137113
743.037	0.0138692
743.115	0.0139265
743.193	0.0138716
743.271	0.0139804
743.349	0.0140219
743.427	0.0139316
743.505	0.0138850
743.583	0.0140752
743.662	0.0138883
743.740	0.0141061
743.818	0.0140050
743.896	0.0141737
743.974	0.0140775
744.052	0.0139894
744.130	0.0140166
744.208	0.0140273
744.287	0.0139712
744.365	0.0139976
744.443	0.0139931
744.521	0.0139630
744.599	0.0139180
744.677	0.0138792
744.755	0.0137695
744.833	0.0139708
744.912	0.0140340
744.990	0.0139021
745.068	0.0138786
745.146	0.0139936
745.224	0.0139864
745.302	0.0139864
745.380	0.0140509
745.458	0.0140669
745.537	0.0141222
745.615	0.0142147
745.693	0.0141235
745.771	0.0140643
745.849	0.0139777
745.927	0.0140314
746.005	0.0140807
746.083	0.0139437
746.162	0.0140176
746.240	0.0139245
746.318	0.0140627
746.396	0.0139046
746.474	0.0138282
746.552	0.0137444
746.630	0.0137016
746.708	0.0136465
746.787	0.0135186
746.865	0.0134573
746.943	0.0133440
747.021	0.0133353
747.099	0.0132835
747.177	0.0133980
747.255	0.0133768
747.333	0.0131700
747.412	0.0132630
747.490	0.0132663
747.568	0.0131986
747.646	0.0132825
747.724	0.0135268
747.802	0.0135168
747.880	0.0134708
747.958	0.0135516
748.037	0.0136760
748.115	0.0138838
748.193	0.0138400
748.271	0.0137843
748.349	0.0140598
748.427	0.0141358
748.505	0.0140906
748.583	0.0141434
748.662	0.0140351
748.740	0.0141149
748.818	0.0141302
748.896	0.0140687
748.974	0.0141515
749.052	0.0140387
749.130	0.0142129
749.208	0.0140366
749.287	0.0140121
749.365	0.0141983
749.443	0.0141115
749.521	0.0140652
749.599	0.0139388
749.677	0.0138662
749.755	0.0138483
749.833	0.0137557
749.912	0.0136073
749.990	0.0136800
750.068	0.0136514
750.146	0.0137245
750.224	0.0135982
750.302	0.0136607
750.380	0.0135612
750.458	0.0135945
750.537	0.0136139
750.615	0.0136777
750.693	0.0135859
750.771	0.0137488
750.849	0.0136781
750.927	0.0138886
751.005	0.0139536
751.083	0.0139022
751.162	0.0139289
751.240	0.0139600
751.318	0.0139043
751.396	0.0138644
751.474	0.0140549
751.552	0.0139420
751.630	0.0139611
751.708	0.0139674
751.787	0.0138644
751.865	0.0139332
751.943	0.0139366
752.021	0.0139790
752.099	0.0140073
752.177	0.0139826
752.255	0.0138789
752.333	0.0138545
752.412	0.0139015
752.490	0.0138844
752.568	0.0137922
752.646	0.0137480
752.724	0.0138705
752.802	0.0137825
752.880	0.0137927
752.958	0.0136673
753.037	0.0137864
753.115	0.0137631
753.193	0.0139023
753.271	0.0139382
753.349	0.0140099
753.427	0.0138081
753.505	0.0139973
753.583	0.0140507
753.662	0.0140067
753.740	0.0139214
753.818	0.0140302
753.896	0.0138542
753.974	0.0139433
754.052	0.0138782
754.130	0.0137628
754.208	0.0137393
754.287	0.0138254
754.365	0.0137009
754.443	0.0135801
754.521	0.0137722
754.599	0.0136923
754.677	0.0135610
754.755	0.0137579
754.833	0.0135426
754.912	0.0135297
754.990	0.0136433
755.068	0.0136471
755.146	0.0136826
755.224	0.0137739
755.302	0.0136971
755.380	0.0137244
755.458	0.0137839
755.537	0.0138775
755.615	0.0139341
755.693	0.0140186
755.771	0.0138351
755.849	0.0137314
755.927	0.0137254
756.005	0.0137815
756.083	0.0137663
756.162	0.0137750
756.240	0.0137655
756.318	0.0138379
756.396	0.0136996
756.474	0.0136618
756.552	0.0136845
756.630	0.0136930
756.708	0.0136766
756.787	0.0138204
756.865	0.0139088
756.943	0.0137659
757.021	0.0140953
757.099	0.0140643
757.177	0.0141201
757.255	0.0140298
757.333	0.0140125
757.412	0.0141195
757.490	0.0140018
757.568	0.0141041
757.646	0.0140125
757.724	0.0141183
757.802	0.0140439
757.880	0.0138774
757.958	0.0138657
758.037	0.0138803
758.115	0.0140150
758.193	0.0138727
758.271	0.0139558
758.349	0.0139017
758.427	0.0138985
758.505	0.0139294
758.583	0.0140408
758.662	0.0138361
758.740	0.0140405
758.818	0.0140097
758.896	0.0141595
758.974	0.0139148
759.052	0.0140247
759.130	0.0140471
759.208	0.0140662
759.287	0.0140445
759.365	0.0139125
759.443	0.0140611
759.521	0.0140220
759.599	0.0139861
759.677	0.0139565
759.755	0.0140855
759.833	0.0141372
759.912	0.0138969
759.990	0.0138866
760.068	0.0137392
760.146	0.0137897
760.224	0.0136517
760.302	0.0135993
760.380	0.0136719
760.458	0.0135318
760.537	0.0133556
760.615	0.0135902
760.693	0.0134647
760.771	0.0134647
760.849	0.0134869
760.927	0.0135430
761.005	0.0133924
761.083	0.0136218
761.162	0.0135685
761.240	0.0135921
761.318	0.0136961
761.396	0.0136631
761.474	0.0137726
761.552	0.0138607
761.630	0.0139948
761.708	0.0140368
761.787	0.0140429
761.865	0.0140691
761.943	0.0141228
762.021	0.0140948
762.099	0.0139774
762.177	0.0141917
762.255	0.0139546
762.333	0.0139584
762.412	0.0140273
762.490	0.0139081
762.568	0.0137988
762.646	0.0138123
762.724	0.0137648
762.802	0.0136886
762.880	0.0137791
762.958	0.0138744
763.037	0.0136745
763.115	0.0137060
763.193	0.0137145
763.271	0.0135841
763.349	0.0138200
763.427	0.0138985
763.505	0.0138305
763.583	0.0137853
763.662	0.0136292
763.740	0.0136878
763.818	0.0138032
763.896	0.0137463
763.974	0.0138828
764.052	0.0138227
764.130	0.0137624
764.208	0.0137617
764.287	0.0139120
764.365	0.0138178
764.443	0.0138895
764.521	0.0139013
764.599	0.0137448
764.677	0.0137572
764.755	0.0138586
764.833	0.0138544
764.912	0.0140208
764.990	0.0139006
765.068	0.0138707
765.146	0.0137926
765.224	0.0140133
765.302	0.0140717
765.380	0.0140694
765.458	0.0139100
765.537	0.0139182
765.615	0.0138776
765.693	0.0139942
765.771	0.0138552
765.849	0.0139767
765.927	0.0138786
766.005	0.0138058
766.083	0.0138254
766.162	0.0136563
766.240	0.0137695
766.318	0.0139345
766.396	0.0138210
766.474	0.0135751
766.552	0.0137286
766.630	0.0136621
766.708	0.0136436
766.787	0.0135926
766.865	0.0135623
766.943	0.0135203
767.021	0.0134303
767.099	0.0135216
767.177	0.0135257
767.255	0.0134386
767.333	0.0134619
767.412	0.0133503
767.490	0.0134897
767.568	0.0135152
767.646	0.0136369
767.724	0.0136047
767.802	0.0136472
767.880	0.0136575
767.958	0.0136469
768.037	0.0137748
768.115	0.0138131
768.193	0.0136898
768.271	0.0138235
768.349	0.0139275
768.427	0.0139130
768.505	0.0140292
768.583	0.0138576
768.662	0.0139033
768.740	0.0139598
768.818	0.0137993
768.896	0.0138218
768.974	0.0138287
769.052	0.0139899
769.130	0.0139584
769.208	0.0138535
769.287	0.0138628
769.365	0.0138553
769.443	0.0138638
769.521	0.0138461
769.599	0.0138645
769.677	0.0139024
769.755	0.0140258
769.833	0.0140486
769.912	0.0137855
769.990	0.0139011
770.068	0.0137417
770.146	0.0138276
770.224	0.0138600
770.302	0.0137582
770.380	0.0138709
770.458	0.0137283
770.537	0.0135117
770.615	0.0136581
770.693	0.0136533
770.771	0.0136842
770.849	0.0136698
770.927	0.0134922
771.005	0.0134577
771.083	0.0135020
771.162	0.0134978
771.240	0.0136340
771.318	0.0135899
771.396	0.0137139
771.474	0.0136020
771.552	0.0134957
771.630	0.0137362
771.708	0.0138350
771.787	0.0138052
771.865	0.0138780
771.943	0.0139146
772.021	0.0138743
772.099	0.0137941
772.177	0.0138924
772.255	0.0139107
772.333	0.0139459
772.412	0.0140540
772.490	0.0137861
772.568	0.0139691
772.646	0.0137922
772.724	0.0138660
772.802	0.0138237
772.880	0.0136227
772.958	0.0137659
773.037	0.0138047
773.115	0.0137183
773.193	0.0137164
773.271	0.0136461
773.349	0.0137795
773.427	0.0137084
773.505	0.0138433
773.583	0.0138033
773.662	0.0138601
773.740	0.0139012
773.818	0.0139446
773.896	0.0139453
773.974	0.0137727
774.052	0.0139850
774.130	0.0139233
774.208	0.0138718
774.287	0.0138853
774.365	0.0138722
774.443	0.0137526
774.521	0.0137949
774.599	0.0137752
774.677	0.0138602
774.755	0.0138710
774.833	0.0137068
774.912	0.0137119
774.990	0.0138143
775.068	0.0137848
775.146	0.0137920
775.224	0.0137908
775.302	0.0137006
775.380	0.0137136
775.458	0.0137527
775.537	0.0138066
775.615	0.0138379
775.693	0.0137665
775.771	0.0138403
775.849	0.0138570
775.927	0.0137987
776.005	0.0138142
776.083	0.0137366
776.162	0.0138576
776.240	0.0138496
776.318	0.0140588
776.396	0.0138863
776.474	0.0139967
776.552	0.0138889
776.630	0.0139011
776.708	0.0139007
776.787	0.0140950
776.865	0.0139340
776.943	0.0138909
777.021	0.0138730
777.099	0.0138216
777.177	0.0137636
777.255	0.0136389
777.333	0.0135547
777.412	0.0136403
777.490	0.0134943
777.568	0.0135421
777.646	0.0135496
777.724	0.0135998
777.802	0.0136072
777.880	0.0136251
777.958	0.0135711
778.037	0.0137227
778.115	0.0137701
778.193	0.0139677
778.271	0.0140156
778.349	0.0139608
778.427	0.0139508
778.505	0.0140798
778.583	0.0140966
778.662	0.0139649
778.740	0.0140858
778.818	0.0141658
778.896	0.0141608
778.974	0.0140972
779.052	0.0141584
779.130	0.0140992
779.208	0.0141899
779.287	0.0140513
779.365	0.0141422
779.443	0.0139947
779.521	0.0140462
779.599	0.0139478
779.677	0.0138599
779.755	0.0139172
779.833	0.0138789
779.912	0.0140606
779.990	0.0138368
780.068	0.0141321
780.146	0.0139472
780.224	0.0140480
780.302	0.0140771
780.380	0.0139110
780.458	0.0139357
780.537	0.0140382
780.615	0.0139739
780.693	0.0138654
780.771	0.0137624
780.849	0.0138189
780.927	0.0136582
781.005	0.0136957
781.083	0.0136133
781.162	0.0134952
781.240	0.0134293
781.318	0.0135363
781.396	0.0132652
781.474	0.0133393
781.552	0.0134421
781.630	0.0133685
781.708	0.0133031
781.787	0.0134491
781.865	0.0135333
781.943	0.0136340
782.021	0.0136383
782.099	0.0138168
782.177	0.0139083
782.255	0.0140096
782.333	0.0139455
782.412	0.0142638
782.490	0.0141723
782.568	0.0143877
782.646	0.0145028
782.724	0.0143853
782.802	0.0144783
782.880	0.0144550
782.958	0.0145182
783.037	0.0143746
783.115	0.0144215
783.193	0.0143378
783.271	0.0142845
783.349	0.0142818
783.427	0.0142019
783.505	0.0141241
783.583	0.0142104
783.662	0.0138585
783.740	0.0138075
783.818	0.0138186
783.896	0.0137273
783.974	0.0136493
784.052	0.0134757
784.130	0.0134169
784.208	0.0134175
784.287	0.0132569
784.365	0.0131898
784.443	0.0131321
784.521	0.0131796
784.599	0.0133135
784.677	0.0131646
784.755	0.0133765
784.833	0.0133247
784.912	0.0131611
784.990	0.0132619
785.068	0.0132497
785.146	0.0132255
785.224	0.0132159
785.302	0.0133344
785.380	0.0133439
785.458	0.0133775
785.537	0.0135989
785.615	0.0134760
785.693	0.0135470
785.771	0.0137170
785.849	0.0138306
785.927	0.0138670
786.005	0.0137412
786.083	0.0138817
786.162	0.0139816
786.240	0.0141795
786.318	0.0143291
786.396	0.0144080
786.474	0.0145093
786.552	0.0146642
786.630	0.0143588
786.708	0.0144975
786.787	0.0145837
786.865	0.0145729
786.943	0.0146587
787.021	0.0145046
787.099	0.0143758
787.177	0.0144417
787.255	0.0143478
787.333	0.0144302
787.412	0.0144247
787.490	0.0142374
787.568	0.0141232
787.646	0.0140604
787.724	0.0140182
787.802	0.0138277
787.880	0.0137841
787.958	0.0136409
788.037	0.0136204
788.115	0.0135797
788.193	0.0135543
788.271	0.0134566
788.349	0.0134832
788.427	0.0134314
788.505	0.0133894
788.583	0.0133440
788.662	0.0133409
788.740	0.0133255
788.818	0.0132900
788.896	0.0131865
788.974	0.0131606
789.052	0.0132523
789.130	0.0132312
789.208	0.0132548
789.287	0.0134068
789.365	0.0131664
789.443	0.0133145
789.521	0.0133054
789.599	0.0134416
789.677	0.0133730
789.755	0.0133931
789.833	0.0135391
789.912	0.0135397
789.990	0.0135139
790.068	0.0135703
790.146	0.0137338
790.224	0.0136548
790.302	0.0137481
790.380	0.0139882
790.458	0.0138461
790.537	0.0139216
790.615	0.0140007
790.693	0.0141031
790.771	0.0141518
790.849	0.0143665
790.927	0.0144570
791.005	0.0144042
791.083	0.0145564
791.162	0.0147191
791.240	0.0145925
791.318	0.0146421
791.396	0.0147115
791.474	0.0145953
791.552	0.0145944
791.630	0.0146869
791.708	0.0144740
791.787	0.0143350
791.865	0.0143909
791.943	0.0142879
792.021	0.0141378
792.099	0.0140923
792.177	0.0139664
792.255	0.0138535
792.333	0.0136115
792.412	0.0134871
792.490	0.0134348
792.568	0.0132791
792.646	0.0132689
792.724	0.0130780
792.802	0.0129399
792.880	0.0130023
792.958	0.0129073
793.037	0.0127193
793.115	0.0128214
793.193	0.0127170
793.271	0.0127166
793.349	0.0129071
793.427	0.0129754
793.505	0.0130126
793.583	0.0130279
793.662	0.0131382
793.740	0.0133684
793.818	0.0135328
793.896	0.0136572
793.974	0.0137535
794.052	0.0139193
794.130	0.0141721
794.208	0.0142477
794.287	0.0143732
794.365	0.0144772
794.443	0.0145442
794.521	0.0146252
794.599	0.0146868
794.677	0.0146758
794.755	0.0146902
794.833	0.0146072
794.912	0.0146038
794.990	0.0144183
795.068	0.0144778
795.146	0.0144895
795.224	0.0143327
795.302	0.0144086
795.380	0.0142010
795.458	0.0140346
795.537	0.0141269
795.615	0.0140526
795.693	0.0139782
795.771	0.0138502
795.849	0.0138645
795.927	0.0138214
796.005	0.0138725
796.083	0.0139093
796.162	0.0137838
796.240	0.0136562
796.318	0.0137913
796.396	0.0137576
796.474	0.0136285
796.552	0.0134003
796.630	0.0134773
796.708	0.0134270
796.787	0.0133601
796.865	0.0133430
796.943	0.0133131
797.021	0.0133629
797.099	0.0132259
797.177	0.0131965
797.255	0.0132268
797.333	0.0134345
797.412	0.0133506
797.490	0.0133784
797.568	0.0135335
797.646	0.0135328
797.724	0.0135316
797.802	0.0136667
797.880	0.0138580
797.958	0.0136991
798.037	0.0135758
798.115	0.0138413
798.193	0.0139774
798.271	0.0139854
798.349	0.0138685
798.427	0.0138477
798.505	0.0139793
798.583	0.0139771
798.662	0.0139628
798.740	0.0139652
798.818	0.0138577
798.896	0.0140929
798.974	0.0141250
799.052	0.0139162
799.130	0.0140841
799.208	0.0140559
799.287	0.0140437
799.365	0.0139475
799.443	0.0142485
799.521	0.0140762
799.599	0.0140898
799.677	0.0141514
799.755	0.0142365
799.833	0.0141139
799.912	0.0141290
799.990	0.0143035
800.068	0.0141859
800.146	0.0140057
800.224	0.0140936
800.302	0.0142937
800.380	0.0141119
800.458	0.0140514
800.537	0.0140085
800.615	0.0140454
800.693	0.0139114
800.771	0.0139498
800.849	0.0137965
800.927	0.0137598
801.005	0.0137040
801.083	0.0135790
801.162	0.0137206
801.240	0.0134940
801.318	0.0134185
801.396	0.0134891
801.474	0.0134686
801.552	0.0134236
801.630	0.0133246
801.708	0.0133293
801.787	0.0134062
801.865	0.0134272
801.943	0.0133637
802.021	0.0135930
802.099	0.0134663
802.177	0.0134367
802.255	0.0135217
802.333	0.0135963
802.412	0.0137858
802.490	0.0137919
802.568	0.0138758
802.646	0.0139154
802.724	0.0139773
802.802	0.0140096
802.880	0.0142197
802.958	0.0141367
803.037	0.0142608
803.115	0.0142926
803.193	0.0144415
803.271	0.0144209
803.349	0.0143679
803.427	0.0142922
803.505	0.0142352
803.583	0.0142548
803.662	0.0143561
803.740	0.0143747
803.818	0.0142283
803.896	0.0139862
803.974	0.0140047
804.052	0.0139212
804.130	0.0138673
804.208	0.0138221
804.287	0.0137140
804.365	0.0138290
804.443	0.0137673
804.521	0.0137135
804.599	0.0136480
804.677	0.0136744
804.755	0.0136761
804.833	0.0137256
804.912	0.0137959
804.990	0.0136610
805.068	0.0137029
805.146	0.0137866
805.224	0.0137379
805.302	0.0138280
805.380	0.0137812
805.458	0.0137295
805.537	0.0136660
805.615	0.0137376
805.693	0.0137522
805.771	0.0137329
805.849	0.0135854
805.927	0.0137979
806.005	0.0138470
806.083	0.0137348
806.162	0.0137727
806.240	0.0138884
806.318	0.0137536
806.396	0.0138677
806.474	0.0137997
806.552	0.0137231
806.630	0.0139386
806.708	0.0139873
806.787	0.0139485
806.865	0.0139625
806.943	0.0139104
807.021	0.0139169
807.099	0.0139742
807.177	0.0141287
807.255	0.0138957
807.333	0.0141019
807.412	0.0141030
807.490	0.0139882
807.568	0.0140126
807.646	0.0139570
807.724	0.0140405
807.802	0.0141026
807.880	0.0139169
807.958	0.0137611
808.037	0.0138436
808.115	0.0139722
808.193	0.0139154
808.271	0.0139130
808.349	0.0139052
808.427	0.0138339
808.505	0.0137350
808.583	0.0138535
808.662	0.0139497
808.740	0.0139410
808.818	0.0137087
808.896	0.0137825
808.974	0.0137403
809.052	0.0137128
809.130	0.0139041
809.208	0.0139652
809.287	0.0137566
809.365	0.0138780
809.443	0.0139616
809.521	0.0139807
809.599	0.0138189
809.677	0.0138596
809.755	0.0138474
809.833	0.0138080
809.912	0.0137853
809.990	0.0137420
810.068	0.0137109
810.146	0.0136857
810.224	0.0137003
810.302	0.0135771
810.380	0.0136034
810.458	0.0135867
810.537	0.0136327
810.615	0.0137504
810.693	0.0135315
810.771	0.0135925
810.849	0.0136514
810.927	0.0136228
811.005	0.0135962
811.083	0.0135831
811.162	0.0138385
811.240	0.0136855
811.318	0.0138069
811.396	0.0139274
811.474	0.0138911
811.552	0.0139913
811.630	0.0140493
811.708	0.0139756
811.787	0.0140324
811.865	0.0141187
811.943	0.0140441
812.021	0.0141637
812.099	0.0141209
812.177	0.0142466
812.255	0.0141525
812.333	0.0139175
812.412	0.0140128
812.490	0.0140814
812.568	0.0138815
812.646	0.0140059
812.724	0.0141357
812.802	0.0139509
812.880	0.0139218
812.958	0.0137703
813.037	0.0137099
813.115	0.0138422
813.193	0.0136978
813.271	0.0137762
813.349	0.0137053
813.427	0.0136463
813.505	0.0137208
813.583	0.0136728
813.662	0.0135851
813.740	0.0136964
813.818	0.0136758
813.896	0.0137534
813.974	0.0137408
814.052	0.0136890
814.130	0.0136937
814.208	0.0136147
814.287	0.0135622
814.365	0.0137365
814.443	0.0136269
814.521	0.0134299
814.599	0.0136090
814.677	0.0135634
814.755	0.0135870
814.833	0.0135603
814.912	0.0136108
814.990	0.0136716
815.068	0.0137439
815.146	0.0134596
815.224	0.0136715
815.302	0.0137403
815.380	0.0138660
815.458	0.0138226
815.537	0.0137881
815.615	0.0140814
815.693	0.0141070
815.771	0.0140181
815.849	0.0139635
815.927	0.0140520
816.005	0.0140985
816.083	0.0141396
816.162	0.0140272
816.240	0.0139998
816.318	0.0139833
816.396	0.0140450
816.474	0.0140001
816.552	0.0138337
816.630	0.0138821
816.708	0.0137894
816.787	0.0138530
816.865	0.0138087
816.943	0.0137181
817.021	0.0138601
817.099	0.0137769
817.177	0.0136884
817.255	0.0137926
817.333	0.0137930
817.412	0.0137331
817.490	0.0137859
817.568	0.0136223
817.646	0.0138316
817.724	0.0137582
817.802	0.0138376
817.880	0.0137129
817.958	0.0138434
818.037	0.0137994
818.115	0.0138860
818.193	0.0139564
818.271	0.0138001
818.349	0.0138799
818.427	0.0138547
818.505	0.0136905
818.583	0.0137672
818.662	0.0137674
818.740	0.0137210
818.818	0.0136006
818.896	0.0136112
818.974	0.0137712
819.052	0.0136664
819.130	0.0136676
819.208	0.0136962
819.287	0.0138287
819.365	0.0136243
819.443	0.0136872
819.521	0.0137311
819.599	0.0136938
819.677	0.0138934
819.755	0.0138867
819.833	0.0138419
819.912	0.0137531
819.990	0.0139486
820.068	0.0139870
820.146	0.0140421
820.224	0.0138832
820.302	0.0139969
820.380	0.0140356
820.458	0.0140283
820.537	0.0140279
820.615	0.0140354
820.693	0.0140488
820.771	0.0139085
820.849	0.0142154
820.927	0.0141638
821.005	0.0140189
821.083	0.0140936
821.162	0.0139866
821.240	0.0140024
821.318	0.0139043
821.396	0.0139440
821.474	0.0138509
821.552	0.0138531
821.630	0.0139362
821.708	0.0137891
821.787	0.0138023
821.865	0.0137288
821.943	0.0136099
822.021	0.0137366
822.099	0.0137297
822.177	0.0136408
822.255	0.0136349
822.333	0.0135761
822.412	0.0135506
822.490	0.0135499
822.568	0.0135491
822.646	0.0134132
822.724	0.0134189
822.802	0.0134962
822.880	0.0134372
822.958	0.0132386
823.037	0.0134643
823.115	0.0136030
823.193	0.0135305
823.271	0.0136129
823.349	0.0136950
823.427	0.0138049
823.505	0.0136408
823.583	0.0138670
823.662	0.0139352
823.740	0.0141087
823.818	0.0140922
823.896	0.0142056
823.974	0.0141322
824.052	0.0143748
824.130	0.0142897
824.208	0.0142006
824.287	0.0143594
824.365	0.0142415
824.443	0.0141872
824.521	0.0143377
824.599	0.0142931
824.677	0.0141980
824.755	0.0141491
824.833	0.0140572
824.912	0.0139764
824.990	0.0139772
825.068	0.0139576
825.146	0.0139908
825.224	0.0139259
825.302	0.0138106
825.380	0.0138377
825.458	0.0138276
825.537	0.0137997
825.615	0.0137656
825.693	0.0136237
825.771	0.0135633
825.849	0.0136195
825.927	0.0136917
826.005	0.0136672
826.083	0.0135000
826.162	0.0135913
826.240	0.0135336
826.318	0.0135400
826.396	0.0135809
826.474	0.0134473
826.552	0.0135581
826.630	0.0135178
826.708	0.0136491
826.787	0.0135408
826.865	0.0136734
826.943	0.0137164
827.021	0.0136484
827.099	0.0136333
827.177	0.0137881
827.255	0.0137923
827.333	0.0138445
827.412	0.0138955
827.490	0.0138640
827.568	0.0140185
827.646	0.0140501
827.724	0.0140418
827.802	0.0140710
827.880	0.0140655
827.958	0.0140240
828.037	0.0140530
828.115	0.0139436
828.193	0.0140714
828.271	0.0139864
828.349	0.0138919
828.427	0.0138653
828.505	0.0139693
828.583	0.0138557
828.662	0.0139898
828.740	0.0139596
828.818	0.0137563
828.896	0.0136432
828.974	0.0137010
829.052	0.0138452
829.130	0.0136996
829.208	0.0138707
829.287	0.0137297
829.365	0.0137901
829.443	0.0138108
829.521	0.0137563
829.599	0.0137374
829.677	0.0138536
829.755	0.0138100
829.833	0.0139374
829.912	0.0139367
829.990	0.0138666
830.068	0.0139304
830.146	0.0139428
830.224	0.0137743
830.302	0.0139049
830.380	0.0139854
830.458	0.0137941
830.537	0.0139129
830.615	0.0139738
830.693	0.0138184
830.771	0.0138538
830.849	0.0138850
830.927	0.0139317
831.005	0.0137688
831.083	0.0139100
831.162	0.0138824
831.240	0.0138511
831.318	0.0138092
831.396	0.0137651
831.474	0.0137791
831.552	0.0138241
831.630	0.0139369
831.708	0.0138124
831.787	0.0138041
831.865	0.0139977
831.943	0.0140283
832.021	0.0138408
832.099	0.0139157
832.177	0.0138417
832.255	0.0138216
832.333	0.0139089
832.412	0.0137781
832.490	0.0137759
832.568	0.0138036
832.646	0.0137465
832.724	0.0136653
832.802	0.0138461
832.880	0.0136971
832.958	0.0137384
833.037	0.0136241
833.115	0.0136382
833.193	0.0136179
833.271	0.0136895
833.349	0.0135949
833.427	0.0135567
833.505	0.0135480
833.583	0.0135720
833.662	0.0136092
833.740	0.0134708
833.818	0.0135699
833.896	0.0136923
833.974	0.0135728
834.052	0.0136288
834.130	0.0136565
834.208	0.0136649
834.287	0.0135937
834.365	0.0135674
834.443	0.0137621
834.521	0.0136806
834.599	0.0135550
834.677	0.0137700
834.755	0.0138596
834.833	0.0137424
834.912	0.0138509
834.990	0.0139399
835.068	0.0138665
835.146	0.0139360
835.224	0.0139442
835.302	0.0139700
835.380	0.0139859
835.458	0.0139828
835.537	0.0140808
835.615	0.0142002
835.693	0.0140136
835.771	0.0140429
835.849	0.0141772
835.927	0.0140659
836.005	0.0140102
836.083	0.0140733
836.162	0.0140813
836.240	0.0141364
836.318	0.0142000
836.396	0.0139092
836.474	0.0141087
836.552	0.0139256
836.630	0.0138983
836.708	0.0138211
836.787	0.0139072
836.865	0.0138101
836.943	0.0136595
837.021	0.0136912
837.099	0.0136526
837.177	0.0137912
837.255	0.0138223
837.333	0.0136796
837.412	0.0137022
837.490	0.0136628
837.568	0.0135920
837.646	0.0136539
837.724	0.0136559
837.802	0.0136236
837.880	0.0137897
837.958	0.0134892
838.037	0.0136082
838.115	0.0136526
838.193	0.0135129
838.271	0.0136271
838.349	0.0135947
838.427	0.0135627
838.505	0.0135279
838.583	0.0135799
838.662	0.0134973
838.740	0.0135233
838.818	0.0135985
838.896	0.0136575
838.974	0.0135277
839.052	0.0134176
839.130	0.0135617
839.208	0.0136714
839.287	0.0136569
839.365	0.0135207
839.443	0.0135941
839.521	0.0136998
839.599	0.0136762
839.677	0.0136755
839.755	0.0138116
839.833	0.0137184
839.912	0.0137498
839.990	0.0138524
840.068	0.0139374
840.146	0.0139178
840.224	0.0139061
840.302	0.0140159
840.380	0.0140399
840.458	0.0140518
840.537	0.0139462
840.615	0.0140548
840.693	0.0139716
840.771	0.0140088
840.849	0.0139442
840.927	0.0139631
841.005	0.0138808
841.083	0.0138947
841.162	0.0139763
841.240	0.0138961
841.318	0.0138570
841.396	0.0140051
841.474	0.0138267
841.552	0.0138055
841.630	0.0139516
841.708	0.0139255
841.787	0.0138361
841.865	0.0140235
841.943	0.0138767
842.021	0.0138583
842.099	0.0139295
842.177	0.0137921
842.255	0.0139186
842.333	0.0139758
842.412	0.0139564
842.490	0.0140590
842.568	0.0139474
842.646	0.0137717
842.724	0.0138828
842.802	0.0139553
842.880	0.0139168
842.958	0.0138529
843.037	0.0137144
843.115	0.0137331
843.193	0.0136849
843.271	0.0137059
843.349	0.0138397
843.427	0.0137209
843.505	0.0136784
843.583	0.0137153
843.662	0.0137146
843.740	0.0137246
843.818	0.0137138
843.896	0.0139002
843.974	0.0137486
844.052	0.0137555
844.130	0.0137048
844.208	0.0137742
844.287	0.0137875
844.365	0.0137032
844.443	0.0137200
844.521	0.0137315
844.599	0.0136697
844.677	0.0137135
844.755	0.0136514
844.833	0.0137327
844.912	0.0137574
844.990	0.0136566
845.068	0.0136272
845.146	0.0136978
845.224	0.0136761
845.302	0.0136226
845.380	0.0137105
845.458	0.0137878
845.537	0.0138169
845.615	0.0137512
845.693	0.0136533
845.771	0.0138203
845.849	0.0138866
845.927	0.0138594
846.005	0.0138943
846.083	0.0138719
846.162	0.0138969
846.240	0.0139249
846.318	0.0139441
846.396	0.0140141
846.474	0.0139735
846.552	0.0139263
846.630	0.0139550
846.708	0.0139278
846.787	0.0139013
846.865	0.0139009
846.943	0.0138813
847.021	0.0138206
847.099	0.0139019
847.177	0.0138723
847.255	0.0137338
847.333	0.0138691
847.412	0.0137890
847.490	0.0137173
847.568	0.0136839
847.646	0.0136603
847.724	0.0138372
847.802	0.0137160
847.880	0.0138023
847.958	0.0138272
848.037	0.0138056
848.115	0.0136916
848.193	0.0137418
848.271	0.0138912
848.349	0.0138573
848.427	0.0138177
848.505	0.0137994
848.583	0.0138740
848.662	0.0138759
848.740	0.0138593
848.818	0.0137182
848.896	0.0138538
848.974	0.0138748
849.052	0.0138627
849.130	0.0137674
849.208	0.0137167
849.287	0.0137225
849.365	0.0137748
849.443	0.0137816
849.521	0.0139616
849.599	0.0136646
849.677	0.0138194
849.755	0.0137263
849.833	0.0137954
849.912	0.0137556
849.990	0.0138348
850.068	0.0137929
850.146	0.0138298
850.224	0.0138319
850.302	0.0136650
850.380	0.0136327
850.458	0.0136863
850.537	0.0137598
850.615	0.0136592
850.693	0.0136568
850.771	0.0136121
850.849	0.0135231
850.927	0.0136349
851.005	0.0135753
851.083	0.0136166
851.162	0.0135459
851.240	0.0135449
851.318	0.0136787
851.396	0.0136690
851.474	0.0137973
851.552	0.0137634
851.630	0.0137768
851.708	0.0137920
851.787	0.0138092
851.865	0.0140511
851.943	0.0138660
852.021	0.0140440
852.099	0.0141347
852.177	0.0140517
852.255	0.0140522
852.333	0.0138513
852.412	0.0138409
852.490	0.0140002
852.568	0.0140051
852.646	0.0137581
852.724	0.0139011
852.802	0.0138503
852.880	0.0136261
852.958	0.0138554
853.037	0.0138612
853.115	0.0137161
853.193	0.0137894
853.271	0.0136235
853.349	0.0136945
853.427	0.0136920
853.505	0.0137453
853.583	0.0136396
853.662	0.0136957
853.740	0.0138463
853.818	0.0137067
853.896	0.0136673
853.974	0.0138206
854.052	0.0138903
854.130	0.0137484
854.208	0.0137676
854.287	0.0138507
854.365	0.0138438
854.443	0.0137991
854.521	0.0138177
854.599	0.0137573
854.677	0.0138509
854.755	0.0138129
854.833	0.0136517
854.912	0.0136059
854.990	0.0136926
855.068	0.0137718
855.146	0.0137114
855.224	0.0137780
855.302	0.0137871
855.380	0.0136246
855.458	0.0137055
855.537	0.0136579
855.615	0.0137203
855.693	0.0137032
855.771	0.0138095
855.849	0.0137622
855.927	0.0138427
856.005	0.0139869
856.083	0.0138057
856.162	0.0137987
856.240	0.0138549
856.318	0.0139385
856.396	0.0141550
856.474	0.0140301
856.552	0.0140064
856.630	0.0139216
856.708	0.0139546
856.787	0.0139839
856.865	0.0140061
856.943	0.0139816
857.021	0.0138685
857.099	0.0138512
857.177	0.0138144
857.255	0.0138899
857.333	0.0137218
857.412	0.0136210
857.490	0.0138248
857.568	0.0137202
857.646	0.0136863
857.724	0.0137285
857.802	0.0136800
857.880	0.0137125
857.958	0.0137286
858.037	0.0136763
858.115	0.0137022
858.193	0.0136629
858.271	0.0138406
858.349	0.0136906
858.427	0.0136192
858.505	0.0138419
858.583	0.0138204
858.662	0.0137484
858.740	0.0137263
858.818	0.0136613
858.896	0.0136887
858.974	0.0137060
859.052	0.0138557
859.130	0.0138119
859.208	0.0139435
859.287	0.0138409
859.365	0.0137716
859.443	0.0138303
859.521	0.0137802
859.599	0.0137095
859.677	0.0136684
859.755	0.0137719
859.833	0.0138584
859.912	0.0136955
859.990	0.0137061
860.068	0.0137404
860.146	0.0136074
860.224	0.0136546
860.302	0.0136633
860.380	0.0137325
860.458	0.0135899
860.537	0.0136821
860.615	0.0136989
860.693	0.0137666
860.771	0.0138859
860.849	0.0138703
860.927	0.0139200
861.005	0.0137819
861.083	0.0139846
861.162	0.0141236
861.240	0.0140600
861.318	0.0140040
861.396	0.0140162
861.474	0.0138193
861.552	0.0139398
861.630	0.0139756
861.708	0.0138690
861.787	0.0137080
861.865	0.0136474
861.943	0.0138455
862.021	0.0136646
862.099	0.0137160
862.177	0.0135775
862.255	0.0135679
862.333	0.0135306
862.412	0.0135448
862.490	0.0134664
862.568	0.0135003
862.646	0.0135205
862.724	0.0136115
862.802	0.0135552
862.880	0.0135479
862.958	0.0135936
863.037	0.0135712
863.115	0.0134686
863.193	0.0136055
863.271	0.0136422
863.349	0.0135618
863.427	0.0136110
863.505	0.0136548
863.583	0.0137765
863.662	0.0137659
863.740	0.0137447
863.818	0.0137392
863.896	0.0137331
863.974	0.0138302
864.052	0.0137051
864.130	0.0139175
864.208	0.0137931
864.287	0.0138572
864.365	0.0138003
864.443	0.0139329
864.521	0.0139502
864.599	0.0140657
864.677	0.0140146
864.755	0.0139590
864.833	0.0141089
864.912	0.0140763
864.990	0.0141111
865.068	0.0141053
865.146	0.0139899
865.224	0.0140163
865.302	0.0140438
865.380	0.0139771
865.458	0.0139538
865.537	0.0140314
865.615	0.0139524
865.693	0.0137502
865.771	0.0138618
865.849	0.0136742
865.927	0.0136646
866.005	0.0137090
866.083	0.0135883
866.162	0.0137098
866.240	0.0138713
866.318	0.0136980
866.396	0.0135870
866.474	0.0136764
866.552	0.0137364
866.630	0.0136446
866.708	0.0134473
866.787	0.0135943
866.865	0.0136154
866.943	0.0135530
867.021	0.0136315
867.099	0.0136286
867.177	0.0135598
867.255	0.0136466
867.333	0.0136342
867.412	0.0137947
867.490	0.0137528
867.568	0.0138452
867.646	0.0138482
867.724	0.0137617
867.802	0.0138588
867.880	0.0138306
867.958	0.0136936
868.037	0.0138000
868.115	0.0137573
868.193	0.0138456
868.271	0.0136474
868.349	0.0135685
868.427	0.0138065
868.505	0.0137786
868.583	0.0138161
868.662	0.0138891
868.740	0.0138221
868.818	0.0137565
868.896	0.0139174
868.974	0.0139549
869.052	0.0139534
869.130	0.0140121
869.208	0.0139780
869.287	0.0139298
869.365	0.0141005
869.443	0.0139909
869.521	0.0139474
869.599	0.0138838
869.677	0.0137565
869.755	0.0137708
869.833	0.0139024
869.912	0.0139176
869.990	0.0138071
870.068	0.0137719
870.146	0.0136390
870.224	0.0137207
870.302	0.0138046
870.380	0.0137146
870.458	0.0139187
870.537	0.0138877
870.615	0.0138120
870.693	0.0138641
870.771	0.0139753
870.849	0.0138629
870.927	0.0139357
871.005	0.0139936
871.083	0.0140551
871.162	0.0139461
871.240	0.0139882
871.318	0.0137286
871.396	0.0137783
871.474	0.0138824
871.552	0.0137373
871.630	0.0135710
871.708	0.0136452
871.787	0.0137557
871.865	0.0137267
871.943	0.0136481
872.021	0.0137706
872.099	0.0136770
872.177	0.0137418
872.255	0.0139069
872.333	0.0136102
872.412	0.0136827
872.490	0.0139697
872.568	0.0136978
872.646	0.0136414
872.724	0.0137849
872.802	0.0137955
872.880	0.0136332
872.958	0.0138686
873.037	0.0138101
873.115	0.0137679
873.193	0.0138397
873.271	0.0138737
873.349	0.0137505
873.427	0.0138432
873.505	0.0139533
873.583	0.0140623
873.662	0.0139983
873.740	0.0140903
873.818	0.0141106
873.896	0.0140537
873.974	0.0141932
874.052	0.0142914
874.130	0.0141225
874.208	0.0142265
874.287	0.0141636
874.365	0.0140686
874.443	0.0140763
874.521	0.0141245
874.599	0.0138451
874.677	0.0139072
874.755	0.0139120
874.833	0.0136712
874.912	0.0137443
874.990	0.0136255
875.068	0.0135860
875.146	0.0134277
875.224	0.0135526
875.302	0.0136205
875.380	0.0136086
875.458	0.0134782
875.537	0.0134991
875.615	0.0135452
875.693	0.0134143
875.771	0.0134704
875.849	0.0135857
875.927	0.0135265
876.005	0.0136424
876.083	0.0134674
876.162	0.0136273
876.240	0.0134849
876.318	0.0135712
876.396	0.0136407
876.474	0.0137566
876.552	0.0139093
876.630	0.0139477
876.708	0.0139883
876.787	0.0140821
876.865	0.0140929
876.943	0.0140207
877.021	0.0139998
877.099	0.0142200
877.177	0.0140514
877.255	0.0142358
877.333	0.0140222
877.412	0.0142542
877.490	0.0143155
877.568	0.0140823
877.646	0.0140823
877.724	0.0142764
877.802	0.0142673
877.880	0.0142484
877.958	0.0142107
878.037	0.0140992
878.115	0.0140788
878.193	0.0141703
878.271	0.0140585
878.349	0.0140223
878.427	0.0139154
878.505	0.0139117
878.583	0.0137946
878.662	0.0137643
878.740	0.0136549
878.818	0.0136104
878.896	0.0135975
878.974	0.0135801
879.052	0.0133851
879.130	0.0134001
879.208	0.0133260
879.287	0.0132045
879.365	0.0132972
879.443	0.0133542
879.521	0.0134473
879.599	0.0133712
879.677	0.0134748
879.755	0.0134478
879.833	0.0136040
879.912	0.0135856
879.990	0.0134856
880.068	0.0135995
880.146	0.0136371
880.224	0.0136488
880.302	0.0136371
880.380	0.0139161
880.458	0.0140951
880.537	0.0140424
880.615	0.0141675
880.693	0.0140707
880.771	0.0142104
880.849	0.0142395
880.927	0.0141419
881.005	0.0141369
881.083	0.0141769
881.162	0.0140678
881.240	0.0139021
881.318	0.0139063
881.396	0.0139228
881.474	0.0138616
881.552	0.0136633
881.630	0.0139343
881.708	0.0140128
881.787	0.0139326
881.865	0.0138602
881.943	0.0136847
882.021	0.0138472
882.099	0.0138900
882.177	0.0140486
882.255	0.0140124
882.333	0.0139983
882.412	0.0141644
882.490	0.0140070
882.568	0.0140224
882.646	0.0140594
882.724	0.0139683
882.802	0.0140672
882.880	0.0141008
882.958	0.0139306
883.037	0.0138631
883.115	0.0139177
883.193	0.0138847
883.271	0.0138106
883.349	0.0136765
883.427	0.0135337
883.505	0.0134724
883.583	0.0133712
883.662	0.0131713
883.740	0.0132084
883.818	0.0129728
883.896	0.0131908
883.974	0.0130535
884.052	0.0130512
884.130	0.0131411
884.208	0.0130114
884.287	0.0131515
884.365	0.0133150
884.443	0.0132938
884.521	0.0136388
884.599	0.0134373
884.677	0.0138168
884.755	0.0139916
884.833	0.0141383
884.912	0.0142616
884.990	0.0141000
885.068	0.0141595
885.146	0.0143847
885.224	0.0144566
885.302	0.0143866
885.380	0.0144965
885.458	0.0144268
885.537	0.0143346
885.615	0.0142242
885.693	0.0141850
885.771	0.0142383
885.849	0.0143060
885.927	0.0141439
886.005	0.0140804
886.083	0.0142355
886.162	0.0142005
886.240	0.0142192
886.318	0.0142462
886.396	0.0142015
886.474	0.0140199
886.552	0.0140559
886.630	0.0139937
886.708	0.0138549
886.787	0.0138860
886.865	0.0139139
886.943	0.0138470
887.021	0.0134962
887.099	0.0135269
887.177	0.0135120
887.255	0.0134048
887.333	0.0132686
887.412	0.0131473
887.490	0.0131716
887.568	0.0132016
887.646	0.0130907
887.724	0.0130890
887.802	0.0131084
887.880	0.0131903
887.958	0.0131094
888.037	0.0131590
888.115	0.0132500
888.193	0.0132585
888.271	0.0134271
888.349	0.0133490
888.427	0.0135867
888.505	0.0136774
888.583	0.0137759
888.662	0.0140634
888.740	0.0140608
888.818	0.0141476
888.896	0.0144200
888.974	0.0143347
889.052	0.0143663
889.130	0.0145487
889.208	0.0145508
889.287	0.0143117
889.365	0.0143859
889.443	0.0145266
889.521	0.0143046
889.599	0.0140994
889.677	0.0141717
889.755	0.0140290
889.833	0.0140863
889.912	0.0139649
889.990	0.0139803
890.068	0.0138464
890.146	0.0139053
890.224	0.0138912
890.302	0.0138515
890.380	0.0139693
890.458	0.0140652
890.537	0.0140419
890.615	0.0140034
890.693	0.0140611
890.771	0.0140032
890.849	0.0141415
890.927	0.0139890
891.005	0.0140376
891.083	0.0140158
891.162	0.0139994
891.240	0.0139218
891.318	0.0140626
891.396	0.0138425
891.474	0.0138729
891.552	0.0137531
891.630	0.0135471
891.708	0.0135825
891.787	0.0135553
891.865	0.0134762
891.943	0.0133826
892.021	0.0134188
892.099	0.0133237
892.177	0.0133047
892.255	0.0134145
892.333	0.0133179
892.412	0.0133813
892.490	0.0133527
892.568	0.0134808
892.646	0.0134288
892.724	0.0136517
892.802	0.0138251
892.880	0.0138493
892.958	0.0139384
893.037	0.0140528
893.115	0.0140738
893.193	0.0142673
893.271	0.0143205
893.349	0.0142471
893.427	0.0142333
893.505	0.0143355
893.583	0.0142175
893.662	0.0141445
893.740	0.0142495
893.818	0.0140574
893.896	0.0141493
893.974	0.0139973
894.052	0.0139766
894.130	0.0139568
894.208	0.0138223
894.287	0.0137062
894.365	0.0137688
894.443	0.0139121
894.521	0.0139466
894.599	0.0138347
894.677	0.0138528
894.755	0.0139548
894.833	0.0138984
894.912	0.0139994
894.990	0.0141116
895.068	0.0141486
895.146	0.0140484
895.224	0.0140486
895.302	0.0139880
895.380	0.0140766
895.458	0.0139964
895.537	0.0140700
895.615	0.0139175
895.693	0.0139198
895.771	0.0138431
895.849	0.0138669
895.927	0.0138400
896.005	0.0136389
896.083	0.0137181
896.162	0.0137413
896.240	0.0135443
896.318	0.0135568
896.396	0.0136138
896.474	0.0136105
896.552	0.0135831
896.630	0.0134884
896.708	0.0135589
896.787	0.0134534
896.865	0.0135830
896.943	0.0136037
897.021	0.0136064
897.099	0.0135552
897.177	0.0136813
897.255	0.0137840
897.333	0.0137620
897.412	0.0138399
897.490	0.0138360
897.568	0.0138728
897.646	0.0139057
897.724	0.0138338
897.802	0.0140511
897.880	0.0139970
897.958	0.0138860
898.037	0.0140066
898.115	0.0141360
898.193	0.0139221
898.271	0.0139131
898.349	0.0139904
898.427	0.0139605
898.505	0.0139398
898.583	0.0139351
898.662	0.0140770
898.740	0.0139726
898.818	0.0139986
898.896	0.0141141
898.974	0.0139902
899.052	0.0140366
899.130	0.0140264
899.208	0.0139329
899.287	0.0138750
899.365	0.0140301
899.443	0.0139567
899.521	0.0141187
899.599	0.0138899
899.677	0.0137734
899.755	0.0138681
899.833	0.0139389
899.912	0.0138219
899.990	0.0138804
900.068	0.0138742
900.146	0.0139630
900.224	0.0137900
900.302	0.0137747
900.380	0.0136918
900.458	0.0137134
900.537	0.0136966
900.615	0.0137501
900.693	0.0137296
900.771	0.0136149
900.849	0.0136184
900.927	0.0136514
901.005	0.0135151
901.083	0.0135690
901.162	0.0136611
901.240	0.0136005
901.318	0.0135958
901.396	0.0136639
901.474	0.0138856
901.552	0.0138382
901.630	0.0137631
901.708	0.0137705
901.787	0.0137495
901.865	0.0138554
901.943	0.0137054
902.021	0.0138031
902.099	0.0139200
902.177	0.0139420
902.255	0.0138937
902.333	0.0138228
902.412	0.0137690
902.490	0.0138905
902.568	0.0137814
902.646	0.0137368
902.724	0.0136868
902.802	0.0138100
902.880	0.0138836
902.958	0.0139059
903.037	0.0138655
903.115	0.0136977
903.193	0.0137157
903.271	0.0139260
903.349	0.0138351
903.427	0.0138214
903.505	0.0138137
903.583	0.0139124
903.662	0.0140798
903.740	0.0139048
903.818	0.0138323
903.896	0.0139200
903.974	0.0139988
904.052	0.0141178
904.130	0.0139793
904.208	0.0139753
904.287	0.0141074
904.365	0.0139271
904.443	0.0140761
904.521	0.0138972
904.599	0.0138513
904.677	0.0139571
904.755	0.0140331
904.833	0.0138948
904.912	0.0137623
904.990	0.0138232
905.068	0.0137804
905.146	0.0138206
905.224	0.0138973
905.302	0.0137582
905.380	0.0138655
905.458	0.0138333
905.537	0.0138009
905.615	0.0138917
905.693	0.0137742
905.771	0.0137663
905.849	0.0138000
905.927	0.0136565
906.005	0.0137431
906.083	0.0137682
906.162	0.0139636
906.240	0.0139188
906.318	0.0139225
906.396	0.0138246
906.474	0.0138645
906.552	0.0138593
906.630	0.0139518
906.708	0.0139189
906.787	0.0139165
906.865	0.0140726
906.943	0.0140168
907.021	0.0138778
907.099	0.0140247
907.177	0.0141485
907.255	0.0139471
907.333	0.0139085
907.412	0.0140456
907.490	0.0140017
907.568	0.0140124
907.646	0.0139207
907.724	0.0138856
907.802	0.0140665
907.880	0.0137995
907.958	0.0138051
908.037	0.0138430
908.115	0.0137049
908.193	0.0138528
908.271	0.0137389
908.349	0.0137177
908.427	0.0136864
908.505	0.0136692
908.583	0.0137846
908.662	0.0137743
908.740	0.0137088
908.818	0.0135874
908.896	0.0136427
908.974	0.0137228
909.052	0.0137463
909.130	0.0137289
909.208	0.0137175
909.287	0.0138786
909.365	0.0137178
909.443	0.0138105
909.521	0.0137765
909.599	0.0139073
909.677	0.0138711
909.755	0.0138832
909.833	0.0138429
909.912	0.0139658
909.990	0.0139598
910.068	0.0138985
910.146	0.0138669
910.224	0.0139491
910.302	0.0140201
910.380	0.0138189
910.458	0.0138590
910.537	0.0138398
910.615	0.0138840
910.693	0.0138501
910.771	0.0137705
910.849	0.0138113
910.927	0.0137807
911.005	0.0139377
911.083	0.0137393
911.162	0.0137584
911.240	0.0137499
911.318	0.0138179
911.396	0.0137749
911.474	0.0136886
911.552	0.0138427
911.630	0.0138113
911.708	0.0136208
911.787	0.0137541
911.865	0.0136859
911.943	0.0136782
912.021	0.0136642
912.099	0.0137251
912.177	0.0137017
912.255	0.0136223
912.333	0.0139296
912.412	0.0137230
912.490	0.0137495
912.568	0.0136810
912.646	0.0138431
912.724	0.0139261
912.802	0.0139041
912.880	0.0138920
912.958	0.0139594
913.037	0.0138758
913.115	0.0139467
913.193	0.0138402
913.271	0.0138419
913.349	0.0139297
913.427	0.0140250
913.505	0.0140581
913.583	0.0138066
913.662	0.0139516
913.740	0.0139394
913.818	0.0139905
913.896	0.0138493
913.974	0.0136584
914.052	0.0137331
914.130	0.0138306
914.208	0.0137468
914.287	0.0138527
914.365	0.0137968
914.443	0.0137332
914.521	0.0136602
914.599	0.0136387
914.677	0.0136299
914.755	0.0137879
914.833	0.0137249
914.912	0.0138647
914.990	0.0137331
915.068	0.0137653
915.146	0.0138055
915.224	0.0138166
915.302	0.0137503
915.380	0.0137160
915.458	0.0139023
915.537	0.0138732
915.615	0.0137835
915.693	0.0138872
915.771	0.0139309
915.849	0.0138290
915.927	0.0139216
916.005	0.0137433
916.083	0.0137318
916.162	0.0139545
916.240	0.0139531
916.318	0.0139031
916.396	0.0138790
916.474	0.0137968
916.552	0.0138224
916.630	0.0138372
916.708	0.0139091
916.787	0.0139745
916.865	0.0139139
916.943	0.0139252
917.021	0.0140413
917.099	0.0140062
917.177	0.0141212
917.255	0.0140144
917.333	0.0141532
917.412	0.0140721
917.490	0.0140621
917.568	0.0141573
917.646	0.0142679
917.724	0.0142825
917.802	0.0142642
917.880	0.0143114
917.958	0.0141820
918.037	0.0141790
918.115	0.0142667
918.193	0.0141228
918.271	0.0141158
918.349	0.0140694
918.427	0.0140141
918.505	0.0139339
918.583	0.0140391
918.662	0.0139903
918.740	0.0141196
918.818	0.0138517
918.896	0.0138212
918.974	0.0138548
919.052	0.0137851
919.130	0.0137680
919.208	0.0136846
919.287	0.0135840
919.365	0.0135946
919.443	0.0134637
919.521	0.0135881
919.599	0.0134533
919.677	0.0135014
919.755	0.0135087
919.833	0.0134753
919.912	0.0136072
919.990	0.0135394
920.068	0.0135828
920.146	0.0135859
920.224	0.0136710
920.302	0.0136721
920.380	0.0135923
920.458	0.0138843
920.537	0.0138577
920.615	0.0137792
920.693	0.0138818
920.771	0.0137132
920.849	0.0137704
920.927	0.0138821
921.005	0.0138730
921.083	0.0139726
921.162	0.0139920
921.240	0.0139410
921.318	0.0138994
921.396	0.0140289
921.474	0.0139150
921.552	0.0139895
921.630	0.0139709
921.708	0.0139163
921.787	0.0140267
921.865	0.0139539
921.943	0.0138125
922.021	0.0137669
922.099	0.0138915
922.177	0.0138412
922.255	0.0138106
922.333	0.0137765
922.412	0.0137607
922.490	0.0136119
922.568	0.0136179
922.646	0.0137051
922.724	0.0137257
922.802	0.0135944
922.880	0.0137312
922.958	0.0135986
923.037	0.0135744
923.115	0.0136970
923.193	0.0138995
923.271	0.0137911
923.349	0.0137165
923.427	0.0139246
923.505	0.0138538
923.583	0.0139923
923.662	0.0138576
923.740	0.0137810
923.818	0.0139852
923.896	0.0138470
923.974	0.0141192
924.052	0.0139482
924.130	0.0138332
924.208	0.0138520
924.287	0.0138065
924.365	0.0139391
924.443	0.0139294
924.521	0.0137898
924.599	0.0137450
924.677	0.0137574
924.755	0.0139006
924.833	0.0138178
924.912	0.0138571
924.990	0.0139848
925.068	0.0139468
925.146	0.0138778
925.224	0.0138731
925.302	0.0139108
925.380	0.0138543
925.458	0.0139075
925.537	0.0138511
925.615	0.0138099
925.693	0.0137962
925.771	0.0137352
925.849	0.0137091
925.927	0.0136153
926.005	0.0137500
926.083	0.0135609
926.162	0.0136110
926.240	0.0135765
926.318	0.0135150
926.396	0.0134969
926.474	0.0136839
926.552	0.0136032
926.630	0.0134817
926.708	0.0134180
926.787	0.0134481
926.865	0.0135185
926.943	0.0135458
927.021	0.0134463
927.099	0.0136347
927.177	0.0137708
927.255	0.0137434
927.333	0.0136787
927.412	0.0137437
927.490	0.0138827
927.568	0.0140092
927.646	0.0137994
927.724	0.0138155
927.802	0.0138829
927.880	0.0140208
927.958	0.0139935
928.037	0.0138977
928.115	0.0140205
928.193	0.0140351
928.271	0.0140006
928.349	0.0140503
928.427	0.0139441
928.505	0.0139955
928.583	0.0141171
928.662	0.0139684
928.740	0.0140601
928.818	0.0140957
928.896	0.0140755
928.974	0.0141194
929.052	0.0140937
929.130	0.0141805
929.208	0.0141499
929.287	0.0141467
929.365	0.0139531
929.443	0.0140327
929.521	0.0139883
929.599	0.0139424
929.677	0.0139583
929.755	0.0139979
929.833	0.0139754
929.912	0.0138274
929.990	0.0137984
930.068	0.0137961
930.146	0.0136958
930.224	0.0137036
930.302	0.0136358
930.380	0.0135826
930.458	0.0135191
930.537	0.0135624
930.615	0.0134798
930.693	0.0134827
930.771	0.0135779
930.849	0.0136217
930.927	0.0136256
931.005	0.0135609
931.083	0.0135190
931.162	0.0136040
931.240	0.0136993
931.318	0.0137592
931.396	0.0137685
931.474	0.0137357
931.552	0.0139218
931.630	0.0138361
931.708	0.0138052
931.787	0.0137484
931.865	0.0138085
931.943	0.0139325
932.021	0.0137930
932.099	0.0138790
932.177	0.0138301
932.255	0.0138741
932.333	0.0139735
932.412	0.0139475
932.490	0.0140828
932.568	0.0140767
932.646	0.0140150
932.724	0.0140511
932.802	0.0141662
932.880	0.0140341
932.958	0.0141078
933.037	0.0140490
933.115	0.0141370
933.193	0.0140573
933.271	0.0139705
933.349	0.0139144
933.427	0.0140316
933.505	0.0139045
933.583	0.0137619
933.662	0.0138544
933.740	0.0138618
933.818	0.0137618
933.896	0.0137518
933.974	0.0136845
934.052	0.0137010
934.130	0.0135290
934.208	0.0136255
934.287	0.0136434
934.365	0.0135098
934.443	0.0134609
934.521	0.0137563
934.599	0.0136674
934.677	0.0136963
934.755	0.0138094
934.833	0.0136249
934.912	0.0136861
934.990	0.0137581
935.068	0.0137805
935.146	0.0137419
935.224	0.0137814
935.302	0.0139122
935.380	0.0140104
935.458	0.0140674
935.537	0.0139591
935.615	0.0140552
935.693	0.0140366
935.771	0.0139128
935.849	0.0139139
935.927	0.0139393
936.005	0.0139146
936.083	0.0139036
936.162	0.0138164
936.240	0.0139369
936.318	0.0140237
936.396	0.0137783
936.474	0.0138174
936.552	0.0138376
936.630	0.0137878
936.708	0.0137203
936.787	0.0138498
936.865	0.0138140
936.943	0.0139954
937.021	0.0139560
937.099	0.0138898
937.177	0.0138857
937.255	0.0139282
937.333	0.0139658
937.412	0.0140503
937.490	0.0140110
937.568	0.0139085
937.646	0.0139303
937.724	0.0139690
937.802	0.0139038
937.880	0.0139531
937.958	0.0138395
938.037	0.0138263
938.115	0.0136697
938.193	0.0135886
938.271	0.0136871
938.349	0.0135962
938.427	0.0136781
938.505	0.0135982
938.583	0.0134771
938.662	0.0135677
938.740	0.0135030
938.818	0.0134696
938.896	0.0135213
938.974	0.0133199
939.052	0.0135102
939.130	0.0135886
939.208	0.0136491
939.287	0.0136063
939.365	0.0136336
939.443	0.0136520
939.521	0.0137634
939.599	0.0138985
939.677	0.0137342
939.755	0.0136942
939.833	0.0138155
939.912	0.0140419
939.990	0.0138889
940.068	0.0137983
940.146	0.0139751
940.224	0.0138829
940.302	0.0137536
940.380	0.0138509
940.458	0.0137710
940.537	0.0138129
940.615	0.0138740
940.693	0.0138976
940.771	0.0137485
940.849	0.0140101
940.927	0.0138344
941.005	0.0139389
941.083	0.0139191
941.162	0.0138996
941.240	0.0139581
941.318	0.0140297
941.396	0.0139050
941.474	0.0138164
941.552	0.0138808
941.630	0.0139855
941.708	0.0138819
941.787	0.0137819
941.865	0.0139103
941.943	0.0137061
942.021	0.0137593
942.099	0.0137626
942.177	0.0135832
942.255	0.0136358
942.333	0.0137119
942.412	0.0136644
942.490	0.0135964
942.568	0.0137299
942.646	0.0135540
942.724	0.0135153
942.802	0.0135690
942.880	0.0136594
942.958	0.0136771
943.037	0.0135837
943.115	0.0137437
943.193	0.0136621
943.271	0.0135832
943.349	0.0135339
943.427	0.0135103
943.505	0.0134995
943.583	0.0134854
943.662	0.0135920
943.740	0.0136497
943.818	0.0136467
943.896	0.0137746
943.974	0.0137209
944.052	0.0137390
944.130	0.0137130
944.208	0.0139223
944.287	0.0136898
944.365	0.0137587
944.443	0.0139683
944.521	0.0140075
944.599	0.0138488
944.677	0.0137290
944.755	0.0138286
944.833	0.0137668
944.912	0.0138182
944.990	0.0137592
945.068	0.0137952
945.146	0.0137219
945.224	0.0136810
945.302	0.0136729
945.380	0.0136504
945.458	0.0138134
945.537	0.0137886
945.615	0.0139175
945.693	0.0138574
945.771	0.0137903
945.849	0.0139912
945.927	0.0140098
946.005	0.0140791
946.083	0.0141094
946.162	0.0141183
946.240	0.0139697
946.318	0.0140687
946.396	0.0141232
946.474	0.0140984
946.552	0.0140588
946.630	0.0140527
946.708	0.0139674
946.787	0.0138832
946.865	0.0138053
946.943	0.0137993
947.021	0.0137737
947.099	0.0137031
947.177	0.0136253
947.255	0.0135780
947.333	0.0136459
947.412	0.0135348
947.490	0.0136115
947.568	0.0136002
947.646	0.0135837
947.724	0.0135513
947.802	0.0135913
947.880	0.0135471
947.958	0.0137486
948.037	0.0136989
948.115	0.0136559
948.193	0.0136988
948.271	0.0137482
948.349	0.0137771
948.427	0.0137216
948.505	0.0138226
948.583	0.0137731
948.662	0.0137035
948.740	0.0138326
948.818	0.0138569
948.896	0.0138874
948.974	0.0138821
949.052	0.0138260
949.130	0.0137974
949.208	0.0137639
949.287	0.0136944
949.365	0.0138516
949.443	0.0137966
949.521	0.0136296
949.599	0.0137823
949.677	0.0138203
949.755	0.0138820
949.833	0.0137373
949.912	0.0137350
949.990	0.0137465
950.068	0.0139310
950.146	0.0136467
950.224	0.0137498
950.302	0.0137292
950.380	0.0137559
950.458	0.0138969
950.537	0.0137922
950.615	0.0136253
950.693	0.0137871
950.771	0.0139198
950.849	0.0138354
950.927	0.0138983
951.005	0.0139159
951.083	0.0139114
951.162	0.0139059
951.240	0.0139748
951.318	0.0139190
951.396	0.0140655
951.474	0.0140335
951.552	0.0138933
951.630	0.0139963
951.708	0.0139571
951.787	0.0138612
951.865	0.0139012
951.943	0.0138994
952.021	0.0139520
952.099	0.0139023
952.177	0.0138425
952.255	0.0137405
952.333	0.0138177
952.412	0.0138538
952.490	0.0137181
952.568	0.0135890
952.646	0.0138857
952.724	0.0138169
952.802	0.0137887
952.880	0.0137660
952.958	0.0137496
953.037	0.0138775
953.115	0.0139513
953.193	0.0139462
953.271	0.0138803
953.349	0.0139671
953.427	0.0138597
953.505	0.0138924
953.583	0.0138795
953.662	0.0137930
953.740	0.0138068
953.818	0.0137226
953.896	0.0137328
953.974	0.0138091
954.052	0.0138649
954.130	0.0137440
954.208	0.0136540
954.287	0.0136854
954.365	0.0136369
954.443	0.0135738
954.521	0.0137664
954.599	0.0136640
954.677	0.0137658
954.755	0.0137383
954.833	0.0138993
954.912	0.0137764
954.990	0.0138477
955.068	0.0137672
955.146	0.0137708
955.224	0.0137341
955.302	0.0138388
955.380	0.0137828
955.458	0.0138204
955.537	0.0138259
955.615	0.0138198
955.693	0.0138265
955.771	0.0138773
955.849	0.0139326
955.927	0.0137964
956.005	0.0138628
956.083	0.0139585
956.162	0.0138960
956.240	0.0138046
956.318	0.0138884
956.396	0.0140176
956.474	0.0140809
956.552	0.0140554
956.630	0.0139825
956.708	0.0139938
956.787	0.0139189
956.865	0.0139006
956.943	0.0139616
957.021	0.0139079
957.099	0.0138255
957.177	0.0139499
957.255	0.0140152
957.333	0.0139008
957.412	0.0138850
957.490	0.0138355
957.568	0.0139941
957.646	0.0140784
957.724	0.0139083
957.802	0.0138124
957.880	0.0138595
957.958	0.0139235
958.037	0.0139284
958.115	0.0138267
958.193	0.0138687
958.271	0.0137685
958.349	0.0137691
958.427	0.0135910
958.505	0.0136483
958.583	0.0136943
958.662	0.0135845
958.740	0.0136523
958.818	0.0137181
958.896	0.0137930
958.974	0.0136441
959.052	0.0137032
959.130	0.0136089
959.208	0.0138365
959.287	0.0137614
959.365	0.0138417
959.443	0.0138422
959.521	0.0139435
959.599	0.0139129
959.677	0.0139845
959.755	0.0139480
959.833	0.0139779
959.912	0.0140112
959.990	0.0139630
960.068	0.0140260
960.146	0.0138799
960.224	0.0140523
960.302	0.0140505
960.380	0.0138828
960.458	0.0138728
960.537	0.0138947
960.615	0.0140764
960.693	0.0138071
960.771	0.0137873
960.849	0.0138204
960.927	0.0139188
961.005	0.0137458
961.083	0.0137519
961.162	0.0139320
961.240	0.0139452
961.318	0.0137006
961.396	0.0136855
961.474	0.0137016
961.552	0.0137152
961.630	0.0137153
961.708	0.0136777
961.787	0.0136291
961.865	0.0135814
961.943	0.0138097
962.021	0.0137166
962.099	0.0136660
962.177	0.0138640
962.255	0.0136396
962.333	0.0135882
962.412	0.0135544
962.490	0.0136186
962.568	0.0136485
962.646	0.0136393
962.724	0.0134593
962.802	0.0135360
962.880	0.0137247
962.958	0.0136494
963.037	0.0136395
963.115	0.0138142
963.193	0.0136808
963.271	0.0136600
963.349	0.0137399
963.427	0.0139450
963.505	0.0140066
963.583	0.0138989
963.662	0.0139132
963.740	0.0139044
963.818	0.0139562
963.896	0.0140287
963.974	0.0140068
964.052	0.0138864
964.130	0.0137759
964.208	0.0138834
964.287	0.0139091
964.365	0.0139203
964.443	0.0138654
964.521	0.0138437
964.599	0.0139378
964.677	0.0138470
964.755	0.0138615
964.833	0.0137462
964.912	0.0138233
964.990	0.0138833
965.068	0.0138853
965.146	0.0138234
965.224	0.0139131
965.302	0.0138983
965.380	0.0138707
965.458	0.0138326
965.537	0.0137511
965.615	0.0137695
965.693	0.0137070
965.771	0.0137476
965.849	0.0137652
965.927	0.0136206
966.005	0.0135401
966.083	0.0134939
966.162	0.0137180
966.240	0.0135912
966.318	0.0135956
966.396	0.0136904
966.474	0.0137144
966.552	0.0137196
966.630	0.0138133
966.708	0.0137678
966.787	0.0136790
966.865	0.0136794
966.943	0.0139133
967.021	0.0138861
967.099	0.0135538
967.177	0.0138565
967.255	0.0137394
967.333	0.0137054
967.412	0.0136227
967.490	0.0137017
967.568	0.0137290
967.646	0.0138440
967.724	0.0137334
967.802	0.0137721
967.880	0.0138623
967.958	0.0138548
968.037	0.0139654
968.115	0.0140223
968.193	0.0138744
968.271	0.0139748
968.349	0.0140135
968.427	0.0140116
968.505	0.0139850
968.583	0.0139580
968.662	0.0141400
968.740	0.0140614
968.818	0.0140813
968.896	0.0139657
968.974	0.0141048
969.052	0.0139754
969.130	0.0139765
969.208	0.0138835
969.287	0.0138203
969.365	0.0138590
969.443	0.0137491
969.521	0.0138437
969.599	0.0137157
969.677	0.0135835
969.755	0.0137215
969.833	0.0135903
969.912	0.0136349
