05/08/2022	19:47:15	Ver.	4.1	UNKNOWN
Optical Delay	649.989667	Delta X		0.078125	Sweeps	1	Scan Rate	0/0
Coordinates	Axis 1	NaN	Axis 2	NaN	Axis 3	NaN	Axis 4	NaN	Axis 5	NaN	Axis 6	0.000000
TX Power	0.000000	RX Power	0.000000

649.990	0.0137791
650.068	0.0137961
650.146	0.0138612
650.224	0.0137382
650.302	0.0136891
650.380	0.0137928
650.458	0.0137459
650.537	0.0136829
650.615	0.0136742
650.693	0.0138251
650.771	0.0137328
650.849	0.0136961
650.927	0.0137680
651.005	0.0139188
651.083	0.0136751
651.162	0.0138119
651.240	0.0138213
651.318	0.0137228
651.396	0.0137574
651.474	0.0137545
651.552	0.0138578
651.630	0.0138765
651.708	0.0136964
651.787	0.0136982
651.865	0.0138081
651.943	0.0137122
652.021	0.0137867
652.099	0.0137342
652.177	0.0138381
652.255	0.0137406
652.333	0.0136152
652.412	0.0136727
652.490	0.0138294
652.568	0.0137426
652.646	0.0136330
652.724	0.0137924
652.802	0.0137898
652.880	0.0135986
652.958	0.0139053
653.037	0.0137167
653.115	0.0139020
653.193	0.0136419
653.271	0.0136802
653.349	0.0138873
653.427	0.0138226
653.505	0.0138855
653.583	0.0138514
653.662	0.0138078
653.740	0.0137609
653.818	0.0137264
653.896	0.0137995
653.974	0.0137550
654.052	0.0136347
654.130	0.0139292
654.208	0.0137804
654.287	0.0138804
654.365	0.0137690
654.443	0.0137886
654.521	0.0136909
654.599	0.0137309
654.677	0.0138483
654.755	0.0137811
654.833	0.0136761
654.912	0.0136624
654.990	0.0138462
655.068	0.0139177
655.146	0.0138438
655.224	0.0135854
655.302	0.0135166
655.380	0.0136977
655.458	0.0137046
655.537	0.0137847
655.615	0.0137815
655.693	0.0136967
655.771	0.0137228
655.849	0.0137942
655.927	0.0137350
656.005	0.0137183
656.083	0.0137501
656.162	0.0137087
656.240	0.0137743
656.318	0.0138691
656.396	0.0137265
656.474	0.0137019
656.552	0.0137333
656.630	0.0138015
656.708	0.0136888
656.787	0.0137845
656.865	0.0138306
656.943	0.0137502
657.021	0.0138183
657.099	0.0139234
657.177	0.0137077
657.255	0.0136038
657.333	0.0137911
657.412	0.0138185
657.490	0.0138852
657.568	0.0138393
657.646	0.0137088
657.724	0.0137137
657.802	0.0139362
657.880	0.0138249
657.958	0.0137157
658.037	0.0138972
658.115	0.0138438
658.193	0.0137582
658.271	0.0138367
658.349	0.0138279
658.427	0.0138223
658.505	0.0138344
658.583	0.0137596
658.662	0.0137007
658.740	0.0137994
658.818	0.0138258
658.896	0.0137870
658.974	0.0138139
659.052	0.0138493
659.130	0.0137641
659.208	0.0137302
659.287	0.0137391
659.365	0.0138166
659.443	0.0137077
659.521	0.0137202
659.599	0.0137178
659.677	0.0137066
659.755	0.0136547
659.833	0.0138190
659.912	0.0136449
659.990	0.0138184
660.068	0.0137416
660.146	0.0137078
660.224	0.0137383
660.302	0.0138850
660.380	0.0137434
660.458	0.0138109
660.537	0.0137381
660.615	0.0137546
660.693	0.0136858
660.771	0.0137185
660.849	0.0139017
660.927	0.0138382
661.005	0.0138235
661.083	0.0137582
661.162	0.0136700
661.240	0.0136207
661.318	0.0135953
661.396	0.0137356
661.474	0.0137747
661.552	0.0137531
661.630	0.0136137
661.708	0.0136382
661.787	0.0137488
661.865	0.0136978
661.943	0.0137017
662.021	0.0138482
662.099	0.0137595
662.177	0.0137469
662.255	0.0137598
662.333	0.0138095
662.412	0.0138210
662.490	0.0137369
662.568	0.0136303
662.646	0.0136914
662.724	0.0137101
662.802	0.0138699
662.880	0.0136851
662.958	0.0138129
663.037	0.0137849
663.115	0.0138364
663.193	0.0136156
663.271	0.0137147
663.349	0.0137029
663.427	0.0137763
663.505	0.0137957
663.583	0.0137767
663.662	0.0137542
663.740	0.0137984
663.818	0.0137969
663.896	0.0138654
663.974	0.0136820
664.052	0.0137191
664.130	0.0137758
664.208	0.0138021
664.287	0.0138351
664.365	0.0137424
664.443	0.0137251
664.521	0.0136813
664.599	0.0137869
664.677	0.0137056
664.755	0.0137019
664.833	0.0137527
664.912	0.0137335
664.990	0.0137244
665.068	0.0137481
665.146	0.0137662
665.224	0.0137630
665.302	0.0137477
665.380	0.0137760
665.458	0.0139135
665.537	0.0137366
665.615	0.0137848
665.693	0.0137437
665.771	0.0136856
665.849	0.0138637
665.927	0.0137188
666.005	0.0137226
666.083	0.0137038
666.162	0.0137820
666.240	0.0136804
666.318	0.0136899
666.396	0.0136799
666.474	0.0137579
666.552	0.0136368
666.630	0.0136618
666.708	0.0137112
666.787	0.0136445
666.865	0.0136604
666.943	0.0137408
667.021	0.0138082
667.099	0.0137844
667.177	0.0137865
667.255	0.0135762
667.333	0.0137421
667.412	0.0138079
667.490	0.0137756
667.568	0.0138493
667.646	0.0137050
667.724	0.0136626
667.802	0.0136192
667.880	0.0138044
667.958	0.0137415
668.037	0.0137177
668.115	0.0137846
668.193	0.0138360
668.271	0.0138659
668.349	0.0136855
668.427	0.0137380
668.505	0.0137233
668.583	0.0138077
668.662	0.0137414
668.740	0.0136597
668.818	0.0137939
668.896	0.0137240
668.974	0.0136463
669.052	0.0137367
669.130	0.0137426
669.208	0.0136513
669.287	0.0136715
669.365	0.0136443
669.443	0.0137130
669.521	0.0138852
669.599	0.0137785
669.677	0.0135662
669.755	0.0137810
669.833	0.0137576
669.912	0.0136364
669.990	0.0137656
670.068	0.0138338
670.146	0.0138245
670.224	0.0139375
670.302	0.0137711
670.380	0.0136711
670.458	0.0137797
670.537	0.0137706
670.615	0.0137297
670.693	0.0137047
670.771	0.0135617
670.849	0.0136824
670.927	0.0136506
671.005	0.0137330
671.083	0.0137905
671.162	0.0138033
671.240	0.0137663
671.318	0.0137785
671.396	0.0138420
671.474	0.0139291
671.552	0.0139506
671.630	0.0138404
671.708	0.0138751
671.787	0.0138752
671.865	0.0138259
671.943	0.0136835
672.021	0.0134570
672.099	0.0134750
672.177	0.0135530
672.255	0.0134937
672.333	0.0135220
672.412	0.0134631
672.490	0.0135304
672.568	0.0135114
672.646	0.0136467
672.724	0.0137909
672.802	0.0135934
672.880	0.0137132
672.958	0.0138300
673.037	0.0139237
673.115	0.0140707
673.193	0.0141887
673.271	0.0143687
673.349	0.0143830
673.427	0.0144372
673.505	0.0143872
673.583	0.0143298
673.662	0.0143277
673.740	0.0140607
673.818	0.0139373
673.896	0.0136216
673.974	0.0133797
674.052	0.0130360
674.130	0.0127816
674.208	0.0127091
674.287	0.0125813
674.365	0.0125124
674.443	0.0126648
674.521	0.0126660
674.599	0.0129927
674.677	0.0131847
674.755	0.0134319
674.833	0.0137009
674.912	0.0138966
674.990	0.0141245
675.068	0.0143485
675.146	0.0143373
675.224	0.0145085
675.302	0.0144701
675.380	0.0146553
675.458	0.0148800
675.537	0.0147743
675.615	0.0146216
675.693	0.0145135
675.771	0.0144611
675.849	0.0143883
675.927	0.0142066
676.005	0.0139810
676.083	0.0139677
676.162	0.0138431
676.240	0.0137788
676.318	0.0137125
676.396	0.0138113
676.474	0.0136168
676.552	0.0134091
676.630	0.0133036
676.708	0.0131528
676.787	0.0128684
676.865	0.0126392
676.943	0.0123863
677.021	0.0122456
677.099	0.0121240
677.177	0.0118987
677.255	0.0121017
677.333	0.0121832
677.412	0.0123232
677.490	0.0127010
677.568	0.0129552
677.646	0.0132495
677.724	0.0140363
677.802	0.0144389
677.880	0.0147490
677.958	0.0152870
678.037	0.0156236
678.115	0.0159038
678.193	0.0161289
678.271	0.0162311
678.349	0.0160246
678.427	0.0159190
678.505	0.0158743
678.583	0.0155968
678.662	0.0150141
678.740	0.0147600
678.818	0.0145800
678.896	0.0141306
678.974	0.0139304
679.052	0.0137232
679.130	0.0134558
679.208	0.0132064
679.287	0.0128920
679.365	0.0125362
679.443	0.0124690
679.521	0.0122018
679.599	0.0121500
679.677	0.0121127
679.755	0.0116499
679.833	0.0116625
679.912	0.0118282
679.990	0.0116651
680.068	0.0117456
680.146	0.0117466
680.224	0.0117513
680.302	0.0118427
680.380	0.0118732
680.458	0.0121516
680.537	0.0124132
680.615	0.0125591
680.693	0.0130267
680.771	0.0132893
680.849	0.0138631
680.927	0.0144299
681.005	0.0149095
681.083	0.0155762
681.162	0.0161649
681.240	0.0167103
681.318	0.0170100
681.396	0.0175062
681.474	0.0176286
681.552	0.0179128
681.630	0.0176188
681.708	0.0175108
681.787	0.0174812
681.865	0.0170129
681.943	0.0166100
682.021	0.0159283
682.099	0.0154086
682.177	0.0146426
682.255	0.0141145
682.333	0.0136575
682.412	0.0129770
682.490	0.0122205
682.568	0.0117157
682.646	0.0111497
682.724	0.0107265
682.802	0.0104097
682.880	0.0102338
682.958	0.00987663
683.037	0.0100095
683.115	0.0102058
683.193	0.0104931
683.271	0.0108397
683.349	0.0112694
683.427	0.0118507
683.505	0.0123115
683.583	0.0127134
683.662	0.0132616
683.740	0.0135329
683.818	0.0138090
683.896	0.0140400
683.974	0.0141555
684.052	0.0139510
684.130	0.0139016
684.208	0.0138163
684.287	0.0135709
684.365	0.0134326
684.443	0.0134850
684.521	0.0135673
684.599	0.0135191
684.677	0.0139299
684.755	0.0141356
684.833	0.0145284
684.912	0.0149460
684.990	0.0153952
685.068	0.0156868
685.146	0.0162939
685.224	0.0166585
685.302	0.0169917
685.380	0.0174211
685.458	0.0176677
685.537	0.0181087
685.615	0.0182829
685.693	0.0182977
685.771	0.0183801
685.849	0.0181654
685.927	0.0178242
686.005	0.0172366
686.083	0.0164324
686.162	0.0156345
686.240	0.0146539
686.318	0.0136400
686.396	0.0123843
686.474	0.0114098
686.552	0.0105020
686.630	0.00939034
686.708	0.00853752
686.787	0.00779259
686.865	0.00742882
686.943	0.00707352
687.021	0.00701874
687.099	0.00733932
687.177	0.00748444
687.255	0.00798141
687.333	0.00874161
687.412	0.00940887
687.490	0.0102206
687.568	0.0110595
687.646	0.0119524
687.724	0.0126257
687.802	0.0134490
687.880	0.0140200
687.958	0.0147270
688.037	0.0152753
688.115	0.0157191
688.193	0.0161547
688.271	0.0166220
688.349	0.0168539
688.427	0.0170727
688.505	0.0173586
688.583	0.0174678
688.662	0.0173313
688.740	0.0169885
688.818	0.0169279
688.896	0.0167416
688.974	0.0163596
689.052	0.0161770
689.130	0.0159892
689.208	0.0157786
689.287	0.0155884
689.365	0.0155579
689.443	0.0154857
689.521	0.0152093
689.599	0.0152560
689.677	0.0151902
689.755	0.0151368
689.833	0.0150584
689.912	0.0151833
689.990	0.0151322
690.068	0.0151789
690.146	0.0150777
690.224	0.0150101
690.302	0.0147507
690.380	0.0144759
690.458	0.0142224
690.537	0.0137257
690.615	0.0133709
690.693	0.0128009
690.771	0.0122753
690.849	0.0117310
690.927	0.0111332
691.005	0.0104413
691.083	0.00983231
691.162	0.00925537
691.240	0.00874100
691.318	0.00826103
691.396	0.00790283
691.474	0.00763794
691.552	0.00764336
691.630	0.00787987
691.708	0.00838493
691.787	0.00903854
691.865	0.00968788
691.943	0.0106857
692.021	0.0117552
692.099	0.0127426
692.177	0.0137512
692.255	0.0145811
692.333	0.0153468
692.412	0.0159615
692.490	0.0163321
692.568	0.0168557
692.646	0.0171265
692.724	0.0170483
692.802	0.0170164
692.880	0.0168050
692.958	0.0165354
693.037	0.0162928
693.115	0.0160819
693.193	0.0159469
693.271	0.0157286
693.349	0.0157727
693.427	0.0157423
693.505	0.0156374
693.583	0.0156082
693.662	0.0158169
693.740	0.0160120
693.818	0.0162371
693.896	0.0164073
693.974	0.0167424
694.052	0.0170703
694.130	0.0173403
694.208	0.0172993
694.287	0.0174307
694.365	0.0173444
694.443	0.0174006
694.521	0.0170754
694.599	0.0166888
694.677	0.0162724
694.755	0.0157619
694.833	0.0151942
694.912	0.0145420
694.990	0.0137687
695.068	0.0129298
695.146	0.0119893
695.224	0.0108080
695.302	0.0100142
695.380	0.00913025
695.458	0.00819939
695.537	0.00745834
695.615	0.00672218
695.693	0.00615013
695.771	0.00582062
695.849	0.00565285
695.927	0.00564262
696.005	0.00567741
696.083	0.00587311
696.162	0.00663849
696.240	0.00722687
696.318	0.00804871
696.396	0.00921326
696.474	0.0102013
696.552	0.0115835
696.630	0.0126178
696.708	0.0139469
696.787	0.0151555
696.865	0.0163935
696.943	0.0172668
697.021	0.0183846
697.099	0.0189670
697.177	0.0195099
697.255	0.0199165
697.333	0.0199166
697.412	0.0198666
697.490	0.0197579
697.568	0.0192067
697.646	0.0186515
697.724	0.0182989
697.802	0.0176957
697.880	0.0172017
697.958	0.0170250
698.037	0.0168304
698.115	0.0165285
698.193	0.0164732
698.271	0.0165208
698.349	0.0165748
698.427	0.0167618
698.505	0.0168188
698.583	0.0168703
698.662	0.0169183
698.740	0.0169624
698.818	0.0167481
698.896	0.0165413
698.974	0.0161450
699.052	0.0157316
699.130	0.0150455
699.208	0.0141388
699.287	0.0134215
699.365	0.0125820
699.443	0.0118378
699.521	0.0111109
699.599	0.0102534
699.677	0.00945221
699.755	0.00890831
699.833	0.00799477
699.912	0.00745346
699.990	0.00694885
700.068	0.00647034
700.146	0.00607254
700.224	0.00593918
700.302	0.00613197
700.380	0.00644600
700.458	0.00673058
700.537	0.00762062
700.615	0.00844887
700.693	0.00943413
700.771	0.0106708
700.849	0.0118623
700.927	0.0129762
701.005	0.0140408
701.083	0.0148924
701.162	0.0157905
701.240	0.0165761
701.318	0.0170392
701.396	0.0173415
701.474	0.0175735
701.552	0.0176192
701.630	0.0174878
701.708	0.0171758
701.787	0.0169287
701.865	0.0164721
701.943	0.0163855
702.021	0.0161233
702.099	0.0160192
702.177	0.0159385
702.255	0.0162381
702.333	0.0165813
702.412	0.0168969
702.490	0.0173424
702.568	0.0176784
702.646	0.0179852
702.724	0.0180431
702.802	0.0181609
702.880	0.0181515
702.958	0.0181699
703.037	0.0179655
703.115	0.0174874
703.193	0.0172020
703.271	0.0166991
703.349	0.0161510
703.427	0.0156599
703.505	0.0151294
703.583	0.0145627
703.662	0.0140234
703.740	0.0135137
703.818	0.0129334
703.896	0.0125438
703.974	0.0119695
704.052	0.0115350
704.130	0.0109403
704.208	0.0104776
704.287	0.00985970
704.365	0.00929276
704.443	0.00879135
704.521	0.00845268
704.599	0.00785316
704.677	0.00754150
704.755	0.00751053
704.833	0.00742233
704.912	0.00752144
704.990	0.00771126
705.068	0.00797218
705.146	0.00873329
705.224	0.00930244
705.302	0.00998093
705.380	0.0109441
705.458	0.0119844
705.537	0.0130250
705.615	0.0138239
705.693	0.0147844
705.771	0.0154220
705.849	0.0162928
705.927	0.0168147
706.005	0.0172082
706.083	0.0177152
706.162	0.0178938
706.240	0.0180341
706.318	0.0181303
706.396	0.0180321
706.474	0.0177464
706.552	0.0174142
706.630	0.0171363
706.708	0.0167709
706.787	0.0164060
706.865	0.0158540
706.943	0.0155404
707.021	0.0152850
707.099	0.0150983
707.177	0.0146151
707.255	0.0143809
707.333	0.0142190
707.412	0.0141561
707.490	0.0140758
707.568	0.0139313
707.646	0.0140952
707.724	0.0142707
707.802	0.0143980
707.880	0.0144470
707.958	0.0146223
708.037	0.0148276
708.115	0.0147964
708.193	0.0148294
708.271	0.0147999
708.349	0.0146549
708.427	0.0144330
708.505	0.0140398
708.583	0.0136642
708.662	0.0132633
708.740	0.0126054
708.818	0.0123591
708.896	0.0117907
708.974	0.0113006
709.052	0.0107814
709.130	0.0106535
709.208	0.0102615
709.287	0.0102647
709.365	0.0103751
709.443	0.0105979
709.521	0.0109455
709.599	0.0114745
709.677	0.0119101
709.755	0.0123894
709.833	0.0128620
709.912	0.0132919
709.990	0.0138918
710.068	0.0142529
710.146	0.0146123
710.224	0.0147843
710.302	0.0149863
710.380	0.0149888
710.458	0.0149058
710.537	0.0148372
710.615	0.0145486
710.693	0.0143456
710.771	0.0140497
710.849	0.0137294
710.927	0.0136243
711.005	0.0132607
711.083	0.0131715
711.162	0.0129507
711.240	0.0129306
711.318	0.0129907
711.396	0.0130993
711.474	0.0131617
711.552	0.0133263
711.630	0.0136533
711.708	0.0140157
711.787	0.0143069
711.865	0.0145687
711.943	0.0149903
712.021	0.0152835
712.099	0.0155093
712.177	0.0156709
712.255	0.0159306
712.333	0.0159015
712.412	0.0161543
712.490	0.0159939
712.568	0.0157724
712.646	0.0158974
712.724	0.0155410
712.802	0.0152393
712.880	0.0149895
712.958	0.0147258
713.037	0.0142432
713.115	0.0138576
713.193	0.0134975
713.271	0.0130772
713.349	0.0125851
713.427	0.0121310
713.505	0.0119534
713.583	0.0117635
713.662	0.0115031
713.740	0.0113204
713.818	0.0112811
713.896	0.0116125
713.974	0.0117104
714.052	0.0118099
714.130	0.0121092
714.208	0.0123138
714.287	0.0125951
714.365	0.0129278
714.443	0.0132487
714.521	0.0135501
714.599	0.0138793
714.677	0.0142197
714.755	0.0142760
714.833	0.0145220
714.912	0.0147083
714.990	0.0149024
715.068	0.0148486
715.146	0.0148672
715.224	0.0149220
715.302	0.0148226
715.380	0.0148051
715.458	0.0145145
715.537	0.0142538
715.615	0.0142630
715.693	0.0139877
715.771	0.0137083
715.849	0.0134081
715.927	0.0131739
716.005	0.0129410
716.083	0.0128167
716.162	0.0126140
716.240	0.0128069
716.318	0.0127265
716.396	0.0128626
716.474	0.0128501
716.552	0.0130220
716.630	0.0131967
716.708	0.0135648
716.787	0.0137468
716.865	0.0138087
716.943	0.0141914
717.021	0.0143500
717.099	0.0145461
717.177	0.0146825
717.255	0.0147659
717.333	0.0147069
717.412	0.0146103
717.490	0.0146543
717.568	0.0146426
717.646	0.0145009
717.724	0.0143317
717.802	0.0142834
717.880	0.0143369
717.958	0.0140228
718.037	0.0138139
718.115	0.0139293
718.193	0.0137735
718.271	0.0136513
718.349	0.0137592
718.427	0.0136075
718.505	0.0134621
718.583	0.0134906
718.662	0.0133993
718.740	0.0134425
718.818	0.0134176
718.896	0.0134065
718.974	0.0132877
719.052	0.0132999
719.130	0.0132359
719.208	0.0133482
719.287	0.0133988
719.365	0.0132781
719.443	0.0130301
719.521	0.0129280
719.599	0.0129108
719.677	0.0128214
719.755	0.0128015
719.833	0.0127303
719.912	0.0127231
719.990	0.0129070
720.068	0.0129590
720.146	0.0130061
720.224	0.0130997
720.302	0.0133384
720.380	0.0137136
720.458	0.0138124
720.537	0.0139676
720.615	0.0142817
720.693	0.0142926
720.771	0.0144973
720.849	0.0146439
720.927	0.0148331
721.005	0.0148726
721.083	0.0149989
721.162	0.0151485
721.240	0.0152534
721.318	0.0152814
721.396	0.0152213
721.474	0.0152824
721.552	0.0154491
721.630	0.0154633
721.708	0.0152603
721.787	0.0150965
721.865	0.0150834
721.943	0.0146873
722.021	0.0144706
722.099	0.0140890
722.177	0.0138845
722.255	0.0135529
722.333	0.0132830
722.412	0.0129861
722.490	0.0127991
722.568	0.0126721
722.646	0.0123688
722.724	0.0124017
722.802	0.0122398
722.880	0.0124138
722.958	0.0124010
723.037	0.0123914
723.115	0.0125835
723.193	0.0126855
723.271	0.0128314
723.349	0.0131205
723.427	0.0133160
723.505	0.0135812
723.583	0.0135849
723.662	0.0139323
723.740	0.0141002
723.818	0.0141196
723.896	0.0142444
723.974	0.0142288
724.052	0.0142222
724.130	0.0142077
724.208	0.0140411
724.287	0.0139588
724.365	0.0139471
724.443	0.0137672
724.521	0.0137160
724.599	0.0136208
724.677	0.0135587
724.755	0.0134556
724.833	0.0131918
724.912	0.0133069
724.990	0.0130527
725.068	0.0128833
725.146	0.0130077
725.224	0.0129796
725.302	0.0131870
725.380	0.0131012
725.458	0.0132884
725.537	0.0136558
725.615	0.0136598
725.693	0.0139133
725.771	0.0139983
725.849	0.0142748
725.927	0.0144199
726.005	0.0145281
726.083	0.0147397
726.162	0.0147924
726.240	0.0149133
726.318	0.0149510
726.396	0.0148809
726.474	0.0148065
726.552	0.0150242
726.630	0.0149453
726.708	0.0148473
726.787	0.0146187
726.865	0.0147198
726.943	0.0147188
727.021	0.0145294
727.099	0.0142879
727.177	0.0142956
727.255	0.0143726
727.333	0.0141597
727.412	0.0140797
727.490	0.0140867
727.568	0.0138594
727.646	0.0138791
727.724	0.0138061
727.802	0.0136362
727.880	0.0135032
727.958	0.0133678
728.037	0.0133541
728.115	0.0131292
728.193	0.0129686
728.271	0.0127949
728.349	0.0127000
728.427	0.0127433
728.505	0.0126442
728.583	0.0126808
728.662	0.0125195
728.740	0.0125262
728.818	0.0124768
728.896	0.0123223
728.974	0.0124265
729.052	0.0125774
729.130	0.0126369
729.208	0.0127917
729.287	0.0128516
729.365	0.0129184
729.443	0.0132479
729.521	0.0134425
729.599	0.0136244
729.677	0.0137163
729.755	0.0139294
729.833	0.0143018
729.912	0.0143855
729.990	0.0142864
730.068	0.0143880
730.146	0.0145229
730.224	0.0144517
730.302	0.0143456
730.380	0.0144724
730.458	0.0142549
730.537	0.0142637
730.615	0.0142946
730.693	0.0141309
730.771	0.0140217
730.849	0.0140263
730.927	0.0140450
731.005	0.0139397
731.083	0.0136716
731.162	0.0136668
731.240	0.0136186
731.318	0.0135923
731.396	0.0138443
731.474	0.0136119
731.552	0.0136127
731.630	0.0135409
731.708	0.0135020
731.787	0.0136772
731.865	0.0134927
731.943	0.0136108
732.021	0.0135880
732.099	0.0136527
732.177	0.0139813
732.255	0.0139734
732.333	0.0139912
732.412	0.0142941
732.490	0.0143231
732.568	0.0144433
732.646	0.0144996
732.724	0.0144479
732.802	0.0145353
732.880	0.0145583
732.958	0.0145533
733.037	0.0144421
733.115	0.0143356
733.193	0.0141323
733.271	0.0141438
733.349	0.0140212
733.427	0.0136809
733.505	0.0137375
733.583	0.0136105
733.662	0.0135509
733.740	0.0135059
733.818	0.0133101
733.896	0.0133076
733.974	0.0131847
734.052	0.0130428
734.130	0.0130324
734.208	0.0130525
734.287	0.0130408
734.365	0.0130298
734.443	0.0130255
734.521	0.0130218
734.599	0.0131046
734.677	0.0131786
734.755	0.0131812
734.833	0.0132584
734.912	0.0130958
734.990	0.0133988
735.068	0.0133881
735.146	0.0133643
735.224	0.0134161
735.302	0.0133651
735.380	0.0136056
735.458	0.0135664
735.537	0.0137161
735.615	0.0137817
735.693	0.0138805
735.771	0.0138793
735.849	0.0138794
735.927	0.0139215
736.005	0.0139964
736.083	0.0139317
736.162	0.0139058
736.240	0.0139561
736.318	0.0138816
736.396	0.0138493
736.474	0.0137078
736.552	0.0136212
736.630	0.0136864
736.708	0.0135951
736.787	0.0137078
736.865	0.0135101
736.943	0.0134032
737.021	0.0135052
737.099	0.0137099
737.177	0.0135498
737.255	0.0136225
737.333	0.0136168
737.412	0.0137160
737.490	0.0138461
737.568	0.0139178
737.646	0.0138498
737.724	0.0138515
737.802	0.0139384
737.880	0.0140749
737.958	0.0138882
738.037	0.0139555
738.115	0.0140760
738.193	0.0141345
738.271	0.0142252
738.349	0.0141993
738.427	0.0144009
738.505	0.0143215
738.583	0.0145119
738.662	0.0145226
738.740	0.0145689
738.818	0.0144991
738.896	0.0146103
738.974	0.0146190
739.052	0.0143913
739.130	0.0145372
739.208	0.0142650
739.287	0.0142039
739.365	0.0140324
739.443	0.0139605
739.521	0.0136828
739.599	0.0136221
739.677	0.0135796
739.755	0.0134879
739.833	0.0132803
739.912	0.0131811
739.990	0.0131046
740.068	0.0130885
740.146	0.0131075
740.224	0.0130340
740.302	0.0130121
740.380	0.0131341
740.458	0.0129420
740.537	0.0131489
740.615	0.0132213
740.693	0.0131153
740.771	0.0130304
740.849	0.0131153
740.927	0.0130335
741.005	0.0132734
741.083	0.0132776
741.162	0.0132297
741.240	0.0132341
741.318	0.0131476
741.396	0.0132317
741.474	0.0134121
741.552	0.0135664
741.630	0.0135745
741.708	0.0133853
741.787	0.0134313
741.865	0.0136143
741.943	0.0136231
742.021	0.0137708
742.099	0.0136493
742.177	0.0137766
742.255	0.0138222
742.333	0.0138586
742.412	0.0137774
742.490	0.0138454
742.568	0.0138393
742.646	0.0139958
742.724	0.0140227
742.802	0.0140002
742.880	0.0139313
742.958	0.0140446
743.037	0.0140748
743.115	0.0140128
743.193	0.0140402
743.271	0.0140275
743.349	0.0142689
743.427	0.0141843
743.505	0.0141792
743.583	0.0141589
743.662	0.0141862
743.740	0.0140888
743.818	0.0141589
743.896	0.0142019
743.974	0.0140011
744.052	0.0136343
744.130	0.0136476
744.208	0.0137497
744.287	0.0137917
744.365	0.0135305
744.443	0.0135336
744.521	0.0136759
744.599	0.0134959
744.677	0.0135785
744.755	0.0136082
744.833	0.0136769
744.912	0.0138039
744.990	0.0138634
745.068	0.0137854
745.146	0.0140591
745.224	0.0140472
745.302	0.0140755
745.380	0.0140223
745.458	0.0140349
745.537	0.0139585
745.615	0.0139915
745.693	0.0139104
745.771	0.0138082
745.849	0.0137782
745.927	0.0137032
746.005	0.0136040
746.083	0.0136384
746.162	0.0136439
746.240	0.0134038
746.318	0.0133048
746.396	0.0132886
746.474	0.0131653
746.552	0.0133812
746.630	0.0132498
746.708	0.0130403
746.787	0.0132538
746.865	0.0133315
746.943	0.0131525
747.021	0.0132970
747.099	0.0134352
747.177	0.0135059
747.255	0.0136515
747.333	0.0134965
747.412	0.0134364
747.490	0.0136993
747.568	0.0138068
747.646	0.0137679
747.724	0.0138039
747.802	0.0139009
747.880	0.0139124
747.958	0.0140338
748.037	0.0139742
748.115	0.0141582
748.193	0.0141422
748.271	0.0140788
748.349	0.0141327
748.427	0.0141880
748.505	0.0140271
748.583	0.0141155
748.662	0.0139735
748.740	0.0139527
748.818	0.0138506
748.896	0.0137785
748.974	0.0137637
749.052	0.0135513
749.130	0.0135985
749.208	0.0135700
749.287	0.0135107
749.365	0.0134173
749.443	0.0133495
749.521	0.0133123
749.599	0.0134839
749.677	0.0133785
749.755	0.0133562
749.833	0.0134630
749.912	0.0133710
749.990	0.0135325
750.068	0.0135275
750.146	0.0134579
750.224	0.0135983
750.302	0.0137493
750.380	0.0138316
750.458	0.0139052
750.537	0.0139266
750.615	0.0139632
750.693	0.0140282
750.771	0.0141513
750.849	0.0138763
750.927	0.0140504
751.005	0.0141199
751.083	0.0140837
751.162	0.0139994
751.240	0.0141334
751.318	0.0140955
751.396	0.0140521
751.474	0.0141949
751.552	0.0143781
751.630	0.0141465
751.708	0.0140462
751.787	0.0143667
751.865	0.0142705
751.943	0.0141359
752.021	0.0140701
752.099	0.0140012
752.177	0.0138917
752.255	0.0137492
752.333	0.0136216
752.412	0.0136435
752.490	0.0134677
752.568	0.0136089
752.646	0.0134599
752.724	0.0133516
752.802	0.0131762
752.880	0.0132978
752.958	0.0133827
753.037	0.0133057
753.115	0.0132175
753.193	0.0132639
753.271	0.0133154
753.349	0.0133041
753.427	0.0134021
753.505	0.0133751
753.583	0.0135654
753.662	0.0135295
753.740	0.0135628
753.818	0.0135158
753.896	0.0136518
753.974	0.0136419
754.052	0.0136698
754.130	0.0137426
754.208	0.0138461
754.287	0.0138428
754.365	0.0138131
754.443	0.0137583
754.521	0.0138889
754.599	0.0138835
754.677	0.0137341
754.755	0.0138683
754.833	0.0138380
754.912	0.0139323
754.990	0.0139174
755.068	0.0138023
755.146	0.0138988
755.224	0.0138351
755.302	0.0137408
755.380	0.0137985
755.458	0.0137541
755.537	0.0136211
755.615	0.0137267
755.693	0.0136076
755.771	0.0134443
755.849	0.0135467
755.927	0.0135193
756.005	0.0137512
756.083	0.0135825
756.162	0.0136592
756.240	0.0137219
756.318	0.0135391
756.396	0.0135814
756.474	0.0136803
756.552	0.0134766
756.630	0.0136671
756.708	0.0138076
756.787	0.0137716
756.865	0.0137542
756.943	0.0136641
757.021	0.0137594
757.099	0.0139214
757.177	0.0138503
757.255	0.0139366
757.333	0.0138777
757.412	0.0140252
757.490	0.0140917
757.568	0.0139471
757.646	0.0140675
757.724	0.0140847
757.802	0.0140658
757.880	0.0140399
757.958	0.0138762
758.037	0.0140343
758.115	0.0139211
758.193	0.0139846
758.271	0.0139398
758.349	0.0139706
758.427	0.0138057
758.505	0.0138471
758.583	0.0137161
758.662	0.0139857
758.740	0.0139606
758.818	0.0138009
758.896	0.0138467
758.974	0.0138689
759.052	0.0137175
759.130	0.0136310
759.208	0.0137241
759.287	0.0136881
759.365	0.0136727
759.443	0.0136181
759.521	0.0134805
759.599	0.0135950
759.677	0.0135344
759.755	0.0133955
759.833	0.0133469
759.912	0.0132218
759.990	0.0132774
760.068	0.0131234
760.146	0.0133205
760.224	0.0133516
760.302	0.0132211
760.380	0.0131944
760.458	0.0132606
760.537	0.0133965
760.615	0.0135439
760.693	0.0136044
760.771	0.0136482
760.849	0.0137539
760.927	0.0137997
761.005	0.0138221
761.083	0.0139005
761.162	0.0140336
761.240	0.0138982
761.318	0.0141092
761.396	0.0141502
761.474	0.0141205
761.552	0.0139465
761.630	0.0140047
761.708	0.0139386
761.787	0.0138644
761.865	0.0139814
761.943	0.0139362
762.021	0.0137980
762.099	0.0138175
762.177	0.0138332
762.255	0.0137516
762.333	0.0136707
762.412	0.0136773
762.490	0.0137295
762.568	0.0138508
762.646	0.0137646
762.724	0.0137141
762.802	0.0137579
762.880	0.0136642
762.958	0.0136920
763.037	0.0137662
763.115	0.0137757
763.193	0.0137779
763.271	0.0137468
763.349	0.0137417
763.427	0.0137761
763.505	0.0137515
763.583	0.0135987
763.662	0.0135822
763.740	0.0136638
763.818	0.0136512
763.896	0.0137598
763.974	0.0135884
764.052	0.0136175
764.130	0.0135765
764.208	0.0136512
764.287	0.0136233
764.365	0.0136309
764.443	0.0136103
764.521	0.0135821
764.599	0.0136075
764.677	0.0135845
764.755	0.0136370
764.833	0.0137308
764.912	0.0137891
764.990	0.0138586
765.068	0.0138280
765.146	0.0139346
765.224	0.0138475
765.302	0.0139117
765.380	0.0138941
765.458	0.0139750
765.537	0.0138452
765.615	0.0138206
765.693	0.0138284
765.771	0.0139691
765.849	0.0136662
765.927	0.0135857
766.005	0.0134368
766.083	0.0134602
766.162	0.0136757
766.240	0.0136668
766.318	0.0134648
766.396	0.0134532
766.474	0.0136723
766.552	0.0135315
766.630	0.0135663
766.708	0.0134146
766.787	0.0134851
766.865	0.0134533
766.943	0.0134850
767.021	0.0135058
767.099	0.0134086
767.177	0.0134568
767.255	0.0133814
767.333	0.0134635
767.412	0.0133419
767.490	0.0134450
767.568	0.0135116
767.646	0.0135049
767.724	0.0134624
767.802	0.0135182
767.880	0.0134751
767.958	0.0136573
768.037	0.0134766
768.115	0.0135603
768.193	0.0136069
768.271	0.0136810
768.349	0.0136354
768.427	0.0137514
768.505	0.0138252
768.583	0.0137478
768.662	0.0137292
768.740	0.0138825
768.818	0.0139162
768.896	0.0138344
768.974	0.0137817
769.052	0.0138961
769.130	0.0138976
769.208	0.0137276
769.287	0.0139690
769.365	0.0138299
769.443	0.0139355
769.521	0.0139143
769.599	0.0137783
769.677	0.0136729
769.755	0.0137648
769.833	0.0138268
769.912	0.0137547
769.990	0.0137516
770.068	0.0135758
770.146	0.0135849
770.224	0.0137122
770.302	0.0137669
770.380	0.0136961
770.458	0.0134966
770.537	0.0136758
770.615	0.0138544
770.693	0.0137613
770.771	0.0138274
770.849	0.0137360
770.927	0.0138023
771.005	0.0138970
771.083	0.0138046
771.162	0.0139625
771.240	0.0138683
771.318	0.0138229
771.396	0.0139145
771.474	0.0139989
771.552	0.0138174
771.630	0.0137483
771.708	0.0136899
771.787	0.0137664
771.865	0.0137236
771.943	0.0136850
772.021	0.0135551
772.099	0.0135072
772.177	0.0134650
772.255	0.0135446
772.333	0.0135564
772.412	0.0135115
772.490	0.0135928
772.568	0.0135488
772.646	0.0134849
772.724	0.0134557
772.802	0.0136610
772.880	0.0136838
772.958	0.0137156
773.037	0.0137550
773.115	0.0138138
773.193	0.0137695
773.271	0.0137078
773.349	0.0138893
773.427	0.0139376
773.505	0.0139145
773.583	0.0138799
773.662	0.0139092
773.740	0.0138513
773.818	0.0139119
773.896	0.0139107
773.974	0.0138200
774.052	0.0138136
774.130	0.0139185
774.208	0.0138328
774.287	0.0138890
774.365	0.0137309
774.443	0.0137016
774.521	0.0137240
774.599	0.0137216
774.677	0.0136844
774.755	0.0137357
774.833	0.0137122
774.912	0.0138523
774.990	0.0136855
775.068	0.0137556
775.146	0.0138881
775.224	0.0137503
775.302	0.0137277
775.380	0.0138004
775.458	0.0137482
775.537	0.0137794
775.615	0.0137134
775.693	0.0138953
775.771	0.0138383
775.849	0.0136736
775.927	0.0136484
776.005	0.0136358
776.083	0.0136175
776.162	0.0136283
776.240	0.0135951
776.318	0.0135835
776.396	0.0136472
776.474	0.0135772
776.552	0.0134936
776.630	0.0135342
776.708	0.0136464
776.787	0.0134467
776.865	0.0135004
776.943	0.0136193
777.021	0.0134857
777.099	0.0134469
777.177	0.0135361
777.255	0.0135841
777.333	0.0136204
777.412	0.0136320
777.490	0.0138508
777.568	0.0138644
777.646	0.0138274
777.724	0.0140032
777.802	0.0139843
777.880	0.0140973
777.958	0.0142567
778.037	0.0143053
778.115	0.0141826
778.193	0.0142389
778.271	0.0141929
778.349	0.0141353
778.427	0.0141857
778.505	0.0142117
778.583	0.0140528
778.662	0.0140982
778.740	0.0140986
778.818	0.0139324
778.896	0.0139108
778.974	0.0138332
779.052	0.0138287
779.130	0.0139341
779.208	0.0138452
779.287	0.0137144
779.365	0.0137296
779.443	0.0134978
779.521	0.0135120
779.599	0.0135027
779.677	0.0135214
779.755	0.0133562
779.833	0.0133039
779.912	0.0133064
779.990	0.0133812
780.068	0.0132938
780.146	0.0134235
780.224	0.0132777
780.302	0.0132523
780.380	0.0134502
780.458	0.0133574
780.537	0.0134285
780.615	0.0133895
780.693	0.0133362
780.771	0.0133712
780.849	0.0133843
780.927	0.0133665
781.005	0.0134072
781.083	0.0135806
781.162	0.0134180
781.240	0.0137846
781.318	0.0138659
781.396	0.0136721
781.474	0.0139222
781.552	0.0137734
781.630	0.0139561
781.708	0.0140379
781.787	0.0140725
781.865	0.0142490
781.943	0.0143539
782.021	0.0143605
782.099	0.0143879
782.177	0.0143963
782.255	0.0143632
782.333	0.0142504
782.412	0.0142681
782.490	0.0143504
782.568	0.0142803
782.646	0.0141372
782.724	0.0140691
782.802	0.0141541
782.880	0.0139639
782.958	0.0136971
783.037	0.0135429
783.115	0.0137134
783.193	0.0135567
783.271	0.0133409
783.349	0.0132836
783.427	0.0133321
783.505	0.0132086
783.583	0.0132079
783.662	0.0132159
783.740	0.0132572
783.818	0.0132540
783.896	0.0130385
783.974	0.0133249
784.052	0.0133401
784.130	0.0132406
784.208	0.0132162
784.287	0.0133222
784.365	0.0133404
784.443	0.0134283
784.521	0.0135326
784.599	0.0136356
784.677	0.0136410
784.755	0.0136529
784.833	0.0138881
784.912	0.0137746
784.990	0.0137656
785.068	0.0136066
785.146	0.0139489
785.224	0.0139802
785.302	0.0139697
785.380	0.0138634
785.458	0.0138983
785.537	0.0139752
785.615	0.0140467
785.693	0.0140832
785.771	0.0141200
785.849	0.0140000
785.927	0.0141675
786.005	0.0142361
786.083	0.0143666
786.162	0.0144798
786.240	0.0145541
786.318	0.0143308
786.396	0.0142250
786.474	0.0143624
786.552	0.0142767
786.630	0.0142374
786.708	0.0142455
786.787	0.0141367
786.865	0.0140744
786.943	0.0139453
787.021	0.0138586
787.099	0.0137888
787.177	0.0137236
787.255	0.0136252
787.333	0.0135959
787.412	0.0136529
787.490	0.0135059
787.568	0.0134578
787.646	0.0134115
787.724	0.0133836
787.802	0.0133453
787.880	0.0134393
787.958	0.0133320
788.037	0.0134243
788.115	0.0134202
788.193	0.0135379
788.271	0.0135683
788.349	0.0135242
788.427	0.0135542
788.505	0.0135546
788.583	0.0136182
788.662	0.0135461
788.740	0.0135345
788.818	0.0135673
788.896	0.0136479
788.974	0.0136279
789.052	0.0137129
789.130	0.0137186
789.208	0.0137230
789.287	0.0136025
789.365	0.0137023
789.443	0.0137856
789.521	0.0138087
789.599	0.0138227
789.677	0.0139159
789.755	0.0139880
789.833	0.0139284
789.912	0.0140025
789.990	0.0140299
790.068	0.0141217
790.146	0.0140585
790.224	0.0140585
790.302	0.0142523
790.380	0.0141722
790.458	0.0141083
790.537	0.0141270
790.615	0.0141528
790.693	0.0142233
790.771	0.0142386
790.849	0.0142989
790.927	0.0141790
791.005	0.0141758
791.083	0.0141445
791.162	0.0142010
791.240	0.0141179
791.318	0.0140672
791.396	0.0139307
791.474	0.0140313
791.552	0.0139320
791.630	0.0138502
791.708	0.0138190
791.787	0.0138060
791.865	0.0137070
791.943	0.0136446
792.021	0.0136175
792.099	0.0135867
792.177	0.0133775
792.255	0.0134132
792.333	0.0132466
792.412	0.0131883
792.490	0.0132411
792.568	0.0132064
792.646	0.0130392
792.724	0.0130193
792.802	0.0130492
792.880	0.0130415
792.958	0.0133597
793.037	0.0133313
793.115	0.0131656
793.193	0.0134743
793.271	0.0134443
793.349	0.0134938
793.427	0.0136098
793.505	0.0137247
793.583	0.0137787
793.662	0.0137669
793.740	0.0139435
793.818	0.0138698
793.896	0.0139743
793.974	0.0141168
794.052	0.0141617
794.130	0.0142503
794.208	0.0143480
794.287	0.0141780
794.365	0.0143852
794.443	0.0143601
794.521	0.0142515
794.599	0.0142981
794.677	0.0143559
794.755	0.0143484
794.833	0.0142960
794.912	0.0143137
794.990	0.0142321
795.068	0.0141330
795.146	0.0142190
795.224	0.0143632
795.302	0.0141977
795.380	0.0140663
795.458	0.0141685
795.537	0.0140375
795.615	0.0138501
795.693	0.0138879
795.771	0.0139878
795.849	0.0138320
795.927	0.0137736
796.005	0.0137151
796.083	0.0136389
796.162	0.0135880
796.240	0.0135497
796.318	0.0135074
796.396	0.0134791
796.474	0.0134811
796.552	0.0135488
796.630	0.0135030
796.708	0.0134162
796.787	0.0133006
796.865	0.0134401
796.943	0.0133714
797.021	0.0134351
797.099	0.0134252
797.177	0.0134164
797.255	0.0134322
797.333	0.0133355
797.412	0.0134435
797.490	0.0134926
797.568	0.0135352
797.646	0.0135904
797.724	0.0136496
797.802	0.0134673
797.880	0.0135538
797.958	0.0134918
798.037	0.0135168
798.115	0.0135567
798.193	0.0135635
798.271	0.0135909
798.349	0.0138547
798.427	0.0137910
798.505	0.0139620
798.583	0.0139932
798.662	0.0139230
798.740	0.0140731
798.818	0.0140141
798.896	0.0141291
798.974	0.0141584
799.052	0.0142191
799.130	0.0141536
799.208	0.0142204
799.287	0.0142530
799.365	0.0142362
799.443	0.0143455
799.521	0.0142814
799.599	0.0142270
799.677	0.0143307
799.755	0.0142484
799.833	0.0143798
799.912	0.0143618
799.990	0.0144421
800.068	0.0142258
800.146	0.0141747
800.224	0.0142432
800.302	0.0143923
800.380	0.0141924
800.458	0.0139507
800.537	0.0140382
800.615	0.0138828
800.693	0.0137438
800.771	0.0135823
800.849	0.0134281
800.927	0.0133555
801.005	0.0132204
801.083	0.0132542
801.162	0.0130322
801.240	0.0129398
801.318	0.0129960
801.396	0.0131016
801.474	0.0130190
801.552	0.0129408
801.630	0.0130829
801.708	0.0131353
801.787	0.0131384
801.865	0.0133543
801.943	0.0135877
802.021	0.0134822
802.099	0.0135280
802.177	0.0138060
802.255	0.0138432
802.333	0.0138493
802.412	0.0139490
802.490	0.0140019
802.568	0.0140845
802.646	0.0140832
802.724	0.0141601
802.802	0.0141071
802.880	0.0142892
802.958	0.0141933
803.037	0.0142382
803.115	0.0142196
803.193	0.0140968
803.271	0.0140419
803.349	0.0139200
803.427	0.0140124
803.505	0.0140272
803.583	0.0139296
803.662	0.0138231
803.740	0.0139130
803.818	0.0138322
803.896	0.0137709
803.974	0.0137640
804.052	0.0139399
804.130	0.0137239
804.208	0.0138220
804.287	0.0140536
804.365	0.0139330
804.443	0.0137985
804.521	0.0139773
804.599	0.0139363
804.677	0.0138757
804.755	0.0139238
804.833	0.0137070
804.912	0.0140224
804.990	0.0139108
805.068	0.0137730
805.146	0.0138468
805.224	0.0137486
805.302	0.0137011
805.380	0.0135719
805.458	0.0136510
805.537	0.0135470
805.615	0.0135260
805.693	0.0136143
805.771	0.0136601
805.849	0.0136166
805.927	0.0137038
806.005	0.0135445
806.083	0.0136514
806.162	0.0138071
806.240	0.0135590
806.318	0.0135658
806.396	0.0136224
806.474	0.0137112
806.552	0.0137006
806.630	0.0136620
806.708	0.0137132
806.787	0.0138114
806.865	0.0137576
806.943	0.0135899
807.021	0.0136177
807.099	0.0138456
807.177	0.0138139
807.255	0.0138454
807.333	0.0138063
807.412	0.0136574
807.490	0.0137612
807.568	0.0137476
807.646	0.0138583
807.724	0.0139196
807.802	0.0137187
807.880	0.0138898
807.958	0.0139001
808.037	0.0139899
808.115	0.0139084
808.193	0.0137807
808.271	0.0139950
808.349	0.0140026
808.427	0.0139854
808.505	0.0139693
808.583	0.0138751
808.662	0.0138224
808.740	0.0137849
808.818	0.0139408
808.896	0.0140230
808.974	0.0138693
809.052	0.0138939
809.130	0.0137311
809.208	0.0137631
809.287	0.0137197
809.365	0.0137912
809.443	0.0136358
809.521	0.0136288
809.599	0.0136951
809.677	0.0137209
809.755	0.0135880
809.833	0.0134990
809.912	0.0136121
809.990	0.0136185
810.068	0.0138028
810.146	0.0137858
810.224	0.0135915
810.302	0.0137449
810.380	0.0137021
810.458	0.0137290
810.537	0.0137513
810.615	0.0138832
810.693	0.0140746
810.771	0.0140020
810.849	0.0138953
810.927	0.0138867
811.005	0.0139555
811.083	0.0139070
811.162	0.0140092
811.240	0.0140717
811.318	0.0139650
811.396	0.0139043
811.474	0.0138967
811.552	0.0138927
811.630	0.0138468
811.708	0.0138062
811.787	0.0136831
811.865	0.0137958
811.943	0.0137764
812.021	0.0136661
812.099	0.0137129
812.177	0.0137815
812.255	0.0137492
812.333	0.0137467
812.412	0.0135452
812.490	0.0136839
812.568	0.0134984
812.646	0.0135844
812.724	0.0136961
812.802	0.0136609
812.880	0.0136893
812.958	0.0137865
813.037	0.0137440
813.115	0.0137064
813.193	0.0138148
813.271	0.0138581
813.349	0.0137695
813.427	0.0138422
813.505	0.0137350
813.583	0.0137179
813.662	0.0137499
813.740	0.0138425
813.818	0.0137492
813.896	0.0139194
813.974	0.0137862
814.052	0.0136391
814.130	0.0137701
814.208	0.0137371
814.287	0.0138978
814.365	0.0137086
814.443	0.0135397
814.521	0.0136905
814.599	0.0137080
814.677	0.0138558
814.755	0.0138852
814.833	0.0138175
814.912	0.0138290
814.990	0.0139163
815.068	0.0139936
815.146	0.0138987
815.224	0.0139286
815.302	0.0141822
815.380	0.0141069
815.458	0.0139870
815.537	0.0139703
815.615	0.0141363
815.693	0.0141988
815.771	0.0140638
815.849	0.0139966
815.927	0.0139827
816.005	0.0139458
816.083	0.0139796
816.162	0.0137334
816.240	0.0138537
816.318	0.0139449
816.396	0.0136815
816.474	0.0135130
816.552	0.0136057
816.630	0.0137289
816.708	0.0138079
816.787	0.0136038
816.865	0.0136430
816.943	0.0135165
817.021	0.0136819
817.099	0.0136699
817.177	0.0136967
817.255	0.0135914
817.333	0.0136232
817.412	0.0137486
817.490	0.0136626
817.568	0.0137859
817.646	0.0138652
817.724	0.0137524
817.802	0.0137010
817.880	0.0138356
817.958	0.0138987
818.037	0.0138456
818.115	0.0140063
818.193	0.0137542
818.271	0.0138322
818.349	0.0138817
818.427	0.0137646
818.505	0.0136848
818.583	0.0136256
818.662	0.0138283
818.740	0.0136945
818.818	0.0135605
818.896	0.0137040
818.974	0.0136777
819.052	0.0136261
819.130	0.0138082
819.208	0.0138008
819.287	0.0137732
819.365	0.0139340
819.443	0.0137518
819.521	0.0139407
819.599	0.0139073
819.677	0.0141164
819.755	0.0141488
819.833	0.0140556
819.912	0.0141249
819.990	0.0141151
820.068	0.0139374
820.146	0.0140224
820.224	0.0140308
820.302	0.0139608
820.380	0.0139667
820.458	0.0139385
820.537	0.0138644
820.615	0.0137518
820.693	0.0137826
820.771	0.0137748
820.849	0.0137724
820.927	0.0137096
821.005	0.0136826
821.083	0.0137233
821.162	0.0136491
821.240	0.0136620
821.318	0.0136784
821.396	0.0135200
821.474	0.0136470
821.552	0.0136222
821.630	0.0137376
821.708	0.0135506
821.787	0.0137235
821.865	0.0136443
821.943	0.0135914
822.021	0.0134365
822.099	0.0136238
822.177	0.0137015
822.255	0.0135841
822.333	0.0135079
822.412	0.0133032
822.490	0.0134244
822.568	0.0135895
822.646	0.0135104
822.724	0.0135223
822.802	0.0135206
822.880	0.0136201
822.958	0.0135825
823.037	0.0136281
823.115	0.0136122
823.193	0.0136445
823.271	0.0137971
823.349	0.0139239
823.427	0.0137926
823.505	0.0139162
823.583	0.0141799
823.662	0.0141532
823.740	0.0141074
823.818	0.0141895
823.896	0.0141831
823.974	0.0141448
824.052	0.0141197
824.130	0.0140569
824.208	0.0141904
824.287	0.0142148
824.365	0.0139642
824.443	0.0139456
824.521	0.0141331
824.599	0.0140043
824.677	0.0138377
824.755	0.0138310
824.833	0.0138755
824.912	0.0138315
824.990	0.0136475
825.068	0.0138144
825.146	0.0137517
825.224	0.0135359
825.302	0.0136413
825.380	0.0136987
825.458	0.0135935
825.537	0.0136470
825.615	0.0136743
825.693	0.0136662
825.771	0.0135667
825.849	0.0135667
825.927	0.0136881
826.005	0.0135447
826.083	0.0136172
826.162	0.0137022
826.240	0.0137203
826.318	0.0135749
826.396	0.0138580
826.474	0.0137331
826.552	0.0137576
826.630	0.0138258
826.708	0.0139891
826.787	0.0139034
826.865	0.0138354
826.943	0.0138980
827.021	0.0139594
827.099	0.0138270
827.177	0.0139938
827.255	0.0139893
827.333	0.0139590
827.412	0.0139802
827.490	0.0138869
827.568	0.0138499
827.646	0.0139632
827.724	0.0138919
827.802	0.0139295
827.880	0.0138569
827.958	0.0138141
828.037	0.0136787
828.115	0.0136878
828.193	0.0138126
828.271	0.0137927
828.349	0.0136456
828.427	0.0137276
828.505	0.0136938
828.583	0.0137386
828.662	0.0137268
828.740	0.0138928
828.818	0.0137920
828.896	0.0137167
828.974	0.0136435
829.052	0.0137428
829.130	0.0137992
829.208	0.0137032
829.287	0.0137889
829.365	0.0136780
829.443	0.0137177
829.521	0.0137302
829.599	0.0138198
829.677	0.0137993
829.755	0.0139807
829.833	0.0137583
829.912	0.0138793
829.990	0.0139481
830.068	0.0138326
830.146	0.0137004
830.224	0.0137917
830.302	0.0138026
830.380	0.0137732
830.458	0.0138454
830.537	0.0138072
830.615	0.0136734
830.693	0.0138152
830.771	0.0137646
830.849	0.0138414
830.927	0.0139001
831.005	0.0138148
831.083	0.0139452
831.162	0.0138797
831.240	0.0136956
831.318	0.0138750
831.396	0.0139521
831.474	0.0138635
831.552	0.0137469
831.630	0.0136823
831.708	0.0138334
831.787	0.0138113
831.865	0.0137214
831.943	0.0136973
832.021	0.0136019
832.099	0.0136089
832.177	0.0134933
832.255	0.0135283
832.333	0.0135860
832.412	0.0135885
832.490	0.0135086
832.568	0.0136149
832.646	0.0135279
832.724	0.0136442
832.802	0.0134783
832.880	0.0134267
832.958	0.0133015
833.037	0.0135465
833.115	0.0134444
833.193	0.0134956
833.271	0.0135796
833.349	0.0135094
833.427	0.0134752
833.505	0.0133447
833.583	0.0134030
833.662	0.0135335
833.740	0.0135807
833.818	0.0136880
833.896	0.0135458
833.974	0.0135435
834.052	0.0137213
834.130	0.0137438
834.208	0.0137209
834.287	0.0138410
834.365	0.0137700
834.443	0.0137403
834.521	0.0138738
834.599	0.0138157
834.677	0.0139404
834.755	0.0138247
834.833	0.0137614
834.912	0.0139058
834.990	0.0139671
835.068	0.0138308
835.146	0.0140592
835.224	0.0140397
835.302	0.0141183
835.380	0.0140138
835.458	0.0139078
835.537	0.0139752
835.615	0.0139949
835.693	0.0139098
835.771	0.0140304
835.849	0.0140998
835.927	0.0139488
836.005	0.0137819
836.083	0.0138413
836.162	0.0139417
836.240	0.0139803
836.318	0.0139708
836.396	0.0139306
836.474	0.0138254
836.552	0.0138016
836.630	0.0137005
836.708	0.0137708
836.787	0.0135722
836.865	0.0136333
836.943	0.0137000
837.021	0.0135370
837.099	0.0135661
837.177	0.0136003
837.255	0.0134378
837.333	0.0134163
837.412	0.0134464
837.490	0.0133148
837.568	0.0133633
837.646	0.0133508
837.724	0.0132649
837.802	0.0132279
837.880	0.0133958
837.958	0.0132591
838.037	0.0132877
838.115	0.0134156
838.193	0.0134249
838.271	0.0134878
838.349	0.0134434
838.427	0.0133824
838.505	0.0135015
838.583	0.0134932
838.662	0.0135489
838.740	0.0136009
838.818	0.0136575
838.896	0.0137148
838.974	0.0136121
839.052	0.0138270
839.130	0.0138538
839.208	0.0138577
839.287	0.0138757
839.365	0.0139019
839.443	0.0139016
839.521	0.0139518
839.599	0.0140369
839.677	0.0139583
839.755	0.0140443
839.833	0.0139487
839.912	0.0140463
839.990	0.0140882
840.068	0.0139384
840.146	0.0139012
840.224	0.0138875
840.302	0.0138078
840.380	0.0139176
840.458	0.0138690
840.537	0.0139025
840.615	0.0138056
840.693	0.0138231
840.771	0.0139326
840.849	0.0139100
840.927	0.0138835
841.005	0.0137823
841.083	0.0138343
841.162	0.0139409
841.240	0.0138443
841.318	0.0137705
841.396	0.0137554
841.474	0.0139119
841.552	0.0138555
841.630	0.0136962
841.708	0.0137440
841.787	0.0137119
841.865	0.0137641
841.943	0.0138541
842.021	0.0136854
842.099	0.0137630
842.177	0.0138563
842.255	0.0135665
842.333	0.0137595
842.412	0.0136428
842.490	0.0137354
842.568	0.0137158
842.646	0.0136758
842.724	0.0136797
842.802	0.0137293
842.880	0.0137858
842.958	0.0136696
843.037	0.0136778
843.115	0.0136084
843.193	0.0137432
843.271	0.0137102
843.349	0.0137372
843.427	0.0135095
843.505	0.0137157
843.583	0.0137286
843.662	0.0137386
843.740	0.0136143
843.818	0.0136455
843.896	0.0136129
843.974	0.0136068
844.052	0.0136105
844.130	0.0136193
844.208	0.0135846
844.287	0.0136814
844.365	0.0137106
844.443	0.0137457
844.521	0.0136613
844.599	0.0136760
844.677	0.0137338
844.755	0.0137498
844.833	0.0136741
844.912	0.0137309
844.990	0.0137948
845.068	0.0138535
845.146	0.0136946
845.224	0.0138702
845.302	0.0139184
845.380	0.0140073
845.458	0.0140132
845.537	0.0139509
845.615	0.0139655
845.693	0.0139357
845.771	0.0138805
845.849	0.0139458
845.927	0.0139381
846.005	0.0140543
846.083	0.0140472
846.162	0.0137675
846.240	0.0139030
846.318	0.0137768
846.396	0.0137693
846.474	0.0138290
846.552	0.0139014
846.630	0.0136939
846.708	0.0138227
846.787	0.0137748
846.865	0.0137782
846.943	0.0135842
847.021	0.0135590
847.099	0.0137458
847.177	0.0135983
847.255	0.0136717
847.333	0.0137531
847.412	0.0134448
847.490	0.0136734
847.568	0.0138760
847.646	0.0135582
847.724	0.0136433
847.802	0.0137168
847.880	0.0137375
847.958	0.0137278
848.037	0.0138367
848.115	0.0138396
848.193	0.0137536
848.271	0.0137292
848.349	0.0137611
848.427	0.0137630
848.505	0.0138158
848.583	0.0137712
848.662	0.0136521
848.740	0.0137533
848.818	0.0137003
848.896	0.0138737
848.974	0.0138709
849.052	0.0137371
849.130	0.0137605
849.208	0.0137376
849.287	0.0136965
849.365	0.0137313
849.443	0.0137276
849.521	0.0137273
849.599	0.0137664
849.677	0.0137666
849.755	0.0136856
849.833	0.0137257
849.912	0.0137395
849.990	0.0136219
850.068	0.0135016
850.146	0.0135829
850.224	0.0138062
850.302	0.0136856
850.380	0.0136922
850.458	0.0136332
850.537	0.0136707
850.615	0.0137690
850.693	0.0136720
850.771	0.0137567
850.849	0.0137790
850.927	0.0137729
851.005	0.0137012
851.083	0.0139405
851.162	0.0138770
851.240	0.0138763
851.318	0.0137584
851.396	0.0139935
851.474	0.0140014
851.552	0.0139058
851.630	0.0139368
851.708	0.0139901
851.787	0.0138663
851.865	0.0139008
851.943	0.0139766
852.021	0.0139727
852.099	0.0138631
852.177	0.0138191
852.255	0.0138656
852.333	0.0138585
852.412	0.0137569
852.490	0.0137809
852.568	0.0137330
852.646	0.0135884
852.724	0.0135641
852.802	0.0134737
852.880	0.0135033
852.958	0.0136407
853.037	0.0136491
853.115	0.0135394
853.193	0.0137642
853.271	0.0136003
853.349	0.0137598
853.427	0.0136260
853.505	0.0137771
853.583	0.0136437
853.662	0.0139286
853.740	0.0139179
853.818	0.0137875
853.896	0.0139240
853.974	0.0139324
854.052	0.0137881
854.130	0.0137381
854.208	0.0138573
854.287	0.0138182
854.365	0.0136332
854.443	0.0137395
854.521	0.0136910
854.599	0.0138396
854.677	0.0137094
854.755	0.0136380
854.833	0.0137255
854.912	0.0137605
854.990	0.0136797
855.068	0.0138612
855.146	0.0139066
855.224	0.0137992
855.302	0.0138096
855.380	0.0138267
855.458	0.0137566
855.537	0.0138606
855.615	0.0139295
855.693	0.0140616
855.771	0.0139242
855.849	0.0137582
855.927	0.0137749
856.005	0.0140176
856.083	0.0137778
856.162	0.0138294
856.240	0.0138158
856.318	0.0138219
856.396	0.0138228
856.474	0.0136926
856.552	0.0137627
856.630	0.0136658
856.708	0.0136816
856.787	0.0134940
856.865	0.0135737
856.943	0.0136228
857.021	0.0135593
857.099	0.0135561
857.177	0.0135776
857.255	0.0136079
857.333	0.0135305
857.412	0.0136872
857.490	0.0135552
857.568	0.0136492
857.646	0.0135700
857.724	0.0138105
857.802	0.0137492
857.880	0.0136550
857.958	0.0137498
858.037	0.0139940
858.115	0.0138004
858.193	0.0138361
858.271	0.0139466
858.349	0.0140102
858.427	0.0138276
858.505	0.0138770
858.583	0.0139587
858.662	0.0138424
858.740	0.0138797
858.818	0.0138623
858.896	0.0138090
858.974	0.0137084
859.052	0.0137029
859.130	0.0136550
859.208	0.0137576
859.287	0.0136271
859.365	0.0136090
859.443	0.0136514
859.521	0.0135179
859.599	0.0136115
859.677	0.0135509
859.755	0.0135961
859.833	0.0136450
859.912	0.0137753
859.990	0.0136881
860.068	0.0137469
860.146	0.0137995
860.224	0.0139202
860.302	0.0140131
860.380	0.0139159
860.458	0.0138143
860.537	0.0138911
860.615	0.0139603
860.693	0.0139714
860.771	0.0139607
860.849	0.0138824
860.927	0.0138811
861.005	0.0138609
861.083	0.0137607
861.162	0.0138407
861.240	0.0136945
861.318	0.0136099
861.396	0.0135725
861.474	0.0134483
861.552	0.0135090
861.630	0.0136672
861.708	0.0135580
861.787	0.0135168
861.865	0.0134469
861.943	0.0134429
862.021	0.0134710
862.099	0.0135726
862.177	0.0135731
862.255	0.0135867
862.333	0.0137370
862.412	0.0137170
862.490	0.0137539
862.568	0.0137709
862.646	0.0136737
862.724	0.0137027
862.802	0.0137448
862.880	0.0138052
862.958	0.0138512
863.037	0.0138106
863.115	0.0136988
863.193	0.0137301
863.271	0.0138702
863.349	0.0138756
863.427	0.0137848
863.505	0.0138502
863.583	0.0138263
863.662	0.0138847
863.740	0.0137629
863.818	0.0137816
863.896	0.0138364
863.974	0.0138551
864.052	0.0138023
864.130	0.0140099
864.208	0.0138564
864.287	0.0139851
864.365	0.0139403
864.443	0.0138684
864.521	0.0139426
864.599	0.0140078
864.677	0.0141153
864.755	0.0140530
864.833	0.0139547
864.912	0.0139231
864.990	0.0139247
865.068	0.0138644
865.146	0.0139442
865.224	0.0137867
865.302	0.0137344
865.380	0.0139138
865.458	0.0139008
865.537	0.0136812
865.615	0.0136197
865.693	0.0137532
865.771	0.0136246
865.849	0.0135581
865.927	0.0137013
866.005	0.0136452
866.083	0.0133213
866.162	0.0134643
866.240	0.0135874
866.318	0.0135480
866.396	0.0137177
866.474	0.0136477
866.552	0.0135754
866.630	0.0136764
866.708	0.0137424
866.787	0.0137582
866.865	0.0139537
866.943	0.0138077
867.021	0.0137421
867.099	0.0138177
867.177	0.0137546
867.255	0.0138183
867.333	0.0138356
867.412	0.0137961
867.490	0.0137634
867.568	0.0138131
867.646	0.0138500
867.724	0.0138609
867.802	0.0137070
867.880	0.0137911
867.958	0.0137928
868.037	0.0137717
868.115	0.0137305
868.193	0.0138210
868.271	0.0138023
868.349	0.0136921
868.427	0.0136786
868.505	0.0136532
868.583	0.0137922
868.662	0.0137550
868.740	0.0135387
868.818	0.0136193
868.896	0.0138248
868.974	0.0137473
869.052	0.0138964
869.130	0.0139105
869.208	0.0138070
869.287	0.0138143
869.365	0.0139865
869.443	0.0139809
869.521	0.0139106
869.599	0.0139493
869.677	0.0140587
869.755	0.0139992
869.833	0.0139831
869.912	0.0140008
869.990	0.0140193
870.068	0.0138628
870.146	0.0137595
870.224	0.0138165
870.302	0.0136652
870.380	0.0138088
870.458	0.0138830
870.537	0.0137234
870.615	0.0135899
870.693	0.0135582
870.771	0.0136561
870.849	0.0134911
870.927	0.0136738
871.005	0.0135387
871.083	0.0134351
871.162	0.0136025
871.240	0.0136500
871.318	0.0134290
871.396	0.0134888
871.474	0.0136760
871.552	0.0136832
871.630	0.0135957
871.708	0.0136849
871.787	0.0137186
871.865	0.0136447
871.943	0.0138098
872.021	0.0137090
872.099	0.0137793
872.177	0.0137520
872.255	0.0137546
872.333	0.0137591
872.412	0.0137798
872.490	0.0138859
872.568	0.0138539
872.646	0.0138652
872.724	0.0138934
872.802	0.0139946
872.880	0.0139718
872.958	0.0139606
873.037	0.0141349
873.115	0.0142125
873.193	0.0141860
873.271	0.0141990
873.349	0.0140987
873.427	0.0141352
873.505	0.0141151
873.583	0.0140302
873.662	0.0140235
873.740	0.0139678
873.818	0.0139263
873.896	0.0138886
873.974	0.0138101
874.052	0.0137385
874.130	0.0137453
874.208	0.0136823
874.287	0.0136031
874.365	0.0134951
874.443	0.0134739
874.521	0.0135033
874.599	0.0134058
874.677	0.0133510
874.755	0.0132433
874.833	0.0134237
874.912	0.0134350
874.990	0.0132476
875.068	0.0133298
875.146	0.0133591
875.224	0.0134291
875.302	0.0133482
875.380	0.0134616
875.458	0.0135158
875.537	0.0136081
875.615	0.0136807
875.693	0.0138655
875.771	0.0139497
875.849	0.0139584
875.927	0.0138460
876.005	0.0139185
876.083	0.0139650
876.162	0.0141898
876.240	0.0139956
876.318	0.0140594
876.396	0.0142193
876.474	0.0140607
876.552	0.0141530
876.630	0.0140291
876.708	0.0140477
876.787	0.0141344
876.865	0.0140340
876.943	0.0140937
877.021	0.0140253
877.099	0.0140587
877.177	0.0140100
877.255	0.0138902
877.333	0.0139065
877.412	0.0138041
877.490	0.0138830
877.568	0.0138439
877.646	0.0138291
877.724	0.0137973
877.802	0.0137895
877.880	0.0136850
877.958	0.0137306
878.037	0.0137485
878.115	0.0136534
878.193	0.0134619
878.271	0.0134896
878.349	0.0135808
878.427	0.0135803
878.505	0.0133469
878.583	0.0133204
878.662	0.0134808
878.740	0.0133900
878.818	0.0133731
878.896	0.0134135
878.974	0.0133303
879.052	0.0135449
879.130	0.0134986
879.208	0.0135698
879.287	0.0136252
879.365	0.0136371
879.443	0.0139021
879.521	0.0139092
879.599	0.0138428
879.677	0.0139658
879.755	0.0142199
879.833	0.0141201
879.912	0.0140035
879.990	0.0142037
880.068	0.0140441
880.146	0.0140029
880.224	0.0141188
880.302	0.0142075
880.380	0.0140117
880.458	0.0139998
880.537	0.0140537
880.615	0.0139485
880.693	0.0140966
880.771	0.0139048
880.849	0.0138722
880.927	0.0138064
881.005	0.0137974
881.083	0.0138104
881.162	0.0137182
881.240	0.0136012
881.318	0.0136010
881.396	0.0137196
881.474	0.0135366
881.552	0.0135990
881.630	0.0135606
881.708	0.0136689
881.787	0.0136501
881.865	0.0138897
881.943	0.0136018
882.021	0.0136762
882.099	0.0137101
882.177	0.0136697
882.255	0.0137680
882.333	0.0137450
882.412	0.0138381
882.490	0.0139520
882.568	0.0138260
882.646	0.0139074
882.724	0.0136651
882.802	0.0138015
882.880	0.0137276
882.958	0.0134695
883.037	0.0135890
883.115	0.0133722
883.193	0.0133822
883.271	0.0133099
883.349	0.0133622
883.427	0.0134414
883.505	0.0134243
883.583	0.0133797
883.662	0.0133671
883.740	0.0134116
883.818	0.0136736
883.896	0.0135324
883.974	0.0138269
884.052	0.0139133
884.130	0.0138840
884.208	0.0139786
884.287	0.0139700
884.365	0.0139646
884.443	0.0140164
884.521	0.0141946
884.599	0.0140999
884.677	0.0140928
884.755	0.0141502
884.833	0.0140920
884.912	0.0141295
884.990	0.0142525
885.068	0.0140057
885.146	0.0140513
885.224	0.0142478
885.302	0.0140898
885.380	0.0140673
885.458	0.0140951
885.537	0.0141425
885.615	0.0140155
885.693	0.0139281
885.771	0.0141267
885.849	0.0139130
885.927	0.0139687
886.005	0.0139715
886.083	0.0139703
886.162	0.0137798
886.240	0.0138345
886.318	0.0136159
886.396	0.0136221
886.474	0.0137003
886.552	0.0136063
886.630	0.0135006
886.708	0.0135409
886.787	0.0135247
886.865	0.0134286
886.943	0.0133754
887.021	0.0133710
887.099	0.0132753
887.177	0.0131601
887.255	0.0132597
887.333	0.0130810
887.412	0.0131534
887.490	0.0130776
887.568	0.0131329
887.646	0.0132287
887.724	0.0132444
887.802	0.0132384
887.880	0.0133791
887.958	0.0133728
888.037	0.0135603
888.115	0.0135221
888.193	0.0136581
888.271	0.0137506
888.349	0.0140257
888.427	0.0139284
888.505	0.0141431
888.583	0.0142214
888.662	0.0142587
888.740	0.0144045
888.818	0.0143899
888.896	0.0142599
888.974	0.0144370
889.052	0.0145031
889.130	0.0143763
889.208	0.0142250
889.287	0.0142850
889.365	0.0142369
889.443	0.0141398
889.521	0.0139214
889.599	0.0140022
889.677	0.0139231
889.755	0.0138246
889.833	0.0137123
889.912	0.0138216
889.990	0.0139497
890.068	0.0138015
890.146	0.0139633
890.224	0.0139539
890.302	0.0140782
890.380	0.0140540
890.458	0.0138966
890.537	0.0141139
890.615	0.0141386
890.693	0.0141241
890.771	0.0140336
890.849	0.0138689
890.927	0.0139998
891.005	0.0138718
891.083	0.0137471
891.162	0.0136623
891.240	0.0136140
891.318	0.0134269
891.396	0.0133312
891.474	0.0131800
891.552	0.0131122
891.630	0.0131142
891.708	0.0130048
891.787	0.0129168
891.865	0.0128748
891.943	0.0130195
892.021	0.0130855
892.099	0.0130511
892.177	0.0130762
892.255	0.0132600
892.333	0.0134467
892.412	0.0135154
892.490	0.0134798
892.568	0.0136186
892.646	0.0138185
892.724	0.0138641
892.802	0.0140665
892.880	0.0140391
892.958	0.0141959
893.037	0.0141989
893.115	0.0143224
893.193	0.0142968
893.271	0.0141843
893.349	0.0141737
893.427	0.0141277
893.505	0.0141800
893.583	0.0142702
893.662	0.0141832
893.740	0.0139848
893.818	0.0138465
893.896	0.0140454
893.974	0.0139463
894.052	0.0138711
894.130	0.0140059
894.208	0.0139008
894.287	0.0139816
894.365	0.0139613
894.443	0.0140960
894.521	0.0140150
894.599	0.0138586
894.677	0.0138758
894.755	0.0137999
894.833	0.0139112
894.912	0.0136687
894.990	0.0137489
895.068	0.0137620
895.146	0.0136111
895.224	0.0135782
895.302	0.0135160
895.380	0.0135271
895.458	0.0135390
895.537	0.0134753
895.615	0.0135210
895.693	0.0136028
895.771	0.0135512
895.849	0.0133292
895.927	0.0132800
896.005	0.0131886
896.083	0.0133269
896.162	0.0131770
896.240	0.0132967
896.318	0.0132520
896.396	0.0130740
896.474	0.0132182
896.552	0.0132223
896.630	0.0133142
896.708	0.0134698
896.787	0.0134233
896.865	0.0135344
896.943	0.0135583
897.021	0.0136623
897.099	0.0140170
897.177	0.0138942
897.255	0.0141958
897.333	0.0142224
897.412	0.0142791
897.490	0.0142807
897.568	0.0143024
897.646	0.0144254
897.724	0.0144147
897.802	0.0143159
897.880	0.0144363
897.958	0.0144131
898.037	0.0142162
898.115	0.0141955
898.193	0.0141669
898.271	0.0142094
898.349	0.0139409
898.427	0.0139152
898.505	0.0139156
898.583	0.0138268
898.662	0.0137064
898.740	0.0137222
898.818	0.0137128
898.896	0.0135899
898.974	0.0135531
899.052	0.0135990
899.130	0.0135719
899.208	0.0136386
899.287	0.0135706
899.365	0.0134486
899.443	0.0135318
899.521	0.0136166
899.599	0.0136015
899.677	0.0137994
899.755	0.0138441
899.833	0.0137063
899.912	0.0137211
899.990	0.0137001
900.068	0.0136902
900.146	0.0136954
900.224	0.0137785
900.302	0.0135868
900.380	0.0137859
900.458	0.0136889
900.537	0.0135960
900.615	0.0136571
900.693	0.0135759
900.771	0.0134607
900.849	0.0135845
900.927	0.0135356
901.005	0.0134822
901.083	0.0135162
901.162	0.0135693
901.240	0.0137086
901.318	0.0137350
901.396	0.0137402
901.474	0.0137447
901.552	0.0139223
901.630	0.0139491
901.708	0.0139209
901.787	0.0140405
901.865	0.0140907
901.943	0.0139973
902.021	0.0140046
902.099	0.0140038
902.177	0.0139100
902.255	0.0137146
902.333	0.0139677
902.412	0.0138676
902.490	0.0139235
902.568	0.0138947
902.646	0.0138111
902.724	0.0137453
902.802	0.0137036
902.880	0.0137914
902.958	0.0137204
903.037	0.0137370
903.115	0.0138349
903.193	0.0137441
903.271	0.0138161
903.349	0.0138280
903.427	0.0139164
903.505	0.0136913
903.583	0.0138293
903.662	0.0140260
903.740	0.0137601
903.818	0.0137550
903.896	0.0138986
903.974	0.0140026
904.052	0.0137878
904.130	0.0139342
904.208	0.0138106
904.287	0.0139211
904.365	0.0139869
904.443	0.0139896
904.521	0.0138644
904.599	0.0139381
904.677	0.0138342
904.755	0.0139611
904.833	0.0138427
904.912	0.0137914
904.990	0.0137202
905.068	0.0137281
905.146	0.0137816
905.224	0.0137307
905.302	0.0135755
905.380	0.0137679
905.458	0.0137145
905.537	0.0136453
905.615	0.0136498
905.693	0.0137808
905.771	0.0137901
905.849	0.0136465
905.927	0.0138436
906.005	0.0136509
906.083	0.0137048
906.162	0.0137337
906.240	0.0137204
906.318	0.0138045
906.396	0.0138144
906.474	0.0139001
906.552	0.0139122
906.630	0.0137881
906.708	0.0138254
906.787	0.0139533
906.865	0.0140083
906.943	0.0138345
907.021	0.0139004
907.099	0.0139494
907.177	0.0138452
907.255	0.0139483
907.333	0.0139817
907.412	0.0139110
907.490	0.0137853
907.568	0.0137498
907.646	0.0138543
907.724	0.0138041
907.802	0.0138014
907.880	0.0136136
907.958	0.0136430
908.037	0.0135510
908.115	0.0136102
908.193	0.0135612
908.271	0.0135489
908.349	0.0135406
908.427	0.0135761
908.505	0.0136578
908.583	0.0137695
908.662	0.0139301
908.740	0.0139030
908.818	0.0139204
908.896	0.0138995
908.974	0.0139456
909.052	0.0139461
909.130	0.0138781
909.208	0.0140170
909.287	0.0138649
909.365	0.0138448
909.443	0.0139533
909.521	0.0139864
909.599	0.0138518
909.677	0.0138507
909.755	0.0137546
909.833	0.0136416
909.912	0.0138422
909.990	0.0138098
910.068	0.0138865
910.146	0.0137292
910.224	0.0137331
910.302	0.0136697
910.380	0.0136353
910.458	0.0137955
910.537	0.0136390
910.615	0.0136654
910.693	0.0137678
910.771	0.0137131
910.849	0.0138020
910.927	0.0138025
911.005	0.0136211
911.083	0.0138002
911.162	0.0136964
911.240	0.0138942
911.318	0.0135587
911.396	0.0137562
911.474	0.0136385
911.552	0.0136460
911.630	0.0136721
911.708	0.0136750
911.787	0.0137134
911.865	0.0137764
911.943	0.0137755
912.021	0.0136880
912.099	0.0136118
912.177	0.0136700
912.255	0.0136310
912.333	0.0138117
912.412	0.0137737
912.490	0.0137582
912.568	0.0136930
912.646	0.0137704
912.724	0.0137014
912.802	0.0137487
912.880	0.0137913
912.958	0.0137893
913.037	0.0136075
913.115	0.0136311
913.193	0.0136849
913.271	0.0137138
913.349	0.0136562
913.427	0.0138157
913.505	0.0137108
913.583	0.0135452
913.662	0.0136498
913.740	0.0136378
913.818	0.0136189
913.896	0.0136299
913.974	0.0136314
914.052	0.0135579
914.130	0.0137235
914.208	0.0136293
914.287	0.0135549
914.365	0.0136180
914.443	0.0136808
914.521	0.0137541
914.599	0.0137779
914.677	0.0137210
914.755	0.0138045
914.833	0.0138891
914.912	0.0136056
914.990	0.0136752
915.068	0.0138405
915.146	0.0137531
915.224	0.0136516
915.302	0.0136939
915.380	0.0138503
915.458	0.0137143
915.537	0.0137280
915.615	0.0137878
915.693	0.0137310
915.771	0.0137041
915.849	0.0135342
915.927	0.0138305
916.005	0.0137971
916.083	0.0136928
916.162	0.0137854
916.240	0.0138226
916.318	0.0137088
916.396	0.0138511
916.474	0.0140836
916.552	0.0138332
916.630	0.0138668
916.708	0.0138200
916.787	0.0138393
916.865	0.0139489
916.943	0.0138953
917.021	0.0138665
917.099	0.0139371
917.177	0.0139174
917.255	0.0138589
917.333	0.0137610
917.412	0.0138685
917.490	0.0137464
917.568	0.0136851
917.646	0.0137030
917.724	0.0138203
917.802	0.0137001
917.880	0.0137804
917.958	0.0137787
918.037	0.0136966
918.115	0.0135576
918.193	0.0135636
918.271	0.0136892
918.349	0.0136179
918.427	0.0135158
918.505	0.0135464
918.583	0.0137035
918.662	0.0136676
918.740	0.0135244
918.818	0.0136251
918.896	0.0135499
918.974	0.0136746
919.052	0.0135887
919.130	0.0135669
919.208	0.0137479
919.287	0.0137706
919.365	0.0137547
919.443	0.0136263
919.521	0.0137949
919.599	0.0137003
919.677	0.0137426
919.755	0.0136880
919.833	0.0138474
919.912	0.0136933
919.990	0.0137107
920.068	0.0137394
920.146	0.0136408
920.224	0.0136510
920.302	0.0138839
920.380	0.0139288
920.458	0.0138458
920.537	0.0140005
920.615	0.0139582
920.693	0.0139874
920.771	0.0139957
920.849	0.0138017
920.927	0.0137791
921.005	0.0139175
921.083	0.0138925
921.162	0.0137693
921.240	0.0137617
921.318	0.0137152
921.396	0.0137800
921.474	0.0136211
921.552	0.0136945
921.630	0.0136578
921.708	0.0136432
921.787	0.0136600
921.865	0.0135891
921.943	0.0135401
922.021	0.0136609
922.099	0.0136835
922.177	0.0135921
922.255	0.0137284
922.333	0.0136295
922.412	0.0138244
922.490	0.0138449
922.568	0.0138922
922.646	0.0138252
922.724	0.0139144
922.802	0.0136277
922.880	0.0137468
922.958	0.0139287
923.037	0.0139446
923.115	0.0137741
923.193	0.0138100
923.271	0.0138399
923.349	0.0139181
923.427	0.0138324
923.505	0.0137047
923.583	0.0138091
923.662	0.0137816
923.740	0.0138310
923.818	0.0138165
923.896	0.0138272
923.974	0.0138533
924.052	0.0138245
924.130	0.0138276
924.208	0.0137962
924.287	0.0138258
924.365	0.0137493
924.443	0.0137711
924.521	0.0138882
924.599	0.0137912
924.677	0.0137103
924.755	0.0139154
924.833	0.0139133
924.912	0.0138121
924.990	0.0137199
925.068	0.0137415
925.146	0.0138098
925.224	0.0137296
925.302	0.0135601
925.380	0.0136141
925.458	0.0135655
925.537	0.0135701
925.615	0.0135947
925.693	0.0136123
925.771	0.0134902
925.849	0.0134248
925.927	0.0135529
926.005	0.0134105
926.083	0.0135860
926.162	0.0135799
926.240	0.0135442
926.318	0.0135714
926.396	0.0133418
926.474	0.0135046
926.552	0.0135860
926.630	0.0135672
926.708	0.0135291
926.787	0.0136863
926.865	0.0135857
926.943	0.0137073
927.021	0.0137354
927.099	0.0136772
927.177	0.0138563
927.255	0.0137694
927.333	0.0137170
927.412	0.0138528
927.490	0.0138966
927.568	0.0138971
927.646	0.0139716
927.724	0.0140467
927.802	0.0139372
927.880	0.0139898
927.958	0.0140952
928.037	0.0140653
928.115	0.0141011
928.193	0.0139751
928.271	0.0139562
928.349	0.0139115
928.427	0.0138151
928.505	0.0137836
928.583	0.0139949
928.662	0.0138396
928.740	0.0137898
928.818	0.0137717
928.896	0.0138965
928.974	0.0137552
929.052	0.0137025
929.130	0.0137044
929.208	0.0137314
929.287	0.0137713
929.365	0.0136733
929.443	0.0138185
929.521	0.0136469
929.599	0.0136518
929.677	0.0136477
929.755	0.0135558
929.833	0.0136440
929.912	0.0135988
929.990	0.0135834
930.068	0.0135512
930.146	0.0133473
930.224	0.0135184
930.302	0.0136417
930.380	0.0134052
930.458	0.0135471
930.537	0.0136324
930.615	0.0136455
930.693	0.0136396
930.771	0.0136052
930.849	0.0135174
930.927	0.0135825
931.005	0.0138331
931.083	0.0136193
931.162	0.0136561
931.240	0.0136562
931.318	0.0138109
931.396	0.0137678
931.474	0.0137730
931.552	0.0136872
931.630	0.0138071
931.708	0.0138609
931.787	0.0136728
931.865	0.0137536
931.943	0.0137275
932.021	0.0137981
932.099	0.0138758
932.177	0.0139030
932.255	0.0138463
932.333	0.0137583
932.412	0.0139117
932.490	0.0138275
932.568	0.0137299
932.646	0.0137853
932.724	0.0139011
932.802	0.0138290
932.880	0.0137670
932.958	0.0138028
933.037	0.0137945
933.115	0.0138100
933.193	0.0137124
933.271	0.0136306
933.349	0.0138026
933.427	0.0136447
933.505	0.0137457
933.583	0.0136815
933.662	0.0136755
933.740	0.0136539
933.818	0.0135323
933.896	0.0136721
933.974	0.0137416
934.052	0.0138049
934.130	0.0137890
934.208	0.0136395
934.287	0.0137829
934.365	0.0136491
934.443	0.0137091
934.521	0.0137844
934.599	0.0136198
934.677	0.0138216
934.755	0.0137701
934.833	0.0136838
934.912	0.0135673
934.990	0.0137922
935.068	0.0137946
935.146	0.0137694
935.224	0.0137467
935.302	0.0135696
935.380	0.0137740
935.458	0.0136913
935.537	0.0136858
935.615	0.0137280
935.693	0.0135770
935.771	0.0135599
935.849	0.0137406
935.927	0.0137230
936.005	0.0137225
936.083	0.0136065
936.162	0.0137518
936.240	0.0137538
936.318	0.0138551
936.396	0.0138547
936.474	0.0139160
936.552	0.0139004
936.630	0.0138572
936.708	0.0138309
936.787	0.0139296
936.865	0.0139711
936.943	0.0137941
937.021	0.0139206
937.099	0.0139433
937.177	0.0138588
937.255	0.0138299
937.333	0.0139390
937.412	0.0138122
937.490	0.0136948
937.568	0.0136106
937.646	0.0136671
937.724	0.0137546
937.802	0.0135446
937.880	0.0135278
937.958	0.0135545
938.037	0.0135615
938.115	0.0133739
938.193	0.0133314
938.271	0.0135217
938.349	0.0135847
938.427	0.0135658
938.505	0.0136374
938.583	0.0136193
938.662	0.0136873
938.740	0.0136363
938.818	0.0137334
938.896	0.0135151
938.974	0.0135420
939.052	0.0137264
939.130	0.0137140
939.208	0.0136895
939.287	0.0136715
939.365	0.0136603
939.443	0.0137274
939.521	0.0136430
939.599	0.0138592
939.677	0.0137746
939.755	0.0137995
939.833	0.0138114
939.912	0.0137370
939.990	0.0138142
940.068	0.0137465
940.146	0.0138251
940.224	0.0137627
940.302	0.0137367
940.380	0.0138613
940.458	0.0138662
940.537	0.0137885
940.615	0.0138073
940.693	0.0137112
940.771	0.0136880
940.849	0.0138017
940.927	0.0137659
941.005	0.0138065
941.083	0.0138392
941.162	0.0138693
941.240	0.0138844
941.318	0.0136617
941.396	0.0138284
941.474	0.0138840
941.552	0.0136745
941.630	0.0137063
941.708	0.0135973
941.787	0.0138010
941.865	0.0138501
941.943	0.0137036
942.021	0.0137285
942.099	0.0137019
942.177	0.0136141
942.255	0.0136774
942.333	0.0136677
942.412	0.0135786
942.490	0.0136041
942.568	0.0136131
942.646	0.0136158
942.724	0.0134682
942.802	0.0135535
942.880	0.0135301
942.958	0.0135355
943.037	0.0135754
943.115	0.0134695
943.193	0.0137198
943.271	0.0135192
943.349	0.0134735
943.427	0.0135099
943.505	0.0135566
943.583	0.0137870
943.662	0.0137521
943.740	0.0135667
943.818	0.0137627
943.896	0.0138027
943.974	0.0137073
944.052	0.0137591
944.130	0.0137698
944.208	0.0138107
944.287	0.0137952
944.365	0.0136208
944.443	0.0137363
944.521	0.0137601
944.599	0.0137157
944.677	0.0136933
944.755	0.0137721
944.833	0.0137936
944.912	0.0137450
944.990	0.0137653
945.068	0.0137979
945.146	0.0138271
945.224	0.0138613
945.302	0.0138026
945.380	0.0139359
945.458	0.0139979
945.537	0.0140076
945.615	0.0139175
945.693	0.0141046
945.771	0.0140341
945.849	0.0138679
945.927	0.0139600
946.005	0.0140513
946.083	0.0138549
946.162	0.0137299
946.240	0.0139003
946.318	0.0137698
946.396	0.0137016
946.474	0.0135686
946.552	0.0134786
946.630	0.0135802
946.708	0.0134012
946.787	0.0135149
946.865	0.0135081
946.943	0.0133742
947.021	0.0135776
947.099	0.0134646
947.177	0.0134756
947.255	0.0134700
947.333	0.0135879
947.412	0.0136551
947.490	0.0136152
947.568	0.0136821
947.646	0.0136185
947.724	0.0135237
947.802	0.0136593
947.880	0.0136470
947.958	0.0137666
948.037	0.0137569
948.115	0.0138256
948.193	0.0137488
948.271	0.0137511
948.349	0.0137438
948.427	0.0137199
948.505	0.0136283
948.583	0.0135876
948.662	0.0136517
948.740	0.0136179
948.818	0.0134859
948.896	0.0136835
948.974	0.0136648
949.052	0.0136489
949.130	0.0135252
949.208	0.0135457
949.287	0.0134148
949.365	0.0135420
949.443	0.0136008
949.521	0.0135935
949.599	0.0135730
949.677	0.0135684
949.755	0.0136666
949.833	0.0135970
949.912	0.0136491
949.990	0.0136639
950.068	0.0137315
950.146	0.0137715
950.224	0.0137729
950.302	0.0138390
950.380	0.0138967
950.458	0.0140160
950.537	0.0138982
950.615	0.0138589
950.693	0.0139552
950.771	0.0139581
950.849	0.0140609
950.927	0.0139459
951.005	0.0137385
951.083	0.0137662
951.162	0.0137958
951.240	0.0137279
951.318	0.0137917
951.396	0.0136530
951.474	0.0135363
951.552	0.0136652
951.630	0.0135934
951.708	0.0135317
951.787	0.0136477
951.865	0.0136190
951.943	0.0135749
952.021	0.0136803
952.099	0.0136568
952.177	0.0135934
952.255	0.0136907
952.333	0.0138528
952.412	0.0138120
952.490	0.0136960
952.568	0.0137251
952.646	0.0138819
952.724	0.0138087
952.802	0.0138728
952.880	0.0138067
952.958	0.0137609
953.037	0.0137695
953.115	0.0137846
953.193	0.0139488
953.271	0.0137995
953.349	0.0136904
953.427	0.0136070
953.505	0.0136229
953.583	0.0136501
953.662	0.0136346
953.740	0.0137201
953.818	0.0136284
953.896	0.0135867
953.974	0.0135047
954.052	0.0135376
954.130	0.0137404
954.208	0.0136871
954.287	0.0137247
954.365	0.0136580
954.443	0.0136822
954.521	0.0136129
954.599	0.0137315
954.677	0.0136961
954.755	0.0137579
954.833	0.0139951
954.912	0.0136506
954.990	0.0137199
955.068	0.0138228
955.146	0.0138164
955.224	0.0136864
955.302	0.0138695
955.380	0.0137429
955.458	0.0137766
955.537	0.0138909
955.615	0.0139292
955.693	0.0139363
955.771	0.0137560
955.849	0.0138239
955.927	0.0137890
956.005	0.0138128
956.083	0.0137892
956.162	0.0136790
956.240	0.0137313
956.318	0.0138351
956.396	0.0139188
956.474	0.0137711
956.552	0.0137746
956.630	0.0137696
956.708	0.0137872
956.787	0.0138394
956.865	0.0140139
956.943	0.0140341
957.021	0.0140416
957.099	0.0139315
957.177	0.0139887
957.255	0.0140199
957.333	0.0138889
957.412	0.0138692
957.490	0.0138235
957.568	0.0137077
957.646	0.0138539
957.724	0.0137320
957.802	0.0137904
957.880	0.0137431
957.958	0.0136169
958.037	0.0135496
958.115	0.0134133
958.193	0.0135047
958.271	0.0135803
958.349	0.0135513
958.427	0.0135640
958.505	0.0135999
958.583	0.0136597
958.662	0.0137026
958.740	0.0137656
958.818	0.0138098
958.896	0.0139232
958.974	0.0139062
959.052	0.0140154
959.130	0.0138866
959.208	0.0139274
959.287	0.0139034
959.365	0.0139724
959.443	0.0139334
959.521	0.0139999
959.599	0.0140240
959.677	0.0139643
959.755	0.0138001
959.833	0.0138812
959.912	0.0137518
959.990	0.0136528
960.068	0.0136705
960.146	0.0136458
960.224	0.0135841
960.302	0.0136916
960.380	0.0137096
960.458	0.0135602
960.537	0.0136013
960.615	0.0135120
960.693	0.0135961
960.771	0.0135601
960.849	0.0136333
960.927	0.0137220
961.005	0.0135178
961.083	0.0135403
961.162	0.0136199
961.240	0.0136041
961.318	0.0136377
961.396	0.0135826
961.474	0.0137640
961.552	0.0137241
961.630	0.0136253
961.708	0.0137292
961.787	0.0136650
961.865	0.0137341
961.943	0.0137213
962.021	0.0136852
962.099	0.0136271
962.177	0.0137934
962.255	0.0137059
962.333	0.0138512
962.412	0.0137988
962.490	0.0136176
962.568	0.0136947
962.646	0.0137473
962.724	0.0138550
962.802	0.0137897
962.880	0.0136970
962.958	0.0138676
963.037	0.0137654
963.115	0.0137695
963.193	0.0136828
963.271	0.0137859
963.349	0.0137655
963.427	0.0137769
963.505	0.0137829
963.583	0.0138657
963.662	0.0139539
963.740	0.0138593
963.818	0.0138750
963.896	0.0139104
963.974	0.0138515
964.052	0.0138992
964.130	0.0138409
964.208	0.0140260
964.287	0.0138705
964.365	0.0137631
964.443	0.0136346
964.521	0.0137933
964.599	0.0137448
964.677	0.0136826
964.755	0.0138424
964.833	0.0138284
964.912	0.0138026
964.990	0.0136954
965.068	0.0137521
965.146	0.0136586
965.224	0.0137399
965.302	0.0137051
965.380	0.0136211
965.458	0.0136840
965.537	0.0137701
965.615	0.0135259
965.693	0.0134907
965.771	0.0135422
965.849	0.0136732
965.927	0.0134804
966.005	0.0137469
966.083	0.0136530
966.162	0.0137036
966.240	0.0136858
966.318	0.0136489
966.396	0.0135653
966.474	0.0137497
966.552	0.0138100
966.630	0.0136428
966.708	0.0138149
966.787	0.0137473
966.865	0.0137877
966.943	0.0136252
967.021	0.0136674
967.099	0.0139450
967.177	0.0138464
967.255	0.0137514
967.333	0.0135809
967.412	0.0135883
967.490	0.0136585
967.568	0.0138068
967.646	0.0137028
967.724	0.0139129
967.802	0.0137921
967.880	0.0137558
967.958	0.0139349
968.037	0.0138419
968.115	0.0139665
968.193	0.0141956
968.271	0.0140848
968.349	0.0140973
968.427	0.0141640
968.505	0.0140787
968.583	0.0138200
968.662	0.0138515
968.740	0.0138562
968.818	0.0137099
968.896	0.0136827
968.974	0.0138195
969.052	0.0136802
969.130	0.0136536
969.208	0.0135773
969.287	0.0136127
969.365	0.0133875
969.443	0.0133769
969.521	0.0134457
969.599	0.0135316
969.677	0.0135658
969.755	0.0136239
969.833	0.0137221
969.912	0.0137457
