05/08/2022	19:49:20	Ver.	4.1	UNKNOWN
Optical Delay	649.989667	Delta X		0.078125	Sweeps	1	Scan Rate	0/0
Coordinates	Axis 1	NaN	Axis 2	NaN	Axis 3	NaN	Axis 4	NaN	Axis 5	NaN	Axis 6	0.000000
TX Power	0.000000	RX Power	0.000000

649.990	0.0133637
650.068	0.0133221
650.146	0.0133740
650.224	0.0133810
650.302	0.0133938
650.380	0.0134498
650.458	0.0134047
650.537	0.0133515
650.615	0.0132627
650.693	0.0134624
650.771	0.0135042
650.849	0.0133588
650.927	0.0132006
651.005	0.0133996
651.083	0.0134160
651.162	0.0132224
651.240	0.0134007
651.318	0.0132676
651.396	0.0133401
651.474	0.0132884
651.552	0.0133129
651.630	0.0134094
651.708	0.0132426
651.787	0.0132966
651.865	0.0133135
651.943	0.0133320
652.021	0.0133942
652.099	0.0133414
652.177	0.0132693
652.255	0.0134919
652.333	0.0132583
652.412	0.0134296
652.490	0.0134305
652.568	0.0133509
652.646	0.0133873
652.724	0.0134751
652.802	0.0134083
652.880	0.0132162
652.958	0.0132397
653.037	0.0133878
653.115	0.0132947
653.193	0.0132904
653.271	0.0134470
653.349	0.0134579
653.427	0.0133739
653.505	0.0132352
653.583	0.0133342
653.662	0.0133892
653.740	0.0132714
653.818	0.0135590
653.896	0.0133046
653.974	0.0134460
654.052	0.0134280
654.130	0.0134087
654.208	0.0133453
654.287	0.0132391
654.365	0.0134232
654.443	0.0132099
654.521	0.0132352
654.599	0.0133123
654.677	0.0133801
654.755	0.0133106
654.833	0.0133360
654.912	0.0132809
654.990	0.0133430
655.068	0.0134614
655.146	0.0133251
655.224	0.0134291
655.302	0.0133617
655.380	0.0133627
655.458	0.0135143
655.537	0.0133880
655.615	0.0132963
655.693	0.0134819
655.771	0.0133537
655.849	0.0133192
655.927	0.0132430
656.005	0.0133807
656.083	0.0132918
656.162	0.0133013
656.240	0.0134114
656.318	0.0132389
656.396	0.0131516
656.474	0.0133961
656.552	0.0134493
656.630	0.0132782
656.708	0.0133789
656.787	0.0133234
656.865	0.0133251
656.943	0.0134029
657.021	0.0132864
657.099	0.0132829
657.177	0.0132130
657.255	0.0134109
657.333	0.0133805
657.412	0.0134251
657.490	0.0133234
657.568	0.0133278
657.646	0.0132539
657.724	0.0133887
657.802	0.0136317
657.880	0.0133816
657.958	0.0134026
658.037	0.0134453
658.115	0.0132872
658.193	0.0133120
658.271	0.0133241
658.349	0.0133305
658.427	0.0133622
658.505	0.0133365
658.583	0.0134196
658.662	0.0133978
658.740	0.0133138
658.818	0.0132441
658.896	0.0132874
658.974	0.0133315
659.052	0.0133910
659.130	0.0133096
659.208	0.0132797
659.287	0.0134299
659.365	0.0133149
659.443	0.0133291
659.521	0.0132104
659.599	0.0133590
659.677	0.0133638
659.755	0.0133101
659.833	0.0132915
659.912	0.0132344
659.990	0.0132759
660.068	0.0133636
660.146	0.0133649
660.224	0.0134048
660.302	0.0133752
660.380	0.0133727
660.458	0.0133533
660.537	0.0134640
660.615	0.0133387
660.693	0.0133963
660.771	0.0134390
660.849	0.0132993
660.927	0.0133752
661.005	0.0133729
661.083	0.0134800
661.162	0.0133050
661.240	0.0133537
661.318	0.0133404
661.396	0.0133541
661.474	0.0133858
661.552	0.0133147
661.630	0.0133982
661.708	0.0132901
661.787	0.0132996
661.865	0.0134148
661.943	0.0133113
662.021	0.0134090
662.099	0.0133096
662.177	0.0132772
662.255	0.0134435
662.333	0.0132938
662.412	0.0133886
662.490	0.0133565
662.568	0.0133892
662.646	0.0133370
662.724	0.0134113
662.802	0.0131606
662.880	0.0131621
662.958	0.0133682
663.037	0.0133488
663.115	0.0134071
663.193	0.0132721
663.271	0.0133775
663.349	0.0134335
663.427	0.0134364
663.505	0.0134068
663.583	0.0135279
663.662	0.0133408
663.740	0.0132725
663.818	0.0134373
663.896	0.0134075
663.974	0.0133758
664.052	0.0133241
664.130	0.0132678
664.208	0.0134098
664.287	0.0133297
664.365	0.0133386
664.443	0.0133254
664.521	0.0134052
664.599	0.0133595
664.677	0.0133333
664.755	0.0134050
664.833	0.0133912
664.912	0.0133684
664.990	0.0132655
665.068	0.0133456
665.146	0.0134115
665.224	0.0134081
665.302	0.0133420
665.380	0.0133190
665.458	0.0133174
665.537	0.0133869
665.615	0.0132870
665.693	0.0133933
665.771	0.0132863
665.849	0.0133253
665.927	0.0133115
666.005	0.0134880
666.083	0.0133945
666.162	0.0132692
666.240	0.0132814
666.318	0.0132304
666.396	0.0133359
666.474	0.0132798
666.552	0.0132592
666.630	0.0132251
666.708	0.0133649
666.787	0.0132909
666.865	0.0134920
666.943	0.0133703
667.021	0.0136126
667.099	0.0135314
667.177	0.0134511
667.255	0.0133686
667.333	0.0133770
667.412	0.0133099
667.490	0.0131391
667.568	0.0130771
667.646	0.0130324
667.724	0.0129036
667.802	0.0129305
667.880	0.0131212
667.958	0.0131634
668.037	0.0131827
668.115	0.0133753
668.193	0.0134872
668.271	0.0136991
668.349	0.0136181
668.427	0.0137335
668.505	0.0138446
668.583	0.0137032
668.662	0.0135703
668.740	0.0135873
668.818	0.0137508
668.896	0.0135725
668.974	0.0135799
669.052	0.0135094
669.130	0.0134599
669.208	0.0135052
669.287	0.0134886
669.365	0.0133421
669.443	0.0132062
669.521	0.0129651
669.599	0.0129183
669.677	0.0126624
669.755	0.0127853
669.833	0.0128232
669.912	0.0128590
669.990	0.0129862
670.068	0.0131101
670.146	0.0131613
670.224	0.0134365
670.302	0.0135294
670.380	0.0135544
670.458	0.0137434
670.537	0.0136057
670.615	0.0134852
670.693	0.0136494
670.771	0.0135236
670.849	0.0133556
670.927	0.0135052
671.005	0.0134311
671.083	0.0137202
671.162	0.0136429
671.240	0.0136398
671.318	0.0139160
671.396	0.0139413
671.474	0.0140285
671.552	0.0140313
671.630	0.0139809
671.708	0.0137654
671.787	0.0138577
671.865	0.0136504
671.943	0.0135385
672.021	0.0134716
672.099	0.0130532
672.177	0.0129741
672.255	0.0128596
672.333	0.0127296
672.412	0.0125944
672.490	0.0125023
672.568	0.0123266
672.646	0.0122012
672.724	0.0121278
672.802	0.0121116
672.880	0.0122176
672.958	0.0123209
673.037	0.0125111
673.115	0.0127481
673.193	0.0129628
673.271	0.0134754
673.349	0.0137239
673.427	0.0137973
673.505	0.0141554
673.583	0.0141895
673.662	0.0141408
673.740	0.0142213
673.818	0.0143230
673.896	0.0143062
673.974	0.0142431
674.052	0.0144641
674.130	0.0144070
674.208	0.0144165
674.287	0.0144403
674.365	0.0142824
674.443	0.0143983
674.521	0.0143694
674.599	0.0141937
674.677	0.0140552
674.755	0.0139874
674.833	0.0138822
674.912	0.0135771
674.990	0.0132649
675.068	0.0130957
675.146	0.0128506
675.224	0.0126287
675.302	0.0122517
675.380	0.0121860
675.458	0.0118334
675.537	0.0115858
675.615	0.0115404
675.693	0.0115854
675.771	0.0115442
675.849	0.0112724
675.927	0.0114851
676.005	0.0114648
676.083	0.0114800
676.162	0.0115060
676.240	0.0117110
676.318	0.0117657
676.396	0.0119299
676.474	0.0123878
676.552	0.0126479
676.630	0.0129156
676.708	0.0133769
676.787	0.0138433
676.865	0.0144122
676.943	0.0148294
677.021	0.0153903
677.099	0.0157201
677.177	0.0160651
677.255	0.0165334
677.333	0.0168142
677.412	0.0171148
677.490	0.0170881
677.568	0.0171378
677.646	0.0170770
677.724	0.0167320
677.802	0.0165542
677.880	0.0161636
677.958	0.0155931
678.037	0.0148753
678.115	0.0142799
678.193	0.0135460
678.271	0.0127325
678.349	0.0119574
678.427	0.0112569
678.505	0.0105000
678.583	0.00999489
678.662	0.00931389
678.740	0.00885391
678.818	0.00844963
678.896	0.00828476
678.974	0.00825661
679.052	0.00834091
679.130	0.00875488
679.208	0.00895332
679.287	0.00955444
679.365	0.0102019
679.443	0.0108002
679.521	0.0114106
679.599	0.0120390
679.677	0.0126884
679.755	0.0134128
679.833	0.0135908
679.912	0.0140550
679.990	0.0144349
680.068	0.0146665
680.146	0.0150094
680.224	0.0154499
680.302	0.0157964
680.380	0.0160877
680.458	0.0163131
680.537	0.0166243
680.615	0.0171378
680.693	0.0173502
680.771	0.0176588
680.849	0.0178096
680.927	0.0178743
681.005	0.0179372
681.083	0.0178674
681.162	0.0175650
681.240	0.0172215
681.318	0.0167464
681.396	0.0160402
681.474	0.0154065
681.552	0.0146577
681.630	0.0139330
681.708	0.0131389
681.787	0.0126795
681.865	0.0119556
681.943	0.0113524
682.021	0.0106189
682.099	0.0100781
682.177	0.00943687
682.255	0.00886978
682.333	0.00826607
682.412	0.00781151
682.490	0.00748299
682.568	0.00716866
682.646	0.00703354
682.724	0.00688652
682.802	0.00730736
682.880	0.00776482
682.958	0.00852036
683.037	0.00924400
683.115	0.0103267
683.193	0.0113171
683.271	0.0125108
683.349	0.0135429
683.427	0.0147066
683.505	0.0156799
683.583	0.0164568
683.662	0.0170409
683.740	0.0176662
683.818	0.0179690
683.896	0.0180383
683.974	0.0182069
684.052	0.0178883
684.130	0.0175777
684.208	0.0172359
684.287	0.0167567
684.365	0.0160368
684.443	0.0154897
684.521	0.0147531
684.599	0.0141162
684.677	0.0136330
684.755	0.0132208
684.833	0.0130031
684.912	0.0128786
684.990	0.0127605
685.068	0.0128623
685.146	0.0131133
685.224	0.0132196
685.302	0.0133671
685.380	0.0137472
685.458	0.0138760
685.537	0.0140535
685.615	0.0141676
685.693	0.0142097
685.771	0.0144254
685.849	0.0143174
685.927	0.0143166
686.005	0.0141714
686.083	0.0142069
686.162	0.0141044
686.240	0.0140570
686.318	0.0138248
686.396	0.0135641
686.474	0.0133966
686.552	0.0131844
686.630	0.0128896
686.708	0.0125506
686.787	0.0121896
686.865	0.0116273
686.943	0.0110471
687.021	0.0104137
687.099	0.00974854
687.177	0.00921875
687.255	0.00876343
687.333	0.00845200
687.412	0.00820183
687.490	0.00824135
687.568	0.00835815
687.646	0.00878769
687.724	0.00957268
687.802	0.0102878
687.880	0.0109589
687.958	0.0121005
688.037	0.0132217
688.115	0.0139211
688.193	0.0148382
688.271	0.0154854
688.349	0.0160593
688.427	0.0165296
688.505	0.0165812
688.583	0.0168048
688.662	0.0167553
688.740	0.0166948
688.818	0.0166005
688.896	0.0167030
688.974	0.0164986
689.052	0.0164969
689.130	0.0167342
689.208	0.0165068
689.287	0.0166910
689.365	0.0166430
689.443	0.0164381
689.521	0.0163428
689.599	0.0159348
689.677	0.0158408
689.755	0.0154391
689.833	0.0150808
689.912	0.0145542
689.990	0.0141283
690.068	0.0135854
690.146	0.0130901
690.224	0.0126796
690.302	0.0122285
690.380	0.0121477
690.458	0.0120027
690.537	0.0119650
690.615	0.0120599
690.693	0.0121606
690.771	0.0125210
690.849	0.0127126
690.927	0.0126617
691.005	0.0128693
691.083	0.0129810
691.162	0.0128716
691.240	0.0126743
691.318	0.0126112
691.396	0.0121993
691.474	0.0117811
691.552	0.0113609
691.630	0.0110895
691.708	0.0106555
691.787	0.0102184
691.865	0.00984703
691.943	0.00973862
692.021	0.00951393
692.099	0.00966354
692.177	0.00970314
692.255	0.00969833
692.333	0.00986626
692.412	0.00997093
692.490	0.0102953
692.568	0.0105869
692.646	0.0110398
692.724	0.0114561
692.802	0.0121349
692.880	0.0127534
692.958	0.0132094
693.037	0.0141951
693.115	0.0148618
693.193	0.0159122
693.271	0.0166589
693.349	0.0172054
693.427	0.0179426
693.505	0.0183649
693.583	0.0184509
693.662	0.0185680
693.740	0.0185263
693.818	0.0184242
693.896	0.0182423
693.974	0.0178070
694.052	0.0173657
694.130	0.0170895
694.208	0.0167381
694.287	0.0165360
694.365	0.0161888
694.443	0.0159865
694.521	0.0157170
694.599	0.0154595
694.677	0.0150671
694.755	0.0146824
694.833	0.0144286
694.912	0.0139350
694.990	0.0133980
695.068	0.0127544
695.146	0.0122713
695.224	0.0118035
695.302	0.0113617
695.380	0.0108995
695.458	0.0104377
695.537	0.0101164
695.615	0.00977539
695.693	0.00963318
695.771	0.00949982
695.849	0.00940834
695.927	0.00944595
696.005	0.00963226
696.083	0.00993904
696.162	0.0101802
696.240	0.0106079
696.318	0.0110963
696.396	0.0114945
696.474	0.0117780
696.552	0.0121830
696.630	0.0124594
696.708	0.0127312
696.787	0.0130954
696.865	0.0131656
696.943	0.0130751
697.021	0.0132617
697.099	0.0132387
697.177	0.0131573
697.255	0.0128786
697.333	0.0128439
697.412	0.0126955
697.490	0.0126112
697.568	0.0125650
697.646	0.0126503
697.724	0.0125902
697.802	0.0129616
697.880	0.0129583
697.958	0.0132694
698.037	0.0137717
698.115	0.0141071
698.193	0.0144261
698.271	0.0147941
698.349	0.0151616
698.427	0.0155630
698.505	0.0159624
698.583	0.0163819
698.662	0.0165620
698.740	0.0167419
698.818	0.0168172
698.896	0.0167988
698.974	0.0168172
699.052	0.0165519
699.130	0.0163357
699.208	0.0161524
699.287	0.0158478
699.365	0.0157132
699.443	0.0153546
699.521	0.0151513
699.599	0.0149049
699.677	0.0146240
699.755	0.0144003
699.833	0.0140992
699.912	0.0137892
699.990	0.0135405
700.068	0.0132224
700.146	0.0126161
700.224	0.0123955
700.302	0.0120375
700.380	0.0114764
700.458	0.0111018
700.537	0.0107246
700.615	0.0103767
700.693	0.00995491
700.771	0.00975372
700.849	0.00937263
700.927	0.00915871
701.005	0.00948814
701.083	0.00948685
701.162	0.00998657
701.240	0.0105206
701.318	0.0110794
701.396	0.0116369
701.474	0.0122903
701.552	0.0130361
701.630	0.0134167
701.708	0.0141566
701.787	0.0147247
701.865	0.0149886
701.943	0.0153219
702.021	0.0152365
702.099	0.0156515
702.177	0.0154765
702.255	0.0151744
702.333	0.0146767
702.412	0.0141920
702.490	0.0138773
702.568	0.0132208
702.646	0.0126427
702.724	0.0118751
702.802	0.0116198
702.880	0.0110889
702.958	0.0108096
703.037	0.0105427
703.115	0.0103383
703.193	0.0104081
703.271	0.0106429
703.349	0.0107886
703.427	0.0112832
703.505	0.0117068
703.583	0.0123208
703.662	0.0128133
703.740	0.0132873
703.818	0.0138083
703.896	0.0144038
703.974	0.0149398
704.052	0.0153661
704.130	0.0158523
704.208	0.0163979
704.287	0.0166891
704.365	0.0170364
704.443	0.0173684
704.521	0.0175685
704.599	0.0175823
704.677	0.0179680
704.755	0.0178987
704.833	0.0178152
704.912	0.0175274
704.990	0.0173089
705.068	0.0167522
705.146	0.0162602
705.224	0.0157395
705.302	0.0152810
705.380	0.0147270
705.458	0.0139584
705.537	0.0135162
705.615	0.0130183
705.693	0.0125131
705.771	0.0119588
705.849	0.0113956
705.927	0.0109606
706.005	0.0105641
706.083	0.0101602
706.162	0.00961151
706.240	0.00947952
706.318	0.00926140
706.396	0.00936378
706.474	0.00935104
706.552	0.00953568
706.630	0.00986443
706.708	0.0104130
706.787	0.0107726
706.865	0.0113174
706.943	0.0118844
707.021	0.0124674
707.099	0.0128273
707.177	0.0132021
707.255	0.0135056
707.333	0.0135533
707.412	0.0134478
707.490	0.0133945
707.568	0.0130300
707.646	0.0128194
707.724	0.0125812
707.802	0.0119353
707.880	0.0116209
707.958	0.0115095
708.037	0.0114120
708.115	0.0111194
708.193	0.0112689
708.271	0.0113911
708.349	0.0116667
708.427	0.0121108
708.505	0.0124306
708.583	0.0128062
708.662	0.0132802
708.740	0.0137495
708.818	0.0142049
708.896	0.0147038
708.974	0.0153362
709.052	0.0158410
709.130	0.0164138
709.208	0.0167350
709.287	0.0170973
709.365	0.0173069
709.443	0.0175436
709.521	0.0176176
709.599	0.0177396
709.677	0.0175495
709.755	0.0173259
709.833	0.0170753
709.912	0.0168209
709.990	0.0165007
710.068	0.0160207
710.146	0.0157773
710.224	0.0153403
710.302	0.0149448
710.380	0.0146621
710.458	0.0143227
710.537	0.0140204
710.615	0.0137227
710.693	0.0134007
710.771	0.0131679
710.849	0.0127445
710.927	0.0124217
711.005	0.0121062
711.083	0.0118998
711.162	0.0113709
711.240	0.0110114
711.318	0.0107578
711.396	0.0105574
711.474	0.0103323
711.552	0.0101591
711.630	0.0102591
711.708	0.0102144
711.787	0.0105991
711.865	0.0108739
711.943	0.0109966
712.021	0.0112162
712.099	0.0115705
712.177	0.0118090
712.255	0.0120396
712.333	0.0122534
712.412	0.0124461
712.490	0.0126160
712.568	0.0127933
712.646	0.0128738
712.724	0.0127873
712.802	0.0126129
712.880	0.0125019
712.958	0.0123927
713.037	0.0121778
713.115	0.0119092
713.193	0.0119029
713.271	0.0117203
713.349	0.0117056
713.427	0.0118164
713.505	0.0120498
713.583	0.0122708
713.662	0.0127842
713.740	0.0133596
713.818	0.0138210
713.896	0.0145286
713.974	0.0150261
714.052	0.0156536
714.130	0.0160843
714.208	0.0165217
714.287	0.0168159
714.365	0.0170272
714.443	0.0169331
714.521	0.0167635
714.599	0.0164083
714.677	0.0161355
714.755	0.0157843
714.833	0.0153941
714.912	0.0149665
714.990	0.0147244
715.068	0.0141976
715.146	0.0137690
715.224	0.0136235
715.302	0.0134335
715.380	0.0133221
715.458	0.0132654
715.537	0.0132282
715.615	0.0131120
715.693	0.0129054
715.771	0.0130961
715.849	0.0131235
715.927	0.0131020
716.005	0.0132848
716.083	0.0134548
716.162	0.0135832
716.240	0.0136344
716.318	0.0138208
716.396	0.0138082
716.474	0.0137964
716.552	0.0137946
716.630	0.0135862
716.708	0.0132862
716.787	0.0132532
716.865	0.0131677
716.943	0.0129253
717.021	0.0127426
717.099	0.0123853
717.177	0.0124578
717.255	0.0124541
717.333	0.0125058
717.412	0.0123396
717.490	0.0123223
717.568	0.0125295
717.646	0.0126566
717.724	0.0128419
717.802	0.0127586
717.880	0.0128511
717.958	0.0129803
718.037	0.0127991
718.115	0.0126395
718.193	0.0125588
718.271	0.0122972
718.349	0.0119949
718.427	0.0115869
718.505	0.0113657
718.583	0.0111185
718.662	0.0109669
718.740	0.0109488
718.818	0.0109248
718.896	0.0110355
718.974	0.0112647
719.052	0.0115846
719.130	0.0118041
719.208	0.0123488
719.287	0.0126896
719.365	0.0132832
719.443	0.0137239
719.521	0.0141783
719.599	0.0146812
719.677	0.0148673
719.755	0.0153046
719.833	0.0154184
719.912	0.0155244
719.990	0.0155855
720.068	0.0156462
720.146	0.0155855
720.224	0.0154175
720.302	0.0153977
720.380	0.0153898
720.458	0.0153178
720.537	0.0152102
720.615	0.0152705
720.693	0.0152105
720.771	0.0152215
720.849	0.0152431
720.927	0.0152047
721.005	0.0151423
721.083	0.0152334
721.162	0.0150697
721.240	0.0149926
721.318	0.0146926
721.396	0.0144139
721.474	0.0142201
721.552	0.0140043
721.630	0.0135802
721.708	0.0133173
721.787	0.0130445
721.865	0.0124368
721.943	0.0123557
722.021	0.0121183
722.099	0.0119173
722.177	0.0117295
722.255	0.0116866
722.333	0.0116851
722.412	0.0115331
722.490	0.0118021
722.568	0.0120179
722.646	0.0119884
722.724	0.0122669
722.802	0.0125732
722.880	0.0127960
722.958	0.0129993
723.037	0.0132439
723.115	0.0134555
723.193	0.0133562
723.271	0.0133969
723.349	0.0134325
723.427	0.0132544
723.505	0.0130212
723.583	0.0127015
723.662	0.0125984
723.740	0.0122756
723.818	0.0119662
723.896	0.0116157
723.974	0.0115254
724.052	0.0115661
724.130	0.0114967
724.208	0.0115824
724.287	0.0116398
724.365	0.0118977
724.443	0.0121877
724.521	0.0123396
724.599	0.0125800
724.677	0.0130740
724.755	0.0131573
724.833	0.0134703
724.912	0.0136342
724.990	0.0137572
725.068	0.0140102
725.146	0.0141316
725.224	0.0141821
725.302	0.0141547
725.380	0.0142661
725.458	0.0143904
725.537	0.0144595
725.615	0.0145332
725.693	0.0145466
725.771	0.0147201
725.849	0.0148448
725.927	0.0149208
726.005	0.0149914
726.083	0.0150033
726.162	0.0149344
726.240	0.0149783
726.318	0.0151119
726.396	0.0148482
726.474	0.0148241
726.552	0.0147665
726.630	0.0145267
726.708	0.0145324
726.787	0.0142653
726.865	0.0140740
726.943	0.0138546
727.021	0.0135704
727.099	0.0134193
727.177	0.0132699
727.255	0.0127824
727.333	0.0126617
727.412	0.0125847
727.490	0.0124329
727.568	0.0123373
727.646	0.0119816
727.724	0.0119628
727.802	0.0118980
727.880	0.0118715
727.958	0.0117754
728.037	0.0119005
728.115	0.0119727
728.193	0.0121778
728.271	0.0122373
728.349	0.0122755
728.427	0.0126629
728.505	0.0128047
728.583	0.0127253
728.662	0.0129135
728.740	0.0129502
728.818	0.0130552
728.896	0.0131030
728.974	0.0132095
729.052	0.0132112
729.130	0.0132625
729.208	0.0131857
729.287	0.0131911
729.365	0.0132514
729.443	0.0132252
729.521	0.0133341
729.599	0.0135357
729.677	0.0136421
729.755	0.0136452
729.833	0.0137612
729.912	0.0138512
729.990	0.0138115
730.068	0.0138173
730.146	0.0138200
730.224	0.0137401
730.302	0.0136255
730.380	0.0135081
730.458	0.0134901
730.537	0.0131525
730.615	0.0131208
730.693	0.0130578
730.771	0.0128086
730.849	0.0127618
730.927	0.0124435
731.005	0.0125525
731.083	0.0124671
731.162	0.0125144
731.240	0.0127612
731.318	0.0128293
731.396	0.0129390
731.474	0.0129735
731.552	0.0131510
731.630	0.0133436
731.708	0.0135450
731.787	0.0136282
731.865	0.0136157
731.943	0.0139407
732.021	0.0139449
732.099	0.0138302
732.177	0.0139376
732.255	0.0138678
732.333	0.0141058
732.412	0.0140052
732.490	0.0141420
732.568	0.0142213
732.646	0.0139607
732.724	0.0139496
732.802	0.0140540
732.880	0.0139752
732.958	0.0139990
733.037	0.0140440
733.115	0.0139359
733.193	0.0138802
733.271	0.0137998
733.349	0.0136574
733.427	0.0134683
733.505	0.0134912
733.583	0.0134614
733.662	0.0133085
733.740	0.0130892
733.818	0.0131896
733.896	0.0132084
733.974	0.0131780
734.052	0.0131451
734.130	0.0130692
734.208	0.0131266
734.287	0.0131455
734.365	0.0131887
734.443	0.0129588
734.521	0.0130881
734.599	0.0129449
734.677	0.0129540
734.755	0.0128127
734.833	0.0127037
734.912	0.0126734
734.990	0.0126704
735.068	0.0127014
735.146	0.0126682
735.224	0.0127210
735.302	0.0125149
735.380	0.0125523
735.458	0.0126104
735.537	0.0126486
735.615	0.0125413
735.693	0.0126289
735.771	0.0126894
735.849	0.0127596
735.927	0.0129436
736.005	0.0130322
736.083	0.0130180
736.162	0.0132547
736.240	0.0133688
736.318	0.0134733
736.396	0.0136917
736.474	0.0137444
736.552	0.0139012
736.630	0.0139429
736.708	0.0141574
736.787	0.0140584
736.865	0.0141598
736.943	0.0140225
737.021	0.0141138
737.099	0.0140101
737.177	0.0140031
737.255	0.0138589
737.333	0.0136908
737.412	0.0137843
737.490	0.0135591
737.568	0.0135886
737.646	0.0133685
737.724	0.0133028
737.802	0.0132755
737.880	0.0130929
737.958	0.0131197
738.037	0.0131687
738.115	0.0131478
738.193	0.0131506
738.271	0.0131785
738.349	0.0132129
738.427	0.0131443
738.505	0.0130545
738.583	0.0130477
738.662	0.0132133
738.740	0.0132688
738.818	0.0131853
738.896	0.0131554
738.974	0.0133012
739.052	0.0133714
739.130	0.0134206
739.208	0.0133945
739.287	0.0133482
739.365	0.0134305
739.443	0.0136095
739.521	0.0136337
739.599	0.0136262
739.677	0.0135850
739.755	0.0134618
739.833	0.0135619
739.912	0.0134452
739.990	0.0135163
740.068	0.0135464
740.146	0.0134032
740.224	0.0134148
740.302	0.0135030
740.380	0.0135735
740.458	0.0133748
740.537	0.0132738
740.615	0.0133586
740.693	0.0133568
740.771	0.0132237
740.849	0.0130475
740.927	0.0129532
741.005	0.0129822
741.083	0.0129270
741.162	0.0127016
741.240	0.0128434
741.318	0.0127992
741.396	0.0130212
741.474	0.0129338
741.552	0.0131876
741.630	0.0132352
741.708	0.0132977
741.787	0.0133877
741.865	0.0135809
741.943	0.0136652
742.021	0.0136869
742.099	0.0137570
742.177	0.0137315
742.255	0.0136950
742.333	0.0136037
742.412	0.0135377
742.490	0.0136617
742.568	0.0135258
742.646	0.0134404
742.724	0.0134178
742.802	0.0133824
742.880	0.0132397
742.958	0.0130330
743.037	0.0130783
743.115	0.0129022
743.193	0.0129499
743.271	0.0128749
743.349	0.0129929
743.427	0.0127660
743.505	0.0127837
743.583	0.0128631
743.662	0.0129221
743.740	0.0128983
743.818	0.0128695
743.896	0.0131245
743.974	0.0131618
744.052	0.0131703
744.130	0.0133012
744.208	0.0132655
744.287	0.0133865
744.365	0.0134855
744.443	0.0135386
744.521	0.0134007
744.599	0.0136122
744.677	0.0135414
744.755	0.0135266
744.833	0.0136295
744.912	0.0136830
744.990	0.0136780
745.068	0.0137690
745.146	0.0137855
745.224	0.0138446
745.302	0.0139141
745.380	0.0138011
745.458	0.0137572
745.537	0.0136434
745.615	0.0137128
745.693	0.0136932
745.771	0.0135137
745.849	0.0135597
745.927	0.0134956
746.005	0.0134586
746.083	0.0133723
746.162	0.0132635
746.240	0.0132075
746.318	0.0131011
746.396	0.0130898
746.474	0.0131424
746.552	0.0130871
746.630	0.0130428
746.708	0.0130661
746.787	0.0129585
746.865	0.0129617
746.943	0.0131437
747.021	0.0129821
747.099	0.0130077
747.177	0.0132227
747.255	0.0129909
747.333	0.0130547
747.412	0.0131189
747.490	0.0131059
747.568	0.0130415
747.646	0.0130801
747.724	0.0130992
747.802	0.0130904
747.880	0.0128812
747.958	0.0127109
748.037	0.0128238
748.115	0.0128088
748.193	0.0127500
748.271	0.0127302
748.349	0.0128060
748.427	0.0128976
748.505	0.0129241
748.583	0.0129356
748.662	0.0130152
748.740	0.0130781
748.818	0.0131049
748.896	0.0132766
748.974	0.0133995
749.052	0.0134430
749.130	0.0135440
749.208	0.0137944
749.287	0.0138892
749.365	0.0137846
749.443	0.0139291
749.521	0.0139624
749.599	0.0140643
749.677	0.0139156
749.755	0.0140168
749.833	0.0140022
749.912	0.0138584
749.990	0.0138844
750.068	0.0138178
750.146	0.0137759
750.224	0.0135661
750.302	0.0137051
750.380	0.0137361
750.458	0.0135159
750.537	0.0133884
750.615	0.0133401
750.693	0.0132941
750.771	0.0132426
750.849	0.0130699
750.927	0.0131210
751.005	0.0129346
751.083	0.0128061
751.162	0.0127234
751.240	0.0127734
751.318	0.0128953
751.396	0.0127808
751.474	0.0126669
751.552	0.0127710
751.630	0.0127500
751.708	0.0128262
751.787	0.0127440
751.865	0.0128649
751.943	0.0128430
752.021	0.0128896
752.099	0.0130917
752.177	0.0131447
752.255	0.0131665
752.333	0.0132147
752.412	0.0132882
752.490	0.0134113
752.568	0.0133870
752.646	0.0135619
752.724	0.0134981
752.802	0.0135098
752.880	0.0134960
752.958	0.0136343
753.037	0.0137038
753.115	0.0136617
753.193	0.0135535
753.271	0.0136028
753.349	0.0136066
753.427	0.0134981
753.505	0.0134685
753.583	0.0133697
753.662	0.0132416
753.740	0.0133926
753.818	0.0134968
753.896	0.0133570
753.974	0.0132875
754.052	0.0133277
754.130	0.0134098
754.208	0.0134126
754.287	0.0133819
754.365	0.0136511
754.443	0.0134698
754.521	0.0135808
754.599	0.0135728
754.677	0.0136662
754.755	0.0135622
754.833	0.0135861
754.912	0.0134800
754.990	0.0135418
755.068	0.0134675
755.146	0.0132927
755.224	0.0133737
755.302	0.0134198
755.380	0.0134402
755.458	0.0133890
755.537	0.0133385
755.615	0.0133380
755.693	0.0133208
755.771	0.0131571
755.849	0.0131152
755.927	0.0131135
756.005	0.0131717
756.083	0.0132881
756.162	0.0133265
756.240	0.0132192
756.318	0.0131946
756.396	0.0132488
756.474	0.0134124
756.552	0.0134004
756.630	0.0134994
756.708	0.0134180
756.787	0.0134158
756.865	0.0135859
756.943	0.0136021
757.021	0.0135987
757.099	0.0136257
757.177	0.0135762
757.255	0.0135638
757.333	0.0135894
757.412	0.0135696
757.490	0.0135947
757.568	0.0134151
757.646	0.0133958
757.724	0.0134820
757.802	0.0134432
757.880	0.0133157
757.958	0.0134972
758.037	0.0133179
758.115	0.0133192
758.193	0.0133141
758.271	0.0132382
758.349	0.0132079
758.427	0.0131500
758.505	0.0132423
758.583	0.0130939
758.662	0.0130048
758.740	0.0131197
758.818	0.0130441
758.896	0.0129475
758.974	0.0129334
759.052	0.0129148
759.130	0.0129336
759.208	0.0128323
759.287	0.0129747
759.365	0.0131326
759.443	0.0131792
759.521	0.0131752
759.599	0.0131186
759.677	0.0133361
759.755	0.0134419
759.833	0.0132716
759.912	0.0133678
759.990	0.0134744
760.068	0.0135677
760.146	0.0134132
760.224	0.0135011
760.302	0.0134422
760.380	0.0134037
760.458	0.0133218
760.537	0.0133517
760.615	0.0133451
760.693	0.0132147
760.771	0.0132854
760.849	0.0132632
760.927	0.0132449
761.005	0.0131528
761.083	0.0132668
761.162	0.0133500
761.240	0.0133075
761.318	0.0135318
761.396	0.0135033
761.474	0.0133497
761.552	0.0135480
761.630	0.0135291
761.708	0.0134299
761.787	0.0135430
761.865	0.0135205
761.943	0.0136087
762.021	0.0136325
762.099	0.0137709
762.177	0.0138183
762.255	0.0138184
762.333	0.0138318
762.412	0.0138050
762.490	0.0137028
762.568	0.0137316
762.646	0.0137927
762.724	0.0136903
762.802	0.0137558
762.880	0.0135296
762.958	0.0135474
763.037	0.0133394
763.115	0.0134150
763.193	0.0133213
763.271	0.0132259
763.349	0.0131596
763.427	0.0131807
763.505	0.0130081
763.583	0.0130924
763.662	0.0130796
763.740	0.0130090
763.818	0.0128835
763.896	0.0128196
763.974	0.0128404
764.052	0.0128741
764.130	0.0127776
764.208	0.0128576
764.287	0.0128203
764.365	0.0128944
764.443	0.0129126
764.521	0.0129932
764.599	0.0130068
764.677	0.0131184
764.755	0.0131239
764.833	0.0132571
764.912	0.0134534
764.990	0.0133025
765.068	0.0134650
765.146	0.0135654
765.224	0.0134734
765.302	0.0136656
765.380	0.0137034
765.458	0.0134940
765.537	0.0136359
765.615	0.0134395
765.693	0.0135304
765.771	0.0135320
765.849	0.0135601
765.927	0.0134133
766.005	0.0135046
766.083	0.0135490
766.162	0.0135659
766.240	0.0135238
766.318	0.0133912
766.396	0.0133809
766.474	0.0136148
766.552	0.0134569
766.630	0.0136240
766.708	0.0135587
766.787	0.0133450
766.865	0.0134090
766.943	0.0134460
767.021	0.0134489
767.099	0.0133983
767.177	0.0133205
767.255	0.0133319
767.333	0.0134739
767.412	0.0134760
767.490	0.0134076
767.568	0.0133677
767.646	0.0133273
767.724	0.0133272
767.802	0.0131241
767.880	0.0132089
767.958	0.0132563
768.037	0.0132787
768.115	0.0134428
768.193	0.0133350
768.271	0.0133909
768.349	0.0135573
768.427	0.0135002
768.505	0.0136836
768.583	0.0135516
768.662	0.0135950
768.740	0.0136492
768.818	0.0136122
768.896	0.0136118
768.974	0.0137002
769.052	0.0137339
769.130	0.0138086
769.208	0.0137591
769.287	0.0136062
769.365	0.0134931
769.443	0.0134811
769.521	0.0135925
769.599	0.0135078
769.677	0.0134933
769.755	0.0133112
769.833	0.0133124
769.912	0.0133183
769.990	0.0133460
770.068	0.0132894
770.146	0.0131443
770.224	0.0132142
770.302	0.0132320
770.380	0.0132965
770.458	0.0131161
770.537	0.0131910
770.615	0.0132932
770.693	0.0132982
770.771	0.0130848
770.849	0.0131716
770.927	0.0131284
771.005	0.0132275
771.083	0.0132471
771.162	0.0130911
771.240	0.0130246
771.318	0.0129704
771.396	0.0129679
771.474	0.0130651
771.552	0.0130225
771.630	0.0129503
771.708	0.0131033
771.787	0.0131316
771.865	0.0128988
771.943	0.0129563
772.021	0.0131110
772.099	0.0131380
772.177	0.0132765
772.255	0.0131739
772.333	0.0132316
772.412	0.0131348
772.490	0.0131683
772.568	0.0131720
772.646	0.0133504
772.724	0.0132609
772.802	0.0132244
772.880	0.0133366
772.958	0.0133298
773.037	0.0133823
773.115	0.0133410
773.193	0.0135983
773.271	0.0135828
773.349	0.0135469
773.427	0.0136996
773.505	0.0137247
773.583	0.0136718
773.662	0.0137385
773.740	0.0137103
773.818	0.0137012
773.896	0.0138290
773.974	0.0137910
774.052	0.0137727
774.130	0.0136398
774.208	0.0136454
774.287	0.0136995
774.365	0.0136983
774.443	0.0136623
774.521	0.0136535
774.599	0.0137028
774.677	0.0135476
774.755	0.0136404
774.833	0.0135527
774.912	0.0133834
774.990	0.0133833
775.068	0.0135715
775.146	0.0134650
775.224	0.0133515
775.302	0.0131071
775.380	0.0130898
775.458	0.0129962
775.537	0.0130663
775.615	0.0129917
775.693	0.0131053
775.771	0.0130892
775.849	0.0129602
775.927	0.0128077
776.005	0.0127999
776.083	0.0129118
776.162	0.0128011
776.240	0.0128072
776.318	0.0129890
776.396	0.0129240
776.474	0.0128648
776.552	0.0129597
776.630	0.0131889
776.708	0.0132367
776.787	0.0132401
776.865	0.0132903
776.943	0.0134138
777.021	0.0136053
777.099	0.0136996
777.177	0.0136989
777.255	0.0138366
777.333	0.0138752
777.412	0.0139758
777.490	0.0139172
777.568	0.0137708
777.646	0.0139847
777.724	0.0138597
777.802	0.0137382
777.880	0.0137463
777.958	0.0136716
778.037	0.0134688
778.115	0.0135126
778.193	0.0132830
778.271	0.0133071
778.349	0.0131844
778.427	0.0131956
778.505	0.0129220
778.583	0.0129961
778.662	0.0128760
778.740	0.0127458
778.818	0.0127328
778.896	0.0127946
778.974	0.0126847
779.052	0.0127043
779.130	0.0127081
779.208	0.0126855
779.287	0.0127497
779.365	0.0127230
779.443	0.0129407
779.521	0.0130213
779.599	0.0131445
779.677	0.0131897
779.755	0.0132845
779.833	0.0133566
779.912	0.0133025
779.990	0.0135069
780.068	0.0134669
780.146	0.0136143
780.224	0.0135088
780.302	0.0137828
780.380	0.0137414
780.458	0.0137897
780.537	0.0136780
780.615	0.0137675
780.693	0.0138090
780.771	0.0139429
780.849	0.0138110
780.927	0.0136577
781.005	0.0137059
781.083	0.0136021
781.162	0.0136511
781.240	0.0137044
781.318	0.0136742
781.396	0.0136552
781.474	0.0136107
781.552	0.0136475
781.630	0.0135004
781.708	0.0134466
781.787	0.0133951
781.865	0.0133540
781.943	0.0132929
782.021	0.0131982
782.099	0.0131792
782.177	0.0132210
782.255	0.0131837
782.333	0.0131382
782.412	0.0131042
782.490	0.0131422
782.568	0.0132067
782.646	0.0130833
782.724	0.0130970
782.802	0.0131587
782.880	0.0130315
782.958	0.0131218
783.037	0.0131151
783.115	0.0132410
783.193	0.0130547
783.271	0.0131768
783.349	0.0132610
783.427	0.0131271
783.505	0.0132270
783.583	0.0130636
783.662	0.0131709
783.740	0.0131345
783.818	0.0132102
783.896	0.0132328
783.974	0.0132620
784.052	0.0131821
784.130	0.0132531
784.208	0.0133252
784.287	0.0131743
784.365	0.0132552
784.443	0.0132594
784.521	0.0131560
784.599	0.0132973
784.677	0.0132851
784.755	0.0132291
784.833	0.0133859
784.912	0.0132455
784.990	0.0133345
785.068	0.0134427
785.146	0.0134107
785.224	0.0133495
785.302	0.0134169
785.380	0.0133314
785.458	0.0134789
785.537	0.0133468
785.615	0.0134763
785.693	0.0134985
785.771	0.0135896
785.849	0.0135571
785.927	0.0135622
786.005	0.0135520
786.083	0.0136514
786.162	0.0135445
786.240	0.0136571
786.318	0.0135751
786.396	0.0136005
786.474	0.0136559
786.552	0.0136279
786.630	0.0136575
786.708	0.0136095
786.787	0.0133539
786.865	0.0134324
786.943	0.0134298
787.021	0.0134657
787.099	0.0133663
787.177	0.0134456
787.255	0.0134300
787.333	0.0131781
787.412	0.0133496
787.490	0.0134908
787.568	0.0134112
787.646	0.0133202
787.724	0.0135330
787.802	0.0133897
787.880	0.0134029
787.958	0.0133546
788.037	0.0134302
788.115	0.0133941
788.193	0.0133662
788.271	0.0133496
788.349	0.0134692
788.427	0.0132729
788.505	0.0133343
788.583	0.0133281
788.662	0.0133009
788.740	0.0133374
788.818	0.0132037
788.896	0.0131451
788.974	0.0133144
789.052	0.0133054
789.130	0.0130508
789.208	0.0133906
789.287	0.0133397
789.365	0.0131928
789.443	0.0132571
789.521	0.0133286
789.599	0.0132433
789.677	0.0132502
789.755	0.0133054
789.833	0.0133918
789.912	0.0134198
789.990	0.0134888
790.068	0.0135437
790.146	0.0134978
790.224	0.0135957
790.302	0.0135132
790.380	0.0135591
790.458	0.0136570
790.537	0.0134559
790.615	0.0135590
790.693	0.0137484
790.771	0.0135297
790.849	0.0135653
790.927	0.0134853
791.005	0.0134850
791.083	0.0133356
791.162	0.0131595
791.240	0.0132681
791.318	0.0132298
791.396	0.0132316
791.474	0.0133043
791.552	0.0131817
791.630	0.0130797
791.708	0.0132525
791.787	0.0132784
791.865	0.0132004
791.943	0.0131788
792.021	0.0131563
792.099	0.0132967
792.177	0.0133985
792.255	0.0134584
792.333	0.0134133
792.412	0.0135612
792.490	0.0134473
792.568	0.0135102
792.646	0.0134873
792.724	0.0135228
792.802	0.0134943
792.880	0.0134607
792.958	0.0134918
793.037	0.0135413
793.115	0.0135746
793.193	0.0134016
793.271	0.0133843
793.349	0.0133750
793.427	0.0131947
793.505	0.0132162
793.583	0.0131112
793.662	0.0129566
793.740	0.0130929
793.818	0.0130472
793.896	0.0129050
793.974	0.0129654
794.052	0.0129946
794.130	0.0129266
794.208	0.0129972
794.287	0.0130064
794.365	0.0130988
794.443	0.0132375
794.521	0.0133467
794.599	0.0132155
794.677	0.0134476
794.755	0.0134368
794.833	0.0134446
794.912	0.0134582
794.990	0.0135857
795.068	0.0135818
795.146	0.0136354
795.224	0.0136674
795.302	0.0137725
795.380	0.0137262
795.458	0.0138116
795.537	0.0138398
795.615	0.0136373
795.693	0.0136916
795.771	0.0137658
795.849	0.0135915
795.927	0.0136748
796.005	0.0136687
796.083	0.0136718
796.162	0.0135297
796.240	0.0134567
796.318	0.0134117
796.396	0.0133538
796.474	0.0132561
796.552	0.0133244
796.630	0.0132352
796.708	0.0131601
796.787	0.0130749
796.865	0.0129771
796.943	0.0130049
797.021	0.0129493
797.099	0.0130027
797.177	0.0130196
797.255	0.0129469
797.333	0.0130219
797.412	0.0130917
797.490	0.0130898
797.568	0.0130441
797.646	0.0130994
797.724	0.0132976
797.802	0.0132603
797.880	0.0134388
797.958	0.0134528
798.037	0.0135017
798.115	0.0135993
798.193	0.0136842
798.271	0.0136434
798.349	0.0137304
798.427	0.0137890
798.505	0.0138062
798.583	0.0138959
798.662	0.0137262
798.740	0.0135609
798.818	0.0135384
798.896	0.0134944
798.974	0.0133234
799.052	0.0133816
799.130	0.0131656
799.208	0.0129610
799.287	0.0130083
799.365	0.0128506
799.443	0.0128114
799.521	0.0126231
799.599	0.0125353
799.677	0.0126667
799.755	0.0127785
799.833	0.0126543
799.912	0.0127438
799.990	0.0127138
800.068	0.0128076
800.146	0.0129985
800.224	0.0129661
800.302	0.0129542
800.380	0.0130829
800.458	0.0131908
800.537	0.0130014
800.615	0.0132745
800.693	0.0136048
800.771	0.0134315
800.849	0.0135877
800.927	0.0134145
801.005	0.0134592
801.083	0.0136005
801.162	0.0138330
801.240	0.0136577
801.318	0.0137416
801.396	0.0138360
801.474	0.0140022
801.552	0.0139769
801.630	0.0139391
801.708	0.0138346
801.787	0.0138792
801.865	0.0139131
801.943	0.0137248
802.021	0.0137211
802.099	0.0138814
802.177	0.0137691
802.255	0.0136285
802.333	0.0134980
802.412	0.0136180
802.490	0.0134790
802.568	0.0133585
802.646	0.0133337
802.724	0.0133588
802.802	0.0133614
802.880	0.0131249
802.958	0.0132371
803.037	0.0132174
803.115	0.0131166
803.193	0.0131024
803.271	0.0131460
803.349	0.0131237
803.427	0.0132076
803.505	0.0132193
803.583	0.0131870
803.662	0.0132153
803.740	0.0132178
803.818	0.0131773
803.896	0.0133132
803.974	0.0130562
804.052	0.0130920
804.130	0.0131708
804.208	0.0132869
804.287	0.0132646
804.365	0.0130938
804.443	0.0129140
804.521	0.0130123
804.599	0.0130485
804.677	0.0129664
804.755	0.0130723
804.833	0.0128468
804.912	0.0129348
804.990	0.0130875
805.068	0.0130193
805.146	0.0129058
805.224	0.0129400
805.302	0.0131131
805.380	0.0132147
805.458	0.0131689
805.537	0.0131223
805.615	0.0134293
805.693	0.0132902
805.771	0.0133768
805.849	0.0134766
805.927	0.0135117
806.005	0.0137161
806.083	0.0135680
806.162	0.0137261
806.240	0.0137865
806.318	0.0139081
806.396	0.0139552
806.474	0.0139626
806.552	0.0137273
806.630	0.0138666
806.708	0.0138452
806.787	0.0139303
806.865	0.0138960
806.943	0.0139060
807.021	0.0139009
807.099	0.0138602
807.177	0.0138364
807.255	0.0135859
807.333	0.0134624
807.412	0.0134645
807.490	0.0135970
807.568	0.0136949
807.646	0.0134999
807.724	0.0133371
807.802	0.0133355
807.880	0.0132444
807.958	0.0131863
808.037	0.0132644
808.115	0.0131681
808.193	0.0130592
808.271	0.0131396
808.349	0.0131359
808.427	0.0131762
808.505	0.0130838
808.583	0.0132153
808.662	0.0129598
808.740	0.0130697
808.818	0.0130070
808.896	0.0130639
808.974	0.0130086
809.052	0.0128857
809.130	0.0128177
809.208	0.0129140
809.287	0.0129225
809.365	0.0128795
809.443	0.0130450
809.521	0.0129422
809.599	0.0129033
809.677	0.0128880
809.755	0.0129446
809.833	0.0129205
809.912	0.0129439
809.990	0.0132104
810.068	0.0132182
810.146	0.0132181
810.224	0.0133057
810.302	0.0133102
810.380	0.0133473
810.458	0.0134460
810.537	0.0135876
810.615	0.0134409
810.693	0.0135375
810.771	0.0136678
810.849	0.0136627
810.927	0.0136893
811.005	0.0136875
811.083	0.0138107
811.162	0.0137618
811.240	0.0136541
811.318	0.0136325
811.396	0.0136415
811.474	0.0136600
811.552	0.0135807
811.630	0.0136437
811.708	0.0137451
811.787	0.0136350
811.865	0.0136243
811.943	0.0137249
812.021	0.0135366
812.099	0.0136566
812.177	0.0135976
812.255	0.0136961
812.333	0.0136285
812.412	0.0134598
812.490	0.0134627
812.568	0.0133681
812.646	0.0131739
812.724	0.0133089
812.802	0.0132858
812.880	0.0131776
812.958	0.0131357
813.037	0.0129639
813.115	0.0131005
813.193	0.0130499
813.271	0.0130865
813.349	0.0130605
813.427	0.0130052
813.505	0.0129529
813.583	0.0131424
813.662	0.0130455
813.740	0.0132446
813.818	0.0131743
813.896	0.0131187
813.974	0.0131833
814.052	0.0133004
814.130	0.0133791
814.208	0.0132714
814.287	0.0133639
814.365	0.0133857
814.443	0.0135123
814.521	0.0133473
814.599	0.0133498
814.677	0.0132939
814.755	0.0132507
814.833	0.0131764
814.912	0.0132894
814.990	0.0132687
815.068	0.0132290
815.146	0.0131580
815.224	0.0129997
815.302	0.0131033
815.380	0.0132385
815.458	0.0132055
815.537	0.0133106
815.615	0.0132240
815.693	0.0131294
815.771	0.0131682
815.849	0.0133586
815.927	0.0133870
816.005	0.0131903
816.083	0.0132194
816.162	0.0132964
816.240	0.0133074
816.318	0.0134093
816.396	0.0134466
816.474	0.0134238
816.552	0.0133327
816.630	0.0133370
816.708	0.0134022
816.787	0.0135099
816.865	0.0136252
816.943	0.0136349
817.021	0.0136482
817.099	0.0136881
817.177	0.0137437
817.255	0.0137315
817.333	0.0137524
817.412	0.0137650
817.490	0.0137103
817.568	0.0136795
817.646	0.0137885
817.724	0.0135962
817.802	0.0134907
817.880	0.0134575
817.958	0.0134534
818.037	0.0133575
818.115	0.0133202
818.193	0.0131580
818.271	0.0131499
818.349	0.0131768
818.427	0.0130863
818.505	0.0131232
818.583	0.0131209
818.662	0.0129471
818.740	0.0128668
818.818	0.0130827
818.896	0.0131172
818.974	0.0131509
819.052	0.0131458
819.130	0.0132758
819.208	0.0131733
819.287	0.0129836
819.365	0.0131287
819.443	0.0130798
819.521	0.0131654
819.599	0.0133242
819.677	0.0132293
819.755	0.0131562
819.833	0.0132565
819.912	0.0133186
819.990	0.0133225
820.068	0.0132611
820.146	0.0131625
820.224	0.0132002
820.302	0.0131542
820.380	0.0131903
820.458	0.0132464
820.537	0.0132348
820.615	0.0131885
820.693	0.0133292
820.771	0.0133611
820.849	0.0133071
820.927	0.0132664
821.005	0.0133771
821.083	0.0134010
821.162	0.0134095
821.240	0.0134843
821.318	0.0134383
821.396	0.0133847
821.474	0.0133595
821.552	0.0132967
821.630	0.0132854
821.708	0.0132545
821.787	0.0133291
821.865	0.0132748
821.943	0.0132716
822.021	0.0132619
822.099	0.0132310
822.177	0.0133168
822.255	0.0134192
822.333	0.0133221
822.412	0.0131883
822.490	0.0132650
822.568	0.0133328
822.646	0.0135720
822.724	0.0135208
822.802	0.0134698
822.880	0.0134750
822.958	0.0133838
823.037	0.0135058
823.115	0.0134470
823.193	0.0134258
823.271	0.0135458
823.349	0.0135133
823.427	0.0135526
823.505	0.0134303
823.583	0.0135136
823.662	0.0135710
823.740	0.0133232
823.818	0.0133048
823.896	0.0132873
823.974	0.0133843
824.052	0.0133782
824.130	0.0133333
824.208	0.0132845
824.287	0.0133366
824.365	0.0132565
824.443	0.0132951
824.521	0.0133572
824.599	0.0131807
824.677	0.0131719
824.755	0.0132293
824.833	0.0131658
824.912	0.0132404
824.990	0.0132046
825.068	0.0131063
825.146	0.0131417
825.224	0.0131412
825.302	0.0130025
825.380	0.0131506
825.458	0.0130502
825.537	0.0131408
825.615	0.0131116
825.693	0.0130671
825.771	0.0131158
825.849	0.0131316
825.927	0.0131612
826.005	0.0132645
826.083	0.0132236
826.162	0.0132726
826.240	0.0133126
826.318	0.0132047
826.396	0.0132445
826.474	0.0132507
826.552	0.0133340
826.630	0.0133498
826.708	0.0133092
826.787	0.0132652
826.865	0.0131143
826.943	0.0132964
827.021	0.0131618
827.099	0.0131242
827.177	0.0133553
827.255	0.0132993
827.333	0.0132771
827.412	0.0131585
827.490	0.0131519
827.568	0.0132839
827.646	0.0132435
827.724	0.0133129
827.802	0.0133213
827.880	0.0133718
827.958	0.0134451
828.037	0.0134705
828.115	0.0135081
828.193	0.0135523
828.271	0.0135682
828.349	0.0133798
828.427	0.0134728
828.505	0.0135947
828.583	0.0136416
828.662	0.0134138
828.740	0.0135217
828.818	0.0134628
828.896	0.0134104
828.974	0.0134496
829.052	0.0134525
829.130	0.0133781
829.208	0.0133118
829.287	0.0134301
829.365	0.0134852
829.443	0.0134096
829.521	0.0133724
829.599	0.0132899
829.677	0.0132756
829.755	0.0132834
829.833	0.0132064
829.912	0.0134066
829.990	0.0134032
830.068	0.0132878
830.146	0.0132737
830.224	0.0132848
830.302	0.0134103
830.380	0.0133597
830.458	0.0132438
830.537	0.0134467
830.615	0.0133803
830.693	0.0132328
830.771	0.0132910
830.849	0.0132642
830.927	0.0132745
831.005	0.0132385
831.083	0.0133106
831.162	0.0133160
831.240	0.0132772
831.318	0.0132500
831.396	0.0133028
831.474	0.0133933
831.552	0.0132854
831.630	0.0132471
831.708	0.0132646
831.787	0.0133414
831.865	0.0133287
831.943	0.0133738
832.021	0.0134402
832.099	0.0134286
832.177	0.0134385
832.255	0.0133809
832.333	0.0133621
832.412	0.0131781
832.490	0.0132883
832.568	0.0133385
832.646	0.0131315
832.724	0.0131992
832.802	0.0132793
832.880	0.0132458
832.958	0.0134526
833.037	0.0132648
833.115	0.0133906
833.193	0.0131019
833.271	0.0131739
833.349	0.0132379
833.427	0.0132064
833.505	0.0130887
833.583	0.0130505
833.662	0.0130871
833.740	0.0130383
833.818	0.0131738
833.896	0.0132217
833.974	0.0131928
834.052	0.0132754
834.130	0.0133383
834.208	0.0132011
834.287	0.0131779
834.365	0.0132641
834.443	0.0133622
834.521	0.0133427
834.599	0.0133342
834.677	0.0133247
834.755	0.0134502
834.833	0.0134890
834.912	0.0135006
834.990	0.0134392
835.068	0.0134430
835.146	0.0134386
835.224	0.0134495
835.302	0.0136471
835.380	0.0136311
835.458	0.0135191
835.537	0.0136098
835.615	0.0136436
835.693	0.0135052
835.771	0.0136100
835.849	0.0134363
835.927	0.0135535
836.005	0.0133453
836.083	0.0133636
836.162	0.0134174
836.240	0.0135162
836.318	0.0134317
836.396	0.0133055
836.474	0.0134452
836.552	0.0134870
836.630	0.0133530
836.708	0.0133897
836.787	0.0133815
836.865	0.0133730
836.943	0.0133261
837.021	0.0133609
837.099	0.0133306
837.177	0.0132684
837.255	0.0133755
837.333	0.0133578
837.412	0.0132821
837.490	0.0133324
837.568	0.0133712
837.646	0.0131263
837.724	0.0130569
837.802	0.0131255
837.880	0.0132784
837.958	0.0132565
838.037	0.0131139
838.115	0.0130637
838.193	0.0132626
838.271	0.0132628
838.349	0.0132300
838.427	0.0132505
838.505	0.0133604
838.583	0.0134207
838.662	0.0133493
838.740	0.0133363
838.818	0.0135263
838.896	0.0134975
838.974	0.0134927
839.052	0.0133520
839.130	0.0133685
839.208	0.0135004
839.287	0.0134910
839.365	0.0134583
839.443	0.0133906
839.521	0.0132466
839.599	0.0131989
839.677	0.0132427
839.755	0.0132001
839.833	0.0132713
839.912	0.0131149
839.990	0.0130789
840.068	0.0130720
840.146	0.0130402
840.224	0.0131248
840.302	0.0129765
840.380	0.0130090
840.458	0.0131696
840.537	0.0131284
840.615	0.0131123
840.693	0.0132339
840.771	0.0133310
840.849	0.0132500
840.927	0.0133791
841.005	0.0135192
841.083	0.0133725
841.162	0.0134215
841.240	0.0134931
841.318	0.0134398
841.396	0.0135480
841.474	0.0135477
841.552	0.0134442
841.630	0.0135679
841.708	0.0136080
841.787	0.0134444
841.865	0.0134901
841.943	0.0134544
842.021	0.0134329
842.099	0.0133919
842.177	0.0134312
842.255	0.0134199
842.333	0.0134938
842.412	0.0134203
842.490	0.0132814
842.568	0.0134140
842.646	0.0134617
842.724	0.0134849
842.802	0.0133958
842.880	0.0132222
842.958	0.0134338
843.037	0.0133642
843.115	0.0133487
843.193	0.0133350
843.271	0.0132796
843.349	0.0133385
843.427	0.0133126
843.505	0.0131703
843.583	0.0134661
843.662	0.0134609
843.740	0.0131889
843.818	0.0131663
843.896	0.0132522
843.974	0.0133582
844.052	0.0131748
844.130	0.0131957
844.208	0.0131326
844.287	0.0131141
844.365	0.0132071
844.443	0.0130628
844.521	0.0130704
844.599	0.0130688
844.677	0.0130785
844.755	0.0130833
844.833	0.0130579
844.912	0.0130522
844.990	0.0131857
845.068	0.0130767
845.146	0.0131120
845.224	0.0131487
845.302	0.0131414
845.380	0.0132238
845.458	0.0132398
845.537	0.0131419
845.615	0.0132431
845.693	0.0133736
845.771	0.0132873
845.849	0.0133029
845.927	0.0131921
846.005	0.0132877
846.083	0.0132101
846.162	0.0133016
846.240	0.0132151
846.318	0.0132900
846.396	0.0133582
846.474	0.0132420
846.552	0.0135328
846.630	0.0134118
846.708	0.0134799
846.787	0.0133241
846.865	0.0133939
846.943	0.0133149
847.021	0.0134647
847.099	0.0135226
847.177	0.0133289
847.255	0.0134070
847.333	0.0135574
847.412	0.0135452
847.490	0.0135831
847.568	0.0134724
847.646	0.0135502
847.724	0.0136028
847.802	0.0136474
847.880	0.0136308
847.958	0.0135196
848.037	0.0136783
848.115	0.0136889
848.193	0.0135712
848.271	0.0135597
848.349	0.0135784
848.427	0.0134203
848.505	0.0134270
848.583	0.0133997
848.662	0.0133334
848.740	0.0135262
848.818	0.0134001
848.896	0.0132865
848.974	0.0132838
849.052	0.0132125
849.130	0.0131776
849.208	0.0130707
849.287	0.0131458
849.365	0.0129519
849.443	0.0131758
849.521	0.0131985
849.599	0.0129588
849.677	0.0130484
849.755	0.0130798
849.833	0.0131233
849.912	0.0130426
849.990	0.0130724
850.068	0.0130593
850.146	0.0129864
850.224	0.0130832
850.302	0.0131142
850.380	0.0133035
850.458	0.0130867
850.537	0.0132523
850.615	0.0132096
850.693	0.0133372
850.771	0.0132220
850.849	0.0134628
850.927	0.0134788
851.005	0.0132851
851.083	0.0135401
851.162	0.0134953
851.240	0.0134698
851.318	0.0134473
851.396	0.0134631
851.474	0.0135854
851.552	0.0135053
851.630	0.0134360
851.708	0.0135908
851.787	0.0136062
851.865	0.0133385
851.943	0.0134325
852.021	0.0134929
852.099	0.0133323
852.177	0.0134039
852.255	0.0134888
852.333	0.0134834
852.412	0.0132716
852.490	0.0134515
852.568	0.0134756
852.646	0.0134912
852.724	0.0134106
852.802	0.0134279
852.880	0.0134087
852.958	0.0134816
853.037	0.0134895
853.115	0.0133836
853.193	0.0135146
853.271	0.0134257
853.349	0.0134100
853.427	0.0133382
853.505	0.0135358
853.583	0.0132914
853.662	0.0132920
853.740	0.0132731
853.818	0.0133311
853.896	0.0132898
853.974	0.0132510
854.052	0.0132653
854.130	0.0132181
854.208	0.0130975
854.287	0.0131457
854.365	0.0130965
854.443	0.0132285
854.521	0.0130215
854.599	0.0131992
854.677	0.0130565
854.755	0.0130478
854.833	0.0130222
854.912	0.0131062
854.990	0.0130092
855.068	0.0132248
855.146	0.0130772
855.224	0.0130415
855.302	0.0132073
855.380	0.0130847
855.458	0.0131234
855.537	0.0131886
855.615	0.0132874
855.693	0.0133694
855.771	0.0132971
855.849	0.0132683
855.927	0.0134393
856.005	0.0134811
856.083	0.0133679
856.162	0.0133431
856.240	0.0133979
856.318	0.0133995
856.396	0.0135549
856.474	0.0135389
856.552	0.0135825
856.630	0.0135905
856.708	0.0134092
856.787	0.0135255
856.865	0.0134544
856.943	0.0134037
857.021	0.0134998
857.099	0.0133524
857.177	0.0133575
857.255	0.0132829
857.333	0.0133791
857.412	0.0132896
857.490	0.0132681
857.568	0.0131954
857.646	0.0132271
857.724	0.0131904
857.802	0.0133587
857.880	0.0133315
857.958	0.0131976
858.037	0.0132652
858.115	0.0132128
858.193	0.0132218
858.271	0.0133104
858.349	0.0133375
858.427	0.0132478
858.505	0.0134545
858.583	0.0133514
858.662	0.0132826
858.740	0.0134149
858.818	0.0133448
858.896	0.0135477
858.974	0.0135265
859.052	0.0136169
859.130	0.0135215
859.208	0.0135004
859.287	0.0136132
859.365	0.0134669
859.443	0.0134880
859.521	0.0134985
859.599	0.0134528
859.677	0.0134696
859.755	0.0135476
859.833	0.0134760
859.912	0.0135024
859.990	0.0133599
860.068	0.0133157
860.146	0.0133472
860.224	0.0133706
860.302	0.0133365
860.380	0.0132467
860.458	0.0132719
860.537	0.0132017
860.615	0.0132673
860.693	0.0131898
860.771	0.0131985
860.849	0.0133604
860.927	0.0132584
861.005	0.0132766
861.083	0.0132337
861.162	0.0131631
861.240	0.0133225
861.318	0.0133433
861.396	0.0131804
861.474	0.0133795
861.552	0.0132903
861.630	0.0134318
861.708	0.0134354
861.787	0.0131528
861.865	0.0133070
861.943	0.0134287
862.021	0.0132890
862.099	0.0132212
862.177	0.0132245
862.255	0.0133047
862.333	0.0133308
862.412	0.0132208
862.490	0.0131696
862.568	0.0131748
862.646	0.0130761
862.724	0.0131794
862.802	0.0134103
862.880	0.0133232
862.958	0.0131678
863.037	0.0133468
863.115	0.0132065
863.193	0.0132341
863.271	0.0132921
863.349	0.0134192
863.427	0.0134737
863.505	0.0134755
863.583	0.0134475
863.662	0.0133768
863.740	0.0135151
863.818	0.0135190
863.896	0.0136497
863.974	0.0136418
864.052	0.0135525
864.130	0.0134403
864.208	0.0134484
864.287	0.0134240
864.365	0.0134003
864.443	0.0134414
864.521	0.0132984
864.599	0.0133252
864.677	0.0134023
864.755	0.0133248
864.833	0.0134572
864.912	0.0133422
864.990	0.0134026
865.068	0.0133257
865.146	0.0133940
865.224	0.0133719
865.302	0.0133643
865.380	0.0132603
865.458	0.0134919
865.537	0.0133537
865.615	0.0133596
865.693	0.0132841
865.771	0.0130990
865.849	0.0130880
865.927	0.0132262
866.005	0.0131522
866.083	0.0131364
866.162	0.0133204
866.240	0.0132852
866.318	0.0131711
866.396	0.0133939
866.474	0.0133366
866.552	0.0133243
866.630	0.0132772
866.708	0.0133794
866.787	0.0134090
866.865	0.0133159
866.943	0.0132214
867.021	0.0132683
867.099	0.0133038
867.177	0.0132498
867.255	0.0132272
867.333	0.0132249
867.412	0.0131230
867.490	0.0130424
867.568	0.0132279
867.646	0.0131205
867.724	0.0131101
867.802	0.0130928
867.880	0.0131570
867.958	0.0132487
868.037	0.0132113
868.115	0.0132954
868.193	0.0132130
868.271	0.0133554
868.349	0.0133913
868.427	0.0133583
868.505	0.0133186
868.583	0.0135066
868.662	0.0134639
868.740	0.0134908
868.818	0.0134521
868.896	0.0135344
868.974	0.0137295
869.052	0.0135864
869.130	0.0136681
869.208	0.0135921
869.287	0.0136775
869.365	0.0136247
869.443	0.0135484
869.521	0.0135674
869.599	0.0135449
869.677	0.0136810
869.755	0.0137133
869.833	0.0133866
869.912	0.0134125
869.990	0.0132368
870.068	0.0132756
870.146	0.0130676
870.224	0.0129250
870.302	0.0130951
870.380	0.0129730
870.458	0.0129101
870.537	0.0128533
870.615	0.0128115
870.693	0.0127891
870.771	0.0128560
870.849	0.0128831
870.927	0.0127615
871.005	0.0129018
871.083	0.0131432
871.162	0.0130915
871.240	0.0130776
871.318	0.0133344
871.396	0.0133797
871.474	0.0135196
871.552	0.0136304
871.630	0.0137410
871.708	0.0137396
871.787	0.0139413
871.865	0.0139083
871.943	0.0137457
872.021	0.0138952
872.099	0.0139919
872.177	0.0140456
872.255	0.0137624
872.333	0.0137082
872.412	0.0137626
872.490	0.0138226
872.568	0.0136217
872.646	0.0135757
872.724	0.0135063
872.802	0.0133596
872.880	0.0134946
872.958	0.0132667
873.037	0.0131649
873.115	0.0131439
873.193	0.0130621
873.271	0.0129968
873.349	0.0129508
873.427	0.0129266
873.505	0.0129140
873.583	0.0127363
873.662	0.0127646
873.740	0.0127531
873.818	0.0127411
873.896	0.0128696
873.974	0.0129136
874.052	0.0129156
874.130	0.0129073
874.208	0.0129868
874.287	0.0130552
874.365	0.0130875
874.443	0.0130328
874.521	0.0132015
874.599	0.0133659
874.677	0.0133141
874.755	0.0133833
874.833	0.0134400
874.912	0.0135147
874.990	0.0136784
875.068	0.0136426
875.146	0.0139048
875.224	0.0137910
875.302	0.0139116
875.380	0.0138860
875.458	0.0136552
875.537	0.0137711
875.615	0.0136582
875.693	0.0136483
875.771	0.0137276
875.849	0.0134971
875.927	0.0135110
876.005	0.0135710
876.083	0.0133931
876.162	0.0133554
876.240	0.0134077
876.318	0.0133504
876.396	0.0132351
876.474	0.0133242
876.552	0.0133930
876.630	0.0131265
876.708	0.0130440
876.787	0.0130662
876.865	0.0131229
876.943	0.0131404
877.021	0.0132908
877.099	0.0132212
877.177	0.0133844
877.255	0.0134200
877.333	0.0134386
877.412	0.0134589
877.490	0.0132876
877.568	0.0132181
877.646	0.0132580
877.724	0.0132664
877.802	0.0132693
877.880	0.0132941
877.958	0.0132255
878.037	0.0131763
878.115	0.0132253
878.193	0.0132131
878.271	0.0132576
878.349	0.0132812
878.427	0.0133343
878.505	0.0132527
878.583	0.0132114
878.662	0.0130992
878.740	0.0131096
878.818	0.0132137
878.896	0.0130972
878.974	0.0131696
879.052	0.0131824
879.130	0.0129752
879.208	0.0130390
879.287	0.0131661
879.365	0.0131499
879.443	0.0132169
879.521	0.0132030
879.599	0.0133927
879.677	0.0135069
879.755	0.0134486
879.833	0.0134548
879.912	0.0137314
879.990	0.0135536
880.068	0.0136508
880.146	0.0137949
880.224	0.0137109
880.302	0.0136695
880.380	0.0136263
880.458	0.0136417
880.537	0.0137276
880.615	0.0134881
880.693	0.0134583
880.771	0.0134524
880.849	0.0134451
880.927	0.0133837
881.005	0.0135764
881.083	0.0134858
881.162	0.0134725
881.240	0.0132315
881.318	0.0132948
881.396	0.0133807
881.474	0.0133417
881.552	0.0133152
881.630	0.0131272
881.708	0.0132648
881.787	0.0132483
881.865	0.0131853
881.943	0.0132174
882.021	0.0132388
882.099	0.0131651
882.177	0.0132490
882.255	0.0132961
882.333	0.0133179
882.412	0.0135107
882.490	0.0134299
882.568	0.0134115
882.646	0.0133163
882.724	0.0135165
882.802	0.0135333
882.880	0.0135368
882.958	0.0134895
883.037	0.0135431
883.115	0.0135152
883.193	0.0135359
883.271	0.0132677
883.349	0.0132023
883.427	0.0131686
883.505	0.0130492
883.583	0.0130807
883.662	0.0131522
883.740	0.0129912
883.818	0.0129134
883.896	0.0129272
883.974	0.0128914
884.052	0.0129874
884.130	0.0128259
884.208	0.0128298
884.287	0.0129321
884.365	0.0129142
884.443	0.0131908
884.521	0.0129932
884.599	0.0129216
884.677	0.0132078
884.755	0.0133439
884.833	0.0132854
884.912	0.0134691
884.990	0.0136317
885.068	0.0136275
885.146	0.0136822
885.224	0.0137282
885.302	0.0139609
885.380	0.0140574
885.458	0.0139733
885.537	0.0139302
885.615	0.0139301
885.693	0.0139532
885.771	0.0139581
885.849	0.0137411
885.927	0.0136622
886.005	0.0135919
886.083	0.0137164
886.162	0.0135206
886.240	0.0133141
886.318	0.0133093
886.396	0.0133159
886.474	0.0131821
886.552	0.0132919
886.630	0.0130624
886.708	0.0131374
886.787	0.0130275
886.865	0.0129750
886.943	0.0130086
887.021	0.0129104
887.099	0.0129018
887.177	0.0129363
887.255	0.0128961
887.333	0.0130135
887.412	0.0129171
887.490	0.0129865
887.568	0.0130116
887.646	0.0131252
887.724	0.0131356
887.802	0.0131680
887.880	0.0134859
887.958	0.0134241
888.037	0.0132111
888.115	0.0134473
888.193	0.0134730
888.271	0.0134541
888.349	0.0135743
888.427	0.0134132
888.505	0.0133437
888.583	0.0133936
888.662	0.0132224
888.740	0.0132374
888.818	0.0131451
888.896	0.0131937
888.974	0.0131219
889.052	0.0130605
889.130	0.0131219
889.208	0.0129263
889.287	0.0129942
889.365	0.0130784
889.443	0.0132559
889.521	0.0132265
889.599	0.0131164
889.677	0.0132288
889.755	0.0133649
889.833	0.0134678
889.912	0.0134863
889.990	0.0137711
890.068	0.0138090
890.146	0.0138070
890.224	0.0138141
890.302	0.0138513
890.380	0.0137782
890.458	0.0137842
890.537	0.0138176
890.615	0.0136954
890.693	0.0137270
890.771	0.0137623
890.849	0.0138834
890.927	0.0136543
891.005	0.0133880
891.083	0.0134075
891.162	0.0135099
891.240	0.0134108
891.318	0.0133137
891.396	0.0131245
891.474	0.0131137
891.552	0.0129678
891.630	0.0129931
891.708	0.0130359
891.787	0.0128899
891.865	0.0129375
891.943	0.0129117
892.021	0.0128861
892.099	0.0127798
892.177	0.0128474
892.255	0.0128432
892.333	0.0130027
892.412	0.0129977
892.490	0.0131694
892.568	0.0129565
892.646	0.0132133
892.724	0.0132748
892.802	0.0132660
892.880	0.0132013
892.958	0.0134247
893.037	0.0136134
893.115	0.0134816
893.193	0.0135751
893.271	0.0137090
893.349	0.0138201
893.427	0.0136109
893.505	0.0138992
893.583	0.0139384
893.662	0.0138450
893.740	0.0136951
893.818	0.0135180
893.896	0.0135416
893.974	0.0135136
894.052	0.0133520
894.130	0.0131905
894.208	0.0131382
894.287	0.0128518
894.365	0.0129849
894.443	0.0129621
894.521	0.0127608
894.599	0.0126815
894.677	0.0125750
894.755	0.0126407
894.833	0.0127957
894.912	0.0127679
894.990	0.0128799
895.068	0.0128494
895.146	0.0130486
895.224	0.0131707
895.302	0.0132491
895.380	0.0132484
895.458	0.0133019
895.537	0.0135024
895.615	0.0135988
895.693	0.0135010
895.771	0.0136510
895.849	0.0136388
895.927	0.0137414
896.005	0.0138692
896.083	0.0140565
896.162	0.0139458
896.240	0.0138660
896.318	0.0139014
896.396	0.0137916
896.474	0.0138034
896.552	0.0138514
896.630	0.0138116
896.708	0.0136741
896.787	0.0135378
896.865	0.0134372
896.943	0.0134142
897.021	0.0132812
897.099	0.0131670
897.177	0.0131242
897.255	0.0131660
897.333	0.0132285
897.412	0.0130976
897.490	0.0131000
897.568	0.0130451
897.646	0.0130206
897.724	0.0130071
897.802	0.0129923
897.880	0.0131985
897.958	0.0131311
898.037	0.0132012
898.115	0.0131754
898.193	0.0131940
898.271	0.0133358
898.349	0.0132375
898.427	0.0132191
898.505	0.0132911
898.583	0.0133110
898.662	0.0135457
898.740	0.0134155
898.818	0.0135609
898.896	0.0135029
898.974	0.0134908
899.052	0.0134266
899.130	0.0136677
899.208	0.0135160
899.287	0.0133076
899.365	0.0132414
899.443	0.0132113
899.521	0.0132374
899.599	0.0130178
899.677	0.0129279
899.755	0.0129251
899.833	0.0129420
899.912	0.0129594
899.990	0.0127991
900.068	0.0130858
900.146	0.0129132
900.224	0.0131925
900.302	0.0131754
900.380	0.0132364
900.458	0.0133301
900.537	0.0135178
900.615	0.0134163
900.693	0.0136045
900.771	0.0136166
900.849	0.0137189
900.927	0.0137097
901.005	0.0137338
901.083	0.0138638
901.162	0.0138731
901.240	0.0139851
901.318	0.0138129
901.396	0.0137592
901.474	0.0137457
901.552	0.0136198
901.630	0.0137759
901.708	0.0135566
901.787	0.0134703
901.865	0.0135099
901.943	0.0133587
902.021	0.0134120
902.099	0.0132977
902.177	0.0132578
902.255	0.0133002
902.333	0.0131491
902.412	0.0130291
902.490	0.0131057
902.568	0.0130659
902.646	0.0130357
902.724	0.0131116
902.802	0.0131001
902.880	0.0130363
902.958	0.0130807
903.037	0.0130003
903.115	0.0131547
903.193	0.0131654
903.271	0.0130960
903.349	0.0130013
903.427	0.0130530
903.505	0.0131838
903.583	0.0130381
903.662	0.0131046
903.740	0.0132413
903.818	0.0133204
903.896	0.0132867
903.974	0.0132379
904.052	0.0133360
904.130	0.0134336
904.208	0.0134287
904.287	0.0133018
904.365	0.0132968
904.443	0.0133672
904.521	0.0133527
904.599	0.0134447
904.677	0.0133040
904.755	0.0133868
904.833	0.0133359
904.912	0.0130946
904.990	0.0130540
905.068	0.0129814
905.146	0.0130746
905.224	0.0130561
905.302	0.0130683
905.380	0.0130646
905.458	0.0131222
905.537	0.0133574
905.615	0.0133493
905.693	0.0134904
905.771	0.0133841
905.849	0.0135018
905.927	0.0136494
906.005	0.0137863
906.083	0.0137989
906.162	0.0137953
906.240	0.0137442
906.318	0.0136279
906.396	0.0138473
906.474	0.0137247
906.552	0.0135422
906.630	0.0135593
906.708	0.0134198
906.787	0.0134631
906.865	0.0134618
906.943	0.0132710
907.021	0.0133086
907.099	0.0132253
907.177	0.0131570
907.255	0.0132632
907.333	0.0131021
907.412	0.0131450
907.490	0.0131219
907.568	0.0131594
907.646	0.0129969
907.724	0.0130330
907.802	0.0131428
907.880	0.0131928
907.958	0.0131014
908.037	0.0131008
908.115	0.0131236
908.193	0.0131371
908.271	0.0130750
908.349	0.0132980
908.427	0.0132811
908.505	0.0131915
908.583	0.0131702
908.662	0.0132497
908.740	0.0132873
908.818	0.0133530
908.896	0.0131495
908.974	0.0130817
909.052	0.0132210
909.130	0.0132798
909.208	0.0134357
909.287	0.0133285
909.365	0.0133042
909.443	0.0132101
909.521	0.0132550
909.599	0.0133694
909.677	0.0133227
909.755	0.0132510
909.833	0.0131992
909.912	0.0133395
909.990	0.0132466
910.068	0.0132386
910.146	0.0131800
910.224	0.0131471
910.302	0.0130858
910.380	0.0132892
910.458	0.0132365
910.537	0.0130035
910.615	0.0129243
910.693	0.0131283
910.771	0.0131455
910.849	0.0131696
910.927	0.0133192
911.005	0.0133284
911.083	0.0132968
911.162	0.0132858
911.240	0.0133053
911.318	0.0134489
911.396	0.0136427
911.474	0.0135603
911.552	0.0136654
911.630	0.0134465
911.708	0.0137119
911.787	0.0138438
911.865	0.0136530
911.943	0.0136101
912.021	0.0135288
912.099	0.0137452
912.177	0.0136485
912.255	0.0136854
912.333	0.0135468
912.412	0.0135239
912.490	0.0135216
912.568	0.0135551
912.646	0.0134123
912.724	0.0134001
912.802	0.0134973
912.880	0.0134346
912.958	0.0134494
913.037	0.0133041
913.115	0.0132020
913.193	0.0132614
913.271	0.0132591
913.349	0.0131758
913.427	0.0132619
913.505	0.0130641
913.583	0.0132552
913.662	0.0131579
913.740	0.0131445
913.818	0.0132587
913.896	0.0131314
913.974	0.0131820
914.052	0.0133710
914.130	0.0132336
914.208	0.0131847
914.287	0.0132628
914.365	0.0133877
914.443	0.0131763
914.521	0.0132029
914.599	0.0134492
914.677	0.0133269
914.755	0.0132773
914.833	0.0132280
914.912	0.0133446
914.990	0.0133545
915.068	0.0134096
915.146	0.0132160
915.224	0.0132230
915.302	0.0131881
915.380	0.0132194
915.458	0.0131326
915.537	0.0132873
915.615	0.0131644
915.693	0.0131278
915.771	0.0132226
915.849	0.0131842
915.927	0.0131587
916.005	0.0133955
916.083	0.0133932
916.162	0.0132605
916.240	0.0134151
916.318	0.0133296
916.396	0.0134540
916.474	0.0136087
916.552	0.0135421
916.630	0.0135476
916.708	0.0135811
916.787	0.0134612
916.865	0.0135635
916.943	0.0135456
917.021	0.0135740
917.099	0.0134424
917.177	0.0135523
917.255	0.0134937
917.333	0.0135224
917.412	0.0135986
917.490	0.0135528
917.568	0.0134444
917.646	0.0134708
917.724	0.0135435
917.802	0.0135504
917.880	0.0136430
917.958	0.0133727
918.037	0.0134081
918.115	0.0134247
918.193	0.0134282
918.271	0.0134085
918.349	0.0134048
918.427	0.0132996
918.505	0.0132716
918.583	0.0132569
918.662	0.0131696
918.740	0.0132318
918.818	0.0131573
918.896	0.0132575
918.974	0.0131277
919.052	0.0130848
919.130	0.0130463
919.208	0.0130983
919.287	0.0131577
919.365	0.0130618
919.443	0.0131012
919.521	0.0129818
919.599	0.0129830
919.677	0.0129702
919.755	0.0129688
919.833	0.0129860
919.912	0.0131193
919.990	0.0129856
920.068	0.0130614
920.146	0.0130519
920.224	0.0130538
920.302	0.0132161
920.380	0.0132027
920.458	0.0132260
920.537	0.0132072
920.615	0.0133768
920.693	0.0133160
920.771	0.0132545
920.849	0.0132922
920.927	0.0133375
921.005	0.0134364
921.083	0.0132313
921.162	0.0133159
921.240	0.0132248
921.318	0.0133250
921.396	0.0132727
921.474	0.0132710
921.552	0.0132178
921.630	0.0132699
921.708	0.0132218
921.787	0.0132655
921.865	0.0133520
921.943	0.0131948
922.021	0.0133685
922.099	0.0133524
922.177	0.0134165
922.255	0.0134701
922.333	0.0134454
922.412	0.0133830
922.490	0.0135926
922.568	0.0134163
922.646	0.0134502
922.724	0.0134592
922.802	0.0134937
922.880	0.0134593
922.958	0.0133172
923.037	0.0133915
923.115	0.0133302
923.193	0.0134480
923.271	0.0135339
923.349	0.0135479
923.427	0.0133642
923.505	0.0133638
923.583	0.0134718
923.662	0.0134811
923.740	0.0134578
923.818	0.0133380
923.896	0.0132742
923.974	0.0132436
924.052	0.0134089
924.130	0.0134960
924.208	0.0133804
924.287	0.0132210
924.365	0.0133077
924.443	0.0132979
924.521	0.0133984
924.599	0.0133268
924.677	0.0134139
924.755	0.0133515
924.833	0.0131931
924.912	0.0132878
924.990	0.0132279
925.068	0.0132387
925.146	0.0132347
925.224	0.0134056
925.302	0.0133393
925.380	0.0131595
925.458	0.0130915
925.537	0.0131585
925.615	0.0131953
925.693	0.0130355
925.771	0.0131775
925.849	0.0130399
925.927	0.0130592
926.005	0.0131651
926.083	0.0131480
926.162	0.0132890
926.240	0.0131364
926.318	0.0129791
926.396	0.0131939
926.474	0.0131828
926.552	0.0131614
926.630	0.0131287
926.708	0.0130922
926.787	0.0133070
926.865	0.0132955
926.943	0.0132996
927.021	0.0132121
927.099	0.0132586
927.177	0.0132700
927.255	0.0133331
927.333	0.0134796
927.412	0.0136221
927.490	0.0135500
927.568	0.0134978
927.646	0.0134607
927.724	0.0136494
927.802	0.0136317
927.880	0.0136301
927.958	0.0135480
928.037	0.0136637
928.115	0.0137795
928.193	0.0136508
928.271	0.0136994
928.349	0.0136070
928.427	0.0136777
928.505	0.0135667
928.583	0.0135990
928.662	0.0135208
928.740	0.0134036
928.818	0.0134430
928.896	0.0134162
928.974	0.0133361
929.052	0.0132249
929.130	0.0133437
929.208	0.0132533
929.287	0.0132031
929.365	0.0131748
929.443	0.0132375
929.521	0.0132114
929.599	0.0131785
929.677	0.0130931
929.755	0.0131044
929.833	0.0130753
929.912	0.0132664
929.990	0.0132034
930.068	0.0130577
930.146	0.0131917
930.224	0.0132053
930.302	0.0132658
930.380	0.0132662
930.458	0.0133551
930.537	0.0131871
930.615	0.0132476
930.693	0.0133313
930.771	0.0134551
930.849	0.0132810
930.927	0.0134106
931.005	0.0134409
931.083	0.0132998
931.162	0.0132944
931.240	0.0133475
931.318	0.0133782
931.396	0.0132626
931.474	0.0132330
931.552	0.0134213
931.630	0.0134720
931.708	0.0133092
931.787	0.0131779
931.865	0.0132649
931.943	0.0134184
932.021	0.0133946
932.099	0.0133057
932.177	0.0132522
932.255	0.0134325
932.333	0.0134143
932.412	0.0133865
932.490	0.0134662
932.568	0.0134499
932.646	0.0133364
932.724	0.0133469
932.802	0.0134212
932.880	0.0135097
932.958	0.0134801
933.037	0.0134166
933.115	0.0134999
933.193	0.0135587
933.271	0.0134351
933.349	0.0135152
933.427	0.0135531
933.505	0.0136336
933.583	0.0135401
933.662	0.0135553
933.740	0.0135215
933.818	0.0135246
933.896	0.0136043
933.974	0.0135576
934.052	0.0135229
934.130	0.0135382
934.208	0.0134601
934.287	0.0135575
934.365	0.0134058
934.443	0.0134998
934.521	0.0133856
934.599	0.0135320
934.677	0.0132613
934.755	0.0133799
934.833	0.0133537
934.912	0.0133183
934.990	0.0132491
935.068	0.0132322
935.146	0.0134143
935.224	0.0134196
935.302	0.0133928
935.380	0.0134419
935.458	0.0135049
935.537	0.0134119
935.615	0.0132803
935.693	0.0133333
935.771	0.0134041
935.849	0.0133421
935.927	0.0132677
936.005	0.0134049
936.083	0.0134211
936.162	0.0132959
936.240	0.0132590
936.318	0.0132057
936.396	0.0131496
936.474	0.0133052
936.552	0.0132310
936.630	0.0131520
936.708	0.0131183
936.787	0.0132036
936.865	0.0131565
936.943	0.0132777
937.021	0.0132469
937.099	0.0132587
937.177	0.0133266
937.255	0.0132026
937.333	0.0131422
937.412	0.0133086
937.490	0.0133765
937.568	0.0132240
937.646	0.0133624
937.724	0.0133910
937.802	0.0132391
937.880	0.0133822
937.958	0.0133208
938.037	0.0134015
938.115	0.0134692
938.193	0.0134409
938.271	0.0134843
938.349	0.0135661
938.427	0.0134744
938.505	0.0135136
938.583	0.0134838
938.662	0.0135126
938.740	0.0134453
938.818	0.0134892
938.896	0.0135593
938.974	0.0134540
939.052	0.0133379
939.130	0.0135378
939.208	0.0134531
939.287	0.0133637
939.365	0.0133476
939.443	0.0134002
939.521	0.0134749
939.599	0.0134593
939.677	0.0134004
939.755	0.0133920
939.833	0.0132771
939.912	0.0132902
939.990	0.0133418
940.068	0.0134525
940.146	0.0133562
940.224	0.0133734
940.302	0.0133709
940.380	0.0134515
940.458	0.0136726
940.537	0.0135974
940.615	0.0134933
940.693	0.0135141
940.771	0.0134068
940.849	0.0136064
940.927	0.0134340
941.005	0.0133293
941.083	0.0133296
941.162	0.0133807
941.240	0.0133606
941.318	0.0132696
941.396	0.0132409
941.474	0.0132937
941.552	0.0131946
941.630	0.0130908
941.708	0.0131081
941.787	0.0131906
941.865	0.0130376
941.943	0.0130433
942.021	0.0130752
942.099	0.0130931
942.177	0.0130524
942.255	0.0130376
942.333	0.0130038
942.412	0.0128690
942.490	0.0130184
942.568	0.0131541
942.646	0.0130768
942.724	0.0131096
942.802	0.0130823
942.880	0.0131784
942.958	0.0132666
943.037	0.0131946
943.115	0.0131741
943.193	0.0133231
943.271	0.0132661
943.349	0.0132773
943.427	0.0133853
943.505	0.0133852
943.583	0.0134888
943.662	0.0136106
943.740	0.0134415
943.818	0.0134779
943.896	0.0135469
943.974	0.0135411
944.052	0.0134856
944.130	0.0134875
944.208	0.0133932
944.287	0.0133902
944.365	0.0134788
944.443	0.0134708
944.521	0.0131746
944.599	0.0132822
944.677	0.0132687
944.755	0.0132479
944.833	0.0133161
944.912	0.0133125
944.990	0.0132452
945.068	0.0132787
945.146	0.0130592
945.224	0.0132581
945.302	0.0131942
945.380	0.0131373
945.458	0.0133253
945.537	0.0130899
945.615	0.0132564
945.693	0.0133573
945.771	0.0133978
945.849	0.0134389
945.927	0.0133686
946.005	0.0134454
946.083	0.0133537
946.162	0.0135173
946.240	0.0135482
946.318	0.0134058
946.396	0.0133320
946.474	0.0134128
946.552	0.0135200
946.630	0.0134923
946.708	0.0133694
946.787	0.0134294
946.865	0.0133444
946.943	0.0132099
947.021	0.0133368
947.099	0.0131933
947.177	0.0132963
947.255	0.0133061
947.333	0.0132902
947.412	0.0132806
947.490	0.0133820
947.568	0.0131309
947.646	0.0132502
947.724	0.0132264
947.802	0.0132748
947.880	0.0133528
947.958	0.0132093
948.037	0.0131804
948.115	0.0133683
948.193	0.0133484
948.271	0.0133779
948.349	0.0133626
948.427	0.0132806
948.505	0.0133294
948.583	0.0134557
948.662	0.0133533
948.740	0.0133733
948.818	0.0135690
948.896	0.0133875
948.974	0.0136761
949.052	0.0135429
949.130	0.0136174
949.208	0.0135663
949.287	0.0134702
949.365	0.0134853
949.443	0.0135227
949.521	0.0133948
949.599	0.0133045
949.677	0.0132646
949.755	0.0133396
949.833	0.0132275
949.912	0.0130968
949.990	0.0132984
950.068	0.0132280
950.146	0.0132625
950.224	0.0133071
950.302	0.0133842
950.380	0.0133119
950.458	0.0131972
950.537	0.0132683
950.615	0.0133625
950.693	0.0133894
950.771	0.0133852
950.849	0.0133562
950.927	0.0133976
951.005	0.0133102
951.083	0.0132452
951.162	0.0133242
951.240	0.0134174
951.318	0.0134065
951.396	0.0134682
951.474	0.0133706
951.552	0.0134908
951.630	0.0133374
951.708	0.0135075
951.787	0.0135649
951.865	0.0134340
951.943	0.0134982
952.021	0.0136112
952.099	0.0134896
952.177	0.0135425
952.255	0.0135868
952.333	0.0134683
952.412	0.0134222
952.490	0.0134296
952.568	0.0134248
952.646	0.0134554
952.724	0.0135210
952.802	0.0134158
952.880	0.0136414
952.958	0.0134130
953.037	0.0134502
953.115	0.0133479
953.193	0.0134393
953.271	0.0134060
953.349	0.0134679
953.427	0.0132346
953.505	0.0133643
953.583	0.0132751
953.662	0.0134170
953.740	0.0133971
953.818	0.0133202
953.896	0.0132495
953.974	0.0133667
954.052	0.0134127
954.130	0.0133073
954.208	0.0133929
954.287	0.0134026
954.365	0.0133582
954.443	0.0133343
954.521	0.0133632
954.599	0.0132293
954.677	0.0134013
954.755	0.0133961
954.833	0.0132936
954.912	0.0133234
954.990	0.0133885
955.068	0.0132515
955.146	0.0132881
955.224	0.0133688
955.302	0.0132352
955.380	0.0132272
955.458	0.0132011
955.537	0.0132518
955.615	0.0131828
955.693	0.0132157
955.771	0.0132075
955.849	0.0133099
955.927	0.0133928
956.005	0.0133797
956.083	0.0133259
956.162	0.0134155
956.240	0.0134379
956.318	0.0133669
956.396	0.0135493
956.474	0.0135158
956.552	0.0135492
956.630	0.0135123
956.708	0.0133376
956.787	0.0133599
956.865	0.0133199
956.943	0.0133771
957.021	0.0134914
957.099	0.0133617
957.177	0.0133929
957.255	0.0133479
957.333	0.0135340
957.412	0.0135236
957.490	0.0134449
957.568	0.0134866
957.646	0.0136251
957.724	0.0132660
957.802	0.0134084
957.880	0.0133745
957.958	0.0134134
958.037	0.0135243
958.115	0.0133632
958.193	0.0133041
958.271	0.0134193
958.349	0.0132947
958.427	0.0133329
958.505	0.0133923
958.583	0.0134583
958.662	0.0132756
958.740	0.0134468
958.818	0.0134557
958.896	0.0135615
958.974	0.0133389
959.052	0.0133765
959.130	0.0133042
959.208	0.0133322
959.287	0.0134271
959.365	0.0132229
959.443	0.0132468
959.521	0.0132550
959.599	0.0133362
959.677	0.0132848
959.755	0.0132803
959.833	0.0133324
959.912	0.0131999
959.990	0.0134318
960.068	0.0134694
960.146	0.0132912
960.224	0.0132921
960.302	0.0133647
960.380	0.0132467
960.458	0.0131841
960.537	0.0133170
960.615	0.0132294
960.693	0.0132941
960.771	0.0131709
960.849	0.0131118
960.927	0.0131857
961.005	0.0132053
961.083	0.0130823
961.162	0.0130506
961.240	0.0132614
961.318	0.0133637
961.396	0.0133315
961.474	0.0132301
961.552	0.0133103
961.630	0.0133315
961.708	0.0130100
961.787	0.0131841
961.865	0.0132735
961.943	0.0133456
962.021	0.0132195
962.099	0.0130948
962.177	0.0132172
962.255	0.0131641
962.333	0.0131472
962.412	0.0133094
962.490	0.0132755
962.568	0.0133905
962.646	0.0134214
962.724	0.0133385
962.802	0.0134263
962.880	0.0133784
962.958	0.0133836
963.037	0.0134818
963.115	0.0134100
963.193	0.0133578
963.271	0.0133099
963.349	0.0133633
963.427	0.0132950
963.505	0.0134564
963.583	0.0132603
963.662	0.0133865
963.740	0.0133631
963.818	0.0133827
963.896	0.0133805
963.974	0.0134113
964.052	0.0135550
964.130	0.0134763
964.208	0.0133875
964.287	0.0132521
964.365	0.0133823
964.443	0.0132895
964.521	0.0133594
964.599	0.0133279
964.677	0.0132523
964.755	0.0131572
964.833	0.0132172
964.912	0.0131996
964.990	0.0131190
965.068	0.0132990
965.146	0.0132192
965.224	0.0131821
965.302	0.0133727
965.380	0.0133824
965.458	0.0132876
965.537	0.0134683
965.615	0.0134039
965.693	0.0134872
965.771	0.0133671
965.849	0.0134399
965.927	0.0134520
966.005	0.0134444
966.083	0.0133712
966.162	0.0133920
966.240	0.0133366
966.318	0.0133918
966.396	0.0132127
966.474	0.0133303
966.552	0.0132292
966.630	0.0132352
966.708	0.0132415
966.787	0.0132481
966.865	0.0132243
966.943	0.0132712
967.021	0.0132130
967.099	0.0132558
967.177	0.0132549
967.255	0.0132147
967.333	0.0132420
967.412	0.0131811
967.490	0.0132004
967.568	0.0132856
967.646	0.0132315
967.724	0.0133049
967.802	0.0132161
967.880	0.0131558
967.958	0.0131434
968.037	0.0133881
968.115	0.0132959
968.193	0.0132900
968.271	0.0132753
968.349	0.0133624
968.427	0.0134006
968.505	0.0134425
968.583	0.0136010
968.662	0.0135717
968.740	0.0135479
968.818	0.0137088
968.896	0.0137317
968.974	0.0135762
969.052	0.0136366
969.130	0.0136640
969.208	0.0136016
969.287	0.0136375
969.365	0.0135846
969.443	0.0136040
969.521	0.0134657
969.599	0.0134339
969.677	0.0135844
969.755	0.0135688
969.833	0.0134867
969.912	0.0134837
