05/08/2022	19:50:45	Ver.	4.1	UNKNOWN
Optical Delay	649.989667	Delta X		0.078125	Sweeps	1	Scan Rate	0/0
Coordinates	Axis 1	NaN	Axis 2	NaN	Axis 3	NaN	Axis 4	NaN	Axis 5	NaN	Axis 6	0.000000
TX Power	0.000000	RX Power	0.000000

649.990	0.0135009
650.068	0.0133120
650.146	0.0134260
650.224	0.0134722
650.302	0.0135161
650.380	0.0135414
650.458	0.0133199
650.537	0.0133993
650.615	0.0135688
650.693	0.0135445
650.771	0.0134601
650.849	0.0134582
650.927	0.0133991
651.005	0.0136086
651.083	0.0135369
651.162	0.0134937
651.240	0.0135152
651.318	0.0135022
651.396	0.0133636
651.474	0.0135832
651.552	0.0136402
651.630	0.0135268
651.708	0.0134589
651.787	0.0133604
651.865	0.0135629
651.943	0.0135406
652.021	0.0134170
652.099	0.0134283
652.177	0.0133656
652.255	0.0134120
652.333	0.0135059
652.412	0.0134051
652.490	0.0135375
652.568	0.0133527
652.646	0.0134070
652.724	0.0135040
652.802	0.0135316
652.880	0.0134007
652.958	0.0134490
653.037	0.0134689
653.115	0.0133603
653.193	0.0133727
653.271	0.0134240
653.349	0.0133204
653.427	0.0134101
653.505	0.0134001
653.583	0.0133559
653.662	0.0134018
653.740	0.0132468
653.818	0.0133466
653.896	0.0133947
653.974	0.0133386
654.052	0.0133312
654.130	0.0135000
654.208	0.0133875
654.287	0.0133566
654.365	0.0134561
654.443	0.0135271
654.521	0.0136300
654.599	0.0134625
654.677	0.0133897
654.755	0.0134163
654.833	0.0134301
654.912	0.0133594
654.990	0.0133037
655.068	0.0133875
655.146	0.0135353
655.224	0.0134485
655.302	0.0134552
655.380	0.0133988
655.458	0.0134017
655.537	0.0132841
655.615	0.0134856
655.693	0.0133948
655.771	0.0133945
655.849	0.0134477
655.927	0.0132650
656.005	0.0132556
656.083	0.0135464
656.162	0.0134216
656.240	0.0134844
656.318	0.0133958
656.396	0.0134080
656.474	0.0133319
656.552	0.0134837
656.630	0.0134570
656.708	0.0134451
656.787	0.0134489
656.865	0.0134674
656.943	0.0134364
657.021	0.0135132
657.099	0.0135278
657.177	0.0134045
657.255	0.0134879
657.333	0.0135635
657.412	0.0134168
657.490	0.0133809
657.568	0.0133171
657.646	0.0135640
657.724	0.0135359
657.802	0.0133722
657.880	0.0135094
657.958	0.0134831
658.037	0.0134045
658.115	0.0134964
658.193	0.0133642
658.271	0.0132768
658.349	0.0133420
658.427	0.0134846
658.505	0.0133675
658.583	0.0133633
658.662	0.0135378
658.740	0.0134606
658.818	0.0132578
658.896	0.0132652
658.974	0.0135660
659.052	0.0133120
659.130	0.0131688
659.208	0.0132733
659.287	0.0133849
659.365	0.0134270
659.443	0.0132434
659.521	0.0134011
659.599	0.0133946
659.677	0.0133839
659.755	0.0133025
659.833	0.0134111
659.912	0.0133414
659.990	0.0132009
660.068	0.0133298
660.146	0.0133673
660.224	0.0132869
660.302	0.0133794
660.380	0.0134322
660.458	0.0134547
660.537	0.0133975
660.615	0.0134737
660.693	0.0134544
660.771	0.0132757
660.849	0.0132795
660.927	0.0134403
661.005	0.0134142
661.083	0.0133929
661.162	0.0134034
661.240	0.0135359
661.318	0.0132933
661.396	0.0134075
661.474	0.0133472
661.552	0.0134732
661.630	0.0133786
661.708	0.0134091
661.787	0.0133298
661.865	0.0133873
661.943	0.0134391
662.021	0.0134411
662.099	0.0133754
662.177	0.0132506
662.255	0.0134407
662.333	0.0135014
662.412	0.0134901
662.490	0.0133305
662.568	0.0133279
662.646	0.0134071
662.724	0.0135329
662.802	0.0133386
662.880	0.0134229
662.958	0.0134566
663.037	0.0135022
663.115	0.0133589
663.193	0.0134760
663.271	0.0134728
663.349	0.0134100
663.427	0.0133862
663.505	0.0133625
663.583	0.0133065
663.662	0.0134305
663.740	0.0133554
663.818	0.0133942
663.896	0.0132722
663.974	0.0133607
664.052	0.0133905
664.130	0.0133940
664.208	0.0134602
664.287	0.0134329
664.365	0.0135293
664.443	0.0135012
664.521	0.0135204
664.599	0.0136734
664.677	0.0135835
664.755	0.0135461
664.833	0.0135279
664.912	0.0133808
664.990	0.0133875
665.068	0.0133639
665.146	0.0131324
665.224	0.0131147
665.302	0.0130318
665.380	0.0131999
665.458	0.0131548
665.537	0.0131280
665.615	0.0131453
665.693	0.0134401
665.771	0.0136102
665.849	0.0136680
665.927	0.0136739
666.005	0.0137914
666.083	0.0139028
666.162	0.0140856
666.240	0.0140643
666.318	0.0138644
666.396	0.0138954
666.474	0.0138339
666.552	0.0138069
666.630	0.0135794
666.708	0.0133616
666.787	0.0132864
666.865	0.0131159
666.943	0.0128963
667.021	0.0127886
667.099	0.0127245
667.177	0.0127236
667.255	0.0127787
667.333	0.0129188
667.412	0.0129582
667.490	0.0130267
667.568	0.0132739
667.646	0.0135562
667.724	0.0137244
667.802	0.0137813
667.880	0.0139320
667.958	0.0141178
668.037	0.0140764
668.115	0.0139967
668.193	0.0138927
668.271	0.0137420
668.349	0.0136559
668.427	0.0133656
668.505	0.0133591
668.583	0.0132537
668.662	0.0132756
668.740	0.0133183
668.818	0.0134759
668.896	0.0133963
668.974	0.0136530
669.052	0.0138551
669.130	0.0139873
669.208	0.0139725
669.287	0.0140862
669.365	0.0139270
669.443	0.0136396
669.521	0.0135003
669.599	0.0132074
669.677	0.0128443
669.755	0.0125913
669.833	0.0124922
669.912	0.0123945
669.990	0.0121052
670.068	0.0122852
670.146	0.0123653
670.224	0.0125533
670.302	0.0127489
670.380	0.0133488
670.458	0.0136155
670.537	0.0137740
670.615	0.0141940
670.693	0.0143789
670.771	0.0144749
670.849	0.0144687
670.927	0.0143697
671.005	0.0142922
671.083	0.0138189
671.162	0.0135351
671.240	0.0132735
671.318	0.0130057
671.396	0.0128482
671.474	0.0129174
671.552	0.0129766
671.630	0.0130327
671.708	0.0132967
671.787	0.0139058
671.865	0.0143748
671.943	0.0145160
672.021	0.0147960
672.099	0.0150817
672.177	0.0151249
672.255	0.0148088
672.333	0.0147848
672.412	0.0143487
672.490	0.0139816
672.568	0.0136838
672.646	0.0132346
672.724	0.0127503
672.802	0.0124177
672.880	0.0121176
672.958	0.0119740
673.037	0.0118799
673.115	0.0117119
673.193	0.0119006
673.271	0.0118977
673.349	0.0118510
673.427	0.0119646
673.505	0.0121107
673.583	0.0122890
673.662	0.0124691
673.740	0.0126034
673.818	0.0127417
673.896	0.0130807
673.974	0.0132782
674.052	0.0134819
674.130	0.0135368
674.208	0.0137986
674.287	0.0141236
674.365	0.0142455
674.443	0.0143929
674.521	0.0146011
674.599	0.0147034
674.677	0.0147008
674.755	0.0147367
674.833	0.0147845
674.912	0.0146930
674.990	0.0147883
675.068	0.0146699
675.146	0.0148761
675.224	0.0147885
675.302	0.0150736
675.380	0.0150776
675.458	0.0151781
675.537	0.0151693
675.615	0.0152174
675.693	0.0150569
675.771	0.0146717
675.849	0.0143865
675.927	0.0139674
676.005	0.0134901
676.083	0.0127885
676.162	0.0122213
676.240	0.0117954
676.318	0.0113492
676.396	0.0108698
676.474	0.0105598
676.552	0.0105260
676.630	0.0104920
676.708	0.0106377
676.787	0.0109368
676.865	0.0112491
676.943	0.0115572
677.021	0.0118903
677.099	0.0122922
677.177	0.0125024
677.255	0.0127009
677.333	0.0129136
677.412	0.0127435
677.490	0.0127088
677.568	0.0125832
677.646	0.0123861
677.724	0.0124204
677.802	0.0123905
677.880	0.0124123
677.958	0.0124901
678.037	0.0127523
678.115	0.0131618
678.193	0.0136003
678.271	0.0140813
678.349	0.0147136
678.427	0.0152382
678.505	0.0159435
678.583	0.0165285
678.662	0.0171924
678.740	0.0178574
678.818	0.0184248
678.896	0.0185698
678.974	0.0187418
679.052	0.0186681
679.130	0.0183141
679.208	0.0178230
679.287	0.0172549
679.365	0.0166401
679.443	0.0158009
679.521	0.0149751
679.599	0.0143368
679.677	0.0136239
679.755	0.0129197
679.833	0.0122815
679.912	0.0117025
679.990	0.0109957
680.068	0.0103360
680.146	0.00969635
680.224	0.00908203
680.302	0.00846680
680.380	0.00800819
680.458	0.00785637
680.537	0.00721916
680.615	0.00701118
680.693	0.00704941
680.771	0.00694298
680.849	0.00725395
680.927	0.00755455
681.005	0.00816406
681.083	0.00882141
681.162	0.00960976
681.240	0.0104375
681.318	0.0115131
681.396	0.0125706
681.474	0.0138386
681.552	0.0149036
681.630	0.0157640
681.708	0.0168092
681.787	0.0174893
681.865	0.0182117
681.943	0.0189886
682.021	0.0193939
682.099	0.0195305
682.177	0.0195858
682.255	0.0196202
682.333	0.0194820
682.412	0.0190283
682.490	0.0187435
682.568	0.0181561
682.646	0.0174910
682.724	0.0170467
682.802	0.0164416
682.880	0.0159355
682.958	0.0155232
683.037	0.0150171
683.115	0.0146986
683.193	0.0142983
683.271	0.0137876
683.349	0.0134066
683.427	0.0127463
683.505	0.0124931
683.583	0.0122179
683.662	0.0117200
683.740	0.0114339
683.818	0.0109509
683.896	0.0106952
683.974	0.0102593
684.052	0.00991798
684.130	0.00954948
684.208	0.00922318
684.287	0.00875351
684.365	0.00852020
684.443	0.00848106
684.521	0.00842751
684.599	0.00829552
684.677	0.00863686
684.755	0.00878044
684.833	0.00916466
684.912	0.00965576
684.990	0.0101808
685.068	0.0106050
685.146	0.0109670
685.224	0.0116393
685.302	0.0125126
685.380	0.0129793
685.458	0.0138392
685.537	0.0143704
685.615	0.0150215
685.693	0.0157709
685.771	0.0163831
685.849	0.0168817
685.927	0.0174250
686.005	0.0177393
686.083	0.0180746
686.162	0.0181005
686.240	0.0180469
686.318	0.0180367
686.396	0.0178702
686.474	0.0175481
686.552	0.0172318
686.630	0.0168670
686.708	0.0165717
686.787	0.0162370
686.865	0.0158902
686.943	0.0154890
687.021	0.0149368
687.099	0.0148409
687.177	0.0143986
687.255	0.0136761
687.333	0.0133179
687.412	0.0128378
687.490	0.0123435
687.568	0.0120847
687.646	0.0118221
687.724	0.0114262
687.802	0.0111605
687.880	0.0111872
687.958	0.0112039
688.037	0.0110909
688.115	0.0113364
688.193	0.0117335
688.271	0.0119715
688.349	0.0123011
688.427	0.0124555
688.505	0.0124837
688.583	0.0126366
688.662	0.0126923
688.740	0.0127245
688.818	0.0125249
688.896	0.0123227
688.974	0.0121539
689.052	0.0119299
689.130	0.0115617
689.208	0.0115376
689.287	0.0114185
689.365	0.0113580
689.443	0.0112236
689.521	0.0113069
689.599	0.0113997
689.677	0.0117966
689.755	0.0120380
689.833	0.0122039
689.912	0.0123605
689.990	0.0126625
690.068	0.0129248
690.146	0.0131754
690.224	0.0135052
690.302	0.0139056
690.380	0.0142802
690.458	0.0144753
690.537	0.0150215
690.615	0.0153883
690.693	0.0156986
690.771	0.0159200
690.849	0.0161860
690.927	0.0162211
691.005	0.0163924
691.083	0.0162039
691.162	0.0161022
691.240	0.0157384
691.318	0.0152604
691.396	0.0147024
691.474	0.0142448
691.552	0.0138378
691.630	0.0134398
691.708	0.0131964
691.787	0.0131292
691.865	0.0132095
691.943	0.0133678
692.021	0.0136159
692.099	0.0137627
692.177	0.0139878
692.255	0.0140939
692.333	0.0143759
692.412	0.0144481
692.490	0.0145134
692.568	0.0143985
692.646	0.0142730
692.724	0.0140448
692.802	0.0138668
692.880	0.0134959
692.958	0.0131918
693.037	0.0130615
693.115	0.0127878
693.193	0.0125665
693.271	0.0124085
693.349	0.0122873
693.427	0.0123811
693.505	0.0122440
693.583	0.0122668
693.662	0.0122935
693.740	0.0122701
693.818	0.0122323
693.896	0.0123165
693.974	0.0125117
694.052	0.0126757
694.130	0.0129058
694.208	0.0129177
694.287	0.0129568
694.365	0.0131954
694.443	0.0132198
694.521	0.0131955
694.599	0.0130632
694.677	0.0128849
694.755	0.0125840
694.833	0.0120937
694.912	0.0118192
694.990	0.0117169
695.068	0.0114354
695.146	0.0111857
695.224	0.0112460
695.302	0.0114529
695.380	0.0115277
695.458	0.0119045
695.537	0.0122607
695.615	0.0124171
695.693	0.0129538
695.771	0.0133639
695.849	0.0133420
695.927	0.0137366
696.005	0.0139334
696.083	0.0140531
696.162	0.0140858
696.240	0.0142895
696.318	0.0144678
696.396	0.0144447
696.474	0.0147811
696.552	0.0149457
696.630	0.0152549
696.708	0.0155605
696.787	0.0157587
696.865	0.0161497
696.943	0.0164151
697.021	0.0168315
697.099	0.0169387
697.177	0.0173542
697.255	0.0175465
697.333	0.0176681
697.412	0.0177160
697.490	0.0175700
697.568	0.0172419
697.646	0.0169128
697.724	0.0164145
697.802	0.0158327
697.880	0.0151213
697.958	0.0143548
698.037	0.0135954
698.115	0.0127934
698.193	0.0118275
698.271	0.0109656
698.349	0.0101925
698.427	0.00945778
698.505	0.00885315
698.583	0.00853912
698.662	0.00813232
698.740	0.00801315
698.818	0.00822891
698.896	0.00843338
698.974	0.00885567
699.052	0.00936394
699.130	0.0100960
699.208	0.0107867
699.287	0.0113296
699.365	0.0120796
699.443	0.0127907
699.521	0.0133396
699.599	0.0139408
699.677	0.0142402
699.755	0.0146941
699.833	0.0150790
699.912	0.0152425
699.990	0.0151774
700.068	0.0152806
700.146	0.0150511
700.224	0.0147366
700.302	0.0142614
700.380	0.0139310
700.458	0.0134890
700.537	0.0130513
700.615	0.0125677
700.693	0.0121159
700.771	0.0119689
700.849	0.0117747
700.927	0.0117641
701.005	0.0119071
701.083	0.0120241
701.162	0.0122644
701.240	0.0125888
701.318	0.0129327
701.396	0.0130672
701.474	0.0136019
701.552	0.0141928
701.630	0.0143709
701.708	0.0148927
701.787	0.0152343
701.865	0.0158075
701.943	0.0160101
702.021	0.0163888
702.099	0.0166160
702.177	0.0168528
702.255	0.0173236
702.333	0.0171349
702.412	0.0171182
702.490	0.0171185
702.568	0.0168398
702.646	0.0166917
702.724	0.0162852
702.802	0.0157846
702.880	0.0152789
702.958	0.0147392
703.037	0.0143369
703.115	0.0137810
703.193	0.0132281
703.271	0.0128365
703.349	0.0122778
703.427	0.0121344
703.505	0.0119247
703.583	0.0114335
703.662	0.0112507
703.740	0.0110837
703.818	0.0110531
703.896	0.0108399
703.974	0.0106082
704.052	0.0106210
704.130	0.0105044
704.208	0.0104545
704.287	0.0105995
704.365	0.0106107
704.443	0.0107222
704.521	0.0109156
704.599	0.0109084
704.677	0.0109772
704.755	0.0111505
704.833	0.0114380
704.912	0.0116262
704.990	0.0118589
705.068	0.0120335
705.146	0.0122850
705.224	0.0128023
705.302	0.0131581
705.380	0.0136452
705.458	0.0141378
705.537	0.0145671
705.615	0.0148387
705.693	0.0153065
705.771	0.0156502
705.849	0.0158204
705.927	0.0159721
706.005	0.0159534
706.083	0.0160979
706.162	0.0157919
706.240	0.0151223
706.318	0.0148292
706.396	0.0142792
706.474	0.0138204
706.552	0.0131194
706.630	0.0127523
706.708	0.0124344
706.787	0.0120445
706.865	0.0119735
706.943	0.0120342
707.021	0.0120576
707.099	0.0121754
707.177	0.0123507
707.255	0.0127583
707.333	0.0130195
707.412	0.0132824
707.490	0.0135254
707.568	0.0139695
707.646	0.0143027
707.724	0.0143819
707.802	0.0147954
707.880	0.0150064
707.958	0.0152173
708.037	0.0153063
708.115	0.0154312
708.193	0.0154664
708.271	0.0154209
708.349	0.0154000
708.427	0.0152579
708.505	0.0150905
708.583	0.0152097
708.662	0.0151368
708.740	0.0147552
708.818	0.0146046
708.896	0.0145567
708.974	0.0143050
709.052	0.0140751
709.130	0.0138699
709.208	0.0135852
709.287	0.0133372
709.365	0.0130549
709.443	0.0127380
709.521	0.0124577
709.599	0.0121185
709.677	0.0118024
709.755	0.0113188
709.833	0.0109571
709.912	0.0107278
709.990	0.0103427
710.068	0.0101894
710.146	0.0100838
710.224	0.00979149
710.302	0.00971771
710.380	0.00995422
710.458	0.0102858
710.537	0.0106294
710.615	0.0110967
710.693	0.0115195
710.771	0.0121641
710.849	0.0126415
710.927	0.0132003
711.005	0.0136414
711.083	0.0141936
711.162	0.0146712
711.240	0.0151813
711.318	0.0154690
711.396	0.0157488
711.474	0.0160609
711.552	0.0160137
711.630	0.0160072
711.708	0.0157838
711.787	0.0156231
711.865	0.0153431
711.943	0.0149068
712.021	0.0143570
712.099	0.0136202
712.177	0.0132041
712.255	0.0127923
712.333	0.0123159
712.412	0.0118957
712.490	0.0118195
712.568	0.0116373
712.646	0.0114913
712.724	0.0116238
712.802	0.0117023
712.880	0.0118875
712.958	0.0123794
713.037	0.0124260
713.115	0.0128080
713.193	0.0131860
713.271	0.0134740
713.349	0.0136102
713.427	0.0140652
713.505	0.0143054
713.583	0.0144973
713.662	0.0147668
713.740	0.0151782
713.818	0.0153504
713.896	0.0156845
713.974	0.0157338
714.052	0.0159751
714.130	0.0161330
714.208	0.0163805
714.287	0.0163914
714.365	0.0164639
714.443	0.0165623
714.521	0.0164743
714.599	0.0162208
714.677	0.0158711
714.755	0.0153862
714.833	0.0150960
714.912	0.0146320
714.990	0.0139608
715.068	0.0135282
715.146	0.0128860
715.224	0.0123602
715.302	0.0118509
715.380	0.0115525
715.458	0.0113253
715.537	0.0108157
715.615	0.0104990
715.693	0.0103348
715.771	0.0101905
715.849	0.0100503
715.927	0.00999016
716.005	0.00997246
716.083	0.00990074
716.162	0.0100236
716.240	0.00990585
716.318	0.0101920
716.396	0.0104175
716.474	0.0107475
716.552	0.0111871
716.630	0.0113697
716.708	0.0120679
716.787	0.0124783
716.865	0.0130920
716.943	0.0136895
717.021	0.0141348
717.099	0.0146497
717.177	0.0150756
717.255	0.0154693
717.333	0.0157899
717.412	0.0159220
717.490	0.0161135
717.568	0.0161581
717.646	0.0161355
717.724	0.0159033
717.802	0.0156742
717.880	0.0153049
717.958	0.0149079
718.037	0.0143969
718.115	0.0139331
718.193	0.0133243
718.271	0.0129022
718.349	0.0125200
718.427	0.0124035
718.505	0.0121960
718.583	0.0121433
718.662	0.0120158
718.740	0.0119627
718.818	0.0123051
718.896	0.0125615
718.974	0.0129368
719.052	0.0131377
719.130	0.0134454
719.208	0.0140347
719.287	0.0143388
719.365	0.0147165
719.443	0.0148894
719.521	0.0150904
719.599	0.0152096
719.677	0.0153534
719.755	0.0152675
719.833	0.0154748
719.912	0.0153317
719.990	0.0151476
720.068	0.0151145
720.146	0.0150848
720.224	0.0148425
720.302	0.0148103
720.380	0.0145021
720.458	0.0143671
720.537	0.0143501
720.615	0.0143121
720.693	0.0140801
720.771	0.0139726
720.849	0.0136436
720.927	0.0133808
721.005	0.0132200
721.083	0.0128881
721.162	0.0125835
721.240	0.0123091
721.318	0.0121384
721.396	0.0119334
721.474	0.0116244
721.552	0.0117036
721.630	0.0115585
721.708	0.0115696
721.787	0.0115998
721.865	0.0113646
721.943	0.0114158
722.021	0.0114069
722.099	0.0113852
722.177	0.0114340
722.255	0.0114983
722.333	0.0114998
722.412	0.0116753
722.490	0.0117661
722.568	0.0121592
722.646	0.0122308
722.724	0.0125122
722.802	0.0130236
722.880	0.0133657
722.958	0.0137479
723.037	0.0141925
723.115	0.0143687
723.193	0.0145245
723.271	0.0145594
723.349	0.0146193
723.427	0.0145773
723.505	0.0142764
723.583	0.0141785
723.662	0.0137634
723.740	0.0135844
723.818	0.0132227
723.896	0.0127152
723.974	0.0126936
724.052	0.0124131
724.130	0.0123190
724.208	0.0122590
724.287	0.0123373
724.365	0.0126707
724.443	0.0128151
724.521	0.0132464
724.599	0.0137625
724.677	0.0141340
724.755	0.0146058
724.833	0.0150702
724.912	0.0153419
724.990	0.0156194
725.068	0.0159920
725.146	0.0161770
725.224	0.0162652
725.302	0.0161695
725.380	0.0161391
725.458	0.0159616
725.537	0.0158816
725.615	0.0156042
725.693	0.0152956
725.771	0.0150005
725.849	0.0146571
725.927	0.0143372
726.005	0.0139789
726.083	0.0136730
726.162	0.0133730
726.240	0.0131737
726.318	0.0127977
726.396	0.0126392
726.474	0.0124663
726.552	0.0122874
726.630	0.0123212
726.708	0.0123878
726.787	0.0123689
726.865	0.0122974
726.943	0.0124838
727.021	0.0124233
727.099	0.0124264
727.177	0.0126238
727.255	0.0125117
727.333	0.0126126
727.412	0.0123988
727.490	0.0123948
727.568	0.0121926
727.646	0.0122444
727.724	0.0121140
727.802	0.0119624
727.880	0.0119040
727.958	0.0118467
728.037	0.0117699
728.115	0.0119225
728.193	0.0120143
728.271	0.0121728
728.349	0.0125640
728.427	0.0128407
728.505	0.0129752
728.583	0.0132356
728.662	0.0133772
728.740	0.0136973
728.818	0.0139839
728.896	0.0142023
728.974	0.0140801
729.052	0.0142056
729.130	0.0142032
729.208	0.0137179
729.287	0.0136468
729.365	0.0135420
729.443	0.0132578
729.521	0.0128661
729.599	0.0127593
729.677	0.0126360
729.755	0.0125839
729.833	0.0124096
729.912	0.0124133
729.990	0.0126456
730.068	0.0129107
730.146	0.0130900
730.224	0.0132758
730.302	0.0136549
730.380	0.0140689
730.458	0.0144592
730.537	0.0148114
730.615	0.0149718
730.693	0.0152392
730.771	0.0153446
730.849	0.0155073
730.927	0.0156216
731.005	0.0153950
731.083	0.0154655
731.162	0.0153175
731.240	0.0151717
731.318	0.0148705
731.396	0.0147016
731.474	0.0143082
731.552	0.0143547
731.630	0.0142204
731.708	0.0140614
731.787	0.0138029
731.865	0.0136346
731.943	0.0136346
732.021	0.0135921
732.099	0.0134793
732.177	0.0133349
732.255	0.0133160
732.333	0.0132972
732.412	0.0131434
732.490	0.0129431
732.568	0.0129350
732.646	0.0128535
732.724	0.0127882
732.802	0.0126648
732.880	0.0124893
732.958	0.0125101
733.037	0.0124333
733.115	0.0123479
733.193	0.0122948
733.271	0.0123353
733.349	0.0123923
733.427	0.0122775
733.505	0.0124723
733.583	0.0124709
733.662	0.0124999
733.740	0.0126158
733.818	0.0128149
733.896	0.0128990
733.974	0.0128043
734.052	0.0128371
734.130	0.0130865
734.208	0.0130305
734.287	0.0131097
734.365	0.0130844
734.443	0.0132235
734.521	0.0132475
734.599	0.0133691
734.677	0.0133563
734.755	0.0133219
734.833	0.0133965
734.912	0.0133737
734.990	0.0134496
735.068	0.0133263
735.146	0.0131506
735.224	0.0131605
735.302	0.0130135
735.380	0.0128753
735.458	0.0126589
735.537	0.0126192
735.615	0.0125808
735.693	0.0125932
735.771	0.0126978
735.849	0.0129099
735.927	0.0131329
736.005	0.0133389
736.083	0.0135505
736.162	0.0137445
736.240	0.0139815
736.318	0.0144425
736.396	0.0145583
736.474	0.0147228
736.552	0.0148607
736.630	0.0149557
736.708	0.0150900
736.787	0.0150526
736.865	0.0151604
736.943	0.0150223
737.021	0.0148904
737.099	0.0146949
737.177	0.0147617
737.255	0.0146524
737.333	0.0143922
737.412	0.0142956
737.490	0.0140909
737.568	0.0140341
737.646	0.0141534
737.724	0.0140790
737.802	0.0141178
737.880	0.0139408
737.958	0.0138027
738.037	0.0138339
738.115	0.0137006
738.193	0.0137608
738.271	0.0136859
738.349	0.0134109
738.427	0.0132629
738.505	0.0132007
738.583	0.0129060
738.662	0.0129455
738.740	0.0126107
738.818	0.0125594
738.896	0.0123827
738.974	0.0120254
739.052	0.0120866
739.130	0.0120129
739.208	0.0118712
739.287	0.0119283
739.365	0.0118945
739.443	0.0119530
739.521	0.0121901
739.599	0.0123572
739.677	0.0123959
739.755	0.0125429
739.833	0.0127775
739.912	0.0128279
739.990	0.0131203
740.068	0.0131897
740.146	0.0133865
740.224	0.0135857
740.302	0.0137494
740.380	0.0138047
740.458	0.0138030
740.537	0.0139140
740.615	0.0138560
740.693	0.0139272
740.771	0.0139916
740.849	0.0137884
740.927	0.0136889
741.005	0.0137102
741.083	0.0136353
741.162	0.0133582
741.240	0.0133381
741.318	0.0133898
741.396	0.0132990
741.474	0.0131470
741.552	0.0131277
741.630	0.0132604
741.708	0.0131130
741.787	0.0131390
741.865	0.0132260
741.943	0.0133217
742.021	0.0133601
742.099	0.0135049
742.177	0.0135979
742.255	0.0136982
742.333	0.0138374
742.412	0.0139929
742.490	0.0139548
742.568	0.0140362
742.646	0.0140650
742.724	0.0140243
742.802	0.0141705
742.880	0.0138677
742.958	0.0138364
743.037	0.0136024
743.115	0.0136684
743.193	0.0135899
743.271	0.0134797
743.349	0.0135301
743.427	0.0134587
743.505	0.0135435
743.583	0.0136156
743.662	0.0136497
743.740	0.0136491
743.818	0.0137860
743.896	0.0136732
743.974	0.0137328
744.052	0.0138177
744.130	0.0137025
744.208	0.0137267
744.287	0.0135497
744.365	0.0136872
744.443	0.0135376
744.521	0.0135719
744.599	0.0135347
744.677	0.0136185
744.755	0.0134173
744.833	0.0134525
744.912	0.0134362
744.990	0.0134988
745.068	0.0133418
745.146	0.0133746
745.224	0.0133873
745.302	0.0134450
745.380	0.0133327
745.458	0.0131476
745.537	0.0131347
745.615	0.0130727
745.693	0.0129601
745.771	0.0130658
745.849	0.0131263
745.927	0.0129407
746.005	0.0129684
746.083	0.0129444
746.162	0.0130795
746.240	0.0132244
746.318	0.0131326
746.396	0.0132115
746.474	0.0132507
746.552	0.0132970
746.630	0.0133315
746.708	0.0132351
746.787	0.0131713
746.865	0.0133317
746.943	0.0132637
747.021	0.0132726
747.099	0.0131578
747.177	0.0131406
747.255	0.0132433
747.333	0.0133516
747.412	0.0131678
747.490	0.0133802
747.568	0.0134322
747.646	0.0134846
747.724	0.0136011
747.802	0.0136328
747.880	0.0137487
747.958	0.0136717
748.037	0.0136664
748.115	0.0138442
748.193	0.0137157
748.271	0.0136626
748.349	0.0135690
748.427	0.0135158
748.505	0.0135194
748.583	0.0134609
748.662	0.0135336
748.740	0.0135657
748.818	0.0135931
748.896	0.0136463
748.974	0.0136547
749.052	0.0136895
749.130	0.0136350
749.208	0.0136539
749.287	0.0138414
749.365	0.0138255
749.443	0.0139263
749.521	0.0139818
749.599	0.0139638
749.677	0.0139581
749.755	0.0139288
749.833	0.0138802
749.912	0.0138758
749.990	0.0137436
750.068	0.0137045
750.146	0.0137450
750.224	0.0136428
750.302	0.0135122
750.380	0.0134487
750.458	0.0134374
750.537	0.0134478
750.615	0.0133894
750.693	0.0132548
750.771	0.0134594
750.849	0.0135009
750.927	0.0134009
751.005	0.0134348
751.083	0.0134563
751.162	0.0136295
751.240	0.0136562
751.318	0.0135860
751.396	0.0135303
751.474	0.0135645
751.552	0.0135115
751.630	0.0134262
751.708	0.0134329
751.787	0.0131325
751.865	0.0130728
751.943	0.0132669
752.021	0.0130771
752.099	0.0129945
752.177	0.0130850
752.255	0.0130219
752.333	0.0128376
752.412	0.0127715
752.490	0.0129791
752.568	0.0130500
752.646	0.0129145
752.724	0.0130522
752.802	0.0132354
752.880	0.0132546
752.958	0.0132033
753.037	0.0131744
753.115	0.0132315
753.193	0.0132578
753.271	0.0131860
753.349	0.0134381
753.427	0.0134554
753.505	0.0133581
753.583	0.0134692
753.662	0.0133700
753.740	0.0136333
753.818	0.0135963
753.896	0.0134855
753.974	0.0135843
754.052	0.0135999
754.130	0.0136315
754.208	0.0137640
754.287	0.0137267
754.365	0.0137024
754.443	0.0137969
754.521	0.0136938
754.599	0.0136977
754.677	0.0136432
754.755	0.0135715
754.833	0.0137982
754.912	0.0135870
754.990	0.0136758
755.068	0.0136411
755.146	0.0135933
755.224	0.0135769
755.302	0.0136462
755.380	0.0136270
755.458	0.0135213
755.537	0.0135498
755.615	0.0136298
755.693	0.0134981
755.771	0.0135332
755.849	0.0134730
755.927	0.0135511
756.005	0.0134186
756.083	0.0133899
756.162	0.0133656
756.240	0.0134122
756.318	0.0134698
756.396	0.0133704
756.474	0.0133017
756.552	0.0133250
756.630	0.0131403
756.708	0.0131895
756.787	0.0131731
756.865	0.0130724
756.943	0.0132231
757.021	0.0132084
757.099	0.0132079
757.177	0.0131966
757.255	0.0132372
757.333	0.0134589
757.412	0.0133934
757.490	0.0135935
757.568	0.0132681
757.646	0.0133972
757.724	0.0136047
757.802	0.0136862
757.880	0.0135361
757.958	0.0136493
758.037	0.0136435
758.115	0.0134139
758.193	0.0137659
758.271	0.0137979
758.349	0.0136488
758.427	0.0136122
758.505	0.0137057
758.583	0.0135463
758.662	0.0134390
758.740	0.0134225
758.818	0.0133683
758.896	0.0133224
758.974	0.0132039
759.052	0.0131128
759.130	0.0130534
759.208	0.0129662
759.287	0.0129708
759.365	0.0128864
759.443	0.0128069
759.521	0.0129411
759.599	0.0128368
759.677	0.0128696
759.755	0.0129665
759.833	0.0131569
759.912	0.0130502
759.990	0.0132119
760.068	0.0133511
760.146	0.0132053
760.224	0.0135133
760.302	0.0135555
760.380	0.0134892
760.458	0.0136610
760.537	0.0138757
760.615	0.0138652
760.693	0.0138265
760.771	0.0140611
760.849	0.0140673
760.927	0.0138624
761.005	0.0138837
761.083	0.0140876
761.162	0.0140813
761.240	0.0141613
761.318	0.0139084
761.396	0.0140884
761.474	0.0139893
761.552	0.0139132
761.630	0.0139368
761.708	0.0138166
761.787	0.0137228
761.865	0.0136190
761.943	0.0135162
762.021	0.0136285
762.099	0.0135100
762.177	0.0136146
762.255	0.0135291
762.333	0.0135284
762.412	0.0133934
762.490	0.0135439
762.568	0.0134364
762.646	0.0133897
762.724	0.0134964
762.802	0.0132632
762.880	0.0131678
762.958	0.0132469
763.037	0.0131075
763.115	0.0130930
763.193	0.0130920
763.271	0.0128239
763.349	0.0129190
763.427	0.0129272
763.505	0.0129208
763.583	0.0129498
763.662	0.0129004
763.740	0.0129972
763.818	0.0130023
763.896	0.0132254
763.974	0.0133036
764.052	0.0133034
764.130	0.0134800
764.208	0.0136668
764.287	0.0137469
764.365	0.0137209
764.443	0.0139026
764.521	0.0139505
764.599	0.0139519
764.677	0.0139316
764.755	0.0139320
764.833	0.0137869
764.912	0.0137238
764.990	0.0136787
765.068	0.0136360
765.146	0.0135848
765.224	0.0134161
765.302	0.0134330
765.380	0.0133350
765.458	0.0132868
765.537	0.0131866
765.615	0.0133649
765.693	0.0133011
765.771	0.0131993
765.849	0.0132187
765.927	0.0131743
766.005	0.0133173
766.083	0.0132548
766.162	0.0133127
766.240	0.0132363
766.318	0.0132723
766.396	0.0135321
766.474	0.0134300
766.552	0.0133748
766.630	0.0136064
766.708	0.0137199
766.787	0.0138486
766.865	0.0136677
766.943	0.0137843
767.021	0.0138517
767.099	0.0139067
767.177	0.0139087
767.255	0.0139056
767.333	0.0138239
767.412	0.0138676
767.490	0.0138866
767.568	0.0137699
767.646	0.0137616
767.724	0.0136712
767.802	0.0136050
767.880	0.0135985
767.958	0.0135281
768.037	0.0133978
768.115	0.0134612
768.193	0.0134669
768.271	0.0133445
768.349	0.0132451
768.427	0.0132412
768.505	0.0134423
768.583	0.0133127
768.662	0.0133229
768.740	0.0133671
768.818	0.0132727
768.896	0.0132654
768.974	0.0133649
769.052	0.0133076
769.130	0.0133540
769.208	0.0133648
769.287	0.0133694
769.365	0.0133188
769.443	0.0134132
769.521	0.0133901
769.599	0.0132159
769.677	0.0133556
769.755	0.0134449
769.833	0.0132710
769.912	0.0132977
769.990	0.0132927
770.068	0.0133575
770.146	0.0132771
770.224	0.0133082
770.302	0.0135371
770.380	0.0134547
770.458	0.0133110
770.537	0.0132852
770.615	0.0133543
770.693	0.0135262
770.771	0.0135512
770.849	0.0133221
770.927	0.0135664
771.005	0.0135771
771.083	0.0136414
771.162	0.0136308
771.240	0.0135744
771.318	0.0136639
771.396	0.0137592
771.474	0.0134978
771.552	0.0136177
771.630	0.0137534
771.708	0.0136617
771.787	0.0138600
771.865	0.0138173
771.943	0.0138017
772.021	0.0137810
772.099	0.0137114
772.177	0.0138798
772.255	0.0138484
772.333	0.0137855
772.412	0.0136253
772.490	0.0137461
772.568	0.0136301
772.646	0.0134894
772.724	0.0133710
772.802	0.0134043
772.880	0.0133100
772.958	0.0131667
773.037	0.0129896
773.115	0.0131254
773.193	0.0131136
773.271	0.0129758
773.349	0.0128633
773.427	0.0129493
773.505	0.0129958
773.583	0.0128886
773.662	0.0129721
773.740	0.0128436
773.818	0.0128278
773.896	0.0130640
773.974	0.0133270
774.052	0.0131480
774.130	0.0133785
774.208	0.0133289
774.287	0.0133273
774.365	0.0136066
774.443	0.0135728
774.521	0.0136147
774.599	0.0137061
774.677	0.0137801
774.755	0.0137614
774.833	0.0137838
774.912	0.0138583
774.990	0.0137312
775.068	0.0139442
775.146	0.0139671
775.224	0.0141238
775.302	0.0141151
775.380	0.0141560
775.458	0.0139931
775.537	0.0141128
775.615	0.0141235
775.693	0.0141621
775.771	0.0140553
775.849	0.0140066
775.927	0.0138725
776.005	0.0138626
776.083	0.0136531
776.162	0.0135342
776.240	0.0134372
776.318	0.0134885
776.396	0.0133673
776.474	0.0132594
776.552	0.0130863
776.630	0.0128315
776.708	0.0128629
776.787	0.0128381
776.865	0.0127154
776.943	0.0126319
777.021	0.0126454
777.099	0.0126133
777.177	0.0126511
777.255	0.0126994
777.333	0.0126196
777.412	0.0128082
777.490	0.0127618
777.568	0.0129584
777.646	0.0129642
777.724	0.0130585
777.802	0.0131548
777.880	0.0132871
777.958	0.0133488
778.037	0.0134258
778.115	0.0134136
778.193	0.0134122
778.271	0.0137423
778.349	0.0137807
778.427	0.0138069
778.505	0.0137019
778.583	0.0137478
778.662	0.0137115
778.740	0.0137074
778.818	0.0138181
778.896	0.0138964
778.974	0.0138869
779.052	0.0139606
779.130	0.0139396
779.208	0.0138686
779.287	0.0139850
779.365	0.0140637
779.443	0.0140220
779.521	0.0138852
779.599	0.0140422
779.677	0.0139011
779.755	0.0136656
779.833	0.0138148
779.912	0.0137991
779.990	0.0137711
780.068	0.0135159
780.146	0.0136315
780.224	0.0135206
780.302	0.0133395
780.380	0.0134171
780.458	0.0134679
780.537	0.0133860
780.615	0.0131773
780.693	0.0132439
780.771	0.0134134
780.849	0.0132890
780.927	0.0132317
781.005	0.0130691
781.083	0.0131508
781.162	0.0130203
781.240	0.0131288
781.318	0.0132558
781.396	0.0132564
781.474	0.0131277
781.552	0.0130911
781.630	0.0130205
781.708	0.0130933
781.787	0.0131517
781.865	0.0129209
781.943	0.0129582
782.021	0.0129764
782.099	0.0129735
782.177	0.0128978
782.255	0.0129783
782.333	0.0131063
782.412	0.0132045
782.490	0.0131068
782.568	0.0131696
782.646	0.0132788
782.724	0.0133857
782.802	0.0136032
782.880	0.0134629
782.958	0.0135036
783.037	0.0135480
783.115	0.0135800
783.193	0.0138387
783.271	0.0137586
783.349	0.0136483
783.427	0.0137705
783.505	0.0138779
783.583	0.0138404
783.662	0.0136729
783.740	0.0136829
783.818	0.0136442
783.896	0.0136294
783.974	0.0136325
784.052	0.0135922
784.130	0.0135449
784.208	0.0135088
784.287	0.0133374
784.365	0.0132938
784.443	0.0133290
784.521	0.0131843
784.599	0.0130689
784.677	0.0130718
784.755	0.0131879
784.833	0.0130887
784.912	0.0130643
784.990	0.0131876
785.068	0.0132410
785.146	0.0133295
785.224	0.0134119
785.302	0.0133292
785.380	0.0134342
785.458	0.0135542
785.537	0.0136839
785.615	0.0136074
785.693	0.0135239
785.771	0.0135760
785.849	0.0136459
785.927	0.0136909
786.005	0.0138049
786.083	0.0136607
786.162	0.0136996
786.240	0.0137254
786.318	0.0136993
786.396	0.0137386
786.474	0.0134893
786.552	0.0133958
786.630	0.0133264
786.708	0.0133608
786.787	0.0132534
786.865	0.0134104
786.943	0.0133676
787.021	0.0133083
787.099	0.0133020
787.177	0.0134422
787.255	0.0133965
787.333	0.0134020
787.412	0.0132691
787.490	0.0133360
787.568	0.0133410
787.646	0.0135002
787.724	0.0135223
787.802	0.0134796
787.880	0.0134740
787.958	0.0134517
788.037	0.0135077
788.115	0.0134032
788.193	0.0135288
788.271	0.0136060
788.349	0.0135681
788.427	0.0136517
788.505	0.0134608
788.583	0.0134560
788.662	0.0135339
788.740	0.0136392
788.818	0.0135229
788.896	0.0133105
788.974	0.0132208
789.052	0.0133444
789.130	0.0131429
789.208	0.0131508
789.287	0.0132368
789.365	0.0131277
789.443	0.0133855
789.521	0.0132867
789.599	0.0132219
789.677	0.0131374
789.755	0.0132767
789.833	0.0133533
789.912	0.0132967
789.990	0.0133008
790.068	0.0135265
790.146	0.0135136
790.224	0.0135999
790.302	0.0134739
790.380	0.0135735
790.458	0.0137169
790.537	0.0135893
790.615	0.0135403
790.693	0.0137153
790.771	0.0136225
790.849	0.0136339
790.927	0.0135885
791.005	0.0136102
791.083	0.0135497
791.162	0.0135880
791.240	0.0133672
791.318	0.0135841
791.396	0.0133664
791.474	0.0132302
791.552	0.0132847
791.630	0.0133398
791.708	0.0132463
791.787	0.0131692
791.865	0.0131702
791.943	0.0131695
792.021	0.0132594
792.099	0.0131509
792.177	0.0131830
792.255	0.0132124
792.333	0.0132866
792.412	0.0132486
792.490	0.0134091
792.568	0.0133855
792.646	0.0133517
792.724	0.0133710
792.802	0.0134914
792.880	0.0134386
792.958	0.0135068
793.037	0.0136102
793.115	0.0136632
793.193	0.0135982
793.271	0.0136953
793.349	0.0136696
793.427	0.0137457
793.505	0.0137108
793.583	0.0138636
793.662	0.0137505
793.740	0.0137539
793.818	0.0137585
793.896	0.0137064
793.974	0.0137340
794.052	0.0135745
794.130	0.0136411
794.208	0.0135561
794.287	0.0135017
794.365	0.0133733
794.443	0.0134527
794.521	0.0133704
794.599	0.0133179
794.677	0.0133492
794.755	0.0131991
794.833	0.0133495
794.912	0.0133334
794.990	0.0131107
795.068	0.0131029
795.146	0.0132117
795.224	0.0132918
795.302	0.0131432
795.380	0.0133420
795.458	0.0133307
795.537	0.0133792
795.615	0.0132785
795.693	0.0133527
795.771	0.0133392
795.849	0.0134196
795.927	0.0135603
796.005	0.0133518
796.083	0.0132719
796.162	0.0133389
796.240	0.0133419
796.318	0.0133977
796.396	0.0133104
796.474	0.0132680
796.552	0.0131406
796.630	0.0131473
796.708	0.0131158
796.787	0.0132277
796.865	0.0132806
796.943	0.0130711
797.021	0.0130830
797.099	0.0131416
797.177	0.0131638
797.255	0.0133304
797.333	0.0133617
797.412	0.0132140
797.490	0.0134007
797.568	0.0131921
797.646	0.0132606
797.724	0.0134627
797.802	0.0134232
797.880	0.0133985
797.958	0.0133539
798.037	0.0133233
798.115	0.0134999
798.193	0.0133797
798.271	0.0135212
798.349	0.0135446
798.427	0.0135223
798.505	0.0137030
798.583	0.0137904
798.662	0.0135378
798.740	0.0136942
798.818	0.0137347
798.896	0.0138613
798.974	0.0138110
799.052	0.0137242
799.130	0.0137251
799.208	0.0138120
799.287	0.0137300
799.365	0.0136653
799.443	0.0136882
799.521	0.0136726
799.599	0.0135550
799.677	0.0135012
799.755	0.0134747
799.833	0.0134460
799.912	0.0133176
799.990	0.0132787
800.068	0.0133192
800.146	0.0132944
800.224	0.0133218
800.302	0.0132880
800.380	0.0132010
800.458	0.0132676
800.537	0.0132970
800.615	0.0131973
800.693	0.0134704
800.771	0.0132008
800.849	0.0132305
800.927	0.0132169
801.005	0.0132253
801.083	0.0132152
801.162	0.0131443
801.240	0.0132543
801.318	0.0135191
801.396	0.0134805
801.474	0.0134312
801.552	0.0134149
801.630	0.0135227
801.708	0.0134785
801.787	0.0137045
801.865	0.0136518
801.943	0.0135636
802.021	0.0137477
802.099	0.0135713
802.177	0.0137493
802.255	0.0136433
802.333	0.0136095
802.412	0.0136462
802.490	0.0136732
802.568	0.0136354
802.646	0.0135033
802.724	0.0133724
802.802	0.0134446
802.880	0.0134258
802.958	0.0133205
803.037	0.0133504
803.115	0.0133025
803.193	0.0132471
803.271	0.0132780
803.349	0.0132574
803.427	0.0133326
803.505	0.0134005
803.583	0.0133625
803.662	0.0133108
803.740	0.0133711
803.818	0.0135239
803.896	0.0133430
803.974	0.0134478
804.052	0.0134540
804.130	0.0134586
804.208	0.0136034
804.287	0.0134938
804.365	0.0134455
804.443	0.0135068
804.521	0.0136700
804.599	0.0137426
804.677	0.0136898
804.755	0.0136020
804.833	0.0135770
804.912	0.0138164
804.990	0.0137998
805.068	0.0137309
805.146	0.0137769
805.224	0.0136621
805.302	0.0138386
805.380	0.0138721
805.458	0.0137467
805.537	0.0137088
805.615	0.0136724
805.693	0.0136982
805.771	0.0136735
805.849	0.0137222
805.927	0.0136781
806.005	0.0136858
806.083	0.0136465
806.162	0.0135033
806.240	0.0135737
806.318	0.0135372
806.396	0.0136588
806.474	0.0134583
806.552	0.0133569
806.630	0.0134176
806.708	0.0132685
806.787	0.0133456
806.865	0.0133981
806.943	0.0131423
807.021	0.0132195
807.099	0.0132917
807.177	0.0131258
807.255	0.0131725
807.333	0.0131269
807.412	0.0130785
807.490	0.0130682
807.568	0.0131630
807.646	0.0131916
807.724	0.0131660
807.802	0.0130804
807.880	0.0130874
807.958	0.0133229
808.037	0.0132679
808.115	0.0132328
808.193	0.0132847
808.271	0.0134327
808.349	0.0133892
808.427	0.0133807
808.505	0.0133797
808.583	0.0134318
808.662	0.0133792
808.740	0.0133965
808.818	0.0134540
808.896	0.0134173
808.974	0.0132892
809.052	0.0133925
809.130	0.0134447
809.208	0.0134741
809.287	0.0134469
809.365	0.0134400
809.443	0.0135338
809.521	0.0135342
809.599	0.0136301
809.677	0.0136280
809.755	0.0135651
809.833	0.0135241
809.912	0.0135669
809.990	0.0135590
810.068	0.0135764
810.146	0.0135132
810.224	0.0133582
810.302	0.0134904
810.380	0.0135081
810.458	0.0135092
810.537	0.0135337
810.615	0.0134974
810.693	0.0134045
810.771	0.0133939
810.849	0.0134218
810.927	0.0135318
811.005	0.0135095
811.083	0.0133531
811.162	0.0135054
811.240	0.0134412
811.318	0.0133066
811.396	0.0134826
811.474	0.0134538
811.552	0.0132520
811.630	0.0133002
811.708	0.0132565
811.787	0.0131792
811.865	0.0132080
811.943	0.0131947
812.021	0.0131895
812.099	0.0131126
812.177	0.0130913
812.255	0.0132488
812.333	0.0133047
812.412	0.0131971
812.490	0.0132492
812.568	0.0131971
812.646	0.0133261
812.724	0.0135168
812.802	0.0134261
812.880	0.0134678
812.958	0.0135056
813.037	0.0133153
813.115	0.0133563
813.193	0.0135426
813.271	0.0134322
813.349	0.0134830
813.427	0.0134133
813.505	0.0133146
813.583	0.0135246
813.662	0.0134400
813.740	0.0133174
813.818	0.0132735
813.896	0.0133155
813.974	0.0132285
814.052	0.0132539
814.130	0.0132796
814.208	0.0131917
814.287	0.0132435
814.365	0.0131915
814.443	0.0132139
814.521	0.0133096
814.599	0.0132949
814.677	0.0131858
814.755	0.0133167
814.833	0.0132286
814.912	0.0134048
814.990	0.0135490
815.068	0.0133720
815.146	0.0136295
815.224	0.0135167
815.302	0.0136545
815.380	0.0137416
815.458	0.0137466
815.537	0.0138161
815.615	0.0138605
815.693	0.0137979
815.771	0.0137473
815.849	0.0138167
815.927	0.0138341
816.005	0.0138210
816.083	0.0137547
816.162	0.0137899
816.240	0.0138569
816.318	0.0137355
816.396	0.0136966
816.474	0.0137200
816.552	0.0137727
816.630	0.0136943
816.708	0.0134368
816.787	0.0135733
816.865	0.0135994
816.943	0.0135434
817.021	0.0134602
817.099	0.0134799
817.177	0.0136093
817.255	0.0135337
817.333	0.0134351
817.412	0.0134351
817.490	0.0133765
817.568	0.0134180
817.646	0.0133697
817.724	0.0130936
817.802	0.0131604
817.880	0.0129726
817.958	0.0129660
818.037	0.0129269
818.115	0.0131534
818.193	0.0131033
818.271	0.0130035
818.349	0.0129871
818.427	0.0131680
818.505	0.0130947
818.583	0.0130547
818.662	0.0132890
818.740	0.0131992
818.818	0.0131923
818.896	0.0131754
818.974	0.0132616
819.052	0.0132986
819.130	0.0133754
819.208	0.0132873
819.287	0.0132857
819.365	0.0132688
819.443	0.0132555
819.521	0.0133397
819.599	0.0133949
819.677	0.0133658
819.755	0.0133564
819.833	0.0134824
819.912	0.0133090
819.990	0.0132803
820.068	0.0133430
820.146	0.0134634
820.224	0.0135057
820.302	0.0136412
820.380	0.0136008
820.458	0.0136001
820.537	0.0136008
820.615	0.0135728
820.693	0.0136929
820.771	0.0136842
820.849	0.0135406
820.927	0.0136672
821.005	0.0136659
821.083	0.0136476
821.162	0.0135749
821.240	0.0137206
821.318	0.0137380
821.396	0.0135953
821.474	0.0135563
821.552	0.0136035
821.630	0.0135246
821.708	0.0135818
821.787	0.0137645
821.865	0.0135107
821.943	0.0134843
822.021	0.0136375
822.099	0.0134865
822.177	0.0135172
822.255	0.0135231
822.333	0.0136053
822.412	0.0136923
822.490	0.0135596
822.568	0.0136026
822.646	0.0135555
822.724	0.0134637
822.802	0.0135530
822.880	0.0135625
822.958	0.0133953
823.037	0.0134296
823.115	0.0133260
823.193	0.0134933
823.271	0.0133923
823.349	0.0132964
823.427	0.0133221
823.505	0.0133028
823.583	0.0132703
823.662	0.0132081
823.740	0.0132763
823.818	0.0132716
823.896	0.0133079
823.974	0.0132142
824.052	0.0132976
824.130	0.0132285
824.208	0.0131882
824.287	0.0133291
824.365	0.0134155
824.443	0.0132999
824.521	0.0131495
824.599	0.0133902
824.677	0.0132297
824.755	0.0133058
824.833	0.0135774
824.912	0.0134271
824.990	0.0134266
825.068	0.0133469
825.146	0.0133738
825.224	0.0134090
825.302	0.0132339
825.380	0.0133237
825.458	0.0133938
825.537	0.0131915
825.615	0.0131822
825.693	0.0133022
825.771	0.0132944
825.849	0.0132172
825.927	0.0132050
826.005	0.0130640
826.083	0.0131278
826.162	0.0133350
826.240	0.0133588
826.318	0.0133303
826.396	0.0134047
826.474	0.0134735
826.552	0.0135896
826.630	0.0135726
826.708	0.0135232
826.787	0.0137259
826.865	0.0137074
826.943	0.0135185
827.021	0.0137338
827.099	0.0137893
827.177	0.0137566
827.255	0.0137725
827.333	0.0137844
827.412	0.0137145
827.490	0.0137929
827.568	0.0138220
827.646	0.0136949
827.724	0.0137697
827.802	0.0137113
827.880	0.0137193
827.958	0.0138046
828.037	0.0137096
828.115	0.0137347
828.193	0.0137350
828.271	0.0136617
828.349	0.0136157
828.427	0.0136674
828.505	0.0137248
828.583	0.0136796
828.662	0.0135764
828.740	0.0134927
828.818	0.0135503
828.896	0.0136060
828.974	0.0134298
829.052	0.0132809
829.130	0.0133960
829.208	0.0134956
829.287	0.0133934
829.365	0.0133331
829.443	0.0133562
829.521	0.0132624
829.599	0.0131862
829.677	0.0131283
829.755	0.0131821
829.833	0.0131960
829.912	0.0133675
829.990	0.0132217
830.068	0.0133758
830.146	0.0133308
830.224	0.0132670
830.302	0.0134427
830.380	0.0133269
830.458	0.0133599
830.537	0.0134058
830.615	0.0133932
830.693	0.0135133
830.771	0.0135728
830.849	0.0134996
830.927	0.0133418
831.005	0.0134567
831.083	0.0134067
831.162	0.0133244
831.240	0.0132767
831.318	0.0131955
831.396	0.0132983
831.474	0.0133238
831.552	0.0132320
831.630	0.0132130
831.708	0.0131367
831.787	0.0131549
831.865	0.0132407
831.943	0.0133376
832.021	0.0131380
832.099	0.0132122
832.177	0.0133054
832.255	0.0129792
832.333	0.0132962
832.412	0.0133586
832.490	0.0133553
832.568	0.0133334
832.646	0.0134499
832.724	0.0134846
832.802	0.0134890
832.880	0.0133352
832.958	0.0133390
833.037	0.0136067
833.115	0.0135693
833.193	0.0135806
833.271	0.0135522
833.349	0.0135912
833.427	0.0135407
833.505	0.0135878
833.583	0.0137265
833.662	0.0136375
833.740	0.0136642
833.818	0.0135532
833.896	0.0138042
833.974	0.0136647
834.052	0.0137047
834.130	0.0137897
834.208	0.0138229
834.287	0.0136243
834.365	0.0136999
834.443	0.0135770
834.521	0.0137161
834.599	0.0135870
834.677	0.0135018
834.755	0.0136056
834.833	0.0135210
834.912	0.0134891
834.990	0.0134780
835.068	0.0134244
835.146	0.0134937
835.224	0.0134323
835.302	0.0133366
835.380	0.0133895
835.458	0.0133904
835.537	0.0133803
835.615	0.0133955
835.693	0.0135669
835.771	0.0133711
835.849	0.0133790
835.927	0.0133997
836.005	0.0135303
836.083	0.0134625
836.162	0.0132843
836.240	0.0133169
836.318	0.0133910
836.396	0.0132841
836.474	0.0133862
836.552	0.0132820
836.630	0.0132772
836.708	0.0132134
836.787	0.0132355
836.865	0.0132374
836.943	0.0130286
837.021	0.0132046
837.099	0.0131734
837.177	0.0131374
837.255	0.0131312
837.333	0.0130016
837.412	0.0131110
837.490	0.0131509
837.568	0.0129907
837.646	0.0132110
837.724	0.0132903
837.802	0.0133022
837.880	0.0131528
837.958	0.0132019
838.037	0.0133122
838.115	0.0132351
838.193	0.0132838
838.271	0.0133972
838.349	0.0134558
838.427	0.0135130
838.505	0.0135114
838.583	0.0134834
838.662	0.0136582
838.740	0.0136259
838.818	0.0136755
838.896	0.0136416
838.974	0.0136307
839.052	0.0135609
839.130	0.0136208
839.208	0.0135094
839.287	0.0137394
839.365	0.0137262
839.443	0.0137612
839.521	0.0138338
839.599	0.0137598
839.677	0.0135242
839.755	0.0137532
839.833	0.0138152
839.912	0.0136810
839.990	0.0138355
840.068	0.0138573
840.146	0.0137167
840.224	0.0136903
840.302	0.0138534
840.380	0.0137101
840.458	0.0136538
840.537	0.0136313
840.615	0.0135465
840.693	0.0136681
840.771	0.0137013
840.849	0.0134750
840.927	0.0135622
841.005	0.0135161
841.083	0.0135139
841.162	0.0134795
841.240	0.0134924
841.318	0.0133862
841.396	0.0134202
841.474	0.0135712
841.552	0.0134329
841.630	0.0133275
841.708	0.0132990
841.787	0.0133018
841.865	0.0133072
841.943	0.0132322
842.021	0.0131766
842.099	0.0132321
842.177	0.0133423
842.255	0.0131869
842.333	0.0131993
842.412	0.0133052
842.490	0.0132009
842.568	0.0132774
842.646	0.0132056
842.724	0.0131713
842.802	0.0132230
842.880	0.0132488
842.958	0.0132026
843.037	0.0132220
843.115	0.0132101
843.193	0.0132098
843.271	0.0133273
843.349	0.0134669
843.427	0.0134130
843.505	0.0134717
843.583	0.0135403
843.662	0.0136143
843.740	0.0134929
843.818	0.0134224
843.896	0.0134859
843.974	0.0135407
844.052	0.0136288
844.130	0.0134926
844.208	0.0135605
844.287	0.0135311
844.365	0.0135129
844.443	0.0134766
844.521	0.0136669
844.599	0.0136265
844.677	0.0134415
844.755	0.0134475
844.833	0.0135383
844.912	0.0136002
844.990	0.0136559
845.068	0.0134807
845.146	0.0136128
845.224	0.0134755
845.302	0.0136404
845.380	0.0135474
845.458	0.0135905
845.537	0.0135706
845.615	0.0134082
845.693	0.0133884
845.771	0.0134057
845.849	0.0136591
845.927	0.0134505
846.005	0.0135283
846.083	0.0137231
846.162	0.0136504
846.240	0.0134232
846.318	0.0135464
846.396	0.0134656
846.474	0.0134219
846.552	0.0135748
846.630	0.0134969
846.708	0.0135492
846.787	0.0135032
846.865	0.0135018
846.943	0.0135380
847.021	0.0135622
847.099	0.0133595
847.177	0.0133822
847.255	0.0132899
847.333	0.0133901
847.412	0.0134338
847.490	0.0134601
847.568	0.0133391
847.646	0.0133066
847.724	0.0133310
847.802	0.0132523
847.880	0.0131948
847.958	0.0132017
848.037	0.0132038
848.115	0.0132516
848.193	0.0132375
848.271	0.0133350
848.349	0.0130998
848.427	0.0132307
848.505	0.0132679
848.583	0.0131857
848.662	0.0133095
848.740	0.0133891
848.818	0.0135123
848.896	0.0134878
848.974	0.0135580
849.052	0.0134635
849.130	0.0135808
849.208	0.0135253
849.287	0.0135574
849.365	0.0134561
849.443	0.0136221
849.521	0.0135769
849.599	0.0135646
849.677	0.0134927
849.755	0.0134776
849.833	0.0135738
849.912	0.0136400
849.990	0.0135001
850.068	0.0134283
850.146	0.0134608
850.224	0.0134148
850.302	0.0135206
850.380	0.0135444
850.458	0.0134880
850.537	0.0135022
850.615	0.0134061
850.693	0.0134422
850.771	0.0134666
850.849	0.0133677
850.927	0.0132632
851.005	0.0132728
851.083	0.0134692
851.162	0.0134748
851.240	0.0134019
851.318	0.0132599
851.396	0.0134492
851.474	0.0135426
851.552	0.0135984
851.630	0.0136989
851.708	0.0136544
851.787	0.0137118
851.865	0.0135538
851.943	0.0137173
852.021	0.0136424
852.099	0.0135918
852.177	0.0136734
852.255	0.0136742
852.333	0.0136961
852.412	0.0137800
852.490	0.0136185
852.568	0.0134377
852.646	0.0135207
852.724	0.0135471
852.802	0.0135062
852.880	0.0135011
852.958	0.0133984
853.037	0.0133292
853.115	0.0132617
853.193	0.0133443
853.271	0.0132874
853.349	0.0133882
853.427	0.0133809
853.505	0.0132412
853.583	0.0133064
853.662	0.0133944
853.740	0.0134879
853.818	0.0134308
853.896	0.0134573
853.974	0.0132871
854.052	0.0133604
854.130	0.0134619
854.208	0.0135509
854.287	0.0135139
854.365	0.0134538
854.443	0.0135683
854.521	0.0135102
854.599	0.0134857
854.677	0.0135434
854.755	0.0135600
854.833	0.0136172
854.912	0.0134827
854.990	0.0134147
855.068	0.0134696
855.146	0.0134866
855.224	0.0134921
855.302	0.0134254
855.380	0.0134358
855.458	0.0134177
855.537	0.0134077
855.615	0.0132788
855.693	0.0132812
855.771	0.0134507
855.849	0.0134960
855.927	0.0134506
856.005	0.0134951
856.083	0.0134150
856.162	0.0134348
856.240	0.0134769
856.318	0.0136302
856.396	0.0134035
856.474	0.0136018
856.552	0.0135233
856.630	0.0135567
856.708	0.0135749
856.787	0.0136656
856.865	0.0136436
856.943	0.0134385
857.021	0.0134670
857.099	0.0136274
857.177	0.0135143
857.255	0.0135104
857.333	0.0136092
857.412	0.0136178
857.490	0.0135693
857.568	0.0136063
857.646	0.0137080
857.724	0.0138121
857.802	0.0136914
857.880	0.0136721
857.958	0.0136629
858.037	0.0136295
858.115	0.0136756
858.193	0.0136342
858.271	0.0134863
858.349	0.0134648
858.427	0.0135555
858.505	0.0135315
858.583	0.0133653
858.662	0.0134467
858.740	0.0134970
858.818	0.0133221
858.896	0.0134318
858.974	0.0133729
859.052	0.0131691
859.130	0.0134249
859.208	0.0134435
859.287	0.0133176
859.365	0.0132881
859.443	0.0133715
859.521	0.0135207
859.599	0.0133453
859.677	0.0132935
859.755	0.0133218
859.833	0.0134525
859.912	0.0133070
859.990	0.0132861
860.068	0.0133208
860.146	0.0133130
860.224	0.0134705
860.302	0.0133112
860.380	0.0133501
860.458	0.0133925
860.537	0.0133334
860.615	0.0133221
860.693	0.0133915
860.771	0.0134460
860.849	0.0134943
860.927	0.0136404
861.005	0.0135442
861.083	0.0137255
861.162	0.0134892
861.240	0.0135347
861.318	0.0136460
861.396	0.0134442
861.474	0.0134783
861.552	0.0135140
861.630	0.0134472
861.708	0.0134210
861.787	0.0134539
861.865	0.0136002
861.943	0.0135555
862.021	0.0134998
862.099	0.0134364
862.177	0.0135482
862.255	0.0135588
862.333	0.0137151
862.412	0.0136261
862.490	0.0136654
862.568	0.0136982
862.646	0.0135750
862.724	0.0135760
862.802	0.0136780
862.880	0.0135006
862.958	0.0135864
863.037	0.0134605
863.115	0.0134167
863.193	0.0134985
863.271	0.0134860
863.349	0.0134206
863.427	0.0134568
863.505	0.0135818
863.583	0.0136473
863.662	0.0137529
863.740	0.0137269
863.818	0.0137486
863.896	0.0136488
863.974	0.0137628
864.052	0.0137291
864.130	0.0136377
864.208	0.0136446
864.287	0.0135011
864.365	0.0135662
864.443	0.0136333
864.521	0.0135046
864.599	0.0132674
864.677	0.0133369
864.755	0.0133150
864.833	0.0132281
864.912	0.0132734
864.990	0.0132519
865.068	0.0132260
865.146	0.0131767
865.224	0.0132442
865.302	0.0133802
865.380	0.0134242
865.458	0.0134061
865.537	0.0131110
865.615	0.0132462
865.693	0.0131187
865.771	0.0132068
865.849	0.0134328
865.927	0.0131721
866.005	0.0132774
866.083	0.0132653
866.162	0.0132567
866.240	0.0134263
866.318	0.0134094
866.396	0.0133989
866.474	0.0133053
866.552	0.0132257
866.630	0.0132829
866.708	0.0133309
866.787	0.0133948
866.865	0.0134333
866.943	0.0134675
867.021	0.0135493
867.099	0.0136476
867.177	0.0136057
867.255	0.0137995
867.333	0.0138070
867.412	0.0136584
867.490	0.0138074
867.568	0.0137611
867.646	0.0136985
867.724	0.0135651
867.802	0.0135991
867.880	0.0134897
867.958	0.0132431
868.037	0.0132497
868.115	0.0132489
868.193	0.0131337
868.271	0.0130821
868.349	0.0129698
868.427	0.0129504
868.505	0.0129890
868.583	0.0130133
868.662	0.0130958
868.740	0.0132845
868.818	0.0131042
868.896	0.0132982
868.974	0.0134147
869.052	0.0135378
869.130	0.0134668
869.208	0.0135273
869.287	0.0135863
869.365	0.0135749
869.443	0.0136558
869.521	0.0137735
869.599	0.0137464
869.677	0.0136864
869.755	0.0137627
869.833	0.0136537
869.912	0.0137758
869.990	0.0136724
870.068	0.0135927
870.146	0.0136255
870.224	0.0137352
870.302	0.0137648
870.380	0.0136922
870.458	0.0137086
870.537	0.0136073
870.615	0.0136899
870.693	0.0136241
870.771	0.0137593
870.849	0.0137257
870.927	0.0135301
871.005	0.0135139
871.083	0.0133418
871.162	0.0133139
871.240	0.0133262
871.318	0.0132002
871.396	0.0133102
871.474	0.0132121
871.552	0.0129769
871.630	0.0129549
871.708	0.0129430
871.787	0.0128185
871.865	0.0129411
871.943	0.0129989
872.021	0.0130699
872.099	0.0131149
872.177	0.0130523
872.255	0.0131004
872.333	0.0130591
872.412	0.0132793
872.490	0.0132981
872.568	0.0133745
872.646	0.0132349
872.724	0.0135053
872.802	0.0134969
872.880	0.0135316
872.958	0.0136851
873.037	0.0136508
873.115	0.0136281
873.193	0.0137518
873.271	0.0139311
873.349	0.0139870
873.427	0.0139163
873.505	0.0139563
873.583	0.0140681
873.662	0.0140489
873.740	0.0140675
873.818	0.0142163
873.896	0.0140802
873.974	0.0140530
874.052	0.0141448
874.130	0.0139695
874.208	0.0138242
874.287	0.0138678
874.365	0.0137974
874.443	0.0135373
874.521	0.0135113
874.599	0.0134520
874.677	0.0133926
874.755	0.0133273
874.833	0.0130929
874.912	0.0131246
874.990	0.0130064
875.068	0.0130775
875.146	0.0129594
875.224	0.0130688
875.302	0.0130810
875.380	0.0130019
875.458	0.0129979
875.537	0.0130131
875.615	0.0130177
875.693	0.0129294
875.771	0.0130715
875.849	0.0131080
875.927	0.0131465
876.005	0.0130125
876.083	0.0132174
876.162	0.0131475
876.240	0.0133942
876.318	0.0133134
876.396	0.0132296
876.474	0.0133306
876.552	0.0133813
876.630	0.0134610
876.708	0.0133882
876.787	0.0135766
876.865	0.0134325
876.943	0.0135916
877.021	0.0136094
877.099	0.0136556
877.177	0.0135535
877.255	0.0136375
877.333	0.0136835
877.412	0.0136572
877.490	0.0136572
877.568	0.0137296
877.646	0.0137862
877.724	0.0138415
877.802	0.0139329
877.880	0.0137793
877.958	0.0138498
878.037	0.0138897
878.115	0.0138325
878.193	0.0138052
878.271	0.0137436
878.349	0.0137154
878.427	0.0137320
878.505	0.0136005
878.583	0.0136640
878.662	0.0135616
878.740	0.0135712
878.818	0.0134921
878.896	0.0133714
878.974	0.0134636
879.052	0.0132997
879.130	0.0132938
879.208	0.0132422
879.287	0.0131541
879.365	0.0129914
879.443	0.0130412
879.521	0.0129519
879.599	0.0127779
879.677	0.0128442
879.755	0.0130471
879.833	0.0130865
879.912	0.0131078
879.990	0.0132462
880.068	0.0131910
880.146	0.0131784
880.224	0.0133879
880.302	0.0134537
880.380	0.0136013
880.458	0.0136613
880.537	0.0136409
880.615	0.0136758
880.693	0.0136349
880.771	0.0137905
880.849	0.0137717
880.927	0.0137663
881.005	0.0135913
881.083	0.0135809
881.162	0.0136308
881.240	0.0135884
881.318	0.0134928
881.396	0.0133912
881.474	0.0133873
881.552	0.0134108
881.630	0.0134081
881.708	0.0132249
881.787	0.0132603
881.865	0.0132030
881.943	0.0131599
882.021	0.0131537
882.099	0.0131931
882.177	0.0129502
882.255	0.0131913
882.333	0.0131390
882.412	0.0130653
882.490	0.0133167
882.568	0.0133746
882.646	0.0132332
882.724	0.0132270
882.802	0.0134512
882.880	0.0133643
882.958	0.0135207
883.037	0.0136729
883.115	0.0135760
883.193	0.0134461
883.271	0.0136121
883.349	0.0135932
883.427	0.0138277
883.505	0.0137823
883.583	0.0136915
883.662	0.0137053
883.740	0.0138808
883.818	0.0139867
883.896	0.0139268
883.974	0.0139326
884.052	0.0139545
884.130	0.0139180
884.208	0.0139854
884.287	0.0139081
884.365	0.0137582
884.443	0.0137442
884.521	0.0136036
884.599	0.0135488
884.677	0.0135732
884.755	0.0134573
884.833	0.0134504
884.912	0.0132578
884.990	0.0134114
885.068	0.0133484
885.146	0.0132868
885.224	0.0133305
885.302	0.0132462
885.380	0.0131573
885.458	0.0132832
885.537	0.0133864
885.615	0.0133142
885.693	0.0132451
885.771	0.0132336
885.849	0.0132043
885.927	0.0132964
886.005	0.0134165
886.083	0.0132512
886.162	0.0132429
886.240	0.0133740
886.318	0.0132201
886.396	0.0132614
886.474	0.0132791
886.552	0.0132170
886.630	0.0132679
886.708	0.0133138
886.787	0.0133116
886.865	0.0132686
886.943	0.0131697
887.021	0.0132478
887.099	0.0132393
887.177	0.0134698
887.255	0.0135078
887.333	0.0134437
887.412	0.0136898
887.490	0.0138937
887.568	0.0138358
887.646	0.0138061
887.724	0.0136037
887.802	0.0137479
887.880	0.0138303
887.958	0.0137957
888.037	0.0136289
888.115	0.0136346
888.193	0.0138401
888.271	0.0137047
888.349	0.0137307
888.427	0.0137810
888.505	0.0137103
888.583	0.0137167
888.662	0.0136629
888.740	0.0135783
888.818	0.0136811
888.896	0.0136910
888.974	0.0136151
889.052	0.0136544
889.130	0.0135970
889.208	0.0134433
889.287	0.0133950
889.365	0.0133255
889.443	0.0133606
889.521	0.0133366
889.599	0.0130940
889.677	0.0130920
889.755	0.0129628
889.833	0.0130939
889.912	0.0130877
889.990	0.0129925
890.068	0.0129726
890.146	0.0130225
890.224	0.0129147
890.302	0.0129563
890.380	0.0130230
890.458	0.0130930
890.537	0.0132008
890.615	0.0131055
890.693	0.0133916
890.771	0.0132796
890.849	0.0135004
890.927	0.0136379
891.005	0.0137685
891.083	0.0137145
891.162	0.0137330
891.240	0.0138438
891.318	0.0139201
891.396	0.0139692
891.474	0.0140851
891.552	0.0141151
891.630	0.0139707
891.708	0.0137706
891.787	0.0138634
891.865	0.0136906
891.943	0.0136840
892.021	0.0136810
892.099	0.0134005
892.177	0.0134044
892.255	0.0134739
892.333	0.0133449
892.412	0.0133278
892.490	0.0132788
892.568	0.0131613
892.646	0.0131229
892.724	0.0131421
892.802	0.0131163
892.880	0.0129877
892.958	0.0131023
893.037	0.0131155
893.115	0.0130974
893.193	0.0132565
893.271	0.0132002
893.349	0.0131335
893.427	0.0132992
893.505	0.0135226
893.583	0.0134213
893.662	0.0134326
893.740	0.0135233
893.818	0.0135924
893.896	0.0136458
893.974	0.0137496
894.052	0.0137400
894.130	0.0136279
894.208	0.0137041
894.287	0.0137396
894.365	0.0138152
894.443	0.0137410
894.521	0.0137699
894.599	0.0137225
894.677	0.0135278
894.755	0.0134969
894.833	0.0135676
894.912	0.0134650
894.990	0.0134831
895.068	0.0133628
895.146	0.0133112
895.224	0.0133566
895.302	0.0132729
895.380	0.0132623
895.458	0.0133202
895.537	0.0134333
895.615	0.0134052
895.693	0.0132806
895.771	0.0132243
895.849	0.0134026
895.927	0.0134274
896.005	0.0133924
896.083	0.0133869
896.162	0.0134580
896.240	0.0134680
896.318	0.0133398
896.396	0.0134639
896.474	0.0135290
896.552	0.0132758
896.630	0.0134590
896.708	0.0134914
896.787	0.0133515
896.865	0.0134005
896.943	0.0133612
897.021	0.0133701
897.099	0.0133607
897.177	0.0132836
897.255	0.0133810
897.333	0.0134492
897.412	0.0134512
897.490	0.0133748
897.568	0.0134417
897.646	0.0134891
897.724	0.0133817
897.802	0.0134237
897.880	0.0133752
897.958	0.0134926
898.037	0.0134605
898.115	0.0135954
898.193	0.0134351
898.271	0.0134549
898.349	0.0134934
898.427	0.0133363
898.505	0.0133773
898.583	0.0133289
898.662	0.0135298
898.740	0.0135339
898.818	0.0134202
898.896	0.0136944
898.974	0.0133972
899.052	0.0135934
899.130	0.0136674
899.208	0.0136095
899.287	0.0137518
899.365	0.0137778
899.443	0.0136930
899.521	0.0134734
899.599	0.0135751
899.677	0.0135780
899.755	0.0135312
899.833	0.0134550
899.912	0.0134064
899.990	0.0134575
900.068	0.0134060
900.146	0.0134039
900.224	0.0133296
900.302	0.0133419
900.380	0.0133343
900.458	0.0133672
900.537	0.0135295
900.615	0.0134210
900.693	0.0133379
900.771	0.0133826
900.849	0.0133302
900.927	0.0132052
901.005	0.0133769
901.083	0.0133602
901.162	0.0133489
901.240	0.0132723
901.318	0.0132639
901.396	0.0132957
901.474	0.0131584
901.552	0.0132629
901.630	0.0133626
901.708	0.0133171
901.787	0.0133177
901.865	0.0131317
901.943	0.0131636
902.021	0.0133611
902.099	0.0132462
902.177	0.0133366
902.255	0.0133765
902.333	0.0133157
902.412	0.0133829
902.490	0.0134973
902.568	0.0135065
902.646	0.0133717
902.724	0.0135674
902.802	0.0136711
902.880	0.0135192
902.958	0.0136743
903.037	0.0136323
903.115	0.0137327
903.193	0.0136849
903.271	0.0136542
903.349	0.0137313
903.427	0.0135882
903.505	0.0136559
903.583	0.0135767
903.662	0.0135004
903.740	0.0134387
903.818	0.0133987
903.896	0.0134116
903.974	0.0133749
904.052	0.0131947
904.130	0.0132434
904.208	0.0133188
904.287	0.0133058
904.365	0.0131938
904.443	0.0133888
904.521	0.0132975
904.599	0.0134166
904.677	0.0135116
904.755	0.0135791
904.833	0.0134225
904.912	0.0135817
904.990	0.0135238
905.068	0.0134486
905.146	0.0135286
905.224	0.0135889
905.302	0.0136331
905.380	0.0135745
905.458	0.0135831
905.537	0.0136377
905.615	0.0136192
905.693	0.0136061
905.771	0.0136044
905.849	0.0135633
905.927	0.0135699
906.005	0.0136765
906.083	0.0134634
906.162	0.0135060
906.240	0.0134933
906.318	0.0135660
906.396	0.0135264
906.474	0.0135214
906.552	0.0134631
906.630	0.0134981
906.708	0.0133543
906.787	0.0132453
906.865	0.0131800
906.943	0.0130751
907.021	0.0129464
907.099	0.0129718
907.177	0.0130087
907.255	0.0128914
907.333	0.0128474
907.412	0.0130087
907.490	0.0129671
907.568	0.0129192
907.646	0.0130002
907.724	0.0131478
907.802	0.0131458
907.880	0.0131362
907.958	0.0131957
908.037	0.0132472
908.115	0.0132887
908.193	0.0133447
908.271	0.0132990
908.349	0.0132539
908.427	0.0134943
908.505	0.0135597
908.583	0.0135421
908.662	0.0134246
908.740	0.0134396
908.818	0.0136174
908.896	0.0137762
908.974	0.0138109
909.052	0.0138027
909.130	0.0137140
909.208	0.0136985
909.287	0.0136104
909.365	0.0137500
909.443	0.0136740
909.521	0.0137937
909.599	0.0138344
909.677	0.0137044
909.755	0.0137013
909.833	0.0135991
909.912	0.0135927
909.990	0.0136317
910.068	0.0133809
910.146	0.0134044
910.224	0.0133682
910.302	0.0132943
910.380	0.0133729
910.458	0.0134525
910.537	0.0134263
910.615	0.0135216
910.693	0.0134747
910.771	0.0133959
910.849	0.0135555
910.927	0.0134708
911.005	0.0134665
911.083	0.0133529
911.162	0.0134638
911.240	0.0133656
911.318	0.0133907
911.396	0.0132646
911.474	0.0132647
911.552	0.0133585
911.630	0.0133600
911.708	0.0131705
911.787	0.0132584
911.865	0.0132262
911.943	0.0131769
912.021	0.0130870
912.099	0.0131013
912.177	0.0131532
912.255	0.0130295
912.333	0.0131914
912.412	0.0132609
912.490	0.0131522
912.568	0.0132642
912.646	0.0131654
912.724	0.0131409
912.802	0.0133060
912.880	0.0132057
912.958	0.0132050
913.037	0.0132480
913.115	0.0133190
913.193	0.0135204
913.271	0.0134293
913.349	0.0133226
913.427	0.0133651
913.505	0.0134225
913.583	0.0134199
913.662	0.0135181
913.740	0.0134327
913.818	0.0136314
913.896	0.0137036
913.974	0.0136681
914.052	0.0135768
914.130	0.0135696
914.208	0.0136620
914.287	0.0133132
914.365	0.0134619
914.443	0.0135321
914.521	0.0136098
914.599	0.0135787
914.677	0.0136588
914.755	0.0136364
914.833	0.0136090
914.912	0.0134856
914.990	0.0135715
915.068	0.0135085
915.146	0.0134597
915.224	0.0135943
915.302	0.0135187
915.380	0.0135110
915.458	0.0134863
915.537	0.0134180
915.615	0.0133886
915.693	0.0133346
915.771	0.0131995
915.849	0.0133112
915.927	0.0131543
916.005	0.0132641
916.083	0.0133831
916.162	0.0134179
916.240	0.0134608
916.318	0.0134943
916.396	0.0133884
916.474	0.0137379
916.552	0.0137492
916.630	0.0138615
916.708	0.0137487
916.787	0.0136351
916.865	0.0137987
916.943	0.0137296
917.021	0.0137262
917.099	0.0135666
917.177	0.0138010
917.255	0.0136123
917.333	0.0134300
917.412	0.0134020
917.490	0.0132868
917.568	0.0133191
917.646	0.0133674
917.724	0.0132715
917.802	0.0131301
917.880	0.0131019
917.958	0.0132816
918.037	0.0132541
918.115	0.0131435
918.193	0.0131203
918.271	0.0131947
918.349	0.0133071
918.427	0.0134571
918.505	0.0133068
918.583	0.0133285
918.662	0.0132912
918.740	0.0132721
918.818	0.0133500
918.896	0.0132995
918.974	0.0133041
919.052	0.0134750
919.130	0.0133577
919.208	0.0134206
919.287	0.0134797
919.365	0.0136295
919.443	0.0134895
919.521	0.0134604
919.599	0.0135953
919.677	0.0136420
919.755	0.0135815
919.833	0.0135244
919.912	0.0136292
919.990	0.0135809
920.068	0.0136085
920.146	0.0137071
920.224	0.0137228
920.302	0.0135921
920.380	0.0137411
920.458	0.0136887
920.537	0.0137512
920.615	0.0138479
920.693	0.0138754
920.771	0.0136692
920.849	0.0135934
920.927	0.0137968
921.005	0.0137859
921.083	0.0137726
921.162	0.0136320
921.240	0.0136118
921.318	0.0135800
921.396	0.0135806
921.474	0.0136277
921.552	0.0136181
921.630	0.0134734
921.708	0.0135349
921.787	0.0135814
921.865	0.0134760
921.943	0.0135780
922.021	0.0134493
922.099	0.0133878
922.177	0.0134948
922.255	0.0133431
922.333	0.0134617
922.412	0.0133575
922.490	0.0133499
922.568	0.0134040
922.646	0.0133468
922.724	0.0131390
922.802	0.0131605
922.880	0.0132544
922.958	0.0132660
923.037	0.0131243
923.115	0.0131525
923.193	0.0131670
923.271	0.0132960
923.349	0.0132653
923.427	0.0133302
923.505	0.0132034
923.583	0.0132592
923.662	0.0132446
923.740	0.0134150
923.818	0.0133532
923.896	0.0134527
923.974	0.0133879
924.052	0.0134393
924.130	0.0133951
924.208	0.0134630
924.287	0.0136575
924.365	0.0136241
924.443	0.0136132
924.521	0.0134651
924.599	0.0134992
924.677	0.0135897
924.755	0.0136813
924.833	0.0135449
924.912	0.0134096
924.990	0.0134543
925.068	0.0133973
925.146	0.0135283
925.224	0.0135250
925.302	0.0136156
925.380	0.0135271
925.458	0.0133975
925.537	0.0133648
925.615	0.0135163
925.693	0.0134486
925.771	0.0134514
925.849	0.0133034
925.927	0.0134832
926.005	0.0135120
926.083	0.0132732
926.162	0.0133334
926.240	0.0134335
926.318	0.0133921
926.396	0.0134179
926.474	0.0134248
926.552	0.0134097
926.630	0.0134810
926.708	0.0135478
926.787	0.0135633
926.865	0.0134754
926.943	0.0135638
927.021	0.0134327
927.099	0.0134095
927.177	0.0135769
927.255	0.0133105
927.333	0.0134508
927.412	0.0134870
927.490	0.0134136
927.568	0.0134225
927.646	0.0133910
927.724	0.0135013
927.802	0.0134425
927.880	0.0134476
927.958	0.0136721
928.037	0.0135634
928.115	0.0133967
928.193	0.0135462
928.271	0.0136345
928.349	0.0135342
928.427	0.0135326
928.505	0.0135782
928.583	0.0133773
928.662	0.0134554
928.740	0.0134924
928.818	0.0135699
928.896	0.0133353
928.974	0.0132993
929.052	0.0134530
929.130	0.0133589
929.208	0.0133633
929.287	0.0133022
929.365	0.0132336
929.443	0.0131797
929.521	0.0131463
929.599	0.0134415
929.677	0.0133047
929.755	0.0132675
929.833	0.0134471
929.912	0.0133336
929.990	0.0132919
930.068	0.0133009
930.146	0.0134454
930.224	0.0134216
930.302	0.0134170
930.380	0.0133470
930.458	0.0132284
930.537	0.0132338
930.615	0.0133949
930.693	0.0132385
930.771	0.0132247
930.849	0.0131953
930.927	0.0133424
931.005	0.0134940
931.083	0.0133776
931.162	0.0133598
931.240	0.0134555
931.318	0.0133619
931.396	0.0134164
931.474	0.0135857
931.552	0.0134375
931.630	0.0135379
931.708	0.0135633
931.787	0.0137040
931.865	0.0136028
931.943	0.0136321
932.021	0.0136840
932.099	0.0137405
932.177	0.0137201
932.255	0.0136375
932.333	0.0137093
932.412	0.0137133
932.490	0.0135108
932.568	0.0136883
932.646	0.0136866
932.724	0.0136910
932.802	0.0136799
932.880	0.0137257
932.958	0.0136495
933.037	0.0137045
933.115	0.0136510
933.193	0.0136752
933.271	0.0137247
933.349	0.0135738
933.427	0.0135301
933.505	0.0135758
933.583	0.0134637
933.662	0.0134098
933.740	0.0134218
933.818	0.0133152
933.896	0.0133402
933.974	0.0132923
934.052	0.0130984
934.130	0.0131460
934.208	0.0131056
934.287	0.0131056
934.365	0.0130958
934.443	0.0130479
934.521	0.0131383
934.599	0.0131368
934.677	0.0132584
934.755	0.0131446
934.833	0.0131739
934.912	0.0132757
934.990	0.0131712
935.068	0.0131493
935.146	0.0132991
935.224	0.0133046
935.302	0.0133503
935.380	0.0134724
935.458	0.0135142
935.537	0.0133458
935.615	0.0134574
935.693	0.0135058
935.771	0.0134324
935.849	0.0134525
935.927	0.0135318
936.005	0.0133824
936.083	0.0133460
936.162	0.0133947
936.240	0.0134817
936.318	0.0132460
936.396	0.0133679
936.474	0.0133685
936.552	0.0134565
936.630	0.0134092
936.708	0.0133588
936.787	0.0133982
936.865	0.0135442
936.943	0.0135088
937.021	0.0135432
937.099	0.0135171
937.177	0.0134224
937.255	0.0135339
937.333	0.0134838
937.412	0.0135618
937.490	0.0134722
937.568	0.0133785
937.646	0.0134052
937.724	0.0134972
937.802	0.0134990
937.880	0.0135584
937.958	0.0135532
938.037	0.0135255
938.115	0.0135427
938.193	0.0137043
938.271	0.0137236
938.349	0.0137228
938.427	0.0136750
938.505	0.0136742
938.583	0.0137514
938.662	0.0137186
938.740	0.0136589
938.818	0.0136166
938.896	0.0136472
938.974	0.0135261
939.052	0.0135794
939.130	0.0134955
939.208	0.0135041
939.287	0.0135746
939.365	0.0135424
939.443	0.0133824
939.521	0.0134373
939.599	0.0132756
939.677	0.0134003
939.755	0.0133236
939.833	0.0132070
939.912	0.0133081
939.990	0.0132400
940.068	0.0133824
940.146	0.0133849
940.224	0.0134215
940.302	0.0132831
940.380	0.0134592
940.458	0.0133957
940.537	0.0133320
940.615	0.0135395
940.693	0.0135272
940.771	0.0133332
940.849	0.0134388
940.927	0.0135178
941.005	0.0134827
941.083	0.0133159
941.162	0.0132815
941.240	0.0134822
941.318	0.0135594
941.396	0.0135482
941.474	0.0133962
941.552	0.0135271
941.630	0.0134386
941.708	0.0134312
941.787	0.0133410
941.865	0.0134000
941.943	0.0134636
942.021	0.0132667
942.099	0.0133472
942.177	0.0133923
942.255	0.0132372
942.333	0.0133479
942.412	0.0133426
942.490	0.0132663
942.568	0.0132806
942.646	0.0134113
942.724	0.0133676
942.802	0.0131919
942.880	0.0132838
942.958	0.0134155
943.037	0.0134962
943.115	0.0134758
943.193	0.0135435
943.271	0.0134557
943.349	0.0136440
943.427	0.0137158
943.505	0.0134726
943.583	0.0137097
943.662	0.0136587
943.740	0.0136340
943.818	0.0137310
943.896	0.0136667
943.974	0.0136684
944.052	0.0137766
944.130	0.0135331
944.208	0.0137856
944.287	0.0136720
944.365	0.0134865
944.443	0.0136443
944.521	0.0136221
944.599	0.0135262
944.677	0.0135037
944.755	0.0134512
944.833	0.0134779
944.912	0.0132869
944.990	0.0134466
945.068	0.0133959
945.146	0.0132845
945.224	0.0133996
945.302	0.0133454
945.380	0.0133750
945.458	0.0133817
945.537	0.0134055
945.615	0.0133502
945.693	0.0133382
945.771	0.0132658
945.849	0.0132447
945.927	0.0133800
946.005	0.0134492
946.083	0.0133959
946.162	0.0135503
946.240	0.0134712
946.318	0.0135239
946.396	0.0135207
946.474	0.0136554
946.552	0.0136770
946.630	0.0135896
946.708	0.0136180
946.787	0.0135634
946.865	0.0135928
946.943	0.0134491
947.021	0.0135192
947.099	0.0133464
947.177	0.0134840
947.255	0.0134871
947.333	0.0134711
947.412	0.0133675
947.490	0.0132742
947.568	0.0132269
947.646	0.0132034
947.724	0.0131649
947.802	0.0132345
947.880	0.0131721
947.958	0.0132059
948.037	0.0131794
948.115	0.0130695
948.193	0.0131009
948.271	0.0132044
948.349	0.0131106
948.427	0.0132289
948.505	0.0132696
948.583	0.0132874
948.662	0.0133118
948.740	0.0132399
948.818	0.0133470
948.896	0.0132015
948.974	0.0134245
949.052	0.0133784
949.130	0.0134478
949.208	0.0135791
949.287	0.0135142
949.365	0.0136148
949.443	0.0136288
949.521	0.0134713
949.599	0.0136596
949.677	0.0136977
949.755	0.0134666
949.833	0.0134968
949.912	0.0136238
949.990	0.0136328
950.068	0.0136945
950.146	0.0136393
950.224	0.0136327
950.302	0.0136290
950.380	0.0136293
950.458	0.0135395
950.537	0.0136540
950.615	0.0136076
950.693	0.0134752
950.771	0.0136115
950.849	0.0137101
950.927	0.0136259
951.005	0.0135495
951.083	0.0135291
951.162	0.0133447
951.240	0.0133202
951.318	0.0134834
951.396	0.0135325
951.474	0.0133834
951.552	0.0134435
951.630	0.0134155
951.708	0.0134131
951.787	0.0134386
951.865	0.0135419
951.943	0.0135362
952.021	0.0135143
952.099	0.0134530
952.177	0.0135517
952.255	0.0135809
952.333	0.0135078
952.412	0.0134689
952.490	0.0133791
952.568	0.0137125
952.646	0.0135706
952.724	0.0135246
952.802	0.0133792
952.880	0.0134438
952.958	0.0135397
953.037	0.0133366
953.115	0.0133685
953.193	0.0133759
953.271	0.0131960
953.349	0.0132765
953.427	0.0134579
953.505	0.0133704
953.583	0.0132977
953.662	0.0130711
953.740	0.0133131
953.818	0.0132488
953.896	0.0132114
953.974	0.0131738
954.052	0.0131997
954.130	0.0133001
954.208	0.0131622
954.287	0.0131884
954.365	0.0132774
954.443	0.0133309
954.521	0.0133857
954.599	0.0132475
954.677	0.0133015
954.755	0.0132578
954.833	0.0133626
954.912	0.0134187
954.990	0.0134303
955.068	0.0135144
955.146	0.0135252
955.224	0.0134228
955.302	0.0135595
955.380	0.0134819
955.458	0.0136616
955.537	0.0136662
955.615	0.0135838
955.693	0.0137003
955.771	0.0136681
955.849	0.0136999
955.927	0.0137593
956.005	0.0135574
956.083	0.0136975
956.162	0.0138461
956.240	0.0136304
956.318	0.0135613
956.396	0.0137135
956.474	0.0136586
956.552	0.0135651
956.630	0.0135311
956.708	0.0135361
956.787	0.0135329
956.865	0.0133470
956.943	0.0133705
957.021	0.0133524
957.099	0.0133213
957.177	0.0132727
957.255	0.0132505
957.333	0.0132192
957.412	0.0133057
957.490	0.0132439
957.568	0.0133435
957.646	0.0134215
957.724	0.0135153
957.802	0.0135075
957.880	0.0134621
957.958	0.0134827
958.037	0.0134280
958.115	0.0136864
958.193	0.0135352
958.271	0.0134711
958.349	0.0134528
958.427	0.0134637
958.505	0.0134538
958.583	0.0133279
958.662	0.0134342
958.740	0.0134961
958.818	0.0134315
958.896	0.0133707
958.974	0.0134280
959.052	0.0134667
959.130	0.0133650
959.208	0.0133228
959.287	0.0134214
959.365	0.0133000
959.443	0.0133155
959.521	0.0132234
959.599	0.0133688
959.677	0.0132471
959.755	0.0131555
959.833	0.0132466
959.912	0.0132212
959.990	0.0132899
960.068	0.0133109
960.146	0.0134233
960.224	0.0133929
960.302	0.0132922
960.380	0.0133511
960.458	0.0133541
960.537	0.0134685
960.615	0.0135659
960.693	0.0133790
960.771	0.0134762
960.849	0.0134673
960.927	0.0134576
961.005	0.0135852
961.083	0.0136470
961.162	0.0135928
961.240	0.0136610
961.318	0.0137138
961.396	0.0136668
961.474	0.0135952
961.552	0.0134854
961.630	0.0136494
961.708	0.0135217
961.787	0.0134821
961.865	0.0135583
961.943	0.0134401
962.021	0.0134528
962.099	0.0135201
962.177	0.0134628
962.255	0.0135329
962.333	0.0135081
962.412	0.0135169
962.490	0.0134191
962.568	0.0132632
962.646	0.0133169
962.724	0.0132745
962.802	0.0134356
962.880	0.0133290
962.958	0.0133940
963.037	0.0134431
963.115	0.0135136
963.193	0.0134908
963.271	0.0135199
963.349	0.0135513
963.427	0.0136317
963.505	0.0135702
963.583	0.0136872
963.662	0.0136385
963.740	0.0135820
963.818	0.0134494
963.896	0.0135445
963.974	0.0136558
964.052	0.0136449
964.130	0.0136245
964.208	0.0135638
964.287	0.0135121
964.365	0.0134928
964.443	0.0134234
964.521	0.0133906
964.599	0.0134437
964.677	0.0133997
964.755	0.0134312
964.833	0.0133119
964.912	0.0133732
964.990	0.0132923
965.068	0.0132237
965.146	0.0131358
965.224	0.0131887
965.302	0.0131628
965.380	0.0130592
965.458	0.0130819
965.537	0.0130306
965.615	0.0130407
965.693	0.0130570
965.771	0.0132269
965.849	0.0131917
965.927	0.0131818
966.005	0.0132183
966.083	0.0133050
966.162	0.0134748
966.240	0.0133827
966.318	0.0133598
966.396	0.0134983
966.474	0.0135067
966.552	0.0137289
966.630	0.0136672
966.708	0.0137839
966.787	0.0138782
966.865	0.0140498
966.943	0.0138877
967.021	0.0139399
967.099	0.0140347
967.177	0.0141084
967.255	0.0138698
967.333	0.0138503
967.412	0.0139593
967.490	0.0138443
967.568	0.0137836
967.646	0.0138777
967.724	0.0137913
967.802	0.0136588
967.880	0.0134294
967.958	0.0134322
968.037	0.0134064
968.115	0.0135081
968.193	0.0132977
968.271	0.0132019
968.349	0.0130054
968.427	0.0130801
968.505	0.0131351
968.583	0.0130344
968.662	0.0130656
968.740	0.0130992
968.818	0.0129868
968.896	0.0129440
968.974	0.0130669
969.052	0.0130982
969.130	0.0130115
969.208	0.0131361
969.287	0.0130799
969.365	0.0132381
969.443	0.0133692
969.521	0.0133065
969.599	0.0134087
969.677	0.0135474
969.755	0.0136062
969.833	0.0136056
969.912	0.0136820
