05/08/2022	19:52:30	Ver.	4.1	UNKNOWN
Optical Delay	649.989667	Delta X		0.078125	Sweeps	1	Scan Rate	0/0
Coordinates	Axis 1	NaN	Axis 2	NaN	Axis 3	NaN	Axis 4	NaN	Axis 5	NaN	Axis 6	0.000000
TX Power	0.000000	RX Power	0.000000

649.990	0.0138247
650.068	0.0137353
650.146	0.0138330
650.224	0.0137444
650.302	0.0138220
650.380	0.0137161
650.458	0.0136906
650.537	0.0137306
650.615	0.0138630
650.693	0.0139681
650.771	0.0138191
650.849	0.0137608
650.927	0.0138078
651.005	0.0137010
651.083	0.0138704
651.162	0.0137891
651.240	0.0136822
651.318	0.0138580
651.396	0.0137628
651.474	0.0137661
651.552	0.0137113
651.630	0.0135664
651.708	0.0137459
651.787	0.0137992
651.865	0.0136922
651.943	0.0136562
652.021	0.0137004
652.099	0.0137406
652.177	0.0137835
652.255	0.0137725
652.333	0.0137723
652.412	0.0137875
652.490	0.0136417
652.568	0.0137199
652.646	0.0136897
652.724	0.0137725
652.802	0.0137345
652.880	0.0137021
652.958	0.0137501
653.037	0.0138516
653.115	0.0137556
653.193	0.0137871
653.271	0.0138163
653.349	0.0137738
653.427	0.0138031
653.505	0.0137379
653.583	0.0137090
653.662	0.0137145
653.740	0.0137011
653.818	0.0137871
653.896	0.0137285
653.974	0.0138666
654.052	0.0137601
654.130	0.0136456
654.208	0.0137466
654.287	0.0137817
654.365	0.0136349
654.443	0.0137943
654.521	0.0138805
654.599	0.0137571
654.677	0.0136575
654.755	0.0136267
654.833	0.0138341
654.912	0.0137988
654.990	0.0137848
655.068	0.0138638
655.146	0.0137698
655.224	0.0136568
655.302	0.0136880
655.380	0.0137566
655.458	0.0136980
655.537	0.0137286
655.615	0.0138385
655.693	0.0136091
655.771	0.0137115
655.849	0.0137460
655.927	0.0136767
656.005	0.0137151
656.083	0.0137085
656.162	0.0136781
656.240	0.0138138
656.318	0.0136919
656.396	0.0137296
656.474	0.0137124
656.552	0.0137568
656.630	0.0138509
656.708	0.0136491
656.787	0.0137826
656.865	0.0137974
656.943	0.0138487
657.021	0.0135806
657.099	0.0137998
657.177	0.0138569
657.255	0.0138444
657.333	0.0136475
657.412	0.0137505
657.490	0.0137872
657.568	0.0136205
657.646	0.0135985
657.724	0.0137946
657.802	0.0137958
657.880	0.0137456
657.958	0.0136514
658.037	0.0137385
658.115	0.0138033
658.193	0.0136996
658.271	0.0136714
658.349	0.0136914
658.427	0.0137900
658.505	0.0138197
658.583	0.0136774
658.662	0.0137732
658.740	0.0138271
658.818	0.0137876
658.896	0.0136402
658.974	0.0137633
659.052	0.0137680
659.130	0.0137500
659.208	0.0137195
659.287	0.0136690
659.365	0.0138152
659.443	0.0138146
659.521	0.0137663
659.599	0.0136758
659.677	0.0137846
659.755	0.0137005
659.833	0.0137152
659.912	0.0136855
659.990	0.0137185
660.068	0.0136138
660.146	0.0136433
660.224	0.0136592
660.302	0.0137221
660.380	0.0136897
660.458	0.0137986
660.537	0.0137488
660.615	0.0138414
660.693	0.0138467
660.771	0.0138583
660.849	0.0139107
660.927	0.0137452
661.005	0.0138082
661.083	0.0138742
661.162	0.0138392
661.240	0.0136801
661.318	0.0136420
661.396	0.0134589
661.474	0.0136347
661.552	0.0136575
661.630	0.0135693
661.708	0.0134628
661.787	0.0135613
661.865	0.0135098
661.943	0.0135825
662.021	0.0136266
662.099	0.0137111
662.177	0.0137572
662.255	0.0139502
662.333	0.0139709
662.412	0.0139619
662.490	0.0141566
662.568	0.0141440
662.646	0.0141000
662.724	0.0140456
662.802	0.0140730
662.880	0.0139691
662.958	0.0138839
663.037	0.0136272
663.115	0.0136010
663.193	0.0134398
663.271	0.0133067
663.349	0.0132039
663.427	0.0131263
663.505	0.0130473
663.583	0.0129737
663.662	0.0130308
663.740	0.0129178
663.818	0.0131766
663.896	0.0131909
663.974	0.0134575
664.052	0.0137509
664.130	0.0138364
664.208	0.0140691
664.287	0.0142981
664.365	0.0142876
664.443	0.0143288
664.521	0.0145140
664.599	0.0143807
664.677	0.0143513
664.755	0.0142992
664.833	0.0142843
664.912	0.0141026
664.990	0.0140468
665.068	0.0138915
665.146	0.0138827
665.224	0.0139680
665.302	0.0139830
665.380	0.0138935
665.458	0.0137959
665.537	0.0138790
665.615	0.0139199
665.693	0.0135218
665.771	0.0134368
665.849	0.0135435
665.927	0.0134615
666.005	0.0133259
666.083	0.0131231
666.162	0.0130523
666.240	0.0128220
666.318	0.0127131
666.396	0.0126694
666.474	0.0127641
666.552	0.0127915
666.630	0.0130755
666.708	0.0132461
666.787	0.0135654
666.865	0.0139922
666.943	0.0141018
667.021	0.0144483
667.099	0.0147750
667.177	0.0149474
667.255	0.0151460
667.333	0.0152780
667.412	0.0151276
667.490	0.0151871
667.568	0.0149377
667.646	0.0149084
667.724	0.0146217
667.802	0.0144206
667.880	0.0140943
667.958	0.0139087
668.037	0.0138897
668.115	0.0137135
668.193	0.0134306
668.271	0.0134846
668.349	0.0136854
668.427	0.0136474
668.505	0.0134805
668.583	0.0134522
668.662	0.0133466
668.740	0.0131578
668.818	0.0130321
668.896	0.0129887
668.974	0.0126328
669.052	0.0124960
669.130	0.0125010
669.208	0.0123819
669.287	0.0126854
669.365	0.0127894
669.443	0.0129773
669.521	0.0131405
669.599	0.0133614
669.677	0.0136408
669.755	0.0139546
669.833	0.0142261
669.912	0.0144622
669.990	0.0146313
670.068	0.0147221
670.146	0.0148280
670.224	0.0147974
670.302	0.0150082
670.380	0.0148362
670.458	0.0148037
670.537	0.0147945
670.615	0.0145995
670.693	0.0144971
670.771	0.0143199
670.849	0.0141015
670.927	0.0139641
671.005	0.0137297
671.083	0.0135689
671.162	0.0133640
671.240	0.0132747
671.318	0.0129952
671.396	0.0127911
671.474	0.0128267
671.552	0.0129871
671.630	0.0129353
671.708	0.0132286
671.787	0.0137154
671.865	0.0139389
671.943	0.0143128
672.021	0.0145312
672.099	0.0147815
672.177	0.0150100
672.255	0.0150390
672.333	0.0152000
672.412	0.0151148
672.490	0.0148970
672.568	0.0146980
672.646	0.0145146
672.724	0.0141457
672.802	0.0140025
672.880	0.0137017
672.958	0.0135075
673.037	0.0132042
673.115	0.0129642
673.193	0.0128468
673.271	0.0125597
673.349	0.0126119
673.427	0.0123972
673.505	0.0123298
673.583	0.0121144
673.662	0.0119130
673.740	0.0118404
673.818	0.0117225
673.896	0.0115977
673.974	0.0116338
674.052	0.0118030
674.130	0.0119579
674.208	0.0121229
674.287	0.0122816
674.365	0.0126481
674.443	0.0130617
674.521	0.0135791
674.599	0.0140026
674.677	0.0147651
674.755	0.0153008
674.833	0.0156097
674.912	0.0162199
674.990	0.0166871
675.068	0.0169254
675.146	0.0172211
675.224	0.0173978
675.302	0.0174828
675.380	0.0176431
675.458	0.0174422
675.537	0.0172195
675.615	0.0170731
675.693	0.0168246
675.771	0.0164159
675.849	0.0160165
675.927	0.0154336
676.005	0.0146868
676.083	0.0142867
676.162	0.0136360
676.240	0.0129604
676.318	0.0123861
676.396	0.0118358
676.474	0.0113839
676.552	0.0109947
676.630	0.0105512
676.708	0.0102702
676.787	0.0100654
676.865	0.0101876
676.943	0.0100996
677.021	0.0101081
677.099	0.0100960
677.177	0.0103863
677.255	0.0105811
677.333	0.0107041
677.412	0.0110677
677.490	0.0111645
677.568	0.0115131
677.646	0.0117609
677.724	0.0121323
677.802	0.0125536
677.880	0.0131802
677.958	0.0136337
678.037	0.0140092
678.115	0.0147946
678.193	0.0153541
678.271	0.0158649
678.349	0.0164037
678.427	0.0166171
678.505	0.0169789
678.583	0.0171563
678.662	0.0172511
678.740	0.0170148
678.818	0.0168820
678.896	0.0166017
678.974	0.0162941
679.052	0.0159417
679.130	0.0154721
679.208	0.0153100
679.287	0.0149077
679.365	0.0146649
679.443	0.0145625
679.521	0.0144685
679.599	0.0144298
679.677	0.0144353
679.755	0.0144807
679.833	0.0145908
679.912	0.0146938
679.990	0.0148573
680.068	0.0149781
680.146	0.0149880
680.224	0.0149422
680.302	0.0149400
680.380	0.0147520
680.458	0.0145294
680.537	0.0141851
680.615	0.0137411
680.693	0.0133570
680.771	0.0128995
680.849	0.0123286
680.927	0.0118420
681.005	0.0111181
681.083	0.0105527
681.162	0.0101349
681.240	0.00952621
681.318	0.00939247
681.396	0.00897102
681.474	0.00894585
681.552	0.00907669
681.630	0.00917038
681.708	0.00942474
681.787	0.00975166
681.865	0.0105083
681.943	0.0109400
682.021	0.0114333
682.099	0.0120641
682.177	0.0126557
682.255	0.0133942
682.333	0.0139166
682.412	0.0143652
682.490	0.0149394
682.568	0.0155199
682.646	0.0159158
682.724	0.0164172
682.802	0.0167360
682.880	0.0171295
682.958	0.0173780
683.037	0.0176538
683.115	0.0177032
683.193	0.0177513
683.271	0.0177578
683.349	0.0177045
683.427	0.0177467
683.505	0.0174170
683.583	0.0173116
683.662	0.0171568
683.740	0.0169176
683.818	0.0166623
683.896	0.0163641
683.974	0.0162260
684.052	0.0160239
684.130	0.0158395
684.208	0.0156113
684.287	0.0152285
684.365	0.0148410
684.443	0.0143856
684.521	0.0137399
684.599	0.0131799
684.677	0.0126629
684.755	0.0120719
684.833	0.0115987
684.912	0.0113313
684.990	0.0111152
685.068	0.0109969
685.146	0.0108098
685.224	0.0109068
685.302	0.0107375
685.380	0.0107825
685.458	0.0107480
685.537	0.0103963
685.615	0.0102712
685.693	0.0102129
685.771	0.00973351
685.849	0.00948311
685.927	0.00942017
686.005	0.00935524
686.083	0.00923172
686.162	0.00952156
686.240	0.00971222
686.318	0.0102540
686.396	0.0107648
686.474	0.0113929
686.552	0.0119746
686.630	0.0126933
686.708	0.0134844
686.787	0.0143665
686.865	0.0149882
686.943	0.0156190
687.021	0.0162155
687.099	0.0166835
687.177	0.0171432
687.255	0.0176185
687.333	0.0178926
687.412	0.0181230
687.490	0.0183908
687.568	0.0187324
687.646	0.0188177
687.724	0.0189503
687.802	0.0190041
687.880	0.0189371
687.958	0.0185880
688.037	0.0181615
688.115	0.0178763
688.193	0.0172715
688.271	0.0166813
688.349	0.0160255
688.427	0.0152480
688.505	0.0145257
688.583	0.0139903
688.662	0.0134698
688.740	0.0129298
688.818	0.0127041
688.896	0.0122462
688.974	0.0120408
689.052	0.0117418
689.130	0.0116235
689.208	0.0115501
689.287	0.0114861
689.365	0.0112658
689.443	0.0111901
689.521	0.0111196
689.599	0.0109244
689.677	0.0109507
689.755	0.0108851
689.833	0.0106771
689.912	0.0108080
689.990	0.0108545
690.068	0.0112695
690.146	0.0113453
690.224	0.0113229
690.302	0.0116438
690.380	0.0120315
690.458	0.0123719
690.537	0.0126379
690.615	0.0131567
690.693	0.0134546
690.771	0.0137306
690.849	0.0140399
690.927	0.0140793
691.005	0.0142605
691.083	0.0142400
691.162	0.0141292
691.240	0.0140808
691.318	0.0139622
691.396	0.0138389
691.474	0.0137273
691.552	0.0135097
691.630	0.0133432
691.708	0.0132868
691.787	0.0133572
691.865	0.0136352
691.943	0.0137986
692.021	0.0140837
692.099	0.0141824
692.177	0.0144794
692.255	0.0148273
692.333	0.0150947
692.412	0.0152979
692.490	0.0154549
692.568	0.0155956
692.646	0.0158088
692.724	0.0157331
692.802	0.0157299
692.880	0.0157533
692.958	0.0154744
693.037	0.0154473
693.115	0.0154935
693.193	0.0152978
693.271	0.0151460
693.349	0.0153465
693.427	0.0152110
693.505	0.0153365
693.583	0.0153700
693.662	0.0153481
693.740	0.0154458
693.818	0.0153436
693.896	0.0154152
693.974	0.0153127
694.052	0.0151714
694.130	0.0148904
694.208	0.0144884
694.287	0.0140800
694.365	0.0134679
694.443	0.0130241
694.521	0.0124171
694.599	0.0117832
694.677	0.0111184
694.755	0.0107242
694.833	0.0103322
694.912	0.0100791
694.990	0.00986328
695.068	0.00973091
695.146	0.00963501
695.224	0.00978271
695.302	0.0100155
695.380	0.0102447
695.458	0.0108418
695.537	0.0112122
695.615	0.0116312
695.693	0.0123311
695.771	0.0129086
695.849	0.0135088
695.927	0.0140663
696.005	0.0144276
696.083	0.0148727
696.162	0.0153133
696.240	0.0155686
696.318	0.0159624
696.396	0.0160032
696.474	0.0160780
696.552	0.0162720
696.630	0.0160123
696.708	0.0158777
696.787	0.0156081
696.865	0.0153567
696.943	0.0148582
697.021	0.0144068
697.099	0.0137759
697.177	0.0136177
697.255	0.0131742
697.333	0.0128068
697.412	0.0125330
697.490	0.0123373
697.568	0.0125416
697.646	0.0124345
697.724	0.0126050
697.802	0.0127704
697.880	0.0130938
697.958	0.0135966
698.037	0.0140305
698.115	0.0144126
698.193	0.0146477
698.271	0.0149987
698.349	0.0152930
698.427	0.0156200
698.505	0.0156807
698.583	0.0158257
698.662	0.0158579
698.740	0.0159090
698.818	0.0158057
698.896	0.0157748
698.974	0.0156833
699.052	0.0155502
699.130	0.0152865
699.208	0.0152584
699.287	0.0150675
699.365	0.0147046
699.443	0.0147552
699.521	0.0143588
699.599	0.0141967
699.677	0.0138933
699.755	0.0134850
699.833	0.0129366
699.912	0.0126447
699.990	0.0122506
700.068	0.0119156
700.146	0.0114538
700.224	0.0110484
700.302	0.0109668
700.380	0.0108423
700.458	0.0107368
700.537	0.0108947
700.615	0.0111430
700.693	0.0112408
700.771	0.0116363
700.849	0.0120384
700.927	0.0124098
701.005	0.0125954
701.083	0.0131185
701.162	0.0134524
701.240	0.0137464
701.318	0.0140369
701.396	0.0142533
701.474	0.0144249
701.552	0.0146174
701.630	0.0147005
701.708	0.0147990
701.787	0.0149332
701.865	0.0149194
701.943	0.0150630
702.021	0.0151695
702.099	0.0153465
702.177	0.0150710
702.255	0.0150527
702.333	0.0150726
702.412	0.0149442
702.490	0.0147302
702.568	0.0144684
702.646	0.0141792
702.724	0.0139062
702.802	0.0136195
702.880	0.0132830
702.958	0.0129906
703.037	0.0127341
703.115	0.0126238
703.193	0.0126479
703.271	0.0125906
703.349	0.0127496
703.427	0.0127666
703.505	0.0128477
703.583	0.0128241
703.662	0.0130785
703.740	0.0130606
703.818	0.0132154
703.896	0.0133125
703.974	0.0134618
704.052	0.0135764
704.130	0.0137347
704.208	0.0138853
704.287	0.0140504
704.365	0.0141822
704.443	0.0145113
704.521	0.0145980
704.599	0.0147900
704.677	0.0149950
704.755	0.0149532
704.833	0.0149967
704.912	0.0152235
704.990	0.0154034
705.068	0.0153255
705.146	0.0151427
705.224	0.0151823
705.302	0.0150902
705.380	0.0148460
705.458	0.0146652
705.537	0.0146004
705.615	0.0144720
705.693	0.0142258
705.771	0.0142794
705.849	0.0142825
705.927	0.0140842
706.005	0.0139639
706.083	0.0138337
706.162	0.0137006
706.240	0.0135838
706.318	0.0132008
706.396	0.0130181
706.474	0.0129198
706.552	0.0125806
706.630	0.0123620
706.708	0.0122991
706.787	0.0120403
706.865	0.0120265
706.943	0.0118211
707.021	0.0115390
707.099	0.0116583
707.177	0.0117910
707.255	0.0119241
707.333	0.0119920
707.412	0.0121873
707.490	0.0123866
707.568	0.0127999
707.646	0.0131616
707.724	0.0133992
707.802	0.0137973
707.880	0.0141566
707.958	0.0143834
708.037	0.0144668
708.115	0.0145914
708.193	0.0148528
708.271	0.0147610
708.349	0.0145883
708.427	0.0144922
708.505	0.0142422
708.583	0.0142025
708.662	0.0140310
708.740	0.0139349
708.818	0.0138066
708.896	0.0135902
708.974	0.0137064
709.052	0.0138778
709.130	0.0139078
709.208	0.0138226
709.287	0.0138727
709.365	0.0139686
709.443	0.0139186
709.521	0.0139005
709.599	0.0138861
709.677	0.0137399
709.755	0.0136128
709.833	0.0135146
709.912	0.0134237
709.990	0.0133447
710.068	0.0132801
710.146	0.0132823
710.224	0.0133706
710.302	0.0133682
710.380	0.0135783
710.458	0.0139246
710.537	0.0140836
710.615	0.0144884
710.693	0.0149163
710.771	0.0152961
710.849	0.0157794
710.927	0.0161951
711.005	0.0164422
711.083	0.0167645
711.162	0.0168547
711.240	0.0167319
711.318	0.0165905
711.396	0.0165185
711.474	0.0161541
711.552	0.0158066
711.630	0.0153709
711.708	0.0150009
711.787	0.0145404
711.865	0.0140633
711.943	0.0136554
712.021	0.0132891
712.099	0.0128991
712.177	0.0126336
712.255	0.0122898
712.333	0.0121232
712.412	0.0117892
712.490	0.0116086
712.568	0.0112227
712.646	0.0111613
712.724	0.0109708
712.802	0.0108698
712.880	0.0106983
712.958	0.0108286
713.037	0.0105894
713.115	0.0108352
713.193	0.0109689
713.271	0.0112531
713.349	0.0112904
713.427	0.0116551
713.505	0.0117722
713.583	0.0120423
713.662	0.0125542
713.740	0.0128145
713.818	0.0131958
713.896	0.0136583
713.974	0.0139876
714.052	0.0142515
714.130	0.0147113
714.208	0.0150932
714.287	0.0152257
714.365	0.0151276
714.443	0.0153252
714.521	0.0154713
714.599	0.0153639
714.677	0.0153506
714.755	0.0155685
714.833	0.0155404
714.912	0.0153938
714.990	0.0152866
715.068	0.0152174
715.146	0.0151425
715.224	0.0150167
715.302	0.0149553
715.380	0.0147952
715.458	0.0146818
715.537	0.0144675
715.615	0.0143620
715.693	0.0142062
715.771	0.0141019
715.849	0.0139912
715.927	0.0138855
716.005	0.0135760
716.083	0.0136219
716.162	0.0134016
716.240	0.0133572
716.318	0.0134278
716.396	0.0134525
716.474	0.0137132
716.552	0.0136391
716.630	0.0138068
716.708	0.0141839
716.787	0.0144075
716.865	0.0146324
716.943	0.0147345
717.021	0.0148937
717.099	0.0151660
717.177	0.0151402
717.255	0.0151910
717.333	0.0149075
717.412	0.0149844
717.490	0.0147971
717.568	0.0145720
717.646	0.0142868
717.724	0.0139816
717.802	0.0135426
717.880	0.0132675
717.958	0.0131089
718.037	0.0126909
718.115	0.0123785
718.193	0.0120525
718.271	0.0120763
718.349	0.0120142
718.427	0.0116297
718.505	0.0116481
718.583	0.0116199
718.662	0.0118044
718.740	0.0117538
718.818	0.0116599
718.896	0.0119307
718.974	0.0120266
719.052	0.0120229
719.130	0.0121364
719.208	0.0122580
719.287	0.0123817
719.365	0.0125034
719.443	0.0126441
719.521	0.0128861
719.599	0.0130038
719.677	0.0132182
719.755	0.0133586
719.833	0.0135321
719.912	0.0139330
719.990	0.0141351
720.068	0.0144299
720.146	0.0148296
720.224	0.0150617
720.302	0.0152249
720.380	0.0153705
720.458	0.0155546
720.537	0.0157542
720.615	0.0158897
720.693	0.0158210
720.771	0.0157787
720.849	0.0156583
720.927	0.0154377
721.005	0.0153561
721.083	0.0153693
721.162	0.0150677
721.240	0.0148525
721.318	0.0147353
721.396	0.0145071
721.474	0.0142477
721.552	0.0140112
721.630	0.0140605
721.708	0.0137992
721.787	0.0134843
721.865	0.0132330
721.943	0.0132038
722.021	0.0130409
722.099	0.0130589
722.177	0.0128869
722.255	0.0129390
722.333	0.0129054
722.412	0.0130396
722.490	0.0130535
722.568	0.0132106
722.646	0.0132800
722.724	0.0133508
722.802	0.0135622
722.880	0.0137515
722.958	0.0137823
723.037	0.0137139
723.115	0.0138145
723.193	0.0140710
723.271	0.0140484
723.349	0.0141019
723.427	0.0141592
723.505	0.0144045
723.583	0.0143407
723.662	0.0144753
723.740	0.0146750
723.818	0.0145420
723.896	0.0144823
723.974	0.0145280
724.052	0.0145597
724.130	0.0145646
724.208	0.0143871
724.287	0.0142940
724.365	0.0141293
724.443	0.0138381
724.521	0.0137563
724.599	0.0135897
724.677	0.0134286
724.755	0.0132799
724.833	0.0130090
724.912	0.0130674
724.990	0.0129411
725.068	0.0127480
725.146	0.0128252
725.224	0.0126238
725.302	0.0124835
725.380	0.0124423
725.458	0.0124281
725.537	0.0123605
725.615	0.0124966
725.693	0.0123908
725.771	0.0124494
725.849	0.0125823
725.927	0.0126964
726.005	0.0128217
726.083	0.0128813
726.162	0.0130097
726.240	0.0131489
726.318	0.0135914
726.396	0.0138029
726.474	0.0140001
726.552	0.0142580
726.630	0.0143687
726.708	0.0145305
726.787	0.0147211
726.865	0.0147765
726.943	0.0148623
727.021	0.0148795
727.099	0.0148220
727.177	0.0148130
727.255	0.0149062
727.333	0.0148257
727.412	0.0148642
727.490	0.0148437
727.568	0.0147493
727.646	0.0147927
727.724	0.0147516
727.802	0.0147554
727.880	0.0147749
727.958	0.0146799
728.037	0.0147948
728.115	0.0146054
728.193	0.0146123
728.271	0.0146151
728.349	0.0142545
728.427	0.0140723
728.505	0.0137664
728.583	0.0137225
728.662	0.0135561
728.740	0.0132365
728.818	0.0130172
728.896	0.0127077
728.974	0.0125296
729.052	0.0124332
729.130	0.0123189
729.208	0.0122929
729.287	0.0124345
729.365	0.0121981
729.443	0.0124357
729.521	0.0126239
729.599	0.0129229
729.677	0.0130741
729.755	0.0136201
729.833	0.0138898
729.912	0.0143871
729.990	0.0145548
730.068	0.0148216
730.146	0.0150354
730.224	0.0150351
730.302	0.0149598
730.380	0.0150286
730.458	0.0149203
730.537	0.0146866
730.615	0.0144712
730.693	0.0142003
730.771	0.0140622
730.849	0.0137224
730.927	0.0135461
731.005	0.0133421
731.083	0.0132336
731.162	0.0130618
731.240	0.0129021
731.318	0.0129652
731.396	0.0129584
731.474	0.0129907
731.552	0.0129571
731.630	0.0128656
731.708	0.0128822
731.787	0.0128703
731.865	0.0129983
731.943	0.0128420
732.021	0.0128538
732.099	0.0130164
732.177	0.0128772
732.255	0.0130214
732.333	0.0129535
732.412	0.0131882
732.490	0.0132850
732.568	0.0135954
732.646	0.0137576
732.724	0.0139591
732.802	0.0140298
732.880	0.0142194
732.958	0.0142680
733.037	0.0144772
733.115	0.0143578
733.193	0.0143604
733.271	0.0145545
733.349	0.0144701
733.427	0.0145567
733.505	0.0145876
733.583	0.0146050
733.662	0.0145959
733.740	0.0143932
733.818	0.0143484
733.896	0.0144157
733.974	0.0143335
734.052	0.0143848
734.130	0.0144010
734.208	0.0144211
734.287	0.0144933
734.365	0.0141402
734.443	0.0141085
734.521	0.0142004
734.599	0.0141991
734.677	0.0139300
734.755	0.0138698
734.833	0.0138331
734.912	0.0134653
734.990	0.0133196
735.068	0.0132413
735.146	0.0130651
735.224	0.0126644
735.302	0.0127671
735.380	0.0126942
735.458	0.0126247
735.537	0.0125933
735.615	0.0127418
735.693	0.0128386
735.771	0.0132084
735.849	0.0133214
735.927	0.0135721
736.005	0.0138378
736.083	0.0143336
736.162	0.0146438
736.240	0.0148722
736.318	0.0150225
736.396	0.0152408
736.474	0.0154301
736.552	0.0155614
736.630	0.0154254
736.708	0.0152988
736.787	0.0151878
736.865	0.0148748
736.943	0.0145517
737.021	0.0142979
737.099	0.0139392
737.177	0.0136767
737.255	0.0133523
737.333	0.0131702
737.412	0.0128294
737.490	0.0127020
737.568	0.0126215
737.646	0.0125212
737.724	0.0124419
737.802	0.0122681
737.880	0.0123972
737.958	0.0124268
738.037	0.0125106
738.115	0.0124582
738.193	0.0127104
738.271	0.0125793
738.349	0.0126019
738.427	0.0126568
738.505	0.0128552
738.583	0.0130701
738.662	0.0131186
738.740	0.0131350
738.818	0.0131821
738.896	0.0133511
738.974	0.0135274
739.052	0.0137061
739.130	0.0138573
739.208	0.0138913
739.287	0.0140314
739.365	0.0141547
739.443	0.0142297
739.521	0.0142390
739.599	0.0142480
739.677	0.0145233
739.755	0.0146044
739.833	0.0146014
739.912	0.0146056
739.990	0.0146295
740.068	0.0146153
740.146	0.0146161
740.224	0.0145777
740.302	0.0146508
740.380	0.0144859
740.458	0.0143552
740.537	0.0143328
740.615	0.0144191
740.693	0.0142100
740.771	0.0141391
740.849	0.0141931
740.927	0.0140939
741.005	0.0138467
741.083	0.0138451
741.162	0.0136063
741.240	0.0135427
741.318	0.0136161
741.396	0.0135943
741.474	0.0136705
741.552	0.0134429
741.630	0.0133234
741.708	0.0133479
741.787	0.0134267
741.865	0.0134628
741.943	0.0133409
742.021	0.0134133
742.099	0.0134232
742.177	0.0134617
742.255	0.0135310
742.333	0.0138018
742.412	0.0136665
742.490	0.0137403
742.568	0.0139275
742.646	0.0140633
742.724	0.0143662
742.802	0.0142068
742.880	0.0143143
742.958	0.0142879
743.037	0.0142894
743.115	0.0143669
743.193	0.0142441
743.271	0.0141076
743.349	0.0140376
743.427	0.0139412
743.505	0.0139162
743.583	0.0136013
743.662	0.0134688
743.740	0.0135632
743.818	0.0133582
743.896	0.0131697
743.974	0.0132887
744.052	0.0132132
744.130	0.0133460
744.208	0.0132104
744.287	0.0132695
744.365	0.0133247
744.443	0.0131310
744.521	0.0133144
744.599	0.0133589
744.677	0.0133164
744.755	0.0135170
744.833	0.0133764
744.912	0.0132123
744.990	0.0133655
745.068	0.0133259
745.146	0.0133092
745.224	0.0134152
745.302	0.0133008
745.380	0.0133137
745.458	0.0134216
745.537	0.0135809
745.615	0.0136297
745.693	0.0136399
745.771	0.0138214
745.849	0.0137674
745.927	0.0139891
746.005	0.0140323
746.083	0.0140202
746.162	0.0141698
746.240	0.0141174
746.318	0.0143098
746.396	0.0142622
746.474	0.0140353
746.552	0.0140358
746.630	0.0142233
746.708	0.0141908
746.787	0.0142284
746.865	0.0141013
746.943	0.0142030
747.021	0.0140722
747.099	0.0140347
747.177	0.0140795
747.255	0.0140186
747.333	0.0140987
747.412	0.0139149
747.490	0.0140126
747.568	0.0138739
747.646	0.0139448
747.724	0.0138243
747.802	0.0140229
747.880	0.0139323
747.958	0.0140858
748.037	0.0139306
748.115	0.0138208
748.193	0.0137727
748.271	0.0138754
748.349	0.0140024
748.427	0.0139642
748.505	0.0137835
748.583	0.0138967
748.662	0.0138775
748.740	0.0139443
748.818	0.0138976
748.896	0.0139767
748.974	0.0141074
749.052	0.0141294
749.130	0.0141479
749.208	0.0141276
749.287	0.0140511
749.365	0.0139230
749.443	0.0138052
749.521	0.0138599
749.599	0.0136717
749.677	0.0135651
749.755	0.0133035
749.833	0.0133148
749.912	0.0133479
749.990	0.0131329
750.068	0.0130320
750.146	0.0129776
750.224	0.0129514
750.302	0.0129520
750.380	0.0130066
750.458	0.0129522
750.537	0.0130119
750.615	0.0131531
750.693	0.0131411
750.771	0.0132919
750.849	0.0132169
750.927	0.0133728
751.005	0.0135516
751.083	0.0134669
751.162	0.0134312
751.240	0.0136189
751.318	0.0137163
751.396	0.0136861
751.474	0.0138970
751.552	0.0140120
751.630	0.0139552
751.708	0.0138998
751.787	0.0139913
751.865	0.0141433
751.943	0.0141473
752.021	0.0140333
752.099	0.0140188
752.177	0.0139479
752.255	0.0140361
752.333	0.0140712
752.412	0.0138676
752.490	0.0137978
752.568	0.0138128
752.646	0.0138032
752.724	0.0136987
752.802	0.0136916
752.880	0.0135406
752.958	0.0137251
753.037	0.0138139
753.115	0.0135127
753.193	0.0136655
753.271	0.0136250
753.349	0.0136727
753.427	0.0137492
753.505	0.0137910
753.583	0.0138730
753.662	0.0137077
753.740	0.0139418
753.818	0.0139037
753.896	0.0138257
753.974	0.0139187
754.052	0.0138194
754.130	0.0139830
754.208	0.0141087
754.287	0.0141187
754.365	0.0141315
754.443	0.0140610
754.521	0.0140427
754.599	0.0140356
754.677	0.0140926
754.755	0.0139669
754.833	0.0140011
754.912	0.0140077
754.990	0.0138150
755.068	0.0138713
755.146	0.0139698
755.224	0.0139561
755.302	0.0138716
755.380	0.0138622
755.458	0.0138367
755.537	0.0137731
755.615	0.0137441
755.693	0.0138097
755.771	0.0136983
755.849	0.0136443
755.927	0.0135895
756.005	0.0136099
756.083	0.0135484
756.162	0.0135713
756.240	0.0134347
756.318	0.0133700
756.396	0.0132599
756.474	0.0133426
756.552	0.0131672
756.630	0.0131075
756.708	0.0132453
756.787	0.0132440
756.865	0.0132463
756.943	0.0132084
757.021	0.0133544
757.099	0.0135746
757.177	0.0134940
757.255	0.0135217
757.333	0.0135737
757.412	0.0136102
757.490	0.0137703
757.568	0.0138754
757.646	0.0138001
757.724	0.0138752
757.802	0.0139994
757.880	0.0140417
757.958	0.0140648
758.037	0.0139105
758.115	0.0139194
758.193	0.0139530
758.271	0.0138750
758.349	0.0137938
758.427	0.0137381
758.505	0.0137319
758.583	0.0137431
758.662	0.0135876
758.740	0.0134401
758.818	0.0134266
758.896	0.0134398
758.974	0.0132633
759.052	0.0133916
759.130	0.0133458
759.208	0.0133121
759.287	0.0134619
759.365	0.0134510
759.443	0.0133751
759.521	0.0136077
759.599	0.0136209
759.677	0.0135652
759.755	0.0135698
759.833	0.0137027
759.912	0.0138956
759.990	0.0139312
760.068	0.0139779
760.146	0.0140100
760.224	0.0141693
760.302	0.0142313
760.380	0.0142446
760.458	0.0143740
760.537	0.0143111
760.615	0.0142594
760.693	0.0141441
760.771	0.0140367
760.849	0.0141679
760.927	0.0140916
761.005	0.0140498
761.083	0.0139497
761.162	0.0137869
761.240	0.0137970
761.318	0.0136974
761.396	0.0137850
761.474	0.0137641
761.552	0.0137855
761.630	0.0138844
761.708	0.0139912
761.787	0.0138009
761.865	0.0141599
761.943	0.0142465
762.021	0.0141380
762.099	0.0141460
762.177	0.0141537
762.255	0.0140829
762.333	0.0138017
762.412	0.0136996
762.490	0.0136994
762.568	0.0135453
762.646	0.0134493
762.724	0.0134417
762.802	0.0132565
762.880	0.0131677
762.958	0.0130984
763.037	0.0129502
763.115	0.0130314
763.193	0.0130618
763.271	0.0130994
763.349	0.0132114
763.427	0.0132511
763.505	0.0132703
763.583	0.0136187
763.662	0.0135490
763.740	0.0138216
763.818	0.0137839
763.896	0.0138245
763.974	0.0138686
764.052	0.0139787
764.130	0.0138905
764.208	0.0139934
764.287	0.0141061
764.365	0.0140432
764.443	0.0138063
764.521	0.0139271
764.599	0.0138039
764.677	0.0137905
764.755	0.0137357
764.833	0.0136443
764.912	0.0135853
764.990	0.0135341
765.068	0.0133572
765.146	0.0133832
765.224	0.0133279
765.302	0.0133057
765.380	0.0133607
765.458	0.0132483
765.537	0.0132374
765.615	0.0134653
765.693	0.0134615
765.771	0.0134579
765.849	0.0135565
765.927	0.0135824
766.005	0.0135402
766.083	0.0137729
766.162	0.0137745
766.240	0.0138014
766.318	0.0137991
766.396	0.0139876
766.474	0.0139410
766.552	0.0140710
766.630	0.0140541
766.708	0.0141740
766.787	0.0140408
766.865	0.0142273
766.943	0.0142075
767.021	0.0140231
767.099	0.0141412
767.177	0.0140698
767.255	0.0139899
767.333	0.0140238
767.412	0.0138373
767.490	0.0138091
767.568	0.0137885
767.646	0.0138814
767.724	0.0138906
767.802	0.0137154
767.880	0.0137537
767.958	0.0137666
768.037	0.0140082
768.115	0.0140500
768.193	0.0140731
768.271	0.0141651
768.349	0.0144363
768.427	0.0144060
768.505	0.0143346
768.583	0.0143269
768.662	0.0143046
768.740	0.0142936
768.818	0.0143334
768.896	0.0140846
768.974	0.0140037
769.052	0.0138657
769.130	0.0135884
769.208	0.0134018
769.287	0.0135344
769.365	0.0134052
769.443	0.0133076
769.521	0.0133304
769.599	0.0131699
769.677	0.0131619
769.755	0.0132070
769.833	0.0131354
769.912	0.0130589
769.990	0.0131668
770.068	0.0131385
770.146	0.0130489
770.224	0.0131425
770.302	0.0132375
770.380	0.0132655
770.458	0.0132735
770.537	0.0132408
770.615	0.0133316
770.693	0.0132716
770.771	0.0134885
770.849	0.0135802
770.927	0.0136754
771.005	0.0138012
771.083	0.0139237
771.162	0.0139707
771.240	0.0139413
771.318	0.0140455
771.396	0.0140502
771.474	0.0142417
771.552	0.0141401
771.630	0.0142725
771.708	0.0142777
771.787	0.0141742
771.865	0.0142457
771.943	0.0142258
772.021	0.0141840
772.099	0.0140522
772.177	0.0140291
772.255	0.0139841
772.333	0.0139027
772.412	0.0137921
772.490	0.0138576
772.568	0.0137215
772.646	0.0136378
772.724	0.0138632
772.802	0.0138026
772.880	0.0136006
772.958	0.0136893
773.037	0.0135616
773.115	0.0136892
773.193	0.0135744
773.271	0.0136020
773.349	0.0137300
773.427	0.0135503
773.505	0.0135754
773.583	0.0134332
773.662	0.0134293
773.740	0.0134706
773.818	0.0133451
773.896	0.0133247
773.974	0.0133842
774.052	0.0134563
774.130	0.0133315
774.208	0.0134045
774.287	0.0133171
774.365	0.0134562
774.443	0.0135643
774.521	0.0136800
774.599	0.0136430
774.677	0.0136089
774.755	0.0137466
774.833	0.0138351
774.912	0.0137000
774.990	0.0137882
775.068	0.0140070
775.146	0.0139463
775.224	0.0140105
775.302	0.0139889
775.380	0.0139945
775.458	0.0141394
775.537	0.0140742
775.615	0.0141812
775.693	0.0141251
775.771	0.0140952
775.849	0.0140334
775.927	0.0140215
776.005	0.0141253
776.083	0.0140650
776.162	0.0140401
776.240	0.0139832
776.318	0.0139735
776.396	0.0138999
776.474	0.0139397
776.552	0.0137758
776.630	0.0138046
776.708	0.0136359
776.787	0.0136624
776.865	0.0136429
776.943	0.0136543
777.021	0.0136611
777.099	0.0136512
777.177	0.0136283
777.255	0.0135937
777.333	0.0135847
777.412	0.0138017
777.490	0.0137769
777.568	0.0138484
777.646	0.0138357
777.724	0.0137148
777.802	0.0136323
777.880	0.0135514
777.958	0.0136126
778.037	0.0135787
778.115	0.0134505
778.193	0.0134571
778.271	0.0134414
778.349	0.0133057
778.427	0.0132525
778.505	0.0132079
778.583	0.0131195
778.662	0.0130805
778.740	0.0133558
778.818	0.0132001
778.896	0.0130253
778.974	0.0132499
779.052	0.0132201
779.130	0.0134185
779.208	0.0135525
779.287	0.0134638
779.365	0.0137218
779.443	0.0137946
779.521	0.0141225
779.599	0.0142463
779.677	0.0142632
779.755	0.0143145
779.833	0.0144118
779.912	0.0144522
779.990	0.0145012
780.068	0.0145880
780.146	0.0145930
780.224	0.0144798
780.302	0.0143863
780.380	0.0144222
780.458	0.0143166
780.537	0.0141869
780.615	0.0142508
780.693	0.0141202
780.771	0.0139602
780.849	0.0140231
780.927	0.0139734
781.005	0.0138403
781.083	0.0139943
781.162	0.0138568
781.240	0.0137051
781.318	0.0136551
781.396	0.0137126
781.474	0.0136539
781.552	0.0135207
781.630	0.0135799
781.708	0.0135765
781.787	0.0134995
781.865	0.0134318
781.943	0.0134432
782.021	0.0134529
782.099	0.0134872
782.177	0.0134974
782.255	0.0133695
782.333	0.0134068
782.412	0.0134728
782.490	0.0135835
782.568	0.0133722
782.646	0.0134808
782.724	0.0136119
782.802	0.0136313
782.880	0.0135063
782.958	0.0134819
783.037	0.0135799
783.115	0.0136488
783.193	0.0135972
783.271	0.0135828
783.349	0.0135151
783.427	0.0134692
783.505	0.0135797
783.583	0.0135428
783.662	0.0135300
783.740	0.0136476
783.818	0.0136285
783.896	0.0136765
783.974	0.0137900
784.052	0.0137474
784.130	0.0137254
784.208	0.0138170
784.287	0.0138992
784.365	0.0137926
784.443	0.0138415
784.521	0.0138928
784.599	0.0140849
784.677	0.0139973
784.755	0.0140015
784.833	0.0139735
784.912	0.0140528
784.990	0.0139791
785.068	0.0139623
785.146	0.0140491
785.224	0.0139797
785.302	0.0141452
785.380	0.0139505
785.458	0.0137943
785.537	0.0138200
785.615	0.0138155
785.693	0.0138558
785.771	0.0138167
785.849	0.0137373
785.927	0.0138069
786.005	0.0137199
786.083	0.0136736
786.162	0.0138837
786.240	0.0137247
786.318	0.0136894
786.396	0.0137920
786.474	0.0137887
786.552	0.0137865
786.630	0.0136916
786.708	0.0138342
786.787	0.0137603
786.865	0.0136114
786.943	0.0137518
787.021	0.0136265
787.099	0.0136346
787.177	0.0137671
787.255	0.0138057
787.333	0.0136422
787.412	0.0136806
787.490	0.0136541
787.568	0.0135561
787.646	0.0135225
787.724	0.0135585
787.802	0.0135059
787.880	0.0136147
787.958	0.0135875
788.037	0.0136179
788.115	0.0134312
788.193	0.0134574
788.271	0.0133840
788.349	0.0134815
788.427	0.0133597
788.505	0.0136443
788.583	0.0135191
788.662	0.0135979
788.740	0.0136386
788.818	0.0137404
788.896	0.0138017
788.974	0.0137714
789.052	0.0138554
789.130	0.0138513
789.208	0.0139223
789.287	0.0141290
789.365	0.0140161
789.443	0.0141343
789.521	0.0139597
789.599	0.0142443
789.677	0.0141368
789.755	0.0140523
789.833	0.0139470
789.912	0.0141583
789.990	0.0141718
790.068	0.0142457
790.146	0.0141228
790.224	0.0141021
790.302	0.0139850
790.380	0.0140144
790.458	0.0139838
790.537	0.0139238
790.615	0.0138434
790.693	0.0138710
790.771	0.0138256
790.849	0.0138138
790.927	0.0136651
791.005	0.0136803
791.083	0.0136810
791.162	0.0136301
791.240	0.0135074
791.318	0.0135667
791.396	0.0135124
791.474	0.0135796
791.552	0.0134749
791.630	0.0135526
791.708	0.0133868
791.787	0.0134348
791.865	0.0135477
791.943	0.0134699
792.021	0.0134583
792.099	0.0134986
792.177	0.0135804
792.255	0.0134976
792.333	0.0135467
792.412	0.0138044
792.490	0.0138097
792.568	0.0136170
792.646	0.0137328
792.724	0.0137951
792.802	0.0138346
792.880	0.0138653
792.958	0.0138393
793.037	0.0137979
793.115	0.0138361
793.193	0.0139189
793.271	0.0138828
793.349	0.0139578
793.427	0.0138668
793.505	0.0137491
793.583	0.0138110
793.662	0.0138405
793.740	0.0138064
793.818	0.0138477
793.896	0.0138377
793.974	0.0136992
794.052	0.0136560
794.130	0.0137798
794.208	0.0137148
794.287	0.0136391
794.365	0.0138129
794.443	0.0137373
794.521	0.0138294
794.599	0.0137962
794.677	0.0137719
794.755	0.0139252
794.833	0.0139200
794.912	0.0139359
794.990	0.0140829
795.068	0.0139473
795.146	0.0138993
795.224	0.0140577
795.302	0.0140876
795.380	0.0141284
795.458	0.0142246
795.537	0.0142197
795.615	0.0141826
795.693	0.0141006
795.771	0.0140456
795.849	0.0140310
795.927	0.0140585
796.005	0.0139445
796.083	0.0139922
796.162	0.0138424
796.240	0.0137061
796.318	0.0137643
796.396	0.0136474
796.474	0.0136275
796.552	0.0134548
796.630	0.0134518
796.708	0.0133067
796.787	0.0135770
796.865	0.0135542
796.943	0.0133307
797.021	0.0133662
797.099	0.0133622
797.177	0.0133887
797.255	0.0135326
797.333	0.0135367
797.412	0.0133718
797.490	0.0134187
797.568	0.0136276
797.646	0.0136126
797.724	0.0134507
797.802	0.0137064
797.880	0.0137415
797.958	0.0138065
798.037	0.0139365
798.115	0.0138399
798.193	0.0139320
798.271	0.0139597
798.349	0.0141389
798.427	0.0139132
798.505	0.0140075
798.583	0.0141094
798.662	0.0140907
798.740	0.0142003
798.818	0.0140315
798.896	0.0140862
798.974	0.0139894
799.052	0.0140015
799.130	0.0138296
799.208	0.0138734
799.287	0.0137943
799.365	0.0137650
799.443	0.0137048
799.521	0.0137291
799.599	0.0137166
799.677	0.0135982
799.755	0.0135254
799.833	0.0134525
799.912	0.0134594
799.990	0.0136120
800.068	0.0134935
800.146	0.0135419
800.224	0.0135036
800.302	0.0133608
800.380	0.0134692
800.458	0.0134724
800.537	0.0135789
800.615	0.0136300
800.693	0.0136868
800.771	0.0136543
800.849	0.0137750
800.927	0.0136080
801.005	0.0136883
801.083	0.0138397
801.162	0.0138484
801.240	0.0138405
801.318	0.0140660
801.396	0.0138631
801.474	0.0140962
801.552	0.0142064
801.630	0.0141542
801.708	0.0141987
801.787	0.0141878
801.865	0.0140864
801.943	0.0139327
802.021	0.0140886
802.099	0.0140189
802.177	0.0140506
802.255	0.0140544
802.333	0.0141235
802.412	0.0138536
802.490	0.0140131
802.568	0.0140024
802.646	0.0140038
802.724	0.0139322
802.802	0.0139585
802.880	0.0138483
802.958	0.0138080
803.037	0.0138869
803.115	0.0137840
803.193	0.0137104
803.271	0.0136639
803.349	0.0135783
803.427	0.0135298
803.505	0.0135052
803.583	0.0134370
803.662	0.0135819
803.740	0.0135224
803.818	0.0133719
803.896	0.0134142
803.974	0.0134464
804.052	0.0135390
804.130	0.0135888
804.208	0.0135725
804.287	0.0135427
804.365	0.0134483
804.443	0.0134744
804.521	0.0134377
804.599	0.0134890
804.677	0.0136381
804.755	0.0136362
804.833	0.0136562
804.912	0.0137219
804.990	0.0138095
805.068	0.0137843
805.146	0.0137484
805.224	0.0138204
805.302	0.0138492
805.380	0.0139062
805.458	0.0140115
805.537	0.0141106
805.615	0.0140745
805.693	0.0139798
805.771	0.0140287
805.849	0.0139883
805.927	0.0140668
806.005	0.0139461
806.083	0.0140633
806.162	0.0139222
806.240	0.0138174
806.318	0.0139545
806.396	0.0138198
806.474	0.0137991
806.552	0.0139008
806.630	0.0136487
806.708	0.0136773
806.787	0.0137453
806.865	0.0136791
806.943	0.0136182
807.021	0.0136044
807.099	0.0137651
807.177	0.0138310
807.255	0.0137296
807.333	0.0136739
807.412	0.0136060
807.490	0.0135280
807.568	0.0135064
807.646	0.0135065
807.724	0.0135909
807.802	0.0135515
807.880	0.0137038
807.958	0.0135133
808.037	0.0135589
808.115	0.0135646
808.193	0.0136948
808.271	0.0138203
808.349	0.0136786
808.427	0.0135894
808.505	0.0137034
808.583	0.0139088
808.662	0.0138932
808.740	0.0138232
808.818	0.0138230
808.896	0.0139581
808.974	0.0136848
809.052	0.0136572
809.130	0.0137901
809.208	0.0138221
809.287	0.0138239
809.365	0.0136243
809.443	0.0136555
809.521	0.0136808
809.599	0.0136198
809.677	0.0137053
809.755	0.0134720
809.833	0.0136032
809.912	0.0136209
809.990	0.0137584
810.068	0.0136278
810.146	0.0136910
810.224	0.0136579
810.302	0.0136989
810.380	0.0136156
810.458	0.0135950
810.537	0.0137318
810.615	0.0136685
810.693	0.0135452
810.771	0.0135455
810.849	0.0136850
810.927	0.0136572
811.005	0.0136596
811.083	0.0137555
811.162	0.0137360
811.240	0.0138293
811.318	0.0137765
811.396	0.0137860
811.474	0.0138703
811.552	0.0138474
811.630	0.0137022
811.708	0.0137742
811.787	0.0138833
811.865	0.0138539
811.943	0.0138747
812.021	0.0138416
812.099	0.0136793
812.177	0.0137519
812.255	0.0139223
812.333	0.0136826
812.412	0.0136768
812.490	0.0138631
812.568	0.0137481
812.646	0.0137933
812.724	0.0137993
812.802	0.0137662
812.880	0.0138007
812.958	0.0138421
813.037	0.0138203
813.115	0.0138239
813.193	0.0138795
813.271	0.0139768
813.349	0.0139184
813.427	0.0141850
813.505	0.0140485
813.583	0.0140308
813.662	0.0140286
813.740	0.0140431
813.818	0.0140165
813.896	0.0141321
813.974	0.0141309
814.052	0.0139672
814.130	0.0139194
814.208	0.0138760
814.287	0.0139166
814.365	0.0139330
814.443	0.0137371
814.521	0.0136604
814.599	0.0138313
814.677	0.0136979
814.755	0.0136891
814.833	0.0135806
814.912	0.0136890
814.990	0.0135167
815.068	0.0134952
815.146	0.0136476
815.224	0.0136767
815.302	0.0135228
815.380	0.0135892
815.458	0.0135469
815.537	0.0135258
815.615	0.0134557
815.693	0.0134766
815.771	0.0136137
815.849	0.0134270
815.927	0.0135201
816.005	0.0133249
816.083	0.0135461
816.162	0.0134839
816.240	0.0135158
816.318	0.0132877
816.396	0.0134480
816.474	0.0137310
816.552	0.0136209
816.630	0.0136002
816.708	0.0138055
816.787	0.0137360
816.865	0.0137261
816.943	0.0138223
817.021	0.0137830
817.099	0.0137630
817.177	0.0138071
817.255	0.0138580
817.333	0.0138702
817.412	0.0139550
817.490	0.0139491
817.568	0.0139474
817.646	0.0141254
817.724	0.0140848
817.802	0.0141329
817.880	0.0141461
817.958	0.0141401
818.037	0.0141874
818.115	0.0141759
818.193	0.0140582
818.271	0.0140615
818.349	0.0141180
818.427	0.0140627
818.505	0.0141291
818.583	0.0139915
818.662	0.0139606
818.740	0.0139669
818.818	0.0138020
818.896	0.0138461
818.974	0.0138362
819.052	0.0137920
819.130	0.0135556
819.208	0.0137263
819.287	0.0136722
819.365	0.0135304
819.443	0.0133638
819.521	0.0135950
819.599	0.0136385
819.677	0.0134776
819.755	0.0135912
819.833	0.0135652
819.912	0.0135583
819.990	0.0136472
820.068	0.0137377
820.146	0.0136516
820.224	0.0136852
820.302	0.0136039
820.380	0.0136565
820.458	0.0138969
820.537	0.0138608
820.615	0.0139430
820.693	0.0139597
820.771	0.0137936
820.849	0.0138586
820.927	0.0139807
821.005	0.0138950
821.083	0.0138639
821.162	0.0138235
821.240	0.0138373
821.318	0.0138049
821.396	0.0138467
821.474	0.0137067
821.552	0.0135990
821.630	0.0135957
821.708	0.0134801
821.787	0.0135568
821.865	0.0135825
821.943	0.0137219
822.021	0.0134908
822.099	0.0133788
822.177	0.0134032
822.255	0.0134211
822.333	0.0134421
822.412	0.0135278
822.490	0.0135813
822.568	0.0135119
822.646	0.0136053
822.724	0.0135702
822.802	0.0135159
822.880	0.0135627
822.958	0.0136246
823.037	0.0135379
823.115	0.0137073
823.193	0.0136694
823.271	0.0136952
823.349	0.0136485
823.427	0.0138409
823.505	0.0138960
823.583	0.0137833
823.662	0.0137717
823.740	0.0139283
823.818	0.0139041
823.896	0.0141395
823.974	0.0140306
824.052	0.0139776
824.130	0.0140241
824.208	0.0141060
824.287	0.0141229
824.365	0.0141084
824.443	0.0141058
824.521	0.0142230
824.599	0.0143450
824.677	0.0142316
824.755	0.0140427
824.833	0.0140573
824.912	0.0141806
824.990	0.0140192
825.068	0.0139717
825.146	0.0139593
825.224	0.0139194
825.302	0.0137339
825.380	0.0137828
825.458	0.0137886
825.537	0.0137749
825.615	0.0137572
825.693	0.0137901
825.771	0.0136292
825.849	0.0136243
825.927	0.0137839
826.005	0.0137249
826.083	0.0137780
826.162	0.0136364
826.240	0.0136720
826.318	0.0137589
826.396	0.0135645
826.474	0.0137552
826.552	0.0137582
826.630	0.0136912
826.708	0.0138541
826.787	0.0137684
826.865	0.0137990
826.943	0.0138461
827.021	0.0137534
827.099	0.0137472
827.177	0.0137743
827.255	0.0136539
827.333	0.0136378
827.412	0.0135852
827.490	0.0136543
827.568	0.0135804
827.646	0.0135161
827.724	0.0134846
827.802	0.0134379
827.880	0.0134687
827.958	0.0133729
828.037	0.0134618
828.115	0.0134157
828.193	0.0134302
828.271	0.0134624
828.349	0.0134758
828.427	0.0133252
828.505	0.0135702
828.583	0.0134413
828.662	0.0134969
828.740	0.0134794
828.818	0.0135898
828.896	0.0136309
828.974	0.0136625
829.052	0.0138102
829.130	0.0137064
829.208	0.0138270
829.287	0.0138332
829.365	0.0138784
829.443	0.0138778
829.521	0.0137874
829.599	0.0138712
829.677	0.0139302
829.755	0.0141472
829.833	0.0139632
829.912	0.0138760
829.990	0.0140575
830.068	0.0140871
830.146	0.0140048
830.224	0.0140033
830.302	0.0141193
830.380	0.0140652
830.458	0.0139411
830.537	0.0141058
830.615	0.0140246
830.693	0.0139509
830.771	0.0140228
830.849	0.0140017
830.927	0.0139828
831.005	0.0140383
831.083	0.0139722
831.162	0.0138615
831.240	0.0139479
831.318	0.0137666
831.396	0.0137747
831.474	0.0138856
831.552	0.0137209
831.630	0.0136647
831.708	0.0136459
831.787	0.0137228
831.865	0.0136375
831.943	0.0135928
832.021	0.0137667
832.099	0.0137093
832.177	0.0135125
832.255	0.0136543
832.333	0.0136222
832.412	0.0136662
832.490	0.0135519
832.568	0.0138143
832.646	0.0137402
832.724	0.0136599
832.802	0.0136816
832.880	0.0136829
832.958	0.0136755
833.037	0.0136901
833.115	0.0136883
833.193	0.0135987
833.271	0.0135879
833.349	0.0136354
833.427	0.0135100
833.505	0.0134740
833.583	0.0136118
833.662	0.0136801
833.740	0.0135713
833.818	0.0134330
833.896	0.0135539
833.974	0.0135193
834.052	0.0134933
834.130	0.0135628
834.208	0.0135427
834.287	0.0134242
834.365	0.0135618
834.443	0.0136633
834.521	0.0135813
834.599	0.0135067
834.677	0.0136098
834.755	0.0135072
834.833	0.0136668
834.912	0.0135983
834.990	0.0137556
835.068	0.0137332
835.146	0.0137227
835.224	0.0137627
835.302	0.0137205
835.380	0.0138322
835.458	0.0138432
835.537	0.0138345
835.615	0.0139106
835.693	0.0138281
835.771	0.0138567
835.849	0.0136987
835.927	0.0139024
836.005	0.0141014
836.083	0.0137611
836.162	0.0138443
836.240	0.0139658
836.318	0.0139841
836.396	0.0139635
836.474	0.0140816
836.552	0.0140008
836.630	0.0140212
836.708	0.0139322
836.787	0.0140208
836.865	0.0139535
836.943	0.0139397
837.021	0.0139160
837.099	0.0139345
837.177	0.0140293
837.255	0.0140086
837.333	0.0139231
837.412	0.0138541
837.490	0.0139842
837.568	0.0138696
837.646	0.0140202
837.724	0.0138800
837.802	0.0139117
837.880	0.0138558
837.958	0.0138852
838.037	0.0137180
838.115	0.0136936
838.193	0.0137312
838.271	0.0136506
838.349	0.0136452
838.427	0.0135834
838.505	0.0134744
838.583	0.0134771
838.662	0.0135687
838.740	0.0134810
838.818	0.0135536
838.896	0.0136053
838.974	0.0134718
839.052	0.0133649
839.130	0.0137280
839.208	0.0135902
839.287	0.0136094
839.365	0.0135201
839.443	0.0136057
839.521	0.0138121
839.599	0.0137782
839.677	0.0137678
839.755	0.0136861
839.833	0.0137972
839.912	0.0136894
839.990	0.0139234
840.068	0.0138306
840.146	0.0138519
840.224	0.0138232
840.302	0.0138384
840.380	0.0136691
840.458	0.0137810
840.537	0.0137348
840.615	0.0135769
840.693	0.0135429
840.771	0.0134685
840.849	0.0134693
840.927	0.0135619
841.005	0.0136117
841.083	0.0136575
841.162	0.0134870
841.240	0.0134915
841.318	0.0136567
841.396	0.0136709
841.474	0.0136407
841.552	0.0136391
841.630	0.0138230
841.708	0.0137392
841.787	0.0138695
841.865	0.0139154
841.943	0.0138589
842.021	0.0137375
842.099	0.0138916
842.177	0.0137705
842.255	0.0137552
842.333	0.0139478
842.412	0.0140057
842.490	0.0138826
842.568	0.0139983
842.646	0.0139761
842.724	0.0139510
842.802	0.0139860
842.880	0.0139696
842.958	0.0137444
843.037	0.0138572
843.115	0.0138818
843.193	0.0140415
843.271	0.0137443
843.349	0.0138120
843.427	0.0137344
843.505	0.0138271
843.583	0.0136905
843.662	0.0135092
843.740	0.0135681
843.818	0.0136214
843.896	0.0136161
843.974	0.0134018
844.052	0.0134693
844.130	0.0134527
844.208	0.0135415
844.287	0.0133881
844.365	0.0134476
844.443	0.0135887
844.521	0.0135515
844.599	0.0136510
844.677	0.0136445
844.755	0.0134927
844.833	0.0137196
844.912	0.0136555
844.990	0.0137388
845.068	0.0138921
845.146	0.0138970
845.224	0.0137069
845.302	0.0138369
845.380	0.0139310
845.458	0.0139133
845.537	0.0139895
845.615	0.0139379
845.693	0.0140357
845.771	0.0139355
845.849	0.0139617
845.927	0.0139111
846.005	0.0140186
846.083	0.0138789
846.162	0.0137634
846.240	0.0138776
846.318	0.0137421
846.396	0.0137979
846.474	0.0136784
846.552	0.0136755
846.630	0.0136096
846.708	0.0134831
846.787	0.0135072
846.865	0.0136167
846.943	0.0135617
847.021	0.0135545
847.099	0.0135494
847.177	0.0136656
847.255	0.0136234
847.333	0.0135340
847.412	0.0135957
847.490	0.0134426
847.568	0.0136324
847.646	0.0136388
847.724	0.0135635
847.802	0.0135941
847.880	0.0135938
847.958	0.0136303
848.037	0.0136031
848.115	0.0136121
848.193	0.0136989
848.271	0.0138186
848.349	0.0137347
848.427	0.0137008
848.505	0.0137893
848.583	0.0137985
848.662	0.0138044
848.740	0.0137022
848.818	0.0138273
848.896	0.0138613
848.974	0.0137827
849.052	0.0137752
849.130	0.0139491
849.208	0.0139385
849.287	0.0138463
849.365	0.0140120
849.443	0.0139466
849.521	0.0137740
849.599	0.0140400
849.677	0.0139966
849.755	0.0141456
849.833	0.0139030
849.912	0.0139052
849.990	0.0141278
850.068	0.0139936
850.146	0.0140163
850.224	0.0140846
850.302	0.0140904
850.380	0.0140272
850.458	0.0140257
850.537	0.0139812
850.615	0.0138856
850.693	0.0138515
850.771	0.0139045
850.849	0.0138888
850.927	0.0137241
851.005	0.0137560
851.083	0.0137621
851.162	0.0136208
851.240	0.0136084
851.318	0.0137308
851.396	0.0136576
851.474	0.0136143
851.552	0.0135023
851.630	0.0134850
851.708	0.0135664
851.787	0.0134663
851.865	0.0134315
851.943	0.0135023
852.021	0.0135870
852.099	0.0136854
852.177	0.0135406
852.255	0.0135806
852.333	0.0136542
852.412	0.0136128
852.490	0.0136504
852.568	0.0136619
852.646	0.0135738
852.724	0.0135860
852.802	0.0137141
852.880	0.0137553
852.958	0.0137808
853.037	0.0136583
853.115	0.0137132
853.193	0.0137702
853.271	0.0137914
853.349	0.0137339
853.427	0.0136700
853.505	0.0138583
853.583	0.0137753
853.662	0.0138132
853.740	0.0138007
853.818	0.0137249
853.896	0.0137595
853.974	0.0138254
854.052	0.0139874
854.130	0.0138807
854.208	0.0139327
854.287	0.0139232
854.365	0.0139217
854.443	0.0137977
854.521	0.0139977
854.599	0.0140593
854.677	0.0139991
854.755	0.0139158
854.833	0.0138206
854.912	0.0138899
854.990	0.0138560
855.068	0.0137939
855.146	0.0137856
855.224	0.0138660
855.302	0.0137302
855.380	0.0136944
855.458	0.0138322
855.537	0.0136774
855.615	0.0137963
855.693	0.0137411
855.771	0.0137067
855.849	0.0137452
855.927	0.0138622
856.005	0.0137996
856.083	0.0136353
856.162	0.0136890
856.240	0.0136817
856.318	0.0136636
856.396	0.0137530
856.474	0.0136825
856.552	0.0137135
856.630	0.0136202
856.708	0.0138131
856.787	0.0136825
856.865	0.0136159
856.943	0.0136671
857.021	0.0136738
857.099	0.0137585
857.177	0.0137219
857.255	0.0138153
857.333	0.0137868
857.412	0.0137564
857.490	0.0138211
857.568	0.0139407
857.646	0.0138894
857.724	0.0137832
857.802	0.0137933
857.880	0.0138403
857.958	0.0139273
858.037	0.0138808
858.115	0.0138329
858.193	0.0138998
858.271	0.0138247
858.349	0.0138360
858.427	0.0138712
858.505	0.0138068
858.583	0.0137525
858.662	0.0138280
858.740	0.0138072
858.818	0.0137864
858.896	0.0137875
858.974	0.0137572
859.052	0.0139281
859.130	0.0139214
859.208	0.0136843
859.287	0.0137035
859.365	0.0137280
859.443	0.0137619
859.521	0.0137114
859.599	0.0136823
859.677	0.0135887
859.755	0.0136567
859.833	0.0135667
859.912	0.0134155
859.990	0.0135784
860.068	0.0136844
860.146	0.0136434
860.224	0.0136623
860.302	0.0136359
860.380	0.0135194
860.458	0.0137099
860.537	0.0137717
860.615	0.0135089
860.693	0.0136170
860.771	0.0137328
860.849	0.0138113
860.927	0.0136516
861.005	0.0136919
861.083	0.0137567
861.162	0.0138054
861.240	0.0138876
861.318	0.0139786
861.396	0.0139989
861.474	0.0139764
861.552	0.0140799
861.630	0.0140440
861.708	0.0140739
861.787	0.0138747
861.865	0.0138000
861.943	0.0139346
862.021	0.0140089
862.099	0.0138362
862.177	0.0137833
862.255	0.0138324
862.333	0.0137428
862.412	0.0137636
862.490	0.0136432
862.568	0.0137920
862.646	0.0136563
862.724	0.0137583
862.802	0.0135634
862.880	0.0136964
862.958	0.0136600
863.037	0.0136611
863.115	0.0138061
863.193	0.0137922
863.271	0.0137514
863.349	0.0138132
863.427	0.0138873
863.505	0.0139265
863.583	0.0139523
863.662	0.0139529
863.740	0.0141616
863.818	0.0140453
863.896	0.0140849
863.974	0.0141897
864.052	0.0140644
864.130	0.0140520
864.208	0.0140829
864.287	0.0140141
864.365	0.0139939
864.443	0.0137835
864.521	0.0136792
864.599	0.0137455
864.677	0.0136174
864.755	0.0135422
864.833	0.0135973
864.912	0.0136239
864.990	0.0133969
865.068	0.0134737
865.146	0.0133767
865.224	0.0134732
865.302	0.0135987
865.380	0.0135005
865.458	0.0134607
865.537	0.0133875
865.615	0.0134819
865.693	0.0133755
865.771	0.0135071
865.849	0.0136431
865.927	0.0134692
866.005	0.0134550
866.083	0.0137151
866.162	0.0137001
866.240	0.0137477
866.318	0.0139402
866.396	0.0138950
866.474	0.0137669
866.552	0.0139239
866.630	0.0140062
866.708	0.0140882
866.787	0.0140188
866.865	0.0140455
866.943	0.0139175
867.021	0.0138376
867.099	0.0138682
867.177	0.0141423
867.255	0.0139262
867.333	0.0139186
867.412	0.0138242
867.490	0.0137756
867.568	0.0137379
867.646	0.0138187
867.724	0.0136082
867.802	0.0135841
867.880	0.0133886
867.958	0.0134837
868.037	0.0135207
868.115	0.0134471
868.193	0.0133913
868.271	0.0135226
868.349	0.0135081
868.427	0.0134260
868.505	0.0135414
868.583	0.0134441
868.662	0.0135130
868.740	0.0137270
868.818	0.0138247
868.896	0.0136935
868.974	0.0138852
869.052	0.0139112
869.130	0.0138644
869.208	0.0140222
869.287	0.0139098
869.365	0.0140102
869.443	0.0139405
869.521	0.0138229
869.599	0.0138895
869.677	0.0139362
869.755	0.0138114
869.833	0.0139311
869.912	0.0140459
869.990	0.0137687
870.068	0.0138196
870.146	0.0137735
870.224	0.0137800
870.302	0.0138149
870.380	0.0139284
870.458	0.0138448
870.537	0.0137650
870.615	0.0137439
870.693	0.0138104
870.771	0.0137165
870.849	0.0136743
870.927	0.0138216
871.005	0.0138144
871.083	0.0137553
871.162	0.0137730
871.240	0.0137798
871.318	0.0136756
871.396	0.0137304
871.474	0.0137392
871.552	0.0137177
871.630	0.0137370
871.708	0.0137280
871.787	0.0137258
871.865	0.0138341
871.943	0.0138068
872.021	0.0137765
872.099	0.0137764
872.177	0.0136200
872.255	0.0138522
872.333	0.0136549
872.412	0.0137475
872.490	0.0136087
872.568	0.0136243
872.646	0.0136463
872.724	0.0135041
872.802	0.0135007
872.880	0.0133875
872.958	0.0133450
873.037	0.0133690
873.115	0.0132031
873.193	0.0132840
873.271	0.0132823
873.349	0.0133464
873.427	0.0133997
873.505	0.0133665
873.583	0.0133776
873.662	0.0135405
873.740	0.0135416
873.818	0.0136783
873.896	0.0137671
873.974	0.0138438
874.052	0.0138952
874.130	0.0139200
874.208	0.0139874
874.287	0.0142428
874.365	0.0142017
874.443	0.0143119
874.521	0.0143633
874.599	0.0142260
874.677	0.0143172
874.755	0.0144463
874.833	0.0142162
874.912	0.0141979
874.990	0.0144143
875.068	0.0143404
875.146	0.0141882
875.224	0.0140999
875.302	0.0140311
875.380	0.0138838
875.458	0.0138515
875.537	0.0138982
875.615	0.0137335
875.693	0.0137418
875.771	0.0137051
875.849	0.0135473
875.927	0.0135200
876.005	0.0137472
876.083	0.0136575
876.162	0.0135770
876.240	0.0134722
876.318	0.0135535
876.396	0.0135282
876.474	0.0133204
876.552	0.0134605
876.630	0.0134795
876.708	0.0134144
876.787	0.0133929
876.865	0.0134448
876.943	0.0135052
877.021	0.0136047
877.099	0.0135458
877.177	0.0135638
877.255	0.0137414
877.333	0.0137445
877.412	0.0136007
877.490	0.0136008
877.568	0.0138211
877.646	0.0138417
877.724	0.0136266
877.802	0.0135572
877.880	0.0136861
877.958	0.0136780
878.037	0.0135123
878.115	0.0136517
878.193	0.0135051
878.271	0.0134736
878.349	0.0135461
878.427	0.0135757
878.505	0.0135645
878.583	0.0136184
878.662	0.0137152
878.740	0.0138861
878.818	0.0137860
878.896	0.0139220
878.974	0.0138739
879.052	0.0139880
879.130	0.0139070
879.208	0.0139687
879.287	0.0142326
879.365	0.0142209
879.443	0.0142939
879.521	0.0142673
879.599	0.0143517
879.677	0.0145443
879.755	0.0143031
879.833	0.0141463
879.912	0.0144276
879.990	0.0142844
880.068	0.0142757
880.146	0.0141464
880.224	0.0139780
880.302	0.0140851
880.380	0.0138808
880.458	0.0138554
880.537	0.0137025
880.615	0.0137120
880.693	0.0135955
880.771	0.0136364
880.849	0.0136139
880.927	0.0136684
881.005	0.0135939
881.083	0.0135265
881.162	0.0136320
881.240	0.0136699
881.318	0.0136443
881.396	0.0136668
881.474	0.0135602
881.552	0.0136032
881.630	0.0137172
881.708	0.0136357
881.787	0.0136715
881.865	0.0136718
881.943	0.0137941
882.021	0.0137262
882.099	0.0138411
882.177	0.0138751
882.255	0.0139362
882.333	0.0136974
882.412	0.0139665
882.490	0.0139264
882.568	0.0139331
882.646	0.0139471
882.724	0.0139137
882.802	0.0138448
882.880	0.0137646
882.958	0.0136797
883.037	0.0136134
883.115	0.0137730
883.193	0.0136869
883.271	0.0136695
883.349	0.0136124
883.427	0.0135833
883.505	0.0135649
883.583	0.0136595
883.662	0.0136111
883.740	0.0135984
883.818	0.0136204
883.896	0.0137324
883.974	0.0136974
884.052	0.0137761
884.130	0.0139056
884.208	0.0138913
884.287	0.0138268
884.365	0.0137298
884.443	0.0138957
884.521	0.0139947
884.599	0.0140095
884.677	0.0139834
884.755	0.0140757
884.833	0.0139865
884.912	0.0139414
884.990	0.0139037
885.068	0.0139135
885.146	0.0139934
885.224	0.0139592
885.302	0.0139185
885.380	0.0138762
885.458	0.0139536
885.537	0.0138625
885.615	0.0138416
885.693	0.0137383
885.771	0.0137613
885.849	0.0137709
885.927	0.0136101
886.005	0.0136088
886.083	0.0134209
886.162	0.0134295
886.240	0.0134305
886.318	0.0133871
886.396	0.0134126
886.474	0.0133687
886.552	0.0133907
886.630	0.0135046
886.708	0.0133247
886.787	0.0134600
886.865	0.0134814
886.943	0.0135613
887.021	0.0135480
887.099	0.0137350
887.177	0.0138266
887.255	0.0139114
887.333	0.0140275
887.412	0.0139870
887.490	0.0140038
887.568	0.0141520
887.646	0.0141589
887.724	0.0141496
887.802	0.0142043
887.880	0.0145195
887.958	0.0142828
888.037	0.0143406
888.115	0.0142622
888.193	0.0142539
888.271	0.0141972
888.349	0.0140742
888.427	0.0139391
888.505	0.0141179
888.583	0.0139642
888.662	0.0138886
888.740	0.0137260
888.818	0.0136618
888.896	0.0135703
888.974	0.0136149
889.052	0.0135966
889.130	0.0134486
889.208	0.0133270
889.287	0.0133896
889.365	0.0134688
889.443	0.0134277
889.521	0.0134619
889.599	0.0133973
889.677	0.0135854
889.755	0.0135199
889.833	0.0135158
889.912	0.0136452
889.990	0.0137643
890.068	0.0138204
890.146	0.0138437
890.224	0.0137650
890.302	0.0138578
890.380	0.0138969
890.458	0.0139426
890.537	0.0139565
890.615	0.0138582
890.693	0.0141293
890.771	0.0139357
890.849	0.0139138
890.927	0.0139265
891.005	0.0139221
891.083	0.0138647
891.162	0.0137944
891.240	0.0137432
891.318	0.0137318
891.396	0.0137355
891.474	0.0137126
891.552	0.0136367
891.630	0.0135346
891.708	0.0134628
891.787	0.0134929
891.865	0.0134129
891.943	0.0134967
892.021	0.0134080
892.099	0.0134061
892.177	0.0134411
892.255	0.0135743
892.333	0.0136538
892.412	0.0137480
892.490	0.0136906
892.568	0.0138953
892.646	0.0139510
892.724	0.0138904
892.802	0.0141936
892.880	0.0141744
892.958	0.0142169
893.037	0.0140176
893.115	0.0141296
893.193	0.0142500
893.271	0.0140940
893.349	0.0139921
893.427	0.0140260
893.505	0.0140641
893.583	0.0138946
893.662	0.0137579
893.740	0.0136734
893.818	0.0137762
893.896	0.0137083
893.974	0.0136853
894.052	0.0135893
894.130	0.0135256
894.208	0.0136774
894.287	0.0134184
894.365	0.0134843
894.443	0.0135052
894.521	0.0133617
894.599	0.0135300
894.677	0.0135298
894.755	0.0135363
894.833	0.0133795
894.912	0.0134393
894.990	0.0135096
895.068	0.0135847
895.146	0.0135167
895.224	0.0137046
895.302	0.0135976
895.380	0.0137951
895.458	0.0139103
895.537	0.0138754
895.615	0.0139915
895.693	0.0139469
895.771	0.0139049
895.849	0.0140520
895.927	0.0139754
896.005	0.0139916
896.083	0.0140570
896.162	0.0139946
896.240	0.0139909
896.318	0.0138907
896.396	0.0139503
896.474	0.0138093
896.552	0.0138672
896.630	0.0140033
896.708	0.0138121
896.787	0.0137200
896.865	0.0136813
896.943	0.0137026
897.021	0.0136453
897.099	0.0134722
897.177	0.0136095
897.255	0.0136578
897.333	0.0136241
897.412	0.0136417
897.490	0.0136631
897.568	0.0136157
897.646	0.0136000
897.724	0.0136100
897.802	0.0136349
897.880	0.0135332
897.958	0.0136800
898.037	0.0137499
898.115	0.0137846
898.193	0.0136079
898.271	0.0135920
898.349	0.0137376
898.427	0.0136758
898.505	0.0136206
898.583	0.0136620
898.662	0.0136765
898.740	0.0137169
898.818	0.0135858
898.896	0.0137782
898.974	0.0136522
899.052	0.0136777
899.130	0.0136877
899.208	0.0139101
899.287	0.0137830
899.365	0.0139130
899.443	0.0139972
899.521	0.0139667
899.599	0.0138686
899.677	0.0140690
899.755	0.0140302
899.833	0.0140572
899.912	0.0140038
899.990	0.0139536
900.068	0.0138496
900.146	0.0140018
900.224	0.0140240
900.302	0.0137861
900.380	0.0138647
900.458	0.0138306
900.537	0.0138848
900.615	0.0138075
900.693	0.0138879
900.771	0.0139276
900.849	0.0138562
900.927	0.0138445
901.005	0.0139575
901.083	0.0138563
901.162	0.0138139
901.240	0.0137930
901.318	0.0139027
901.396	0.0138695
901.474	0.0137553
901.552	0.0138515
901.630	0.0137077
901.708	0.0137775
901.787	0.0137234
901.865	0.0136742
901.943	0.0135474
902.021	0.0136875
902.099	0.0135671
902.177	0.0136227
902.255	0.0135747
902.333	0.0138266
902.412	0.0135921
902.490	0.0136849
902.568	0.0138306
902.646	0.0137267
902.724	0.0138741
902.802	0.0139659
902.880	0.0137702
902.958	0.0138516
903.037	0.0139030
903.115	0.0138177
903.193	0.0139973
903.271	0.0138719
903.349	0.0137219
903.427	0.0137141
903.505	0.0136705
903.583	0.0137907
903.662	0.0137834
903.740	0.0136356
903.818	0.0136833
903.896	0.0136755
903.974	0.0138548
904.052	0.0137081
904.130	0.0136308
904.208	0.0135412
904.287	0.0136532
904.365	0.0136014
904.443	0.0134926
904.521	0.0136440
904.599	0.0134737
904.677	0.0134583
904.755	0.0135581
904.833	0.0133910
904.912	0.0135732
904.990	0.0135855
905.068	0.0134591
905.146	0.0136272
905.224	0.0135933
905.302	0.0137343
905.380	0.0138415
905.458	0.0138253
905.537	0.0138760
905.615	0.0138868
905.693	0.0139184
905.771	0.0140493
905.849	0.0141902
905.927	0.0141249
906.005	0.0142005
906.083	0.0142397
906.162	0.0141486
906.240	0.0142523
906.318	0.0142406
906.396	0.0142616
906.474	0.0142162
906.552	0.0142197
906.630	0.0141656
906.708	0.0139850
906.787	0.0139833
906.865	0.0140348
906.943	0.0140475
907.021	0.0139628
907.099	0.0138724
907.177	0.0140323
907.255	0.0137726
907.333	0.0138506
907.412	0.0138722
907.490	0.0137708
907.568	0.0136350
907.646	0.0134671
907.724	0.0134737
907.802	0.0136407
907.880	0.0135101
907.958	0.0134690
908.037	0.0133069
908.115	0.0134746
908.193	0.0136427
908.271	0.0134933
908.349	0.0135384
908.427	0.0135465
908.505	0.0136178
908.583	0.0136163
908.662	0.0136914
908.740	0.0137017
908.818	0.0137619
908.896	0.0137907
908.974	0.0138455
909.052	0.0138055
909.130	0.0137920
909.208	0.0138089
909.287	0.0137952
909.365	0.0135861
909.443	0.0136589
909.521	0.0136301
909.599	0.0136804
909.677	0.0135925
909.755	0.0135482
909.833	0.0136693
909.912	0.0135963
909.990	0.0136356
910.068	0.0136191
910.146	0.0137063
910.224	0.0136468
910.302	0.0136723
910.380	0.0136492
910.458	0.0137988
910.537	0.0137283
910.615	0.0138351
910.693	0.0136797
910.771	0.0138210
910.849	0.0138550
910.927	0.0136292
911.005	0.0137256
911.083	0.0138294
911.162	0.0139194
911.240	0.0138449
911.318	0.0139243
911.396	0.0138155
911.474	0.0138560
911.552	0.0139465
911.630	0.0138908
911.708	0.0140257
911.787	0.0139553
911.865	0.0138457
911.943	0.0139789
912.021	0.0139900
912.099	0.0138834
912.177	0.0139632
912.255	0.0138582
912.333	0.0137348
912.412	0.0138873
912.490	0.0139180
912.568	0.0138398
912.646	0.0139064
912.724	0.0138044
912.802	0.0137476
912.880	0.0137979
912.958	0.0137703
913.037	0.0136893
913.115	0.0137447
913.193	0.0136992
913.271	0.0138336
913.349	0.0137186
913.427	0.0136317
913.505	0.0136522
913.583	0.0136139
913.662	0.0136512
913.740	0.0136060
913.818	0.0135409
913.896	0.0136057
913.974	0.0136971
914.052	0.0135362
914.130	0.0135605
914.208	0.0134943
914.287	0.0136085
914.365	0.0136446
914.443	0.0136407
914.521	0.0136673
914.599	0.0135523
914.677	0.0137582
914.755	0.0136777
914.833	0.0136106
914.912	0.0136915
914.990	0.0138082
915.068	0.0136900
915.146	0.0136299
915.224	0.0136233
915.302	0.0136627
915.380	0.0137084
915.458	0.0137600
915.537	0.0135785
915.615	0.0137033
915.693	0.0135946
915.771	0.0136015
915.849	0.0136835
915.927	0.0135775
916.005	0.0136918
916.083	0.0136629
916.162	0.0136786
916.240	0.0137806
916.318	0.0138375
916.396	0.0137343
916.474	0.0137840
916.552	0.0137823
916.630	0.0138114
916.708	0.0138342
916.787	0.0136444
916.865	0.0138987
916.943	0.0137281
917.021	0.0137545
917.099	0.0139607
917.177	0.0139481
917.255	0.0138300
917.333	0.0138560
917.412	0.0139481
917.490	0.0138774
917.568	0.0138609
917.646	0.0139423
917.724	0.0138075
917.802	0.0139359
917.880	0.0138466
917.958	0.0138847
918.037	0.0139457
918.115	0.0139877
918.193	0.0140489
918.271	0.0140090
918.349	0.0139537
918.427	0.0139965
918.505	0.0139533
918.583	0.0138332
918.662	0.0138573
918.740	0.0138619
918.818	0.0140080
918.896	0.0140326
918.974	0.0140007
919.052	0.0138795
919.130	0.0136533
919.208	0.0138593
919.287	0.0137645
919.365	0.0137799
919.443	0.0137247
919.521	0.0136192
919.599	0.0136263
919.677	0.0136106
919.755	0.0135285
919.833	0.0134870
919.912	0.0136461
919.990	0.0135633
920.068	0.0135692
920.146	0.0135207
920.224	0.0135228
920.302	0.0134852
920.380	0.0134583
920.458	0.0135854
920.537	0.0135057
920.615	0.0133730
920.693	0.0134934
920.771	0.0135772
920.849	0.0136234
920.927	0.0136925
921.005	0.0136209
921.083	0.0136774
921.162	0.0138076
921.240	0.0138783
921.318	0.0138627
921.396	0.0139899
921.474	0.0139784
921.552	0.0140021
921.630	0.0142365
921.708	0.0142330
921.787	0.0141597
921.865	0.0140501
921.943	0.0141744
922.021	0.0142194
922.099	0.0141602
922.177	0.0141201
922.255	0.0139833
922.333	0.0139464
922.412	0.0139667
922.490	0.0138725
922.568	0.0138238
922.646	0.0136324
922.724	0.0137614
922.802	0.0137395
922.880	0.0136354
922.958	0.0136945
923.037	0.0137450
923.115	0.0136108
923.193	0.0137048
923.271	0.0136053
923.349	0.0137527
923.427	0.0136891
923.505	0.0137043
923.583	0.0138623
923.662	0.0136198
923.740	0.0137024
923.818	0.0136643
923.896	0.0135861
923.974	0.0136243
924.052	0.0136820
924.130	0.0136792
924.208	0.0136639
924.287	0.0136385
924.365	0.0136948
924.443	0.0137777
924.521	0.0138543
924.599	0.0138255
924.677	0.0138918
924.755	0.0139621
924.833	0.0138930
924.912	0.0139837
924.990	0.0141221
925.068	0.0139851
925.146	0.0140243
925.224	0.0139169
925.302	0.0139754
925.380	0.0138950
925.458	0.0137332
925.537	0.0138464
925.615	0.0138714
925.693	0.0137761
925.771	0.0137753
925.849	0.0136319
925.927	0.0136284
926.005	0.0135532
926.083	0.0136353
926.162	0.0136053
926.240	0.0136218
926.318	0.0137722
926.396	0.0136218
926.474	0.0134718
926.552	0.0134270
926.630	0.0136171
926.708	0.0135959
926.787	0.0134660
926.865	0.0135891
926.943	0.0135368
927.021	0.0137285
927.099	0.0137226
927.177	0.0136674
927.255	0.0136042
927.333	0.0136987
927.412	0.0136726
927.490	0.0137263
927.568	0.0138029
927.646	0.0139713
927.724	0.0139049
927.802	0.0138171
927.880	0.0140034
927.958	0.0139238
928.037	0.0139444
928.115	0.0138969
928.193	0.0140016
928.271	0.0140150
928.349	0.0139797
928.427	0.0139303
928.505	0.0138477
928.583	0.0138555
928.662	0.0137666
928.740	0.0139307
928.818	0.0138146
928.896	0.0137003
928.974	0.0135674
929.052	0.0136381
929.130	0.0137284
929.208	0.0137486
929.287	0.0137645
929.365	0.0137346
929.443	0.0136327
929.521	0.0137434
929.599	0.0137843
929.677	0.0138490
929.755	0.0138531
929.833	0.0138885
929.912	0.0136827
929.990	0.0137496
930.068	0.0138934
930.146	0.0136810
930.224	0.0139671
930.302	0.0137598
930.380	0.0137676
930.458	0.0137607
930.537	0.0137540
930.615	0.0136852
930.693	0.0136736
930.771	0.0136747
930.849	0.0136564
930.927	0.0137370
931.005	0.0136932
931.083	0.0138002
931.162	0.0136852
931.240	0.0136559
931.318	0.0135599
931.396	0.0137353
931.474	0.0137186
931.552	0.0137510
931.630	0.0137589
931.708	0.0137435
931.787	0.0136700
931.865	0.0137843
931.943	0.0137347
932.021	0.0136646
932.099	0.0137466
932.177	0.0138141
932.255	0.0137684
932.333	0.0136207
932.412	0.0137685
932.490	0.0137611
932.568	0.0136372
932.646	0.0135909
932.724	0.0136881
932.802	0.0136871
932.880	0.0136464
932.958	0.0137504
933.037	0.0136791
933.115	0.0136754
933.193	0.0137861
933.271	0.0138022
933.349	0.0136783
933.427	0.0137175
933.505	0.0137125
933.583	0.0135410
933.662	0.0137854
933.740	0.0138540
933.818	0.0138145
933.896	0.0138181
933.974	0.0138290
934.052	0.0138190
934.130	0.0136651
934.208	0.0138612
934.287	0.0138731
934.365	0.0138575
934.443	0.0139514
934.521	0.0140490
934.599	0.0139370
934.677	0.0141598
934.755	0.0140562
934.833	0.0141004
934.912	0.0141182
934.990	0.0139694
935.068	0.0139588
935.146	0.0140430
935.224	0.0139577
935.302	0.0140382
935.380	0.0139396
935.458	0.0139774
935.537	0.0137263
935.615	0.0137514
935.693	0.0137013
935.771	0.0136541
935.849	0.0135797
935.927	0.0135922
936.005	0.0136549
936.083	0.0135266
936.162	0.0136488
936.240	0.0136210
936.318	0.0135852
936.396	0.0135835
936.474	0.0136205
936.552	0.0137064
936.630	0.0135919
936.708	0.0135908
936.787	0.0137117
936.865	0.0136652
936.943	0.0136422
937.021	0.0138144
937.099	0.0137704
937.177	0.0137804
937.255	0.0137529
937.333	0.0139294
937.412	0.0137061
937.490	0.0136840
937.568	0.0136589
937.646	0.0137190
937.724	0.0138438
937.802	0.0139366
937.880	0.0139018
937.958	0.0139162
938.037	0.0138026
938.115	0.0138076
938.193	0.0139377
938.271	0.0138270
938.349	0.0137908
938.427	0.0138340
938.505	0.0138006
938.583	0.0138042
938.662	0.0136578
938.740	0.0137349
938.818	0.0136359
938.896	0.0135755
938.974	0.0134414
939.052	0.0134972
939.130	0.0135609
939.208	0.0137482
939.287	0.0135713
939.365	0.0135946
939.443	0.0136532
939.521	0.0136546
939.599	0.0136794
939.677	0.0137373
939.755	0.0137217
939.833	0.0137431
939.912	0.0139193
939.990	0.0138086
940.068	0.0138928
940.146	0.0139094
940.224	0.0139071
940.302	0.0140391
940.380	0.0140083
940.458	0.0140464
940.537	0.0139837
940.615	0.0139182
940.693	0.0140672
940.771	0.0140413
940.849	0.0139356
940.927	0.0140501
941.005	0.0140116
941.083	0.0139178
941.162	0.0139421
941.240	0.0139096
941.318	0.0137611
941.396	0.0137379
941.474	0.0136736
941.552	0.0137661
941.630	0.0137858
941.708	0.0136022
941.787	0.0137643
941.865	0.0135277
941.943	0.0135201
942.021	0.0135062
942.099	0.0136006
942.177	0.0134662
942.255	0.0135152
942.333	0.0135075
942.412	0.0136379
942.490	0.0135208
942.568	0.0136057
942.646	0.0137185
942.724	0.0137139
942.802	0.0136257
942.880	0.0137527
942.958	0.0139085
943.037	0.0138357
943.115	0.0138757
943.193	0.0139191
943.271	0.0139153
943.349	0.0140250
943.427	0.0139902
943.505	0.0139271
943.583	0.0138261
943.662	0.0138582
943.740	0.0139181
943.818	0.0138029
943.896	0.0138584
943.974	0.0136410
944.052	0.0136597
944.130	0.0136546
944.208	0.0135176
944.287	0.0136343
944.365	0.0135522
944.443	0.0136512
944.521	0.0136847
944.599	0.0136015
944.677	0.0134943
944.755	0.0135837
944.833	0.0135812
944.912	0.0135032
944.990	0.0135109
945.068	0.0135659
945.146	0.0136515
945.224	0.0135730
945.302	0.0136598
945.380	0.0137741
945.458	0.0136642
945.537	0.0136636
945.615	0.0137294
945.693	0.0135884
945.771	0.0138808
945.849	0.0137521
945.927	0.0138834
946.005	0.0139288
946.083	0.0138284
946.162	0.0139597
946.240	0.0139143
946.318	0.0139361
946.396	0.0139730
946.474	0.0139478
946.552	0.0138866
946.630	0.0138550
946.708	0.0139468
946.787	0.0139900
946.865	0.0138962
946.943	0.0139059
947.021	0.0139230
947.099	0.0138091
947.177	0.0138729
947.255	0.0138132
947.333	0.0137758
947.412	0.0138210
947.490	0.0137970
947.568	0.0137435
947.646	0.0136648
947.724	0.0137479
947.802	0.0137196
947.880	0.0136371
947.958	0.0137445
948.037	0.0137813
948.115	0.0137354
948.193	0.0135966
948.271	0.0135414
948.349	0.0137516
948.427	0.0136469
948.505	0.0136682
948.583	0.0137134
948.662	0.0136965
948.740	0.0137606
948.818	0.0137470
948.896	0.0137341
948.974	0.0138621
949.052	0.0137928
949.130	0.0138651
949.208	0.0137768
949.287	0.0138281
949.365	0.0138731
949.443	0.0138150
949.521	0.0138718
949.599	0.0138943
949.677	0.0138842
949.755	0.0138565
949.833	0.0139597
949.912	0.0138055
949.990	0.0137300
950.068	0.0138127
950.146	0.0138512
950.224	0.0136899
950.302	0.0137861
950.380	0.0138561
950.458	0.0138815
950.537	0.0137097
950.615	0.0136111
950.693	0.0136865
950.771	0.0136758
950.849	0.0136668
950.927	0.0134986
951.005	0.0135904
951.083	0.0135596
951.162	0.0135355
951.240	0.0135930
951.318	0.0134866
951.396	0.0135529
951.474	0.0136984
951.552	0.0136555
951.630	0.0136126
951.708	0.0135870
951.787	0.0137051
951.865	0.0136975
951.943	0.0138422
952.021	0.0137244
952.099	0.0136811
952.177	0.0138630
952.255	0.0136659
952.333	0.0138340
952.412	0.0139213
952.490	0.0138548
952.568	0.0139491
952.646	0.0139784
952.724	0.0139313
952.802	0.0138744
952.880	0.0139193
952.958	0.0139320
953.037	0.0139253
953.115	0.0139678
953.193	0.0139952
953.271	0.0139404
953.349	0.0137836
953.427	0.0139870
953.505	0.0139610
953.583	0.0138843
953.662	0.0138458
953.740	0.0139472
953.818	0.0139794
953.896	0.0138163
953.974	0.0138100
954.052	0.0138473
954.130	0.0138268
954.208	0.0138431
954.287	0.0137627
954.365	0.0138351
954.443	0.0140529
954.521	0.0138759
954.599	0.0138244
954.677	0.0137029
954.755	0.0137927
954.833	0.0138720
954.912	0.0138029
954.990	0.0138915
955.068	0.0137536
955.146	0.0137970
955.224	0.0137322
955.302	0.0135986
955.380	0.0136677
955.458	0.0137656
955.537	0.0137862
955.615	0.0136884
955.693	0.0135839
955.771	0.0137506
955.849	0.0138107
955.927	0.0137667
956.005	0.0137054
956.083	0.0138799
956.162	0.0137233
956.240	0.0136551
956.318	0.0138232
956.396	0.0138566
956.474	0.0138104
956.552	0.0137292
956.630	0.0137541
956.708	0.0137935
956.787	0.0136131
956.865	0.0135969
956.943	0.0137907
957.021	0.0137652
957.099	0.0138396
957.177	0.0138683
957.255	0.0137981
957.333	0.0138838
957.412	0.0139269
957.490	0.0138280
957.568	0.0137773
957.646	0.0138320
957.724	0.0140508
957.802	0.0139804
957.880	0.0140324
957.958	0.0141486
958.037	0.0140111
958.115	0.0140778
958.193	0.0139565
958.271	0.0140002
958.349	0.0139713
958.427	0.0139885
958.505	0.0140197
958.583	0.0138345
958.662	0.0138258
958.740	0.0138407
958.818	0.0137838
958.896	0.0138790
958.974	0.0137566
959.052	0.0137280
959.130	0.0138837
959.208	0.0137529
959.287	0.0137308
959.365	0.0136700
959.443	0.0136349
959.521	0.0137863
959.599	0.0137169
959.677	0.0136310
959.755	0.0138233
959.833	0.0138173
959.912	0.0138326
959.990	0.0138087
960.068	0.0138658
960.146	0.0138444
960.224	0.0138928
960.302	0.0138275
960.380	0.0138364
960.458	0.0138026
960.537	0.0138580
960.615	0.0137679
960.693	0.0137606
960.771	0.0136243
960.849	0.0136610
960.927	0.0137241
961.005	0.0137497
961.083	0.0138276
961.162	0.0138110
961.240	0.0137704
961.318	0.0137041
961.396	0.0138247
961.474	0.0138135
961.552	0.0139290
961.630	0.0138721
961.708	0.0138157
961.787	0.0139618
961.865	0.0138403
961.943	0.0137202
962.021	0.0137177
962.099	0.0137530
962.177	0.0136800
962.255	0.0137427
962.333	0.0137550
962.412	0.0138805
962.490	0.0137350
962.568	0.0137209
962.646	0.0138588
962.724	0.0139948
962.802	0.0138245
962.880	0.0140826
962.958	0.0140000
963.037	0.0140275
963.115	0.0140743
963.193	0.0141208
963.271	0.0138860
963.349	0.0140279
963.427	0.0141158
963.505	0.0139944
963.583	0.0139640
963.662	0.0139602
963.740	0.0139275
963.818	0.0138527
963.896	0.0138099
963.974	0.0137749
964.052	0.0138731
964.130	0.0137506
964.208	0.0137054
964.287	0.0135735
964.365	0.0137074
964.443	0.0137569
964.521	0.0136440
964.599	0.0135706
964.677	0.0137074
964.755	0.0136563
964.833	0.0136844
964.912	0.0136044
964.990	0.0137627
965.068	0.0137028
965.146	0.0137930
965.224	0.0136706
965.302	0.0136254
965.380	0.0135745
965.458	0.0136406
965.537	0.0135596
965.615	0.0137903
965.693	0.0136194
965.771	0.0135188
965.849	0.0135324
965.927	0.0134623
966.005	0.0135102
966.083	0.0134789
966.162	0.0135772
966.240	0.0134877
966.318	0.0135734
966.396	0.0136402
966.474	0.0137299
966.552	0.0137560
966.630	0.0137755
966.708	0.0138150
966.787	0.0138035
966.865	0.0139080
966.943	0.0138888
967.021	0.0139067
967.099	0.0139039
967.177	0.0140146
967.255	0.0140125
967.333	0.0139967
967.412	0.0139455
967.490	0.0141314
967.568	0.0140837
967.646	0.0141466
967.724	0.0140794
967.802	0.0140247
967.880	0.0140891
967.958	0.0140179
968.037	0.0140659
968.115	0.0141190
968.193	0.0140429
968.271	0.0140281
968.349	0.0139146
968.427	0.0139404
968.505	0.0138478
968.583	0.0138902
968.662	0.0136600
968.740	0.0136504
968.818	0.0136801
968.896	0.0135806
968.974	0.0135542
969.052	0.0136514
969.130	0.0134505
969.208	0.0135024
969.287	0.0134924
969.365	0.0133962
969.443	0.0133160
969.521	0.0133635
969.599	0.0133173
969.677	0.0134666
969.755	0.0132596
969.833	0.0133216
969.912	0.0134915
