05/08/2022	19:57:36	Ver.	4.1	UNKNOWN
Optical Delay	649.989667	Delta X		0.078125	Sweeps	1	Scan Rate	0/0
Coordinates	Axis 1	NaN	Axis 2	NaN	Axis 3	NaN	Axis 4	NaN	Axis 5	NaN	Axis 6	0.000000
TX Power	0.000000	RX Power	0.000000

649.990	0.0134949
650.068	0.0136519
650.146	0.0135040
650.224	0.0135674
650.302	0.0134629
650.380	0.0134493
650.458	0.0136368
650.537	0.0135642
650.615	0.0134795
650.693	0.0135560
650.771	0.0135342
650.849	0.0135978
650.927	0.0136037
651.005	0.0136249
651.083	0.0136449
651.162	0.0134589
651.240	0.0135909
651.318	0.0136208
651.396	0.0135744
651.474	0.0135908
651.552	0.0134245
651.630	0.0135220
651.708	0.0134416
651.787	0.0134976
651.865	0.0133369
651.943	0.0135233
652.021	0.0134046
652.099	0.0134566
652.177	0.0134202
652.255	0.0135020
652.333	0.0135075
652.412	0.0135073
652.490	0.0135605
652.568	0.0135893
652.646	0.0136594
652.724	0.0135162
652.802	0.0136602
652.880	0.0135345
652.958	0.0135044
653.037	0.0136305
653.115	0.0135773
653.193	0.0135685
653.271	0.0135494
653.349	0.0136653
653.427	0.0135654
653.505	0.0135007
653.583	0.0134180
653.662	0.0135279
653.740	0.0135002
653.818	0.0134526
653.896	0.0135072
653.974	0.0134924
654.052	0.0134524
654.130	0.0136581
654.208	0.0136152
654.287	0.0134748
654.365	0.0135027
654.443	0.0135725
654.521	0.0135553
654.599	0.0136084
654.677	0.0134772
654.755	0.0134922
654.833	0.0133578
654.912	0.0132498
654.990	0.0134953
655.068	0.0134301
655.146	0.0133330
655.224	0.0134071
655.302	0.0133931
655.380	0.0135408
655.458	0.0136253
655.537	0.0138725
655.615	0.0138290
655.693	0.0139534
655.771	0.0140530
655.849	0.0140496
655.927	0.0140605
656.005	0.0140466
656.083	0.0139872
656.162	0.0138976
656.240	0.0137094
656.318	0.0137390
656.396	0.0137790
656.474	0.0133845
656.552	0.0133588
656.630	0.0132936
656.708	0.0132850
656.787	0.0132683
656.865	0.0132069
656.943	0.0132471
657.021	0.0132254
657.099	0.0130245
657.177	0.0130674
657.255	0.0130226
657.333	0.0129199
657.412	0.0129523
657.490	0.0129985
657.568	0.0131532
657.646	0.0129789
657.724	0.0130125
657.802	0.0130482
657.880	0.0132060
657.958	0.0132600
658.037	0.0133160
658.115	0.0136545
658.193	0.0137891
658.271	0.0139183
658.349	0.0141931
658.427	0.0144154
658.505	0.0147112
658.583	0.0147340
658.662	0.0148909
658.740	0.0148871
658.818	0.0148345
658.896	0.0147832
658.974	0.0148698
659.052	0.0145198
659.130	0.0144490
659.208	0.0141614
659.287	0.0139803
659.365	0.0139093
659.443	0.0135127
659.521	0.0132762
659.599	0.0131145
659.677	0.0129714
659.755	0.0125807
659.833	0.0124551
659.912	0.0122684
659.990	0.0121175
660.068	0.0118826
660.146	0.0118600
660.224	0.0115511
660.302	0.0114865
660.380	0.0114776
660.458	0.0113619
660.537	0.0115240
660.615	0.0117651
660.693	0.0119300
660.771	0.0121379
660.849	0.0125346
660.927	0.0128249
661.005	0.0131583
661.083	0.0136062
661.162	0.0140218
661.240	0.0144820
661.318	0.0149117
661.396	0.0154044
661.474	0.0157401
661.552	0.0160627
661.630	0.0161340
661.708	0.0164078
661.787	0.0163058
661.865	0.0163508
661.943	0.0162203
662.021	0.0162532
662.099	0.0159516
662.177	0.0157284
662.255	0.0151978
662.333	0.0149434
662.412	0.0144492
662.490	0.0140178
662.568	0.0137350
662.646	0.0131805
662.724	0.0127375
662.802	0.0122923
662.880	0.0117953
662.958	0.0113161
663.037	0.0110184
663.115	0.0107195
663.193	0.0106247
663.271	0.0103710
663.349	0.0102016
663.427	0.0103399
663.505	0.0103144
663.583	0.0103015
663.662	0.0105032
663.740	0.0107684
663.818	0.0109796
663.896	0.0112889
663.974	0.0115227
664.052	0.0120700
664.130	0.0125050
664.208	0.0129800
664.287	0.0135415
664.365	0.0140845
664.443	0.0146510
664.521	0.0152147
664.599	0.0157827
664.677	0.0163303
664.755	0.0167425
664.833	0.0171268
664.912	0.0174776
664.990	0.0174796
665.068	0.0175055
665.146	0.0174856
665.224	0.0171421
665.302	0.0168159
665.380	0.0164892
665.458	0.0161280
665.537	0.0156754
665.615	0.0151759
665.693	0.0148039
665.771	0.0142438
665.849	0.0136067
665.927	0.0132504
666.005	0.0127024
666.083	0.0123017
666.162	0.0120390
666.240	0.0116316
666.318	0.0112705
666.396	0.0110408
666.474	0.0107210
666.552	0.0104472
666.630	0.0104623
666.708	0.0102404
666.787	0.0102845
666.865	0.0103289
666.943	0.0104767
667.021	0.0108113
667.099	0.0109596
667.177	0.0112928
667.255	0.0115554
667.333	0.0119514
667.412	0.0123846
667.490	0.0127227
667.568	0.0130985
667.646	0.0135075
667.724	0.0136526
667.802	0.0139082
667.880	0.0143716
667.958	0.0144973
668.037	0.0147636
668.115	0.0151028
668.193	0.0152050
668.271	0.0152784
668.349	0.0154585
668.427	0.0156207
668.505	0.0156607
668.583	0.0156001
668.662	0.0154730
668.740	0.0155276
668.818	0.0152068
668.896	0.0150625
668.974	0.0147606
669.052	0.0146426
669.130	0.0142223
669.208	0.0138104
669.287	0.0135931
669.365	0.0134268
669.443	0.0133489
669.521	0.0131374
669.599	0.0129541
669.677	0.0131031
669.755	0.0130426
669.833	0.0131208
669.912	0.0132623
669.990	0.0132893
670.068	0.0135448
670.146	0.0137425
670.224	0.0137553
670.302	0.0137466
670.380	0.0138173
670.458	0.0137543
670.537	0.0137779
670.615	0.0135682
670.693	0.0136437
670.771	0.0135794
670.849	0.0131522
670.927	0.0129835
671.005	0.0128130
671.083	0.0128400
671.162	0.0126573
671.240	0.0124757
671.318	0.0124168
671.396	0.0122794
671.474	0.0122495
671.552	0.0120989
671.630	0.0120345
671.708	0.0120391
671.787	0.0118768
671.865	0.0120060
671.943	0.0121697
672.021	0.0120325
672.099	0.0123335
672.177	0.0125848
672.255	0.0128888
672.333	0.0130946
672.412	0.0132915
672.490	0.0136006
672.568	0.0138817
672.646	0.0141143
672.724	0.0143715
672.802	0.0145110
672.880	0.0146284
672.958	0.0147154
673.037	0.0149403
673.115	0.0150509
673.193	0.0149593
673.271	0.0151275
673.349	0.0151535
673.427	0.0151169
673.505	0.0152037
673.583	0.0153255
673.662	0.0152534
673.740	0.0154730
673.818	0.0154238
673.896	0.0152520
673.974	0.0152930
674.052	0.0152312
674.130	0.0149006
674.208	0.0145837
674.287	0.0145004
674.365	0.0140387
674.443	0.0136501
674.521	0.0132840
674.599	0.0128223
674.677	0.0124930
674.755	0.0123432
674.833	0.0119135
674.912	0.0118011
674.990	0.0116358
675.068	0.0116016
675.146	0.0118297
675.224	0.0118634
675.302	0.0119617
675.380	0.0122163
675.458	0.0122440
675.537	0.0125755
675.615	0.0127776
675.693	0.0128925
675.771	0.0129175
675.849	0.0130029
675.927	0.0129736
676.005	0.0131068
676.083	0.0133102
676.162	0.0131669
676.240	0.0132416
676.318	0.0132636
676.396	0.0131934
676.474	0.0133044
676.552	0.0134563
676.630	0.0134412
676.708	0.0135183
676.787	0.0135538
676.865	0.0136507
676.943	0.0136174
677.021	0.0137553
677.099	0.0139220
677.177	0.0140236
677.255	0.0142248
677.333	0.0143723
677.412	0.0144646
677.490	0.0147040
677.568	0.0149538
677.646	0.0150113
677.724	0.0151927
677.802	0.0152814
677.880	0.0153919
677.958	0.0154704
678.037	0.0153245
678.115	0.0150923
678.193	0.0147062
678.271	0.0146104
678.349	0.0141396
678.427	0.0137757
678.505	0.0133621
678.583	0.0128822
678.662	0.0127088
678.740	0.0125568
678.818	0.0121864
678.896	0.0119930
678.974	0.0118808
679.052	0.0119027
679.130	0.0118728
679.208	0.0120025
679.287	0.0121280
679.365	0.0121874
679.443	0.0123501
679.521	0.0125075
679.599	0.0126433
679.677	0.0126435
679.755	0.0129382
679.833	0.0131581
679.912	0.0134199
679.990	0.0135283
680.068	0.0137444
680.146	0.0140540
680.224	0.0142418
680.302	0.0144593
680.380	0.0146941
680.458	0.0149540
680.537	0.0149878
680.615	0.0149702
680.693	0.0151168
680.771	0.0149864
680.849	0.0148631
680.927	0.0148089
681.005	0.0147289
681.083	0.0144366
681.162	0.0143839
681.240	0.0141895
681.318	0.0138205
681.396	0.0137418
681.474	0.0135528
681.552	0.0132594
681.630	0.0130434
681.708	0.0130270
681.787	0.0129297
681.865	0.0128355
681.943	0.0127097
682.021	0.0126405
682.099	0.0125936
682.177	0.0125880
682.255	0.0124303
682.333	0.0125562
682.412	0.0124734
682.490	0.0125949
682.568	0.0124015
682.646	0.0125420
682.724	0.0124577
682.802	0.0125227
682.880	0.0125770
682.958	0.0124554
683.037	0.0126305
683.115	0.0125607
683.193	0.0126575
683.271	0.0127039
683.349	0.0127937
683.427	0.0130453
683.505	0.0133402
683.583	0.0133717
683.662	0.0135072
683.740	0.0137323
683.818	0.0137489
683.896	0.0140695
683.974	0.0141999
684.052	0.0141461
684.130	0.0141413
684.208	0.0142340
684.287	0.0144011
684.365	0.0145480
684.443	0.0144619
684.521	0.0145553
684.599	0.0143410
684.677	0.0146551
684.755	0.0146874
684.833	0.0145345
684.912	0.0145977
684.990	0.0147447
685.068	0.0149199
685.146	0.0148146
685.224	0.0147995
685.302	0.0144713
685.380	0.0143099
685.458	0.0141977
685.537	0.0140047
685.615	0.0137330
685.693	0.0137115
685.771	0.0131808
685.849	0.0130671
685.927	0.0128156
686.005	0.0127247
686.083	0.0127203
686.162	0.0125286
686.240	0.0124020
686.318	0.0124820
686.396	0.0125843
686.474	0.0124139
686.552	0.0125531
686.630	0.0126270
686.708	0.0127292
686.787	0.0127553
686.865	0.0127439
686.943	0.0126398
687.021	0.0127322
687.099	0.0126132
687.177	0.0126493
687.255	0.0127431
687.333	0.0128667
687.412	0.0129472
687.490	0.0129112
687.568	0.0130495
687.646	0.0131606
687.724	0.0131145
687.802	0.0130676
687.880	0.0129556
687.958	0.0130200
688.037	0.0130013
688.115	0.0129298
688.193	0.0127538
688.271	0.0129602
688.349	0.0129009
688.427	0.0128655
688.505	0.0130993
688.583	0.0130890
688.662	0.0133698
688.740	0.0134980
688.818	0.0135829
688.896	0.0137800
688.974	0.0138492
689.052	0.0139407
689.130	0.0141032
689.208	0.0142989
689.287	0.0141591
689.365	0.0144409
689.443	0.0143283
689.521	0.0146101
689.599	0.0148592
689.677	0.0148738
689.755	0.0148324
689.833	0.0147147
689.912	0.0147428
689.990	0.0147959
690.068	0.0145982
690.146	0.0144875
690.224	0.0143342
690.302	0.0141309
690.380	0.0138809
690.458	0.0139003
690.537	0.0139634
690.615	0.0138048
690.693	0.0139117
690.771	0.0138881
690.849	0.0138673
690.927	0.0139770
691.005	0.0140802
691.083	0.0138831
691.162	0.0138710
691.240	0.0139137
691.318	0.0137745
691.396	0.0135312
691.474	0.0135462
691.552	0.0133385
691.630	0.0130517
691.708	0.0127321
691.787	0.0127159
691.865	0.0126420
691.943	0.0125546
692.021	0.0125694
692.099	0.0126470
692.177	0.0125999
692.255	0.0126353
692.333	0.0125633
692.412	0.0126052
692.490	0.0126440
692.568	0.0126318
692.646	0.0127299
692.724	0.0123822
692.802	0.0124582
692.880	0.0125381
692.958	0.0122901
693.037	0.0122379
693.115	0.0123767
693.193	0.0124174
693.271	0.0123597
693.349	0.0124914
693.427	0.0126575
693.505	0.0127142
693.583	0.0128145
693.662	0.0129074
693.740	0.0132128
693.818	0.0133368
693.896	0.0134373
693.974	0.0134041
694.052	0.0136374
694.130	0.0138334
694.208	0.0139543
694.287	0.0141308
694.365	0.0144666
694.443	0.0146149
694.521	0.0147971
694.599	0.0150005
694.677	0.0153104
694.755	0.0153530
694.833	0.0154950
694.912	0.0154449
694.990	0.0154516
695.068	0.0153928
695.146	0.0153465
695.224	0.0153698
695.302	0.0150909
695.380	0.0148392
695.458	0.0145508
695.537	0.0144788
695.615	0.0142453
695.693	0.0140497
695.771	0.0138403
695.849	0.0137086
695.927	0.0136578
696.005	0.0137074
696.083	0.0135689
696.162	0.0136758
696.240	0.0137567
696.318	0.0136797
696.396	0.0135429
696.474	0.0135620
696.552	0.0133975
696.630	0.0133680
696.708	0.0132314
696.787	0.0130533
696.865	0.0130566
696.943	0.0127876
697.021	0.0126307
697.099	0.0125208
697.177	0.0124756
697.255	0.0122625
697.333	0.0121751
697.412	0.0122151
697.490	0.0123219
697.568	0.0123415
697.646	0.0122379
697.724	0.0124757
697.802	0.0126180
697.880	0.0125712
697.958	0.0126747
698.037	0.0129181
698.115	0.0129762
698.193	0.0129092
698.271	0.0131078
698.349	0.0132231
698.427	0.0134709
698.505	0.0135660
698.583	0.0136903
698.662	0.0137141
698.740	0.0139238
698.818	0.0139014
698.896	0.0138078
698.974	0.0137186
699.052	0.0135862
699.130	0.0138049
699.208	0.0137038
699.287	0.0135139
699.365	0.0133981
699.443	0.0133674
699.521	0.0132327
699.599	0.0131789
699.677	0.0131905
699.755	0.0135072
699.833	0.0136095
699.912	0.0137104
699.990	0.0140044
700.068	0.0142760
700.146	0.0144228
700.224	0.0145655
700.302	0.0148759
700.380	0.0149670
700.458	0.0148103
700.537	0.0150301
700.615	0.0149553
700.693	0.0150357
700.771	0.0147242
700.849	0.0143951
700.927	0.0144058
701.005	0.0140053
701.083	0.0139042
701.162	0.0137513
701.240	0.0136566
701.318	0.0134637
701.396	0.0133839
701.474	0.0132097
701.552	0.0129935
701.630	0.0129230
701.708	0.0128109
701.787	0.0128439
701.865	0.0128203
701.943	0.0127480
702.021	0.0129046
702.099	0.0127229
702.177	0.0129504
702.255	0.0128817
702.333	0.0127639
702.412	0.0128333
702.490	0.0129494
702.568	0.0127953
702.646	0.0127843
702.724	0.0128728
702.802	0.0131157
702.880	0.0132725
702.958	0.0131906
703.037	0.0134619
703.115	0.0136343
703.193	0.0136631
703.271	0.0138445
703.349	0.0138476
703.427	0.0139407
703.505	0.0140457
703.583	0.0140257
703.662	0.0139902
703.740	0.0140021
703.818	0.0139285
703.896	0.0137614
703.974	0.0136919
704.052	0.0135341
704.130	0.0134028
704.208	0.0131682
704.287	0.0132133
704.365	0.0129472
704.443	0.0129484
704.521	0.0130264
704.599	0.0128670
704.677	0.0129351
704.755	0.0130503
704.833	0.0128192
704.912	0.0131431
704.990	0.0131660
705.068	0.0131906
705.146	0.0133910
705.224	0.0134741
705.302	0.0135958
705.380	0.0137975
705.458	0.0136841
705.537	0.0138646
705.615	0.0140186
705.693	0.0139605
705.771	0.0139696
705.849	0.0139281
705.927	0.0138949
706.005	0.0140041
706.083	0.0140125
706.162	0.0137892
706.240	0.0137901
706.318	0.0137506
706.396	0.0136591
706.474	0.0134120
706.552	0.0131457
706.630	0.0130286
706.708	0.0131478
706.787	0.0128800
706.865	0.0128465
706.943	0.0127183
707.021	0.0124738
707.099	0.0123473
707.177	0.0124336
707.255	0.0122565
707.333	0.0123324
707.412	0.0122711
707.490	0.0123575
707.568	0.0125372
707.646	0.0125948
707.724	0.0128128
707.802	0.0132021
707.880	0.0135281
707.958	0.0137938
708.037	0.0143084
708.115	0.0145590
708.193	0.0146976
708.271	0.0148818
708.349	0.0151768
708.427	0.0152449
708.505	0.0154255
708.583	0.0155772
708.662	0.0156175
708.740	0.0153129
708.818	0.0150713
708.896	0.0149870
708.974	0.0148117
709.052	0.0145946
709.130	0.0146000
709.208	0.0145310
709.287	0.0143684
709.365	0.0141065
709.443	0.0141788
709.521	0.0139331
709.599	0.0138332
709.677	0.0139609
709.755	0.0136789
709.833	0.0134885
709.912	0.0132195
709.990	0.0130319
710.068	0.0127925
710.146	0.0125870
710.224	0.0123331
710.302	0.0120845
710.380	0.0119025
710.458	0.0115764
710.537	0.0113697
710.615	0.0113603
710.693	0.0112667
710.771	0.0111877
710.849	0.0111174
710.927	0.0111947
711.005	0.0115042
711.083	0.0117010
711.162	0.0116324
711.240	0.0119481
711.318	0.0122823
711.396	0.0125681
711.474	0.0127873
711.552	0.0131531
711.630	0.0133340
711.708	0.0136446
711.787	0.0138477
711.865	0.0141608
711.943	0.0142965
712.021	0.0147070
712.099	0.0149483
712.177	0.0152541
712.255	0.0153290
712.333	0.0153877
712.412	0.0153880
712.490	0.0153957
712.568	0.0153790
712.646	0.0154525
712.724	0.0153394
712.802	0.0152425
712.880	0.0151421
712.958	0.0151085
713.037	0.0148484
713.115	0.0144347
713.193	0.0144331
713.271	0.0141945
713.349	0.0141129
713.427	0.0139204
713.505	0.0137482
713.583	0.0136451
713.662	0.0136914
713.740	0.0136768
713.818	0.0134347
713.896	0.0135056
713.974	0.0134035
714.052	0.0135678
714.130	0.0134589
714.208	0.0135511
714.287	0.0136752
714.365	0.0136422
714.443	0.0136156
714.521	0.0134068
714.599	0.0134750
714.677	0.0135546
714.755	0.0136003
714.833	0.0133306
714.912	0.0133450
714.990	0.0132332
715.068	0.0131514
715.146	0.0129276
715.224	0.0129948
715.302	0.0129523
715.380	0.0128315
715.458	0.0128951
715.537	0.0128639
715.615	0.0129246
715.693	0.0129876
715.771	0.0131668
715.849	0.0133173
715.927	0.0132790
716.005	0.0134930
716.083	0.0136237
716.162	0.0134374
716.240	0.0136703
716.318	0.0134721
716.396	0.0133965
716.474	0.0134930
716.552	0.0134344
716.630	0.0134007
716.708	0.0133278
716.787	0.0132449
716.865	0.0132406
716.943	0.0132821
717.021	0.0131856
717.099	0.0133236
717.177	0.0133390
717.255	0.0133569
717.333	0.0133024
717.412	0.0134435
717.490	0.0134435
717.568	0.0134660
717.646	0.0133176
717.724	0.0134168
717.802	0.0134512
717.880	0.0133581
717.958	0.0132601
718.037	0.0133640
718.115	0.0134829
718.193	0.0133984
718.271	0.0133797
718.349	0.0134496
718.427	0.0133910
718.505	0.0135278
718.583	0.0136709
718.662	0.0136922
718.740	0.0136157
718.818	0.0136481
718.896	0.0138476
718.974	0.0138958
719.052	0.0139668
719.130	0.0140219
719.208	0.0141442
719.287	0.0139967
719.365	0.0142134
719.443	0.0142637
719.521	0.0142626
719.599	0.0143427
719.677	0.0142776
719.755	0.0143016
719.833	0.0142755
719.912	0.0143491
719.990	0.0143935
720.068	0.0144884
720.146	0.0141829
720.224	0.0141169
720.302	0.0141109
720.380	0.0140690
720.458	0.0140043
720.537	0.0137256
720.615	0.0136546
720.693	0.0135678
720.771	0.0133198
720.849	0.0133278
720.927	0.0132803
721.005	0.0130602
721.083	0.0128824
721.162	0.0130579
721.240	0.0128776
721.318	0.0128696
721.396	0.0129926
721.474	0.0128189
721.552	0.0129850
721.630	0.0130981
721.708	0.0130817
721.787	0.0132118
721.865	0.0133886
721.943	0.0135154
722.021	0.0135262
722.099	0.0135424
722.177	0.0136189
722.255	0.0137829
722.333	0.0136048
722.412	0.0136018
722.490	0.0137712
722.568	0.0136052
722.646	0.0131836
722.724	0.0129065
722.802	0.0128635
722.880	0.0127503
722.958	0.0125753
723.037	0.0123705
723.115	0.0123145
723.193	0.0122056
723.271	0.0122534
723.349	0.0122212
723.427	0.0123277
723.505	0.0126182
723.583	0.0126993
723.662	0.0129042
723.740	0.0130186
723.818	0.0131699
723.896	0.0134892
723.974	0.0135209
724.052	0.0136366
724.130	0.0137444
724.208	0.0139964
724.287	0.0138180
724.365	0.0139629
724.443	0.0138901
724.521	0.0140668
724.599	0.0140661
724.677	0.0141498
724.755	0.0140965
724.833	0.0140907
724.912	0.0141455
724.990	0.0142152
725.068	0.0143564
725.146	0.0144375
725.224	0.0145345
725.302	0.0143120
725.380	0.0142625
725.458	0.0145148
725.537	0.0143994
725.615	0.0144122
725.693	0.0142664
725.771	0.0140910
725.849	0.0141199
725.927	0.0139426
726.005	0.0136601
726.083	0.0135980
726.162	0.0132967
726.240	0.0130919
726.318	0.0131484
726.396	0.0129806
726.474	0.0128199
726.552	0.0128255
726.630	0.0128275
726.708	0.0126701
726.787	0.0127209
726.865	0.0129893
726.943	0.0129791
727.021	0.0131292
727.099	0.0131534
727.177	0.0132186
727.255	0.0132243
727.333	0.0134044
727.412	0.0135574
727.490	0.0134615
727.568	0.0133592
727.646	0.0135378
727.724	0.0136199
727.802	0.0134509
727.880	0.0135993
727.958	0.0136729
728.037	0.0136594
728.115	0.0135787
728.193	0.0137880
728.271	0.0138364
728.349	0.0138096
728.427	0.0137597
728.505	0.0138581
728.583	0.0138499
728.662	0.0137368
728.740	0.0137322
728.818	0.0136797
728.896	0.0135125
728.974	0.0134090
729.052	0.0133010
729.130	0.0130935
729.208	0.0129791
729.287	0.0127538
729.365	0.0126611
729.443	0.0125264
729.521	0.0126408
729.599	0.0126263
729.677	0.0126336
729.755	0.0126056
729.833	0.0128255
729.912	0.0129302
729.990	0.0131211
730.068	0.0131462
730.146	0.0133552
730.224	0.0134101
730.302	0.0135399
730.380	0.0136947
730.458	0.0135953
730.537	0.0136806
730.615	0.0138183
730.693	0.0137301
730.771	0.0136642
730.849	0.0137937
730.927	0.0137221
731.005	0.0137534
731.083	0.0136800
731.162	0.0137543
731.240	0.0136191
731.318	0.0137517
731.396	0.0137940
731.474	0.0137151
731.552	0.0137313
731.630	0.0140081
731.708	0.0139004
731.787	0.0141962
731.865	0.0141810
731.943	0.0140864
732.021	0.0141048
732.099	0.0141196
732.177	0.0141148
732.255	0.0140102
732.333	0.0140229
732.412	0.0139523
732.490	0.0138710
732.568	0.0137769
732.646	0.0137651
732.724	0.0137248
732.802	0.0137791
732.880	0.0134608
732.958	0.0135632
733.037	0.0134635
733.115	0.0133881
733.193	0.0134200
733.271	0.0132608
733.349	0.0131736
733.427	0.0132791
733.505	0.0131120
733.583	0.0130083
733.662	0.0130025
733.740	0.0131629
733.818	0.0130702
733.896	0.0130550
733.974	0.0131691
734.052	0.0131778
734.130	0.0132765
734.208	0.0133393
734.287	0.0132871
734.365	0.0134580
734.443	0.0135923
734.521	0.0137547
734.599	0.0137789
734.677	0.0137932
734.755	0.0135428
734.833	0.0136815
734.912	0.0136992
734.990	0.0137245
735.068	0.0136132
735.146	0.0136143
735.224	0.0133302
735.302	0.0133868
735.380	0.0134914
735.458	0.0135437
735.537	0.0134307
735.615	0.0136234
735.693	0.0135261
735.771	0.0136812
735.849	0.0137377
735.927	0.0139042
736.005	0.0138933
736.083	0.0139361
736.162	0.0140140
736.240	0.0139802
736.318	0.0138580
736.396	0.0137334
736.474	0.0135186
736.552	0.0135510
736.630	0.0134747
736.708	0.0134761
736.787	0.0132654
736.865	0.0129612
736.943	0.0128620
737.021	0.0130111
737.099	0.0128730
737.177	0.0129980
737.255	0.0130573
737.333	0.0132021
737.412	0.0133399
737.490	0.0133936
737.568	0.0135382
737.646	0.0134449
737.724	0.0137801
737.802	0.0138930
737.880	0.0139657
737.958	0.0138605
738.037	0.0140301
738.115	0.0140659
738.193	0.0139188
738.271	0.0140018
738.349	0.0139521
738.427	0.0141167
738.505	0.0139958
738.583	0.0137733
738.662	0.0138348
738.740	0.0137969
738.818	0.0138451
738.896	0.0137326
738.974	0.0137914
739.052	0.0137100
739.130	0.0136252
739.208	0.0136500
739.287	0.0136427
739.365	0.0136290
739.443	0.0138251
739.521	0.0138955
739.599	0.0139095
739.677	0.0139010
739.755	0.0139162
739.833	0.0139349
739.912	0.0137842
739.990	0.0138973
740.068	0.0136235
740.146	0.0135717
740.224	0.0134043
740.302	0.0134327
740.380	0.0133221
740.458	0.0131769
740.537	0.0130997
740.615	0.0130380
740.693	0.0129202
740.771	0.0130025
740.849	0.0128848
740.927	0.0129156
741.005	0.0130544
741.083	0.0131271
741.162	0.0131866
741.240	0.0132644
741.318	0.0133271
741.396	0.0134675
741.474	0.0136079
741.552	0.0138459
741.630	0.0138059
741.708	0.0140640
741.787	0.0140557
741.865	0.0140324
741.943	0.0142505
742.021	0.0142098
742.099	0.0142383
742.177	0.0142107
742.255	0.0140960
742.333	0.0141040
742.412	0.0139890
742.490	0.0138927
742.568	0.0137619
742.646	0.0137745
742.724	0.0136156
742.802	0.0137135
742.880	0.0135465
742.958	0.0135271
743.037	0.0132415
743.115	0.0133265
743.193	0.0133099
743.271	0.0133219
743.349	0.0132172
743.427	0.0133427
743.505	0.0133303
743.583	0.0133598
743.662	0.0133070
743.740	0.0133398
743.818	0.0133686
743.896	0.0134074
743.974	0.0133091
744.052	0.0133221
744.130	0.0133219
744.208	0.0133218
744.287	0.0133891
744.365	0.0133283
744.443	0.0132885
744.521	0.0132230
744.599	0.0130926
744.677	0.0131350
744.755	0.0132370
744.833	0.0131474
744.912	0.0131715
744.990	0.0133378
745.068	0.0133430
745.146	0.0134261
745.224	0.0135415
745.302	0.0136284
745.380	0.0137540
745.458	0.0139898
745.537	0.0142840
745.615	0.0142774
745.693	0.0143073
745.771	0.0142921
745.849	0.0142088
745.927	0.0142999
746.005	0.0140855
746.083	0.0139952
746.162	0.0139751
746.240	0.0139927
746.318	0.0135966
746.396	0.0135661
746.474	0.0134794
746.552	0.0133851
746.630	0.0132104
746.708	0.0130384
746.787	0.0131780
746.865	0.0132114
746.943	0.0131496
747.021	0.0131564
747.099	0.0130982
747.177	0.0129596
747.255	0.0130899
747.333	0.0132634
747.412	0.0132220
747.490	0.0132632
747.568	0.0134948
747.646	0.0133928
747.724	0.0136144
747.802	0.0135172
747.880	0.0134539
747.958	0.0134488
748.037	0.0134904
748.115	0.0134576
748.193	0.0135119
748.271	0.0134166
748.349	0.0133605
748.427	0.0133700
748.505	0.0133708
748.583	0.0133836
748.662	0.0133819
748.740	0.0136404
748.818	0.0136401
748.896	0.0136629
748.974	0.0136713
749.052	0.0137860
749.130	0.0138852
749.208	0.0137897
749.287	0.0139309
749.365	0.0138897
749.443	0.0139077
749.521	0.0139742
749.599	0.0140334
749.677	0.0139550
749.755	0.0138680
749.833	0.0137148
749.912	0.0138644
749.990	0.0136201
750.068	0.0134923
750.146	0.0134602
750.224	0.0133092
750.302	0.0133153
750.380	0.0133260
750.458	0.0133223
750.537	0.0133056
750.615	0.0131477
750.693	0.0132005
750.771	0.0132911
750.849	0.0132972
750.927	0.0131808
751.005	0.0132796
751.083	0.0133935
751.162	0.0132626
751.240	0.0134280
751.318	0.0134492
751.396	0.0134650
751.474	0.0134307
751.552	0.0133318
751.630	0.0136339
751.708	0.0135605
751.787	0.0134974
751.865	0.0135359
751.943	0.0135648
752.021	0.0135381
752.099	0.0135763
752.177	0.0137424
752.255	0.0136604
752.333	0.0138270
752.412	0.0139727
752.490	0.0139808
752.568	0.0137809
752.646	0.0139915
752.724	0.0140677
752.802	0.0139902
752.880	0.0140364
752.958	0.0140836
753.037	0.0140324
753.115	0.0139696
753.193	0.0140764
753.271	0.0140368
753.349	0.0138401
753.427	0.0137091
753.505	0.0138422
753.583	0.0137978
753.662	0.0138017
753.740	0.0134681
753.818	0.0135040
753.896	0.0133021
753.974	0.0132163
754.052	0.0130577
754.130	0.0128622
754.208	0.0129932
754.287	0.0129762
754.365	0.0129929
754.443	0.0129176
754.521	0.0130110
754.599	0.0130263
754.677	0.0131570
754.755	0.0130926
754.833	0.0131671
754.912	0.0132126
754.990	0.0133680
755.068	0.0134127
755.146	0.0134383
755.224	0.0136094
755.302	0.0134280
755.380	0.0135473
755.458	0.0136586
755.537	0.0135848
755.615	0.0135884
755.693	0.0135349
755.771	0.0136185
755.849	0.0134904
755.927	0.0134415
756.005	0.0135107
756.083	0.0133403
756.162	0.0135120
756.240	0.0134663
756.318	0.0134272
756.396	0.0133436
756.474	0.0133714
756.552	0.0133206
756.630	0.0134292
756.708	0.0135131
756.787	0.0134286
756.865	0.0134930
756.943	0.0134210
757.021	0.0134523
757.099	0.0135101
757.177	0.0134246
757.255	0.0133667
757.333	0.0134381
757.412	0.0133540
757.490	0.0133695
757.568	0.0133152
757.646	0.0134979
757.724	0.0133112
757.802	0.0135021
757.880	0.0134248
757.958	0.0134255
758.037	0.0134764
758.115	0.0135673
758.193	0.0135722
758.271	0.0137148
758.349	0.0138098
758.427	0.0139922
758.505	0.0139296
758.583	0.0140942
758.662	0.0142052
758.740	0.0141623
758.818	0.0141759
758.896	0.0141626
758.974	0.0141068
759.052	0.0141160
759.130	0.0140105
759.208	0.0139243
759.287	0.0139910
759.365	0.0138066
759.443	0.0137395
759.521	0.0135913
759.599	0.0134077
759.677	0.0133057
759.755	0.0131587
759.833	0.0132845
759.912	0.0131760
759.990	0.0131393
760.068	0.0131977
760.146	0.0130170
760.224	0.0131440
760.302	0.0130721
760.380	0.0131958
760.458	0.0133244
760.537	0.0132327
760.615	0.0132732
760.693	0.0132265
760.771	0.0131304
760.849	0.0133963
760.927	0.0133266
761.005	0.0132704
761.083	0.0130697
761.162	0.0131287
761.240	0.0132480
761.318	0.0131419
761.396	0.0132523
761.474	0.0133381
761.552	0.0133689
761.630	0.0133675
761.708	0.0133781
761.787	0.0134813
761.865	0.0136681
761.943	0.0136635
762.021	0.0137655
762.099	0.0137901
762.177	0.0139854
762.255	0.0141542
762.333	0.0142288
762.412	0.0142951
762.490	0.0141237
762.568	0.0141789
762.646	0.0141259
762.724	0.0140538
762.802	0.0139237
762.880	0.0136926
762.958	0.0137138
763.037	0.0135133
763.115	0.0134118
763.193	0.0133825
763.271	0.0130631
763.349	0.0130631
763.427	0.0130951
763.505	0.0130886
763.583	0.0128851
763.662	0.0128409
763.740	0.0129174
763.818	0.0129830
763.896	0.0130987
763.974	0.0130387
764.052	0.0130700
764.130	0.0131612
764.208	0.0131858
764.287	0.0132458
764.365	0.0133221
764.443	0.0135271
764.521	0.0134376
764.599	0.0136240
764.677	0.0135110
764.755	0.0136859
764.833	0.0137448
764.912	0.0136953
764.990	0.0135789
765.068	0.0137223
765.146	0.0139141
765.224	0.0137572
765.302	0.0138140
765.380	0.0137226
765.458	0.0137778
765.537	0.0139129
765.615	0.0138341
765.693	0.0138831
765.771	0.0138506
765.849	0.0136510
765.927	0.0137507
766.005	0.0137767
766.083	0.0137593
766.162	0.0135693
766.240	0.0135908
766.318	0.0135955
766.396	0.0134997
766.474	0.0135587
766.552	0.0134480
766.630	0.0133968
766.708	0.0133560
766.787	0.0134227
766.865	0.0135426
766.943	0.0133717
767.021	0.0133288
767.099	0.0133554
767.177	0.0132538
767.255	0.0132706
767.333	0.0132094
767.412	0.0131096
767.490	0.0133316
767.568	0.0131471
767.646	0.0131755
767.724	0.0132993
767.802	0.0132160
767.880	0.0133607
767.958	0.0133652
768.037	0.0132986
768.115	0.0135159
768.193	0.0136383
768.271	0.0136145
768.349	0.0135595
768.427	0.0136803
768.505	0.0136944
768.583	0.0135963
768.662	0.0136236
768.740	0.0136449
768.818	0.0135987
768.896	0.0136116
768.974	0.0135770
769.052	0.0135654
769.130	0.0136268
769.208	0.0135110
769.287	0.0134419
769.365	0.0135029
769.443	0.0136609
769.521	0.0135597
769.599	0.0134962
769.677	0.0136877
769.755	0.0136539
769.833	0.0137234
769.912	0.0138624
769.990	0.0137743
770.068	0.0138473
770.146	0.0137212
770.224	0.0138911
770.302	0.0140176
770.380	0.0139059
770.458	0.0138363
770.537	0.0138535
770.615	0.0136536
770.693	0.0137308
770.771	0.0136634
770.849	0.0133676
770.927	0.0133880
771.005	0.0134755
771.083	0.0135956
771.162	0.0133455
771.240	0.0133827
771.318	0.0134659
771.396	0.0134133
771.474	0.0134449
771.552	0.0134409
771.630	0.0134140
771.708	0.0134467
771.787	0.0133891
771.865	0.0134346
771.943	0.0134416
772.021	0.0136148
772.099	0.0134619
772.177	0.0133884
772.255	0.0134535
772.333	0.0134932
772.412	0.0133977
772.490	0.0133133
772.568	0.0133887
772.646	0.0133284
772.724	0.0133953
772.802	0.0133623
772.880	0.0134045
772.958	0.0136806
773.037	0.0136092
773.115	0.0137768
773.193	0.0138563
773.271	0.0139336
773.349	0.0138895
773.427	0.0138246
773.505	0.0140543
773.583	0.0140016
773.662	0.0139723
773.740	0.0141399
773.818	0.0140872
773.896	0.0138702
773.974	0.0138824
774.052	0.0137064
774.130	0.0137821
774.208	0.0137714
774.287	0.0138248
774.365	0.0136897
774.443	0.0135558
774.521	0.0136806
774.599	0.0135012
774.677	0.0135181
774.755	0.0134180
774.833	0.0134102
774.912	0.0131948
774.990	0.0133292
775.068	0.0134335
775.146	0.0132601
775.224	0.0132860
775.302	0.0133147
775.380	0.0132073
775.458	0.0132784
775.537	0.0135027
775.615	0.0134989
775.693	0.0132925
775.771	0.0134293
775.849	0.0135465
775.927	0.0136140
776.005	0.0136631
776.083	0.0135393
776.162	0.0136947
776.240	0.0136064
776.318	0.0136671
776.396	0.0135786
776.474	0.0135803
776.552	0.0138788
776.630	0.0137305
776.708	0.0136644
776.787	0.0137286
776.865	0.0136759
776.943	0.0138019
777.021	0.0137346
777.099	0.0137006
777.177	0.0137380
777.255	0.0137810
777.333	0.0138009
777.412	0.0138467
777.490	0.0136844
777.568	0.0135460
777.646	0.0136596
777.724	0.0139034
777.802	0.0136375
777.880	0.0137042
777.958	0.0136704
778.037	0.0134150
778.115	0.0134974
778.193	0.0133786
778.271	0.0132487
778.349	0.0132887
778.427	0.0130990
778.505	0.0132813
778.583	0.0131188
778.662	0.0132352
778.740	0.0131490
778.818	0.0131763
778.896	0.0132442
778.974	0.0133313
779.052	0.0133662
779.130	0.0134431
779.208	0.0134394
779.287	0.0134985
779.365	0.0134949
779.443	0.0137298
779.521	0.0136322
779.599	0.0136700
779.677	0.0137971
779.755	0.0136298
779.833	0.0137664
779.912	0.0137325
779.990	0.0137196
780.068	0.0137531
780.146	0.0136052
780.224	0.0134689
780.302	0.0135158
780.380	0.0134691
780.458	0.0136143
780.537	0.0133984
780.615	0.0132626
780.693	0.0133855
780.771	0.0132474
780.849	0.0133540
780.927	0.0133089
781.005	0.0133875
781.083	0.0132484
781.162	0.0133189
781.240	0.0134648
781.318	0.0134211
781.396	0.0134260
781.474	0.0134129
781.552	0.0134116
781.630	0.0134609
781.708	0.0135603
781.787	0.0135101
781.865	0.0133970
781.943	0.0133392
782.021	0.0132755
782.099	0.0134135
782.177	0.0134260
782.255	0.0134126
782.333	0.0135638
782.412	0.0135606
782.490	0.0134535
782.568	0.0134756
782.646	0.0137035
782.724	0.0135796
782.802	0.0136932
782.880	0.0137671
782.958	0.0136566
783.037	0.0137813
783.115	0.0138335
783.193	0.0135603
783.271	0.0136777
783.349	0.0137949
783.427	0.0137730
783.505	0.0136250
783.583	0.0136387
783.662	0.0137796
783.740	0.0137704
783.818	0.0136592
783.896	0.0136160
783.974	0.0135489
784.052	0.0137149
784.130	0.0135373
784.208	0.0133487
784.287	0.0133227
784.365	0.0131812
784.443	0.0132461
784.521	0.0133604
784.599	0.0132983
784.677	0.0131180
784.755	0.0131506
784.833	0.0131060
784.912	0.0131696
784.990	0.0132227
785.068	0.0131816
785.146	0.0132590
785.224	0.0132835
785.302	0.0134129
785.380	0.0134493
785.458	0.0135183
785.537	0.0134301
785.615	0.0132899
785.693	0.0134618
785.771	0.0134729
785.849	0.0133346
785.927	0.0132573
786.005	0.0133924
786.083	0.0134914
786.162	0.0136284
786.240	0.0135410
786.318	0.0134641
786.396	0.0134265
786.474	0.0135347
786.552	0.0134695
786.630	0.0135978
786.708	0.0135670
786.787	0.0136487
786.865	0.0134632
786.943	0.0136902
787.021	0.0136626
787.099	0.0136662
787.177	0.0137510
787.255	0.0138483
787.333	0.0136423
787.412	0.0138017
787.490	0.0138001
787.568	0.0137126
787.646	0.0137318
787.724	0.0137871
787.802	0.0137682
787.880	0.0137579
787.958	0.0138406
788.037	0.0139074
788.115	0.0137581
788.193	0.0138506
788.271	0.0136388
788.349	0.0135243
788.427	0.0136775
788.505	0.0135654
788.583	0.0135617
788.662	0.0135136
788.740	0.0134658
788.818	0.0134059
788.896	0.0134641
788.974	0.0133074
789.052	0.0133428
789.130	0.0132440
789.208	0.0132771
789.287	0.0132676
789.365	0.0134194
789.443	0.0133177
789.521	0.0133505
789.599	0.0133078
789.677	0.0132533
789.755	0.0133360
789.833	0.0133855
789.912	0.0134063
789.990	0.0134023
790.068	0.0134835
790.146	0.0134129
790.224	0.0134173
790.302	0.0135112
790.380	0.0136086
790.458	0.0136203
790.537	0.0135623
790.615	0.0135899
790.693	0.0136553
790.771	0.0137343
790.849	0.0136399
790.927	0.0137239
791.005	0.0138413
791.083	0.0136938
791.162	0.0135369
791.240	0.0137173
791.318	0.0137016
791.396	0.0135814
791.474	0.0135980
791.552	0.0135188
791.630	0.0135133
791.708	0.0136366
791.787	0.0135310
791.865	0.0133833
791.943	0.0134977
792.021	0.0134015
792.099	0.0135456
792.177	0.0134512
792.255	0.0134470
792.333	0.0132915
792.412	0.0133956
792.490	0.0135226
792.568	0.0135500
792.646	0.0137422
792.724	0.0137951
792.802	0.0138885
792.880	0.0137514
792.958	0.0139339
793.037	0.0139507
793.115	0.0137802
793.193	0.0138895
793.271	0.0139503
793.349	0.0138857
793.427	0.0138776
793.505	0.0139742
793.583	0.0138239
793.662	0.0137650
793.740	0.0138515
793.818	0.0137497
793.896	0.0136655
793.974	0.0137328
794.052	0.0136917
794.130	0.0136693
794.208	0.0137473
794.287	0.0136437
794.365	0.0136195
794.443	0.0137280
794.521	0.0137554
794.599	0.0136134
794.677	0.0134923
794.755	0.0135260
794.833	0.0134322
794.912	0.0134267
794.990	0.0135480
795.068	0.0134858
795.146	0.0134538
795.224	0.0132693
795.302	0.0132087
795.380	0.0133397
795.458	0.0132820
795.537	0.0132329
795.615	0.0132104
795.693	0.0131924
795.771	0.0130860
795.849	0.0132756
795.927	0.0133611
796.005	0.0132237
796.083	0.0132334
796.162	0.0133797
796.240	0.0133974
796.318	0.0133520
796.396	0.0133918
796.474	0.0134296
796.552	0.0135689
796.630	0.0136437
796.708	0.0136390
796.787	0.0135712
796.865	0.0135478
796.943	0.0136716
797.021	0.0137120
797.099	0.0135598
797.177	0.0137187
797.255	0.0137207
797.333	0.0137188
797.412	0.0138559
797.490	0.0137489
797.568	0.0136391
797.646	0.0138119
797.724	0.0138052
797.802	0.0138322
797.880	0.0135865
797.958	0.0136131
798.037	0.0135530
798.115	0.0135815
798.193	0.0136205
798.271	0.0134810
798.349	0.0132674
798.427	0.0133765
798.505	0.0133631
798.583	0.0131783
798.662	0.0131940
798.740	0.0132895
798.818	0.0131953
798.896	0.0132171
798.974	0.0132095
799.052	0.0131180
799.130	0.0133775
799.208	0.0134212
799.287	0.0134433
799.365	0.0133884
799.443	0.0134437
799.521	0.0135628
799.599	0.0135001
799.677	0.0135860
799.755	0.0136476
799.833	0.0137911
799.912	0.0137009
799.990	0.0137476
800.068	0.0139099
800.146	0.0136994
800.224	0.0138124
800.302	0.0136585
800.380	0.0136829
800.458	0.0137651
800.537	0.0136671
800.615	0.0136274
800.693	0.0135253
800.771	0.0136347
800.849	0.0136094
800.927	0.0135984
801.005	0.0135082
801.083	0.0134475
801.162	0.0134452
801.240	0.0133762
801.318	0.0133211
801.396	0.0131922
801.474	0.0132817
801.552	0.0133308
801.630	0.0132407
801.708	0.0132595
801.787	0.0132344
801.865	0.0133138
801.943	0.0133699
802.021	0.0132957
802.099	0.0133366
802.177	0.0134869
802.255	0.0135236
802.333	0.0134150
802.412	0.0134451
802.490	0.0135676
802.568	0.0134296
802.646	0.0137411
802.724	0.0136189
802.802	0.0137423
802.880	0.0137451
802.958	0.0136089
803.037	0.0137003
803.115	0.0136947
803.193	0.0136224
803.271	0.0136744
803.349	0.0136358
803.427	0.0135677
803.505	0.0135172
803.583	0.0136975
803.662	0.0135601
803.740	0.0135656
803.818	0.0135674
803.896	0.0135424
803.974	0.0135674
804.052	0.0135143
804.130	0.0135298
804.208	0.0133816
804.287	0.0133253
804.365	0.0133191
804.443	0.0134772
804.521	0.0133188
804.599	0.0132224
804.677	0.0134695
804.755	0.0133370
804.833	0.0133353
804.912	0.0133109
804.990	0.0134442
805.068	0.0134241
805.146	0.0133241
805.224	0.0135073
805.302	0.0134452
805.380	0.0134245
805.458	0.0135912
805.537	0.0134444
805.615	0.0136503
805.693	0.0138235
805.771	0.0136990
805.849	0.0137570
805.927	0.0136568
806.005	0.0137132
806.083	0.0136124
806.162	0.0136535
806.240	0.0137405
806.318	0.0135218
806.396	0.0136074
806.474	0.0135184
806.552	0.0133834
806.630	0.0133696
806.708	0.0133859
806.787	0.0132581
806.865	0.0130264
806.943	0.0132259
807.021	0.0129860
807.099	0.0132993
807.177	0.0133196
807.255	0.0130597
807.333	0.0131761
807.412	0.0133788
807.490	0.0132562
807.568	0.0132578
807.646	0.0132627
807.724	0.0133945
807.802	0.0132945
807.880	0.0134309
807.958	0.0134133
808.037	0.0134590
808.115	0.0135043
808.193	0.0136514
808.271	0.0137506
808.349	0.0136223
808.427	0.0137337
808.505	0.0138011
808.583	0.0139063
808.662	0.0138998
808.740	0.0138458
808.818	0.0138622
808.896	0.0138645
808.974	0.0139379
809.052	0.0140175
809.130	0.0138611
809.208	0.0138020
809.287	0.0139126
809.365	0.0136729
809.443	0.0136350
809.521	0.0139062
809.599	0.0136644
809.677	0.0134853
809.755	0.0135554
809.833	0.0134154
809.912	0.0135693
809.990	0.0135068
810.068	0.0133207
810.146	0.0133374
810.224	0.0133814
810.302	0.0134585
810.380	0.0135218
810.458	0.0134831
810.537	0.0133839
810.615	0.0133698
810.693	0.0134110
810.771	0.0135489
810.849	0.0134672
810.927	0.0134422
811.005	0.0135802
811.083	0.0136710
811.162	0.0135725
811.240	0.0136000
811.318	0.0137055
811.396	0.0136533
811.474	0.0136838
811.552	0.0136281
811.630	0.0136211
811.708	0.0135751
811.787	0.0135172
811.865	0.0136015
811.943	0.0135578
812.021	0.0135332
812.099	0.0134464
812.177	0.0135917
812.255	0.0134501
812.333	0.0134788
812.412	0.0134113
812.490	0.0134028
812.568	0.0134618
812.646	0.0132639
812.724	0.0132761
812.802	0.0132875
812.880	0.0131747
812.958	0.0133827
813.037	0.0132483
813.115	0.0133401
813.193	0.0134497
813.271	0.0133678
813.349	0.0132758
813.427	0.0135464
813.505	0.0133784
813.583	0.0135895
813.662	0.0135264
813.740	0.0135401
813.818	0.0135635
813.896	0.0135992
813.974	0.0136198
814.052	0.0136783
814.130	0.0136575
814.208	0.0135429
814.287	0.0136124
814.365	0.0135856
814.443	0.0134688
814.521	0.0135622
814.599	0.0135646
814.677	0.0134996
814.755	0.0135474
814.833	0.0138447
814.912	0.0137971
814.990	0.0138447
815.068	0.0137700
815.146	0.0137800
815.224	0.0137997
815.302	0.0138113
815.380	0.0138956
815.458	0.0138251
815.537	0.0137084
815.615	0.0137775
815.693	0.0136996
815.771	0.0138010
815.849	0.0138890
815.927	0.0136160
816.005	0.0136967
816.083	0.0137363
816.162	0.0137391
816.240	0.0137197
816.318	0.0138103
816.396	0.0138248
816.474	0.0137879
816.552	0.0137686
816.630	0.0138085
816.708	0.0136335
816.787	0.0136168
816.865	0.0138190
816.943	0.0137101
817.021	0.0136437
817.099	0.0135274
817.177	0.0135506
817.255	0.0136579
817.333	0.0134517
817.412	0.0134849
817.490	0.0133891
817.568	0.0133270
817.646	0.0133984
817.724	0.0134421
817.802	0.0132163
817.880	0.0134224
817.958	0.0135010
818.037	0.0133910
818.115	0.0135906
818.193	0.0132964
818.271	0.0133157
818.349	0.0133855
818.427	0.0134255
818.505	0.0133910
818.583	0.0134334
818.662	0.0134843
818.740	0.0134463
818.818	0.0134766
818.896	0.0135151
818.974	0.0135897
819.052	0.0134477
819.130	0.0135842
819.208	0.0135329
819.287	0.0134877
819.365	0.0135253
819.443	0.0135736
819.521	0.0136090
819.599	0.0134919
819.677	0.0134414
819.755	0.0134571
819.833	0.0132951
819.912	0.0134053
819.990	0.0133806
820.068	0.0133520
820.146	0.0133012
820.224	0.0132069
820.302	0.0133060
820.380	0.0133252
820.458	0.0134123
820.537	0.0131218
820.615	0.0131390
820.693	0.0132145
820.771	0.0133724
820.849	0.0133932
820.927	0.0133836
821.005	0.0135713
821.083	0.0133459
821.162	0.0133900
821.240	0.0136736
821.318	0.0135688
821.396	0.0136565
821.474	0.0137598
821.552	0.0136238
821.630	0.0137648
821.708	0.0137215
821.787	0.0139111
821.865	0.0138020
821.943	0.0139157
822.021	0.0138669
822.099	0.0139252
822.177	0.0137875
822.255	0.0137561
822.333	0.0138515
822.412	0.0137112
822.490	0.0137851
822.568	0.0136565
822.646	0.0136251
822.724	0.0137446
822.802	0.0137629
822.880	0.0138301
822.958	0.0135959
823.037	0.0135645
823.115	0.0136576
823.193	0.0135259
823.271	0.0136317
823.349	0.0135492
823.427	0.0134314
823.505	0.0133674
823.583	0.0133888
823.662	0.0134728
823.740	0.0132936
823.818	0.0132565
823.896	0.0134563
823.974	0.0133137
824.052	0.0133054
824.130	0.0133616
824.208	0.0132063
824.287	0.0133241
824.365	0.0133218
824.443	0.0133692
824.521	0.0133897
824.599	0.0132670
824.677	0.0133965
824.755	0.0134166
824.833	0.0134697
824.912	0.0133729
824.990	0.0133360
825.068	0.0132794
825.146	0.0133134
825.224	0.0133045
825.302	0.0132002
825.380	0.0133671
825.458	0.0131994
825.537	0.0131984
825.615	0.0131545
825.693	0.0131982
825.771	0.0131565
825.849	0.0132634
825.927	0.0133963
826.005	0.0133941
826.083	0.0133828
826.162	0.0134274
826.240	0.0134092
826.318	0.0134740
826.396	0.0135056
826.474	0.0135313
826.552	0.0136220
826.630	0.0135852
826.708	0.0137460
826.787	0.0137276
826.865	0.0136654
826.943	0.0136905
827.021	0.0136099
827.099	0.0137514
827.177	0.0137552
827.255	0.0137776
827.333	0.0137329
827.412	0.0136021
827.490	0.0136080
827.568	0.0135822
827.646	0.0136949
827.724	0.0135735
827.802	0.0135062
827.880	0.0134636
827.958	0.0135031
828.037	0.0136028
828.115	0.0135896
828.193	0.0134089
828.271	0.0134809
828.349	0.0135413
828.427	0.0133961
828.505	0.0133923
828.583	0.0136624
828.662	0.0134566
828.740	0.0133441
828.818	0.0134535
828.896	0.0132902
828.974	0.0132912
829.052	0.0134170
829.130	0.0136163
829.208	0.0134579
829.287	0.0134777
829.365	0.0134229
829.443	0.0134724
829.521	0.0135138
829.599	0.0134657
829.677	0.0135432
829.755	0.0134400
829.833	0.0135755
829.912	0.0134803
829.990	0.0134991
830.068	0.0136228
830.146	0.0135119
830.224	0.0135021
830.302	0.0134632
830.380	0.0134611
830.458	0.0134766
830.537	0.0135019
830.615	0.0135619
830.693	0.0135093
830.771	0.0134880
830.849	0.0134947
830.927	0.0133035
831.005	0.0134017
831.083	0.0132527
831.162	0.0135437
831.240	0.0133540
831.318	0.0132948
831.396	0.0134599
831.474	0.0135423
831.552	0.0135999
831.630	0.0134975
831.708	0.0134639
831.787	0.0134731
831.865	0.0135989
831.943	0.0135275
832.021	0.0134182
832.099	0.0136858
832.177	0.0134789
832.255	0.0134676
832.333	0.0136710
832.412	0.0137186
832.490	0.0134976
832.568	0.0136132
832.646	0.0136122
832.724	0.0137785
832.802	0.0137939
832.880	0.0136285
832.958	0.0135427
833.037	0.0137468
833.115	0.0137609
833.193	0.0135525
833.271	0.0135792
833.349	0.0135577
833.427	0.0136225
833.505	0.0134741
833.583	0.0135153
833.662	0.0136034
833.740	0.0135036
833.818	0.0133714
833.896	0.0135145
833.974	0.0135553
834.052	0.0135388
834.130	0.0135690
834.208	0.0136409
834.287	0.0135084
834.365	0.0134861
834.443	0.0135976
834.521	0.0135996
834.599	0.0136151
834.677	0.0135892
834.755	0.0136623
834.833	0.0136378
834.912	0.0136579
834.990	0.0136159
835.068	0.0136497
835.146	0.0136974
835.224	0.0135765
835.302	0.0137274
835.380	0.0137373
835.458	0.0136284
835.537	0.0136990
835.615	0.0136753
835.693	0.0137363
835.771	0.0137144
835.849	0.0137473
835.927	0.0137487
836.005	0.0137420
836.083	0.0137319
836.162	0.0136555
836.240	0.0136382
836.318	0.0137017
836.396	0.0137395
836.474	0.0135973
836.552	0.0135567
836.630	0.0135499
836.708	0.0136349
836.787	0.0134206
836.865	0.0134822
836.943	0.0135309
837.021	0.0134971
837.099	0.0134573
837.177	0.0134232
837.255	0.0134298
837.333	0.0134371
837.412	0.0134713
837.490	0.0135059
837.568	0.0135608
837.646	0.0136473
837.724	0.0136052
837.802	0.0136291
837.880	0.0137326
837.958	0.0136044
838.037	0.0136108
838.115	0.0136201
838.193	0.0137072
838.271	0.0136313
838.349	0.0137598
838.427	0.0136791
838.505	0.0136102
838.583	0.0135181
838.662	0.0136391
838.740	0.0136330
838.818	0.0136205
838.896	0.0136436
838.974	0.0135793
839.052	0.0136481
839.130	0.0136380
839.208	0.0137188
839.287	0.0135483
839.365	0.0135954
839.443	0.0135285
839.521	0.0136429
839.599	0.0136592
839.677	0.0137028
839.755	0.0135644
839.833	0.0136640
839.912	0.0135448
839.990	0.0135320
840.068	0.0134976
840.146	0.0135992
840.224	0.0136363
840.302	0.0135435
840.380	0.0135202
840.458	0.0135861
840.537	0.0137080
840.615	0.0135057
840.693	0.0135272
840.771	0.0134988
840.849	0.0136390
840.927	0.0136967
841.005	0.0136752
841.083	0.0137431
841.162	0.0138362
841.240	0.0136178
841.318	0.0138511
841.396	0.0137029
841.474	0.0135988
841.552	0.0136439
841.630	0.0137411
841.708	0.0136300
841.787	0.0137417
841.865	0.0137081
841.943	0.0133862
842.021	0.0135097
842.099	0.0135757
842.177	0.0135288
842.255	0.0134049
842.333	0.0135027
842.412	0.0134511
842.490	0.0135950
842.568	0.0135117
842.646	0.0135815
842.724	0.0135544
842.802	0.0134457
842.880	0.0135793
842.958	0.0135947
843.037	0.0135056
843.115	0.0135142
843.193	0.0136456
843.271	0.0135942
843.349	0.0134591
843.427	0.0133906
843.505	0.0135506
843.583	0.0135846
843.662	0.0135732
843.740	0.0134411
843.818	0.0133053
843.896	0.0134465
843.974	0.0133769
844.052	0.0133535
844.130	0.0133199
844.208	0.0133202
844.287	0.0133591
844.365	0.0133202
844.443	0.0133815
844.521	0.0133086
844.599	0.0134264
844.677	0.0133870
844.755	0.0131604
844.833	0.0133211
844.912	0.0133724
844.990	0.0132697
845.068	0.0133672
845.146	0.0133280
845.224	0.0134473
845.302	0.0133594
845.380	0.0133031
845.458	0.0133980
845.537	0.0133929
845.615	0.0134126
845.693	0.0134517
845.771	0.0134959
845.849	0.0136174
845.927	0.0135783
846.005	0.0134927
846.083	0.0135389
846.162	0.0136391
846.240	0.0136144
846.318	0.0135685
846.396	0.0136776
846.474	0.0136412
846.552	0.0137347
846.630	0.0135628
846.708	0.0134357
846.787	0.0135545
846.865	0.0136487
846.943	0.0135357
847.021	0.0135891
847.099	0.0135385
847.177	0.0135823
847.255	0.0136053
847.333	0.0136025
847.412	0.0136673
847.490	0.0134566
847.568	0.0134662
847.646	0.0136207
847.724	0.0135538
847.802	0.0136108
847.880	0.0134877
847.958	0.0134337
848.037	0.0135275
848.115	0.0134773
848.193	0.0134561
848.271	0.0134035
848.349	0.0134261
848.427	0.0134260
848.505	0.0134058
848.583	0.0134575
848.662	0.0134801
848.740	0.0133910
848.818	0.0133484
848.896	0.0133910
848.974	0.0134921
849.052	0.0133739
849.130	0.0134574
849.208	0.0134306
849.287	0.0134991
849.365	0.0134090
849.443	0.0133005
849.521	0.0134087
849.599	0.0134383
849.677	0.0134239
849.755	0.0136230
849.833	0.0134571
849.912	0.0135203
849.990	0.0135143
850.068	0.0134500
850.146	0.0135603
850.224	0.0134538
850.302	0.0134610
850.380	0.0134428
850.458	0.0135377
850.537	0.0135614
850.615	0.0136058
850.693	0.0134688
850.771	0.0134174
850.849	0.0133855
850.927	0.0134634
851.005	0.0135437
851.083	0.0134483
851.162	0.0133013
851.240	0.0133071
851.318	0.0133246
851.396	0.0132143
851.474	0.0134114
851.552	0.0133798
851.630	0.0132637
851.708	0.0131682
851.787	0.0134412
851.865	0.0132733
851.943	0.0133153
852.021	0.0132555
852.099	0.0134518
852.177	0.0133979
852.255	0.0135990
852.333	0.0134783
852.412	0.0134715
852.490	0.0135442
852.568	0.0138069
852.646	0.0135629
852.724	0.0137289
852.802	0.0138168
852.880	0.0137798
852.958	0.0138368
853.037	0.0138592
853.115	0.0137793
853.193	0.0139548
853.271	0.0139179
853.349	0.0139323
853.427	0.0138205
853.505	0.0137248
853.583	0.0137586
853.662	0.0137729
853.740	0.0136434
853.818	0.0137497
853.896	0.0136111
853.974	0.0134368
854.052	0.0134498
854.130	0.0134109
854.208	0.0134380
854.287	0.0134900
854.365	0.0133466
854.443	0.0131558
854.521	0.0132999
854.599	0.0132172
854.677	0.0132236
854.755	0.0130854
854.833	0.0131110
854.912	0.0132255
854.990	0.0132290
855.068	0.0130624
855.146	0.0132150
855.224	0.0132911
855.302	0.0132736
855.380	0.0133431
855.458	0.0134236
855.537	0.0134135
855.615	0.0135021
855.693	0.0134962
855.771	0.0134162
855.849	0.0136523
855.927	0.0137337
856.005	0.0136838
856.083	0.0137410
856.162	0.0137555
856.240	0.0138564
856.318	0.0138046
856.396	0.0138441
856.474	0.0138145
856.552	0.0138614
856.630	0.0140601
856.708	0.0140367
856.787	0.0140898
856.865	0.0138991
856.943	0.0138300
857.021	0.0138232
857.099	0.0136826
857.177	0.0136708
857.255	0.0136287
857.333	0.0135557
857.412	0.0134719
857.490	0.0135661
857.568	0.0134131
857.646	0.0132472
857.724	0.0132311
857.802	0.0132526
857.880	0.0132977
857.958	0.0132849
858.037	0.0130943
858.115	0.0129897
858.193	0.0131568
858.271	0.0132684
858.349	0.0130595
858.427	0.0131666
858.505	0.0132737
858.583	0.0132450
858.662	0.0133788
858.740	0.0132894
858.818	0.0134267
858.896	0.0135194
858.974	0.0134991
859.052	0.0135985
859.130	0.0136447
859.208	0.0136716
859.287	0.0138147
859.365	0.0137559
859.443	0.0139003
859.521	0.0138226
859.599	0.0137897
859.677	0.0138515
859.755	0.0139393
859.833	0.0139577
859.912	0.0139731
859.990	0.0138464
860.068	0.0139655
860.146	0.0137542
860.224	0.0138062
860.302	0.0139168
860.380	0.0138238
860.458	0.0138037
860.537	0.0135934
860.615	0.0136349
860.693	0.0138425
860.771	0.0135523
860.849	0.0135861
860.927	0.0135875
861.005	0.0135260
861.083	0.0135056
861.162	0.0134641
861.240	0.0133743
861.318	0.0134342
861.396	0.0132904
861.474	0.0133339
861.552	0.0134547
861.630	0.0133176
861.708	0.0133350
861.787	0.0136186
861.865	0.0134837
861.943	0.0133428
862.021	0.0133624
862.099	0.0134939
862.177	0.0134506
862.255	0.0135042
862.333	0.0134509
862.412	0.0133972
862.490	0.0134506
862.568	0.0134399
862.646	0.0135065
862.724	0.0134462
862.802	0.0134823
862.880	0.0135017
862.958	0.0135835
863.037	0.0134678
863.115	0.0134871
863.193	0.0134641
863.271	0.0134547
863.349	0.0135629
863.427	0.0134261
863.505	0.0133591
863.583	0.0133681
863.662	0.0135104
863.740	0.0134016
863.818	0.0134361
863.896	0.0134919
863.974	0.0135393
864.052	0.0135534
864.130	0.0136344
864.208	0.0136142
864.287	0.0137572
864.365	0.0136728
864.443	0.0136727
864.521	0.0136591
864.599	0.0137946
864.677	0.0137624
864.755	0.0135802
864.833	0.0138002
864.912	0.0137166
864.990	0.0136135
865.068	0.0136528
865.146	0.0136266
865.224	0.0134602
865.302	0.0134990
865.380	0.0135551
865.458	0.0135049
865.537	0.0135648
865.615	0.0135363
865.693	0.0135558
865.771	0.0134589
865.849	0.0134858
865.927	0.0134445
866.005	0.0136636
866.083	0.0134705
866.162	0.0135109
866.240	0.0134787
866.318	0.0133748
866.396	0.0135468
866.474	0.0134148
866.552	0.0133360
866.630	0.0133466
866.708	0.0133064
866.787	0.0134012
866.865	0.0133592
866.943	0.0133871
867.021	0.0134128
867.099	0.0133912
867.177	0.0133423
867.255	0.0134385
867.333	0.0134984
867.412	0.0133532
867.490	0.0135142
867.568	0.0136923
867.646	0.0134077
867.724	0.0134959
867.802	0.0135880
867.880	0.0134870
867.958	0.0134473
868.037	0.0135907
868.115	0.0135945
868.193	0.0134419
868.271	0.0135306
868.349	0.0135747
868.427	0.0136700
868.505	0.0136655
868.583	0.0135464
868.662	0.0134985
868.740	0.0134529
868.818	0.0135581
868.896	0.0135204
868.974	0.0134492
869.052	0.0135844
869.130	0.0135400
869.208	0.0134975
869.287	0.0134857
869.365	0.0135124
869.443	0.0136951
869.521	0.0135973
869.599	0.0135702
869.677	0.0137426
869.755	0.0136218
869.833	0.0136887
869.912	0.0135775
869.990	0.0136839
870.068	0.0136275
870.146	0.0136206
870.224	0.0136081
870.302	0.0134309
870.380	0.0134214
870.458	0.0135123
870.537	0.0134790
870.615	0.0133775
870.693	0.0135762
870.771	0.0135892
870.849	0.0134089
870.927	0.0134346
871.005	0.0136324
871.083	0.0135049
871.162	0.0135398
871.240	0.0136207
871.318	0.0135757
871.396	0.0136613
871.474	0.0136287
871.552	0.0137182
871.630	0.0135482
871.708	0.0136079
871.787	0.0136324
871.865	0.0137345
871.943	0.0136959
872.021	0.0136938
872.099	0.0138714
872.177	0.0138650
872.255	0.0137606
872.333	0.0138364
872.412	0.0139036
872.490	0.0137605
872.568	0.0137103
872.646	0.0136665
872.724	0.0137455
872.802	0.0136193
872.880	0.0135249
872.958	0.0134706
873.037	0.0135635
873.115	0.0135158
873.193	0.0133987
873.271	0.0134602
873.349	0.0132994
873.427	0.0133221
873.505	0.0132060
873.583	0.0132734
873.662	0.0133768
873.740	0.0132905
873.818	0.0133881
873.896	0.0132686
873.974	0.0134359
874.052	0.0133506
874.130	0.0133041
874.208	0.0132459
874.287	0.0133056
874.365	0.0133659
874.443	0.0132482
874.521	0.0132352
874.599	0.0132975
874.677	0.0133849
874.755	0.0134773
874.833	0.0134677
874.912	0.0133247
874.990	0.0133585
875.068	0.0134895
875.146	0.0134675
875.224	0.0134578
875.302	0.0135233
875.380	0.0136612
875.458	0.0135439
875.537	0.0135618
875.615	0.0136618
875.693	0.0135927
875.771	0.0136355
875.849	0.0135683
875.927	0.0136559
876.005	0.0135844
876.083	0.0136095
876.162	0.0136678
876.240	0.0137882
876.318	0.0135030
876.396	0.0134272
876.474	0.0133241
876.552	0.0134716
876.630	0.0135378
876.708	0.0134995
876.787	0.0133362
876.865	0.0134641
876.943	0.0135458
877.021	0.0134028
877.099	0.0134650
877.177	0.0133428
877.255	0.0134605
877.333	0.0133166
877.412	0.0133966
877.490	0.0134135
877.568	0.0133371
877.646	0.0133591
877.724	0.0133922
877.802	0.0135032
877.880	0.0134942
877.958	0.0135051
878.037	0.0133028
878.115	0.0134743
878.193	0.0135762
878.271	0.0136019
878.349	0.0136653
878.427	0.0136082
878.505	0.0136369
878.583	0.0136284
878.662	0.0136771
878.740	0.0135307
878.818	0.0137794
878.896	0.0137077
878.974	0.0136397
879.052	0.0135815
879.130	0.0135870
879.208	0.0135419
879.287	0.0135715
879.365	0.0134538
879.443	0.0134357
879.521	0.0134672
879.599	0.0134264
879.677	0.0134891
879.755	0.0134135
879.833	0.0132713
879.912	0.0133394
879.990	0.0133140
880.068	0.0130894
880.146	0.0131532
880.224	0.0132829
880.302	0.0132413
880.380	0.0131603
880.458	0.0133552
880.537	0.0132749
880.615	0.0132435
880.693	0.0133173
880.771	0.0131919
880.849	0.0132971
880.927	0.0134121
881.005	0.0132251
881.083	0.0134356
881.162	0.0133511
881.240	0.0133228
881.318	0.0133054
881.396	0.0133866
881.474	0.0134408
881.552	0.0135211
881.630	0.0134798
881.708	0.0134061
881.787	0.0133761
881.865	0.0133171
881.943	0.0133560
882.021	0.0132407
882.099	0.0132972
882.177	0.0134055
882.255	0.0133305
882.333	0.0134627
882.412	0.0133031
882.490	0.0134162
882.568	0.0133124
882.646	0.0134312
882.724	0.0134640
882.802	0.0135329
882.880	0.0135189
882.958	0.0135551
883.037	0.0136819
883.115	0.0136407
883.193	0.0136489
883.271	0.0136493
883.349	0.0136600
883.427	0.0135352
883.505	0.0134363
883.583	0.0136212
883.662	0.0136731
883.740	0.0135440
883.818	0.0136591
883.896	0.0135612
883.974	0.0135835
884.052	0.0134808
884.130	0.0134652
884.208	0.0134668
884.287	0.0134656
884.365	0.0134367
884.443	0.0134632
884.521	0.0135051
884.599	0.0134174
884.677	0.0133818
884.755	0.0134530
884.833	0.0133717
884.912	0.0133887
884.990	0.0133709
885.068	0.0134441
885.146	0.0133119
885.224	0.0135181
885.302	0.0133199
885.380	0.0132893
885.458	0.0133407
885.537	0.0135300
885.615	0.0133546
885.693	0.0132573
885.771	0.0134325
885.849	0.0134833
885.927	0.0134157
886.005	0.0135243
886.083	0.0135135
886.162	0.0134476
886.240	0.0134212
886.318	0.0135296
886.396	0.0135762
886.474	0.0136577
886.552	0.0137126
886.630	0.0137247
886.708	0.0137264
886.787	0.0138186
886.865	0.0137708
886.943	0.0137800
887.021	0.0136805
887.099	0.0136899
887.177	0.0136008
887.255	0.0135299
887.333	0.0134195
887.412	0.0134713
887.490	0.0134751
887.568	0.0136241
887.646	0.0133798
887.724	0.0134528
887.802	0.0133617
887.880	0.0134724
887.958	0.0134840
888.037	0.0136633
888.115	0.0136826
888.193	0.0133660
888.271	0.0135388
888.349	0.0135188
888.427	0.0136672
888.505	0.0136233
888.583	0.0136221
888.662	0.0136883
888.740	0.0134791
888.818	0.0135839
888.896	0.0136109
888.974	0.0135269
889.052	0.0134514
889.130	0.0136340
889.208	0.0135960
889.287	0.0135936
889.365	0.0135692
889.443	0.0134382
889.521	0.0135880
889.599	0.0135378
889.677	0.0133997
889.755	0.0136413
889.833	0.0136616
889.912	0.0136717
889.990	0.0136871
890.068	0.0138750
890.146	0.0137438
890.224	0.0136164
890.302	0.0137088
890.380	0.0137354
890.458	0.0137825
890.537	0.0137617
890.615	0.0136239
890.693	0.0136800
890.771	0.0136417
890.849	0.0136343
890.927	0.0137350
891.005	0.0136118
891.083	0.0136804
891.162	0.0135243
891.240	0.0135591
891.318	0.0136104
891.396	0.0135078
891.474	0.0135561
891.552	0.0134964
891.630	0.0134795
891.708	0.0134997
891.787	0.0134371
891.865	0.0134074
891.943	0.0136256
892.021	0.0135828
892.099	0.0136610
892.177	0.0137057
892.255	0.0137189
892.333	0.0136485
892.412	0.0136864
892.490	0.0137426
892.568	0.0136789
892.646	0.0136695
892.724	0.0134655
892.802	0.0136021
892.880	0.0136007
892.958	0.0135874
893.037	0.0134272
893.115	0.0135335
893.193	0.0135996
893.271	0.0135653
893.349	0.0135744
893.427	0.0136185
893.505	0.0134623
893.583	0.0134856
893.662	0.0134323
893.740	0.0134916
893.818	0.0134375
893.896	0.0134911
893.974	0.0135504
894.052	0.0134660
894.130	0.0134774
894.208	0.0134070
894.287	0.0134671
894.365	0.0135842
894.443	0.0134901
894.521	0.0135564
894.599	0.0134608
894.677	0.0135893
894.755	0.0135027
894.833	0.0134327
894.912	0.0135035
894.990	0.0135649
895.068	0.0136774
895.146	0.0134084
895.224	0.0135899
895.302	0.0134926
895.380	0.0134325
895.458	0.0133400
895.537	0.0135117
895.615	0.0134983
895.693	0.0135220
895.771	0.0135653
895.849	0.0136173
895.927	0.0135357
896.005	0.0135818
896.083	0.0136234
896.162	0.0136508
896.240	0.0137381
896.318	0.0136326
896.396	0.0135456
896.474	0.0137338
896.552	0.0137025
896.630	0.0137159
896.708	0.0138179
896.787	0.0137911
896.865	0.0137872
896.943	0.0138387
897.021	0.0137881
897.099	0.0137693
897.177	0.0139814
897.255	0.0138378
897.333	0.0137024
897.412	0.0137071
897.490	0.0138840
897.568	0.0137742
897.646	0.0136662
897.724	0.0135622
897.802	0.0136201
897.880	0.0136726
897.958	0.0135355
898.037	0.0134943
898.115	0.0134539
898.193	0.0134991
898.271	0.0135422
898.349	0.0133307
898.427	0.0132923
898.505	0.0133394
898.583	0.0135596
898.662	0.0133565
898.740	0.0132928
898.818	0.0132837
898.896	0.0131551
898.974	0.0132687
899.052	0.0132468
899.130	0.0133597
899.208	0.0133692
899.287	0.0134461
899.365	0.0132339
899.443	0.0135160
899.521	0.0134693
899.599	0.0133557
899.677	0.0135016
899.755	0.0136547
899.833	0.0135308
899.912	0.0135713
899.990	0.0135467
900.068	0.0136092
900.146	0.0135925
900.224	0.0138274
900.302	0.0137151
900.380	0.0137562
900.458	0.0136931
900.537	0.0135971
900.615	0.0135661
900.693	0.0135609
900.771	0.0135474
900.849	0.0135081
900.927	0.0135556
901.005	0.0135485
901.083	0.0134155
901.162	0.0134313
901.240	0.0134102
901.318	0.0134749
901.396	0.0133716
901.474	0.0135394
901.552	0.0135081
901.630	0.0134094
901.708	0.0133841
901.787	0.0133993
901.865	0.0134171
901.943	0.0133931
902.021	0.0133292
902.099	0.0133326
902.177	0.0134542
902.255	0.0135332
902.333	0.0132979
902.412	0.0133681
902.490	0.0134372
902.568	0.0136632
902.646	0.0134830
902.724	0.0135703
902.802	0.0134883
902.880	0.0135699
902.958	0.0137259
903.037	0.0137740
903.115	0.0136272
903.193	0.0134863
903.271	0.0137424
903.349	0.0138661
903.427	0.0136339
903.505	0.0137976
903.583	0.0136820
903.662	0.0137548
903.740	0.0139337
903.818	0.0137729
903.896	0.0136448
903.974	0.0137685
904.052	0.0136800
904.130	0.0135815
904.208	0.0135546
904.287	0.0135513
904.365	0.0135914
904.443	0.0135957
904.521	0.0135717
904.599	0.0135265
904.677	0.0134452
904.755	0.0132899
904.833	0.0132348
904.912	0.0132829
904.990	0.0131770
905.068	0.0131839
905.146	0.0133152
905.224	0.0132587
905.302	0.0131956
905.380	0.0131761
905.458	0.0132003
905.537	0.0131699
905.615	0.0132687
905.693	0.0133183
905.771	0.0132329
905.849	0.0132914
905.927	0.0130751
906.005	0.0132207
906.083	0.0134178
906.162	0.0134196
906.240	0.0132388
906.318	0.0132727
906.396	0.0132134
906.474	0.0132964
906.552	0.0132453
906.630	0.0133379
906.708	0.0134728
906.787	0.0132906
906.865	0.0132291
906.943	0.0133181
907.021	0.0133874
907.099	0.0132345
907.177	0.0133205
907.255	0.0134105
907.333	0.0133514
907.412	0.0133475
907.490	0.0134303
907.568	0.0134792
907.646	0.0135323
907.724	0.0135558
907.802	0.0134618
907.880	0.0135805
907.958	0.0135624
908.037	0.0135475
908.115	0.0135385
908.193	0.0135647
908.271	0.0135192
908.349	0.0135316
908.427	0.0135474
908.505	0.0135336
908.583	0.0134853
908.662	0.0136785
908.740	0.0135421
908.818	0.0135165
908.896	0.0136444
908.974	0.0135387
909.052	0.0135467
909.130	0.0135637
909.208	0.0134492
909.287	0.0135133
909.365	0.0134712
909.443	0.0134379
909.521	0.0134454
909.599	0.0134881
909.677	0.0134177
909.755	0.0134616
909.833	0.0134222
909.912	0.0133345
909.990	0.0134718
910.068	0.0133547
910.146	0.0132870
910.224	0.0133279
910.302	0.0134055
910.380	0.0134205
910.458	0.0135189
910.537	0.0133719
910.615	0.0133322
910.693	0.0135072
910.771	0.0134993
910.849	0.0135520
910.927	0.0134974
911.005	0.0135615
911.083	0.0135945
911.162	0.0137135
911.240	0.0136016
911.318	0.0137590
911.396	0.0136934
911.474	0.0135643
911.552	0.0139068
911.630	0.0137325
911.708	0.0136973
911.787	0.0138241
911.865	0.0136389
911.943	0.0136848
912.021	0.0137883
912.099	0.0137077
912.177	0.0136524
912.255	0.0136368
912.333	0.0136712
912.412	0.0136421
912.490	0.0136642
912.568	0.0134322
912.646	0.0135361
912.724	0.0134772
912.802	0.0134660
912.880	0.0134260
912.958	0.0133600
913.037	0.0132389
913.115	0.0134872
913.193	0.0134979
913.271	0.0134035
913.349	0.0134200
913.427	0.0132719
913.505	0.0134512
913.583	0.0134550
913.662	0.0134938
913.740	0.0134496
913.818	0.0135809
913.896	0.0136655
913.974	0.0136378
914.052	0.0135004
914.130	0.0135005
914.208	0.0136382
914.287	0.0136448
914.365	0.0136599
914.443	0.0136891
914.521	0.0136038
914.599	0.0136272
914.677	0.0136339
914.755	0.0135513
914.833	0.0136301
914.912	0.0135773
914.990	0.0135661
915.068	0.0135783
915.146	0.0135349
915.224	0.0137096
915.302	0.0137499
915.380	0.0136457
915.458	0.0137850
915.537	0.0138179
915.615	0.0138034
915.693	0.0137769
915.771	0.0137312
915.849	0.0136118
915.927	0.0138236
916.005	0.0137044
916.083	0.0137067
916.162	0.0136243
916.240	0.0137173
916.318	0.0136464
916.396	0.0137231
916.474	0.0136320
916.552	0.0135943
916.630	0.0137063
916.708	0.0136964
916.787	0.0135905
916.865	0.0137132
916.943	0.0136231
917.021	0.0135331
917.099	0.0135657
917.177	0.0135883
917.255	0.0136591
917.333	0.0136637
917.412	0.0133745
917.490	0.0135942
917.568	0.0137006
917.646	0.0135040
917.724	0.0133584
917.802	0.0134512
917.880	0.0135056
917.958	0.0135131
918.037	0.0135703
918.115	0.0134195
918.193	0.0134374
918.271	0.0135175
918.349	0.0134866
918.427	0.0133247
918.505	0.0133983
918.583	0.0133813
918.662	0.0134763
918.740	0.0136168
918.818	0.0136298
918.896	0.0136654
918.974	0.0136458
919.052	0.0136021
919.130	0.0137239
919.208	0.0137571
919.287	0.0135956
919.365	0.0136411
919.443	0.0137530
919.521	0.0138183
919.599	0.0137064
919.677	0.0135854
919.755	0.0137733
919.833	0.0137620
919.912	0.0137065
919.990	0.0138399
920.068	0.0137807
920.146	0.0136987
920.224	0.0138775
920.302	0.0136594
920.380	0.0137286
920.458	0.0136856
920.537	0.0137362
920.615	0.0136680
920.693	0.0136649
920.771	0.0136583
920.849	0.0136268
920.927	0.0135645
921.005	0.0134761
921.083	0.0134870
921.162	0.0135712
921.240	0.0134978
921.318	0.0135136
921.396	0.0132466
921.474	0.0134647
921.552	0.0135263
921.630	0.0135666
921.708	0.0134055
921.787	0.0134152
921.865	0.0134027
921.943	0.0133842
922.021	0.0135419
922.099	0.0133847
922.177	0.0135669
922.255	0.0135508
922.333	0.0136041
922.412	0.0135198
922.490	0.0133535
922.568	0.0134889
922.646	0.0134773
922.724	0.0135155
922.802	0.0134430
922.880	0.0134494
922.958	0.0133572
923.037	0.0133177
923.115	0.0134851
923.193	0.0134561
923.271	0.0135109
923.349	0.0134612
923.427	0.0134778
923.505	0.0134678
923.583	0.0133303
923.662	0.0135305
923.740	0.0135358
923.818	0.0134697
923.896	0.0135100
923.974	0.0135743
924.052	0.0133703
924.130	0.0134586
924.208	0.0134222
924.287	0.0135203
924.365	0.0135699
924.443	0.0134577
924.521	0.0135331
924.599	0.0135191
924.677	0.0134399
924.755	0.0135563
924.833	0.0134663
924.912	0.0136711
924.990	0.0135841
925.068	0.0136536
925.146	0.0136536
925.224	0.0136758
925.302	0.0135369
925.380	0.0136407
925.458	0.0136246
925.537	0.0136506
925.615	0.0134829
925.693	0.0133568
925.771	0.0134830
925.849	0.0134569
925.927	0.0134863
926.005	0.0135235
926.083	0.0136428
926.162	0.0134399
926.240	0.0134287
926.318	0.0136521
926.396	0.0135243
926.474	0.0134750
926.552	0.0135714
926.630	0.0135673
926.708	0.0135427
926.787	0.0134225
926.865	0.0134929
926.943	0.0135442
927.021	0.0135072
927.099	0.0136280
927.177	0.0135946
927.255	0.0134784
927.333	0.0135070
927.412	0.0136473
927.490	0.0135449
927.568	0.0135215
927.646	0.0134352
927.724	0.0135697
927.802	0.0134486
927.880	0.0134722
927.958	0.0134751
928.037	0.0134592
928.115	0.0135494
928.193	0.0135789
928.271	0.0134054
928.349	0.0134226
928.427	0.0133748
928.505	0.0133108
928.583	0.0134574
928.662	0.0135750
928.740	0.0133359
928.818	0.0133944
928.896	0.0135847
928.974	0.0134996
929.052	0.0134399
929.130	0.0135423
929.208	0.0134919
929.287	0.0134416
929.365	0.0136167
929.443	0.0134700
929.521	0.0132365
929.599	0.0135015
929.677	0.0134203
929.755	0.0134274
929.833	0.0133208
929.912	0.0133467
929.990	0.0133889
930.068	0.0133964
930.146	0.0134480
930.224	0.0133550
930.302	0.0133385
930.380	0.0135074
930.458	0.0135528
930.537	0.0135322
930.615	0.0134444
930.693	0.0137261
930.771	0.0136261
930.849	0.0134309
930.927	0.0134991
931.005	0.0136411
931.083	0.0135849
931.162	0.0135964
931.240	0.0135402
931.318	0.0135521
931.396	0.0136279
931.474	0.0136127
931.552	0.0134906
931.630	0.0137584
931.708	0.0136365
931.787	0.0135146
931.865	0.0136609
931.943	0.0136832
932.021	0.0137954
932.099	0.0137051
932.177	0.0136595
932.255	0.0136706
932.333	0.0135548
932.412	0.0136546
932.490	0.0135425
932.568	0.0135588
932.646	0.0135038
932.724	0.0135006
932.802	0.0134123
932.880	0.0134792
932.958	0.0135985
933.037	0.0135866
933.115	0.0134863
933.193	0.0133183
933.271	0.0135875
933.349	0.0135662
933.427	0.0135664
933.505	0.0134789
933.583	0.0135057
933.662	0.0134621
933.740	0.0134673
933.818	0.0133955
933.896	0.0134576
933.974	0.0132625
934.052	0.0132986
934.130	0.0134423
934.208	0.0135024
934.287	0.0134077
934.365	0.0135331
934.443	0.0133526
934.521	0.0133565
934.599	0.0135249
934.677	0.0134913
934.755	0.0135839
934.833	0.0135546
934.912	0.0135503
934.990	0.0135369
935.068	0.0136125
935.146	0.0136663
935.224	0.0135339
935.302	0.0135796
935.380	0.0136951
935.458	0.0136343
935.537	0.0137189
935.615	0.0136232
935.693	0.0136817
935.771	0.0135902
935.849	0.0136086
935.927	0.0136390
936.005	0.0135818
936.083	0.0135457
936.162	0.0135851
936.240	0.0134584
936.318	0.0134849
936.396	0.0135423
936.474	0.0134837
936.552	0.0135776
936.630	0.0134442
936.708	0.0134174
936.787	0.0133940
936.865	0.0135051
936.943	0.0135233
937.021	0.0134389
937.099	0.0134700
937.177	0.0134069
937.255	0.0133834
937.333	0.0133789
937.412	0.0133260
937.490	0.0135176
937.568	0.0134004
937.646	0.0135651
937.724	0.0136681
937.802	0.0135881
937.880	0.0136110
937.958	0.0135887
938.037	0.0136648
938.115	0.0136507
938.193	0.0137788
938.271	0.0135676
938.349	0.0134550
938.427	0.0136793
938.505	0.0137312
938.583	0.0137384
938.662	0.0138221
938.740	0.0137981
938.818	0.0137460
938.896	0.0137592
938.974	0.0136692
939.052	0.0136240
939.130	0.0138656
939.208	0.0138208
939.287	0.0136656
939.365	0.0136279
939.443	0.0138448
939.521	0.0136263
939.599	0.0136462
939.677	0.0136269
939.755	0.0137101
939.833	0.0134472
939.912	0.0135102
939.990	0.0136749
940.068	0.0135300
940.146	0.0134644
940.224	0.0134547
940.302	0.0134142
940.380	0.0136228
940.458	0.0135387
940.537	0.0134582
940.615	0.0136077
940.693	0.0136443
940.771	0.0136244
940.849	0.0135136
940.927	0.0135067
941.005	0.0135342
941.083	0.0135856
941.162	0.0135339
941.240	0.0135288
941.318	0.0136279
941.396	0.0134963
941.474	0.0135709
941.552	0.0136981
941.630	0.0136034
941.708	0.0135044
941.787	0.0136797
941.865	0.0134724
941.943	0.0133961
942.021	0.0134748
942.099	0.0135444
942.177	0.0134629
942.255	0.0133746
942.333	0.0133312
942.412	0.0134897
942.490	0.0134285
942.568	0.0134779
942.646	0.0134386
942.724	0.0135518
942.802	0.0134641
942.880	0.0133025
942.958	0.0133147
943.037	0.0135386
943.115	0.0134583
943.193	0.0135006
943.271	0.0134367
943.349	0.0135885
943.427	0.0133718
943.505	0.0134153
943.583	0.0136360
943.662	0.0136449
943.740	0.0134139
943.818	0.0135972
943.896	0.0135123
943.974	0.0135282
944.052	0.0136398
944.130	0.0137294
944.208	0.0136050
944.287	0.0136295
944.365	0.0135801
944.443	0.0135995
944.521	0.0137701
944.599	0.0136318
944.677	0.0136050
944.755	0.0136272
944.833	0.0137357
944.912	0.0136020
944.990	0.0136178
945.068	0.0137538
945.146	0.0136090
945.224	0.0133476
945.302	0.0135275
945.380	0.0135539
945.458	0.0134982
945.537	0.0135101
945.615	0.0134994
945.693	0.0134364
945.771	0.0134208
945.849	0.0134171
945.927	0.0135634
946.005	0.0134335
946.083	0.0134832
946.162	0.0137059
946.240	0.0135936
946.318	0.0134559
946.396	0.0135487
946.474	0.0136151
946.552	0.0135173
946.630	0.0135924
946.708	0.0136068
946.787	0.0135618
946.865	0.0136472
946.943	0.0133622
947.021	0.0135268
947.099	0.0135499
947.177	0.0136135
947.255	0.0136199
947.333	0.0134433
947.412	0.0136059
947.490	0.0134858
947.568	0.0135081
947.646	0.0135885
947.724	0.0134738
947.802	0.0134330
947.880	0.0136250
947.958	0.0133778
948.037	0.0133042
948.115	0.0135553
948.193	0.0135713
948.271	0.0133771
948.349	0.0135060
948.427	0.0134274
948.505	0.0133384
948.583	0.0134441
948.662	0.0134579
948.740	0.0134861
948.818	0.0134188
948.896	0.0134678
948.974	0.0133354
949.052	0.0134711
949.130	0.0134893
949.208	0.0134286
949.287	0.0134181
949.365	0.0133282
949.443	0.0134541
949.521	0.0135092
949.599	0.0133696
949.677	0.0134277
949.755	0.0136292
949.833	0.0135295
949.912	0.0133869
949.990	0.0134935
950.068	0.0135170
950.146	0.0135663
950.224	0.0135320
950.302	0.0135393
950.380	0.0136162
950.458	0.0135540
950.537	0.0135223
950.615	0.0135783
950.693	0.0135643
950.771	0.0135382
950.849	0.0134719
950.927	0.0133184
951.005	0.0134216
951.083	0.0134998
951.162	0.0133885
951.240	0.0133967
951.318	0.0132798
951.396	0.0133344
951.474	0.0134936
951.552	0.0133982
951.630	0.0133160
951.708	0.0130840
951.787	0.0133450
951.865	0.0133530
951.943	0.0133973
952.021	0.0132273
952.099	0.0134734
952.177	0.0133310
952.255	0.0133691
952.333	0.0133022
952.412	0.0135194
952.490	0.0133193
952.568	0.0134475
952.646	0.0135375
952.724	0.0134269
952.802	0.0136526
952.880	0.0136415
952.958	0.0135748
953.037	0.0136884
953.115	0.0135541
953.193	0.0134554
953.271	0.0137827
953.349	0.0135817
953.427	0.0136599
953.505	0.0136131
953.583	0.0137294
953.662	0.0135828
953.740	0.0135995
953.818	0.0136140
953.896	0.0136938
953.974	0.0136275
954.052	0.0136491
954.130	0.0136092
954.208	0.0136325
954.287	0.0136086
954.365	0.0135847
954.443	0.0135316
954.521	0.0135474
954.599	0.0136039
954.677	0.0134607
954.755	0.0135067
954.833	0.0133355
954.912	0.0135189
954.990	0.0135619
955.068	0.0133079
955.146	0.0133823
955.224	0.0133739
955.302	0.0133553
955.380	0.0134380
955.458	0.0133224
955.537	0.0133234
955.615	0.0134201
955.693	0.0134140
955.771	0.0133447
955.849	0.0133572
955.927	0.0133691
956.005	0.0134048
956.083	0.0134293
956.162	0.0133037
956.240	0.0134770
956.318	0.0133783
956.396	0.0134927
956.474	0.0136377
956.552	0.0135633
956.630	0.0134254
956.708	0.0135015
956.787	0.0134483
956.865	0.0135093
956.943	0.0136612
957.021	0.0135759
957.099	0.0135621
957.177	0.0136896
957.255	0.0136926
957.333	0.0136356
957.412	0.0135680
957.490	0.0136172
957.568	0.0135371
957.646	0.0134232
957.724	0.0135201
957.802	0.0135881
957.880	0.0134872
957.958	0.0136127
958.037	0.0135795
958.115	0.0134208
958.193	0.0135658
958.271	0.0134219
958.349	0.0135053
958.427	0.0135173
958.505	0.0134882
958.583	0.0136312
958.662	0.0135856
958.740	0.0136156
958.818	0.0135249
958.896	0.0135806
958.974	0.0135181
959.052	0.0134460
959.130	0.0134657
959.208	0.0135324
959.287	0.0136539
959.365	0.0134000
959.443	0.0135204
959.521	0.0135294
959.599	0.0135057
959.677	0.0135281
959.755	0.0135445
959.833	0.0134534
959.912	0.0135703
959.990	0.0135342
960.068	0.0135027
960.146	0.0135558
960.224	0.0136208
960.302	0.0135358
960.380	0.0134568
960.458	0.0136080
960.537	0.0135351
960.615	0.0134964
960.693	0.0135860
960.771	0.0135464
960.849	0.0135115
960.927	0.0134511
961.005	0.0135627
961.083	0.0135098
961.162	0.0135205
961.240	0.0135708
961.318	0.0136541
961.396	0.0135454
961.474	0.0135119
961.552	0.0134697
961.630	0.0134908
961.708	0.0135878
961.787	0.0138375
961.865	0.0136903
961.943	0.0136557
962.021	0.0134621
962.099	0.0134222
962.177	0.0135867
962.255	0.0137508
962.333	0.0136120
962.412	0.0137086
962.490	0.0136556
962.568	0.0136246
962.646	0.0134582
962.724	0.0136105
962.802	0.0135474
962.880	0.0135948
962.958	0.0134943
963.037	0.0136533
963.115	0.0135518
963.193	0.0136772
963.271	0.0135709
963.349	0.0134906
963.427	0.0133763
963.505	0.0135837
963.583	0.0133577
963.662	0.0135094
963.740	0.0136052
963.818	0.0135842
963.896	0.0135003
963.974	0.0135211
964.052	0.0133981
964.130	0.0133257
964.208	0.0135494
964.287	0.0135979
964.365	0.0134874
964.443	0.0135664
964.521	0.0134727
964.599	0.0134870
964.677	0.0135580
964.755	0.0136596
964.833	0.0136272
964.912	0.0135320
964.990	0.0137008
965.068	0.0136374
965.146	0.0138139
965.224	0.0137270
965.302	0.0136323
965.380	0.0136719
965.458	0.0138226
965.537	0.0136507
965.615	0.0136207
965.693	0.0137416
965.771	0.0137200
965.849	0.0136749
965.927	0.0136912
966.005	0.0136404
966.083	0.0136754
966.162	0.0136101
966.240	0.0135490
966.318	0.0135298
966.396	0.0136949
966.474	0.0136150
966.552	0.0135039
966.630	0.0136868
966.708	0.0135562
966.787	0.0135959
966.865	0.0134915
966.943	0.0132929
967.021	0.0134348
967.099	0.0132716
967.177	0.0134464
967.255	0.0132384
967.333	0.0133607
967.412	0.0134177
967.490	0.0133440
967.568	0.0132761
967.646	0.0134114
967.724	0.0132627
967.802	0.0133790
967.880	0.0134176
967.958	0.0133702
968.037	0.0134117
968.115	0.0134875
968.193	0.0133463
968.271	0.0135123
968.349	0.0133889
968.427	0.0134096
968.505	0.0134528
968.583	0.0135411
968.662	0.0134492
968.740	0.0133389
968.818	0.0132706
968.896	0.0134615
968.974	0.0134980
969.052	0.0135426
969.130	0.0133500
969.208	0.0134416
969.287	0.0134974
969.365	0.0136092
969.443	0.0134187
969.521	0.0133944
969.599	0.0134836
969.677	0.0134197
969.755	0.0134631
969.833	0.0133526
969.912	0.0134222
