05/08/2022	19:57:51	Ver.	4.1	UNKNOWN
Optical Delay	649.989667	Delta X		0.078125	Sweeps	1	Scan Rate	0/0
Coordinates	Axis 1	NaN	Axis 2	NaN	Axis 3	NaN	Axis 4	NaN	Axis 5	NaN	Axis 6	0.000000
TX Power	0.000000	RX Power	0.000000

649.990	0.0136208
650.068	0.0136136
650.146	0.0136382
650.224	0.0135743
650.302	0.0135948
650.380	0.0137186
650.458	0.0135448
650.537	0.0136374
650.615	0.0136248
650.693	0.0137257
650.771	0.0136062
650.849	0.0136791
650.927	0.0136354
651.005	0.0135737
651.083	0.0135659
651.162	0.0135622
651.240	0.0134839
651.318	0.0134310
651.396	0.0136328
651.474	0.0136167
651.552	0.0135300
651.630	0.0134952
651.708	0.0136742
651.787	0.0135247
651.865	0.0137265
651.943	0.0136552
652.021	0.0136140
652.099	0.0136247
652.177	0.0136972
652.255	0.0137780
652.333	0.0137165
652.412	0.0138040
652.490	0.0137743
652.568	0.0135666
652.646	0.0136237
652.724	0.0138187
652.802	0.0135835
652.880	0.0135509
652.958	0.0135893
653.037	0.0136404
653.115	0.0135373
653.193	0.0136163
653.271	0.0135784
653.349	0.0135795
653.427	0.0135505
653.505	0.0135215
653.583	0.0136150
653.662	0.0138014
653.740	0.0135854
653.818	0.0137196
653.896	0.0136655
653.974	0.0137138
654.052	0.0136761
654.130	0.0136978
654.208	0.0136143
654.287	0.0136006
654.365	0.0134377
654.443	0.0134577
654.521	0.0134528
654.599	0.0134196
654.677	0.0135653
654.755	0.0135243
654.833	0.0136554
654.912	0.0137179
654.990	0.0138509
655.068	0.0138442
655.146	0.0138883
655.224	0.0139494
655.302	0.0141078
655.380	0.0141003
655.458	0.0140765
655.537	0.0139491
655.615	0.0138627
655.693	0.0138752
655.771	0.0138381
655.849	0.0137180
655.927	0.0136997
656.005	0.0134901
656.083	0.0134077
656.162	0.0134510
656.240	0.0133966
656.318	0.0133268
656.396	0.0132220
656.474	0.0131938
656.552	0.0132497
656.630	0.0131659
656.708	0.0129987
656.787	0.0130251
656.865	0.0130610
656.943	0.0130080
657.021	0.0131908
657.099	0.0131265
657.177	0.0130533
657.255	0.0131759
657.333	0.0132478
657.412	0.0131615
657.490	0.0134087
657.568	0.0134499
657.646	0.0135835
657.724	0.0138930
657.802	0.0139946
657.880	0.0141475
657.958	0.0143734
658.037	0.0147034
658.115	0.0146659
658.193	0.0148775
658.271	0.0149746
658.349	0.0148824
658.427	0.0148338
658.505	0.0147203
658.583	0.0145300
658.662	0.0143835
658.740	0.0141840
658.818	0.0140222
658.896	0.0139519
658.974	0.0137136
659.052	0.0134541
659.130	0.0131631
659.208	0.0129760
659.287	0.0128344
659.365	0.0126320
659.443	0.0124901
659.521	0.0123955
659.599	0.0121454
659.677	0.0119833
659.755	0.0119051
659.833	0.0119600
659.912	0.0119121
659.990	0.0119306
660.068	0.0119592
660.146	0.0121090
660.224	0.0122432
660.302	0.0124972
660.380	0.0125954
660.458	0.0129501
660.537	0.0134460
660.615	0.0138902
660.693	0.0141837
660.771	0.0145973
660.849	0.0149979
660.927	0.0152963
661.005	0.0155618
661.083	0.0158595
661.162	0.0159242
661.240	0.0161588
661.318	0.0162180
661.396	0.0162325
661.474	0.0162910
661.552	0.0161076
661.630	0.0159370
661.708	0.0157587
661.787	0.0154299
661.865	0.0150356
661.943	0.0146126
662.021	0.0142066
662.099	0.0137962
662.177	0.0132974
662.255	0.0129034
662.333	0.0123402
662.412	0.0119997
662.490	0.0114713
662.568	0.0112193
662.646	0.0108382
662.724	0.0106928
662.802	0.0104797
662.880	0.0104438
662.958	0.0105029
663.037	0.0103475
663.115	0.0103949
663.193	0.0106946
663.271	0.0108076
663.349	0.0110742
663.427	0.0114194
663.505	0.0117310
663.583	0.0121233
663.662	0.0124087
663.740	0.0128708
663.818	0.0133885
663.896	0.0139437
663.974	0.0143488
664.052	0.0149306
664.130	0.0155389
664.208	0.0159624
664.287	0.0164566
664.365	0.0168592
664.443	0.0172145
664.521	0.0173867
664.599	0.0175392
664.677	0.0175210
664.755	0.0174125
664.833	0.0170634
664.912	0.0169328
664.990	0.0164502
665.068	0.0159063
665.146	0.0156744
665.224	0.0151682
665.302	0.0144947
665.380	0.0142423
665.458	0.0136869
665.537	0.0132264
665.615	0.0126719
665.693	0.0122061
665.771	0.0118870
665.849	0.0114972
665.927	0.0111524
666.005	0.0108719
666.083	0.0106655
666.162	0.0105193
666.240	0.0104191
666.318	0.0103111
666.396	0.0103203
666.474	0.0105788
666.552	0.0105289
666.630	0.0107809
666.708	0.0111155
666.787	0.0114914
666.865	0.0118667
666.943	0.0122410
667.021	0.0126541
667.099	0.0130008
667.177	0.0133888
667.255	0.0138843
667.333	0.0140452
667.412	0.0143279
667.490	0.0147840
667.568	0.0150605
667.646	0.0152267
667.724	0.0155803
667.802	0.0157166
667.880	0.0158753
667.958	0.0159612
668.037	0.0159951
668.115	0.0158781
668.193	0.0158601
668.271	0.0157929
668.349	0.0156454
668.427	0.0154771
668.505	0.0151392
668.583	0.0148722
668.662	0.0146819
668.740	0.0142741
668.818	0.0140640
668.896	0.0138100
668.974	0.0136201
669.052	0.0132314
669.130	0.0133086
669.208	0.0131680
669.287	0.0130170
669.365	0.0130418
669.443	0.0131081
669.521	0.0133537
669.599	0.0133445
669.677	0.0133488
669.755	0.0134677
669.833	0.0136742
669.912	0.0136397
669.990	0.0135639
670.068	0.0133926
670.146	0.0135308
670.224	0.0135964
670.302	0.0135820
670.380	0.0134415
670.458	0.0131858
670.537	0.0131419
670.615	0.0131460
670.693	0.0128598
670.771	0.0127203
670.849	0.0126517
670.927	0.0124695
671.005	0.0124776
671.083	0.0122900
671.162	0.0123434
671.240	0.0122006
671.318	0.0122016
671.396	0.0122556
671.474	0.0123386
671.552	0.0122581
671.630	0.0126178
671.708	0.0127074
671.787	0.0130747
671.865	0.0133912
671.943	0.0135808
672.021	0.0140143
672.099	0.0141502
672.177	0.0145774
672.255	0.0146952
672.333	0.0148765
672.412	0.0149960
672.490	0.0150986
672.568	0.0151367
672.646	0.0151083
672.724	0.0150566
672.802	0.0150385
672.880	0.0150921
672.958	0.0149608
673.037	0.0149932
673.115	0.0149569
673.193	0.0148215
673.271	0.0147598
673.349	0.0149673
673.427	0.0148454
673.505	0.0149252
673.583	0.0148629
673.662	0.0148418
673.740	0.0146268
673.818	0.0143798
673.896	0.0143061
673.974	0.0141545
674.052	0.0139782
674.130	0.0137563
674.208	0.0132791
674.287	0.0128984
674.365	0.0127395
674.443	0.0123890
674.521	0.0122442
674.599	0.0121188
674.677	0.0121056
674.755	0.0120048
674.833	0.0121542
674.912	0.0122884
674.990	0.0123838
675.068	0.0126202
675.146	0.0128091
675.224	0.0127737
675.302	0.0128799
675.380	0.0129875
675.458	0.0131226
675.537	0.0129783
675.615	0.0130280
675.693	0.0129804
675.771	0.0129471
675.849	0.0127422
675.927	0.0128901
676.005	0.0129549
676.083	0.0129288
676.162	0.0130287
676.240	0.0130199
676.318	0.0132392
676.396	0.0134621
676.474	0.0135354
676.552	0.0136630
676.630	0.0138084
676.708	0.0140064
676.787	0.0140593
676.865	0.0145022
676.943	0.0146495
677.021	0.0148574
677.099	0.0150786
677.177	0.0152769
677.255	0.0154230
677.333	0.0158066
677.412	0.0158994
677.490	0.0159288
677.568	0.0160966
677.646	0.0158585
677.724	0.0159228
677.802	0.0156978
677.880	0.0154386
677.958	0.0150681
678.037	0.0147472
678.115	0.0142065
678.193	0.0138081
678.271	0.0133060
678.349	0.0129939
678.427	0.0126059
678.505	0.0121075
678.583	0.0117696
678.662	0.0116729
678.740	0.0116212
678.818	0.0115240
678.896	0.0113882
678.974	0.0115701
679.052	0.0115382
679.130	0.0116449
679.208	0.0117695
679.287	0.0120214
679.365	0.0119828
679.443	0.0122480
679.521	0.0124398
679.599	0.0126218
679.677	0.0130042
679.755	0.0132191
679.833	0.0138055
679.912	0.0140587
679.990	0.0144225
680.068	0.0145671
680.146	0.0149117
680.224	0.0151890
680.302	0.0153392
680.380	0.0153401
680.458	0.0154420
680.537	0.0155331
680.615	0.0153525
680.693	0.0150968
680.771	0.0149963
680.849	0.0146375
680.927	0.0144502
681.005	0.0142682
681.083	0.0140454
681.162	0.0137151
681.240	0.0135322
681.318	0.0132896
681.396	0.0130307
681.474	0.0129421
681.552	0.0127631
681.630	0.0128703
681.708	0.0127321
681.787	0.0127365
681.865	0.0126643
681.943	0.0126301
682.021	0.0128178
682.099	0.0127699
682.177	0.0128793
682.255	0.0130991
682.333	0.0128862
682.412	0.0130634
682.490	0.0130733
682.568	0.0130112
682.646	0.0129705
682.724	0.0128385
682.802	0.0128562
682.880	0.0128231
682.958	0.0126665
683.037	0.0127660
683.115	0.0127699
683.193	0.0128735
683.271	0.0128722
683.349	0.0129284
683.427	0.0132992
683.505	0.0134607
683.583	0.0135447
683.662	0.0138197
683.740	0.0138375
683.818	0.0140512
683.896	0.0141067
683.974	0.0142564
684.052	0.0143214
684.130	0.0143852
684.208	0.0145806
684.287	0.0145264
684.365	0.0145273
684.443	0.0145762
684.521	0.0147510
684.599	0.0148080
684.677	0.0149659
684.755	0.0150469
684.833	0.0148753
684.912	0.0148507
684.990	0.0148788
685.068	0.0147916
685.146	0.0146281
685.224	0.0145159
685.302	0.0145140
685.380	0.0142364
685.458	0.0139320
685.537	0.0137680
685.615	0.0136052
685.693	0.0135324
685.771	0.0134199
685.849	0.0132152
685.927	0.0132883
686.005	0.0130299
686.083	0.0130550
686.162	0.0129424
686.240	0.0129788
686.318	0.0128412
686.396	0.0127127
686.474	0.0125296
686.552	0.0124432
686.630	0.0121678
686.708	0.0122403
686.787	0.0121757
686.865	0.0120600
686.943	0.0119078
687.021	0.0119509
687.099	0.0119086
687.177	0.0121239
687.255	0.0121110
687.333	0.0122303
687.412	0.0125665
687.490	0.0127611
687.568	0.0129036
687.646	0.0133597
687.724	0.0134422
687.802	0.0133832
687.880	0.0136444
687.958	0.0137645
688.037	0.0139610
688.115	0.0141737
688.193	0.0142354
688.271	0.0142464
688.349	0.0144173
688.427	0.0144839
688.505	0.0144257
688.583	0.0146435
688.662	0.0147098
688.740	0.0146500
688.818	0.0147408
688.896	0.0147575
688.974	0.0147854
689.052	0.0148926
689.130	0.0149673
689.208	0.0149792
689.287	0.0148875
689.365	0.0147768
689.443	0.0146624
689.521	0.0146964
689.599	0.0144171
689.677	0.0143778
689.755	0.0142966
689.833	0.0140186
689.912	0.0140434
689.990	0.0138811
690.068	0.0138364
690.146	0.0137170
690.224	0.0136594
690.302	0.0134853
690.380	0.0135879
690.458	0.0137017
690.537	0.0137099
690.615	0.0137798
690.693	0.0136970
690.771	0.0140430
690.849	0.0139601
690.927	0.0138979
691.005	0.0137818
691.083	0.0136675
691.162	0.0136801
691.240	0.0135271
691.318	0.0134309
691.396	0.0131924
691.474	0.0130122
691.552	0.0129876
691.630	0.0129207
691.708	0.0128330
691.787	0.0128772
691.865	0.0129581
691.943	0.0129555
692.021	0.0128925
692.099	0.0129684
692.177	0.0130737
692.255	0.0131137
692.333	0.0131322
692.412	0.0130949
692.490	0.0131236
692.568	0.0132904
692.646	0.0130411
692.724	0.0129939
692.802	0.0128462
692.880	0.0126878
692.958	0.0125829
693.037	0.0125381
693.115	0.0124448
693.193	0.0124139
693.271	0.0126387
693.349	0.0126184
693.427	0.0127895
693.505	0.0128210
693.583	0.0130459
693.662	0.0134116
693.740	0.0135526
693.818	0.0137553
693.896	0.0140028
693.974	0.0142771
694.052	0.0145644
694.130	0.0148186
694.208	0.0149699
694.287	0.0152473
694.365	0.0154203
694.443	0.0153595
694.521	0.0156008
694.599	0.0155376
694.677	0.0154160
694.755	0.0154532
694.833	0.0153595
694.912	0.0153861
694.990	0.0150819
695.068	0.0150082
695.146	0.0148335
695.224	0.0146146
695.302	0.0143829
695.380	0.0143517
695.458	0.0140090
695.537	0.0140746
695.615	0.0139945
695.693	0.0137334
695.771	0.0139529
695.849	0.0138723
695.927	0.0139611
696.005	0.0139428
696.083	0.0137888
696.162	0.0137269
696.240	0.0137384
696.318	0.0134956
696.396	0.0131466
696.474	0.0129971
696.552	0.0128265
696.630	0.0124728
696.708	0.0123113
696.787	0.0122216
696.865	0.0118684
696.943	0.0117384
697.021	0.0116781
697.099	0.0115633
697.177	0.0116936
697.255	0.0118744
697.333	0.0119579
697.412	0.0121621
697.490	0.0123198
697.568	0.0125785
697.646	0.0130209
697.724	0.0130930
697.802	0.0131958
697.880	0.0133465
697.958	0.0135520
698.037	0.0137897
698.115	0.0138399
698.193	0.0138613
698.271	0.0138653
698.349	0.0138578
698.427	0.0140113
698.505	0.0139074
698.583	0.0140508
698.662	0.0140529
698.740	0.0138898
698.818	0.0139457
698.896	0.0139233
698.974	0.0137873
699.052	0.0137636
699.130	0.0136955
699.208	0.0135551
699.287	0.0137188
699.365	0.0137186
699.443	0.0137643
699.521	0.0138396
699.599	0.0140067
699.677	0.0140858
699.755	0.0141243
699.833	0.0143661
699.912	0.0144366
699.990	0.0145773
700.068	0.0146778
700.146	0.0146742
700.224	0.0146539
700.302	0.0146891
700.380	0.0147389
700.458	0.0147089
700.537	0.0144063
700.615	0.0143412
700.693	0.0142311
700.771	0.0143039
700.849	0.0141849
700.927	0.0139401
701.005	0.0135991
701.083	0.0135197
701.162	0.0133908
701.240	0.0132015
701.318	0.0130548
701.396	0.0129870
701.474	0.0129974
701.552	0.0130032
701.630	0.0127946
701.708	0.0127736
701.787	0.0127867
701.865	0.0128287
701.943	0.0126965
702.021	0.0128590
702.099	0.0127180
702.177	0.0129623
702.255	0.0129121
702.333	0.0126547
702.412	0.0128024
702.490	0.0126202
702.568	0.0126791
702.646	0.0128525
702.724	0.0127298
702.802	0.0130037
702.880	0.0129913
702.958	0.0131752
703.037	0.0134138
703.115	0.0134725
703.193	0.0136731
703.271	0.0136797
703.349	0.0138564
703.427	0.0138706
703.505	0.0139908
703.583	0.0142071
703.662	0.0139600
703.740	0.0138036
703.818	0.0140508
703.896	0.0139117
703.974	0.0138412
704.052	0.0137535
704.130	0.0138150
704.208	0.0136951
704.287	0.0136780
704.365	0.0136486
704.443	0.0134060
704.521	0.0133414
704.599	0.0133572
704.677	0.0133826
704.755	0.0133304
704.833	0.0135086
704.912	0.0135934
704.990	0.0137439
705.068	0.0138053
705.146	0.0138272
705.224	0.0138704
705.302	0.0139454
705.380	0.0141721
705.458	0.0142876
705.537	0.0144114
705.615	0.0143501
705.693	0.0144526
705.771	0.0144694
705.849	0.0145017
705.927	0.0144747
706.005	0.0142822
706.083	0.0142001
706.162	0.0140683
706.240	0.0138538
706.318	0.0134827
706.396	0.0133804
706.474	0.0130833
706.552	0.0129166
706.630	0.0128278
706.708	0.0126823
706.787	0.0125083
706.865	0.0124227
706.943	0.0124306
707.021	0.0122356
707.099	0.0122513
707.177	0.0124634
707.255	0.0124786
707.333	0.0126978
707.412	0.0128754
707.490	0.0130863
707.568	0.0133378
707.646	0.0134213
707.724	0.0139057
707.802	0.0142445
707.880	0.0145131
707.958	0.0148116
708.037	0.0150001
708.115	0.0150883
708.193	0.0152131
708.271	0.0153122
708.349	0.0154056
708.427	0.0154094
708.505	0.0154153
708.583	0.0153134
708.662	0.0152263
708.740	0.0149688
708.818	0.0146339
708.896	0.0144891
708.974	0.0145413
709.052	0.0144194
709.130	0.0142792
709.208	0.0141641
709.287	0.0140570
709.365	0.0138995
709.443	0.0139118
709.521	0.0137095
709.599	0.0137384
709.677	0.0136929
709.755	0.0135587
709.833	0.0131933
709.912	0.0131520
709.990	0.0129919
710.068	0.0126737
710.146	0.0123571
710.224	0.0119823
710.302	0.0119133
710.380	0.0116161
710.458	0.0115302
710.537	0.0115018
710.615	0.0114478
710.693	0.0115900
710.771	0.0116717
710.849	0.0117725
710.927	0.0119286
711.005	0.0121441
711.083	0.0124279
711.162	0.0126965
711.240	0.0130025
711.318	0.0132263
711.396	0.0136209
711.474	0.0137997
711.552	0.0142266
711.630	0.0144394
711.708	0.0148328
711.787	0.0149111
711.865	0.0150375
711.943	0.0152757
712.021	0.0151604
712.099	0.0151374
712.177	0.0152767
712.255	0.0152718
712.333	0.0150689
712.412	0.0150965
712.490	0.0146790
712.568	0.0146150
712.646	0.0144014
712.724	0.0143230
712.802	0.0142313
712.880	0.0142156
712.958	0.0140637
713.037	0.0139162
713.115	0.0136308
713.193	0.0136237
713.271	0.0135570
713.349	0.0136716
713.427	0.0137646
713.505	0.0137093
713.583	0.0138207
713.662	0.0137396
713.740	0.0138174
713.818	0.0137637
713.896	0.0138544
713.974	0.0139413
714.052	0.0138509
714.130	0.0138548
714.208	0.0137318
714.287	0.0138516
714.365	0.0139520
714.443	0.0137505
714.521	0.0137099
714.599	0.0134736
714.677	0.0134447
714.755	0.0133241
714.833	0.0132353
714.912	0.0133412
714.990	0.0130563
715.068	0.0130672
715.146	0.0131882
715.224	0.0132309
715.302	0.0131073
715.380	0.0131528
715.458	0.0132153
715.537	0.0133053
715.615	0.0132482
715.693	0.0132297
715.771	0.0132275
715.849	0.0133129
715.927	0.0133374
716.005	0.0131326
716.083	0.0131686
716.162	0.0130739
716.240	0.0130470
716.318	0.0129447
716.396	0.0130825
716.474	0.0131597
716.552	0.0132101
716.630	0.0132920
716.708	0.0134355
716.787	0.0135656
716.865	0.0135177
716.943	0.0137423
717.021	0.0138506
717.099	0.0139217
717.177	0.0138807
717.255	0.0138298
717.333	0.0137681
717.412	0.0138306
717.490	0.0136961
717.568	0.0135621
717.646	0.0135586
717.724	0.0135708
717.802	0.0135465
717.880	0.0137230
717.958	0.0136343
718.037	0.0135310
718.115	0.0135882
718.193	0.0138686
718.271	0.0136401
718.349	0.0136549
718.427	0.0136056
718.505	0.0138644
718.583	0.0138354
718.662	0.0137713
718.740	0.0138923
718.818	0.0138702
718.896	0.0137223
718.974	0.0138174
719.052	0.0136532
719.130	0.0139264
719.208	0.0139074
719.287	0.0138265
719.365	0.0139811
719.443	0.0140215
719.521	0.0141880
719.599	0.0141669
719.677	0.0141727
719.755	0.0143707
719.833	0.0145482
719.912	0.0142876
719.990	0.0142609
720.068	0.0142137
720.146	0.0141460
720.224	0.0142418
720.302	0.0138900
720.380	0.0139197
720.458	0.0137399
720.537	0.0137045
720.615	0.0134497
720.693	0.0132507
720.771	0.0132337
720.849	0.0130067
720.927	0.0129523
721.005	0.0129404
721.083	0.0128253
721.162	0.0128230
721.240	0.0128332
721.318	0.0127826
721.396	0.0128449
721.474	0.0130901
721.552	0.0130894
721.630	0.0132658
721.708	0.0134577
721.787	0.0135972
721.865	0.0137106
721.943	0.0135739
722.021	0.0137912
722.099	0.0136905
722.177	0.0135233
722.255	0.0135175
722.333	0.0135268
722.412	0.0133947
722.490	0.0131328
722.568	0.0129834
722.646	0.0127818
722.724	0.0127515
722.802	0.0127386
722.880	0.0126984
722.958	0.0126369
723.037	0.0126334
723.115	0.0127526
723.193	0.0128211
723.271	0.0130161
723.349	0.0131319
723.427	0.0132188
723.505	0.0133788
723.583	0.0134834
723.662	0.0136087
723.740	0.0136455
723.818	0.0137498
723.896	0.0138097
723.974	0.0139407
724.052	0.0140886
724.130	0.0140453
724.208	0.0140467
724.287	0.0141544
724.365	0.0142963
724.443	0.0142818
724.521	0.0143809
724.599	0.0144774
724.677	0.0144550
724.755	0.0146085
724.833	0.0145346
724.912	0.0144675
724.990	0.0145779
725.068	0.0144547
725.146	0.0143867
725.224	0.0144216
725.302	0.0143096
725.380	0.0141655
725.458	0.0141161
725.537	0.0138740
725.615	0.0138181
725.693	0.0136663
725.771	0.0135698
725.849	0.0134566
725.927	0.0133321
726.005	0.0132211
726.083	0.0130997
726.162	0.0130682
726.240	0.0130163
726.318	0.0131146
726.396	0.0130235
726.474	0.0130652
726.552	0.0131370
726.630	0.0130948
726.708	0.0133017
726.787	0.0133421
726.865	0.0133623
726.943	0.0136458
727.021	0.0136024
727.099	0.0137304
727.177	0.0138958
727.255	0.0137840
727.333	0.0138255
727.412	0.0139390
727.490	0.0139317
727.568	0.0138444
727.646	0.0139280
727.724	0.0138622
727.802	0.0138074
727.880	0.0137325
727.958	0.0137914
728.037	0.0138394
728.115	0.0138972
728.193	0.0138705
728.271	0.0138484
728.349	0.0136828
728.427	0.0137183
728.505	0.0135855
728.583	0.0135773
728.662	0.0134724
728.740	0.0131767
728.818	0.0131493
728.896	0.0130056
728.974	0.0127931
729.052	0.0127566
729.130	0.0126929
729.208	0.0125904
729.287	0.0125649
729.365	0.0126799
729.443	0.0127297
729.521	0.0128083
729.599	0.0129938
729.677	0.0131995
729.755	0.0134248
729.833	0.0134755
729.912	0.0135683
729.990	0.0135185
730.068	0.0138934
730.146	0.0139574
730.224	0.0139763
730.302	0.0140654
730.380	0.0139922
730.458	0.0139700
730.537	0.0140153
730.615	0.0139695
730.693	0.0140395
730.771	0.0140673
730.849	0.0141731
730.927	0.0141932
731.005	0.0141466
731.083	0.0141485
731.162	0.0143058
731.240	0.0144179
731.318	0.0144474
731.396	0.0145050
731.474	0.0143893
731.552	0.0143515
731.630	0.0145094
731.708	0.0143085
731.787	0.0142624
731.865	0.0141596
731.943	0.0141309
732.021	0.0138948
732.099	0.0138685
732.177	0.0138840
732.255	0.0137093
732.333	0.0136301
732.412	0.0135758
732.490	0.0134945
732.568	0.0134486
732.646	0.0134613
732.724	0.0135624
732.802	0.0134435
732.880	0.0134052
732.958	0.0133442
733.037	0.0132711
733.115	0.0132049
733.193	0.0130917
733.271	0.0131710
733.349	0.0130310
733.427	0.0131626
733.505	0.0129567
733.583	0.0130276
733.662	0.0129919
733.740	0.0131008
733.818	0.0130685
733.896	0.0132422
733.974	0.0132842
734.052	0.0133527
734.130	0.0136060
734.208	0.0135686
734.287	0.0137578
734.365	0.0138051
734.443	0.0140379
734.521	0.0139314
734.599	0.0140287
734.677	0.0141253
734.755	0.0140341
734.833	0.0138703
734.912	0.0138055
734.990	0.0137517
735.068	0.0135452
735.146	0.0133909
735.224	0.0135639
735.302	0.0134885
735.380	0.0134945
735.458	0.0133671
735.537	0.0134583
735.615	0.0134634
735.693	0.0134519
735.771	0.0135698
735.849	0.0136990
735.927	0.0137889
736.005	0.0138460
736.083	0.0136658
736.162	0.0138105
736.240	0.0137706
736.318	0.0137544
736.396	0.0137286
736.474	0.0136776
736.552	0.0136810
736.630	0.0135925
736.708	0.0135592
736.787	0.0134281
736.865	0.0133733
736.943	0.0134004
737.021	0.0133469
737.099	0.0135378
737.177	0.0136253
737.255	0.0135351
737.333	0.0136308
737.412	0.0138526
737.490	0.0137840
737.568	0.0139391
737.646	0.0140247
737.724	0.0140575
737.802	0.0140712
737.880	0.0141600
737.958	0.0142772
738.037	0.0142696
738.115	0.0143719
738.193	0.0142791
738.271	0.0142573
738.349	0.0142358
738.427	0.0140921
738.505	0.0140994
738.583	0.0140034
738.662	0.0139269
738.740	0.0137362
738.818	0.0137687
738.896	0.0138171
738.974	0.0136698
739.052	0.0136724
739.130	0.0135088
739.208	0.0135425
739.287	0.0137129
739.365	0.0137474
739.443	0.0136165
739.521	0.0138065
739.599	0.0136896
739.677	0.0137852
739.755	0.0138251
739.833	0.0137303
739.912	0.0137264
739.990	0.0136911
740.068	0.0135734
740.146	0.0134737
740.224	0.0136177
740.302	0.0134437
740.380	0.0134036
740.458	0.0134189
740.537	0.0131860
740.615	0.0130961
740.693	0.0131792
740.771	0.0131921
740.849	0.0132055
740.927	0.0130608
741.005	0.0132720
741.083	0.0132249
741.162	0.0132838
741.240	0.0134444
741.318	0.0134970
741.396	0.0135157
741.474	0.0136997
741.552	0.0136715
741.630	0.0138699
741.708	0.0139053
741.787	0.0139603
741.865	0.0137727
741.943	0.0138852
742.021	0.0139301
742.099	0.0138908
742.177	0.0138082
742.255	0.0138190
742.333	0.0138007
742.412	0.0135056
742.490	0.0135495
742.568	0.0133112
742.646	0.0133944
742.724	0.0132189
742.802	0.0132667
742.880	0.0132358
742.958	0.0131655
743.037	0.0133193
743.115	0.0132355
743.193	0.0131754
743.271	0.0133093
743.349	0.0132949
743.427	0.0133723
743.505	0.0135043
743.583	0.0136411
743.662	0.0136256
743.740	0.0136378
743.818	0.0136412
743.896	0.0137202
743.974	0.0138931
744.052	0.0137811
744.130	0.0136069
744.208	0.0137679
744.287	0.0136481
744.365	0.0137392
744.443	0.0136411
744.521	0.0136870
744.599	0.0136400
744.677	0.0137341
744.755	0.0136677
744.833	0.0137220
744.912	0.0136837
744.990	0.0137379
745.068	0.0139741
745.146	0.0139105
745.224	0.0139554
745.302	0.0142282
745.380	0.0142255
745.458	0.0142255
745.537	0.0142764
745.615	0.0143931
745.693	0.0141548
745.771	0.0142535
745.849	0.0141916
745.927	0.0140450
746.005	0.0139616
746.083	0.0139719
746.162	0.0136074
746.240	0.0135944
746.318	0.0135762
746.396	0.0133234
746.474	0.0132527
746.552	0.0131761
746.630	0.0132947
746.708	0.0132169
746.787	0.0130768
746.865	0.0132317
746.943	0.0131760
747.021	0.0132877
747.099	0.0131764
747.177	0.0132599
747.255	0.0134116
747.333	0.0135263
747.412	0.0134635
747.490	0.0135924
747.568	0.0136353
747.646	0.0137831
747.724	0.0138307
747.802	0.0138179
747.880	0.0137661
747.958	0.0137990
748.037	0.0137668
748.115	0.0138236
748.193	0.0138708
748.271	0.0136459
748.349	0.0136335
748.427	0.0135740
748.505	0.0135375
748.583	0.0134780
748.662	0.0133526
748.740	0.0134278
748.818	0.0135893
748.896	0.0135094
748.974	0.0135514
749.052	0.0136824
749.130	0.0136846
749.208	0.0137313
749.287	0.0135492
749.365	0.0136304
749.443	0.0137148
749.521	0.0137642
749.599	0.0137259
749.677	0.0137732
749.755	0.0136125
749.833	0.0134817
749.912	0.0135606
749.990	0.0135412
750.068	0.0135299
750.146	0.0134759
750.224	0.0133958
750.302	0.0133131
750.380	0.0133601
750.458	0.0134267
750.537	0.0133866
750.615	0.0134639
750.693	0.0133826
750.771	0.0135095
750.849	0.0134888
750.927	0.0134521
751.005	0.0134122
751.083	0.0133923
751.162	0.0134354
751.240	0.0135870
751.318	0.0136452
751.396	0.0136555
751.474	0.0137410
751.552	0.0136932
751.630	0.0138155
751.708	0.0138595
751.787	0.0139366
751.865	0.0138985
751.943	0.0141199
752.021	0.0141281
752.099	0.0141759
752.177	0.0140900
752.255	0.0140170
752.333	0.0140041
752.412	0.0141318
752.490	0.0141637
752.568	0.0141917
752.646	0.0140281
752.724	0.0140172
752.802	0.0140791
752.880	0.0138927
752.958	0.0139787
753.037	0.0140585
753.115	0.0138965
753.193	0.0138818
753.271	0.0136879
753.349	0.0138303
753.427	0.0137602
753.505	0.0136622
753.583	0.0134653
753.662	0.0135338
753.740	0.0135038
753.818	0.0134145
753.896	0.0133834
753.974	0.0132349
754.052	0.0132346
754.130	0.0131405
754.208	0.0130271
754.287	0.0129984
754.365	0.0130006
754.443	0.0131543
754.521	0.0132371
754.599	0.0132504
754.677	0.0133067
754.755	0.0133832
754.833	0.0134898
754.912	0.0134845
754.990	0.0134599
755.068	0.0136362
755.146	0.0137278
755.224	0.0136716
755.302	0.0137107
755.380	0.0135003
755.458	0.0135912
755.537	0.0136063
755.615	0.0136638
755.693	0.0135723
755.771	0.0134986
755.849	0.0134623
755.927	0.0135246
756.005	0.0134911
756.083	0.0134326
756.162	0.0133697
756.240	0.0134245
756.318	0.0135199
756.396	0.0133350
756.474	0.0135320
756.552	0.0135851
756.630	0.0134534
756.708	0.0136447
756.787	0.0136427
756.865	0.0137193
756.943	0.0136543
757.021	0.0137006
757.099	0.0137381
757.177	0.0136050
757.255	0.0136762
757.333	0.0137656
757.412	0.0137311
757.490	0.0136585
757.568	0.0136298
757.646	0.0136609
757.724	0.0137362
757.802	0.0137273
757.880	0.0137289
757.958	0.0137616
758.037	0.0136926
758.115	0.0137955
758.193	0.0138190
758.271	0.0137652
758.349	0.0137978
758.427	0.0139247
758.505	0.0139663
758.583	0.0140376
758.662	0.0140855
758.740	0.0140443
758.818	0.0140960
758.896	0.0139137
758.974	0.0138914
759.052	0.0139256
759.130	0.0137678
759.208	0.0136761
759.287	0.0135848
759.365	0.0134012
759.443	0.0132545
759.521	0.0132488
759.599	0.0131909
759.677	0.0130491
759.755	0.0129811
759.833	0.0129873
759.912	0.0130062
759.990	0.0130714
760.068	0.0130229
760.146	0.0132039
760.224	0.0132279
760.302	0.0132284
760.380	0.0134027
760.458	0.0134348
760.537	0.0134779
760.615	0.0135220
760.693	0.0136955
760.771	0.0136693
760.849	0.0136309
760.927	0.0138655
761.005	0.0138053
761.083	0.0136859
761.162	0.0137083
761.240	0.0137908
761.318	0.0137776
761.396	0.0137057
761.474	0.0136471
761.552	0.0137414
761.630	0.0138754
761.708	0.0138708
761.787	0.0139874
761.865	0.0140328
761.943	0.0140798
762.021	0.0140441
762.099	0.0140791
762.177	0.0141416
762.255	0.0140566
762.333	0.0139504
762.412	0.0139445
762.490	0.0137771
762.568	0.0138455
762.646	0.0137292
762.724	0.0136481
762.802	0.0134701
762.880	0.0133743
762.958	0.0131130
763.037	0.0131763
763.115	0.0131566
763.193	0.0130573
763.271	0.0129021
763.349	0.0129076
763.427	0.0130613
763.505	0.0129581
763.583	0.0131545
763.662	0.0130508
763.740	0.0130784
763.818	0.0132759
763.896	0.0133810
763.974	0.0133747
764.052	0.0135507
764.130	0.0136388
764.208	0.0136957
764.287	0.0136991
764.365	0.0138231
764.443	0.0139851
764.521	0.0140563
764.599	0.0141059
764.677	0.0140735
764.755	0.0140453
764.833	0.0140981
764.912	0.0140173
764.990	0.0141493
765.068	0.0141189
765.146	0.0140257
765.224	0.0140526
765.302	0.0141850
765.380	0.0141164
765.458	0.0139650
765.537	0.0139208
765.615	0.0138470
765.693	0.0137304
765.771	0.0136861
765.849	0.0137078
765.927	0.0138289
766.005	0.0135742
766.083	0.0134886
766.162	0.0136189
766.240	0.0134461
766.318	0.0135539
766.396	0.0134559
766.474	0.0135062
766.552	0.0135387
766.630	0.0134608
766.708	0.0134132
766.787	0.0133954
766.865	0.0133508
766.943	0.0134476
767.021	0.0134308
767.099	0.0132883
767.177	0.0132719
767.255	0.0133318
767.333	0.0133608
767.412	0.0133308
767.490	0.0132645
767.568	0.0132787
767.646	0.0134893
767.724	0.0135313
767.802	0.0134283
767.880	0.0134903
767.958	0.0135131
768.037	0.0135777
768.115	0.0136744
768.193	0.0136750
768.271	0.0137905
768.349	0.0137785
768.427	0.0139233
768.505	0.0138796
768.583	0.0139114
768.662	0.0138375
768.740	0.0137429
768.818	0.0138419
768.896	0.0137690
768.974	0.0136946
769.052	0.0137821
769.130	0.0136103
769.208	0.0136972
769.287	0.0137796
769.365	0.0136897
769.443	0.0136079
769.521	0.0138679
769.599	0.0138051
769.677	0.0137228
769.755	0.0138535
769.833	0.0138542
769.912	0.0138965
769.990	0.0138942
770.068	0.0138184
770.146	0.0139301
770.224	0.0139409
770.302	0.0138293
770.380	0.0137842
770.458	0.0137017
770.537	0.0137424
770.615	0.0135418
770.693	0.0136150
770.771	0.0135186
770.849	0.0134693
770.927	0.0134476
771.005	0.0134054
771.083	0.0134264
771.162	0.0133611
771.240	0.0134370
771.318	0.0133556
771.396	0.0134032
771.474	0.0135817
771.552	0.0136470
771.630	0.0135066
771.708	0.0136736
771.787	0.0135647
771.865	0.0135553
771.943	0.0135558
772.021	0.0135588
772.099	0.0137053
772.177	0.0136594
772.255	0.0135625
772.333	0.0135198
772.412	0.0136699
772.490	0.0137247
772.568	0.0136024
772.646	0.0135219
772.724	0.0135475
772.802	0.0137247
772.880	0.0138277
772.958	0.0137788
773.037	0.0137284
773.115	0.0140516
773.193	0.0138628
773.271	0.0138709
773.349	0.0140111
773.427	0.0140285
773.505	0.0140849
773.583	0.0138552
773.662	0.0139152
773.740	0.0138702
773.818	0.0140385
773.896	0.0138351
773.974	0.0138078
774.052	0.0137526
774.130	0.0137514
774.208	0.0136318
774.287	0.0135794
774.365	0.0136082
774.443	0.0134652
774.521	0.0134919
774.599	0.0135345
774.677	0.0134187
774.755	0.0133589
774.833	0.0132094
774.912	0.0131748
774.990	0.0133607
775.068	0.0132734
775.146	0.0134056
775.224	0.0132662
775.302	0.0133018
775.380	0.0132956
775.458	0.0134737
775.537	0.0134338
775.615	0.0134073
775.693	0.0134028
775.771	0.0135097
775.849	0.0135749
775.927	0.0135564
776.005	0.0135254
776.083	0.0135001
776.162	0.0135490
776.240	0.0136897
776.318	0.0135684
776.396	0.0135739
776.474	0.0136706
776.552	0.0136231
776.630	0.0135538
776.708	0.0135878
776.787	0.0135847
776.865	0.0135447
776.943	0.0137157
777.021	0.0136255
777.099	0.0134845
777.177	0.0136225
777.255	0.0136584
777.333	0.0137275
777.412	0.0136002
777.490	0.0136620
777.568	0.0137681
777.646	0.0136097
777.724	0.0135862
777.802	0.0135913
777.880	0.0135178
777.958	0.0134685
778.037	0.0135536
778.115	0.0133800
778.193	0.0133356
778.271	0.0132487
778.349	0.0131289
778.427	0.0132716
778.505	0.0133073
778.583	0.0133477
778.662	0.0133764
778.740	0.0132279
778.818	0.0135751
778.896	0.0134491
778.974	0.0134973
779.052	0.0136170
779.130	0.0136501
779.208	0.0136896
779.287	0.0137831
779.365	0.0137408
779.443	0.0138483
779.521	0.0137410
779.599	0.0138415
779.677	0.0137918
779.755	0.0139063
779.833	0.0139213
779.912	0.0139300
779.990	0.0139257
780.068	0.0138533
780.146	0.0138143
780.224	0.0137286
780.302	0.0136710
780.380	0.0136215
780.458	0.0137054
780.537	0.0137153
780.615	0.0134834
780.693	0.0134368
780.771	0.0133800
780.849	0.0134473
780.927	0.0134853
781.005	0.0133214
781.083	0.0134866
781.162	0.0134855
781.240	0.0134970
781.318	0.0136012
781.396	0.0133585
781.474	0.0135802
781.552	0.0135787
781.630	0.0136029
781.708	0.0135552
781.787	0.0137538
781.865	0.0136801
781.943	0.0135424
782.021	0.0136119
782.099	0.0136945
782.177	0.0138264
782.255	0.0137670
782.333	0.0138369
782.412	0.0137457
782.490	0.0137876
782.568	0.0138719
782.646	0.0139130
782.724	0.0138256
782.802	0.0136463
782.880	0.0137464
782.958	0.0136538
783.037	0.0135724
783.115	0.0136027
783.193	0.0136618
783.271	0.0135181
783.349	0.0135181
783.427	0.0135753
783.505	0.0135433
783.583	0.0135577
783.662	0.0136350
783.740	0.0134737
783.818	0.0135582
783.896	0.0135185
783.974	0.0134698
784.052	0.0134055
784.130	0.0133321
784.208	0.0132410
784.287	0.0133936
784.365	0.0132257
784.443	0.0132269
784.521	0.0132484
784.599	0.0132635
784.677	0.0132355
784.755	0.0132900
784.833	0.0133378
784.912	0.0135290
784.990	0.0135322
785.068	0.0134511
785.146	0.0136298
785.224	0.0137258
785.302	0.0136536
785.380	0.0138094
785.458	0.0137625
785.537	0.0137914
785.615	0.0138056
785.693	0.0136858
785.771	0.0137330
785.849	0.0138508
785.927	0.0137668
786.005	0.0136849
786.083	0.0136649
786.162	0.0137665
786.240	0.0137791
786.318	0.0136036
786.396	0.0135670
786.474	0.0138417
786.552	0.0137845
786.630	0.0137202
786.708	0.0139684
786.787	0.0139508
786.865	0.0138806
786.943	0.0138647
787.021	0.0138485
787.099	0.0139117
787.177	0.0138942
787.255	0.0140338
787.333	0.0140259
787.412	0.0140244
787.490	0.0140710
787.568	0.0139549
787.646	0.0138857
787.724	0.0139483
787.802	0.0139217
787.880	0.0138524
787.958	0.0137604
788.037	0.0137178
788.115	0.0137694
788.193	0.0138139
788.271	0.0136986
788.349	0.0136996
788.427	0.0135218
788.505	0.0136388
788.583	0.0135501
788.662	0.0135641
788.740	0.0135545
788.818	0.0134380
788.896	0.0135606
788.974	0.0134853
789.052	0.0134461
789.130	0.0135213
789.208	0.0134770
789.287	0.0135071
789.365	0.0136211
789.443	0.0135737
789.521	0.0134400
789.599	0.0134645
789.677	0.0136620
789.755	0.0137263
789.833	0.0138395
789.912	0.0138525
789.990	0.0136703
790.068	0.0137605
790.146	0.0137456
790.224	0.0136831
790.302	0.0137408
790.380	0.0136022
790.458	0.0137608
790.537	0.0136322
790.615	0.0135983
790.693	0.0137082
790.771	0.0138680
790.849	0.0136480
790.927	0.0137751
791.005	0.0136968
791.083	0.0136405
791.162	0.0135658
791.240	0.0134902
791.318	0.0135169
791.396	0.0136826
791.474	0.0134620
791.552	0.0134395
791.630	0.0134274
791.708	0.0132973
791.787	0.0133297
791.865	0.0133302
791.943	0.0133314
792.021	0.0133768
792.099	0.0133755
792.177	0.0134447
792.255	0.0134095
792.333	0.0135193
792.412	0.0135029
792.490	0.0135182
792.568	0.0137778
792.646	0.0138714
792.724	0.0137148
792.802	0.0139043
792.880	0.0139296
792.958	0.0139206
793.037	0.0138491
793.115	0.0138503
793.193	0.0138522
793.271	0.0137885
793.349	0.0138544
793.427	0.0139820
793.505	0.0137655
793.583	0.0139196
793.662	0.0139024
793.740	0.0136874
793.818	0.0136060
793.896	0.0136996
793.974	0.0137335
794.052	0.0137891
794.130	0.0136645
794.208	0.0136512
794.287	0.0136097
794.365	0.0135693
794.443	0.0137055
794.521	0.0137353
794.599	0.0136199
794.677	0.0135287
794.755	0.0134805
794.833	0.0136176
794.912	0.0134686
794.990	0.0133796
795.068	0.0134779
795.146	0.0135188
795.224	0.0134723
795.302	0.0134179
795.380	0.0133408
795.458	0.0133831
795.537	0.0132980
795.615	0.0133324
795.693	0.0134235
795.771	0.0133937
795.849	0.0132985
795.927	0.0134377
796.005	0.0133643
796.083	0.0135172
796.162	0.0136603
796.240	0.0134702
796.318	0.0135569
796.396	0.0137598
796.474	0.0137888
796.552	0.0138959
796.630	0.0138277
796.708	0.0138639
796.787	0.0137785
796.865	0.0137779
796.943	0.0138127
797.021	0.0139021
797.099	0.0139373
797.177	0.0139618
797.255	0.0139819
797.333	0.0138673
797.412	0.0139050
797.490	0.0138667
797.568	0.0137852
797.646	0.0138049
797.724	0.0137798
797.802	0.0135999
797.880	0.0136738
797.958	0.0134074
798.037	0.0133893
798.115	0.0134425
798.193	0.0132925
798.271	0.0133108
798.349	0.0131987
798.427	0.0132345
798.505	0.0131441
798.583	0.0131756
798.662	0.0134476
798.740	0.0133617
798.818	0.0133814
798.896	0.0133524
798.974	0.0134470
799.052	0.0133942
799.130	0.0134566
799.208	0.0135709
799.287	0.0137444
799.365	0.0137357
799.443	0.0137484
799.521	0.0138183
799.599	0.0138177
799.677	0.0136999
799.755	0.0138079
799.833	0.0137762
799.912	0.0139005
799.990	0.0137184
800.068	0.0137821
800.146	0.0136665
800.224	0.0137329
800.302	0.0137708
800.380	0.0137218
800.458	0.0137971
800.537	0.0136245
800.615	0.0136530
800.693	0.0136295
800.771	0.0135408
800.849	0.0134931
800.927	0.0135191
801.005	0.0134989
801.083	0.0134409
801.162	0.0133442
801.240	0.0133628
801.318	0.0134022
801.396	0.0134028
801.474	0.0133765
801.552	0.0133898
801.630	0.0134524
801.708	0.0135215
801.787	0.0135323
801.865	0.0134762
801.943	0.0134866
802.021	0.0135716
802.099	0.0135649
802.177	0.0136462
802.255	0.0137655
802.333	0.0138435
802.412	0.0137468
802.490	0.0138114
802.568	0.0138022
802.646	0.0139681
802.724	0.0137981
802.802	0.0136928
802.880	0.0139146
802.958	0.0136802
803.037	0.0138169
803.115	0.0137360
803.193	0.0136764
803.271	0.0136465
803.349	0.0137524
803.427	0.0137029
803.505	0.0137007
803.583	0.0135748
803.662	0.0135686
803.740	0.0135666
803.818	0.0135594
803.896	0.0135089
803.974	0.0135014
804.052	0.0134371
804.130	0.0133707
804.208	0.0134029
804.287	0.0134592
804.365	0.0133777
804.443	0.0134989
804.521	0.0134333
804.599	0.0133925
804.677	0.0133795
804.755	0.0134985
804.833	0.0136048
804.912	0.0135333
804.990	0.0137027
805.068	0.0136295
805.146	0.0136761
805.224	0.0136876
805.302	0.0136809
805.380	0.0137518
805.458	0.0138879
805.537	0.0137137
805.615	0.0137438
805.693	0.0139194
805.771	0.0139749
805.849	0.0137170
805.927	0.0139294
806.005	0.0140190
806.083	0.0137761
806.162	0.0135926
806.240	0.0137209
806.318	0.0136671
806.396	0.0135521
806.474	0.0134812
806.552	0.0135092
806.630	0.0135394
806.708	0.0135133
806.787	0.0135455
806.865	0.0135533
806.943	0.0134347
807.021	0.0134123
807.099	0.0135474
807.177	0.0134160
807.255	0.0133425
807.333	0.0134707
807.412	0.0135478
807.490	0.0136427
807.568	0.0137257
807.646	0.0134647
807.724	0.0135010
807.802	0.0137125
807.880	0.0137447
807.958	0.0136428
808.037	0.0137309
808.115	0.0140087
808.193	0.0139043
808.271	0.0138168
808.349	0.0140337
808.427	0.0139653
808.505	0.0139639
808.583	0.0140194
808.662	0.0139890
808.740	0.0139949
808.818	0.0139172
808.896	0.0139246
808.974	0.0138206
809.052	0.0137579
809.130	0.0137981
809.208	0.0137969
809.287	0.0137327
809.365	0.0136671
809.443	0.0137989
809.521	0.0135872
809.599	0.0134823
809.677	0.0135637
809.755	0.0135258
809.833	0.0136205
809.912	0.0135099
809.990	0.0135685
810.068	0.0136462
810.146	0.0135130
810.224	0.0133473
810.302	0.0134295
810.380	0.0136548
810.458	0.0136406
810.537	0.0136783
810.615	0.0137880
810.693	0.0138113
810.771	0.0137980
810.849	0.0138284
810.927	0.0138129
811.005	0.0138272
811.083	0.0138461
811.162	0.0139168
811.240	0.0139697
811.318	0.0137521
811.396	0.0136691
811.474	0.0137148
811.552	0.0139082
811.630	0.0136889
811.708	0.0135606
811.787	0.0135841
811.865	0.0135023
811.943	0.0135378
812.021	0.0135338
812.099	0.0133747
812.177	0.0136640
812.255	0.0135326
812.333	0.0134015
812.412	0.0134306
812.490	0.0136205
812.568	0.0135718
812.646	0.0134989
812.724	0.0133791
812.802	0.0136175
812.880	0.0135587
812.958	0.0135683
813.037	0.0136348
813.115	0.0135771
813.193	0.0136192
813.271	0.0137955
813.349	0.0136866
813.427	0.0136990
813.505	0.0138067
813.583	0.0137899
813.662	0.0137402
813.740	0.0137545
813.818	0.0138118
813.896	0.0138558
813.974	0.0137617
814.052	0.0139443
814.130	0.0138544
814.208	0.0138867
814.287	0.0138065
814.365	0.0138462
814.443	0.0138448
814.521	0.0139101
814.599	0.0138306
814.677	0.0138667
814.755	0.0139154
814.833	0.0139120
814.912	0.0138299
814.990	0.0139165
815.068	0.0138825
815.146	0.0137498
815.224	0.0138346
815.302	0.0139059
815.380	0.0137904
815.458	0.0137750
815.537	0.0137447
815.615	0.0137860
815.693	0.0138703
815.771	0.0137202
815.849	0.0138716
815.927	0.0137156
816.005	0.0136640
816.083	0.0135934
816.162	0.0137347
816.240	0.0136221
816.318	0.0137078
816.396	0.0136206
816.474	0.0134984
816.552	0.0136113
816.630	0.0136411
816.708	0.0135309
816.787	0.0136009
816.865	0.0134367
816.943	0.0134751
817.021	0.0135297
817.099	0.0134964
817.177	0.0134859
817.255	0.0133794
817.333	0.0133742
817.412	0.0134680
817.490	0.0132569
817.568	0.0134038
817.646	0.0135449
817.724	0.0133529
817.802	0.0133227
817.880	0.0133801
817.958	0.0133912
818.037	0.0134200
818.115	0.0134732
818.193	0.0135533
818.271	0.0133331
818.349	0.0134029
818.427	0.0133770
818.505	0.0135488
818.583	0.0135419
818.662	0.0134456
818.740	0.0134862
818.818	0.0136267
818.896	0.0137227
818.974	0.0136584
819.052	0.0134661
819.130	0.0135065
819.208	0.0135825
819.287	0.0135468
819.365	0.0136631
819.443	0.0135380
819.521	0.0134656
819.599	0.0134833
819.677	0.0135497
819.755	0.0133239
819.833	0.0133844
819.912	0.0134473
819.990	0.0132598
820.068	0.0132803
820.146	0.0131786
820.224	0.0133366
820.302	0.0133127
820.380	0.0134546
820.458	0.0134229
820.537	0.0134959
820.615	0.0134449
820.693	0.0136050
820.771	0.0134940
820.849	0.0136254
820.927	0.0137310
821.005	0.0138032
821.083	0.0138337
821.162	0.0139282
821.240	0.0140411
821.318	0.0137495
821.396	0.0138654
821.474	0.0140509
821.552	0.0138743
821.630	0.0138322
821.708	0.0139452
821.787	0.0138319
821.865	0.0138054
821.943	0.0139233
822.021	0.0137414
822.099	0.0137782
822.177	0.0138454
822.255	0.0137052
822.333	0.0137617
822.412	0.0136087
822.490	0.0137121
822.568	0.0136723
822.646	0.0138245
822.724	0.0138081
822.802	0.0137679
822.880	0.0137074
822.958	0.0136629
823.037	0.0136077
823.115	0.0135693
823.193	0.0136751
823.271	0.0135779
823.349	0.0135471
823.427	0.0136343
823.505	0.0135400
823.583	0.0132890
823.662	0.0133556
823.740	0.0132150
823.818	0.0133073
823.896	0.0134663
823.974	0.0134309
824.052	0.0133921
824.130	0.0133926
824.208	0.0134937
824.287	0.0134496
824.365	0.0133714
824.443	0.0134548
824.521	0.0134484
824.599	0.0134039
824.677	0.0134477
824.755	0.0133714
824.833	0.0134163
824.912	0.0133836
824.990	0.0133846
825.068	0.0133347
825.146	0.0133247
825.224	0.0133564
825.302	0.0132183
825.380	0.0132736
825.458	0.0132618
825.537	0.0132938
825.615	0.0132950
825.693	0.0133626
825.771	0.0135448
825.849	0.0135504
825.927	0.0136034
826.005	0.0136467
826.083	0.0135678
826.162	0.0136208
826.240	0.0137493
826.318	0.0137415
826.396	0.0138758
826.474	0.0138403
826.552	0.0138885
826.630	0.0138911
826.708	0.0138060
826.787	0.0138615
826.865	0.0139628
826.943	0.0140085
827.021	0.0137250
827.099	0.0139312
827.177	0.0138246
827.255	0.0138963
827.333	0.0137897
827.412	0.0138238
827.490	0.0136903
827.568	0.0138559
827.646	0.0137353
827.724	0.0138057
827.802	0.0137773
827.880	0.0137939
827.958	0.0137943
828.037	0.0136039
828.115	0.0135603
828.193	0.0136557
828.271	0.0137450
828.349	0.0136652
828.427	0.0137766
828.505	0.0136642
828.583	0.0136906
828.662	0.0137221
828.740	0.0137098
828.818	0.0136459
828.896	0.0137144
828.974	0.0137155
829.052	0.0137111
829.130	0.0136765
829.208	0.0136109
829.287	0.0136641
829.365	0.0138396
829.443	0.0137354
829.521	0.0135470
829.599	0.0134387
829.677	0.0135410
829.755	0.0137064
829.833	0.0136037
829.912	0.0136826
829.990	0.0135866
830.068	0.0134533
830.146	0.0135155
830.224	0.0135157
830.302	0.0134979
830.380	0.0135172
830.458	0.0136141
830.537	0.0136617
830.615	0.0135874
830.693	0.0136463
830.771	0.0137244
830.849	0.0136193
830.927	0.0135172
831.005	0.0137300
831.083	0.0135949
831.162	0.0135018
831.240	0.0135737
831.318	0.0136958
831.396	0.0136308
831.474	0.0137537
831.552	0.0135169
831.630	0.0135144
831.708	0.0137253
831.787	0.0136143
831.865	0.0135661
831.943	0.0138786
832.021	0.0137698
832.099	0.0138960
832.177	0.0139600
832.255	0.0138310
832.333	0.0138129
832.412	0.0139745
832.490	0.0138354
832.568	0.0139184
832.646	0.0139140
832.724	0.0140038
832.802	0.0138152
832.880	0.0138094
832.958	0.0136923
833.037	0.0137462
833.115	0.0136892
833.193	0.0136919
833.271	0.0136970
833.349	0.0137449
833.427	0.0137667
833.505	0.0137347
833.583	0.0136933
833.662	0.0136535
833.740	0.0137633
833.818	0.0137046
833.896	0.0138231
833.974	0.0137589
834.052	0.0136844
834.130	0.0137617
834.208	0.0138089
834.287	0.0138116
834.365	0.0138177
834.443	0.0137101
834.521	0.0137177
834.599	0.0137092
834.677	0.0139162
834.755	0.0139021
834.833	0.0136696
834.912	0.0139070
834.990	0.0138499
835.068	0.0137965
835.146	0.0137341
835.224	0.0137864
835.302	0.0137149
835.380	0.0137231
835.458	0.0137782
835.537	0.0136861
835.615	0.0137937
835.693	0.0139262
835.771	0.0138138
835.849	0.0137473
835.927	0.0135988
836.005	0.0137744
836.083	0.0136717
836.162	0.0137177
836.240	0.0136646
836.318	0.0136694
836.396	0.0137522
836.474	0.0137289
836.552	0.0136421
836.630	0.0137170
836.708	0.0136398
836.787	0.0135130
836.865	0.0135156
836.943	0.0136516
837.021	0.0136274
837.099	0.0136028
837.177	0.0136783
837.255	0.0136230
837.333	0.0136567
837.412	0.0137344
837.490	0.0136679
837.568	0.0137489
837.646	0.0137621
837.724	0.0137896
837.802	0.0138024
837.880	0.0137666
837.958	0.0137506
838.037	0.0138608
838.115	0.0137144
838.193	0.0137117
838.271	0.0137744
838.349	0.0138132
838.427	0.0136041
838.505	0.0137736
838.583	0.0136975
838.662	0.0136436
838.740	0.0137609
838.818	0.0136386
838.896	0.0135347
838.974	0.0135259
839.052	0.0134576
839.130	0.0134380
839.208	0.0134515
839.287	0.0133385
839.365	0.0133547
839.443	0.0133620
839.521	0.0133380
839.599	0.0134164
839.677	0.0133900
839.755	0.0134760
839.833	0.0133907
839.912	0.0134393
839.990	0.0135287
840.068	0.0135537
840.146	0.0135652
840.224	0.0134859
840.302	0.0134859
840.380	0.0134866
840.458	0.0136890
840.537	0.0137428
840.615	0.0135980
840.693	0.0135892
840.771	0.0137658
840.849	0.0136196
840.927	0.0134830
841.005	0.0136108
841.083	0.0136219
841.162	0.0134521
841.240	0.0135070
841.318	0.0135060
841.396	0.0135087
841.474	0.0137278
841.552	0.0136507
841.630	0.0135648
841.708	0.0136622
841.787	0.0136003
841.865	0.0135039
841.943	0.0137003
842.021	0.0136423
842.099	0.0136841
842.177	0.0135516
842.255	0.0135458
842.333	0.0136208
842.412	0.0135719
842.490	0.0137157
842.568	0.0135319
842.646	0.0137520
842.724	0.0137080
842.802	0.0138257
842.880	0.0137099
842.958	0.0135993
843.037	0.0137602
843.115	0.0138304
843.193	0.0138735
843.271	0.0137763
843.349	0.0136395
843.427	0.0136269
843.505	0.0137442
843.583	0.0137405
843.662	0.0136871
843.740	0.0136871
843.818	0.0136903
843.896	0.0135806
843.974	0.0135648
844.052	0.0136636
844.130	0.0135279
844.208	0.0134930
844.287	0.0135550
844.365	0.0135321
844.443	0.0135632
844.521	0.0135573
844.599	0.0134628
844.677	0.0133778
844.755	0.0135112
844.833	0.0135693
844.912	0.0135856
844.990	0.0134011
845.068	0.0133990
845.146	0.0136659
845.224	0.0136186
845.302	0.0137109
845.380	0.0136015
845.458	0.0137244
845.537	0.0137222
845.615	0.0135626
845.693	0.0135917
845.771	0.0136629
845.849	0.0136755
845.927	0.0136887
846.005	0.0137206
846.083	0.0135429
846.162	0.0136778
846.240	0.0136835
846.318	0.0136365
846.396	0.0136543
846.474	0.0137189
846.552	0.0137315
846.630	0.0135925
846.708	0.0136897
846.787	0.0137225
846.865	0.0136537
846.943	0.0135473
847.021	0.0137543
847.099	0.0137199
847.177	0.0137415
847.255	0.0137984
847.333	0.0136246
847.412	0.0135882
847.490	0.0136756
847.568	0.0136086
847.646	0.0136763
847.724	0.0135302
847.802	0.0134557
847.880	0.0136439
847.958	0.0136805
848.037	0.0136153
848.115	0.0135152
848.193	0.0136064
848.271	0.0136021
848.349	0.0136207
848.427	0.0134893
848.505	0.0134978
848.583	0.0136065
848.662	0.0135287
848.740	0.0133731
848.818	0.0134162
848.896	0.0133265
848.974	0.0134837
849.052	0.0135510
849.130	0.0134708
849.208	0.0134922
849.287	0.0134865
849.365	0.0136192
849.443	0.0134147
849.521	0.0135950
849.599	0.0135780
849.677	0.0135917
849.755	0.0137666
849.833	0.0137811
849.912	0.0136404
849.990	0.0136720
850.068	0.0136341
850.146	0.0135780
850.224	0.0136625
850.302	0.0137255
850.380	0.0135945
850.458	0.0137015
850.537	0.0133972
850.615	0.0135194
850.693	0.0135463
850.771	0.0134267
850.849	0.0135261
850.927	0.0135609
851.005	0.0135006
851.083	0.0136051
851.162	0.0135792
851.240	0.0135156
851.318	0.0135400
851.396	0.0135786
851.474	0.0135587
851.552	0.0135365
851.630	0.0135200
851.708	0.0135758
851.787	0.0136382
851.865	0.0136335
851.943	0.0136554
852.021	0.0137221
852.099	0.0135949
852.177	0.0137383
852.255	0.0137669
852.333	0.0136134
852.412	0.0138075
852.490	0.0137791
852.568	0.0139364
852.646	0.0138895
852.724	0.0138660
852.802	0.0138802
852.880	0.0139439
852.958	0.0138327
853.037	0.0137994
853.115	0.0136655
853.193	0.0136831
853.271	0.0136101
853.349	0.0136558
853.427	0.0135748
853.505	0.0136056
853.583	0.0135030
853.662	0.0135925
853.740	0.0134647
853.818	0.0134974
853.896	0.0133012
853.974	0.0134959
854.052	0.0133530
854.130	0.0134275
854.208	0.0133060
854.287	0.0133886
854.365	0.0131561
854.443	0.0133143
854.521	0.0133881
854.599	0.0133470
854.677	0.0133458
854.755	0.0134364
854.833	0.0135783
854.912	0.0136553
854.990	0.0135556
855.068	0.0135757
855.146	0.0137245
855.224	0.0136983
855.302	0.0138773
855.380	0.0138565
855.458	0.0138024
855.537	0.0139216
855.615	0.0139198
855.693	0.0137704
855.771	0.0140005
855.849	0.0139969
855.927	0.0140047
856.005	0.0139874
856.083	0.0140275
856.162	0.0141534
856.240	0.0139948
856.318	0.0139785
856.396	0.0138309
856.474	0.0139870
856.552	0.0141251
856.630	0.0138889
856.708	0.0137836
856.787	0.0137989
856.865	0.0137031
856.943	0.0137756
857.021	0.0134769
857.099	0.0133744
857.177	0.0135139
857.255	0.0132263
857.333	0.0132409
857.412	0.0133425
857.490	0.0133715
857.568	0.0130959
857.646	0.0131178
857.724	0.0131495
857.802	0.0133388
857.880	0.0131969
857.958	0.0133219
858.037	0.0132674
858.115	0.0133173
858.193	0.0132908
858.271	0.0132526
858.349	0.0134926
858.427	0.0137005
858.505	0.0135507
858.583	0.0138036
858.662	0.0137927
858.740	0.0138152
858.818	0.0138051
858.896	0.0138940
858.974	0.0141460
859.052	0.0140284
859.130	0.0139445
859.208	0.0139265
859.287	0.0140298
859.365	0.0139510
859.443	0.0139360
859.521	0.0140851
859.599	0.0139127
859.677	0.0139452
859.755	0.0138846
859.833	0.0139957
859.912	0.0138441
859.990	0.0138386
860.068	0.0139190
860.146	0.0138390
860.224	0.0138952
860.302	0.0136223
860.380	0.0137285
860.458	0.0136111
860.537	0.0136206
860.615	0.0136641
860.693	0.0135195
860.771	0.0135217
860.849	0.0136916
860.927	0.0134991
861.005	0.0136259
861.083	0.0134960
861.162	0.0134364
861.240	0.0134149
861.318	0.0134669
861.396	0.0135854
861.474	0.0135529
861.552	0.0134531
861.630	0.0135322
861.708	0.0135152
861.787	0.0134958
861.865	0.0135335
861.943	0.0135862
862.021	0.0136250
862.099	0.0135649
862.177	0.0136875
862.255	0.0136155
862.333	0.0135771
862.412	0.0134876
862.490	0.0136093
862.568	0.0136543
862.646	0.0136002
862.724	0.0134277
862.802	0.0134731
862.880	0.0135682
862.958	0.0136668
863.037	0.0136557
863.115	0.0136976
863.193	0.0135152
863.271	0.0136548
863.349	0.0135115
863.427	0.0134685
863.505	0.0135402
863.583	0.0136127
863.662	0.0136840
863.740	0.0137098
863.818	0.0136902
863.896	0.0137328
863.974	0.0139005
864.052	0.0137630
864.130	0.0138627
864.208	0.0138481
864.287	0.0137746
864.365	0.0138086
864.443	0.0138676
864.521	0.0139704
864.599	0.0138454
864.677	0.0139735
864.755	0.0138901
864.833	0.0137476
864.912	0.0138274
864.990	0.0137375
865.068	0.0137449
865.146	0.0137797
865.224	0.0138116
865.302	0.0137025
865.380	0.0136900
865.458	0.0137632
865.537	0.0137389
865.615	0.0136852
865.693	0.0135863
865.771	0.0137044
865.849	0.0136369
865.927	0.0136970
866.005	0.0135727
866.083	0.0135918
866.162	0.0137525
866.240	0.0135621
866.318	0.0135757
866.396	0.0134269
866.474	0.0134843
866.552	0.0135869
866.630	0.0135960
866.708	0.0135989
866.787	0.0136285
866.865	0.0135691
866.943	0.0136537
867.021	0.0136356
867.099	0.0137047
867.177	0.0135876
867.255	0.0138081
867.333	0.0137016
867.412	0.0135809
867.490	0.0136275
867.568	0.0137718
867.646	0.0135743
867.724	0.0136322
867.802	0.0135191
867.880	0.0134970
867.958	0.0135255
868.037	0.0136768
868.115	0.0136691
868.193	0.0135402
868.271	0.0136865
868.349	0.0135498
868.427	0.0137743
868.505	0.0136479
868.583	0.0136725
868.662	0.0136291
868.740	0.0137875
868.818	0.0137241
868.896	0.0137386
868.974	0.0136950
869.052	0.0137983
869.130	0.0138406
869.208	0.0137514
869.287	0.0138908
869.365	0.0138104
869.443	0.0137851
869.521	0.0137856
869.599	0.0139338
869.677	0.0136356
869.755	0.0135889
869.833	0.0137733
869.912	0.0136167
869.990	0.0134432
870.068	0.0135847
870.146	0.0133793
870.224	0.0134167
870.302	0.0133371
870.380	0.0132368
870.458	0.0133236
870.537	0.0133521
870.615	0.0133172
870.693	0.0133233
870.771	0.0134271
870.849	0.0133049
870.927	0.0133177
871.005	0.0134743
871.083	0.0134596
871.162	0.0133823
871.240	0.0135506
871.318	0.0136663
871.396	0.0136213
871.474	0.0135687
871.552	0.0137085
871.630	0.0138014
871.708	0.0136967
871.787	0.0138248
871.865	0.0137078
871.943	0.0137746
872.021	0.0140049
872.099	0.0139579
872.177	0.0138471
872.255	0.0138049
872.333	0.0138324
872.412	0.0139295
872.490	0.0137253
872.568	0.0137859
872.646	0.0136448
872.724	0.0136485
872.802	0.0135622
872.880	0.0135902
872.958	0.0135545
873.037	0.0133997
873.115	0.0134411
873.193	0.0134636
873.271	0.0135156
873.349	0.0134328
873.427	0.0134356
873.505	0.0134074
873.583	0.0134572
873.662	0.0135268
873.740	0.0134450
873.818	0.0134034
873.896	0.0135365
873.974	0.0134465
874.052	0.0134947
874.130	0.0135622
874.208	0.0136098
874.287	0.0135561
874.365	0.0135496
874.443	0.0136497
874.521	0.0136170
874.599	0.0135928
874.677	0.0135545
874.755	0.0136527
874.833	0.0136012
874.912	0.0137115
874.990	0.0136776
875.068	0.0136766
875.146	0.0137065
875.224	0.0135461
875.302	0.0135450
875.380	0.0136778
875.458	0.0136671
875.537	0.0137891
875.615	0.0136718
875.693	0.0134739
875.771	0.0136178
875.849	0.0136591
875.927	0.0135736
876.005	0.0135971
876.083	0.0135966
876.162	0.0135326
876.240	0.0134395
876.318	0.0132490
876.396	0.0135516
876.474	0.0136138
876.552	0.0135413
876.630	0.0133736
876.708	0.0134459
876.787	0.0134969
876.865	0.0135657
876.943	0.0134246
877.021	0.0133798
877.099	0.0134262
877.177	0.0134306
877.255	0.0134918
877.333	0.0134258
877.412	0.0134549
877.490	0.0134140
877.568	0.0135188
877.646	0.0136706
877.724	0.0135587
877.802	0.0134697
877.880	0.0134952
877.958	0.0136032
878.037	0.0135602
878.115	0.0136153
878.193	0.0136647
878.271	0.0136784
878.349	0.0136037
878.427	0.0136127
878.505	0.0136835
878.583	0.0136451
878.662	0.0136240
878.740	0.0134675
878.818	0.0134766
878.896	0.0135395
878.974	0.0136332
879.052	0.0136013
879.130	0.0134277
879.208	0.0134347
879.287	0.0135029
879.365	0.0135847
879.443	0.0136030
879.521	0.0137439
879.599	0.0135311
879.677	0.0136723
879.755	0.0136153
879.833	0.0135006
879.912	0.0136049
879.990	0.0136312
880.068	0.0135213
880.146	0.0135748
880.224	0.0135478
880.302	0.0135799
880.380	0.0137482
880.458	0.0136407
880.537	0.0136504
880.615	0.0137068
880.693	0.0136861
880.771	0.0137809
880.849	0.0137233
880.927	0.0136069
881.005	0.0136988
881.083	0.0136490
881.162	0.0135850
881.240	0.0136919
881.318	0.0134834
881.396	0.0133783
881.474	0.0137440
881.552	0.0136454
881.630	0.0134721
881.708	0.0136037
881.787	0.0136112
881.865	0.0134904
881.943	0.0134975
882.021	0.0134713
882.099	0.0134740
882.177	0.0135130
882.255	0.0135338
882.333	0.0136620
882.412	0.0136816
882.490	0.0136582
882.568	0.0138443
882.646	0.0138602
882.724	0.0139079
882.802	0.0139201
882.880	0.0138031
882.958	0.0138696
883.037	0.0138752
883.115	0.0138209
883.193	0.0138607
883.271	0.0138577
883.349	0.0138025
883.427	0.0138328
883.505	0.0137603
883.583	0.0137779
883.662	0.0136451
883.740	0.0138084
883.818	0.0136835
883.896	0.0137831
883.974	0.0137051
884.052	0.0136678
884.130	0.0138082
884.208	0.0136868
884.287	0.0137344
884.365	0.0137238
884.443	0.0136830
884.521	0.0137632
884.599	0.0136343
884.677	0.0137496
884.755	0.0136678
884.833	0.0137746
884.912	0.0136959
884.990	0.0136686
885.068	0.0136166
885.146	0.0136972
885.224	0.0136902
885.302	0.0136016
885.380	0.0137761
885.458	0.0136869
885.537	0.0137441
885.615	0.0136709
885.693	0.0136831
885.771	0.0137491
885.849	0.0136437
885.927	0.0137544
886.005	0.0136603
886.083	0.0137629
886.162	0.0137727
886.240	0.0136897
886.318	0.0136833
886.396	0.0137730
886.474	0.0138626
886.552	0.0136996
886.630	0.0136922
886.708	0.0136012
886.787	0.0136911
886.865	0.0138080
886.943	0.0137557
887.021	0.0137748
887.099	0.0137468
887.177	0.0136909
887.255	0.0135835
887.333	0.0136417
887.412	0.0137218
887.490	0.0135816
887.568	0.0136736
887.646	0.0135957
887.724	0.0136314
887.802	0.0136276
887.880	0.0135342
887.958	0.0135243
888.037	0.0136008
888.115	0.0135985
888.193	0.0136256
888.271	0.0135562
888.349	0.0135452
888.427	0.0135287
888.505	0.0135744
888.583	0.0135872
888.662	0.0135454
888.740	0.0135237
888.818	0.0134700
888.896	0.0135003
888.974	0.0135217
889.052	0.0135630
889.130	0.0136398
889.208	0.0137283
889.287	0.0137275
889.365	0.0136992
889.443	0.0138445
889.521	0.0138148
889.599	0.0137803
889.677	0.0137989
889.755	0.0137746
889.833	0.0138160
889.912	0.0139366
889.990	0.0139574
890.068	0.0139769
890.146	0.0137888
890.224	0.0137721
890.302	0.0138215
890.380	0.0138992
890.458	0.0138952
890.537	0.0138571
890.615	0.0137758
890.693	0.0137083
890.771	0.0137193
890.849	0.0137540
890.927	0.0138023
891.005	0.0137909
891.083	0.0136280
891.162	0.0137421
891.240	0.0136220
891.318	0.0136931
891.396	0.0138640
891.474	0.0137498
891.552	0.0138381
891.630	0.0137460
891.708	0.0138226
891.787	0.0137467
891.865	0.0138614
891.943	0.0137862
892.021	0.0137527
892.099	0.0136968
892.177	0.0138401
892.255	0.0137106
892.333	0.0137547
892.412	0.0137703
892.490	0.0136299
892.568	0.0136990
892.646	0.0136468
892.724	0.0136056
892.802	0.0135248
892.880	0.0137437
892.958	0.0135281
893.037	0.0135621
893.115	0.0134226
893.193	0.0134631
893.271	0.0135564
893.349	0.0135553
893.427	0.0133058
893.505	0.0135191
893.583	0.0135948
893.662	0.0136305
893.740	0.0135530
893.818	0.0134361
893.896	0.0134898
893.974	0.0135964
894.052	0.0136234
894.130	0.0135854
894.208	0.0136003
894.287	0.0135477
894.365	0.0134645
894.443	0.0136005
894.521	0.0136002
894.599	0.0135444
894.677	0.0135790
894.755	0.0135304
894.833	0.0135065
894.912	0.0136373
894.990	0.0137881
895.068	0.0136487
895.146	0.0135619
895.224	0.0136656
895.302	0.0136481
895.380	0.0135156
895.458	0.0133762
895.537	0.0136891
895.615	0.0136752
895.693	0.0136462
895.771	0.0135818
895.849	0.0137300
895.927	0.0136478
896.005	0.0136612
896.083	0.0137669
896.162	0.0136214
896.240	0.0138365
896.318	0.0138634
896.396	0.0138001
896.474	0.0137462
896.552	0.0137391
896.630	0.0138509
896.708	0.0138730
896.787	0.0139463
896.865	0.0138078
896.943	0.0140374
897.021	0.0139510
897.099	0.0139387
897.177	0.0137868
897.255	0.0139259
897.333	0.0140030
897.412	0.0138409
897.490	0.0138708
897.568	0.0137322
897.646	0.0137157
897.724	0.0137820
897.802	0.0138247
897.880	0.0137538
897.958	0.0137309
898.037	0.0135985
898.115	0.0136314
898.193	0.0133702
898.271	0.0133683
898.349	0.0133401
898.427	0.0134669
898.505	0.0133375
898.583	0.0134605
898.662	0.0134064
898.740	0.0133877
898.818	0.0133884
898.896	0.0134818
898.974	0.0134626
899.052	0.0133518
899.130	0.0133071
899.208	0.0134048
899.287	0.0134014
899.365	0.0134081
899.443	0.0134839
899.521	0.0136483
899.599	0.0137106
899.677	0.0135234
899.755	0.0135998
899.833	0.0135841
899.912	0.0136260
899.990	0.0137306
900.068	0.0136887
900.146	0.0135973
900.224	0.0137957
900.302	0.0136839
900.380	0.0136302
900.458	0.0136429
900.537	0.0134393
900.615	0.0134990
900.693	0.0134187
900.771	0.0134792
900.849	0.0134258
900.927	0.0133461
901.005	0.0135479
901.083	0.0133720
901.162	0.0134499
901.240	0.0134370
901.318	0.0133328
901.396	0.0134064
901.474	0.0135176
901.552	0.0135331
901.630	0.0135043
901.708	0.0135159
901.787	0.0134680
901.865	0.0133149
901.943	0.0134238
902.021	0.0134985
902.099	0.0134479
902.177	0.0135163
902.255	0.0135059
902.333	0.0134798
902.412	0.0135330
902.490	0.0135880
902.568	0.0134954
902.646	0.0135798
902.724	0.0136738
902.802	0.0137832
902.880	0.0138233
902.958	0.0138241
903.037	0.0137438
903.115	0.0137571
903.193	0.0138053
903.271	0.0137132
903.349	0.0137954
903.427	0.0137601
903.505	0.0137910
903.583	0.0137741
903.662	0.0136971
903.740	0.0135396
903.818	0.0136610
903.896	0.0135940
903.974	0.0135586
904.052	0.0134581
904.130	0.0136185
904.208	0.0134189
904.287	0.0133135
904.365	0.0135442
904.443	0.0134964
904.521	0.0134777
904.599	0.0133411
904.677	0.0133645
904.755	0.0133409
904.833	0.0133091
904.912	0.0134245
904.990	0.0134871
905.068	0.0134782
905.146	0.0134637
905.224	0.0134598
905.302	0.0135303
905.380	0.0134908
905.458	0.0135202
905.537	0.0135124
905.615	0.0135685
905.693	0.0136682
905.771	0.0135826
905.849	0.0136201
905.927	0.0135591
906.005	0.0135873
906.083	0.0135933
906.162	0.0135749
906.240	0.0137234
906.318	0.0135787
906.396	0.0136216
906.474	0.0136860
906.552	0.0135665
906.630	0.0135876
906.708	0.0135901
906.787	0.0134811
906.865	0.0136618
906.943	0.0136444
907.021	0.0135737
907.099	0.0135442
907.177	0.0137389
907.255	0.0137497
907.333	0.0136198
907.412	0.0137101
907.490	0.0136085
907.568	0.0135359
907.646	0.0136688
907.724	0.0137353
907.802	0.0138304
907.880	0.0136880
907.958	0.0138014
908.037	0.0136892
908.115	0.0138735
908.193	0.0136231
908.271	0.0137189
908.349	0.0136903
908.427	0.0137820
908.505	0.0137893
908.583	0.0137032
908.662	0.0136967
908.740	0.0136775
908.818	0.0136638
908.896	0.0136758
908.974	0.0135349
909.052	0.0136455
909.130	0.0135582
909.208	0.0135683
909.287	0.0137296
909.365	0.0134539
909.443	0.0135193
909.521	0.0135790
909.599	0.0135514
909.677	0.0135116
909.755	0.0134035
909.833	0.0135325
909.912	0.0135279
909.990	0.0135712
910.068	0.0135586
910.146	0.0135812
910.224	0.0136544
910.302	0.0136639
910.380	0.0136748
910.458	0.0136549
910.537	0.0136358
910.615	0.0137177
910.693	0.0139215
910.771	0.0139822
910.849	0.0139136
910.927	0.0138215
911.005	0.0138734
911.083	0.0139786
911.162	0.0139194
911.240	0.0139401
911.318	0.0139503
911.396	0.0139413
911.474	0.0139922
911.552	0.0140643
911.630	0.0140707
911.708	0.0138932
911.787	0.0137862
911.865	0.0140253
911.943	0.0139025
912.021	0.0138757
912.099	0.0138095
912.177	0.0137581
912.255	0.0138025
912.333	0.0138109
912.412	0.0137305
912.490	0.0136472
912.568	0.0134729
912.646	0.0137064
912.724	0.0136244
912.802	0.0135956
912.880	0.0135471
912.958	0.0135861
913.037	0.0134406
913.115	0.0134580
913.193	0.0136614
913.271	0.0136250
913.349	0.0136424
913.427	0.0136253
913.505	0.0136190
913.583	0.0137319
913.662	0.0137789
913.740	0.0139093
913.818	0.0136616
913.896	0.0137630
913.974	0.0137392
914.052	0.0136985
914.130	0.0138599
914.208	0.0137390
914.287	0.0135900
914.365	0.0137563
914.443	0.0137380
914.521	0.0138641
914.599	0.0137800
914.677	0.0137682
914.755	0.0138298
914.833	0.0138071
914.912	0.0136382
914.990	0.0138567
915.068	0.0138607
915.146	0.0136856
915.224	0.0137558
915.302	0.0137514
915.380	0.0138615
915.458	0.0137341
915.537	0.0137533
915.615	0.0137673
915.693	0.0138296
915.771	0.0136248
915.849	0.0138804
915.927	0.0135569
916.005	0.0137469
916.083	0.0137732
916.162	0.0137474
916.240	0.0136630
916.318	0.0137328
916.396	0.0138356
916.474	0.0137158
916.552	0.0136279
916.630	0.0137027
916.708	0.0136957
916.787	0.0137431
916.865	0.0135883
916.943	0.0136352
917.021	0.0137424
917.099	0.0135468
917.177	0.0135162
917.255	0.0134796
917.333	0.0135871
917.412	0.0136421
917.490	0.0135976
917.568	0.0135821
917.646	0.0135194
917.724	0.0134789
917.802	0.0135150
917.880	0.0135451
917.958	0.0136137
918.037	0.0135867
918.115	0.0136042
918.193	0.0136266
918.271	0.0136553
918.349	0.0136184
918.427	0.0135068
918.505	0.0135200
918.583	0.0136228
918.662	0.0136555
918.740	0.0136389
918.818	0.0136295
918.896	0.0135903
918.974	0.0137568
919.052	0.0135902
919.130	0.0136720
919.208	0.0136778
919.287	0.0136601
919.365	0.0137561
919.443	0.0136629
919.521	0.0137187
919.599	0.0135938
919.677	0.0136405
919.755	0.0136786
919.833	0.0136111
919.912	0.0137273
919.990	0.0137099
920.068	0.0136719
920.146	0.0136075
920.224	0.0136582
920.302	0.0135981
920.380	0.0137366
920.458	0.0136237
920.537	0.0134503
920.615	0.0135669
920.693	0.0135630
920.771	0.0134929
920.849	0.0136277
920.927	0.0135271
921.005	0.0134473
921.083	0.0136098
921.162	0.0136282
921.240	0.0135359
921.318	0.0135689
921.396	0.0135410
921.474	0.0133949
921.552	0.0136056
921.630	0.0135577
921.708	0.0134744
921.787	0.0134695
921.865	0.0136095
921.943	0.0135564
922.021	0.0135419
922.099	0.0134558
922.177	0.0135032
922.255	0.0133133
922.333	0.0136050
922.412	0.0137386
922.490	0.0137005
922.568	0.0135032
922.646	0.0134676
922.724	0.0136105
922.802	0.0136716
922.880	0.0134569
922.958	0.0135136
923.037	0.0136098
923.115	0.0135520
923.193	0.0136162
923.271	0.0135524
923.349	0.0136332
923.427	0.0135520
923.505	0.0135605
923.583	0.0135460
923.662	0.0135229
923.740	0.0134851
923.818	0.0136001
923.896	0.0134945
923.974	0.0135154
924.052	0.0136494
924.130	0.0135758
924.208	0.0136194
924.287	0.0136293
924.365	0.0137172
924.443	0.0135784
924.521	0.0137076
924.599	0.0136707
924.677	0.0136372
924.755	0.0136936
924.833	0.0137045
924.912	0.0137119
924.990	0.0136092
925.068	0.0137660
925.146	0.0135951
925.224	0.0136179
925.302	0.0136058
925.380	0.0136092
925.458	0.0136419
925.537	0.0136110
925.615	0.0135741
925.693	0.0135715
925.771	0.0135040
925.849	0.0135323
925.927	0.0136566
926.005	0.0135312
926.083	0.0135509
926.162	0.0134875
926.240	0.0134721
926.318	0.0136096
926.396	0.0135944
926.474	0.0135501
926.552	0.0136868
926.630	0.0135499
926.708	0.0136224
926.787	0.0137639
926.865	0.0135616
926.943	0.0135084
927.021	0.0135675
927.099	0.0136794
927.177	0.0136936
927.255	0.0136642
927.333	0.0137085
927.412	0.0136996
927.490	0.0137504
927.568	0.0136143
927.646	0.0135543
927.724	0.0135667
927.802	0.0135918
927.880	0.0135832
927.958	0.0135590
928.037	0.0136647
928.115	0.0134897
928.193	0.0134576
928.271	0.0135079
928.349	0.0134190
928.427	0.0134571
928.505	0.0134776
928.583	0.0135445
928.662	0.0133714
928.740	0.0134477
928.818	0.0135244
928.896	0.0135337
928.974	0.0136487
929.052	0.0134739
929.130	0.0136295
929.208	0.0135827
929.287	0.0134827
929.365	0.0135233
929.443	0.0135935
929.521	0.0136081
929.599	0.0136165
929.677	0.0135845
929.755	0.0135392
929.833	0.0134817
929.912	0.0135211
929.990	0.0136236
930.068	0.0136200
930.146	0.0134592
930.224	0.0134930
930.302	0.0134907
930.380	0.0135238
930.458	0.0136835
930.537	0.0138219
930.615	0.0136069
930.693	0.0136668
930.771	0.0136760
930.849	0.0135841
930.927	0.0136613
931.005	0.0136897
931.083	0.0137547
931.162	0.0137646
931.240	0.0136590
931.318	0.0136090
931.396	0.0137824
931.474	0.0137691
931.552	0.0138949
931.630	0.0138052
931.708	0.0136950
931.787	0.0137652
931.865	0.0136532
931.943	0.0137483
932.021	0.0137951
932.099	0.0137808
932.177	0.0136851
932.255	0.0137914
932.333	0.0136480
932.412	0.0136545
932.490	0.0136486
932.568	0.0136882
932.646	0.0137841
932.724	0.0138741
932.802	0.0137691
932.880	0.0137156
932.958	0.0137309
933.037	0.0135902
933.115	0.0138461
933.193	0.0136909
933.271	0.0135738
933.349	0.0137674
933.427	0.0137976
933.505	0.0135982
933.583	0.0136149
933.662	0.0135531
933.740	0.0134507
933.818	0.0135188
933.896	0.0136424
933.974	0.0136556
934.052	0.0136040
934.130	0.0135015
934.208	0.0135779
934.287	0.0136349
934.365	0.0136755
934.443	0.0136202
934.521	0.0136394
934.599	0.0136957
934.677	0.0136383
934.755	0.0136231
934.833	0.0137135
934.912	0.0138391
934.990	0.0135573
935.068	0.0136450
935.146	0.0137679
935.224	0.0137537
935.302	0.0137648
935.380	0.0137575
935.458	0.0137953
935.537	0.0137712
935.615	0.0137286
935.693	0.0136991
935.771	0.0136250
935.849	0.0137425
935.927	0.0137190
936.005	0.0136188
936.083	0.0136163
936.162	0.0135064
936.240	0.0135436
936.318	0.0135272
936.396	0.0135896
936.474	0.0136231
936.552	0.0135129
936.630	0.0135963
936.708	0.0135106
936.787	0.0135947
936.865	0.0135143
936.943	0.0136514
937.021	0.0135862
937.099	0.0135605
937.177	0.0135960
937.255	0.0135086
937.333	0.0136287
937.412	0.0135888
937.490	0.0137555
937.568	0.0136857
937.646	0.0136758
937.724	0.0136641
937.802	0.0136619
937.880	0.0137167
937.958	0.0136883
938.037	0.0137518
938.115	0.0137281
938.193	0.0136699
938.271	0.0139757
938.349	0.0137758
938.427	0.0137606
938.505	0.0138300
938.583	0.0139030
938.662	0.0137820
938.740	0.0138371
938.818	0.0139131
938.896	0.0138693
938.974	0.0137570
939.052	0.0138751
939.130	0.0137184
939.208	0.0136891
939.287	0.0135874
939.365	0.0137103
939.443	0.0136685
939.521	0.0136716
939.599	0.0136538
939.677	0.0135969
939.755	0.0135128
939.833	0.0135671
939.912	0.0136864
939.990	0.0136434
940.068	0.0135691
940.146	0.0135238
940.224	0.0135908
940.302	0.0135994
940.380	0.0136157
940.458	0.0137004
940.537	0.0135484
940.615	0.0135363
940.693	0.0135845
940.771	0.0135139
940.849	0.0133987
940.927	0.0136964
941.005	0.0135989
941.083	0.0135800
941.162	0.0135175
941.240	0.0136160
941.318	0.0137002
941.396	0.0135935
941.474	0.0134401
941.552	0.0137167
941.630	0.0135360
941.708	0.0135145
941.787	0.0135920
941.865	0.0135399
941.943	0.0135226
942.021	0.0136160
942.099	0.0135423
942.177	0.0134857
942.255	0.0135226
942.333	0.0136170
942.412	0.0136084
942.490	0.0137444
942.568	0.0136673
942.646	0.0136413
942.724	0.0135725
942.802	0.0134926
942.880	0.0135873
942.958	0.0134978
943.037	0.0135904
943.115	0.0134888
943.193	0.0135821
943.271	0.0134975
943.349	0.0136781
943.427	0.0135991
943.505	0.0136262
943.583	0.0136060
943.662	0.0137282
943.740	0.0135397
943.818	0.0135892
943.896	0.0137173
943.974	0.0136992
944.052	0.0137430
944.130	0.0136980
944.208	0.0137595
944.287	0.0137746
944.365	0.0137021
944.443	0.0136033
944.521	0.0137839
944.599	0.0137105
944.677	0.0137426
944.755	0.0136430
944.833	0.0136429
944.912	0.0136586
944.990	0.0135676
945.068	0.0135822
945.146	0.0136744
945.224	0.0135804
945.302	0.0135365
945.380	0.0134837
945.458	0.0135896
945.537	0.0136114
945.615	0.0135741
945.693	0.0136572
945.771	0.0135513
945.849	0.0134628
945.927	0.0135755
946.005	0.0135615
946.083	0.0135631
946.162	0.0135562
946.240	0.0134416
946.318	0.0134236
946.396	0.0134346
946.474	0.0135738
946.552	0.0136078
946.630	0.0135932
946.708	0.0136868
946.787	0.0135906
946.865	0.0135803
946.943	0.0136480
947.021	0.0136057
947.099	0.0135198
947.177	0.0136095
947.255	0.0136149
947.333	0.0134365
947.412	0.0134010
947.490	0.0135088
947.568	0.0136020
947.646	0.0135339
947.724	0.0135957
947.802	0.0135239
947.880	0.0134791
947.958	0.0135366
948.037	0.0134206
948.115	0.0135587
948.193	0.0134237
948.271	0.0136832
948.349	0.0134908
948.427	0.0135735
948.505	0.0135157
948.583	0.0135558
948.662	0.0135992
948.740	0.0136314
948.818	0.0136131
948.896	0.0135952
948.974	0.0135775
949.052	0.0135909
949.130	0.0135499
949.208	0.0136909
949.287	0.0135531
949.365	0.0134974
949.443	0.0134598
949.521	0.0136030
949.599	0.0135793
949.677	0.0136152
949.755	0.0137075
949.833	0.0137812
949.912	0.0137721
949.990	0.0137634
950.068	0.0137255
950.146	0.0136738
950.224	0.0135944
950.302	0.0137724
950.380	0.0138104
950.458	0.0138946
950.537	0.0136937
950.615	0.0135707
950.693	0.0136556
950.771	0.0136206
950.849	0.0134576
950.927	0.0135406
951.005	0.0135829
951.083	0.0136015
951.162	0.0134594
951.240	0.0135000
951.318	0.0134861
951.396	0.0134826
951.474	0.0134515
951.552	0.0135083
951.630	0.0135604
951.708	0.0135899
951.787	0.0134689
951.865	0.0135460
951.943	0.0135870
952.021	0.0135602
952.099	0.0136550
952.177	0.0136214
952.255	0.0135746
952.333	0.0136800
952.412	0.0137733
952.490	0.0136490
952.568	0.0137599
952.646	0.0138322
952.724	0.0137997
952.802	0.0137951
952.880	0.0138904
952.958	0.0137234
953.037	0.0137262
953.115	0.0138441
953.193	0.0138403
953.271	0.0137782
953.349	0.0137885
953.427	0.0138194
953.505	0.0138450
953.583	0.0137080
953.662	0.0138330
953.740	0.0137766
953.818	0.0138442
953.896	0.0138789
953.974	0.0138010
954.052	0.0137448
954.130	0.0135744
954.208	0.0136632
954.287	0.0136486
954.365	0.0136020
954.443	0.0134128
954.521	0.0135618
954.599	0.0134592
954.677	0.0133009
954.755	0.0134516
954.833	0.0133784
954.912	0.0133999
954.990	0.0134709
955.068	0.0134289
955.146	0.0133253
955.224	0.0133105
955.302	0.0133418
955.380	0.0132590
955.458	0.0132871
955.537	0.0133720
955.615	0.0135849
955.693	0.0135345
955.771	0.0135101
955.849	0.0134912
955.927	0.0136376
956.005	0.0135661
956.083	0.0136811
956.162	0.0136272
956.240	0.0135801
956.318	0.0136670
956.396	0.0136572
956.474	0.0137962
956.552	0.0136817
956.630	0.0137997
956.708	0.0137086
956.787	0.0139288
956.865	0.0137690
956.943	0.0137267
957.021	0.0135692
957.099	0.0136607
957.177	0.0136272
957.255	0.0135811
957.333	0.0138276
957.412	0.0136045
957.490	0.0135146
957.568	0.0136790
957.646	0.0136194
957.724	0.0135787
957.802	0.0136758
957.880	0.0135797
957.958	0.0136964
958.037	0.0136435
958.115	0.0135072
958.193	0.0134764
958.271	0.0137338
958.349	0.0136364
958.427	0.0135960
958.505	0.0136915
958.583	0.0136649
958.662	0.0136549
958.740	0.0136594
958.818	0.0137826
958.896	0.0137507
958.974	0.0136648
959.052	0.0136890
959.130	0.0138103
959.208	0.0137532
959.287	0.0136477
959.365	0.0137009
959.443	0.0137015
959.521	0.0135880
959.599	0.0136983
959.677	0.0138316
959.755	0.0137011
959.833	0.0137268
959.912	0.0137244
959.990	0.0136868
960.068	0.0136626
960.146	0.0137429
960.224	0.0135794
960.302	0.0136568
960.380	0.0136795
960.458	0.0134570
960.537	0.0136010
960.615	0.0137139
960.693	0.0138538
960.771	0.0137560
960.849	0.0137460
960.927	0.0137735
961.005	0.0137106
961.083	0.0135909
961.162	0.0136535
961.240	0.0138155
961.318	0.0138418
961.396	0.0137862
961.474	0.0137608
961.552	0.0137140
961.630	0.0138007
961.708	0.0138697
961.787	0.0138824
961.865	0.0137222
961.943	0.0137813
962.021	0.0137048
962.099	0.0136178
962.177	0.0137741
962.255	0.0137094
962.333	0.0136382
962.412	0.0136142
962.490	0.0136910
962.568	0.0135731
962.646	0.0135439
962.724	0.0135647
962.802	0.0134191
962.880	0.0135007
962.958	0.0134419
963.037	0.0134711
963.115	0.0134167
963.193	0.0135567
963.271	0.0134298
963.349	0.0133743
963.427	0.0133433
963.505	0.0133479
963.583	0.0132812
963.662	0.0134009
963.740	0.0134190
963.818	0.0133434
963.896	0.0134026
963.974	0.0133692
964.052	0.0133963
964.130	0.0133984
964.208	0.0134998
964.287	0.0134422
964.365	0.0136012
964.443	0.0135458
964.521	0.0135202
964.599	0.0135980
964.677	0.0135114
964.755	0.0135122
964.833	0.0136407
964.912	0.0137718
964.990	0.0136731
965.068	0.0137676
965.146	0.0138360
965.224	0.0137077
965.302	0.0137059
965.380	0.0139014
965.458	0.0137107
965.537	0.0136479
965.615	0.0137232
965.693	0.0137453
965.771	0.0137984
965.849	0.0137669
965.927	0.0136806
966.005	0.0135197
966.083	0.0137472
966.162	0.0137141
966.240	0.0135545
966.318	0.0136790
966.396	0.0135915
966.474	0.0136356
966.552	0.0135452
966.630	0.0135892
966.708	0.0135898
966.787	0.0135524
966.865	0.0133668
966.943	0.0133826
967.021	0.0133521
967.099	0.0133100
967.177	0.0134587
967.255	0.0133306
967.333	0.0134455
967.412	0.0134081
967.490	0.0133724
967.568	0.0133283
967.646	0.0134425
967.724	0.0135085
967.802	0.0134839
967.880	0.0135835
967.958	0.0135661
968.037	0.0134978
968.115	0.0135871
968.193	0.0137267
968.271	0.0137454
968.349	0.0136021
968.427	0.0135885
968.505	0.0136987
968.583	0.0136871
968.662	0.0136727
968.740	0.0137572
968.818	0.0136938
968.896	0.0136600
968.974	0.0136776
969.052	0.0136779
969.130	0.0137284
969.208	0.0136324
969.287	0.0135703
969.365	0.0138389
969.443	0.0137714
969.521	0.0137027
969.599	0.0137497
969.677	0.0137514
969.755	0.0136844
969.833	0.0137389
969.912	0.0137505
