05/08/2022	20:10:11	Ver.	4.1	UNKNOWN
Optical Delay	600.015094	Delta X		0.078125	Sweeps	1	Scan Rate	0/0
Coordinates	Axis 1	NaN	Axis 2	NaN	Axis 3	NaN	Axis 4	NaN	Axis 5	NaN	Axis 6	0.000000
TX Power	0.000000	RX Power	0.000000

600.015	0.0136035
600.093	0.0137621
600.171	0.0136446
600.249	0.0136402
600.328	0.0136378
600.406	0.0137032
600.484	0.0134771
600.562	0.0135477
600.640	0.0134792
600.718	0.0137019
600.796	0.0135603
600.874	0.0136426
600.953	0.0136877
601.031	0.0134367
601.109	0.0135839
601.187	0.0136384
601.265	0.0136542
601.343	0.0137968
601.421	0.0136389
601.499	0.0136163
601.578	0.0135739
601.656	0.0136172
601.734	0.0135398
601.812	0.0136365
601.890	0.0137428
601.968	0.0137482
602.046	0.0136618
602.124	0.0136464
602.203	0.0137413
602.281	0.0136305
602.359	0.0135950
602.437	0.0137000
602.515	0.0137209
602.593	0.0135928
602.671	0.0136182
602.749	0.0137617
602.828	0.0136749
602.906	0.0136394
602.984	0.0135815
603.062	0.0137219
603.140	0.0135999
603.218	0.0135598
603.296	0.0135337
603.374	0.0135796
603.453	0.0136024
603.531	0.0136902
603.609	0.0136536
603.687	0.0136910
603.765	0.0135919
603.843	0.0135099
603.921	0.0136416
603.999	0.0135365
604.078	0.0136263
604.156	0.0136958
604.234	0.0137081
604.312	0.0135773
604.390	0.0136327
604.468	0.0135382
604.546	0.0137143
604.624	0.0135032
604.703	0.0133890
604.781	0.0136305
604.859	0.0135943
604.937	0.0136904
605.015	0.0135250
605.093	0.0135136
605.171	0.0135457
605.249	0.0137837
605.328	0.0135875
605.406	0.0135048
605.484	0.0135033
605.562	0.0135936
605.640	0.0136090
605.718	0.0135474
605.796	0.0136223
605.874	0.0134875
605.953	0.0135190
606.031	0.0136157
606.109	0.0135941
606.187	0.0135755
606.265	0.0136069
606.343	0.0135568
606.421	0.0136511
606.499	0.0136082
606.578	0.0136166
606.656	0.0136958
606.734	0.0134539
606.812	0.0134307
606.890	0.0135549
606.968	0.0134848
607.046	0.0135183
607.124	0.0135708
607.203	0.0134364
607.281	0.0135518
607.359	0.0135931
607.437	0.0136470
607.515	0.0136408
607.593	0.0135761
607.671	0.0135531
607.749	0.0136180
607.828	0.0137047
607.906	0.0136227
607.984	0.0137006
608.062	0.0134882
608.140	0.0135339
608.218	0.0135992
608.296	0.0135446
608.374	0.0135021
608.453	0.0135969
608.531	0.0135244
608.609	0.0134927
608.687	0.0136268
608.765	0.0135727
608.843	0.0136280
608.921	0.0135776
608.999	0.0134322
609.078	0.0136821
609.156	0.0136304
609.234	0.0135130
609.312	0.0135649
609.390	0.0135852
609.468	0.0135384
609.546	0.0136276
609.624	0.0134856
609.703	0.0134739
609.781	0.0135915
609.859	0.0135511
609.937	0.0135840
610.015	0.0136163
610.093	0.0135047
610.171	0.0135670
610.249	0.0135335
610.328	0.0135941
610.406	0.0136154
610.484	0.0136546
610.562	0.0136514
610.640	0.0135880
610.718	0.0136089
610.796	0.0137248
610.874	0.0136236
610.953	0.0135104
611.031	0.0136015
611.109	0.0135613
611.187	0.0136304
611.265	0.0136483
611.343	0.0136881
611.421	0.0136033
611.499	0.0136569
611.578	0.0135986
611.656	0.0135545
611.734	0.0135769
611.812	0.0135619
611.890	0.0136298
611.968	0.0135249
612.046	0.0135316
612.124	0.0135664
612.203	0.0134821
612.281	0.0135543
612.359	0.0137112
612.437	0.0135726
612.515	0.0137016
612.593	0.0135351
612.671	0.0135433
612.749	0.0135816
612.828	0.0136334
612.906	0.0137672
612.984	0.0136320
613.062	0.0135998
613.140	0.0135155
613.218	0.0135724
613.296	0.0135576
613.374	0.0135954
613.453	0.0137246
613.531	0.0134776
613.609	0.0134801
613.687	0.0134909
613.765	0.0135879
613.843	0.0135558
613.921	0.0136320
613.999	0.0135727
614.078	0.0135548
614.156	0.0135146
614.234	0.0136877
614.312	0.0136720
614.390	0.0134980
614.468	0.0136469
614.546	0.0135748
614.624	0.0135808
614.703	0.0136949
614.781	0.0136054
614.859	0.0134644
614.937	0.0136467
615.015	0.0135504
615.093	0.0135073
615.171	0.0135535
615.249	0.0135545
615.328	0.0136317
615.406	0.0135392
615.484	0.0134734
615.562	0.0134921
615.640	0.0136182
615.718	0.0136435
615.796	0.0135540
615.874	0.0134474
615.953	0.0134957
616.031	0.0137129
616.109	0.0136974
616.187	0.0136720
616.265	0.0136421
616.343	0.0134776
616.421	0.0136279
616.499	0.0134605
616.578	0.0137455
616.656	0.0135596
616.734	0.0135511
616.812	0.0137086
616.890	0.0135664
616.968	0.0136178
617.046	0.0135643
617.124	0.0135748
617.203	0.0135761
617.281	0.0137100
617.359	0.0136503
617.437	0.0135608
617.515	0.0136592
617.593	0.0135774
617.671	0.0136697
617.749	0.0135095
617.828	0.0136267
617.906	0.0136716
617.984	0.0136324
618.062	0.0136884
618.140	0.0137134
618.218	0.0137788
618.296	0.0136551
618.374	0.0137569
618.453	0.0136810
618.531	0.0136407
618.609	0.0136399
618.687	0.0137809
618.765	0.0136623
618.843	0.0137656
618.921	0.0137746
618.999	0.0137254
619.078	0.0136157
619.156	0.0135098
619.234	0.0135799
619.312	0.0137170
619.390	0.0136433
619.468	0.0136535
619.546	0.0137360
619.624	0.0137925
619.703	0.0136220
619.781	0.0134431
619.859	0.0135789
619.937	0.0137028
620.015	0.0139536
620.093	0.0137174
620.171	0.0136580
620.249	0.0136514
620.328	0.0135255
620.406	0.0137167
620.484	0.0137775
620.562	0.0137196
620.640	0.0136939
620.718	0.0135533
620.796	0.0135208
620.874	0.0136710
620.953	0.0136727
621.031	0.0137832
621.109	0.0136626
621.187	0.0136161
621.265	0.0134914
621.343	0.0135542
621.421	0.0136332
621.499	0.0136691
621.578	0.0136523
621.656	0.0135594
621.734	0.0135487
621.812	0.0135470
621.890	0.0137497
621.968	0.0134962
622.046	0.0136282
622.124	0.0135796
622.203	0.0137299
622.281	0.0136394
622.359	0.0135619
622.437	0.0135311
622.515	0.0136053
622.593	0.0134837
622.671	0.0134518
622.749	0.0135978
622.828	0.0135879
622.906	0.0135219
622.984	0.0136806
623.062	0.0136437
623.140	0.0135034
623.218	0.0136510
623.296	0.0136810
623.374	0.0135841
623.453	0.0136441
623.531	0.0136292
623.609	0.0136068
623.687	0.0134915
623.765	0.0135826
623.843	0.0134977
623.921	0.0135867
623.999	0.0137737
624.078	0.0135847
624.156	0.0136913
624.234	0.0136715
624.312	0.0136166
624.390	0.0135326
624.468	0.0135928
624.546	0.0135896
624.624	0.0136680
624.703	0.0135435
624.781	0.0135600
624.859	0.0136315
624.937	0.0136779
625.015	0.0136513
625.093	0.0135460
625.171	0.0136479
625.249	0.0135804
625.328	0.0137146
625.406	0.0135432
625.484	0.0136136
625.562	0.0136682
625.640	0.0135808
625.718	0.0135809
625.796	0.0136105
625.874	0.0135572
625.953	0.0136414
626.031	0.0136071
626.109	0.0135841
626.187	0.0135291
626.265	0.0135233
626.343	0.0135610
626.421	0.0136435
626.499	0.0135762
626.578	0.0135420
626.656	0.0136812
626.734	0.0135225
626.812	0.0134055
626.890	0.0135544
626.968	0.0135944
627.046	0.0135107
627.124	0.0136124
627.203	0.0135888
627.281	0.0136127
627.359	0.0135805
627.437	0.0135742
627.515	0.0136309
627.593	0.0136829
627.671	0.0136014
627.749	0.0135571
627.828	0.0135981
627.906	0.0136963
627.984	0.0136300
628.062	0.0136347
628.140	0.0136071
628.218	0.0135815
628.296	0.0136534
628.374	0.0137060
628.453	0.0134413
628.531	0.0135152
628.609	0.0137395
628.687	0.0137183
628.765	0.0136382
628.843	0.0135629
628.921	0.0136343
628.999	0.0137397
629.078	0.0137734
629.156	0.0136013
629.234	0.0135312
629.312	0.0135466
629.390	0.0136303
629.468	0.0137432
629.546	0.0135488
629.624	0.0135429
629.703	0.0137265
629.781	0.0136785
629.859	0.0136236
629.937	0.0135665
630.015	0.0135772
630.093	0.0136564
630.171	0.0135290
630.249	0.0136272
630.328	0.0136018
630.406	0.0136808
630.484	0.0136881
630.562	0.0135897
630.640	0.0134795
630.718	0.0135481
630.796	0.0136063
630.874	0.0135674
630.953	0.0135859
631.031	0.0136153
631.109	0.0137751
631.187	0.0136565
631.265	0.0137389
631.343	0.0136160
631.421	0.0136702
631.499	0.0135989
631.578	0.0134930
631.656	0.0137241
631.734	0.0137725
631.812	0.0135478
631.890	0.0136163
631.968	0.0136656
632.046	0.0135981
632.124	0.0136079
632.203	0.0137361
632.281	0.0136664
632.359	0.0137292
632.437	0.0135433
632.515	0.0137801
632.593	0.0136597
632.671	0.0135883
632.749	0.0137229
632.828	0.0136318
632.906	0.0136607
632.984	0.0136407
633.062	0.0134372
633.140	0.0135951
633.218	0.0136065
633.296	0.0134581
633.374	0.0137699
633.453	0.0135950
633.531	0.0136192
633.609	0.0136746
633.687	0.0136642
633.765	0.0136933
633.843	0.0136295
633.921	0.0137312
633.999	0.0137510
634.078	0.0137344
634.156	0.0136890
634.234	0.0136461
634.312	0.0136146
634.390	0.0136636
634.468	0.0136650
634.546	0.0137392
634.624	0.0136900
634.703	0.0136780
634.781	0.0136556
634.859	0.0136572
634.937	0.0136361
635.015	0.0136886
635.093	0.0137013
635.171	0.0137482
635.249	0.0137944
635.328	0.0136805
635.406	0.0136600
635.484	0.0137515
635.562	0.0136240
635.640	0.0137507
635.718	0.0136668
635.796	0.0137411
635.874	0.0136243
635.953	0.0137481
636.031	0.0135001
636.109	0.0137580
636.187	0.0137497
636.265	0.0135310
636.343	0.0135672
636.421	0.0137695
636.499	0.0135830
636.578	0.0135497
636.656	0.0135811
636.734	0.0134494
636.812	0.0135987
636.890	0.0135770
636.968	0.0136587
637.046	0.0136446
637.124	0.0135976
637.203	0.0136189
637.281	0.0136115
637.359	0.0135302
637.437	0.0135445
637.515	0.0136258
637.593	0.0136247
637.671	0.0135957
637.749	0.0136233
637.828	0.0136121
637.906	0.0135368
637.984	0.0137961
638.062	0.0136876
638.140	0.0136238
638.218	0.0135979
638.296	0.0137389
638.374	0.0136843
638.453	0.0135669
638.531	0.0136720
638.609	0.0137467
638.687	0.0135745
638.765	0.0136190
638.843	0.0136082
638.921	0.0136758
638.999	0.0138074
639.078	0.0136250
639.156	0.0137108
639.234	0.0136344
639.312	0.0135986
639.390	0.0136694
639.468	0.0134628
639.546	0.0136189
639.624	0.0137763
639.703	0.0135135
639.781	0.0135442
639.859	0.0134574
639.937	0.0134028
640.015	0.0135284
640.093	0.0135249
640.171	0.0137074
640.249	0.0136314
640.328	0.0135013
640.406	0.0135549
640.484	0.0136053
640.562	0.0136645
640.640	0.0135525
640.718	0.0135616
640.796	0.0136166
640.874	0.0134576
640.953	0.0135754
641.031	0.0135292
641.109	0.0134688
641.187	0.0135770
641.265	0.0136787
641.343	0.0136575
641.421	0.0135758
641.499	0.0136923
641.578	0.0135298
641.656	0.0135681
641.734	0.0136549
641.812	0.0135273
641.890	0.0136665
641.968	0.0137206
642.046	0.0135104
642.124	0.0135166
642.203	0.0136401
642.281	0.0136201
642.359	0.0135639
642.437	0.0135293
642.515	0.0135966
642.593	0.0136137
642.671	0.0136166
642.749	0.0134718
642.828	0.0136576
642.906	0.0137351
642.984	0.0136554
643.062	0.0137608
643.140	0.0135985
643.218	0.0135874
643.296	0.0137292
643.374	0.0136533
643.453	0.0136814
643.531	0.0137188
643.609	0.0136263
643.687	0.0135897
643.765	0.0137313
643.843	0.0136929
643.921	0.0136801
643.999	0.0136867
644.078	0.0136034
644.156	0.0135744
644.234	0.0136475
644.312	0.0136983
644.390	0.0135934
644.468	0.0136518
644.546	0.0135778
644.624	0.0137363
644.703	0.0137259
644.781	0.0136023
644.859	0.0136223
644.937	0.0136120
645.015	0.0136834
645.093	0.0138107
645.171	0.0137601
645.249	0.0137819
645.328	0.0137990
645.406	0.0136269
645.484	0.0136902
645.562	0.0137081
645.640	0.0136575
645.718	0.0135869
645.796	0.0135892
645.874	0.0133834
645.953	0.0133980
646.031	0.0134679
646.109	0.0134386
646.187	0.0135453
646.265	0.0133516
646.343	0.0136008
646.421	0.0134068
646.499	0.0135194
646.578	0.0136378
646.656	0.0138646
646.734	0.0137572
646.812	0.0136569
646.890	0.0136587
646.968	0.0138359
647.046	0.0138702
647.124	0.0137139
647.203	0.0137141
647.281	0.0137271
647.359	0.0137539
647.437	0.0136508
647.515	0.0136901
647.593	0.0137673
647.671	0.0135700
647.749	0.0136568
647.828	0.0137112
647.906	0.0134823
647.984	0.0135330
648.062	0.0136018
648.140	0.0133890
648.218	0.0133759
648.296	0.0135318
648.374	0.0135810
648.453	0.0136488
648.531	0.0135831
648.609	0.0135061
648.687	0.0136161
648.765	0.0137208
648.843	0.0136933
648.921	0.0135940
648.999	0.0137216
649.078	0.0137370
649.156	0.0136865
649.234	0.0137186
649.312	0.0138314
649.390	0.0138030
649.468	0.0138189
649.546	0.0137273
649.624	0.0137012
649.703	0.0137826
649.781	0.0137306
649.859	0.0137218
649.937	0.0135825
650.015	0.0134898
650.093	0.0134598
650.171	0.0133280
650.249	0.0133322
650.328	0.0132549
650.406	0.0132649
650.484	0.0131665
650.562	0.0131142
650.640	0.0131734
650.718	0.0133007
650.796	0.0133805
650.874	0.0134777
650.953	0.0135981
651.031	0.0137111
651.109	0.0137798
651.187	0.0140737
651.265	0.0140413
651.343	0.0141873
651.421	0.0141056
651.499	0.0143034
651.578	0.0143671
651.656	0.0143986
651.734	0.0142336
651.812	0.0141818
651.890	0.0140215
651.968	0.0138034
652.046	0.0138735
652.124	0.0136789
652.203	0.0136360
652.281	0.0134689
652.359	0.0132932
652.437	0.0132127
652.515	0.0131633
652.593	0.0130261
652.671	0.0129819
652.749	0.0128919
652.828	0.0130323
652.906	0.0130167
652.984	0.0128810
653.062	0.0129266
653.140	0.0128998
653.218	0.0130251
653.296	0.0131547
653.374	0.0133491
653.453	0.0132928
653.531	0.0134087
653.609	0.0135478
653.687	0.0136359
653.765	0.0138238
653.843	0.0139277
653.921	0.0139567
653.999	0.0141708
654.078	0.0144313
654.156	0.0143346
654.234	0.0143551
654.312	0.0142873
654.390	0.0145008
654.468	0.0145772
654.546	0.0145299
654.624	0.0144910
654.703	0.0145021
654.781	0.0146026
654.859	0.0146821
654.937	0.0146556
655.015	0.0145628
655.093	0.0145771
655.171	0.0145069
655.249	0.0144774
655.328	0.0142559
655.406	0.0139825
655.484	0.0139105
655.562	0.0137567
655.640	0.0134721
655.718	0.0132524
655.796	0.0129688
655.874	0.0127977
655.953	0.0125338
656.031	0.0123644
656.109	0.0121365
656.187	0.0119662
656.265	0.0118472
656.343	0.0117738
656.421	0.0117754
656.499	0.0117995
656.578	0.0118064
656.656	0.0119606
656.734	0.0119626
656.812	0.0122666
656.890	0.0124555
656.968	0.0125839
657.046	0.0128696
657.124	0.0132273
657.203	0.0134318
657.281	0.0136436
657.359	0.0138750
657.437	0.0141823
657.515	0.0144124
657.593	0.0148087
657.671	0.0148651
657.749	0.0151600
657.828	0.0154541
657.906	0.0155567
657.984	0.0155833
658.062	0.0157871
658.140	0.0158985
658.218	0.0158532
658.296	0.0160417
658.374	0.0159833
658.453	0.0159988
658.531	0.0159038
658.609	0.0157150
658.687	0.0155621
658.765	0.0153728
658.843	0.0151998
658.921	0.0147797
658.999	0.0144925
659.078	0.0142210
659.156	0.0138574
659.234	0.0135928
659.312	0.0128896
659.390	0.0126708
659.468	0.0121410
659.546	0.0119220
659.624	0.0114244
659.703	0.0112109
659.781	0.0109744
659.859	0.0107360
659.937	0.0105798
660.015	0.0105039
660.093	0.0104097
660.171	0.0103272
660.249	0.0104305
660.328	0.0105527
660.406	0.0107421
660.484	0.0108643
660.562	0.0110449
660.640	0.0113188
660.718	0.0116441
660.796	0.0121320
660.874	0.0125275
660.953	0.0129848
661.031	0.0135556
661.109	0.0139765
661.187	0.0146273
661.265	0.0151651
661.343	0.0154736
661.421	0.0161729
661.499	0.0166135
661.578	0.0168353
661.656	0.0171491
661.734	0.0174458
661.812	0.0173718
661.890	0.0174262
661.968	0.0173859
662.046	0.0172401
662.124	0.0171814
662.203	0.0168813
662.281	0.0165068
662.359	0.0161236
662.437	0.0158276
662.515	0.0155950
662.593	0.0150472
662.671	0.0147134
662.749	0.0143633
662.828	0.0139246
662.906	0.0135851
662.984	0.0131054
663.062	0.0127802
663.140	0.0124148
663.218	0.0121010
663.296	0.0118771
663.374	0.0116739
663.453	0.0113659
663.531	0.0111591
663.609	0.0110087
663.687	0.0109381
663.765	0.0108569
663.843	0.0109285
663.921	0.0109082
663.999	0.0108651
664.078	0.0108601
664.156	0.0107940
664.234	0.0108794
664.312	0.0112729
664.390	0.0112484
664.468	0.0112859
664.546	0.0116706
664.624	0.0120069
664.703	0.0121679
664.781	0.0123578
664.859	0.0126981
664.937	0.0130632
665.015	0.0134061
665.093	0.0135869
665.171	0.0138084
665.249	0.0142722
665.328	0.0143696
665.406	0.0146558
665.484	0.0150382
665.562	0.0153327
665.640	0.0156030
665.718	0.0158791
665.796	0.0161142
665.874	0.0163234
665.953	0.0164607
666.031	0.0163677
666.109	0.0166454
666.187	0.0166772
666.265	0.0165578
666.343	0.0166952
666.421	0.0165128
666.499	0.0163762
666.578	0.0162471
666.656	0.0160403
666.734	0.0157110
666.812	0.0154263
666.890	0.0150436
666.968	0.0148257
667.046	0.0145915
667.124	0.0140729
667.203	0.0137959
667.281	0.0134288
667.359	0.0130683
667.437	0.0128288
667.515	0.0123710
667.593	0.0121869
667.671	0.0118793
667.749	0.0115560
667.828	0.0113955
667.906	0.0112767
667.984	0.0111935
668.062	0.0111488
668.140	0.0109359
668.218	0.0110143
668.296	0.0108547
668.374	0.0109908
668.453	0.0109354
668.531	0.0113230
668.609	0.0114441
668.687	0.0114507
668.765	0.0115308
668.843	0.0117802
668.921	0.0119009
668.999	0.0121284
669.078	0.0124483
669.156	0.0127594
669.234	0.0129460
669.312	0.0133988
669.390	0.0137051
669.468	0.0139243
669.546	0.0140820
669.624	0.0145178
669.703	0.0146687
669.781	0.0147582
669.859	0.0150282
669.937	0.0150365
670.015	0.0152760
670.093	0.0155729
670.171	0.0155478
670.249	0.0156091
670.328	0.0155172
670.406	0.0156193
670.484	0.0156770
670.562	0.0156406
670.640	0.0155805
670.718	0.0154710
670.796	0.0154312
670.874	0.0152190
670.953	0.0150996
671.031	0.0150867
671.109	0.0150341
671.187	0.0149429
671.265	0.0146739
671.343	0.0146843
671.421	0.0146555
671.499	0.0143615
671.578	0.0143527
671.656	0.0141129
671.734	0.0139774
671.812	0.0139539
671.890	0.0136590
671.968	0.0135960
672.046	0.0134549
672.124	0.0134203
672.203	0.0131060
672.281	0.0131352
672.359	0.0130357
672.437	0.0129858
672.515	0.0127108
672.593	0.0127287
672.671	0.0124464
672.749	0.0123808
672.828	0.0123594
672.906	0.0123411
672.984	0.0122481
673.062	0.0120274
673.140	0.0121275
673.218	0.0118539
673.296	0.0117815
673.374	0.0116393
673.453	0.0117894
673.531	0.0116374
673.609	0.0118296
673.687	0.0118680
673.765	0.0120110
673.843	0.0121137
673.921	0.0123437
673.999	0.0125897
674.078	0.0128429
674.156	0.0131778
674.234	0.0135739
674.312	0.0137905
674.390	0.0141535
674.468	0.0142307
674.546	0.0144620
674.624	0.0145911
674.703	0.0146229
674.781	0.0146424
674.859	0.0144421
674.937	0.0145074
675.015	0.0144212
675.093	0.0143964
675.171	0.0144227
675.249	0.0143261
675.328	0.0144445
675.406	0.0144125
675.484	0.0143746
675.562	0.0144943
675.640	0.0146176
675.718	0.0147697
675.796	0.0148486
675.874	0.0149387
675.953	0.0151709
676.031	0.0152870
676.109	0.0152681
676.187	0.0153876
676.265	0.0153376
676.343	0.0154226
676.421	0.0152282
676.499	0.0152020
676.578	0.0150315
676.656	0.0149672
676.734	0.0147826
676.812	0.0143703
676.890	0.0142388
676.968	0.0141161
677.046	0.0137759
677.124	0.0133218
677.203	0.0131232
677.281	0.0128841
677.359	0.0124725
677.437	0.0122366
677.515	0.0121040
677.593	0.0120692
677.671	0.0119979
677.749	0.0117636
677.828	0.0117735
677.906	0.0119401
677.984	0.0119261
678.062	0.0118597
678.140	0.0119447
678.218	0.0120715
678.296	0.0120167
678.374	0.0120802
678.453	0.0122901
678.531	0.0123116
678.609	0.0123717
678.687	0.0125199
678.765	0.0125507
678.843	0.0128806
678.921	0.0130915
678.999	0.0133775
679.078	0.0135973
679.156	0.0138630
679.234	0.0142498
679.312	0.0143644
679.390	0.0146375
679.468	0.0147903
679.546	0.0149035
679.624	0.0148358
679.703	0.0148225
679.781	0.0149391
679.859	0.0147675
679.937	0.0145735
680.015	0.0144888
680.093	0.0143707
680.171	0.0143562
680.249	0.0140440
680.328	0.0137646
680.406	0.0136726
680.484	0.0134780
680.562	0.0134595
680.640	0.0133463
680.718	0.0134109
680.796	0.0131960
680.874	0.0131587
680.953	0.0131974
681.031	0.0132097
681.109	0.0132154
681.187	0.0133675
681.265	0.0134994
681.343	0.0137084
681.421	0.0138497
681.499	0.0139454
681.578	0.0138419
681.656	0.0141646
681.734	0.0141430
681.812	0.0141014
681.890	0.0141182
681.968	0.0142693
682.046	0.0143128
682.124	0.0143040
682.203	0.0143443
682.281	0.0142362
682.359	0.0144508
682.437	0.0145617
682.515	0.0147028
682.593	0.0148450
682.671	0.0149272
682.749	0.0151176
682.828	0.0149828
682.906	0.0147410
682.984	0.0147629
683.062	0.0144823
683.140	0.0143125
683.218	0.0138664
683.296	0.0136420
683.374	0.0131572
683.453	0.0127089
683.531	0.0124944
683.609	0.0122272
683.687	0.0118281
683.765	0.0115802
683.843	0.0113551
683.921	0.0111673
683.999	0.0110799
684.078	0.0109288
684.156	0.0109942
684.234	0.0111053
684.312	0.0111603
684.390	0.0111964
684.468	0.0115301
684.546	0.0117171
684.624	0.0118181
684.703	0.0121369
684.781	0.0122598
684.859	0.0124973
684.937	0.0126292
685.015	0.0130561
685.093	0.0130453
685.171	0.0135900
685.249	0.0137500
685.328	0.0140319
685.406	0.0143524
685.484	0.0146210
685.562	0.0149166
685.640	0.0151007
685.718	0.0152814
685.796	0.0155921
685.874	0.0155362
685.953	0.0155786
686.031	0.0157212
686.109	0.0158134
686.187	0.0159471
686.265	0.0156573
686.343	0.0157320
686.421	0.0154755
686.499	0.0152758
686.578	0.0151244
686.656	0.0148812
686.734	0.0147358
686.812	0.0145226
686.890	0.0144377
686.968	0.0142155
687.046	0.0141222
687.124	0.0139475
687.203	0.0137289
687.281	0.0134984
687.359	0.0134422
687.437	0.0132563
687.515	0.0130431
687.593	0.0131139
687.671	0.0129642
687.749	0.0128999
687.828	0.0128712
687.906	0.0127434
687.984	0.0127026
688.062	0.0128960
688.140	0.0128372
688.218	0.0128582
688.296	0.0128497
688.374	0.0129997
688.453	0.0129158
688.531	0.0130047
688.609	0.0130135
688.687	0.0129632
688.765	0.0131613
688.843	0.0131769
688.921	0.0129983
688.999	0.0130517
689.078	0.0130795
689.156	0.0130271
689.234	0.0129061
689.312	0.0127895
689.390	0.0125636
689.468	0.0124814
689.546	0.0126319
689.624	0.0125307
689.703	0.0122540
689.781	0.0122082
689.859	0.0122826
689.937	0.0123745
690.015	0.0123618
690.093	0.0124505
690.171	0.0124959
690.249	0.0126865
690.328	0.0127879
690.406	0.0129660
690.484	0.0132890
690.562	0.0133926
690.640	0.0136430
690.718	0.0139115
690.796	0.0140829
690.874	0.0142390
690.953	0.0146467
691.031	0.0148460
691.109	0.0152208
691.187	0.0152503
691.265	0.0156192
691.343	0.0156964
691.421	0.0157773
691.499	0.0158320
691.578	0.0160329
691.656	0.0159136
691.734	0.0158131
691.812	0.0157301
691.890	0.0156817
691.968	0.0155236
692.046	0.0151084
692.124	0.0149854
692.203	0.0146168
692.281	0.0144856
692.359	0.0141619
692.437	0.0138208
692.515	0.0136696
692.593	0.0133958
692.671	0.0131540
692.749	0.0128455
692.828	0.0125741
692.906	0.0124605
692.984	0.0122853
693.062	0.0121405
693.140	0.0120016
693.218	0.0118687
693.296	0.0119498
693.374	0.0121111
693.453	0.0120462
693.531	0.0121294
693.609	0.0120781
693.687	0.0123525
693.765	0.0122859
693.843	0.0124151
693.921	0.0125763
693.999	0.0128104
694.078	0.0128626
694.156	0.0128767
694.234	0.0128890
694.312	0.0131226
694.390	0.0132944
694.468	0.0132176
694.546	0.0133617
694.624	0.0135670
694.703	0.0136000
694.781	0.0137320
694.859	0.0139928
694.937	0.0139601
695.015	0.0140015
695.093	0.0141267
695.171	0.0140806
695.249	0.0140897
695.328	0.0140034
695.406	0.0142229
695.484	0.0141729
695.562	0.0140881
695.640	0.0141021
695.718	0.0141338
695.796	0.0140663
695.874	0.0142377
695.953	0.0143858
696.031	0.0145483
696.109	0.0145983
696.187	0.0145564
696.265	0.0148092
696.343	0.0148974
696.421	0.0149349
696.499	0.0149201
696.578	0.0148698
696.656	0.0149271
696.734	0.0146507
696.812	0.0146291
696.890	0.0145191
696.968	0.0140981
697.046	0.0140577
697.124	0.0139520
697.203	0.0135761
697.281	0.0134518
697.359	0.0134415
697.437	0.0133132
697.515	0.0131403
697.593	0.0130226
697.671	0.0131163
697.749	0.0130576
697.828	0.0130608
697.906	0.0129970
697.984	0.0129523
698.062	0.0129239
698.140	0.0129187
698.218	0.0127841
698.296	0.0128230
698.374	0.0127061
698.453	0.0127470
698.531	0.0125419
698.609	0.0126520
698.687	0.0125904
698.765	0.0126383
698.843	0.0126383
698.921	0.0126169
698.999	0.0124876
699.078	0.0126678
699.156	0.0125771
699.234	0.0126409
699.312	0.0127903
699.390	0.0129704
699.468	0.0129649
699.546	0.0131837
699.624	0.0132738
699.703	0.0134952
699.781	0.0136749
699.859	0.0138714
699.937	0.0141810
700.015	0.0141928
700.093	0.0146096
700.171	0.0148820
700.249	0.0152397
700.328	0.0152971
700.406	0.0152602
700.484	0.0155702
700.562	0.0157464
700.640	0.0156863
700.718	0.0157619
700.796	0.0159406
700.874	0.0157561
700.953	0.0155701
701.031	0.0153116
701.109	0.0150788
701.187	0.0150224
701.265	0.0148405
701.343	0.0143645
701.421	0.0140127
701.499	0.0137151
701.578	0.0134123
701.656	0.0131689
701.734	0.0128929
701.812	0.0125630
701.890	0.0124484
701.968	0.0122775
702.046	0.0121571
702.124	0.0121050
702.203	0.0122257
702.281	0.0122474
702.359	0.0121252
702.437	0.0123166
702.515	0.0123569
702.593	0.0122136
702.671	0.0123586
702.749	0.0124617
702.828	0.0124446
702.906	0.0123600
702.984	0.0124773
703.062	0.0127214
703.140	0.0125863
703.218	0.0128104
703.296	0.0128355
703.374	0.0129926
703.453	0.0132223
703.531	0.0134090
703.609	0.0136324
703.687	0.0137907
703.765	0.0140090
703.843	0.0140920
703.921	0.0142666
703.999	0.0144733
704.078	0.0144304
704.156	0.0145141
704.234	0.0145029
704.312	0.0145625
704.390	0.0144513
704.468	0.0144579
704.546	0.0144298
704.624	0.0143671
704.703	0.0142775
704.781	0.0141547
704.859	0.0141042
704.937	0.0138487
705.015	0.0136105
705.093	0.0135475
705.171	0.0132614
705.249	0.0132983
705.328	0.0132166
705.406	0.0129442
705.484	0.0128317
705.562	0.0129465
705.640	0.0129427
705.718	0.0129622
705.796	0.0129276
705.874	0.0131615
705.953	0.0132334
706.031	0.0132926
706.109	0.0134338
706.187	0.0137441
706.265	0.0137082
706.343	0.0138901
706.421	0.0141106
706.499	0.0140727
706.578	0.0142361
706.656	0.0142049
706.734	0.0143123
706.812	0.0144530
706.890	0.0141327
706.968	0.0141705
707.046	0.0140485
707.124	0.0141459
707.203	0.0139196
707.281	0.0137306
707.359	0.0137271
707.437	0.0137623
707.515	0.0137370
707.593	0.0134389
707.671	0.0133479
707.749	0.0133726
707.828	0.0131506
707.906	0.0129358
707.984	0.0128502
708.062	0.0127377
708.140	0.0127633
708.218	0.0128377
708.296	0.0126853
708.374	0.0126254
708.453	0.0126814
708.531	0.0127048
708.609	0.0126287
708.687	0.0127529
708.765	0.0127916
708.843	0.0129631
708.921	0.0128278
708.999	0.0131876
709.078	0.0131462
709.156	0.0132956
709.234	0.0134007
709.312	0.0136793
709.390	0.0138774
709.468	0.0139677
709.546	0.0141125
709.624	0.0142538
709.703	0.0141590
709.781	0.0143674
709.859	0.0143416
709.937	0.0143190
710.015	0.0141205
710.093	0.0141245
710.171	0.0140328
710.249	0.0139848
710.328	0.0139259
710.406	0.0137897
710.484	0.0137402
710.562	0.0136183
710.640	0.0135671
710.718	0.0135150
710.796	0.0133859
710.874	0.0134578
710.953	0.0132874
711.031	0.0135098
711.109	0.0134717
711.187	0.0135616
711.265	0.0135807
711.343	0.0136861
711.421	0.0135524
711.499	0.0137015
711.578	0.0138052
711.656	0.0137954
711.734	0.0136659
711.812	0.0136864
711.890	0.0138683
711.968	0.0138748
712.046	0.0136198
712.124	0.0138614
712.203	0.0140057
712.281	0.0137080
712.359	0.0137152
712.437	0.0137883
712.515	0.0135886
712.593	0.0135503
712.671	0.0135406
712.749	0.0135179
712.828	0.0133847
712.906	0.0132834
712.984	0.0133564
713.062	0.0133123
713.140	0.0133250
713.218	0.0134307
713.296	0.0134931
713.374	0.0135559
713.453	0.0135384
713.531	0.0138099
713.609	0.0137539
713.687	0.0139063
713.765	0.0140275
713.843	0.0139082
713.921	0.0139392
713.999	0.0141483
714.078	0.0140482
714.156	0.0140856
714.234	0.0141399
714.312	0.0141211
714.390	0.0140938
714.468	0.0140154
714.546	0.0139461
714.624	0.0139120
714.703	0.0138055
714.781	0.0136735
714.859	0.0134086
714.937	0.0134734
715.015	0.0133841
715.093	0.0134404
715.171	0.0133479
715.249	0.0131471
715.328	0.0132336
715.406	0.0133484
715.484	0.0131990
715.562	0.0134295
715.640	0.0133366
715.718	0.0133294
715.796	0.0134999
715.874	0.0135030
715.953	0.0135434
716.031	0.0135943
716.109	0.0135846
716.187	0.0136612
716.265	0.0135417
716.343	0.0136292
716.421	0.0136709
716.499	0.0136789
716.578	0.0137068
716.656	0.0136478
716.734	0.0136086
716.812	0.0134635
716.890	0.0134874
716.968	0.0133926
717.046	0.0134702
717.124	0.0132841
717.203	0.0134670
717.281	0.0134087
717.359	0.0133238
717.437	0.0136130
717.515	0.0139751
717.593	0.0140183
717.671	0.0142455
717.749	0.0140621
717.828	0.0143223
717.906	0.0143555
717.984	0.0144302
718.062	0.0144849
718.140	0.0145686
718.218	0.0144646
718.296	0.0144980
718.374	0.0142612
718.453	0.0139909
718.531	0.0139393
718.609	0.0138643
718.687	0.0138099
718.765	0.0134872
718.843	0.0133495
718.921	0.0132903
718.999	0.0132446
719.078	0.0130783
719.156	0.0131776
719.234	0.0131923
719.312	0.0132426
719.390	0.0131486
719.468	0.0131886
719.546	0.0135178
719.624	0.0135081
719.703	0.0136108
719.781	0.0136955
719.859	0.0138561
719.937	0.0141322
720.015	0.0141030
720.093	0.0140263
720.171	0.0141509
720.249	0.0141682
720.328	0.0140853
720.406	0.0141668
720.484	0.0139529
720.562	0.0137593
720.640	0.0137731
720.718	0.0136033
720.796	0.0136826
720.874	0.0136556
720.953	0.0134509
721.031	0.0135431
721.109	0.0135022
721.187	0.0134839
721.265	0.0136096
721.343	0.0137044
721.421	0.0138455
721.499	0.0139151
721.578	0.0138647
721.656	0.0141079
721.734	0.0140584
721.812	0.0141071
721.890	0.0139989
721.968	0.0139963
722.046	0.0139410
722.124	0.0139901
722.203	0.0137639
722.281	0.0135353
722.359	0.0135486
722.437	0.0134306
722.515	0.0133067
722.593	0.0132312
722.671	0.0130520
722.749	0.0130144
722.828	0.0130953
722.906	0.0131053
722.984	0.0130820
723.062	0.0129269
723.140	0.0131861
723.218	0.0131686
723.296	0.0133862
723.374	0.0134829
723.453	0.0134400
723.531	0.0135497
723.609	0.0134573
723.687	0.0136361
723.765	0.0137937
723.843	0.0138571
723.921	0.0138540
723.999	0.0137367
724.078	0.0137726
724.156	0.0137989
724.234	0.0137280
724.312	0.0140141
724.390	0.0140205
724.468	0.0141216
724.546	0.0140888
724.624	0.0141550
724.703	0.0141433
724.781	0.0142625
724.859	0.0141788
724.937	0.0142802
725.015	0.0143566
725.093	0.0142964
725.171	0.0141383
725.249	0.0142089
725.328	0.0140232
725.406	0.0139632
725.484	0.0139668
725.562	0.0138641
725.640	0.0136849
725.718	0.0135595
725.796	0.0134873
725.874	0.0134686
725.953	0.0132668
726.031	0.0132470
726.109	0.0133297
726.187	0.0132616
726.265	0.0131915
726.343	0.0133778
726.421	0.0133146
726.499	0.0133557
726.578	0.0136016
726.656	0.0136783
726.734	0.0137124
726.812	0.0137479
726.890	0.0138103
726.968	0.0138647
727.046	0.0138840
727.124	0.0138195
727.203	0.0137871
727.281	0.0136960
727.359	0.0138395
727.437	0.0135718
727.515	0.0135468
727.593	0.0136333
727.671	0.0133450
727.749	0.0132740
727.828	0.0132811
727.906	0.0133105
727.984	0.0131700
728.062	0.0128578
728.140	0.0129399
728.218	0.0128852
728.296	0.0128551
728.374	0.0128948
728.453	0.0129594
728.531	0.0130096
728.609	0.0130601
728.687	0.0130296
728.765	0.0133064
728.843	0.0134457
728.921	0.0135744
728.999	0.0136318
729.078	0.0137652
729.156	0.0137165
729.234	0.0139651
729.312	0.0139079
729.390	0.0139842
729.468	0.0138956
729.546	0.0137940
729.624	0.0138805
729.703	0.0138369
729.781	0.0138939
729.859	0.0136260
729.937	0.0135803
730.015	0.0137522
730.093	0.0137818
730.171	0.0136273
730.249	0.0135445
730.328	0.0137134
730.406	0.0137281
730.484	0.0137815
730.562	0.0138223
730.640	0.0138721
730.718	0.0138419
730.796	0.0138985
730.874	0.0138190
730.953	0.0138495
731.031	0.0139146
731.109	0.0140401
731.187	0.0139084
731.265	0.0138193
731.343	0.0138118
731.421	0.0139088
731.499	0.0138367
731.578	0.0137936
731.656	0.0137602
731.734	0.0136637
731.812	0.0136289
731.890	0.0134408
731.968	0.0135954
732.046	0.0135085
732.124	0.0133887
732.203	0.0134803
732.281	0.0134431
732.359	0.0133635
732.437	0.0133551
732.515	0.0134325
732.593	0.0134712
732.671	0.0134161
732.749	0.0134671
732.828	0.0135123
732.906	0.0134753
732.984	0.0135905
733.062	0.0136760
733.140	0.0136146
733.218	0.0137461
733.296	0.0137595
733.374	0.0136474
733.453	0.0137530
733.531	0.0138292
733.609	0.0137337
733.687	0.0138372
733.765	0.0137968
733.843	0.0137952
733.921	0.0139078
733.999	0.0138165
734.078	0.0136835
734.156	0.0136640
734.234	0.0137126
734.312	0.0137329
734.390	0.0135236
734.468	0.0135468
734.546	0.0136596
734.624	0.0135785
734.703	0.0135506
734.781	0.0135072
734.859	0.0133957
734.937	0.0135341
735.015	0.0134155
735.093	0.0133823
735.171	0.0134216
735.249	0.0134795
735.328	0.0133741
735.406	0.0133421
735.484	0.0134116
735.562	0.0133396
735.640	0.0135291
735.718	0.0133851
735.796	0.0135445
735.874	0.0135678
735.953	0.0134419
736.031	0.0136046
736.109	0.0135742
736.187	0.0136835
736.265	0.0139587
736.343	0.0138021
736.421	0.0139913
736.499	0.0139740
736.578	0.0138603
736.656	0.0140276
736.734	0.0140622
736.812	0.0141362
736.890	0.0141077
736.968	0.0139052
737.046	0.0140125
737.124	0.0139337
737.203	0.0138963
737.281	0.0138035
737.359	0.0135893
737.437	0.0138083
737.515	0.0137063
737.593	0.0135830
737.671	0.0135806
737.749	0.0135324
737.828	0.0136079
737.906	0.0136481
737.984	0.0137605
738.062	0.0136069
738.140	0.0137115
738.218	0.0137184
738.296	0.0137497
738.374	0.0138023
738.453	0.0137400
738.531	0.0135860
738.609	0.0136995
738.687	0.0135357
738.765	0.0134590
738.843	0.0134361
738.921	0.0134073
738.999	0.0133012
739.078	0.0132436
739.156	0.0132986
739.234	0.0131405
739.312	0.0131913
739.390	0.0131440
739.468	0.0131297
739.546	0.0131964
739.624	0.0133675
739.703	0.0132738
739.781	0.0134472
739.859	0.0134380
739.937	0.0135741
740.015	0.0136599
740.093	0.0138853
740.171	0.0139122
740.249	0.0140955
740.328	0.0139917
740.406	0.0141778
740.484	0.0142039
740.562	0.0142307
740.640	0.0144112
740.718	0.0143413
740.796	0.0141989
740.874	0.0142096
740.953	0.0141711
741.031	0.0141487
741.109	0.0140935
741.187	0.0139198
741.265	0.0138643
741.343	0.0137717
741.421	0.0136578
741.499	0.0136813
741.578	0.0135776
741.656	0.0135567
741.734	0.0136481
741.812	0.0135043
741.890	0.0134568
741.968	0.0134753
742.046	0.0135538
742.124	0.0135802
742.203	0.0135605
742.281	0.0135616
742.359	0.0135110
742.437	0.0136467
742.515	0.0136718
742.593	0.0135765
742.671	0.0135224
742.749	0.0136263
742.828	0.0134984
742.906	0.0135123
742.984	0.0134927
743.062	0.0135470
743.140	0.0134462
743.218	0.0134287
743.296	0.0135787
743.374	0.0135555
743.453	0.0134570
743.531	0.0134389
743.609	0.0136087
743.687	0.0135644
743.765	0.0136314
743.843	0.0135877
743.921	0.0137851
743.999	0.0137822
744.078	0.0138779
744.156	0.0137601
744.234	0.0137267
744.312	0.0138655
744.390	0.0139053
744.468	0.0139054
744.546	0.0139126
744.624	0.0138706
744.703	0.0138029
744.781	0.0139397
744.859	0.0137113
744.937	0.0138587
745.015	0.0137232
745.093	0.0137869
745.171	0.0136666
745.249	0.0136884
745.328	0.0136060
745.406	0.0136266
745.484	0.0137222
745.562	0.0137093
745.640	0.0136170
745.718	0.0137171
745.796	0.0138096
745.874	0.0137476
745.953	0.0137648
746.031	0.0137326
746.109	0.0137812
746.187	0.0136123
746.265	0.0137720
746.343	0.0136624
746.421	0.0135401
746.499	0.0134605
746.578	0.0136577
746.656	0.0136112
746.734	0.0134884
746.812	0.0135111
746.890	0.0135485
746.968	0.0136535
747.046	0.0135977
747.124	0.0135643
747.203	0.0136765
747.281	0.0137962
747.359	0.0138306
747.437	0.0138712
747.515	0.0139239
747.593	0.0138444
747.671	0.0139030
747.749	0.0138792
747.828	0.0139430
747.906	0.0138849
747.984	0.0138544
748.062	0.0136982
748.140	0.0136460
748.218	0.0137785
748.296	0.0134913
748.374	0.0133868
748.453	0.0133665
748.531	0.0133405
748.609	0.0132745
748.687	0.0132910
748.765	0.0131961
748.843	0.0131369
748.921	0.0131837
748.999	0.0132128
749.078	0.0130308
749.156	0.0132625
749.234	0.0132925
749.312	0.0134692
749.390	0.0131644
749.468	0.0132971
749.546	0.0135374
749.624	0.0133820
749.703	0.0134411
749.781	0.0137495
749.859	0.0136559
749.937	0.0136720
750.015	0.0136449
750.093	0.0137203
750.171	0.0138024
750.249	0.0137653
750.328	0.0139426
750.406	0.0139263
750.484	0.0138573
750.562	0.0137306
750.640	0.0136973
750.718	0.0136045
750.796	0.0135739
750.874	0.0135911
750.953	0.0135124
751.031	0.0134260
751.109	0.0134932
751.187	0.0134195
751.265	0.0134366
751.343	0.0136638
751.421	0.0136637
751.499	0.0135922
751.578	0.0136325
751.656	0.0137868
751.734	0.0136522
751.812	0.0138067
751.890	0.0137386
751.968	0.0139224
752.046	0.0138478
752.124	0.0137325
752.203	0.0136810
752.281	0.0137132
752.359	0.0135251
752.437	0.0135227
752.515	0.0134072
752.593	0.0134413
752.671	0.0134318
752.749	0.0132140
752.828	0.0130573
752.906	0.0131440
752.984	0.0130447
753.062	0.0130309
753.140	0.0131834
753.218	0.0130460
753.296	0.0129694
753.374	0.0129267
753.453	0.0130362
753.531	0.0132174
753.609	0.0132829
753.687	0.0132412
753.765	0.0133523
753.843	0.0133802
753.921	0.0135767
753.999	0.0136673
754.078	0.0136781
754.156	0.0136746
754.234	0.0138000
754.312	0.0139061
754.390	0.0137521
754.468	0.0140244
754.546	0.0138821
754.624	0.0139682
754.703	0.0137788
754.781	0.0138674
754.859	0.0140633
754.937	0.0140948
755.015	0.0140420
755.093	0.0140520
755.171	0.0140252
755.249	0.0139893
755.328	0.0138726
755.406	0.0138790
755.484	0.0138766
755.562	0.0138794
755.640	0.0137908
755.718	0.0137855
755.796	0.0137453
755.874	0.0136414
755.953	0.0135683
756.031	0.0134811
756.109	0.0134266
756.187	0.0133396
756.265	0.0134595
756.343	0.0130848
756.421	0.0132610
756.499	0.0132284
756.578	0.0131577
756.656	0.0132202
756.734	0.0132003
756.812	0.0130700
756.890	0.0130328
756.968	0.0131007
757.046	0.0132734
757.124	0.0131967
757.203	0.0133060
757.281	0.0133121
757.359	0.0133778
757.437	0.0133185
757.515	0.0134374
757.593	0.0137160
757.671	0.0135907
757.749	0.0136705
757.828	0.0135526
757.906	0.0137367
757.984	0.0137411
758.062	0.0136916
758.140	0.0137370
758.218	0.0138083
758.296	0.0138708
758.374	0.0140515
758.453	0.0138177
758.531	0.0140206
758.609	0.0141682
758.687	0.0140530
758.765	0.0139705
758.843	0.0141354
758.921	0.0141996
758.999	0.0140691
759.078	0.0141065
759.156	0.0140837
759.234	0.0141055
759.312	0.0140872
759.390	0.0139227
759.468	0.0139303
759.546	0.0138775
759.624	0.0138535
759.703	0.0135700
759.781	0.0135453
759.859	0.0136270
759.937	0.0135419
760.015	0.0133602
760.093	0.0133024
760.171	0.0132668
760.249	0.0134196
760.328	0.0132898
760.406	0.0132609
760.484	0.0132082
760.562	0.0136204
760.640	0.0134839
760.718	0.0135640
760.796	0.0134896
760.874	0.0135595
760.953	0.0134985
761.031	0.0135206
761.109	0.0136757
761.187	0.0136922
761.265	0.0136330
761.343	0.0136899
761.421	0.0138285
761.499	0.0137926
761.578	0.0138118
761.656	0.0136845
761.734	0.0138039
761.812	0.0137611
761.890	0.0137411
761.968	0.0136953
762.046	0.0137891
762.124	0.0138150
762.203	0.0138019
762.281	0.0138052
762.359	0.0138419
762.437	0.0138002
762.515	0.0136128
762.593	0.0138222
762.671	0.0138673
762.749	0.0137728
762.828	0.0136663
762.906	0.0138240
762.984	0.0138299
763.062	0.0139192
763.140	0.0140048
763.218	0.0139615
763.296	0.0139114
763.374	0.0138787
763.453	0.0141582
763.531	0.0141090
763.609	0.0139832
763.687	0.0139848
763.765	0.0139874
763.843	0.0139378
763.921	0.0138507
763.999	0.0138712
764.078	0.0138624
764.156	0.0137266
764.234	0.0137438
764.312	0.0134911
764.390	0.0134946
764.468	0.0134778
764.546	0.0134165
764.624	0.0132865
764.703	0.0132796
764.781	0.0135744
764.859	0.0135092
764.937	0.0134673
765.015	0.0134045
765.093	0.0135087
765.171	0.0134402
765.249	0.0133525
765.328	0.0134557
765.406	0.0134957
765.484	0.0136314
765.562	0.0135352
765.640	0.0134457
765.718	0.0136884
765.796	0.0138105
765.874	0.0138050
765.953	0.0138243
766.031	0.0139977
766.109	0.0138655
766.187	0.0138948
766.265	0.0138684
766.343	0.0140105
766.421	0.0139725
766.499	0.0138728
766.578	0.0139576
766.656	0.0140852
766.734	0.0140455
766.812	0.0139725
766.890	0.0139536
766.968	0.0138966
767.046	0.0140503
767.124	0.0139762
767.203	0.0138716
767.281	0.0139886
767.359	0.0139291
767.437	0.0138631
767.515	0.0137671
767.593	0.0138517
767.671	0.0139407
767.749	0.0139507
767.828	0.0138250
767.906	0.0137696
767.984	0.0137883
768.062	0.0136987
768.140	0.0138657
768.218	0.0136747
768.296	0.0136574
768.374	0.0137584
768.453	0.0136159
768.531	0.0136730
768.609	0.0133833
768.687	0.0136044
768.765	0.0137457
768.843	0.0135774
768.921	0.0135384
768.999	0.0136133
769.078	0.0134387
769.156	0.0135941
769.234	0.0136688
769.312	0.0135732
769.390	0.0136331
769.468	0.0135460
769.546	0.0134998
769.624	0.0134830
769.703	0.0134717
769.781	0.0135754
769.859	0.0133937
769.937	0.0134930
770.015	0.0135406
770.093	0.0135180
770.171	0.0135026
770.249	0.0134201
770.328	0.0134380
770.406	0.0134266
770.484	0.0133889
770.562	0.0133410
770.640	0.0134411
770.718	0.0132491
770.796	0.0133588
770.874	0.0132534
770.953	0.0133347
771.031	0.0132929
771.109	0.0133755
771.187	0.0132413
771.265	0.0133049
771.343	0.0132895
771.421	0.0132866
771.499	0.0133530
771.578	0.0132574
771.656	0.0132529
771.734	0.0134999
771.812	0.0136877
771.890	0.0135875
771.968	0.0135349
772.046	0.0136351
772.124	0.0136067
772.203	0.0138365
772.281	0.0139441
772.359	0.0138604
772.437	0.0137862
772.515	0.0138183
772.593	0.0137830
772.671	0.0139118
772.749	0.0136157
772.828	0.0138303
772.906	0.0138279
772.984	0.0137671
773.062	0.0138966
773.140	0.0135703
773.218	0.0136041
773.296	0.0137230
773.374	0.0136084
773.453	0.0135699
773.531	0.0135786
773.609	0.0135519
773.687	0.0134172
773.765	0.0136423
773.843	0.0135314
773.921	0.0134341
773.999	0.0134835
774.078	0.0135856
774.156	0.0135529
774.234	0.0134941
774.312	0.0135162
774.390	0.0135532
774.468	0.0135371
774.546	0.0136575
774.624	0.0136755
774.703	0.0136389
774.781	0.0136128
774.859	0.0136015
774.937	0.0137095
775.015	0.0135539
775.093	0.0136090
775.171	0.0136589
775.249	0.0135693
775.328	0.0136443
775.406	0.0135316
775.484	0.0134315
775.562	0.0135540
775.640	0.0136034
775.718	0.0134904
775.796	0.0135163
775.874	0.0135097
775.953	0.0136306
776.031	0.0135313
776.109	0.0134464
776.187	0.0136012
776.265	0.0135202
776.343	0.0135300
776.421	0.0136537
776.499	0.0135023
776.578	0.0135145
776.656	0.0135179
776.734	0.0134967
776.812	0.0134315
776.890	0.0135547
776.968	0.0135207
777.046	0.0134618
777.124	0.0135374
777.203	0.0134573
777.281	0.0134526
777.359	0.0135045
777.437	0.0133989
777.515	0.0134232
777.593	0.0132907
777.671	0.0133757
777.749	0.0134835
777.828	0.0134017
777.906	0.0133060
777.984	0.0132590
778.062	0.0134269
778.140	0.0134956
778.218	0.0135419
778.296	0.0134130
778.374	0.0134102
778.453	0.0136018
778.531	0.0135188
778.609	0.0134692
778.687	0.0136793
778.765	0.0136229
778.843	0.0136555
778.921	0.0135593
778.999	0.0138305
779.078	0.0138272
779.156	0.0137939
779.234	0.0138092
779.312	0.0139288
779.390	0.0139595
779.468	0.0139091
779.546	0.0140525
779.624	0.0140524
779.703	0.0139655
779.781	0.0140170
779.859	0.0141192
779.937	0.0139482
780.015	0.0140485
780.093	0.0140006
780.171	0.0137984
780.249	0.0137971
780.328	0.0136800
780.406	0.0137168
780.484	0.0136464
780.562	0.0135741
780.640	0.0135874
780.718	0.0134122
780.796	0.0134567
780.874	0.0134017
780.953	0.0133659
781.031	0.0133035
781.109	0.0133634
781.187	0.0132475
781.265	0.0133549
781.343	0.0133274
781.421	0.0132601
781.499	0.0133227
781.578	0.0134623
781.656	0.0133904
781.734	0.0134499
781.812	0.0134264
781.890	0.0134689
781.968	0.0136324
782.046	0.0136385
782.124	0.0137016
782.203	0.0136039
782.281	0.0137492
782.359	0.0138449
782.437	0.0139180
782.515	0.0136822
782.593	0.0137517
782.671	0.0137854
782.749	0.0138660
782.828	0.0137951
782.906	0.0138542
782.984	0.0137837
783.062	0.0137743
783.140	0.0139197
783.218	0.0137852
783.296	0.0136700
783.374	0.0136572
783.453	0.0137449
783.531	0.0137071
783.609	0.0137664
783.687	0.0138007
783.765	0.0135210
783.843	0.0135774
783.921	0.0136462
783.999	0.0137175
784.078	0.0136660
784.156	0.0137316
784.234	0.0138099
784.312	0.0136714
784.390	0.0136874
784.468	0.0136862
784.546	0.0136490
784.624	0.0136329
784.703	0.0136899
784.781	0.0137644
784.859	0.0136328
784.937	0.0137418
785.015	0.0135680
785.093	0.0136839
785.171	0.0136499
785.249	0.0134881
785.328	0.0136381
785.406	0.0136201
785.484	0.0135975
785.562	0.0136015
785.640	0.0134838
785.718	0.0136192
785.796	0.0135777
785.874	0.0134672
785.953	0.0135865
786.031	0.0134492
786.109	0.0136121
786.187	0.0135142
786.265	0.0135365
786.343	0.0134708
786.421	0.0134771
786.499	0.0134388
786.578	0.0135516
786.656	0.0135815
786.734	0.0135767
786.812	0.0133904
786.890	0.0135098
786.968	0.0136149
787.046	0.0135548
787.124	0.0135903
787.203	0.0136506
787.281	0.0137534
787.359	0.0135415
787.437	0.0136333
787.515	0.0136700
787.593	0.0135996
787.671	0.0136731
787.749	0.0138122
787.828	0.0138503
787.906	0.0137762
787.984	0.0137786
788.062	0.0139001
788.140	0.0138801
788.218	0.0139429
788.296	0.0139730
788.374	0.0139344
788.453	0.0138729
788.531	0.0139436
788.609	0.0140004
788.687	0.0141148
788.765	0.0141510
788.843	0.0140472
788.921	0.0139632
788.999	0.0142350
789.078	0.0140868
789.156	0.0140643
789.234	0.0140636
789.312	0.0140203
789.390	0.0138074
789.468	0.0138750
789.546	0.0138673
789.624	0.0137505
789.703	0.0137144
789.781	0.0134203
789.859	0.0134065
789.937	0.0133973
790.015	0.0133456
790.093	0.0133166
790.171	0.0132859
790.249	0.0131840
790.328	0.0132110
790.406	0.0132321
790.484	0.0132950
790.562	0.0133353
790.640	0.0133781
790.718	0.0135437
790.796	0.0135842
790.874	0.0135375
790.953	0.0133954
791.031	0.0134943
791.109	0.0135873
791.187	0.0137592
791.265	0.0136974
791.343	0.0137950
791.421	0.0138826
791.499	0.0137212
791.578	0.0136143
791.656	0.0137486
791.734	0.0137620
791.812	0.0137502
791.890	0.0138927
791.968	0.0137852
792.046	0.0137534
792.124	0.0139273
792.203	0.0138616
792.281	0.0137860
792.359	0.0138116
792.437	0.0138318
792.515	0.0136843
792.593	0.0137139
792.671	0.0138425
792.749	0.0137238
792.828	0.0138302
792.906	0.0137293
792.984	0.0136617
793.062	0.0137267
793.140	0.0138181
793.218	0.0137710
793.296	0.0136588
793.374	0.0137978
793.453	0.0138567
793.531	0.0139769
793.609	0.0138934
793.687	0.0139881
793.765	0.0138641
793.843	0.0137617
793.921	0.0137875
793.999	0.0138330
794.078	0.0137839
794.156	0.0138995
794.234	0.0137161
794.312	0.0136700
794.390	0.0136298
794.468	0.0136669
794.546	0.0135875
794.624	0.0135065
794.703	0.0137360
794.781	0.0135682
794.859	0.0135638
794.937	0.0135536
795.015	0.0135500
795.093	0.0135770
795.171	0.0134982
795.249	0.0135244
795.328	0.0134220
795.406	0.0135688
795.484	0.0133856
795.562	0.0134142
795.640	0.0135549
795.718	0.0135265
795.796	0.0136927
795.874	0.0135836
795.953	0.0132442
796.031	0.0135635
796.109	0.0136790
796.187	0.0135648
796.265	0.0136510
796.343	0.0135705
796.421	0.0135541
796.499	0.0136804
796.578	0.0136986
796.656	0.0138235
796.734	0.0136396
796.812	0.0136040
796.890	0.0137114
796.968	0.0136481
797.046	0.0135811
797.124	0.0137655
797.203	0.0137402
797.281	0.0136740
797.359	0.0137717
797.437	0.0136758
797.515	0.0136825
797.593	0.0137199
797.671	0.0136629
797.749	0.0137742
797.828	0.0136674
797.906	0.0136288
797.984	0.0137250
798.062	0.0135803
798.140	0.0134311
798.218	0.0134777
798.296	0.0136546
798.374	0.0134882
798.453	0.0134243
798.531	0.0132944
798.609	0.0133495
798.687	0.0133545
798.765	0.0132883
798.843	0.0134321
798.921	0.0133225
798.999	0.0133255
799.078	0.0135554
799.156	0.0135989
799.234	0.0136801
799.312	0.0136751
799.390	0.0137244
799.468	0.0136797
799.546	0.0138628
799.624	0.0138277
799.703	0.0140697
799.781	0.0139137
799.859	0.0140558
799.937	0.0140018
800.015	0.0139174
800.093	0.0138634
800.171	0.0139257
800.249	0.0139655
800.328	0.0138065
800.406	0.0138551
800.484	0.0138737
800.562	0.0138087
800.640	0.0137865
800.718	0.0137894
800.796	0.0137755
800.874	0.0137185
800.953	0.0136874
801.031	0.0136826
801.109	0.0137327
801.187	0.0137141
801.265	0.0135661
801.343	0.0136330
801.421	0.0134420
801.499	0.0134332
801.578	0.0134422
801.656	0.0135522
801.734	0.0133463
801.812	0.0134209
801.890	0.0134544
801.968	0.0135420
802.046	0.0134879
802.124	0.0134526
802.203	0.0133604
802.281	0.0134999
802.359	0.0134460
802.437	0.0132925
802.515	0.0133721
802.593	0.0133065
802.671	0.0133711
802.749	0.0132260
802.828	0.0134080
802.906	0.0134213
802.984	0.0133501
803.062	0.0133762
803.140	0.0135303
803.218	0.0134657
803.296	0.0135330
803.374	0.0136997
803.453	0.0136128
803.531	0.0135548
803.609	0.0136763
803.687	0.0138165
803.765	0.0136581
803.843	0.0136467
803.921	0.0137170
803.999	0.0137480
804.078	0.0137045
804.156	0.0136208
804.234	0.0137403
804.312	0.0138926
804.390	0.0137868
804.468	0.0136174
804.546	0.0136155
804.624	0.0136629
804.703	0.0136200
804.781	0.0136884
804.859	0.0135091
804.937	0.0135056
805.015	0.0135630
805.093	0.0137083
805.171	0.0136212
805.249	0.0135483
805.328	0.0133918
805.406	0.0134472
805.484	0.0134276
805.562	0.0135976
805.640	0.0134261
805.718	0.0133707
805.796	0.0134765
805.874	0.0133678
805.953	0.0134598
806.031	0.0133602
806.109	0.0134506
806.187	0.0133928
806.265	0.0133768
806.343	0.0134631
806.421	0.0134241
806.499	0.0134042
806.578	0.0133758
806.656	0.0134363
806.734	0.0135263
806.812	0.0134761
806.890	0.0136408
806.968	0.0135867
807.046	0.0135702
807.124	0.0136951
807.203	0.0136292
807.281	0.0136172
807.359	0.0137180
807.437	0.0138838
807.515	0.0138169
807.593	0.0138052
807.671	0.0137197
807.749	0.0138215
807.828	0.0138468
807.906	0.0137149
807.984	0.0136650
808.062	0.0136383
808.140	0.0137626
808.218	0.0137215
808.296	0.0138116
808.374	0.0137106
808.453	0.0136452
808.531	0.0136985
808.609	0.0136603
808.687	0.0137031
808.765	0.0136760
808.843	0.0138815
808.921	0.0137728
808.999	0.0137096
809.078	0.0137479
809.156	0.0136989
809.234	0.0137299
809.312	0.0136893
809.390	0.0136970
809.468	0.0135806
809.546	0.0136294
809.624	0.0137473
809.703	0.0136913
809.781	0.0136772
809.859	0.0135953
809.937	0.0136052
810.015	0.0135889
810.093	0.0136630
810.171	0.0136073
810.249	0.0136900
810.328	0.0136967
810.406	0.0137289
810.484	0.0136148
810.562	0.0137093
810.640	0.0136948
810.718	0.0137481
810.796	0.0135611
810.874	0.0136472
810.953	0.0135325
811.031	0.0136610
811.109	0.0135544
811.187	0.0135972
811.265	0.0135382
811.343	0.0135167
811.421	0.0136008
811.499	0.0135633
811.578	0.0135381
811.656	0.0136387
811.734	0.0136022
811.812	0.0135806
811.890	0.0137724
811.968	0.0138004
812.046	0.0136985
812.124	0.0137218
812.203	0.0139307
812.281	0.0136492
812.359	0.0137208
812.437	0.0135985
812.515	0.0136680
812.593	0.0136586
812.671	0.0135964
812.749	0.0137006
812.828	0.0136290
812.906	0.0135979
812.984	0.0135350
813.062	0.0135152
813.140	0.0135927
813.218	0.0135893
813.296	0.0135423
813.374	0.0135976
813.453	0.0135002
813.531	0.0133968
813.609	0.0135349
813.687	0.0136820
813.765	0.0136867
813.843	0.0137300
813.921	0.0137025
813.999	0.0137961
814.078	0.0137155
814.156	0.0138254
814.234	0.0138260
814.312	0.0139181
814.390	0.0138818
814.468	0.0137994
814.546	0.0137402
814.624	0.0138751
814.703	0.0138550
814.781	0.0138135
814.859	0.0137553
814.937	0.0138889
815.015	0.0138939
815.093	0.0138486
815.171	0.0137704
815.249	0.0137736
815.328	0.0137267
815.406	0.0137449
815.484	0.0137503
815.562	0.0138952
815.640	0.0138229
815.718	0.0137331
815.796	0.0136905
815.874	0.0136950
815.953	0.0136171
816.031	0.0136115
816.109	0.0136021
816.187	0.0135618
816.265	0.0135285
816.343	0.0137000
816.421	0.0135071
816.499	0.0136904
816.578	0.0136341
816.656	0.0136794
816.734	0.0136060
816.812	0.0136658
816.890	0.0136575
816.968	0.0138258
817.046	0.0137968
817.124	0.0138112
817.203	0.0139650
817.281	0.0139069
817.359	0.0139617
817.437	0.0137973
817.515	0.0138720
817.593	0.0137839
817.671	0.0138411
817.749	0.0137402
817.828	0.0135878
817.906	0.0137062
817.984	0.0136828
818.062	0.0135960
818.140	0.0136756
818.218	0.0135069
818.296	0.0135967
818.374	0.0136105
818.453	0.0135825
818.531	0.0135541
818.609	0.0134863
818.687	0.0136747
818.765	0.0137093
818.843	0.0137710
818.921	0.0137023
818.999	0.0136289
819.078	0.0136421
819.156	0.0137402
819.234	0.0137964
819.312	0.0138802
819.390	0.0138351
819.468	0.0138692
819.546	0.0139817
819.624	0.0138594
819.703	0.0139164
819.781	0.0140224
819.859	0.0140485
819.937	0.0138676
820.015	0.0137597
820.093	0.0139429
820.171	0.0137922
820.249	0.0137963
820.328	0.0138261
820.406	0.0137936
820.484	0.0136723
820.562	0.0136221
820.640	0.0137771
820.718	0.0136179
820.796	0.0134551
820.874	0.0134443
820.953	0.0135304
821.031	0.0135937
821.109	0.0135421
821.187	0.0135621
821.265	0.0135495
821.343	0.0135634
821.421	0.0134909
821.499	0.0135787
821.578	0.0136565
821.656	0.0136226
821.734	0.0135703
821.812	0.0136244
821.890	0.0136433
821.968	0.0137309
822.046	0.0135369
822.124	0.0136693
822.203	0.0136982
822.281	0.0135804
822.359	0.0136730
822.437	0.0136052
822.515	0.0135639
822.593	0.0137440
822.671	0.0136649
822.749	0.0137293
822.828	0.0137752
822.906	0.0137593
822.984	0.0137862
823.062	0.0138839
823.140	0.0138715
823.218	0.0140326
823.296	0.0139490
823.374	0.0139140
823.453	0.0139085
823.531	0.0139640
823.609	0.0138042
823.687	0.0139809
823.765	0.0139394
823.843	0.0136835
823.921	0.0138557
823.999	0.0136832
824.078	0.0136403
824.156	0.0137250
824.234	0.0136513
824.312	0.0136664
824.390	0.0135639
824.468	0.0135856
824.546	0.0136819
824.624	0.0136380
824.703	0.0135311
824.781	0.0134942
824.859	0.0135555
824.937	0.0135628
825.015	0.0135960
825.093	0.0136515
825.171	0.0136721
825.249	0.0136140
825.328	0.0136295
825.406	0.0136440
825.484	0.0136914
825.562	0.0136138
825.640	0.0136403
825.718	0.0136736
825.796	0.0136613
825.874	0.0136388
825.953	0.0135786
826.031	0.0136594
826.109	0.0137596
826.187	0.0135911
826.265	0.0137257
826.343	0.0137051
826.421	0.0135567
826.499	0.0137079
826.578	0.0135670
826.656	0.0136736
826.734	0.0135641
826.812	0.0135538
826.890	0.0135403
826.968	0.0135579
827.046	0.0135378
827.124	0.0134906
827.203	0.0136351
827.281	0.0134181
827.359	0.0134599
827.437	0.0135848
827.515	0.0136005
827.593	0.0133159
827.671	0.0136781
827.749	0.0136026
827.828	0.0134967
827.906	0.0137077
827.984	0.0137195
828.062	0.0138215
828.140	0.0137608
828.218	0.0137350
828.296	0.0138620
828.374	0.0137888
828.453	0.0136684
828.531	0.0138214
828.609	0.0136533
828.687	0.0137827
828.765	0.0136571
828.843	0.0135898
828.921	0.0135241
828.999	0.0136115
829.078	0.0135785
829.156	0.0134927
829.234	0.0134911
829.312	0.0135139
829.390	0.0133826
829.468	0.0134058
829.546	0.0135610
829.624	0.0135126
829.703	0.0133390
829.781	0.0133373
829.859	0.0134489
829.937	0.0133172
830.015	0.0134045
830.093	0.0134749
830.171	0.0133679
830.249	0.0133530
830.328	0.0135081
830.406	0.0134398
830.484	0.0133186
830.562	0.0135178
830.640	0.0135674
830.718	0.0134033
830.796	0.0133076
830.874	0.0134315
830.953	0.0133749
831.031	0.0134299
831.109	0.0134818
831.187	0.0134817
831.265	0.0133707
831.343	0.0134236
831.421	0.0134120
831.499	0.0133799
831.578	0.0134344
831.656	0.0134134
831.734	0.0134013
831.812	0.0134907
831.890	0.0134832
831.968	0.0134540
832.046	0.0134094
832.124	0.0134723
832.203	0.0134856
832.281	0.0135145
832.359	0.0134940
832.437	0.0135426
832.515	0.0133997
832.593	0.0135519
832.671	0.0136483
832.749	0.0135421
832.828	0.0135832
832.906	0.0136687
832.984	0.0134726
833.062	0.0134468
833.140	0.0134466
833.218	0.0136747
833.296	0.0135548
833.374	0.0136030
833.453	0.0135195
833.531	0.0135764
833.609	0.0135317
833.687	0.0135441
833.765	0.0136355
833.843	0.0135899
833.921	0.0135699
833.999	0.0136050
834.078	0.0137128
834.156	0.0135118
834.234	0.0135678
834.312	0.0137009
834.390	0.0135036
834.468	0.0136357
834.546	0.0136479
834.624	0.0135740
834.703	0.0137208
834.781	0.0135716
834.859	0.0137297
834.937	0.0135793
835.015	0.0136137
835.093	0.0136747
835.171	0.0136372
835.249	0.0135229
835.328	0.0136304
835.406	0.0135523
835.484	0.0133827
835.562	0.0134365
835.640	0.0132802
835.718	0.0133425
835.796	0.0133945
835.874	0.0133266
835.953	0.0132898
836.031	0.0134540
836.109	0.0133578
836.187	0.0132946
836.265	0.0134201
836.343	0.0134979
836.421	0.0135937
836.499	0.0135333
836.578	0.0135323
836.656	0.0135551
836.734	0.0134599
836.812	0.0135986
836.890	0.0136195
836.968	0.0136060
837.046	0.0136596
837.124	0.0136943
837.203	0.0137952
837.281	0.0137998
837.359	0.0137948
837.437	0.0137244
837.515	0.0138744
837.593	0.0136403
837.671	0.0136829
837.749	0.0136497
837.828	0.0136812
837.906	0.0136579
837.984	0.0136990
838.062	0.0137085
838.140	0.0136802
838.218	0.0137616
838.296	0.0136674
838.374	0.0137441
838.453	0.0137618
838.531	0.0136646
838.609	0.0135646
838.687	0.0137943
838.765	0.0137489
838.843	0.0137769
838.921	0.0137560
838.999	0.0137191
839.078	0.0136354
839.156	0.0135999
839.234	0.0137651
839.312	0.0138548
839.390	0.0137454
839.468	0.0136904
839.546	0.0136272
839.624	0.0135699
839.703	0.0138133
839.781	0.0135646
839.859	0.0135939
839.937	0.0138347
840.015	0.0138116
840.093	0.0138230
840.171	0.0136963
840.249	0.0136688
840.328	0.0136667
840.406	0.0136562
840.484	0.0136890
840.562	0.0137071
840.640	0.0136544
840.718	0.0137408
840.796	0.0136039
840.874	0.0136538
840.953	0.0137346
841.031	0.0136279
841.109	0.0136921
841.187	0.0136383
841.265	0.0137437
841.343	0.0136637
841.421	0.0136142
841.499	0.0137543
841.578	0.0137454
841.656	0.0137060
841.734	0.0137278
841.812	0.0137108
841.890	0.0135957
841.968	0.0137560
842.046	0.0138162
842.124	0.0137254
842.203	0.0138354
842.281	0.0137447
842.359	0.0136977
842.437	0.0136910
842.515	0.0137844
842.593	0.0139022
842.671	0.0136905
842.749	0.0136718
842.828	0.0137916
842.906	0.0136922
842.984	0.0136633
843.062	0.0136733
843.140	0.0136570
843.218	0.0136488
843.296	0.0135836
843.374	0.0136893
843.453	0.0135519
843.531	0.0135392
843.609	0.0136887
843.687	0.0136541
843.765	0.0137809
843.843	0.0136739
843.921	0.0136482
843.999	0.0137415
844.078	0.0137675
844.156	0.0138120
844.234	0.0137540
844.312	0.0137725
844.390	0.0137049
844.468	0.0137990
844.546	0.0139261
844.624	0.0137771
844.703	0.0138135
844.781	0.0137290
844.859	0.0139243
844.937	0.0137441
845.015	0.0138348
845.093	0.0138255
845.171	0.0138725
845.249	0.0137898
845.328	0.0137714
845.406	0.0138090
845.484	0.0137843
845.562	0.0139069
845.640	0.0138350
845.718	0.0137306
845.796	0.0136333
845.874	0.0137669
845.953	0.0138488
846.031	0.0136149
846.109	0.0137503
846.187	0.0136211
846.265	0.0136681
846.343	0.0134914
846.421	0.0135754
846.499	0.0135423
846.578	0.0135064
846.656	0.0136082
846.734	0.0136285
846.812	0.0135258
846.890	0.0134612
846.968	0.0135006
847.046	0.0135010
847.124	0.0136644
847.203	0.0136425
847.281	0.0135385
847.359	0.0134711
847.437	0.0135262
847.515	0.0135831
847.593	0.0135433
847.671	0.0136272
847.749	0.0135559
847.828	0.0135613
847.906	0.0136789
847.984	0.0135363
848.062	0.0135937
848.140	0.0136842
848.218	0.0136436
848.296	0.0136767
848.374	0.0135678
848.453	0.0136613
848.531	0.0136777
848.609	0.0136331
848.687	0.0138725
848.765	0.0136639
848.843	0.0138091
848.921	0.0137405
848.999	0.0137292
849.078	0.0138759
849.156	0.0137393
849.234	0.0139169
849.312	0.0136926
849.390	0.0136915
849.468	0.0136825
849.546	0.0137551
849.624	0.0136993
849.703	0.0137282
849.781	0.0137134
849.859	0.0137334
849.937	0.0138483
850.015	0.0136897
850.093	0.0136729
850.171	0.0136178
850.249	0.0137381
850.328	0.0136399
850.406	0.0136884
850.484	0.0136131
850.562	0.0137094
850.640	0.0135614
850.718	0.0135286
850.796	0.0135908
850.874	0.0134519
850.953	0.0134885
851.031	0.0133427
851.109	0.0133479
851.187	0.0132634
851.265	0.0133165
851.343	0.0133279
851.421	0.0133091
851.499	0.0132870
851.578	0.0132741
851.656	0.0132989
851.734	0.0132780
851.812	0.0133023
851.890	0.0133100
851.968	0.0133097
852.046	0.0133772
852.124	0.0133005
852.203	0.0134556
852.281	0.0135449
852.359	0.0136314
852.437	0.0136748
852.515	0.0135764
852.593	0.0135764
852.671	0.0137101
852.749	0.0137244
852.828	0.0138026
852.906	0.0139119
852.984	0.0139098
853.062	0.0139566
853.140	0.0138834
853.218	0.0138704
853.296	0.0140224
853.374	0.0141401
853.453	0.0139761
853.531	0.0138686
853.609	0.0140533
853.687	0.0139653
853.765	0.0137957
853.843	0.0137457
853.921	0.0136947
853.999	0.0135874
854.078	0.0134608
854.156	0.0134567
854.234	0.0134081
854.312	0.0134269
854.390	0.0134695
854.468	0.0133695
854.546	0.0133455
854.624	0.0131214
854.703	0.0131693
854.781	0.0132427
854.859	0.0131348
854.937	0.0131467
855.015	0.0131919
855.093	0.0130589
855.171	0.0132316
855.249	0.0133054
855.328	0.0131911
855.406	0.0132858
855.484	0.0132796
855.562	0.0133675
855.640	0.0133108
855.718	0.0133010
855.796	0.0134188
855.874	0.0133392
855.953	0.0134952
856.031	0.0134682
856.109	0.0134532
856.187	0.0134915
856.265	0.0135657
856.343	0.0135619
856.421	0.0137444
856.499	0.0134930
856.578	0.0136051
856.656	0.0135871
856.734	0.0135340
856.812	0.0135909
856.890	0.0136781
856.968	0.0137348
857.046	0.0137290
857.124	0.0137608
857.203	0.0137348
857.281	0.0137468
857.359	0.0138523
857.437	0.0138564
857.515	0.0139565
857.593	0.0138785
857.671	0.0139694
857.749	0.0140044
857.828	0.0140376
857.906	0.0139262
857.984	0.0139829
858.062	0.0140056
858.140	0.0139137
858.218	0.0137261
858.296	0.0138854
858.374	0.0138240
858.453	0.0136970
858.531	0.0135947
858.609	0.0136794
858.687	0.0135480
858.765	0.0135466
858.843	0.0135746
858.921	0.0135223
858.999	0.0134888
859.078	0.0134953
859.156	0.0134270
859.234	0.0135023
859.312	0.0135096
859.390	0.0134412
859.468	0.0133527
859.546	0.0132485
859.624	0.0135513
859.703	0.0133664
859.781	0.0133344
859.859	0.0134039
859.937	0.0134219
860.015	0.0133096
860.093	0.0134219
860.171	0.0135658
860.249	0.0135715
860.328	0.0135428
860.406	0.0134746
860.484	0.0135413
860.562	0.0136348
860.640	0.0136249
860.718	0.0136929
860.796	0.0136125
860.874	0.0135988
860.953	0.0137673
861.031	0.0136882
861.109	0.0138266
861.187	0.0135666
861.265	0.0135747
861.343	0.0137890
861.421	0.0137106
861.499	0.0138200
861.578	0.0138012
861.656	0.0137878
861.734	0.0138399
861.812	0.0138543
861.890	0.0137310
861.968	0.0136720
862.046	0.0137418
862.124	0.0137070
862.203	0.0137436
862.281	0.0137173
862.359	0.0137703
862.437	0.0136646
862.515	0.0136523
862.593	0.0135845
862.671	0.0136615
862.749	0.0138203
862.828	0.0138078
862.906	0.0137889
862.984	0.0137109
863.062	0.0137299
863.140	0.0139105
863.218	0.0136753
863.296	0.0138634
863.374	0.0137833
863.453	0.0137611
863.531	0.0137077
863.609	0.0137403
863.687	0.0138464
863.765	0.0138666
863.843	0.0138005
863.921	0.0137090
863.999	0.0136909
864.078	0.0135798
864.156	0.0135265
864.234	0.0137390
864.312	0.0137649
864.390	0.0136649
864.468	0.0136130
864.546	0.0134669
864.624	0.0135990
864.703	0.0135614
864.781	0.0136645
864.859	0.0135364
864.937	0.0134261
865.015	0.0134795
865.093	0.0134427
865.171	0.0133673
865.249	0.0135412
865.328	0.0134602
865.406	0.0134155
865.484	0.0134882
865.562	0.0136013
865.640	0.0135324
865.718	0.0136403
865.796	0.0137114
865.874	0.0136279
865.953	0.0138217
866.031	0.0137458
866.109	0.0137212
866.187	0.0139267
866.265	0.0139240
866.343	0.0139944
866.421	0.0140269
866.499	0.0139780
866.578	0.0138181
866.656	0.0138007
866.734	0.0138580
866.812	0.0137531
866.890	0.0136903
866.968	0.0138478
867.046	0.0137164
867.124	0.0136226
867.203	0.0135644
867.281	0.0136235
867.359	0.0136304
867.437	0.0137614
867.515	0.0136886
867.593	0.0137323
867.671	0.0137128
867.749	0.0136031
867.828	0.0136304
867.906	0.0135836
867.984	0.0136339
868.062	0.0136502
868.140	0.0135292
868.218	0.0136551
868.296	0.0137326
868.374	0.0137022
868.453	0.0136319
868.531	0.0135350
868.609	0.0136568
868.687	0.0136773
868.765	0.0136989
868.843	0.0137033
868.921	0.0135290
868.999	0.0136554
869.078	0.0136881
869.156	0.0136140
869.234	0.0138278
869.312	0.0137033
869.390	0.0135730
869.468	0.0135201
869.546	0.0135978
869.624	0.0134213
869.703	0.0137571
869.781	0.0136800
869.859	0.0135822
869.937	0.0136360
870.015	0.0137274
870.093	0.0136610
870.171	0.0136835
870.249	0.0136976
870.328	0.0137584
870.406	0.0138088
870.484	0.0138706
870.562	0.0138898
870.640	0.0138873
870.718	0.0139136
870.796	0.0139019
870.874	0.0140591
870.953	0.0140140
871.031	0.0140407
871.109	0.0139876
871.187	0.0139767
871.265	0.0140021
871.343	0.0138885
871.421	0.0138473
871.499	0.0138593
871.578	0.0139126
871.656	0.0137128
871.734	0.0136995
871.812	0.0135764
871.890	0.0136440
871.968	0.0133794
872.046	0.0134446
872.124	0.0134263
872.203	0.0133890
872.281	0.0134467
872.359	0.0134298
872.437	0.0133402
872.515	0.0133530
872.593	0.0133910
872.671	0.0133992
872.749	0.0133720
872.828	0.0134291
872.906	0.0136100
872.984	0.0135862
873.062	0.0135280
873.140	0.0136435
873.218	0.0137104
873.296	0.0137037
873.374	0.0138045
873.453	0.0139072
873.531	0.0138772
873.609	0.0136453
873.687	0.0139986
873.765	0.0140000
873.843	0.0138881
873.921	0.0139700
873.999	0.0138111
874.078	0.0139803
874.156	0.0137943
874.234	0.0138887
874.312	0.0139291
874.390	0.0139110
874.468	0.0137923
874.546	0.0138366
874.624	0.0137947
874.703	0.0137319
874.781	0.0136267
874.859	0.0135867
874.937	0.0136385
875.015	0.0136079
875.093	0.0136165
875.171	0.0134017
875.249	0.0134930
875.328	0.0134756
875.406	0.0134003
875.484	0.0133875
875.562	0.0134486
875.640	0.0133972
875.718	0.0134708
875.796	0.0134158
875.874	0.0134221
875.953	0.0134747
876.031	0.0133884
876.109	0.0132930
876.187	0.0134824
876.265	0.0134022
876.343	0.0134328
876.421	0.0135391
876.499	0.0136172
876.578	0.0136131
876.656	0.0135889
876.734	0.0137549
876.812	0.0137598
876.890	0.0137035
876.968	0.0136815
877.046	0.0137061
877.124	0.0139011
877.203	0.0137836
877.281	0.0136893
877.359	0.0138408
877.437	0.0138473
877.515	0.0139690
877.593	0.0137936
877.671	0.0138865
877.749	0.0137839
877.828	0.0138031
877.906	0.0136593
877.984	0.0137141
878.062	0.0137522
878.140	0.0137000
878.218	0.0137173
878.296	0.0137349
878.374	0.0136243
878.453	0.0137313
878.531	0.0136088
878.609	0.0137186
878.687	0.0136217
878.765	0.0136024
878.843	0.0135845
878.921	0.0135460
878.999	0.0135985
879.078	0.0134174
879.156	0.0134576
879.234	0.0135551
879.312	0.0136720
879.390	0.0134172
879.468	0.0134460
879.546	0.0135578
879.624	0.0135140
879.703	0.0135741
879.781	0.0134613
879.859	0.0135493
879.937	0.0134609
880.015	0.0134266
880.093	0.0135683
880.171	0.0133173
880.249	0.0134821
880.328	0.0135253
880.406	0.0133783
880.484	0.0134235
880.562	0.0133621
880.640	0.0134531
880.718	0.0135184
880.796	0.0134702
880.874	0.0135506
880.953	0.0135344
881.031	0.0134586
881.109	0.0134951
881.187	0.0134804
881.265	0.0136588
881.343	0.0136034
881.421	0.0136603
881.499	0.0137483
881.578	0.0134441
881.656	0.0135082
881.734	0.0136927
881.812	0.0137109
881.890	0.0137124
881.968	0.0136555
882.046	0.0136123
882.124	0.0136940
882.203	0.0136523
882.281	0.0137657
882.359	0.0137904
882.437	0.0137473
882.515	0.0138390
882.593	0.0138507
882.671	0.0137876
882.749	0.0138937
882.828	0.0139018
882.906	0.0139374
882.984	0.0138218
883.062	0.0137486
883.140	0.0138206
883.218	0.0138235
883.296	0.0139787
883.374	0.0137698
883.453	0.0138277
883.531	0.0136628
883.609	0.0136366
883.687	0.0137489
883.765	0.0137520
883.843	0.0136391
883.921	0.0136463
883.999	0.0136290
884.078	0.0138009
884.156	0.0136064
884.234	0.0135521
884.312	0.0136627
884.390	0.0136600
884.468	0.0135227
884.546	0.0135392
884.624	0.0135081
884.703	0.0136620
884.781	0.0135958
884.859	0.0135066
884.937	0.0134568
885.015	0.0134271
885.093	0.0134601
885.171	0.0135860
885.249	0.0135760
885.328	0.0133878
885.406	0.0135515
885.484	0.0134483
885.562	0.0135630
885.640	0.0136158
885.718	0.0134396
885.796	0.0136135
885.874	0.0136124
885.953	0.0135919
886.031	0.0133836
886.109	0.0135590
886.187	0.0135284
886.265	0.0134953
886.343	0.0135024
886.421	0.0135854
886.499	0.0135722
886.578	0.0135991
886.656	0.0136504
886.734	0.0136983
886.812	0.0136291
886.890	0.0135509
886.968	0.0136302
887.046	0.0135522
887.124	0.0135947
887.203	0.0137165
887.281	0.0136785
887.359	0.0136336
887.437	0.0136000
887.515	0.0135246
887.593	0.0137444
887.671	0.0136277
887.749	0.0137882
887.828	0.0137725
887.906	0.0136157
887.984	0.0137218
888.062	0.0137503
888.140	0.0138949
888.218	0.0138124
888.296	0.0138966
888.374	0.0138103
888.453	0.0138025
888.531	0.0137317
888.609	0.0136919
888.687	0.0136501
888.765	0.0135344
888.843	0.0136218
888.921	0.0136247
888.999	0.0134438
889.078	0.0136707
889.156	0.0136009
889.234	0.0135448
889.312	0.0134798
889.390	0.0133295
889.468	0.0134926
889.546	0.0134869
889.624	0.0134262
889.703	0.0134603
889.781	0.0134879
889.859	0.0135513
889.937	0.0134673
890.015	0.0132780
890.093	0.0133628
890.171	0.0135731
890.249	0.0135116
890.328	0.0136422
890.406	0.0135899
890.484	0.0135677
890.562	0.0134819
890.640	0.0134576
890.718	0.0134661
890.796	0.0134325
890.874	0.0135659
890.953	0.0135644
891.031	0.0136288
891.109	0.0135626
891.187	0.0135605
891.265	0.0135809
891.343	0.0136047
891.421	0.0136221
891.499	0.0135151
891.578	0.0136292
891.656	0.0135838
891.734	0.0134203
891.812	0.0137204
891.890	0.0136949
891.968	0.0136622
892.046	0.0136379
892.124	0.0135237
892.203	0.0135991
892.281	0.0137157
892.359	0.0135820
892.437	0.0136565
892.515	0.0136917
892.593	0.0137909
892.671	0.0137717
892.749	0.0137370
892.828	0.0136214
892.906	0.0136522
892.984	0.0137047
893.062	0.0136432
893.140	0.0135778
893.218	0.0136653
893.296	0.0136615
893.374	0.0134695
893.453	0.0133988
893.531	0.0134613
893.609	0.0134441
893.687	0.0133079
893.765	0.0134165
893.843	0.0134769
893.921	0.0135384
893.999	0.0135133
894.078	0.0136189
894.156	0.0135335
894.234	0.0135166
894.312	0.0136786
894.390	0.0135728
894.468	0.0135889
894.546	0.0136211
894.624	0.0137177
894.703	0.0136851
894.781	0.0137452
894.859	0.0136173
894.937	0.0137303
895.015	0.0136540
895.093	0.0138436
895.171	0.0137998
895.249	0.0138702
895.328	0.0138596
895.406	0.0138206
895.484	0.0138004
895.562	0.0137422
895.640	0.0138435
895.718	0.0138205
895.796	0.0139104
895.874	0.0139085
895.953	0.0139960
896.031	0.0138725
896.109	0.0137720
896.187	0.0138261
896.265	0.0138584
896.343	0.0138696
896.421	0.0138074
896.499	0.0137540
896.578	0.0136494
896.656	0.0137764
896.734	0.0137544
896.812	0.0137221
896.890	0.0135926
896.968	0.0136573
897.046	0.0135949
897.124	0.0135188
897.203	0.0135767
897.281	0.0136540
897.359	0.0136066
897.437	0.0135080
897.515	0.0135018
897.593	0.0135162
897.671	0.0135150
897.749	0.0136625
897.828	0.0136736
897.906	0.0135738
897.984	0.0136449
898.062	0.0136411
898.140	0.0135718
898.218	0.0136156
898.296	0.0136314
898.374	0.0137382
898.453	0.0136642
898.531	0.0137121
898.609	0.0136092
898.687	0.0135345
898.765	0.0136294
898.843	0.0135795
898.921	0.0136473
898.999	0.0135785
899.078	0.0136026
899.156	0.0136256
899.234	0.0136060
899.312	0.0136343
899.390	0.0136653
899.468	0.0134606
899.546	0.0136256
899.624	0.0137305
899.703	0.0135365
899.781	0.0136256
899.859	0.0137601
899.937	0.0136001
900.015	0.0137171
900.093	0.0137057
900.171	0.0137621
900.249	0.0136460
900.328	0.0136620
900.406	0.0137652
900.484	0.0137623
900.562	0.0135340
900.640	0.0137196
900.718	0.0138001
900.796	0.0137451
900.874	0.0137508
900.953	0.0137946
901.031	0.0137112
901.109	0.0137479
901.187	0.0137760
901.265	0.0137465
901.343	0.0138763
901.421	0.0137589
901.499	0.0138005
901.578	0.0137701
901.656	0.0137896
901.734	0.0138087
901.812	0.0137310
901.890	0.0137370
901.968	0.0137688
902.046	0.0138189
902.124	0.0137202
902.203	0.0135892
902.281	0.0136295
902.359	0.0135835
902.437	0.0136198
902.515	0.0136341
902.593	0.0137457
902.671	0.0136416
902.749	0.0135516
902.828	0.0136628
902.906	0.0135810
902.984	0.0136654
903.062	0.0134876
903.140	0.0136964
903.218	0.0136868
903.296	0.0136774
903.374	0.0135234
903.453	0.0136419
903.531	0.0136716
903.609	0.0135541
903.687	0.0136775
903.765	0.0136065
903.843	0.0135901
903.921	0.0137579
903.999	0.0137078
904.078	0.0136469
904.156	0.0136474
904.234	0.0137614
904.312	0.0137735
904.390	0.0138171
904.468	0.0138148
904.546	0.0137334
904.624	0.0137634
904.703	0.0139133
904.781	0.0138869
904.859	0.0136923
904.937	0.0137730
905.015	0.0138006
905.093	0.0138678
905.171	0.0137580
905.249	0.0139244
905.328	0.0139244
905.406	0.0139387
905.484	0.0138641
905.562	0.0138193
905.640	0.0137953
905.718	0.0138752
905.796	0.0137562
905.874	0.0137490
905.953	0.0138348
906.031	0.0137702
906.109	0.0136355
906.187	0.0136516
906.265	0.0135523
906.343	0.0136677
906.421	0.0135477
906.499	0.0136205
906.578	0.0136190
906.656	0.0134524
906.734	0.0133738
906.812	0.0132943
906.890	0.0133978
906.968	0.0132111
907.046	0.0133994
907.124	0.0131467
907.203	0.0133269
907.281	0.0133622
907.359	0.0133231
907.437	0.0133173
907.515	0.0133392
907.593	0.0133363
907.671	0.0132937
907.749	0.0133798
907.828	0.0134124
907.906	0.0135526
907.984	0.0135329
908.062	0.0134527
908.140	0.0135969
908.218	0.0136583
908.296	0.0135600
908.374	0.0136623
908.453	0.0136634
908.531	0.0137054
908.609	0.0135979
908.687	0.0136290
908.765	0.0136292
908.843	0.0136756
908.921	0.0137054
908.999	0.0138624
909.078	0.0137267
909.156	0.0138422
909.234	0.0136827
909.312	0.0137064
909.390	0.0138226
909.468	0.0139059
909.546	0.0138972
909.624	0.0138050
909.703	0.0138177
909.781	0.0137766
909.859	0.0138882
909.937	0.0137227
910.015	0.0137677
910.093	0.0137090
910.171	0.0136550
910.249	0.0135445
910.328	0.0135960
910.406	0.0136432
910.484	0.0137086
910.562	0.0137370
910.640	0.0136922
910.718	0.0136427
910.796	0.0136108
910.874	0.0135386
910.953	0.0136172
911.031	0.0136189
911.109	0.0136065
911.187	0.0136207
911.265	0.0137036
911.343	0.0137518
911.421	0.0137805
911.499	0.0136156
911.578	0.0136749
911.656	0.0138922
911.734	0.0138074
911.812	0.0138233
911.890	0.0137428
911.968	0.0137565
912.046	0.0136357
912.124	0.0136737
912.203	0.0137589
912.281	0.0135814
912.359	0.0136385
912.437	0.0136685
912.515	0.0136338
912.593	0.0136102
912.671	0.0136073
912.749	0.0135228
912.828	0.0135310
912.906	0.0137239
912.984	0.0135860
913.062	0.0135323
913.140	0.0136358
913.218	0.0134949
913.296	0.0137109
913.374	0.0136913
913.453	0.0136290
913.531	0.0136272
913.609	0.0135832
913.687	0.0136526
913.765	0.0136245
913.843	0.0136611
913.921	0.0136920
913.999	0.0136807
914.078	0.0136411
914.156	0.0135916
914.234	0.0135783
914.312	0.0135346
914.390	0.0134977
914.468	0.0136765
914.546	0.0135424
914.624	0.0136928
914.703	0.0136671
914.781	0.0137897
914.859	0.0136616
914.937	0.0136742
915.015	0.0137636
915.093	0.0135718
915.171	0.0137664
915.249	0.0136588
915.328	0.0137495
915.406	0.0136440
915.484	0.0134271
915.562	0.0136163
915.640	0.0136066
915.718	0.0137222
915.796	0.0136926
915.874	0.0135677
915.953	0.0136228
916.031	0.0135453
916.109	0.0136118
916.187	0.0136668
916.265	0.0135916
916.343	0.0134452
916.421	0.0135982
916.499	0.0137831
916.578	0.0136301
916.656	0.0136266
916.734	0.0137291
916.812	0.0137394
916.890	0.0137675
916.968	0.0138923
917.046	0.0138267
917.124	0.0137363
917.203	0.0139134
917.281	0.0138433
917.359	0.0136364
917.437	0.0136443
917.515	0.0137698
917.593	0.0136704
917.671	0.0136275
917.749	0.0136666
917.828	0.0136439
917.906	0.0136555
917.984	0.0136266
918.062	0.0136342
918.140	0.0135876
918.218	0.0136697
918.296	0.0136967
918.374	0.0136401
918.453	0.0138353
918.531	0.0136594
918.609	0.0137351
918.687	0.0138119
918.765	0.0135962
918.843	0.0136884
918.921	0.0136983
918.999	0.0137304
919.078	0.0137863
919.156	0.0136798
919.234	0.0136743
919.312	0.0138077
919.390	0.0136266
919.468	0.0136189
919.546	0.0137051
919.624	0.0137492
919.703	0.0136062
919.781	0.0136376
919.859	0.0137082
919.937	0.0136930
