05/08/2022	20:10:26	Ver.	4.1	UNKNOWN
Optical Delay	600.015094	Delta X		0.078125	Sweeps	1	Scan Rate	0/0
Coordinates	Axis 1	NaN	Axis 2	NaN	Axis 3	NaN	Axis 4	NaN	Axis 5	NaN	Axis 6	0.000000
TX Power	0.000000	RX Power	0.000000

600.015	0.0132650
600.093	0.0132738
600.171	0.0132643
600.249	0.0132214
600.328	0.0131508
600.406	0.0133584
600.484	0.0133181
600.562	0.0132502
600.640	0.0133628
600.718	0.0132073
600.796	0.0132317
600.874	0.0132423
600.953	0.0131928
601.031	0.0131590
601.109	0.0132980
601.187	0.0132222
601.265	0.0132804
601.343	0.0133177
601.421	0.0132278
601.499	0.0132794
601.578	0.0132130
601.656	0.0134503
601.734	0.0132140
601.812	0.0132214
601.890	0.0132490
601.968	0.0132529
602.046	0.0131931
602.124	0.0132076
602.203	0.0131590
602.281	0.0132186
602.359	0.0133148
602.437	0.0132329
602.515	0.0132318
602.593	0.0131786
602.671	0.0131122
602.749	0.0132274
602.828	0.0131148
602.906	0.0131339
602.984	0.0130672
603.062	0.0130677
603.140	0.0131120
603.218	0.0131182
603.296	0.0131658
603.374	0.0132174
603.453	0.0131248
603.531	0.0132563
603.609	0.0132557
603.687	0.0131028
603.765	0.0132348
603.843	0.0133012
603.921	0.0131594
603.999	0.0132542
604.078	0.0132711
604.156	0.0132452
604.234	0.0132082
604.312	0.0133331
604.390	0.0133749
604.468	0.0131213
604.546	0.0131567
604.624	0.0132883
604.703	0.0130822
604.781	0.0132078
604.859	0.0131903
604.937	0.0131989
605.015	0.0130314
605.093	0.0132975
605.171	0.0131777
605.249	0.0131896
605.328	0.0132139
605.406	0.0131947
605.484	0.0131774
605.562	0.0130743
605.640	0.0132396
605.718	0.0132324
605.796	0.0132392
605.874	0.0131827
605.953	0.0131068
606.031	0.0132971
606.109	0.0132060
606.187	0.0130942
606.265	0.0131895
606.343	0.0131607
606.421	0.0130618
606.499	0.0131323
606.578	0.0132972
606.656	0.0132420
606.734	0.0132086
606.812	0.0133449
606.890	0.0130563
606.968	0.0132442
607.046	0.0132243
607.124	0.0132615
607.203	0.0131419
607.281	0.0132076
607.359	0.0132697
607.437	0.0132928
607.515	0.0131890
607.593	0.0131964
607.671	0.0133700
607.749	0.0132616
607.828	0.0132679
607.906	0.0133099
607.984	0.0132373
608.062	0.0133355
608.140	0.0133118
608.218	0.0132096
608.296	0.0131432
608.374	0.0131556
608.453	0.0132984
608.531	0.0132644
608.609	0.0132087
608.687	0.0132367
608.765	0.0131845
608.843	0.0131651
608.921	0.0131535
608.999	0.0131394
609.078	0.0131705
609.156	0.0133263
609.234	0.0130846
609.312	0.0132039
609.390	0.0133397
609.468	0.0131628
609.546	0.0132201
609.624	0.0131612
609.703	0.0132783
609.781	0.0131855
609.859	0.0132074
609.937	0.0131954
610.015	0.0132969
610.093	0.0132368
610.171	0.0132500
610.249	0.0133184
610.328	0.0131686
610.406	0.0132783
610.484	0.0132167
610.562	0.0131728
610.640	0.0132217
610.718	0.0132923
610.796	0.0131620
610.874	0.0131731
610.953	0.0132670
611.031	0.0131700
611.109	0.0132204
611.187	0.0132085
611.265	0.0132634
611.343	0.0133197
611.421	0.0131598
611.499	0.0133395
611.578	0.0132335
611.656	0.0133019
611.734	0.0133020
611.812	0.0133446
611.890	0.0132363
611.968	0.0131369
612.046	0.0133656
612.124	0.0132818
612.203	0.0132606
612.281	0.0131483
612.359	0.0133096
612.437	0.0133292
612.515	0.0132095
612.593	0.0132459
612.671	0.0133463
612.749	0.0132401
612.828	0.0131508
612.906	0.0133129
612.984	0.0132303
613.062	0.0131969
613.140	0.0133002
613.218	0.0132751
613.296	0.0132744
613.374	0.0131709
613.453	0.0133115
613.531	0.0132901
613.609	0.0133847
613.687	0.0133872
613.765	0.0133006
613.843	0.0132526
613.921	0.0133033
613.999	0.0132190
614.078	0.0133176
614.156	0.0133981
614.234	0.0133311
614.312	0.0132214
614.390	0.0133411
614.468	0.0132966
614.546	0.0132710
614.624	0.0132500
614.703	0.0132850
614.781	0.0132414
614.859	0.0133279
614.937	0.0132314
615.015	0.0132923
615.093	0.0132137
615.171	0.0132331
615.249	0.0132230
615.328	0.0132664
615.406	0.0132803
615.484	0.0132500
615.562	0.0132454
615.640	0.0132295
615.718	0.0132264
615.796	0.0133564
615.874	0.0132890
615.953	0.0132342
616.031	0.0132100
616.109	0.0134007
616.187	0.0133171
616.265	0.0133899
616.343	0.0133572
616.421	0.0132224
616.499	0.0131406
616.578	0.0131985
616.656	0.0133393
616.734	0.0133419
616.812	0.0133773
616.890	0.0133094
616.968	0.0133157
617.046	0.0132672
617.124	0.0132954
617.203	0.0132896
617.281	0.0132889
617.359	0.0132986
617.437	0.0132913
617.515	0.0133701
617.593	0.0133405
617.671	0.0132745
617.749	0.0132187
617.828	0.0131937
617.906	0.0132272
617.984	0.0132381
618.062	0.0133695
618.140	0.0133481
618.218	0.0132586
618.296	0.0131004
618.374	0.0132619
618.453	0.0132041
618.531	0.0133333
618.609	0.0133664
618.687	0.0131537
618.765	0.0132025
618.843	0.0131147
618.921	0.0131957
618.999	0.0132779
619.078	0.0133438
619.156	0.0131716
619.234	0.0132978
619.312	0.0132911
619.390	0.0132958
619.468	0.0132247
619.546	0.0131997
619.624	0.0132838
619.703	0.0133234
619.781	0.0132300
619.859	0.0131155
619.937	0.0132506
620.015	0.0132077
620.093	0.0132857
620.171	0.0131390
620.249	0.0131232
620.328	0.0132720
620.406	0.0132499
620.484	0.0131483
620.562	0.0132767
620.640	0.0132877
620.718	0.0131663
620.796	0.0131622
620.874	0.0132356
620.953	0.0132156
621.031	0.0133430
621.109	0.0132314
621.187	0.0131918
621.265	0.0131617
621.343	0.0132883
621.421	0.0132653
621.499	0.0131221
621.578	0.0132876
621.656	0.0131626
621.734	0.0131978
621.812	0.0130410
621.890	0.0132869
621.968	0.0132939
622.046	0.0133527
622.124	0.0132557
622.203	0.0132905
622.281	0.0132587
622.359	0.0132355
622.437	0.0131772
622.515	0.0132778
622.593	0.0132448
622.671	0.0133001
622.749	0.0132142
622.828	0.0131876
622.906	0.0132637
622.984	0.0132803
623.062	0.0131867
623.140	0.0132102
623.218	0.0132180
623.296	0.0132321
623.374	0.0131396
623.453	0.0131361
623.531	0.0132344
623.609	0.0132308
623.687	0.0132300
623.765	0.0132658
623.843	0.0131097
623.921	0.0131860
623.999	0.0132565
624.078	0.0132821
624.156	0.0132579
624.234	0.0132600
624.312	0.0132275
624.390	0.0131400
624.468	0.0133655
624.546	0.0132645
624.624	0.0133154
624.703	0.0132750
624.781	0.0132259
624.859	0.0131778
624.937	0.0132078
625.015	0.0132834
625.093	0.0132780
625.171	0.0133206
625.249	0.0132941
625.328	0.0131910
625.406	0.0132840
625.484	0.0131562
625.562	0.0132363
625.640	0.0132298
625.718	0.0132346
625.796	0.0133829
625.874	0.0133785
625.953	0.0132796
626.031	0.0130602
626.109	0.0131724
626.187	0.0133317
626.265	0.0132529
626.343	0.0133176
626.421	0.0132104
626.499	0.0133463
626.578	0.0131693
626.656	0.0131960
626.734	0.0132671
626.812	0.0131345
626.890	0.0132180
626.968	0.0131878
627.046	0.0133787
627.124	0.0132343
627.203	0.0132420
627.281	0.0133930
627.359	0.0132476
627.437	0.0132460
627.515	0.0132196
627.593	0.0133451
627.671	0.0133017
627.749	0.0133878
627.828	0.0133059
627.906	0.0132854
627.984	0.0132710
628.062	0.0133467
628.140	0.0134240
628.218	0.0133287
628.296	0.0132469
628.374	0.0131731
628.453	0.0131867
628.531	0.0132880
628.609	0.0133398
628.687	0.0132904
628.765	0.0131957
628.843	0.0133308
628.921	0.0132755
628.999	0.0132851
629.078	0.0130965
629.156	0.0132715
629.234	0.0133920
629.312	0.0133975
629.390	0.0133239
629.468	0.0132859
629.546	0.0132295
629.624	0.0132171
629.703	0.0133292
629.781	0.0132987
629.859	0.0132186
629.937	0.0132445
630.015	0.0133847
630.093	0.0131754
630.171	0.0132754
630.249	0.0133672
630.328	0.0133369
630.406	0.0133603
630.484	0.0132419
630.562	0.0133630
630.640	0.0132986
630.718	0.0134280
630.796	0.0132851
630.874	0.0132365
630.953	0.0133332
631.031	0.0133423
631.109	0.0135918
631.187	0.0134875
631.265	0.0134136
631.343	0.0134090
631.421	0.0134524
631.499	0.0132880
631.578	0.0132132
631.656	0.0132606
631.734	0.0132394
631.812	0.0132028
631.890	0.0133299
631.968	0.0131419
632.046	0.0131242
632.124	0.0131664
632.203	0.0133235
632.281	0.0133647
632.359	0.0132325
632.437	0.0133856
632.515	0.0132031
632.593	0.0132888
632.671	0.0134821
632.749	0.0131892
632.828	0.0133459
632.906	0.0133299
632.984	0.0132789
633.062	0.0133672
633.140	0.0132868
633.218	0.0133413
633.296	0.0132954
633.374	0.0133385
633.453	0.0132686
633.531	0.0132467
633.609	0.0132552
633.687	0.0133021
633.765	0.0132975
633.843	0.0133827
633.921	0.0133116
633.999	0.0132979
634.078	0.0132849
634.156	0.0131924
634.234	0.0133649
634.312	0.0133387
634.390	0.0135112
634.468	0.0133334
634.546	0.0134588
634.624	0.0132494
634.703	0.0133286
634.781	0.0132353
634.859	0.0132535
634.937	0.0133141
635.015	0.0134307
635.093	0.0133105
635.171	0.0132863
635.249	0.0132153
635.328	0.0132520
635.406	0.0132133
635.484	0.0131490
635.562	0.0133144
635.640	0.0131847
635.718	0.0131757
635.796	0.0132885
635.874	0.0133158
635.953	0.0132184
636.031	0.0133019
636.109	0.0133061
636.187	0.0133240
636.265	0.0132178
636.343	0.0131725
636.421	0.0131669
636.499	0.0131323
636.578	0.0131037
636.656	0.0132603
636.734	0.0131618
636.812	0.0132733
636.890	0.0131969
636.968	0.0131763
637.046	0.0131254
637.124	0.0132550
637.203	0.0132409
637.281	0.0131302
637.359	0.0132407
637.437	0.0132121
637.515	0.0131544
637.593	0.0131252
637.671	0.0132343
637.749	0.0132946
637.828	0.0132727
637.906	0.0132633
637.984	0.0131469
638.062	0.0129690
638.140	0.0132394
638.218	0.0132227
638.296	0.0133400
638.374	0.0132720
638.453	0.0131963
638.531	0.0132529
638.609	0.0132023
638.687	0.0132079
638.765	0.0132641
638.843	0.0130687
638.921	0.0133624
638.999	0.0131638
639.078	0.0131981
639.156	0.0133874
639.234	0.0132872
639.312	0.0132847
639.390	0.0132591
639.468	0.0132021
639.546	0.0133182
639.624	0.0131223
639.703	0.0132262
639.781	0.0133096
639.859	0.0130915
639.937	0.0132234
640.015	0.0131547
640.093	0.0133025
640.171	0.0131992
640.249	0.0132111
640.328	0.0132419
640.406	0.0133401
640.484	0.0131755
640.562	0.0131647
640.640	0.0133023
640.718	0.0132356
640.796	0.0131591
640.874	0.0132462
640.953	0.0133232
641.031	0.0132953
641.109	0.0132470
641.187	0.0132378
641.265	0.0132584
641.343	0.0132594
641.421	0.0131839
641.499	0.0132087
641.578	0.0133545
641.656	0.0134208
641.734	0.0132140
641.812	0.0131899
641.890	0.0132861
641.968	0.0131737
642.046	0.0132081
642.124	0.0132393
642.203	0.0133865
642.281	0.0132212
642.359	0.0131531
642.437	0.0131553
642.515	0.0131777
642.593	0.0132386
642.671	0.0131740
642.749	0.0131509
642.828	0.0132477
642.906	0.0132910
642.984	0.0131161
643.062	0.0132790
643.140	0.0131712
643.218	0.0132574
643.296	0.0133049
643.374	0.0132405
643.453	0.0133287
643.531	0.0133714
643.609	0.0132661
643.687	0.0131679
643.765	0.0132810
643.843	0.0131448
643.921	0.0130395
643.999	0.0130947
644.078	0.0131454
644.156	0.0131944
644.234	0.0132100
644.312	0.0132612
644.390	0.0132297
644.468	0.0131476
644.546	0.0132635
644.624	0.0133709
644.703	0.0133888
644.781	0.0131576
644.859	0.0131945
644.937	0.0133369
645.015	0.0134553
645.093	0.0133586
645.171	0.0133432
645.249	0.0132707
645.328	0.0133562
645.406	0.0133332
645.484	0.0133541
645.562	0.0133672
645.640	0.0131082
645.718	0.0132370
645.796	0.0131831
645.874	0.0131359
645.953	0.0131963
646.031	0.0130396
646.109	0.0130585
646.187	0.0129507
646.265	0.0131117
646.343	0.0132539
646.421	0.0131560
646.499	0.0132001
646.578	0.0132850
646.656	0.0132749
646.734	0.0134901
646.812	0.0135130
646.890	0.0133600
646.968	0.0133245
647.046	0.0135068
647.124	0.0134166
647.203	0.0133907
647.281	0.0134417
647.359	0.0133605
647.437	0.0133418
647.515	0.0134092
647.593	0.0133863
647.671	0.0132416
647.749	0.0133452
647.828	0.0132348
647.906	0.0132401
647.984	0.0131036
648.062	0.0131190
648.140	0.0131832
648.218	0.0130219
648.296	0.0132102
648.374	0.0132231
648.453	0.0132057
648.531	0.0131624
648.609	0.0132078
648.687	0.0130710
648.765	0.0133012
648.843	0.0133492
648.921	0.0133595
648.999	0.0133311
649.078	0.0133656
649.156	0.0133627
649.234	0.0134451
649.312	0.0134836
649.390	0.0133459
649.468	0.0135643
649.546	0.0135264
649.624	0.0135008
649.703	0.0134499
649.781	0.0134550
649.859	0.0133862
649.937	0.0134212
650.015	0.0133246
650.093	0.0133767
650.171	0.0131879
650.249	0.0131078
650.328	0.0129689
650.406	0.0129447
650.484	0.0129023
650.562	0.0129695
650.640	0.0128517
650.718	0.0129563
650.796	0.0130312
650.874	0.0130882
650.953	0.0130842
651.031	0.0134157
651.109	0.0133713
651.187	0.0133948
651.265	0.0136414
651.343	0.0137772
651.421	0.0138908
651.499	0.0138073
651.578	0.0140895
651.656	0.0139739
651.734	0.0140110
651.812	0.0139027
651.890	0.0138512
651.968	0.0138818
652.046	0.0137183
652.124	0.0134740
652.203	0.0135400
652.281	0.0132165
652.359	0.0131161
652.437	0.0130582
652.515	0.0128865
652.593	0.0128254
652.671	0.0128168
652.749	0.0126585
652.828	0.0126196
652.906	0.0126137
652.984	0.0126202
653.062	0.0126019
653.140	0.0125056
653.218	0.0125594
653.296	0.0127222
653.374	0.0127739
653.453	0.0128931
653.531	0.0129389
653.609	0.0129015
653.687	0.0130379
653.765	0.0130975
653.843	0.0133160
653.921	0.0132784
653.999	0.0136697
654.078	0.0137624
654.156	0.0138226
654.234	0.0137622
654.312	0.0138419
654.390	0.0139977
654.468	0.0140304
654.546	0.0141132
654.624	0.0141240
654.703	0.0141223
654.781	0.0139848
654.859	0.0140826
654.937	0.0141624
655.015	0.0141358
655.093	0.0141377
655.171	0.0141113
655.249	0.0139602
655.328	0.0140199
655.406	0.0140321
655.484	0.0137564
655.562	0.0134425
655.640	0.0132167
655.718	0.0132073
655.796	0.0128606
655.874	0.0126909
655.953	0.0126621
656.031	0.0123624
656.109	0.0120393
656.187	0.0119237
656.265	0.0116949
656.343	0.0115327
656.421	0.0115692
656.499	0.0114328
656.578	0.0112274
656.656	0.0113985
656.734	0.0114080
656.812	0.0116311
656.890	0.0117286
656.968	0.0119051
657.046	0.0122498
657.124	0.0125288
657.203	0.0128769
657.281	0.0129684
657.359	0.0132206
657.437	0.0135070
657.515	0.0137026
657.593	0.0141002
657.671	0.0142147
657.749	0.0144407
657.828	0.0146619
657.906	0.0148552
657.984	0.0149944
658.062	0.0150987
658.140	0.0151114
658.218	0.0153311
658.296	0.0154002
658.374	0.0152928
658.453	0.0155077
658.531	0.0153706
658.609	0.0154794
658.687	0.0153189
658.765	0.0150201
658.843	0.0149754
658.921	0.0147482
658.999	0.0144115
659.078	0.0141943
659.156	0.0139240
659.234	0.0134303
659.312	0.0133286
659.390	0.0127943
659.468	0.0125658
659.546	0.0122211
659.624	0.0118688
659.703	0.0113437
659.781	0.0112754
659.859	0.0110879
659.937	0.0106399
660.015	0.0106297
660.093	0.0105547
660.171	0.0104803
660.249	0.0103229
660.328	0.0102648
660.406	0.0104074
660.484	0.0104690
660.562	0.0105399
660.640	0.0106140
660.718	0.0109231
660.796	0.0111614
660.874	0.0114217
660.953	0.0117074
661.031	0.0121716
661.109	0.0124181
661.187	0.0129029
661.265	0.0136192
661.343	0.0140612
661.421	0.0146039
661.499	0.0151337
661.578	0.0157339
661.656	0.0161873
661.734	0.0164648
661.812	0.0166917
661.890	0.0169947
661.968	0.0170638
662.046	0.0169531
662.124	0.0170065
662.203	0.0168802
662.281	0.0166000
662.359	0.0165043
662.437	0.0162202
662.515	0.0158264
662.593	0.0153590
662.671	0.0149932
662.749	0.0146306
662.828	0.0142876
662.906	0.0136388
662.984	0.0134267
663.062	0.0128922
663.140	0.0125311
663.218	0.0122129
663.296	0.0118812
663.374	0.0114985
663.453	0.0113239
663.531	0.0113313
663.609	0.0112340
663.687	0.0108759
663.765	0.0106307
663.843	0.0106316
663.921	0.0107322
663.999	0.0106576
664.078	0.0106287
664.156	0.0107343
664.234	0.0106844
664.312	0.0107224
664.390	0.0108134
664.468	0.0110072
664.546	0.0111621
664.624	0.0113339
664.703	0.0113676
664.781	0.0116885
664.859	0.0118931
664.937	0.0122051
665.015	0.0123558
665.093	0.0126208
665.171	0.0130238
665.249	0.0134365
665.328	0.0137137
665.406	0.0138421
665.484	0.0142655
665.562	0.0144056
665.640	0.0147272
665.718	0.0149106
665.796	0.0152158
665.874	0.0153766
665.953	0.0156117
666.031	0.0157869
666.109	0.0159936
666.187	0.0161572
666.265	0.0161537
666.343	0.0163133
666.421	0.0162090
666.499	0.0161478
666.578	0.0160381
666.656	0.0158183
666.734	0.0156781
666.812	0.0152670
666.890	0.0151894
666.968	0.0148911
667.046	0.0145718
667.124	0.0141375
667.203	0.0140127
667.281	0.0136704
667.359	0.0134180
667.437	0.0130142
667.515	0.0127246
667.593	0.0124868
667.671	0.0121867
667.749	0.0119855
667.828	0.0117289
667.906	0.0114924
667.984	0.0114478
668.062	0.0112184
668.140	0.0110928
668.218	0.0108632
668.296	0.0107239
668.374	0.0108047
668.453	0.0106478
668.531	0.0107881
668.609	0.0108054
668.687	0.0108727
668.765	0.0109577
668.843	0.0109434
668.921	0.0112227
668.999	0.0112845
669.078	0.0115309
669.156	0.0116673
669.234	0.0119455
669.312	0.0120598
669.390	0.0123438
669.468	0.0123997
669.546	0.0127478
669.624	0.0130931
669.703	0.0133919
669.781	0.0136189
669.859	0.0139154
669.937	0.0140604
670.015	0.0142448
670.093	0.0144388
670.171	0.0147487
670.249	0.0148926
670.328	0.0150539
670.406	0.0153168
670.484	0.0154108
670.562	0.0154361
670.640	0.0155625
670.718	0.0156313
670.796	0.0155424
670.874	0.0154936
670.953	0.0155413
671.031	0.0153908
671.109	0.0152567
671.187	0.0152888
671.265	0.0150243
671.343	0.0147351
671.421	0.0145341
671.499	0.0143217
671.578	0.0143343
671.656	0.0141404
671.734	0.0139793
671.812	0.0137236
671.890	0.0135865
671.968	0.0134135
672.046	0.0132507
672.124	0.0129919
672.203	0.0129776
672.281	0.0128485
672.359	0.0127631
672.437	0.0125871
672.515	0.0124936
672.593	0.0123782
672.671	0.0121529
672.749	0.0121252
672.828	0.0120415
672.906	0.0119363
672.984	0.0117975
673.062	0.0116221
673.140	0.0115749
673.218	0.0114732
673.296	0.0112607
673.374	0.0112392
673.453	0.0113738
673.531	0.0111989
673.609	0.0113697
673.687	0.0112544
673.765	0.0113775
673.843	0.0114101
673.921	0.0116806
673.999	0.0118658
674.078	0.0120122
674.156	0.0122647
674.234	0.0125896
674.312	0.0127988
674.390	0.0130755
674.468	0.0134322
674.546	0.0136415
674.624	0.0139038
674.703	0.0141058
674.781	0.0142892
674.859	0.0143939
674.937	0.0144392
675.015	0.0145570
675.093	0.0144173
675.171	0.0144727
675.249	0.0141434
675.328	0.0141088
675.406	0.0142010
675.484	0.0141343
675.562	0.0139975
675.640	0.0139845
675.718	0.0140981
675.796	0.0140771
675.874	0.0142031
675.953	0.0144411
676.031	0.0145029
676.109	0.0145252
676.187	0.0146304
676.265	0.0148803
676.343	0.0148637
676.421	0.0148270
676.499	0.0148415
676.578	0.0148077
676.656	0.0146763
676.734	0.0144964
676.812	0.0143740
676.890	0.0141492
676.968	0.0140445
677.046	0.0137460
677.124	0.0135010
677.203	0.0132220
677.281	0.0131305
677.359	0.0128183
677.437	0.0125637
677.515	0.0124428
677.593	0.0122166
677.671	0.0119837
677.749	0.0118189
677.828	0.0117222
677.906	0.0115052
677.984	0.0114399
678.062	0.0114294
678.140	0.0112580
678.218	0.0112584
678.296	0.0110023
678.374	0.0110618
678.453	0.0109969
678.531	0.0110240
678.609	0.0110975
678.687	0.0112358
678.765	0.0112881
678.843	0.0114622
678.921	0.0119652
678.999	0.0121486
679.078	0.0124043
679.156	0.0126736
679.234	0.0129198
679.312	0.0134338
679.390	0.0137662
679.468	0.0140623
679.546	0.0144232
679.624	0.0148115
679.703	0.0151453
679.781	0.0152525
679.859	0.0153215
679.937	0.0153868
680.015	0.0154639
680.093	0.0153213
680.171	0.0152782
680.249	0.0150124
680.328	0.0146492
680.406	0.0144630
680.484	0.0140365
680.562	0.0136478
680.640	0.0134164
680.718	0.0131235
680.796	0.0128166
680.874	0.0127617
680.953	0.0125694
681.031	0.0123723
681.109	0.0123203
681.187	0.0123079
681.265	0.0123260
681.343	0.0124557
681.421	0.0125271
681.499	0.0126864
681.578	0.0128951
681.656	0.0130105
681.734	0.0132410
681.812	0.0130575
681.890	0.0133846
681.968	0.0135378
682.046	0.0135979
682.124	0.0137207
682.203	0.0137299
682.281	0.0136156
682.359	0.0137168
682.437	0.0136368
682.515	0.0137903
682.593	0.0137635
682.671	0.0137769
682.749	0.0138080
682.828	0.0140196
682.906	0.0142484
682.984	0.0143179
683.062	0.0145759
683.140	0.0145596
683.218	0.0146834
683.296	0.0146582
683.374	0.0144976
683.453	0.0141735
683.531	0.0142397
683.609	0.0139014
683.687	0.0133894
683.765	0.0129266
683.843	0.0126736
683.921	0.0121883
683.999	0.0119018
684.078	0.0113728
684.156	0.0110208
684.234	0.0109351
684.312	0.0107172
684.390	0.0107206
684.468	0.0106953
684.546	0.0107375
684.624	0.0108384
684.703	0.0109980
684.781	0.0113013
684.859	0.0115719
684.937	0.0116937
685.015	0.0118990
685.093	0.0119642
685.171	0.0123806
685.249	0.0123080
685.328	0.0125201
685.406	0.0128772
685.484	0.0131740
685.562	0.0131982
685.640	0.0133770
685.718	0.0137010
685.796	0.0139525
685.874	0.0142062
685.953	0.0141154
686.031	0.0143589
686.109	0.0145834
686.187	0.0147213
686.265	0.0147733
686.343	0.0149281
686.421	0.0150148
686.499	0.0151380
686.578	0.0149931
686.656	0.0151082
686.734	0.0150641
686.812	0.0149080
686.890	0.0149026
686.968	0.0147387
687.046	0.0148074
687.124	0.0145581
687.203	0.0143711
687.281	0.0143336
687.359	0.0141862
687.437	0.0142015
687.515	0.0140188
687.593	0.0139334
687.671	0.0139464
687.749	0.0135822
687.828	0.0135006
687.906	0.0135712
687.984	0.0133208
688.062	0.0131998
688.140	0.0130581
688.218	0.0128442
688.296	0.0128822
688.374	0.0127182
688.453	0.0125709
688.531	0.0125686
688.609	0.0124229
688.687	0.0124299
688.765	0.0123108
688.843	0.0122137
688.921	0.0121385
688.999	0.0120770
689.078	0.0120003
689.156	0.0118372
689.234	0.0118217
689.312	0.0117834
689.390	0.0118287
689.468	0.0116325
689.546	0.0117504
689.624	0.0117688
689.703	0.0118550
689.781	0.0119586
689.859	0.0121209
689.937	0.0121724
690.015	0.0121751
690.093	0.0122977
690.171	0.0123875
690.249	0.0125634
690.328	0.0124986
690.406	0.0126961
690.484	0.0126837
690.562	0.0128751
690.640	0.0128760
690.718	0.0131544
690.796	0.0132498
690.874	0.0135332
690.953	0.0137173
691.031	0.0139268
691.109	0.0141118
691.187	0.0143079
691.265	0.0145222
691.343	0.0146970
691.421	0.0149607
691.499	0.0150670
691.578	0.0154213
691.656	0.0154855
691.734	0.0155236
691.812	0.0154853
691.890	0.0155554
691.968	0.0154921
692.046	0.0153970
692.124	0.0154646
692.203	0.0153465
692.281	0.0151446
692.359	0.0150340
692.437	0.0147203
692.515	0.0145084
692.593	0.0140127
692.671	0.0137785
692.749	0.0135971
692.828	0.0133427
692.906	0.0129667
692.984	0.0126880
693.062	0.0123914
693.140	0.0122504
693.218	0.0121774
693.296	0.0119286
693.374	0.0117684
693.453	0.0118922
693.531	0.0117908
693.609	0.0117197
693.687	0.0118987
693.765	0.0118571
693.843	0.0119128
693.921	0.0119850
693.999	0.0121323
694.078	0.0122843
694.156	0.0123976
694.234	0.0125083
694.312	0.0127333
694.390	0.0126595
694.468	0.0128462
694.546	0.0129250
694.624	0.0130808
694.703	0.0131007
694.781	0.0132301
694.859	0.0133065
694.937	0.0132794
695.015	0.0130498
695.093	0.0133086
695.171	0.0133282
695.249	0.0132593
695.328	0.0129947
695.406	0.0129783
695.484	0.0130243
695.562	0.0129083
695.640	0.0128831
695.718	0.0128626
695.796	0.0130111
695.874	0.0129501
695.953	0.0130457
696.031	0.0131170
696.109	0.0133976
696.187	0.0135300
696.265	0.0138783
696.343	0.0141052
696.421	0.0142512
696.499	0.0145090
696.578	0.0146106
696.656	0.0146645
696.734	0.0148067
696.812	0.0148590
696.890	0.0148026
696.968	0.0149013
697.046	0.0148443
697.124	0.0145406
697.203	0.0145420
697.281	0.0147341
697.359	0.0143460
697.437	0.0141511
697.515	0.0140952
697.593	0.0141405
697.671	0.0138348
697.749	0.0136124
697.828	0.0134342
697.906	0.0133618
697.984	0.0131695
698.062	0.0128880
698.140	0.0129141
698.218	0.0126208
698.296	0.0124359
698.374	0.0121938
698.453	0.0122155
698.531	0.0121181
698.609	0.0120132
698.687	0.0119170
698.765	0.0118594
698.843	0.0117567
698.921	0.0118397
698.999	0.0118388
699.078	0.0117585
699.156	0.0118720
699.234	0.0118934
699.312	0.0119749
699.390	0.0119697
699.468	0.0119830
699.546	0.0120318
699.624	0.0121087
699.703	0.0121552
699.781	0.0123114
699.859	0.0123243
699.937	0.0125565
700.015	0.0127202
700.093	0.0129046
700.171	0.0131381
700.249	0.0133659
700.328	0.0135304
700.406	0.0137796
700.484	0.0140501
700.562	0.0143575
700.640	0.0146007
700.718	0.0145988
700.796	0.0148212
700.874	0.0151061
700.953	0.0151228
701.031	0.0150013
701.109	0.0151292
701.187	0.0150844
701.265	0.0150346
701.343	0.0149812
701.421	0.0146796
701.499	0.0146406
701.578	0.0143688
701.656	0.0139845
701.734	0.0137173
701.812	0.0134657
701.890	0.0133421
701.968	0.0130441
702.046	0.0128082
702.124	0.0126946
702.203	0.0124400
702.281	0.0122372
702.359	0.0121430
702.437	0.0122479
702.515	0.0119993
702.593	0.0118972
702.671	0.0120271
702.749	0.0118657
702.828	0.0120265
702.906	0.0120322
702.984	0.0120505
703.062	0.0122736
703.140	0.0123055
703.218	0.0124538
703.296	0.0124438
703.374	0.0125663
703.453	0.0126435
703.531	0.0128023
703.609	0.0128752
703.687	0.0129361
703.765	0.0130062
703.843	0.0130279
703.921	0.0132615
703.999	0.0132600
704.078	0.0132939
704.156	0.0133260
704.234	0.0133085
704.312	0.0135493
704.390	0.0136658
704.468	0.0135607
704.546	0.0135336
704.624	0.0137365
704.703	0.0138155
704.781	0.0137195
704.859	0.0137283
704.937	0.0137316
705.015	0.0137650
705.093	0.0136357
705.171	0.0136110
705.249	0.0134489
705.328	0.0132509
705.406	0.0131535
705.484	0.0130194
705.562	0.0128050
705.640	0.0126294
705.718	0.0125852
705.796	0.0125349
705.874	0.0125195
705.953	0.0125171
706.031	0.0125625
706.109	0.0126857
706.187	0.0126611
706.265	0.0127978
706.343	0.0131158
706.421	0.0134098
706.499	0.0135142
706.578	0.0135866
706.656	0.0137315
706.734	0.0139781
706.812	0.0140414
706.890	0.0140280
706.968	0.0142473
707.046	0.0141390
707.124	0.0141399
707.203	0.0141588
707.281	0.0139040
707.359	0.0139183
707.437	0.0140608
707.515	0.0138140
707.593	0.0136164
707.671	0.0136647
707.749	0.0136217
707.828	0.0133557
707.906	0.0133377
707.984	0.0131941
708.062	0.0132470
708.140	0.0131963
708.218	0.0130907
708.296	0.0129664
708.374	0.0128393
708.453	0.0127776
708.531	0.0127514
708.609	0.0125993
708.687	0.0124316
708.765	0.0122932
708.843	0.0123489
708.921	0.0123241
708.999	0.0123520
709.078	0.0122715
709.156	0.0122539
709.234	0.0122390
709.312	0.0123589
709.390	0.0125239
709.468	0.0125796
709.546	0.0128065
709.624	0.0130303
709.703	0.0131744
709.781	0.0135237
709.859	0.0136440
709.937	0.0138013
710.015	0.0138394
710.093	0.0139403
710.171	0.0140456
710.249	0.0141154
710.328	0.0140759
710.406	0.0141062
710.484	0.0141696
710.562	0.0139772
710.640	0.0138920
710.718	0.0138811
710.796	0.0135845
710.874	0.0134257
710.953	0.0133403
711.031	0.0133415
711.109	0.0133418
711.187	0.0132125
711.265	0.0131256
711.343	0.0131664
711.421	0.0132655
711.499	0.0132692
711.578	0.0132820
711.656	0.0133002
711.734	0.0132899
711.812	0.0131881
711.890	0.0134436
711.968	0.0132876
712.046	0.0132711
712.124	0.0132708
712.203	0.0134425
712.281	0.0133731
712.359	0.0135223
712.437	0.0134227
712.515	0.0135624
712.593	0.0133954
712.671	0.0135393
712.749	0.0134123
712.828	0.0134050
712.906	0.0133764
712.984	0.0133358
713.062	0.0132984
713.140	0.0133588
713.218	0.0131846
713.296	0.0131796
713.374	0.0133216
713.453	0.0131021
713.531	0.0131879
713.609	0.0132906
713.687	0.0131519
713.765	0.0130517
713.843	0.0131250
713.921	0.0133152
713.999	0.0132130
714.078	0.0132501
714.156	0.0132507
714.234	0.0133196
714.312	0.0132920
714.390	0.0134136
714.468	0.0132668
714.546	0.0132502
714.624	0.0132229
714.703	0.0133082
714.781	0.0131219
714.859	0.0131704
714.937	0.0131102
715.015	0.0130083
715.093	0.0131200
715.171	0.0130507
715.249	0.0131354
715.328	0.0131984
715.406	0.0132659
715.484	0.0130965
715.562	0.0132323
715.640	0.0131191
715.718	0.0131477
715.796	0.0131595
715.874	0.0131836
715.953	0.0133279
716.031	0.0133859
716.109	0.0133724
716.187	0.0134970
716.265	0.0135001
716.343	0.0135171
716.421	0.0136205
716.499	0.0133960
716.578	0.0135291
716.656	0.0135301
716.734	0.0136051
716.812	0.0136612
716.890	0.0136012
716.968	0.0136988
717.046	0.0136071
717.124	0.0135308
717.203	0.0134879
717.281	0.0133491
717.359	0.0131814
717.437	0.0130891
717.515	0.0132307
717.593	0.0132776
717.671	0.0130779
717.749	0.0131133
717.828	0.0132605
717.906	0.0133443
717.984	0.0132887
718.062	0.0134167
718.140	0.0135360
718.218	0.0136021
718.296	0.0136344
718.374	0.0137653
718.453	0.0136123
718.531	0.0137274
718.609	0.0136167
718.687	0.0135974
718.765	0.0136117
718.843	0.0134630
718.921	0.0132481
718.999	0.0132107
719.078	0.0131786
719.156	0.0130410
719.234	0.0130717
719.312	0.0128162
719.390	0.0128816
719.468	0.0129219
719.546	0.0130229
719.624	0.0129773
719.703	0.0132331
719.781	0.0132380
719.859	0.0133795
719.937	0.0134040
720.015	0.0135153
720.093	0.0135889
720.171	0.0136432
720.249	0.0137832
720.328	0.0138939
720.406	0.0137955
720.484	0.0136915
720.562	0.0137183
720.640	0.0138605
720.718	0.0136281
720.796	0.0134293
720.874	0.0134586
720.953	0.0134184
721.031	0.0134136
721.109	0.0132362
721.187	0.0130353
721.265	0.0129014
721.343	0.0129014
721.421	0.0130086
721.499	0.0128370
721.578	0.0128484
721.656	0.0127676
721.734	0.0127705
721.812	0.0131566
721.890	0.0130706
721.968	0.0131025
722.046	0.0132308
722.124	0.0132707
722.203	0.0133179
722.281	0.0133812
722.359	0.0134209
722.437	0.0135044
722.515	0.0135127
722.593	0.0133414
722.671	0.0134338
722.749	0.0132781
722.828	0.0131445
722.906	0.0130566
722.984	0.0130643
723.062	0.0127335
723.140	0.0125479
723.218	0.0125487
723.296	0.0125579
723.374	0.0124941
723.453	0.0123688
723.531	0.0123212
723.609	0.0124397
723.687	0.0125341
723.765	0.0126437
723.843	0.0127380
723.921	0.0126421
723.999	0.0129054
724.078	0.0131060
724.156	0.0132232
724.234	0.0132420
724.312	0.0134420
724.390	0.0135658
724.468	0.0134321
724.546	0.0133717
724.624	0.0134392
724.703	0.0136093
724.781	0.0136852
724.859	0.0135925
724.937	0.0134079
725.015	0.0135522
725.093	0.0134391
725.171	0.0135072
725.249	0.0134997
725.328	0.0133791
725.406	0.0135812
725.484	0.0135011
725.562	0.0135093
725.640	0.0134930
725.718	0.0136085
725.796	0.0135784
725.874	0.0134575
725.953	0.0135246
726.031	0.0134608
726.109	0.0133318
726.187	0.0133357
726.265	0.0134090
726.343	0.0132201
726.421	0.0130746
726.499	0.0132728
726.578	0.0131624
726.656	0.0130345
726.734	0.0131078
726.812	0.0131423
726.890	0.0129902
726.968	0.0131754
727.046	0.0130624
727.124	0.0131184
727.203	0.0132387
727.281	0.0131168
727.359	0.0133021
727.437	0.0133779
727.515	0.0131493
727.593	0.0132605
727.671	0.0134019
727.749	0.0133849
727.828	0.0133566
727.906	0.0134022
727.984	0.0132885
728.062	0.0132269
728.140	0.0133146
728.218	0.0130947
728.296	0.0129792
728.374	0.0127754
728.453	0.0126252
728.531	0.0125938
728.609	0.0125523
728.687	0.0125040
728.765	0.0123478
728.843	0.0124841
728.921	0.0124776
728.999	0.0125642
729.078	0.0126250
729.156	0.0127691
729.234	0.0127782
729.312	0.0129922
729.390	0.0131932
729.468	0.0133213
729.546	0.0132724
729.624	0.0136111
729.703	0.0136861
729.781	0.0135191
729.859	0.0137058
729.937	0.0135822
730.015	0.0137145
730.093	0.0135995
730.171	0.0135626
730.249	0.0136533
730.328	0.0135753
730.406	0.0133742
730.484	0.0134732
730.562	0.0134428
730.640	0.0135337
730.718	0.0134879
730.796	0.0134561
730.874	0.0135687
730.953	0.0133865
731.031	0.0135498
731.109	0.0135836
731.187	0.0135066
731.265	0.0136008
731.343	0.0138512
731.421	0.0137911
731.499	0.0134850
731.578	0.0135539
731.656	0.0135815
731.734	0.0134618
731.812	0.0135255
731.890	0.0134202
731.968	0.0133855
732.046	0.0134540
732.124	0.0133215
732.203	0.0132243
732.281	0.0130157
732.359	0.0129630
732.437	0.0128887
732.515	0.0129006
732.593	0.0128085
732.671	0.0129608
732.749	0.0128997
732.828	0.0129207
732.906	0.0129570
732.984	0.0130529
733.062	0.0130263
733.140	0.0131798
733.218	0.0130637
733.296	0.0132177
733.374	0.0133653
733.453	0.0134357
733.531	0.0133035
733.609	0.0133459
733.687	0.0134449
733.765	0.0134364
733.843	0.0133670
733.921	0.0132510
733.999	0.0134286
734.078	0.0134216
734.156	0.0134002
734.234	0.0134428
734.312	0.0134163
734.390	0.0133248
734.468	0.0133472
734.546	0.0133082
734.624	0.0132301
734.703	0.0131860
734.781	0.0132104
734.859	0.0132429
734.937	0.0132375
735.015	0.0131699
735.093	0.0131531
735.171	0.0130418
735.249	0.0130571
735.328	0.0131451
735.406	0.0132108
735.484	0.0131614
735.562	0.0132436
735.640	0.0131326
735.718	0.0130208
735.796	0.0131288
735.874	0.0131784
735.953	0.0132316
736.031	0.0133015
736.109	0.0132126
736.187	0.0131833
736.265	0.0132106
736.343	0.0131911
736.421	0.0130404
736.499	0.0131972
736.578	0.0134055
736.656	0.0133968
736.734	0.0131847
736.812	0.0134235
736.890	0.0133138
736.968	0.0134800
737.046	0.0135938
737.124	0.0133757
737.203	0.0133775
737.281	0.0134054
737.359	0.0134934
737.437	0.0136336
737.515	0.0135859
737.593	0.0135198
737.671	0.0136069
737.749	0.0134772
737.828	0.0135948
737.906	0.0136564
737.984	0.0135589
738.062	0.0135954
738.140	0.0135831
738.218	0.0134578
738.296	0.0135107
738.374	0.0133351
738.453	0.0134131
738.531	0.0134294
738.609	0.0134474
738.687	0.0133154
738.765	0.0131654
738.843	0.0132282
738.921	0.0131603
738.999	0.0131297
739.078	0.0132057
739.156	0.0132456
739.234	0.0130519
739.312	0.0130733
739.390	0.0129895
739.468	0.0129565
739.546	0.0130040
739.624	0.0130318
739.703	0.0130727
739.781	0.0129626
739.859	0.0129499
739.937	0.0130129
740.015	0.0130893
740.093	0.0130817
740.171	0.0129964
740.249	0.0130753
740.328	0.0131730
740.406	0.0132832
740.484	0.0133889
740.562	0.0132265
740.640	0.0134432
740.718	0.0134386
740.796	0.0134846
740.874	0.0135566
740.953	0.0137029
741.031	0.0137524
741.109	0.0136483
741.187	0.0137407
741.265	0.0137068
741.343	0.0135627
741.421	0.0135841
741.499	0.0136211
741.578	0.0133437
741.656	0.0131676
741.734	0.0132695
741.812	0.0131896
741.890	0.0130425
741.968	0.0129710
742.046	0.0129121
742.124	0.0128624
742.203	0.0129532
742.281	0.0128483
742.359	0.0129036
742.437	0.0129047
742.515	0.0130208
742.593	0.0131010
742.671	0.0131079
742.749	0.0130694
742.828	0.0130553
742.906	0.0132343
742.984	0.0133943
743.062	0.0132168
743.140	0.0132864
743.218	0.0133021
743.296	0.0133443
743.374	0.0132031
743.453	0.0132466
743.531	0.0132562
743.609	0.0131171
743.687	0.0131401
743.765	0.0130908
743.843	0.0130061
743.921	0.0129621
743.999	0.0130209
744.078	0.0129943
744.156	0.0130840
744.234	0.0129876
744.312	0.0129959
744.390	0.0131685
744.468	0.0132507
744.546	0.0132883
744.624	0.0133250
744.703	0.0133986
744.781	0.0134616
744.859	0.0133870
744.937	0.0134466
745.015	0.0134027
745.093	0.0135542
745.171	0.0134927
745.249	0.0136108
745.328	0.0134641
745.406	0.0135471
745.484	0.0133154
745.562	0.0134205
745.640	0.0133941
745.718	0.0132462
745.796	0.0132500
745.874	0.0131271
745.953	0.0130280
746.031	0.0129177
746.109	0.0129154
746.187	0.0129005
746.265	0.0130363
746.343	0.0129724
746.421	0.0130670
746.499	0.0130756
746.578	0.0130131
746.656	0.0130492
746.734	0.0131262
746.812	0.0131647
746.890	0.0130873
746.968	0.0133310
747.046	0.0132378
747.124	0.0132604
747.203	0.0132782
747.281	0.0133002
747.359	0.0132704
747.437	0.0133159
747.515	0.0131438
747.593	0.0132582
747.671	0.0132296
747.749	0.0131885
747.828	0.0131492
747.906	0.0131364
747.984	0.0132281
748.062	0.0132304
748.140	0.0131194
748.218	0.0133336
748.296	0.0133138
748.374	0.0133764
748.453	0.0131007
748.531	0.0131632
748.609	0.0132274
748.687	0.0131004
748.765	0.0130134
748.843	0.0130546
748.921	0.0131388
748.999	0.0129475
749.078	0.0127382
749.156	0.0128062
749.234	0.0127684
749.312	0.0128039
749.390	0.0126644
749.468	0.0127155
749.546	0.0128015
749.624	0.0129565
749.703	0.0130645
749.781	0.0130669
749.859	0.0131434
749.937	0.0131296
750.015	0.0132758
750.093	0.0132907
750.171	0.0134843
750.249	0.0135442
750.328	0.0134980
750.406	0.0134319
750.484	0.0135884
750.562	0.0135841
750.640	0.0136819
750.718	0.0137402
750.796	0.0136303
750.874	0.0135754
750.953	0.0135411
751.031	0.0136452
751.109	0.0136750
751.187	0.0135229
751.265	0.0134335
751.343	0.0133796
751.421	0.0132106
751.499	0.0133078
751.578	0.0131651
751.656	0.0131924
751.734	0.0131376
751.812	0.0132408
751.890	0.0130891
751.968	0.0130691
752.046	0.0132890
752.124	0.0132536
752.203	0.0132504
752.281	0.0131972
752.359	0.0132954
752.437	0.0133682
752.515	0.0132997
752.593	0.0132016
752.671	0.0130912
752.749	0.0132545
752.828	0.0131509
752.906	0.0131070
752.984	0.0129011
753.062	0.0128518
753.140	0.0129231
753.218	0.0128471
753.296	0.0128519
753.374	0.0127509
753.453	0.0127691
753.531	0.0129062
753.609	0.0129944
753.687	0.0130324
753.765	0.0131384
753.843	0.0129967
753.921	0.0131012
753.999	0.0130245
754.078	0.0132393
754.156	0.0133955
754.234	0.0133745
754.312	0.0134275
754.390	0.0133139
754.468	0.0133891
754.546	0.0135107
754.624	0.0135473
754.703	0.0136445
754.781	0.0135921
754.859	0.0136638
754.937	0.0136473
755.015	0.0136633
755.093	0.0136783
755.171	0.0135861
755.249	0.0135368
755.328	0.0136976
755.406	0.0136204
755.484	0.0135989
755.562	0.0135754
755.640	0.0136160
755.718	0.0135876
755.796	0.0134440
755.874	0.0134074
755.953	0.0134953
756.031	0.0135354
756.109	0.0132861
756.187	0.0132906
756.265	0.0132436
756.343	0.0132259
756.421	0.0133000
756.499	0.0131712
756.578	0.0129234
756.656	0.0130537
756.734	0.0128520
756.812	0.0129239
756.890	0.0129292
756.968	0.0128965
757.046	0.0127962
757.124	0.0127589
757.203	0.0127751
757.281	0.0129561
757.359	0.0129097
757.437	0.0129260
757.515	0.0129865
757.593	0.0129216
757.671	0.0131326
757.749	0.0132689
757.828	0.0131701
757.906	0.0132048
757.984	0.0133222
758.062	0.0134926
758.140	0.0134541
758.218	0.0135521
758.296	0.0136179
758.374	0.0135655
758.453	0.0136288
758.531	0.0136790
758.609	0.0136796
758.687	0.0137061
758.765	0.0135581
758.843	0.0137566
758.921	0.0136686
758.999	0.0135822
759.078	0.0137406
759.156	0.0136551
759.234	0.0136675
759.312	0.0137144
759.390	0.0137166
759.468	0.0136305
759.546	0.0136143
759.624	0.0136163
759.703	0.0135960
759.781	0.0134608
759.859	0.0135432
759.937	0.0133604
760.015	0.0134464
760.093	0.0133208
760.171	0.0131219
760.249	0.0129974
760.328	0.0129301
760.406	0.0129816
760.484	0.0127670
760.562	0.0127264
760.640	0.0127687
760.718	0.0128271
760.796	0.0129119
760.874	0.0129508
760.953	0.0130322
761.031	0.0130929
761.109	0.0132587
761.187	0.0133113
761.265	0.0134440
761.343	0.0133579
761.421	0.0133707
761.499	0.0134651
761.578	0.0133179
761.656	0.0134496
761.734	0.0134747
761.812	0.0134613
761.890	0.0134938
761.968	0.0133978
762.046	0.0134676
762.124	0.0134011
762.203	0.0134457
762.281	0.0133895
762.359	0.0134655
762.437	0.0134515
762.515	0.0134422
762.593	0.0134711
762.671	0.0133636
762.749	0.0134792
762.828	0.0135142
762.906	0.0133424
762.984	0.0134790
763.062	0.0134283
763.140	0.0134576
763.218	0.0133923
763.296	0.0134469
763.374	0.0135818
763.453	0.0134649
763.531	0.0133201
763.609	0.0132916
763.687	0.0134109
763.765	0.0135067
763.843	0.0133925
763.921	0.0133886
763.999	0.0133813
764.078	0.0132852
764.156	0.0133492
764.234	0.0133466
764.312	0.0133015
764.390	0.0132115
764.468	0.0132011
764.546	0.0131745
764.624	0.0130516
764.703	0.0130212
764.781	0.0129974
764.859	0.0129833
764.937	0.0129775
765.015	0.0129280
765.093	0.0128882
765.171	0.0128526
765.249	0.0128619
765.328	0.0127959
765.406	0.0129263
765.484	0.0128426
765.562	0.0128917
765.640	0.0128558
765.718	0.0129533
765.796	0.0128999
765.874	0.0130624
765.953	0.0129894
766.031	0.0129657
766.109	0.0130479
766.187	0.0130144
766.265	0.0131633
766.343	0.0132583
766.421	0.0132799
766.499	0.0132718
766.578	0.0131812
766.656	0.0132018
766.734	0.0131968
766.812	0.0131744
766.890	0.0131549
766.968	0.0130820
767.046	0.0132366
767.124	0.0133527
767.203	0.0133868
767.281	0.0132018
767.359	0.0133317
767.437	0.0134559
767.515	0.0135916
767.593	0.0134527
767.671	0.0136035
767.749	0.0135007
767.828	0.0134783
767.906	0.0136032
767.984	0.0135514
768.062	0.0134131
768.140	0.0133526
768.218	0.0133605
768.296	0.0134331
768.374	0.0133099
768.453	0.0133649
768.531	0.0132875
768.609	0.0133508
768.687	0.0132021
768.765	0.0132823
768.843	0.0131830
768.921	0.0131287
768.999	0.0129655
769.078	0.0130955
769.156	0.0130023
769.234	0.0128795
769.312	0.0129943
769.390	0.0129697
769.468	0.0129321
769.546	0.0129888
769.624	0.0128879
769.703	0.0129239
769.781	0.0129018
769.859	0.0130410
769.937	0.0130810
770.015	0.0131761
770.093	0.0131070
770.171	0.0131497
770.249	0.0131540
770.328	0.0131017
770.406	0.0131482
770.484	0.0131689
770.562	0.0131168
770.640	0.0130504
770.718	0.0129510
770.796	0.0128770
770.874	0.0130075
770.953	0.0129744
771.031	0.0129293
771.109	0.0128736
771.187	0.0128778
771.265	0.0130161
771.343	0.0128222
771.421	0.0129938
771.499	0.0130836
771.578	0.0129491
771.656	0.0129418
771.734	0.0129884
771.812	0.0131951
771.890	0.0129758
771.968	0.0129755
772.046	0.0130611
772.124	0.0130950
772.203	0.0132158
772.281	0.0133532
772.359	0.0133801
772.437	0.0133038
772.515	0.0133280
772.593	0.0134424
772.671	0.0135628
772.749	0.0136787
772.828	0.0135733
772.906	0.0136376
772.984	0.0136919
773.062	0.0136790
773.140	0.0134404
773.218	0.0135659
773.296	0.0135216
773.374	0.0133744
773.453	0.0133115
773.531	0.0133696
773.609	0.0134628
773.687	0.0131502
773.765	0.0131737
773.843	0.0132908
773.921	0.0131834
773.999	0.0132219
774.078	0.0133138
774.156	0.0131878
774.234	0.0132215
774.312	0.0130795
774.390	0.0132475
774.468	0.0131567
774.546	0.0131045
774.624	0.0131548
774.703	0.0130426
774.781	0.0132195
774.859	0.0131860
774.937	0.0131531
775.015	0.0132703
775.093	0.0132114
775.171	0.0132069
775.249	0.0131496
775.328	0.0131687
775.406	0.0133035
775.484	0.0133028
775.562	0.0132410
775.640	0.0131160
775.718	0.0132957
775.796	0.0132957
775.874	0.0132872
775.953	0.0133624
776.031	0.0133141
776.109	0.0132478
776.187	0.0132187
776.265	0.0133116
776.343	0.0132817
776.421	0.0132894
776.499	0.0132523
776.578	0.0133813
776.656	0.0134031
776.734	0.0131660
776.812	0.0132348
776.890	0.0132816
776.968	0.0131377
777.046	0.0132131
777.124	0.0132756
777.203	0.0131667
777.281	0.0131840
777.359	0.0130398
777.437	0.0132881
777.515	0.0132777
777.593	0.0131974
777.671	0.0131039
777.749	0.0130405
777.828	0.0131145
777.906	0.0131747
777.984	0.0130919
778.062	0.0129886
778.140	0.0129868
778.218	0.0130950
778.296	0.0130170
778.374	0.0131154
778.453	0.0131141
778.531	0.0130692
778.609	0.0130198
778.687	0.0131741
778.765	0.0131980
778.843	0.0133997
778.921	0.0135032
778.999	0.0135565
779.078	0.0135768
779.156	0.0135387
779.234	0.0136985
779.312	0.0136727
779.390	0.0137042
779.468	0.0135347
779.546	0.0136250
779.624	0.0137464
779.703	0.0136585
779.781	0.0136431
779.859	0.0134406
779.937	0.0136140
780.015	0.0135852
780.093	0.0135794
780.171	0.0135759
780.249	0.0135191
780.328	0.0134341
780.406	0.0135101
780.484	0.0135042
780.562	0.0133223
780.640	0.0132798
780.718	0.0132135
780.796	0.0131406
780.874	0.0133611
780.953	0.0132937
781.031	0.0131172
781.109	0.0129855
781.187	0.0133104
781.265	0.0130595
781.343	0.0130615
781.421	0.0130325
781.499	0.0130573
781.578	0.0130546
781.656	0.0130471
781.734	0.0130666
781.812	0.0130002
781.890	0.0130054
781.968	0.0131056
782.046	0.0129527
782.124	0.0130326
782.203	0.0131760
782.281	0.0131350
782.359	0.0131609
782.437	0.0131730
782.515	0.0133144
782.593	0.0134809
782.671	0.0134895
782.749	0.0131972
782.828	0.0133128
782.906	0.0134870
782.984	0.0133796
783.062	0.0133997
783.140	0.0135371
783.218	0.0135545
783.296	0.0134544
783.374	0.0134073
783.453	0.0134271
783.531	0.0133952
783.609	0.0134089
783.687	0.0133443
783.765	0.0135387
783.843	0.0134180
783.921	0.0133588
783.999	0.0134063
784.078	0.0134513
784.156	0.0134175
784.234	0.0134142
784.312	0.0133640
784.390	0.0133038
784.468	0.0132791
784.546	0.0132307
784.624	0.0132954
784.703	0.0132710
784.781	0.0133384
784.859	0.0132472
784.937	0.0131149
785.015	0.0132328
785.093	0.0132977
785.171	0.0131714
785.249	0.0132825
785.328	0.0132027
785.406	0.0131365
785.484	0.0130674
785.562	0.0131291
785.640	0.0132037
785.718	0.0131902
785.796	0.0131400
785.874	0.0131472
785.953	0.0132538
786.031	0.0131084
786.109	0.0131216
786.187	0.0132394
786.265	0.0132381
786.343	0.0131471
786.421	0.0132282
786.499	0.0132674
786.578	0.0131756
786.656	0.0132665
786.734	0.0132717
786.812	0.0133605
786.890	0.0133312
786.968	0.0133652
787.046	0.0134683
787.124	0.0131917
787.203	0.0133026
787.281	0.0134212
787.359	0.0132962
787.437	0.0132671
787.515	0.0133003
787.593	0.0132045
787.671	0.0133508
787.749	0.0134546
787.828	0.0133697
787.906	0.0133291
787.984	0.0133659
788.062	0.0134225
788.140	0.0133859
788.218	0.0134678
788.296	0.0135714
788.374	0.0135435
788.453	0.0135017
788.531	0.0136680
788.609	0.0136971
788.687	0.0135845
788.765	0.0135297
788.843	0.0136636
788.921	0.0137091
788.999	0.0136463
789.078	0.0135963
789.156	0.0136316
789.234	0.0135394
789.312	0.0136292
789.390	0.0136714
789.468	0.0136732
789.546	0.0135177
789.624	0.0133831
789.703	0.0134080
789.781	0.0134198
789.859	0.0132906
789.937	0.0132632
790.015	0.0132336
790.093	0.0130908
790.171	0.0130128
790.249	0.0130003
790.328	0.0129085
790.406	0.0127473
790.484	0.0129478
790.562	0.0128178
790.640	0.0127778
790.718	0.0128952
790.796	0.0129752
790.874	0.0128729
790.953	0.0129065
791.031	0.0128336
791.109	0.0130970
791.187	0.0131137
791.265	0.0130981
791.343	0.0130375
791.421	0.0129739
791.499	0.0128019
791.578	0.0131883
791.656	0.0131467
791.734	0.0131706
791.812	0.0131580
791.890	0.0131312
791.968	0.0131649
792.046	0.0134371
792.124	0.0132597
792.203	0.0133296
792.281	0.0134231
792.359	0.0132120
792.437	0.0131795
792.515	0.0133330
792.593	0.0133419
792.671	0.0133522
792.749	0.0131561
792.828	0.0131246
792.906	0.0133335
792.984	0.0132813
793.062	0.0133327
793.140	0.0132066
793.218	0.0132959
793.296	0.0133652
793.374	0.0133444
793.453	0.0132915
793.531	0.0135252
793.609	0.0133967
793.687	0.0135172
793.765	0.0134779
793.843	0.0135899
793.921	0.0134998
793.999	0.0136343
794.078	0.0133976
794.156	0.0135267
794.234	0.0134134
794.312	0.0135153
794.390	0.0135205
794.468	0.0134946
794.546	0.0134287
794.624	0.0133421
794.703	0.0134631
794.781	0.0133033
794.859	0.0134511
794.937	0.0133877
795.015	0.0134044
795.093	0.0132664
795.171	0.0133334
795.249	0.0132844
795.328	0.0131799
795.406	0.0131670
795.484	0.0132002
795.562	0.0131589
795.640	0.0130245
795.718	0.0130065
795.796	0.0130296
795.874	0.0130405
795.953	0.0129667
796.031	0.0130785
796.109	0.0130404
796.187	0.0131745
796.265	0.0132301
796.343	0.0131154
796.421	0.0130770
796.499	0.0132542
796.578	0.0133242
796.656	0.0133340
796.734	0.0133612
796.812	0.0132149
796.890	0.0132482
796.968	0.0132623
797.046	0.0131748
797.124	0.0132903
797.203	0.0132531
797.281	0.0132818
797.359	0.0132830
797.437	0.0132586
797.515	0.0133430
797.593	0.0132847
797.671	0.0133209
797.749	0.0132307
797.828	0.0133257
797.906	0.0133407
797.984	0.0132746
798.062	0.0131794
798.140	0.0131570
798.218	0.0131086
798.296	0.0131501
798.374	0.0130045
798.453	0.0129095
798.531	0.0129494
798.609	0.0129629
798.687	0.0129773
798.765	0.0129524
798.843	0.0129375
798.921	0.0127273
798.999	0.0128526
799.078	0.0129082
799.156	0.0129115
799.234	0.0127842
799.312	0.0129777
799.390	0.0128619
799.468	0.0129542
799.546	0.0130429
799.624	0.0128555
799.703	0.0129636
799.781	0.0132291
799.859	0.0132547
799.937	0.0132139
800.015	0.0132960
800.093	0.0134362
800.171	0.0136404
800.249	0.0133545
800.328	0.0134138
800.406	0.0135484
800.484	0.0135156
800.562	0.0136916
800.640	0.0135302
800.718	0.0135303
800.796	0.0134312
800.874	0.0133851
800.953	0.0134216
801.031	0.0134446
801.109	0.0133620
801.187	0.0131705
801.265	0.0132173
801.343	0.0131997
801.421	0.0133192
801.499	0.0132513
801.578	0.0130910
801.656	0.0130859
801.734	0.0132616
801.812	0.0130423
801.890	0.0129642
801.968	0.0130309
802.046	0.0132324
802.124	0.0131435
802.203	0.0130251
802.281	0.0129275
802.359	0.0129273
802.437	0.0130958
802.515	0.0130510
802.593	0.0130629
802.671	0.0130483
802.749	0.0129310
802.828	0.0131120
802.906	0.0130691
802.984	0.0130120
803.062	0.0128782
803.140	0.0131918
803.218	0.0131341
803.296	0.0130237
803.374	0.0130663
803.453	0.0130695
803.531	0.0132790
803.609	0.0131849
803.687	0.0132838
803.765	0.0133147
803.843	0.0132782
803.921	0.0133675
803.999	0.0133907
804.078	0.0134850
804.156	0.0134643
804.234	0.0134303
804.312	0.0135239
804.390	0.0135402
804.468	0.0134704
804.546	0.0135780
804.624	0.0134618
804.703	0.0134241
804.781	0.0135353
804.859	0.0133918
804.937	0.0133962
805.015	0.0133617
805.093	0.0133217
805.171	0.0133784
805.249	0.0133607
805.328	0.0132098
805.406	0.0131744
805.484	0.0132114
805.562	0.0132479
805.640	0.0129799
805.718	0.0130054
805.796	0.0132015
805.874	0.0130535
805.953	0.0130824
806.031	0.0131863
806.109	0.0130911
806.187	0.0130944
806.265	0.0131300
806.343	0.0131310
806.421	0.0130500
806.499	0.0131452
806.578	0.0131187
806.656	0.0130214
806.734	0.0130612
806.812	0.0131793
806.890	0.0131557
806.968	0.0130998
807.046	0.0130705
807.124	0.0131349
807.203	0.0131802
807.281	0.0132557
807.359	0.0132085
807.437	0.0132093
807.515	0.0133973
807.593	0.0134761
807.671	0.0133282
807.749	0.0133896
807.828	0.0135519
807.906	0.0135051
807.984	0.0136742
808.062	0.0136583
808.140	0.0137057
808.218	0.0134708
808.296	0.0134352
808.374	0.0133361
808.453	0.0133774
808.531	0.0134043
808.609	0.0134385
808.687	0.0132668
808.765	0.0133821
808.843	0.0134052
808.921	0.0132034
808.999	0.0132760
809.078	0.0134268
809.156	0.0132655
809.234	0.0132685
809.312	0.0133762
809.390	0.0132254
809.468	0.0132600
809.546	0.0133897
809.624	0.0132346
809.703	0.0133271
809.781	0.0132492
809.859	0.0133081
809.937	0.0132849
810.015	0.0131878
810.093	0.0131414
810.171	0.0132436
810.249	0.0132938
810.328	0.0132505
810.406	0.0131659
810.484	0.0131602
810.562	0.0132156
810.640	0.0132969
810.718	0.0132558
810.796	0.0131367
810.874	0.0132585
810.953	0.0132401
811.031	0.0133420
811.109	0.0132688
811.187	0.0133158
811.265	0.0132611
811.343	0.0131850
811.421	0.0132986
811.499	0.0133630
811.578	0.0132902
811.656	0.0133228
811.734	0.0132404
811.812	0.0132204
811.890	0.0132732
811.968	0.0132764
812.046	0.0134296
812.124	0.0133215
812.203	0.0132452
812.281	0.0132868
812.359	0.0133602
812.437	0.0134177
812.515	0.0132368
812.593	0.0133825
812.671	0.0132542
812.749	0.0133746
812.828	0.0134182
812.906	0.0132858
812.984	0.0133181
813.062	0.0132742
813.140	0.0134278
813.218	0.0133121
813.296	0.0132863
813.374	0.0132808
813.453	0.0132251
813.531	0.0133559
813.609	0.0133065
813.687	0.0134218
813.765	0.0132338
813.843	0.0133697
813.921	0.0133450
813.999	0.0132437
814.078	0.0132965
814.156	0.0133626
814.234	0.0133781
814.312	0.0134338
814.390	0.0134920
814.468	0.0134235
814.546	0.0134335
814.624	0.0134148
814.703	0.0134612
814.781	0.0134444
814.859	0.0134181
814.937	0.0134442
815.015	0.0135923
815.093	0.0134425
815.171	0.0134834
815.249	0.0133495
815.328	0.0132663
815.406	0.0134593
815.484	0.0133754
815.562	0.0132765
815.640	0.0132813
815.718	0.0132713
815.796	0.0133578
815.874	0.0131987
815.953	0.0132677
816.031	0.0131935
816.109	0.0132154
816.187	0.0131797
816.265	0.0132613
816.343	0.0132237
816.421	0.0130714
816.499	0.0131850
816.578	0.0131329
816.656	0.0131571
816.734	0.0131557
816.812	0.0132656
816.890	0.0131408
816.968	0.0132962
817.046	0.0132671
817.124	0.0133726
817.203	0.0133015
817.281	0.0134498
817.359	0.0133940
817.437	0.0132007
817.515	0.0133117
817.593	0.0134068
817.671	0.0132639
817.749	0.0133274
817.828	0.0132372
817.906	0.0132655
817.984	0.0132859
818.062	0.0132574
818.140	0.0131942
818.218	0.0130630
818.296	0.0130538
818.374	0.0130700
818.453	0.0130019
818.531	0.0131223
818.609	0.0132448
818.687	0.0132404
818.765	0.0132244
818.843	0.0130521
818.921	0.0131757
818.999	0.0132065
819.078	0.0133395
819.156	0.0132852
819.234	0.0133102
819.312	0.0133540
819.390	0.0134336
819.468	0.0135519
819.546	0.0135381
819.624	0.0135304
819.703	0.0136832
819.781	0.0135994
819.859	0.0134564
819.937	0.0134357
820.015	0.0135349
820.093	0.0133986
820.171	0.0133543
820.249	0.0134208
820.328	0.0134827
820.406	0.0133726
820.484	0.0133536
820.562	0.0133321
820.640	0.0132289
820.718	0.0131709
820.796	0.0132821
820.874	0.0131306
820.953	0.0131889
821.031	0.0131925
821.109	0.0131866
821.187	0.0130369
821.265	0.0131933
821.343	0.0130959
821.421	0.0132352
821.499	0.0131245
821.578	0.0130630
821.656	0.0132215
821.734	0.0129983
821.812	0.0131545
821.890	0.0132079
821.968	0.0133161
822.046	0.0132996
822.124	0.0131352
822.203	0.0131889
822.281	0.0131197
822.359	0.0133589
822.437	0.0132762
822.515	0.0133084
822.593	0.0133323
822.671	0.0133030
822.749	0.0132690
822.828	0.0131913
822.906	0.0133308
822.984	0.0132941
823.062	0.0134651
823.140	0.0133119
823.218	0.0132481
823.296	0.0133770
823.374	0.0133649
823.453	0.0134205
823.531	0.0134223
823.609	0.0133144
823.687	0.0131688
823.765	0.0131802
823.843	0.0132355
823.921	0.0132518
823.999	0.0133294
824.078	0.0131425
824.156	0.0131652
824.234	0.0131277
824.312	0.0131101
824.390	0.0131613
824.468	0.0130639
824.546	0.0131175
824.624	0.0131174
824.703	0.0130611
824.781	0.0129191
824.859	0.0130629
824.937	0.0130437
825.015	0.0129766
825.093	0.0129989
825.171	0.0129356
825.249	0.0129622
825.328	0.0130051
825.406	0.0130494
825.484	0.0131570
825.562	0.0129315
825.640	0.0130419
825.718	0.0130919
825.796	0.0130644
825.874	0.0131911
825.953	0.0131726
826.031	0.0131165
826.109	0.0131948
826.187	0.0131151
826.265	0.0131033
826.343	0.0130810
826.421	0.0129367
826.499	0.0130781
826.578	0.0131680
826.656	0.0130772
826.734	0.0129704
826.812	0.0130076
826.890	0.0130029
826.968	0.0130190
827.046	0.0130203
827.124	0.0129290
827.203	0.0130964
827.281	0.0131114
827.359	0.0130579
827.437	0.0130629
827.515	0.0129916
827.593	0.0129848
827.671	0.0131084
827.749	0.0130180
827.828	0.0129597
827.906	0.0128465
827.984	0.0129760
828.062	0.0131493
828.140	0.0129921
828.218	0.0132390
828.296	0.0132149
828.374	0.0132697
828.453	0.0133119
828.531	0.0132503
828.609	0.0133232
828.687	0.0132796
828.765	0.0132455
828.843	0.0132755
828.921	0.0131097
828.999	0.0133475
829.078	0.0132320
829.156	0.0130872
829.234	0.0131179
829.312	0.0131310
829.390	0.0131017
829.468	0.0129495
829.546	0.0130210
829.624	0.0131390
829.703	0.0130769
829.781	0.0130559
829.859	0.0130819
829.937	0.0131747
830.015	0.0130188
830.093	0.0131703
830.171	0.0131118
830.249	0.0130757
830.328	0.0130642
830.406	0.0130961
830.484	0.0130157
830.562	0.0131738
830.640	0.0132140
830.718	0.0130454
830.796	0.0130030
830.874	0.0132072
830.953	0.0132209
831.031	0.0131030
831.109	0.0131785
831.187	0.0131470
831.265	0.0131300
831.343	0.0131744
831.421	0.0132010
831.499	0.0131319
831.578	0.0131637
831.656	0.0130701
831.734	0.0132545
831.812	0.0131090
831.890	0.0131444
831.968	0.0133890
832.046	0.0131942
832.124	0.0132761
832.203	0.0133739
832.281	0.0132830
832.359	0.0132045
832.437	0.0132572
832.515	0.0131422
832.593	0.0133706
832.671	0.0133084
832.749	0.0133089
832.828	0.0133303
832.906	0.0132682
832.984	0.0133272
833.062	0.0133976
833.140	0.0133399
833.218	0.0132742
833.296	0.0132959
833.374	0.0131121
833.453	0.0133185
833.531	0.0135115
833.609	0.0132712
833.687	0.0133418
833.765	0.0133071
833.843	0.0133747
833.921	0.0134114
833.999	0.0133202
834.078	0.0132761
834.156	0.0133496
834.234	0.0134714
834.312	0.0134021
834.390	0.0132960
834.468	0.0133231
834.546	0.0134109
834.624	0.0133857
834.703	0.0132828
834.781	0.0133957
834.859	0.0134382
834.937	0.0134524
835.015	0.0133040
835.093	0.0134489
835.171	0.0134554
835.249	0.0132847
835.328	0.0134032
835.406	0.0133348
835.484	0.0133151
835.562	0.0133986
835.640	0.0132954
835.718	0.0132692
835.796	0.0132635
835.874	0.0133085
835.953	0.0132227
836.031	0.0132269
836.109	0.0131171
836.187	0.0132581
836.265	0.0132501
836.343	0.0131850
836.421	0.0130417
836.499	0.0132098
836.578	0.0133246
836.656	0.0132822
836.734	0.0132965
836.812	0.0134841
836.890	0.0132720
836.968	0.0132935
837.046	0.0133370
837.124	0.0133130
837.203	0.0132874
837.281	0.0133824
837.359	0.0135221
837.437	0.0133261
837.515	0.0134186
837.593	0.0134174
837.671	0.0134564
837.749	0.0133418
837.828	0.0134507
837.906	0.0135184
837.984	0.0134142
838.062	0.0134582
838.140	0.0133665
838.218	0.0133735
838.296	0.0132859
838.374	0.0134079
838.453	0.0133406
838.531	0.0134652
838.609	0.0133552
838.687	0.0132235
838.765	0.0133195
838.843	0.0133260
838.921	0.0132713
838.999	0.0132938
839.078	0.0134031
839.156	0.0132662
839.234	0.0134098
839.312	0.0134541
839.390	0.0133875
839.468	0.0133410
839.546	0.0135968
839.624	0.0134895
839.703	0.0135191
839.781	0.0132525
839.859	0.0134689
839.937	0.0133234
840.015	0.0133427
840.093	0.0134728
840.171	0.0133344
840.249	0.0132744
840.328	0.0131569
840.406	0.0133525
840.484	0.0133035
840.562	0.0133591
840.640	0.0134275
840.718	0.0131352
840.796	0.0133807
840.874	0.0133025
840.953	0.0133698
841.031	0.0132436
841.109	0.0133350
841.187	0.0133994
841.265	0.0133338
841.343	0.0133077
841.421	0.0131506
841.499	0.0134795
841.578	0.0133415
841.656	0.0132150
841.734	0.0132393
841.812	0.0133115
841.890	0.0132060
841.968	0.0132195
842.046	0.0133163
842.124	0.0132793
842.203	0.0132780
842.281	0.0132348
842.359	0.0133337
842.437	0.0132758
842.515	0.0132400
842.593	0.0133182
842.671	0.0132403
842.749	0.0131171
842.828	0.0132436
842.906	0.0132676
842.984	0.0132561
843.062	0.0131655
843.140	0.0132449
843.218	0.0131963
843.296	0.0133329
843.374	0.0132855
843.453	0.0132560
843.531	0.0132344
843.609	0.0132969
843.687	0.0132253
843.765	0.0132079
843.843	0.0132536
843.921	0.0132755
843.999	0.0131738
844.078	0.0132681
844.156	0.0132792
844.234	0.0132545
844.312	0.0133035
844.390	0.0134137
844.468	0.0132517
844.546	0.0131902
844.624	0.0133453
844.703	0.0132170
844.781	0.0133998
844.859	0.0132998
844.937	0.0133219
845.015	0.0133238
845.093	0.0133704
845.171	0.0133885
845.249	0.0133257
845.328	0.0135424
845.406	0.0133546
845.484	0.0133170
845.562	0.0134933
845.640	0.0134152
845.718	0.0133869
845.796	0.0132243
845.874	0.0132601
845.953	0.0133018
846.031	0.0131439
846.109	0.0131670
846.187	0.0131827
846.265	0.0131786
846.343	0.0130915
846.421	0.0132407
846.499	0.0132029
846.578	0.0131773
846.656	0.0131189
846.734	0.0132008
846.812	0.0130518
846.890	0.0132265
846.968	0.0132449
847.046	0.0131054
847.124	0.0130274
847.203	0.0130701
847.281	0.0130013
847.359	0.0129800
847.437	0.0130383
847.515	0.0130384
847.593	0.0130640
847.671	0.0130066
847.749	0.0130198
847.828	0.0129510
847.906	0.0131306
847.984	0.0130578
848.062	0.0131106
848.140	0.0131606
848.218	0.0130599
848.296	0.0130730
848.374	0.0131036
848.453	0.0131644
848.531	0.0131525
848.609	0.0131128
848.687	0.0132238
848.765	0.0132529
848.843	0.0130917
848.921	0.0133412
848.999	0.0133176
849.078	0.0133276
849.156	0.0133118
849.234	0.0132741
849.312	0.0132474
849.390	0.0133863
849.468	0.0133093
849.546	0.0132158
849.624	0.0132608
849.703	0.0132882
849.781	0.0133481
849.859	0.0133708
849.937	0.0133315
850.015	0.0131628
850.093	0.0132424
850.171	0.0133089
850.249	0.0132513
850.328	0.0132637
850.406	0.0130618
850.484	0.0131514
850.562	0.0131371
850.640	0.0131832
850.718	0.0132397
850.796	0.0131384
850.874	0.0130270
850.953	0.0131073
851.031	0.0130132
851.109	0.0129342
851.187	0.0129658
851.265	0.0128464
851.343	0.0128594
851.421	0.0128372
851.499	0.0128044
851.578	0.0126923
851.656	0.0127068
851.734	0.0128955
851.812	0.0128306
851.890	0.0128049
851.968	0.0127821
852.046	0.0130009
852.124	0.0128923
852.203	0.0128626
852.281	0.0129773
852.359	0.0131304
852.437	0.0131433
852.515	0.0131606
852.593	0.0131649
852.671	0.0132872
852.749	0.0134049
852.828	0.0134891
852.906	0.0133262
852.984	0.0133158
853.062	0.0136715
853.140	0.0136051
853.218	0.0136088
853.296	0.0134225
853.374	0.0136788
853.453	0.0136709
853.531	0.0137601
853.609	0.0136268
853.687	0.0136713
853.765	0.0135561
853.843	0.0134546
853.921	0.0135950
853.999	0.0135880
854.078	0.0133865
854.156	0.0134498
854.234	0.0133470
854.312	0.0131145
854.390	0.0131043
854.468	0.0130716
854.546	0.0129458
854.624	0.0129309
854.703	0.0130582
854.781	0.0128548
854.859	0.0128574
854.937	0.0129297
855.015	0.0129021
855.093	0.0126585
855.171	0.0126892
855.249	0.0129494
855.328	0.0129842
855.406	0.0127042
855.484	0.0128368
855.562	0.0130528
855.640	0.0129090
855.718	0.0128484
855.796	0.0129166
855.874	0.0130658
855.953	0.0129435
856.031	0.0129823
856.109	0.0131007
856.187	0.0130059
856.265	0.0131232
856.343	0.0131858
856.421	0.0132214
856.499	0.0132869
856.578	0.0132675
856.656	0.0133499
856.734	0.0132641
856.812	0.0131439
856.890	0.0132567
856.968	0.0134042
857.046	0.0133591
857.124	0.0132713
857.203	0.0133386
857.281	0.0134335
857.359	0.0133430
857.437	0.0134774
857.515	0.0134326
857.593	0.0135162
857.671	0.0134961
857.749	0.0136744
857.828	0.0137266
857.906	0.0136385
857.984	0.0137000
858.062	0.0135036
858.140	0.0135476
858.218	0.0134949
858.296	0.0135208
858.374	0.0135104
858.453	0.0134430
858.531	0.0135220
858.609	0.0133053
858.687	0.0133115
858.765	0.0132065
858.843	0.0132761
858.921	0.0133544
858.999	0.0131791
859.078	0.0130832
859.156	0.0132265
859.234	0.0131696
859.312	0.0131627
859.390	0.0130286
859.468	0.0130567
859.546	0.0131425
859.624	0.0130184
859.703	0.0130464
859.781	0.0130337
859.859	0.0129529
859.937	0.0130777
860.015	0.0132630
860.093	0.0132355
860.171	0.0130658
860.249	0.0131637
860.328	0.0132055
860.406	0.0131802
860.484	0.0131773
860.562	0.0131958
860.640	0.0132815
860.718	0.0132875
860.796	0.0133041
860.874	0.0132236
860.953	0.0131757
861.031	0.0133683
861.109	0.0132696
861.187	0.0133008
861.265	0.0132412
861.343	0.0133245
861.421	0.0131876
861.499	0.0132868
861.578	0.0132545
861.656	0.0132680
861.734	0.0133082
861.812	0.0131777
861.890	0.0132891
861.968	0.0133465
862.046	0.0133578
862.124	0.0132539
862.203	0.0132007
862.281	0.0134110
862.359	0.0134805
862.437	0.0133545
862.515	0.0134003
862.593	0.0134511
862.671	0.0134998
862.749	0.0134387
862.828	0.0134171
862.906	0.0133746
862.984	0.0134165
863.062	0.0133686
863.140	0.0133037
863.218	0.0132952
863.296	0.0133465
863.374	0.0132722
863.453	0.0131444
863.531	0.0132302
863.609	0.0132121
863.687	0.0132003
863.765	0.0132364
863.843	0.0131658
863.921	0.0132840
863.999	0.0132312
864.078	0.0133367
864.156	0.0133400
864.234	0.0133037
864.312	0.0132732
864.390	0.0132071
864.468	0.0131664
864.546	0.0132693
864.624	0.0131963
864.703	0.0133502
864.781	0.0133614
864.859	0.0132294
864.937	0.0131537
865.015	0.0131879
865.093	0.0132524
865.171	0.0131968
865.249	0.0130802
865.328	0.0130816
865.406	0.0130448
865.484	0.0129549
865.562	0.0130937
865.640	0.0131381
865.718	0.0129768
865.796	0.0130181
865.874	0.0132131
865.953	0.0131600
866.031	0.0132259
866.109	0.0132968
866.187	0.0133037
866.265	0.0134020
866.343	0.0134354
866.421	0.0135117
866.499	0.0134571
866.578	0.0133875
866.656	0.0134758
866.734	0.0134866
866.812	0.0134013
866.890	0.0134372
866.968	0.0134151
867.046	0.0134077
867.124	0.0134183
867.203	0.0133222
867.281	0.0131585
867.359	0.0132835
867.437	0.0133860
867.515	0.0133775
867.593	0.0133040
867.671	0.0131770
867.749	0.0132293
867.828	0.0131980
867.906	0.0132374
867.984	0.0132893
868.062	0.0132957
868.140	0.0132764
868.218	0.0132908
868.296	0.0132682
868.374	0.0133183
868.453	0.0130789
868.531	0.0131844
868.609	0.0132789
868.687	0.0131551
868.765	0.0131140
868.843	0.0131720
868.921	0.0131290
868.999	0.0130544
869.078	0.0129951
869.156	0.0131781
869.234	0.0130775
869.312	0.0130096
869.390	0.0130847
869.468	0.0131484
869.546	0.0131591
869.624	0.0130799
869.703	0.0129797
869.781	0.0130920
869.859	0.0132675
869.937	0.0130441
870.015	0.0130475
870.093	0.0132386
870.171	0.0131973
870.249	0.0130869
870.328	0.0131969
870.406	0.0133675
870.484	0.0132430
870.562	0.0132673
870.640	0.0132716
870.718	0.0132848
870.796	0.0133115
870.874	0.0133762
870.953	0.0134296
871.031	0.0134596
871.109	0.0135139
871.187	0.0133977
871.265	0.0134830
871.343	0.0134923
871.421	0.0133894
871.499	0.0134999
871.578	0.0134968
871.656	0.0134729
871.734	0.0133588
871.812	0.0133423
871.890	0.0133186
871.968	0.0132619
872.046	0.0132325
872.124	0.0131722
872.203	0.0131290
872.281	0.0131725
872.359	0.0130445
872.437	0.0129499
872.515	0.0130120
872.593	0.0129252
872.671	0.0129056
872.749	0.0129533
872.828	0.0129665
872.906	0.0128664
872.984	0.0128761
873.062	0.0129763
873.140	0.0130150
873.218	0.0129799
873.296	0.0130839
873.374	0.0132339
873.453	0.0131163
873.531	0.0131435
873.609	0.0132842
873.687	0.0133344
873.765	0.0133258
873.843	0.0132959
873.921	0.0132773
873.999	0.0132266
874.078	0.0134204
874.156	0.0135354
874.234	0.0133199
874.312	0.0133295
874.390	0.0133945
874.468	0.0134221
874.546	0.0133429
874.624	0.0134428
874.703	0.0135163
874.781	0.0133472
874.859	0.0134688
874.937	0.0133611
875.015	0.0132593
875.093	0.0132005
875.171	0.0132004
875.249	0.0133838
875.328	0.0131594
875.406	0.0131985
875.484	0.0131875
875.562	0.0131712
875.640	0.0130650
875.718	0.0131461
875.796	0.0129917
875.874	0.0129488
875.953	0.0129850
876.031	0.0129744
876.109	0.0129317
876.187	0.0129471
876.265	0.0128859
876.343	0.0130222
876.421	0.0130138
876.499	0.0130984
876.578	0.0132288
876.656	0.0132406
876.734	0.0132354
876.812	0.0130936
876.890	0.0131838
876.968	0.0132191
877.046	0.0133506
877.124	0.0134965
877.203	0.0134296
877.281	0.0134033
877.359	0.0133893
877.437	0.0136304
877.515	0.0135191
877.593	0.0135100
877.671	0.0135503
877.749	0.0136057
877.828	0.0135860
877.906	0.0135131
877.984	0.0135700
878.062	0.0135622
878.140	0.0135583
878.218	0.0135361
878.296	0.0134945
878.374	0.0135072
878.453	0.0134996
878.531	0.0135123
878.609	0.0133939
878.687	0.0132050
878.765	0.0133593
878.843	0.0134492
878.921	0.0134280
878.999	0.0132430
879.078	0.0132526
879.156	0.0133521
879.234	0.0132508
879.312	0.0132971
879.390	0.0133183
879.468	0.0132076
879.546	0.0132259
879.624	0.0133579
879.703	0.0131281
879.781	0.0131763
879.859	0.0131903
879.937	0.0130978
880.015	0.0130120
880.093	0.0130537
880.171	0.0131048
880.249	0.0132115
880.328	0.0129931
880.406	0.0130640
880.484	0.0128967
880.562	0.0130212
880.640	0.0130132
880.718	0.0131650
880.796	0.0130651
880.874	0.0129032
880.953	0.0129111
881.031	0.0130070
881.109	0.0131323
881.187	0.0129859
881.265	0.0130704
881.343	0.0130118
881.421	0.0130602
881.499	0.0131126
881.578	0.0131410
881.656	0.0130757
881.734	0.0131702
881.812	0.0131640
881.890	0.0131557
881.968	0.0132435
882.046	0.0132756
882.124	0.0132394
882.203	0.0130414
882.281	0.0132877
882.359	0.0132388
882.437	0.0132530
882.515	0.0133494
882.593	0.0132500
882.671	0.0133208
882.749	0.0132874
882.828	0.0133698
882.906	0.0134154
882.984	0.0133755
883.062	0.0134583
883.140	0.0134094
883.218	0.0134628
883.296	0.0135438
883.374	0.0133433
883.453	0.0134911
883.531	0.0133168
883.609	0.0133477
883.687	0.0135239
883.765	0.0134276
883.843	0.0132025
883.921	0.0132622
883.999	0.0133757
884.078	0.0132699
884.156	0.0133278
884.234	0.0133865
884.312	0.0133108
884.390	0.0132834
884.468	0.0131077
884.546	0.0131914
884.624	0.0131670
884.703	0.0132789
884.781	0.0131027
884.859	0.0131731
884.937	0.0130573
885.015	0.0130558
885.093	0.0131178
885.171	0.0129779
885.249	0.0130677
885.328	0.0131045
885.406	0.0130842
885.484	0.0130556
885.562	0.0129977
885.640	0.0130941
885.718	0.0130972
885.796	0.0129900
885.874	0.0130029
885.953	0.0132174
886.031	0.0131792
886.109	0.0130972
886.187	0.0130315
886.265	0.0130273
886.343	0.0131898
886.421	0.0133212
886.499	0.0132207
886.578	0.0132070
886.656	0.0131454
886.734	0.0132681
886.812	0.0132767
886.890	0.0131166
886.968	0.0131858
887.046	0.0131960
887.124	0.0131419
887.203	0.0131070
887.281	0.0132006
887.359	0.0132088
887.437	0.0131280
887.515	0.0132650
887.593	0.0131153
887.671	0.0131332
887.749	0.0132162
887.828	0.0132268
887.906	0.0132970
887.984	0.0133467
888.062	0.0132912
888.140	0.0133408
888.218	0.0133398
888.296	0.0134200
888.374	0.0134840
888.453	0.0135186
888.531	0.0134382
888.609	0.0134971
888.687	0.0134207
888.765	0.0134379
888.843	0.0134757
888.921	0.0135442
888.999	0.0134371
889.078	0.0133851
889.156	0.0132395
889.234	0.0133842
889.312	0.0133775
889.390	0.0133849
889.468	0.0132642
889.546	0.0132733
889.624	0.0134331
889.703	0.0132873
889.781	0.0131441
889.859	0.0131758
889.937	0.0132287
890.015	0.0131664
890.093	0.0132642
890.171	0.0133218
890.249	0.0132244
890.328	0.0131519
890.406	0.0130415
890.484	0.0132776
890.562	0.0133021
890.640	0.0131669
890.718	0.0131462
890.796	0.0130655
890.874	0.0133035
890.953	0.0133236
891.031	0.0134240
891.109	0.0132289
891.187	0.0133655
891.265	0.0132965
891.343	0.0133511
891.421	0.0133231
891.499	0.0133698
891.578	0.0133460
891.656	0.0133978
891.734	0.0131893
891.812	0.0132232
891.890	0.0133944
891.968	0.0134249
892.046	0.0134772
892.124	0.0133270
892.203	0.0135030
892.281	0.0133701
892.359	0.0134173
892.437	0.0133851
892.515	0.0133557
892.593	0.0133331
892.671	0.0133162
892.749	0.0133421
892.828	0.0134538
892.906	0.0133318
892.984	0.0134152
893.062	0.0134229
893.140	0.0134253
893.218	0.0133887
893.296	0.0134595
893.374	0.0132893
893.453	0.0132569
893.531	0.0131700
893.609	0.0131197
893.687	0.0132346
893.765	0.0131190
893.843	0.0132465
893.921	0.0131164
893.999	0.0131726
894.078	0.0132404
894.156	0.0132175
894.234	0.0131226
894.312	0.0130325
894.390	0.0131616
894.468	0.0130865
894.546	0.0130823
894.624	0.0130798
894.703	0.0133037
894.781	0.0130417
894.859	0.0132042
894.937	0.0132129
895.015	0.0132682
895.093	0.0132642
895.171	0.0132258
895.249	0.0132748
895.328	0.0132639
895.406	0.0133537
895.484	0.0132875
895.562	0.0133922
895.640	0.0133585
895.718	0.0134648
895.796	0.0133173
895.874	0.0132391
895.953	0.0133766
896.031	0.0134319
896.109	0.0134687
896.187	0.0133718
896.265	0.0134390
896.343	0.0134770
896.421	0.0134161
896.499	0.0133368
896.578	0.0135275
896.656	0.0134715
896.734	0.0133530
896.812	0.0132961
896.890	0.0133672
896.968	0.0132732
897.046	0.0132341
897.124	0.0131390
897.203	0.0132715
897.281	0.0132272
897.359	0.0132090
897.437	0.0132005
897.515	0.0131182
897.593	0.0130551
897.671	0.0131561
897.749	0.0131930
897.828	0.0132571
897.906	0.0131949
897.984	0.0131820
898.062	0.0132561
898.140	0.0131843
898.218	0.0133202
898.296	0.0133671
898.374	0.0133443
898.453	0.0133953
898.531	0.0133489
898.609	0.0134534
898.687	0.0134085
898.765	0.0133566
898.843	0.0134565
898.921	0.0134136
898.999	0.0134908
899.078	0.0132907
899.156	0.0133141
899.234	0.0134371
899.312	0.0134209
899.390	0.0133743
899.468	0.0133833
899.546	0.0132790
899.624	0.0133084
899.703	0.0133414
899.781	0.0133420
899.859	0.0133978
899.937	0.0133863
900.015	0.0133948
900.093	0.0133593
900.171	0.0132346
900.249	0.0133680
900.328	0.0132736
900.406	0.0133322
900.484	0.0132638
900.562	0.0134598
900.640	0.0132767
900.718	0.0132735
900.796	0.0132776
900.874	0.0132920
900.953	0.0132671
901.031	0.0133836
901.109	0.0133992
901.187	0.0131486
901.265	0.0132520
901.343	0.0133017
901.421	0.0133640
901.499	0.0133717
901.578	0.0131922
901.656	0.0134499
901.734	0.0134947
901.812	0.0132959
901.890	0.0132347
901.968	0.0132011
902.046	0.0132639
902.124	0.0131994
902.203	0.0131514
902.281	0.0131916
902.359	0.0132938
902.437	0.0131811
902.515	0.0131511
902.593	0.0131293
902.671	0.0131452
902.749	0.0131161
902.828	0.0130284
902.906	0.0130268
902.984	0.0129885
903.062	0.0130424
903.140	0.0129765
903.218	0.0130666
903.296	0.0131000
903.374	0.0131036
903.453	0.0131963
903.531	0.0130765
903.609	0.0130412
903.687	0.0130054
903.765	0.0131129
903.843	0.0129386
903.921	0.0130754
903.999	0.0131513
904.078	0.0131180
904.156	0.0131197
904.234	0.0130904
904.312	0.0132339
904.390	0.0133655
904.468	0.0133650
904.546	0.0133366
904.624	0.0133095
904.703	0.0132092
904.781	0.0133848
904.859	0.0134262
904.937	0.0133781
905.015	0.0133501
905.093	0.0132749
905.171	0.0134286
905.249	0.0133469
905.328	0.0134654
905.406	0.0134545
905.484	0.0134635
905.562	0.0134586
905.640	0.0136156
905.718	0.0133669
905.796	0.0134672
905.874	0.0134246
905.953	0.0133693
906.031	0.0133311
906.109	0.0134597
906.187	0.0134353
906.265	0.0133479
906.343	0.0134457
906.421	0.0133977
906.499	0.0133155
906.578	0.0133245
906.656	0.0133981
906.734	0.0131817
906.812	0.0133006
906.890	0.0132081
906.968	0.0132507
907.046	0.0131326
907.124	0.0131974
907.203	0.0132413
907.281	0.0130992
907.359	0.0130753
907.437	0.0131020
907.515	0.0130965
907.593	0.0131558
907.671	0.0130648
907.749	0.0132294
907.828	0.0132532
907.906	0.0131558
907.984	0.0132020
908.062	0.0132149
908.140	0.0132394
908.218	0.0131692
908.296	0.0132849
908.374	0.0132710
908.453	0.0132436
908.531	0.0133370
908.609	0.0132878
908.687	0.0133206
908.765	0.0133319
908.843	0.0132285
908.921	0.0132584
908.999	0.0132964
909.078	0.0132994
909.156	0.0134067
909.234	0.0133571
909.312	0.0133094
909.390	0.0132770
909.468	0.0133012
909.546	0.0133111
909.624	0.0132133
909.703	0.0131519
909.781	0.0132114
909.859	0.0132601
909.937	0.0132587
910.015	0.0132805
910.093	0.0130946
910.171	0.0131965
910.249	0.0133250
910.328	0.0132548
910.406	0.0132574
910.484	0.0132608
910.562	0.0132360
910.640	0.0132230
910.718	0.0133205
910.796	0.0131998
910.874	0.0131763
910.953	0.0132173
911.031	0.0132690
911.109	0.0132581
911.187	0.0132776
911.265	0.0131636
911.343	0.0132922
911.421	0.0133887
911.499	0.0132447
911.578	0.0133322
911.656	0.0133800
911.734	0.0133663
911.812	0.0133994
911.890	0.0131947
911.968	0.0132974
912.046	0.0133622
912.124	0.0132694
912.203	0.0132589
912.281	0.0133482
912.359	0.0132888
912.437	0.0132481
912.515	0.0134006
912.593	0.0132513
912.671	0.0132565
912.749	0.0132871
912.828	0.0133372
912.906	0.0133440
912.984	0.0132248
913.062	0.0132000
913.140	0.0132822
913.218	0.0132349
913.296	0.0132504
913.374	0.0131800
913.453	0.0134559
913.531	0.0132149
913.609	0.0131435
913.687	0.0132660
913.765	0.0132272
913.843	0.0133514
913.921	0.0135195
913.999	0.0133791
914.078	0.0133633
914.156	0.0133294
914.234	0.0133726
914.312	0.0133939
914.390	0.0133724
914.468	0.0133406
914.546	0.0134409
914.624	0.0134093
914.703	0.0133645
914.781	0.0133586
914.859	0.0132322
914.937	0.0133274
915.015	0.0133624
915.093	0.0134087
915.171	0.0134741
915.249	0.0133905
915.328	0.0134144
915.406	0.0134317
915.484	0.0134834
915.562	0.0135016
915.640	0.0134433
915.718	0.0133817
915.796	0.0132488
915.874	0.0132625
915.953	0.0133144
916.031	0.0133855
916.109	0.0132429
916.187	0.0131950
916.265	0.0133515
916.343	0.0132419
916.421	0.0131918
916.499	0.0132222
916.578	0.0132368
916.656	0.0131249
916.734	0.0132075
916.812	0.0130865
916.890	0.0131878
916.968	0.0131950
917.046	0.0132282
917.124	0.0132228
917.203	0.0132043
917.281	0.0133330
917.359	0.0132500
917.437	0.0132225
917.515	0.0132366
917.593	0.0131439
917.671	0.0131417
917.749	0.0131741
917.828	0.0131481
917.906	0.0131042
917.984	0.0131319
918.062	0.0131530
918.140	0.0132379
918.218	0.0131041
918.296	0.0131180
918.374	0.0130654
918.453	0.0131779
918.531	0.0130980
918.609	0.0131389
918.687	0.0132353
918.765	0.0130886
918.843	0.0131671
918.921	0.0131424
918.999	0.0132298
919.078	0.0132196
919.156	0.0132061
919.234	0.0131560
919.312	0.0131329
919.390	0.0132824
919.468	0.0132280
919.546	0.0132688
919.624	0.0131459
919.703	0.0131917
919.781	0.0132803
919.859	0.0133734
919.937	0.0132098
