05/08/2022	20:11:51	Ver.	4.1	UNKNOWN
Optical Delay	600.015094	Delta X		0.078125	Sweeps	1	Scan Rate	0/0
Coordinates	Axis 1	NaN	Axis 2	NaN	Axis 3	NaN	Axis 4	NaN	Axis 5	NaN	Axis 6	0.000000
TX Power	0.000000	RX Power	0.000000

600.015	0.0139964
600.093	0.0139245
600.171	0.0140666
600.249	0.0140233
600.328	0.0140548
600.406	0.0140294
600.484	0.0141020
600.562	0.0141465
600.640	0.0140617
600.718	0.0140332
600.796	0.0140073
600.874	0.0140230
600.953	0.0141537
601.031	0.0141071
601.109	0.0141405
601.187	0.0141978
601.265	0.0140853
601.343	0.0139655
601.421	0.0141084
601.499	0.0141084
601.578	0.0141322
601.656	0.0140313
601.734	0.0140247
601.812	0.0139991
601.890	0.0141504
601.968	0.0141441
602.046	0.0140403
602.124	0.0140530
602.203	0.0139777
602.281	0.0141154
602.359	0.0141354
602.437	0.0140479
602.515	0.0140861
602.593	0.0141452
602.671	0.0141373
602.749	0.0138845
602.828	0.0140633
602.906	0.0140607
602.984	0.0139342
603.062	0.0140649
603.140	0.0140887
603.218	0.0140186
603.296	0.0140135
603.374	0.0141741
603.453	0.0140665
603.531	0.0139420
603.609	0.0138933
603.687	0.0140831
603.765	0.0140852
603.843	0.0139732
603.921	0.0140676
603.999	0.0140034
604.078	0.0140192
604.156	0.0140955
604.234	0.0139620
604.312	0.0140844
604.390	0.0139611
604.468	0.0140759
604.546	0.0140910
604.624	0.0140279
604.703	0.0140378
604.781	0.0140511
604.859	0.0141022
604.937	0.0141389
605.015	0.0139864
605.093	0.0140668
605.171	0.0140461
605.249	0.0139547
605.328	0.0141196
605.406	0.0140151
605.484	0.0140720
605.562	0.0141220
605.640	0.0140447
605.718	0.0141567
605.796	0.0140585
605.874	0.0140862
605.953	0.0140083
606.031	0.0141142
606.109	0.0140803
606.187	0.0140811
606.265	0.0140739
606.343	0.0140453
606.421	0.0140113
606.499	0.0141649
606.578	0.0141235
606.656	0.0139816
606.734	0.0141956
606.812	0.0140466
606.890	0.0141624
606.968	0.0140925
607.046	0.0140238
607.124	0.0141180
607.203	0.0140053
607.281	0.0140932
607.359	0.0141384
607.437	0.0139529
607.515	0.0141025
607.593	0.0140196
607.671	0.0139471
607.749	0.0141245
607.828	0.0140889
607.906	0.0141257
607.984	0.0141175
608.062	0.0140298
608.140	0.0141770
608.218	0.0141502
608.296	0.0140335
608.374	0.0140639
608.453	0.0139561
608.531	0.0140275
608.609	0.0140924
608.687	0.0140619
608.765	0.0138679
608.843	0.0139083
608.921	0.0139977
608.999	0.0140936
609.078	0.0139826
609.156	0.0139429
609.234	0.0138860
609.312	0.0139935
609.390	0.0138512
609.468	0.0139877
609.546	0.0139787
609.624	0.0140187
609.703	0.0140568
609.781	0.0139410
609.859	0.0140728
609.937	0.0139599
610.015	0.0140582
610.093	0.0139645
610.171	0.0139624
610.249	0.0140627
610.328	0.0140727
610.406	0.0139840
610.484	0.0139745
610.562	0.0140476
610.640	0.0142076
610.718	0.0138990
610.796	0.0140781
610.874	0.0139030
610.953	0.0140685
611.031	0.0138485
611.109	0.0139622
611.187	0.0140727
611.265	0.0139977
611.343	0.0140167
611.421	0.0139459
611.499	0.0139874
611.578	0.0140498
611.656	0.0140172
611.734	0.0139457
611.812	0.0139213
611.890	0.0140466
611.968	0.0140284
612.046	0.0138937
612.124	0.0138852
612.203	0.0139854
612.281	0.0139783
612.359	0.0139917
612.437	0.0140380
612.515	0.0140406
612.593	0.0138457
612.671	0.0140077
612.749	0.0139988
612.828	0.0141063
612.906	0.0140196
612.984	0.0140719
613.062	0.0140479
613.140	0.0140073
613.218	0.0140514
613.296	0.0140070
613.374	0.0141286
613.453	0.0141104
613.531	0.0140920
613.609	0.0138942
613.687	0.0140437
613.765	0.0139820
613.843	0.0140918
613.921	0.0141210
613.999	0.0139918
614.078	0.0140333
614.156	0.0138379
614.234	0.0138379
614.312	0.0139613
614.390	0.0139657
614.468	0.0141237
614.546	0.0138630
614.624	0.0139909
614.703	0.0140184
614.781	0.0138508
614.859	0.0139777
614.937	0.0139633
615.015	0.0139857
615.093	0.0139710
615.171	0.0139567
615.249	0.0138068
615.328	0.0138685
615.406	0.0139030
615.484	0.0139745
615.562	0.0138721
615.640	0.0139597
615.718	0.0140848
615.796	0.0138587
615.874	0.0139857
615.953	0.0140355
616.031	0.0140607
616.109	0.0141139
616.187	0.0139375
616.265	0.0139117
616.343	0.0139326
616.421	0.0140173
616.499	0.0141991
616.578	0.0140395
616.656	0.0139677
616.734	0.0139573
616.812	0.0139403
616.890	0.0139413
616.968	0.0139613
617.046	0.0139129
617.124	0.0141102
617.203	0.0141124
617.281	0.0139507
617.359	0.0139645
617.437	0.0140313
617.515	0.0140435
617.593	0.0138657
617.671	0.0138837
617.749	0.0139515
617.828	0.0139813
617.906	0.0140400
617.984	0.0140244
618.062	0.0140109
618.140	0.0140732
618.218	0.0140873
618.296	0.0140588
618.374	0.0139423
618.453	0.0138910
618.531	0.0140231
618.609	0.0140632
618.687	0.0141139
618.765	0.0140845
618.843	0.0140854
618.921	0.0140694
618.999	0.0138989
619.078	0.0140122
619.156	0.0140154
619.234	0.0140422
619.312	0.0140314
619.390	0.0141246
619.468	0.0140163
619.546	0.0139136
619.624	0.0138256
619.703	0.0139297
619.781	0.0139675
619.859	0.0140569
619.937	0.0139563
620.015	0.0139054
620.093	0.0141029
620.171	0.0140305
620.249	0.0138046
620.328	0.0139371
620.406	0.0140221
620.484	0.0140056
620.562	0.0138837
620.640	0.0138666
620.718	0.0139851
620.796	0.0138892
620.874	0.0138663
620.953	0.0139400
621.031	0.0139566
621.109	0.0140096
621.187	0.0140932
621.265	0.0140058
621.343	0.0141339
621.421	0.0139857
621.499	0.0139516
621.578	0.0139120
621.656	0.0141083
621.734	0.0140619
621.812	0.0138988
621.890	0.0138996
621.968	0.0138747
622.046	0.0139233
622.124	0.0140926
622.203	0.0140366
622.281	0.0139181
622.359	0.0139947
622.437	0.0140764
622.515	0.0139455
622.593	0.0138554
622.671	0.0139980
622.749	0.0137995
622.828	0.0139285
622.906	0.0138642
622.984	0.0140323
623.062	0.0140031
623.140	0.0138933
623.218	0.0138710
623.296	0.0139863
623.374	0.0138208
623.453	0.0138187
623.531	0.0139249
623.609	0.0140038
623.687	0.0139819
623.765	0.0140234
623.843	0.0139231
623.921	0.0139980
623.999	0.0138927
624.078	0.0140638
624.156	0.0140293
624.234	0.0140150
624.312	0.0140146
624.390	0.0139838
624.468	0.0139405
624.546	0.0140438
624.624	0.0139645
624.703	0.0139951
624.781	0.0140191
624.859	0.0140511
624.937	0.0141435
625.015	0.0140783
625.093	0.0139675
625.171	0.0140710
625.249	0.0140827
625.328	0.0139959
625.406	0.0140563
625.484	0.0141658
625.562	0.0140596
625.640	0.0141539
625.718	0.0140503
625.796	0.0140949
625.874	0.0139679
625.953	0.0140911
626.031	0.0140750
626.109	0.0141808
626.187	0.0139891
626.265	0.0140794
626.343	0.0141328
626.421	0.0140797
626.499	0.0140556
626.578	0.0139545
626.656	0.0139312
626.734	0.0141977
626.812	0.0141617
626.890	0.0141217
626.968	0.0139389
627.046	0.0141282
627.124	0.0140523
627.203	0.0141360
627.281	0.0139384
627.359	0.0141167
627.437	0.0140582
627.515	0.0139428
627.593	0.0139873
627.671	0.0140963
627.749	0.0141558
627.828	0.0141239
627.906	0.0140262
627.984	0.0140156
628.062	0.0140302
628.140	0.0141219
628.218	0.0141528
628.296	0.0141172
628.374	0.0139444
628.453	0.0140125
628.531	0.0140986
628.609	0.0138929
628.687	0.0138936
628.765	0.0139122
628.843	0.0141078
628.921	0.0141345
628.999	0.0140575
629.078	0.0140461
629.156	0.0139713
629.234	0.0139728
629.312	0.0138980
629.390	0.0140139
629.468	0.0139220
629.546	0.0139355
629.624	0.0140982
629.703	0.0142508
629.781	0.0140421
629.859	0.0139747
629.937	0.0139711
630.015	0.0140202
630.093	0.0138770
630.171	0.0140307
630.249	0.0140353
630.328	0.0141123
630.406	0.0139892
630.484	0.0138918
630.562	0.0139560
630.640	0.0139941
630.718	0.0140726
630.796	0.0140273
630.874	0.0140019
630.953	0.0139634
631.031	0.0138523
631.109	0.0140014
631.187	0.0139475
631.265	0.0139642
631.343	0.0140907
631.421	0.0141755
631.499	0.0139794
631.578	0.0139885
631.656	0.0139578
631.734	0.0140687
631.812	0.0141048
631.890	0.0139893
631.968	0.0141248
632.046	0.0141001
632.124	0.0140471
632.203	0.0142098
632.281	0.0140599
632.359	0.0141209
632.437	0.0140038
632.515	0.0140089
632.593	0.0140681
632.671	0.0141068
632.749	0.0140790
632.828	0.0140440
632.906	0.0140287
632.984	0.0140770
633.062	0.0140853
633.140	0.0141730
633.218	0.0141611
633.296	0.0140273
633.374	0.0139328
633.453	0.0141257
633.531	0.0141489
633.609	0.0141102
633.687	0.0140285
633.765	0.0140440
633.843	0.0140318
633.921	0.0140701
633.999	0.0139776
634.078	0.0140900
634.156	0.0140048
634.234	0.0140298
634.312	0.0141691
634.390	0.0139819
634.468	0.0139613
634.546	0.0141046
634.624	0.0140819
634.703	0.0139632
634.781	0.0140845
634.859	0.0141187
634.937	0.0140497
635.015	0.0139661
635.093	0.0139796
635.171	0.0141477
635.249	0.0141026
635.328	0.0140510
635.406	0.0140622
635.484	0.0140876
635.562	0.0141049
635.640	0.0142091
635.718	0.0142129
635.796	0.0140907
635.874	0.0140955
635.953	0.0140452
636.031	0.0139668
636.109	0.0141238
636.187	0.0140778
636.265	0.0142278
636.343	0.0141415
636.421	0.0141872
636.499	0.0141956
636.578	0.0140468
636.656	0.0139725
636.734	0.0139611
636.812	0.0140860
636.890	0.0142401
636.968	0.0140294
637.046	0.0141522
637.124	0.0142132
637.203	0.0141096
637.281	0.0140218
637.359	0.0139920
637.437	0.0141280
637.515	0.0139597
637.593	0.0140598
637.671	0.0139835
637.749	0.0141014
637.828	0.0140527
637.906	0.0140132
637.984	0.0140463
638.062	0.0140443
638.140	0.0141354
638.218	0.0140521
638.296	0.0140104
638.374	0.0140788
638.453	0.0139759
638.531	0.0140900
638.609	0.0138418
638.687	0.0139460
638.765	0.0139548
638.843	0.0139546
638.921	0.0140386
638.999	0.0141209
639.078	0.0140549
639.156	0.0138571
639.234	0.0138288
639.312	0.0139813
639.390	0.0140345
639.468	0.0141013
639.546	0.0138868
639.624	0.0139957
639.703	0.0139793
639.781	0.0139061
639.859	0.0140283
639.937	0.0138831
640.015	0.0138794
640.093	0.0141021
640.171	0.0139331
640.249	0.0140884
640.328	0.0139533
640.406	0.0139944
640.484	0.0139596
640.562	0.0139970
640.640	0.0139375
640.718	0.0139948
640.796	0.0139991
640.874	0.0140365
640.953	0.0139865
641.031	0.0141734
641.109	0.0140168
641.187	0.0139876
641.265	0.0140582
641.343	0.0142413
641.421	0.0139265
641.499	0.0139655
641.578	0.0139588
641.656	0.0139235
641.734	0.0140450
641.812	0.0140220
641.890	0.0139337
641.968	0.0138515
642.046	0.0140157
642.124	0.0139083
642.203	0.0140352
642.281	0.0140137
642.359	0.0140543
642.437	0.0139088
642.515	0.0139735
642.593	0.0140154
642.671	0.0140276
642.749	0.0141050
642.828	0.0141505
642.906	0.0140549
642.984	0.0140324
643.062	0.0139536
643.140	0.0139619
643.218	0.0140008
643.296	0.0141055
643.374	0.0138311
643.453	0.0138881
643.531	0.0139226
643.609	0.0138535
643.687	0.0138061
643.765	0.0138599
643.843	0.0138715
643.921	0.0138126
643.999	0.0139153
644.078	0.0136252
644.156	0.0138501
644.234	0.0138461
644.312	0.0139365
644.390	0.0138906
644.468	0.0138593
644.546	0.0140185
644.624	0.0140627
644.703	0.0140172
644.781	0.0140862
644.859	0.0141322
644.937	0.0141395
645.015	0.0139152
645.093	0.0140872
645.171	0.0141103
645.249	0.0139774
645.328	0.0139579
645.406	0.0140829
645.484	0.0140350
645.562	0.0140767
645.640	0.0139877
645.718	0.0138931
645.796	0.0138630
645.874	0.0138556
645.953	0.0138671
646.031	0.0138609
646.109	0.0137541
646.187	0.0137681
646.265	0.0138067
646.343	0.0137850
646.421	0.0135711
646.499	0.0136933
646.578	0.0138154
646.656	0.0137193
646.734	0.0137391
646.812	0.0137957
646.890	0.0139783
646.968	0.0138938
647.046	0.0139986
647.124	0.0140957
647.203	0.0141599
647.281	0.0142226
647.359	0.0141311
647.437	0.0141921
647.515	0.0141667
647.593	0.0143330
647.671	0.0143416
647.749	0.0141740
647.828	0.0141673
647.906	0.0141307
647.984	0.0140912
648.062	0.0141828
648.140	0.0140927
648.218	0.0139130
648.296	0.0138828
648.374	0.0137160
648.453	0.0135739
648.531	0.0135722
648.609	0.0135755
648.687	0.0135907
648.765	0.0136170
648.843	0.0136772
648.921	0.0135689
648.999	0.0136278
649.078	0.0137384
649.156	0.0137289
649.234	0.0138261
649.312	0.0139779
649.390	0.0140876
649.468	0.0141279
649.546	0.0142512
649.624	0.0142361
649.703	0.0144109
649.781	0.0144202
649.859	0.0145054
649.937	0.0146738
650.015	0.0145825
650.093	0.0143209
650.171	0.0142400
650.249	0.0143495
650.328	0.0142654
650.406	0.0143196
650.484	0.0142076
650.562	0.0139217
650.640	0.0139868
650.718	0.0138945
650.796	0.0138635
650.874	0.0137539
650.953	0.0135108
651.031	0.0135043
651.109	0.0135440
651.187	0.0136810
651.265	0.0133680
651.343	0.0134476
651.421	0.0134514
651.499	0.0135410
651.578	0.0133540
651.656	0.0135416
651.734	0.0136826
651.812	0.0137180
651.890	0.0137468
651.968	0.0137262
652.046	0.0139512
652.124	0.0140998
652.203	0.0141617
652.281	0.0141608
652.359	0.0143752
652.437	0.0146101
652.515	0.0145776
652.593	0.0146384
652.671	0.0148794
652.749	0.0148952
652.828	0.0149969
652.906	0.0152023
652.984	0.0151434
653.062	0.0152178
653.140	0.0152126
653.218	0.0151640
653.296	0.0149783
653.374	0.0147811
653.453	0.0146386
653.531	0.0143311
653.609	0.0140863
653.687	0.0139161
653.765	0.0136550
653.843	0.0133035
653.921	0.0131907
653.999	0.0129676
654.078	0.0129377
654.156	0.0127675
654.234	0.0126083
654.312	0.0125290
654.390	0.0124513
654.468	0.0124974
654.546	0.0124553
654.624	0.0123820
654.703	0.0125983
654.781	0.0125809
654.859	0.0126691
654.937	0.0129830
655.015	0.0130530
655.093	0.0132883
655.171	0.0134982
655.249	0.0138918
655.328	0.0141091
655.406	0.0143985
655.484	0.0147337
655.562	0.0149509
655.640	0.0150971
655.718	0.0153714
655.796	0.0154518
655.874	0.0155880
655.953	0.0155951
656.031	0.0156631
656.109	0.0157417
656.187	0.0156481
656.265	0.0154537
656.343	0.0153690
656.421	0.0153425
656.499	0.0151412
656.578	0.0150933
656.656	0.0149702
656.734	0.0146713
656.812	0.0145176
656.890	0.0144979
656.968	0.0142689
657.046	0.0143067
657.124	0.0139093
657.203	0.0139555
657.281	0.0137317
657.359	0.0137316
657.437	0.0136830
657.515	0.0135983
657.593	0.0134092
657.671	0.0133601
657.749	0.0132159
657.828	0.0130625
657.906	0.0129764
657.984	0.0128316
658.062	0.0127071
658.140	0.0126254
658.218	0.0123962
658.296	0.0124559
658.374	0.0124080
658.453	0.0123773
658.531	0.0124110
658.609	0.0123999
658.687	0.0123330
658.765	0.0125169
658.843	0.0126734
658.921	0.0127388
658.999	0.0129294
659.078	0.0132707
659.156	0.0132957
659.234	0.0136095
659.312	0.0139384
659.390	0.0141554
659.468	0.0144218
659.546	0.0148767
659.624	0.0149915
659.703	0.0152122
659.781	0.0154782
659.859	0.0156012
659.937	0.0159017
660.015	0.0159005
660.093	0.0160699
660.171	0.0163329
660.249	0.0162348
660.328	0.0162112
660.406	0.0162716
660.484	0.0162134
660.562	0.0160204
660.640	0.0160689
660.718	0.0160019
660.796	0.0156045
660.874	0.0155362
660.953	0.0153065
661.031	0.0150350
661.109	0.0147986
661.187	0.0145623
661.265	0.0142989
661.343	0.0140101
661.421	0.0137947
661.499	0.0133846
661.578	0.0131377
661.656	0.0128861
661.734	0.0128343
661.812	0.0125129
661.890	0.0122991
661.968	0.0121320
662.046	0.0119845
662.124	0.0118530
662.203	0.0117719
662.281	0.0116619
662.359	0.0117619
662.437	0.0118448
662.515	0.0117686
662.593	0.0118111
662.671	0.0118398
662.749	0.0119096
662.828	0.0119789
662.906	0.0121767
662.984	0.0122883
663.062	0.0123909
663.140	0.0125844
663.218	0.0130372
663.296	0.0131122
663.374	0.0135106
663.453	0.0136609
663.531	0.0140155
663.609	0.0144489
663.687	0.0147527
663.765	0.0151003
663.843	0.0154662
663.921	0.0156492
663.999	0.0159178
664.078	0.0163203
664.156	0.0163972
664.234	0.0166856
664.312	0.0167877
664.390	0.0167908
664.468	0.0169240
664.546	0.0167791
664.624	0.0167000
664.703	0.0167116
664.781	0.0165228
664.859	0.0161462
664.937	0.0160014
665.015	0.0155431
665.093	0.0153486
665.171	0.0150613
665.249	0.0147593
665.328	0.0143463
665.406	0.0140477
665.484	0.0139282
665.562	0.0135019
665.640	0.0131826
665.718	0.0131651
665.796	0.0129977
665.874	0.0127247
665.953	0.0125507
666.031	0.0124695
666.109	0.0125848
666.187	0.0123803
666.265	0.0124342
666.343	0.0125315
666.421	0.0124786
666.499	0.0124233
666.578	0.0125111
666.656	0.0126197
666.734	0.0127022
666.812	0.0126254
666.890	0.0127396
666.968	0.0126678
667.046	0.0129738
667.124	0.0128043
667.203	0.0128942
667.281	0.0127146
667.359	0.0130161
667.437	0.0131271
667.515	0.0130530
667.593	0.0130796
667.671	0.0132571
667.749	0.0131958
667.828	0.0133860
667.906	0.0133463
667.984	0.0134153
668.062	0.0134192
668.140	0.0134962
668.218	0.0136482
668.296	0.0141221
668.374	0.0140622
668.453	0.0142676
668.531	0.0144759
668.609	0.0146668
668.687	0.0147636
668.765	0.0149663
668.843	0.0152171
668.921	0.0152753
668.999	0.0155133
669.078	0.0157244
669.156	0.0157565
669.234	0.0159394
669.312	0.0161857
669.390	0.0161109
669.468	0.0163990
669.546	0.0164243
669.624	0.0164301
669.703	0.0163376
669.781	0.0164268
669.859	0.0163919
669.937	0.0162693
670.015	0.0161559
670.093	0.0158880
670.171	0.0156837
670.249	0.0153031
670.328	0.0149216
670.406	0.0148820
670.484	0.0144667
670.562	0.0141751
670.640	0.0137336
670.718	0.0134818
670.796	0.0133226
670.874	0.0129570
670.953	0.0129219
671.031	0.0125273
671.109	0.0121042
671.187	0.0119696
671.265	0.0118690
671.343	0.0114556
671.421	0.0113704
671.499	0.0112342
671.578	0.0109132
671.656	0.0106767
671.734	0.0106239
671.812	0.0104552
671.890	0.0105102
671.968	0.0106788
672.046	0.0107738
672.124	0.0110604
672.203	0.0113290
672.281	0.0114973
672.359	0.0120026
672.437	0.0122282
672.515	0.0127596
672.593	0.0130193
672.671	0.0133827
672.749	0.0138156
672.828	0.0141319
672.906	0.0143479
672.984	0.0146980
673.062	0.0149088
673.140	0.0152733
673.218	0.0155011
673.296	0.0158566
673.374	0.0160136
673.453	0.0162553
673.531	0.0164206
673.609	0.0164993
673.687	0.0168936
673.765	0.0168384
673.843	0.0170400
673.921	0.0172009
673.999	0.0170654
674.078	0.0172637
674.156	0.0171420
674.234	0.0169918
674.312	0.0168549
674.390	0.0166125
674.468	0.0163516
674.546	0.0160742
674.624	0.0158019
674.703	0.0154436
674.781	0.0150598
674.859	0.0146676
674.937	0.0142506
675.015	0.0140323
675.093	0.0135694
675.171	0.0131447
675.249	0.0129845
675.328	0.0127217
675.406	0.0125719
675.484	0.0123979
675.562	0.0121081
675.640	0.0121487
675.718	0.0119694
675.796	0.0120634
675.874	0.0120609
675.953	0.0120293
676.031	0.0119833
676.109	0.0120594
676.187	0.0121762
676.265	0.0122189
676.343	0.0124546
676.421	0.0124564
676.499	0.0122919
676.578	0.0123022
676.656	0.0123815
676.734	0.0125317
676.812	0.0123056
676.890	0.0124097
676.968	0.0123692
677.046	0.0124454
677.124	0.0123898
677.203	0.0123681
677.281	0.0126239
677.359	0.0127717
677.437	0.0129706
677.515	0.0133168
677.593	0.0135603
677.671	0.0140952
677.749	0.0144711
677.828	0.0147491
677.906	0.0150661
677.984	0.0153745
678.062	0.0157682
678.140	0.0161097
678.218	0.0162640
678.296	0.0163783
678.374	0.0165192
678.453	0.0164538
678.531	0.0165373
678.609	0.0163789
678.687	0.0161274
678.765	0.0159447
678.843	0.0156562
678.921	0.0154027
678.999	0.0152626
679.078	0.0149099
679.156	0.0147387
679.234	0.0145190
679.312	0.0142785
679.390	0.0142236
679.468	0.0140533
679.546	0.0139360
679.624	0.0139237
679.703	0.0139192
679.781	0.0137718
679.859	0.0138402
679.937	0.0137614
680.015	0.0138828
680.093	0.0139632
680.171	0.0139919
680.249	0.0139926
680.328	0.0137704
680.406	0.0138004
680.484	0.0139275
680.562	0.0137728
680.640	0.0135259
680.718	0.0135499
680.796	0.0135640
680.874	0.0133565
680.953	0.0133533
681.031	0.0133695
681.109	0.0133453
681.187	0.0133835
681.265	0.0134641
681.343	0.0134074
681.421	0.0134144
681.499	0.0134069
681.578	0.0135241
681.656	0.0135506
681.734	0.0134966
681.812	0.0134827
681.890	0.0135197
681.968	0.0133994
682.046	0.0134090
682.124	0.0133804
682.203	0.0134052
682.281	0.0134476
682.359	0.0133805
682.437	0.0133641
682.515	0.0134789
682.593	0.0134383
682.671	0.0133894
682.749	0.0134641
682.828	0.0135242
682.906	0.0136795
682.984	0.0137926
683.062	0.0138661
683.140	0.0140375
683.218	0.0141118
683.296	0.0143926
683.374	0.0146130
683.453	0.0145945
683.531	0.0149830
683.609	0.0150696
683.687	0.0151334
683.765	0.0151906
683.843	0.0150459
683.921	0.0149010
683.999	0.0149023
684.078	0.0148306
684.156	0.0146511
684.234	0.0142108
684.312	0.0142075
684.390	0.0140793
684.468	0.0138992
684.546	0.0137463
684.624	0.0135734
684.703	0.0135577
684.781	0.0134536
684.859	0.0134643
684.937	0.0134298
685.015	0.0135276
685.093	0.0134729
685.171	0.0136846
685.249	0.0138953
685.328	0.0138397
685.406	0.0141935
685.484	0.0142141
685.562	0.0144041
685.640	0.0146894
685.718	0.0147646
685.796	0.0147520
685.874	0.0146580
685.953	0.0147687
686.031	0.0148520
686.109	0.0148280
686.187	0.0147074
686.265	0.0148108
686.343	0.0145364
686.421	0.0146308
686.499	0.0144950
686.578	0.0143679
686.656	0.0144260
686.734	0.0145346
686.812	0.0144348
686.890	0.0143044
686.968	0.0143905
687.046	0.0144244
687.124	0.0144679
687.203	0.0144221
687.281	0.0142615
687.359	0.0142012
687.437	0.0140351
687.515	0.0139265
687.593	0.0137527
687.671	0.0136668
687.749	0.0135015
687.828	0.0133533
687.906	0.0130772
687.984	0.0129606
688.062	0.0128392
688.140	0.0126609
688.218	0.0127221
688.296	0.0125477
688.374	0.0125555
688.453	0.0125203
688.531	0.0124523
688.609	0.0127090
688.687	0.0128158
688.765	0.0129823
688.843	0.0128937
688.921	0.0130532
688.999	0.0133203
689.078	0.0133388
689.156	0.0135153
689.234	0.0136387
689.312	0.0137057
689.390	0.0137749
689.468	0.0136880
689.546	0.0139306
689.624	0.0139818
689.703	0.0139986
689.781	0.0139120
689.859	0.0141737
689.937	0.0142381
690.015	0.0143240
690.093	0.0146758
690.171	0.0147478
690.249	0.0149342
690.328	0.0149332
690.406	0.0150986
690.484	0.0152898
690.562	0.0153003
690.640	0.0154344
690.718	0.0155607
690.796	0.0155027
690.874	0.0156281
690.953	0.0155423
691.031	0.0158234
691.109	0.0159486
691.187	0.0156989
691.265	0.0157601
691.343	0.0158968
691.421	0.0158273
691.499	0.0157664
691.578	0.0156184
691.656	0.0155956
691.734	0.0154085
691.812	0.0151698
691.890	0.0152006
691.968	0.0149251
692.046	0.0147839
692.124	0.0144936
692.203	0.0143684
692.281	0.0139909
692.359	0.0138235
692.437	0.0135978
692.515	0.0134363
692.593	0.0131253
692.671	0.0129884
692.749	0.0127184
692.828	0.0126270
692.906	0.0123488
692.984	0.0123230
693.062	0.0121753
693.140	0.0122586
693.218	0.0120828
693.296	0.0121040
693.374	0.0119125
693.453	0.0119088
693.531	0.0118568
693.609	0.0118445
693.687	0.0117855
693.765	0.0118386
693.843	0.0119205
693.921	0.0120622
693.999	0.0122018
694.078	0.0123622
694.156	0.0125996
694.234	0.0128983
694.312	0.0130915
694.390	0.0133216
694.468	0.0135845
694.546	0.0138641
694.624	0.0142072
694.703	0.0144768
694.781	0.0145407
694.859	0.0147510
694.937	0.0147951
695.015	0.0148761
695.093	0.0150304
695.171	0.0152526
695.249	0.0152113
695.328	0.0151779
695.406	0.0152982
695.484	0.0153043
695.562	0.0153037
695.640	0.0155081
695.718	0.0154882
695.796	0.0154480
695.874	0.0156847
695.953	0.0156242
696.031	0.0156651
696.109	0.0156317
696.187	0.0155313
696.265	0.0155178
696.343	0.0155788
696.421	0.0155945
696.499	0.0155148
696.578	0.0153392
696.656	0.0152293
696.734	0.0150975
696.812	0.0149907
696.890	0.0146786
696.968	0.0147144
697.046	0.0143992
697.124	0.0142262
697.203	0.0141727
697.281	0.0138129
697.359	0.0137466
697.437	0.0135490
697.515	0.0133875
697.593	0.0133614
697.671	0.0131185
697.749	0.0130163
697.828	0.0129817
697.906	0.0127350
697.984	0.0127539
698.062	0.0127219
698.140	0.0125824
698.218	0.0125043
698.296	0.0123862
698.374	0.0125175
698.453	0.0124763
698.531	0.0122876
698.609	0.0124972
698.687	0.0126100
698.765	0.0125240
698.843	0.0128569
698.921	0.0130898
698.999	0.0131709
699.078	0.0134512
699.156	0.0136549
699.234	0.0138591
699.312	0.0140142
699.390	0.0141288
699.468	0.0141945
699.546	0.0143607
699.624	0.0145554
699.703	0.0145102
699.781	0.0143924
699.859	0.0144740
699.937	0.0144576
700.015	0.0141932
700.093	0.0141141
700.171	0.0141258
700.249	0.0138185
700.328	0.0137197
700.406	0.0134898
700.484	0.0136356
700.562	0.0135318
700.640	0.0134212
700.718	0.0135410
700.796	0.0136624
700.874	0.0137369
700.953	0.0138679
701.031	0.0137569
701.109	0.0139640
701.187	0.0141506
701.265	0.0144574
701.343	0.0146119
701.421	0.0147959
701.499	0.0148286
701.578	0.0151006
701.656	0.0152883
701.734	0.0154713
701.812	0.0157035
701.890	0.0157999
701.968	0.0156818
702.046	0.0158796
702.124	0.0158111
702.203	0.0158302
702.281	0.0160222
702.359	0.0158498
702.437	0.0155375
702.515	0.0154723
702.593	0.0154523
702.671	0.0153600
702.749	0.0151416
702.828	0.0149500
702.906	0.0147383
702.984	0.0144960
703.062	0.0142819
703.140	0.0139582
703.218	0.0136272
703.296	0.0133498
703.374	0.0131734
703.453	0.0127956
703.531	0.0125065
703.609	0.0123478
703.687	0.0121434
703.765	0.0119678
703.843	0.0118851
703.921	0.0119217
703.999	0.0118232
704.078	0.0117873
704.156	0.0116883
704.234	0.0119680
704.312	0.0121251
704.390	0.0124058
704.468	0.0125586
704.546	0.0125921
704.624	0.0128225
704.703	0.0130012
704.781	0.0134213
704.859	0.0135062
704.937	0.0138261
705.015	0.0138773
705.093	0.0140450
705.171	0.0142506
705.249	0.0142829
705.328	0.0144257
705.406	0.0147244
705.484	0.0147496
705.562	0.0147559
705.640	0.0148519
705.718	0.0147656
705.796	0.0148955
705.874	0.0149088
705.953	0.0149040
706.031	0.0149581
706.109	0.0149644
706.187	0.0150141
706.265	0.0150401
706.343	0.0149334
706.421	0.0149229
706.499	0.0149592
706.578	0.0148142
706.656	0.0146834
706.734	0.0143230
706.812	0.0144859
706.890	0.0142138
706.968	0.0141426
707.046	0.0140646
707.124	0.0140948
707.203	0.0139376
707.281	0.0138077
707.359	0.0136099
707.437	0.0136031
707.515	0.0136701
707.593	0.0138037
707.671	0.0137165
707.749	0.0138990
707.828	0.0139401
707.906	0.0140344
707.984	0.0142335
708.062	0.0144318
708.140	0.0143931
708.218	0.0146022
708.296	0.0146748
708.374	0.0148426
708.453	0.0149045
708.531	0.0148416
708.609	0.0147506
708.687	0.0145658
708.765	0.0145174
708.843	0.0145962
708.921	0.0143915
708.999	0.0141670
709.078	0.0141537
709.156	0.0141035
709.234	0.0139471
709.312	0.0136536
709.390	0.0134588
709.468	0.0135444
709.546	0.0133015
709.624	0.0134004
709.703	0.0131915
709.781	0.0132121
709.859	0.0131654
709.937	0.0130656
710.015	0.0131003
710.093	0.0130994
710.171	0.0130478
710.249	0.0130564
710.328	0.0130550
710.406	0.0131121
710.484	0.0132372
710.562	0.0131322
710.640	0.0132117
710.718	0.0133573
710.796	0.0133543
710.874	0.0133173
710.953	0.0134679
711.031	0.0137193
711.109	0.0137038
711.187	0.0137264
711.265	0.0139038
711.343	0.0139233
711.421	0.0140306
711.499	0.0142201
711.578	0.0144444
711.656	0.0145717
711.734	0.0148080
711.812	0.0149048
711.890	0.0150620
711.968	0.0152347
712.046	0.0153096
712.124	0.0151063
712.203	0.0153673
712.281	0.0154516
712.359	0.0153160
712.437	0.0151859
712.515	0.0151156
712.593	0.0151072
712.671	0.0151276
712.749	0.0148250
712.828	0.0147366
712.906	0.0146986
712.984	0.0144424
713.062	0.0142986
713.140	0.0142518
713.218	0.0141425
713.296	0.0139848
713.374	0.0139306
713.453	0.0138236
713.531	0.0136846
713.609	0.0137107
713.687	0.0137215
713.765	0.0135667
713.843	0.0134735
713.921	0.0135209
713.999	0.0134663
714.078	0.0135053
714.156	0.0135163
714.234	0.0135929
714.312	0.0133879
714.390	0.0134946
714.468	0.0136308
714.546	0.0135777
714.624	0.0135364
714.703	0.0134798
714.781	0.0134187
714.859	0.0134136
714.937	0.0134606
715.015	0.0135114
715.093	0.0134485
715.171	0.0133895
715.249	0.0134741
715.328	0.0133845
715.406	0.0131931
715.484	0.0133073
715.562	0.0133339
715.640	0.0134037
715.718	0.0134441
715.796	0.0134228
715.874	0.0135934
715.953	0.0136217
716.031	0.0136893
716.109	0.0138142
716.187	0.0138965
716.265	0.0139552
716.343	0.0139768
716.421	0.0140702
716.499	0.0140726
716.578	0.0142500
716.656	0.0142721
716.734	0.0142513
716.812	0.0142246
716.890	0.0141998
716.968	0.0141605
717.046	0.0141427
717.124	0.0142318
717.203	0.0141380
717.281	0.0142204
717.359	0.0141571
717.437	0.0141422
717.515	0.0142841
717.593	0.0143832
717.671	0.0144209
717.749	0.0145177
717.828	0.0144730
717.906	0.0146088
717.984	0.0146346
718.062	0.0145534
718.140	0.0146242
718.218	0.0146072
718.296	0.0145444
718.374	0.0145931
718.453	0.0146198
718.531	0.0144807
718.609	0.0142973
718.687	0.0144040
718.765	0.0141572
718.843	0.0140883
718.921	0.0140919
718.999	0.0141363
719.078	0.0138834
719.156	0.0138939
719.234	0.0138173
719.312	0.0138136
719.390	0.0136933
719.468	0.0135959
719.546	0.0136092
719.624	0.0137048
719.703	0.0135097
719.781	0.0134738
719.859	0.0136395
719.937	0.0136160
720.015	0.0135339
720.093	0.0135942
720.171	0.0135569
720.249	0.0136599
720.328	0.0134674
720.406	0.0135838
720.484	0.0136022
720.562	0.0135070
720.640	0.0133334
720.718	0.0135323
720.796	0.0133588
720.874	0.0133179
720.953	0.0133832
721.031	0.0134305
721.109	0.0134644
721.187	0.0133955
721.265	0.0134161
721.343	0.0137482
721.421	0.0137791
721.499	0.0140188
721.578	0.0142304
721.656	0.0141660
721.734	0.0141794
721.812	0.0143785
721.890	0.0143684
721.968	0.0143671
722.046	0.0144046
722.124	0.0143495
722.203	0.0145518
722.281	0.0142690
722.359	0.0143964
722.437	0.0142890
722.515	0.0142885
722.593	0.0141605
722.671	0.0140852
722.749	0.0140693
722.828	0.0140686
722.906	0.0139854
722.984	0.0139014
723.062	0.0139162
723.140	0.0137251
723.218	0.0138094
723.296	0.0139719
723.374	0.0139357
723.453	0.0140853
723.531	0.0141676
723.609	0.0139296
723.687	0.0141412
723.765	0.0142348
723.843	0.0142714
723.921	0.0142813
723.999	0.0143327
724.078	0.0144796
724.156	0.0143749
724.234	0.0143643
724.312	0.0142913
724.390	0.0140560
724.468	0.0142115
724.546	0.0140170
724.624	0.0139906
724.703	0.0138905
724.781	0.0138858
724.859	0.0138057
724.937	0.0139286
725.015	0.0139650
725.093	0.0139975
725.171	0.0139800
725.249	0.0141012
725.328	0.0141885
725.406	0.0142445
725.484	0.0143151
725.562	0.0143161
725.640	0.0142722
725.718	0.0142933
725.796	0.0144573
725.874	0.0142785
725.953	0.0142034
726.031	0.0139546
726.109	0.0140311
726.187	0.0139026
726.265	0.0137483
726.343	0.0134940
726.421	0.0134318
726.499	0.0132867
726.578	0.0133544
726.656	0.0132390
726.734	0.0133096
726.812	0.0132357
726.890	0.0132051
726.968	0.0133279
727.046	0.0134333
727.124	0.0135480
727.203	0.0137859
727.281	0.0138564
727.359	0.0137530
727.437	0.0139081
727.515	0.0140913
727.593	0.0142131
727.671	0.0143034
727.749	0.0144603
727.828	0.0144821
727.906	0.0144330
727.984	0.0142430
728.062	0.0142509
728.140	0.0143489
728.218	0.0144429
728.296	0.0145004
728.374	0.0143291
728.453	0.0143728
728.531	0.0143580
728.609	0.0143349
728.687	0.0143539
728.765	0.0143037
728.843	0.0143567
728.921	0.0143024
728.999	0.0142572
729.078	0.0142394
729.156	0.0141547
729.234	0.0141607
729.312	0.0141463
729.390	0.0141337
729.468	0.0141010
729.546	0.0140056
729.624	0.0139958
729.703	0.0139815
729.781	0.0139317
729.859	0.0136832
729.937	0.0138618
730.015	0.0138712
730.093	0.0137846
730.171	0.0136901
730.249	0.0137847
730.328	0.0137025
730.406	0.0138706
730.484	0.0138241
730.562	0.0139686
730.640	0.0139471
730.718	0.0139127
730.796	0.0140564
730.874	0.0141853
730.953	0.0141621
731.031	0.0142226
731.109	0.0142688
731.187	0.0142346
731.265	0.0143707
731.343	0.0143314
731.421	0.0143883
731.499	0.0143833
731.578	0.0144064
731.656	0.0144659
731.734	0.0144918
731.812	0.0145870
731.890	0.0143889
731.968	0.0143641
732.046	0.0143420
732.124	0.0144154
732.203	0.0141303
732.281	0.0140984
732.359	0.0140791
732.437	0.0141526
732.515	0.0141041
732.593	0.0139845
732.671	0.0139333
732.749	0.0139033
732.828	0.0139973
732.906	0.0138955
732.984	0.0137486
733.062	0.0138921
733.140	0.0139063
733.218	0.0137521
733.296	0.0136339
733.374	0.0136736
733.453	0.0137918
733.531	0.0136732
733.609	0.0136042
733.687	0.0137732
733.765	0.0137099
733.843	0.0135236
733.921	0.0138158
733.999	0.0139196
734.078	0.0139312
734.156	0.0138915
734.234	0.0137374
734.312	0.0138869
734.390	0.0139584
734.468	0.0140843
734.546	0.0140184
734.624	0.0142060
734.703	0.0141781
734.781	0.0141293
734.859	0.0141556
734.937	0.0140632
735.015	0.0141740
735.093	0.0141682
735.171	0.0140659
735.249	0.0141809
735.328	0.0141828
735.406	0.0141177
735.484	0.0138562
735.562	0.0139948
735.640	0.0139684
735.718	0.0140787
735.796	0.0139203
735.874	0.0139862
735.953	0.0139645
736.031	0.0140523
736.109	0.0140920
736.187	0.0139993
736.265	0.0141045
736.343	0.0142136
736.421	0.0142331
736.499	0.0142980
736.578	0.0141824
736.656	0.0141823
736.734	0.0141874
736.812	0.0141040
736.890	0.0141123
736.968	0.0140614
737.046	0.0140774
737.124	0.0140775
737.203	0.0141398
737.281	0.0141763
737.359	0.0139687
737.437	0.0139925
737.515	0.0139361
737.593	0.0139520
737.671	0.0139700
737.749	0.0138788
737.828	0.0139336
737.906	0.0139939
737.984	0.0138783
738.062	0.0139655
738.140	0.0140250
738.218	0.0140387
738.296	0.0138811
738.374	0.0140213
738.453	0.0140182
738.531	0.0141086
738.609	0.0140495
738.687	0.0140556
738.765	0.0141684
738.843	0.0140295
738.921	0.0139799
738.999	0.0141130
739.078	0.0140147
739.156	0.0141292
739.234	0.0139088
739.312	0.0139636
739.390	0.0140179
739.468	0.0139385
739.546	0.0137825
739.624	0.0137695
739.703	0.0137042
739.781	0.0136341
739.859	0.0136861
739.937	0.0138321
740.015	0.0137355
740.093	0.0136652
740.171	0.0138272
740.249	0.0136533
740.328	0.0138367
740.406	0.0137672
740.484	0.0137762
740.562	0.0139170
740.640	0.0139742
740.718	0.0138645
740.796	0.0137643
740.874	0.0139808
740.953	0.0138468
741.031	0.0139112
741.109	0.0138515
741.187	0.0138756
741.265	0.0136564
741.343	0.0137180
741.421	0.0137680
741.499	0.0137862
741.578	0.0137836
741.656	0.0135637
741.734	0.0136428
741.812	0.0138256
741.890	0.0138934
741.968	0.0138793
742.046	0.0136997
742.124	0.0137679
742.203	0.0139820
742.281	0.0137978
742.359	0.0141022
742.437	0.0141583
742.515	0.0140633
742.593	0.0141055
742.671	0.0141653
742.749	0.0141693
742.828	0.0141144
742.906	0.0141527
742.984	0.0139706
743.062	0.0140886
743.140	0.0140132
743.218	0.0139519
743.296	0.0138548
743.374	0.0140788
743.453	0.0140131
743.531	0.0139605
743.609	0.0139616
743.687	0.0139480
743.765	0.0139678
743.843	0.0140128
743.921	0.0139613
743.999	0.0141293
744.078	0.0140551
744.156	0.0140723
744.234	0.0140099
744.312	0.0140536
744.390	0.0139259
744.468	0.0140623
744.546	0.0139641
744.624	0.0139508
744.703	0.0139484
744.781	0.0139250
744.859	0.0139350
744.937	0.0138502
745.015	0.0139799
745.093	0.0139293
745.171	0.0138857
745.249	0.0138676
745.328	0.0137833
745.406	0.0138566
745.484	0.0138926
745.562	0.0138298
745.640	0.0138035
745.718	0.0138406
745.796	0.0138264
745.874	0.0139424
745.953	0.0138755
746.031	0.0138372
746.109	0.0140170
746.187	0.0137992
746.265	0.0139658
746.343	0.0137819
746.421	0.0138229
746.499	0.0139751
746.578	0.0138550
746.656	0.0136405
746.734	0.0137029
746.812	0.0136424
746.890	0.0136575
746.968	0.0137318
747.046	0.0136878
747.124	0.0136637
747.203	0.0137000
747.281	0.0137904
747.359	0.0138042
747.437	0.0136536
747.515	0.0137362
747.593	0.0136188
747.671	0.0137929
747.749	0.0137636
747.828	0.0139153
747.906	0.0138322
747.984	0.0139003
748.062	0.0140699
748.140	0.0139489
748.218	0.0140456
748.296	0.0140694
748.374	0.0140752
748.453	0.0141325
748.531	0.0139430
748.609	0.0139372
748.687	0.0141412
748.765	0.0142656
748.843	0.0141034
748.921	0.0141439
748.999	0.0140965
749.078	0.0141843
749.156	0.0142649
749.234	0.0143562
749.312	0.0142613
749.390	0.0143023
749.468	0.0143345
749.546	0.0143365
749.624	0.0143526
749.703	0.0143747
749.781	0.0144442
749.859	0.0144624
749.937	0.0144135
750.015	0.0144174
750.093	0.0144797
750.171	0.0142601
750.249	0.0142547
750.328	0.0143420
750.406	0.0142509
750.484	0.0143240
750.562	0.0142233
750.640	0.0141071
750.718	0.0140067
750.796	0.0139734
750.874	0.0139802
750.953	0.0138833
751.031	0.0136471
751.109	0.0137170
751.187	0.0136481
751.265	0.0135871
751.343	0.0137691
751.421	0.0137645
751.499	0.0136767
751.578	0.0137295
751.656	0.0137070
751.734	0.0138667
751.812	0.0137980
751.890	0.0139381
751.968	0.0139526
752.046	0.0138326
752.124	0.0139207
752.203	0.0141967
752.281	0.0139346
752.359	0.0140942
752.437	0.0142758
752.515	0.0141521
752.593	0.0142992
752.671	0.0141719
752.749	0.0140161
752.828	0.0142402
752.906	0.0140784
752.984	0.0142032
753.062	0.0142313
753.140	0.0141602
753.218	0.0143369
753.296	0.0140900
753.374	0.0142800
753.453	0.0140466
753.531	0.0142558
753.609	0.0142478
753.687	0.0141732
753.765	0.0141370
753.843	0.0140396
753.921	0.0139566
753.999	0.0141698
754.078	0.0140137
754.156	0.0139034
754.234	0.0139408
754.312	0.0138666
754.390	0.0137717
754.468	0.0136378
754.546	0.0136634
754.624	0.0135419
754.703	0.0135443
754.781	0.0136142
754.859	0.0135954
754.937	0.0136325
755.015	0.0135510
755.093	0.0137393
755.171	0.0137090
755.249	0.0137421
755.328	0.0138067
755.406	0.0140330
755.484	0.0139594
755.562	0.0139918
755.640	0.0139333
755.718	0.0140958
755.796	0.0140499
755.874	0.0141139
755.953	0.0141743
756.031	0.0140606
756.109	0.0142363
756.187	0.0141502
756.265	0.0141347
756.343	0.0142986
756.421	0.0143374
756.499	0.0143716
756.578	0.0142936
756.656	0.0142699
756.734	0.0142564
756.812	0.0143457
756.890	0.0144156
756.968	0.0143994
757.046	0.0141949
757.124	0.0141338
757.203	0.0141894
757.281	0.0140211
757.359	0.0141080
757.437	0.0139581
757.515	0.0141215
757.593	0.0139854
757.671	0.0141601
757.749	0.0140822
757.828	0.0140006
757.906	0.0139189
757.984	0.0140641
758.062	0.0139818
758.140	0.0140214
758.218	0.0140874
758.296	0.0139505
758.374	0.0139000
758.453	0.0138513
758.531	0.0138921
758.609	0.0139581
758.687	0.0138225
758.765	0.0140102
758.843	0.0139482
758.921	0.0138882
758.999	0.0139692
759.078	0.0139468
759.156	0.0139117
759.234	0.0139246
759.312	0.0139323
759.390	0.0139740
759.468	0.0139693
759.546	0.0140892
759.624	0.0140961
759.703	0.0139956
759.781	0.0140632
759.859	0.0139783
759.937	0.0140455
760.015	0.0140029
760.093	0.0140723
760.171	0.0140977
760.249	0.0140630
760.328	0.0139536
760.406	0.0139191
760.484	0.0140948
760.562	0.0141695
760.640	0.0139590
760.718	0.0140685
760.796	0.0141579
760.874	0.0140607
760.953	0.0141391
761.031	0.0140451
761.109	0.0142112
761.187	0.0142113
761.265	0.0142508
761.343	0.0144008
761.421	0.0143244
761.499	0.0142410
761.578	0.0142547
761.656	0.0142316
761.734	0.0143211
761.812	0.0141861
761.890	0.0142302
761.968	0.0142951
762.046	0.0141482
762.124	0.0141183
762.203	0.0141891
762.281	0.0142359
762.359	0.0142540
762.437	0.0142871
762.515	0.0142215
762.593	0.0142383
762.671	0.0142894
762.749	0.0141276
762.828	0.0141296
762.906	0.0141798
762.984	0.0140372
763.062	0.0140451
763.140	0.0140721
763.218	0.0139590
763.296	0.0138799
763.374	0.0140535
763.453	0.0138717
763.531	0.0137524
763.609	0.0139528
763.687	0.0139731
763.765	0.0141138
763.843	0.0138892
763.921	0.0140884
763.999	0.0139858
764.078	0.0141792
764.156	0.0140942
764.234	0.0140782
764.312	0.0139539
764.390	0.0140990
764.468	0.0140024
764.546	0.0139709
764.624	0.0140305
764.703	0.0139153
764.781	0.0139414
764.859	0.0138978
764.937	0.0138470
765.015	0.0138526
765.093	0.0138829
765.171	0.0138769
765.249	0.0138798
765.328	0.0137569
765.406	0.0139402
765.484	0.0138387
765.562	0.0139032
765.640	0.0138220
765.718	0.0139220
765.796	0.0138206
765.874	0.0138918
765.953	0.0140649
766.031	0.0139097
766.109	0.0138235
766.187	0.0139231
766.265	0.0140010
766.343	0.0140738
766.421	0.0139974
766.499	0.0140813
766.578	0.0142421
766.656	0.0141255
766.734	0.0141452
766.812	0.0143031
766.890	0.0142689
766.968	0.0142834
767.046	0.0143445
767.124	0.0141463
767.203	0.0141451
767.281	0.0142568
767.359	0.0142646
767.437	0.0142860
767.515	0.0141196
767.593	0.0140928
767.671	0.0140989
767.749	0.0141829
767.828	0.0140635
767.906	0.0141064
767.984	0.0138423
768.062	0.0138952
768.140	0.0138358
768.218	0.0137688
768.296	0.0137329
768.374	0.0137739
768.453	0.0136702
768.531	0.0136888
768.609	0.0137655
768.687	0.0136449
768.765	0.0137102
768.843	0.0136211
768.921	0.0137511
768.999	0.0138364
769.078	0.0139056
769.156	0.0138445
769.234	0.0138207
769.312	0.0139112
769.390	0.0136971
769.468	0.0138314
769.546	0.0137713
769.624	0.0138168
769.703	0.0139743
769.781	0.0139695
769.859	0.0139951
769.937	0.0140883
770.015	0.0142890
770.093	0.0143154
770.171	0.0141240
770.249	0.0142462
770.328	0.0145156
770.406	0.0143768
770.484	0.0143402
770.562	0.0144068
770.640	0.0142698
770.718	0.0145284
770.796	0.0143501
770.874	0.0144275
770.953	0.0143295
771.031	0.0143327
771.109	0.0142408
771.187	0.0142931
771.265	0.0141959
771.343	0.0143094
771.421	0.0142159
771.499	0.0141956
771.578	0.0141014
771.656	0.0139097
771.734	0.0140170
771.812	0.0139899
771.890	0.0139383
771.968	0.0138950
772.046	0.0138175
772.124	0.0136671
772.203	0.0136030
772.281	0.0136396
772.359	0.0137566
772.437	0.0135613
772.515	0.0136291
772.593	0.0137029
772.671	0.0135256
772.749	0.0134843
772.828	0.0135740
772.906	0.0135138
772.984	0.0136110
773.062	0.0135725
773.140	0.0136073
773.218	0.0138111
773.296	0.0136879
773.374	0.0136532
773.453	0.0137012
773.531	0.0138392
773.609	0.0138155
773.687	0.0138216
773.765	0.0138290
773.843	0.0137538
773.921	0.0139925
773.999	0.0140441
774.078	0.0140207
774.156	0.0139656
774.234	0.0139698
774.312	0.0139919
774.390	0.0139435
774.468	0.0141124
774.546	0.0141114
774.624	0.0140299
774.703	0.0140758
774.781	0.0140233
774.859	0.0139522
774.937	0.0140301
775.015	0.0140246
775.093	0.0140037
775.171	0.0141895
775.249	0.0140670
775.328	0.0139639
775.406	0.0139525
775.484	0.0140910
775.562	0.0140337
775.640	0.0140940
775.718	0.0137976
775.796	0.0140389
775.874	0.0141032
775.953	0.0141162
776.031	0.0139874
776.109	0.0140372
776.187	0.0140933
776.265	0.0140101
776.343	0.0140904
776.421	0.0141248
776.499	0.0139873
776.578	0.0139487
776.656	0.0140610
776.734	0.0139425
776.812	0.0138922
776.890	0.0138388
776.968	0.0140875
777.046	0.0139214
777.124	0.0138423
777.203	0.0141187
777.281	0.0139957
777.359	0.0141080
777.437	0.0140834
777.515	0.0141541
777.593	0.0141005
777.671	0.0142204
777.749	0.0141321
777.828	0.0141640
777.906	0.0142219
777.984	0.0142102
778.062	0.0141354
778.140	0.0141523
778.218	0.0141592
778.296	0.0141460
778.374	0.0140731
778.453	0.0140263
778.531	0.0141275
778.609	0.0140289
778.687	0.0139893
778.765	0.0141701
778.843	0.0139840
778.921	0.0139056
778.999	0.0138844
779.078	0.0138527
779.156	0.0138506
779.234	0.0138629
779.312	0.0138461
779.390	0.0137679
779.468	0.0137203
779.546	0.0137774
779.624	0.0137823
779.703	0.0138161
779.781	0.0138647
779.859	0.0138895
779.937	0.0137625
780.015	0.0138161
780.093	0.0140146
780.171	0.0139503
780.249	0.0139327
780.328	0.0140829
780.406	0.0139674
780.484	0.0139056
780.562	0.0141135
780.640	0.0140000
780.718	0.0139765
780.796	0.0141862
780.874	0.0141885
780.953	0.0139490
781.031	0.0140125
781.109	0.0140999
781.187	0.0140864
781.265	0.0141035
781.343	0.0141354
781.421	0.0141748
781.499	0.0141681
781.578	0.0141959
781.656	0.0143354
781.734	0.0142587
781.812	0.0141708
781.890	0.0140849
781.968	0.0141961
782.046	0.0143784
782.124	0.0143613
782.203	0.0141315
782.281	0.0141959
782.359	0.0141329
782.437	0.0140500
782.515	0.0142556
782.593	0.0141463
782.671	0.0141825
782.749	0.0140494
782.828	0.0140767
782.906	0.0140068
782.984	0.0140519
783.062	0.0139602
783.140	0.0138980
783.218	0.0141114
783.296	0.0141531
783.374	0.0140465
783.453	0.0140675
783.531	0.0140912
783.609	0.0141357
783.687	0.0142780
783.765	0.0142335
783.843	0.0141721
783.921	0.0141599
783.999	0.0142501
784.078	0.0142262
784.156	0.0143252
784.234	0.0143226
784.312	0.0141548
784.390	0.0141636
784.468	0.0142485
784.546	0.0139255
784.624	0.0140969
784.703	0.0139410
784.781	0.0138906
784.859	0.0139629
784.937	0.0139541
785.015	0.0138367
785.093	0.0139075
785.171	0.0138170
785.249	0.0137136
785.328	0.0139186
785.406	0.0139045
785.484	0.0139252
785.562	0.0137740
785.640	0.0138333
785.718	0.0136148
785.796	0.0137873
785.874	0.0137779
785.953	0.0137347
786.031	0.0136773
786.109	0.0137762
786.187	0.0138165
786.265	0.0136874
786.343	0.0138166
786.421	0.0139983
786.499	0.0140687
786.578	0.0140828
786.656	0.0140170
786.734	0.0140786
786.812	0.0143456
786.890	0.0144829
786.968	0.0144493
787.046	0.0143871
787.124	0.0144891
787.203	0.0146342
787.281	0.0145876
787.359	0.0145097
787.437	0.0145428
787.515	0.0145719
787.593	0.0144252
787.671	0.0145177
787.749	0.0145455
787.828	0.0143108
787.906	0.0142766
787.984	0.0143719
788.062	0.0144005
788.140	0.0142861
788.218	0.0142159
788.296	0.0140394
788.374	0.0142421
788.453	0.0141707
788.531	0.0140971
788.609	0.0140054
788.687	0.0139806
788.765	0.0140163
788.843	0.0140543
788.921	0.0138805
788.999	0.0139734
789.078	0.0137943
789.156	0.0137717
789.234	0.0136624
789.312	0.0138029
789.390	0.0137967
789.468	0.0137813
789.546	0.0136893
789.624	0.0136369
789.703	0.0137098
789.781	0.0138114
789.859	0.0136829
789.937	0.0136392
790.015	0.0137534
790.093	0.0138349
790.171	0.0138213
790.249	0.0138218
790.328	0.0138408
790.406	0.0137971
790.484	0.0140024
790.562	0.0138383
790.640	0.0139127
790.718	0.0138045
790.796	0.0138730
790.874	0.0139340
790.953	0.0139432
791.031	0.0139090
791.109	0.0138798
791.187	0.0139957
791.265	0.0141741
791.343	0.0140202
791.421	0.0140439
791.499	0.0140405
791.578	0.0141013
791.656	0.0141648
791.734	0.0142348
791.812	0.0143149
791.890	0.0141486
791.968	0.0142228
792.046	0.0141468
792.124	0.0140816
792.203	0.0143420
792.281	0.0141959
792.359	0.0142030
792.437	0.0142454
792.515	0.0142062
792.593	0.0141777
792.671	0.0141410
792.749	0.0140657
792.828	0.0141240
792.906	0.0142766
792.984	0.0142107
793.062	0.0142238
793.140	0.0143932
793.218	0.0142641
793.296	0.0143815
793.374	0.0143221
793.453	0.0142864
793.531	0.0142403
793.609	0.0144467
793.687	0.0143970
793.765	0.0142774
793.843	0.0141358
793.921	0.0141932
793.999	0.0141512
794.078	0.0141254
794.156	0.0140002
794.234	0.0140119
794.312	0.0139024
794.390	0.0139523
794.468	0.0138945
794.546	0.0138242
794.624	0.0138270
794.703	0.0137194
794.781	0.0139253
794.859	0.0138954
794.937	0.0137682
795.015	0.0138560
795.093	0.0138199
795.171	0.0138161
795.249	0.0139338
795.328	0.0138009
795.406	0.0137902
795.484	0.0138895
795.562	0.0139256
795.640	0.0137305
795.718	0.0138902
795.796	0.0140070
795.874	0.0138257
795.953	0.0138795
796.031	0.0136722
796.109	0.0137711
796.187	0.0138705
796.265	0.0137360
796.343	0.0137806
796.421	0.0137796
796.499	0.0137740
796.578	0.0137354
796.656	0.0136609
796.734	0.0136201
796.812	0.0137775
796.890	0.0137952
796.968	0.0138689
797.046	0.0137950
797.124	0.0137679
797.203	0.0137865
797.281	0.0139356
797.359	0.0138848
797.437	0.0138594
797.515	0.0138427
797.593	0.0138976
797.671	0.0138429
797.749	0.0137517
797.828	0.0137588
797.906	0.0139863
797.984	0.0139053
798.062	0.0139675
798.140	0.0139460
798.218	0.0138637
798.296	0.0138440
798.374	0.0139568
798.453	0.0140178
798.531	0.0141308
798.609	0.0141546
798.687	0.0141673
798.765	0.0141076
798.843	0.0140915
798.921	0.0141276
798.999	0.0140929
799.078	0.0140481
799.156	0.0140341
799.234	0.0140302
799.312	0.0141071
799.390	0.0141216
799.468	0.0140833
799.546	0.0141154
799.624	0.0140254
799.703	0.0140803
799.781	0.0138243
799.859	0.0139600
799.937	0.0139444
800.015	0.0139530
800.093	0.0137711
800.171	0.0137887
800.249	0.0136898
800.328	0.0138317
800.406	0.0136978
800.484	0.0136892
800.562	0.0137324
800.640	0.0137054
800.718	0.0137406
800.796	0.0137160
800.874	0.0139333
800.953	0.0138409
801.031	0.0138085
801.109	0.0138869
801.187	0.0138266
801.265	0.0139491
801.343	0.0138015
801.421	0.0138254
801.499	0.0139178
801.578	0.0137441
801.656	0.0136909
801.734	0.0138428
801.812	0.0138563
801.890	0.0137719
801.968	0.0138675
802.046	0.0138486
802.124	0.0138454
802.203	0.0139501
802.281	0.0139700
802.359	0.0138648
802.437	0.0140499
802.515	0.0139272
802.593	0.0139412
802.671	0.0140026
802.749	0.0139524
802.828	0.0139855
802.906	0.0140070
802.984	0.0139028
803.062	0.0139694
803.140	0.0139896
803.218	0.0139833
803.296	0.0139667
803.374	0.0139899
803.453	0.0139216
803.531	0.0138873
803.609	0.0140540
803.687	0.0140736
803.765	0.0139458
803.843	0.0139566
803.921	0.0139595
803.999	0.0140228
804.078	0.0139354
804.156	0.0139085
804.234	0.0140263
804.312	0.0139304
804.390	0.0139649
804.468	0.0141879
804.546	0.0140273
804.624	0.0140440
804.703	0.0140572
804.781	0.0139703
804.859	0.0141182
804.937	0.0139573
805.015	0.0140085
805.093	0.0139705
805.171	0.0138999
805.249	0.0139204
805.328	0.0139920
805.406	0.0139796
805.484	0.0139577
805.562	0.0139077
805.640	0.0138480
805.718	0.0137992
805.796	0.0138506
805.874	0.0139125
805.953	0.0138364
806.031	0.0139259
806.109	0.0139185
806.187	0.0139783
806.265	0.0140363
806.343	0.0138674
806.421	0.0141177
806.499	0.0139080
806.578	0.0141211
806.656	0.0138845
806.734	0.0140633
806.812	0.0141109
806.890	0.0140389
806.968	0.0140754
807.046	0.0141154
807.124	0.0140664
807.203	0.0141442
807.281	0.0142210
807.359	0.0140844
807.437	0.0141430
807.515	0.0141131
807.593	0.0140786
807.671	0.0142079
807.749	0.0142323
807.828	0.0140602
807.906	0.0139615
807.984	0.0141772
808.062	0.0140097
808.140	0.0139363
808.218	0.0139437
808.296	0.0141720
808.374	0.0139421
808.453	0.0138744
808.531	0.0139516
808.609	0.0139343
808.687	0.0139223
808.765	0.0139349
808.843	0.0140455
808.921	0.0139394
808.999	0.0140036
809.078	0.0141801
809.156	0.0139459
809.234	0.0139746
809.312	0.0139979
809.390	0.0140750
809.468	0.0141208
809.546	0.0142780
809.624	0.0140823
809.703	0.0140923
809.781	0.0140538
809.859	0.0141834
809.937	0.0141018
810.015	0.0140008
810.093	0.0138657
810.171	0.0140407
810.249	0.0141167
810.328	0.0140627
810.406	0.0140135
810.484	0.0141291
810.562	0.0140688
810.640	0.0140974
810.718	0.0141116
810.796	0.0141415
810.874	0.0140578
810.953	0.0140003
811.031	0.0139895
811.109	0.0139876
811.187	0.0140458
811.265	0.0139223
811.343	0.0139361
811.421	0.0140755
811.499	0.0139096
811.578	0.0140391
811.656	0.0140085
811.734	0.0138540
811.812	0.0139552
811.890	0.0139298
811.968	0.0140978
812.046	0.0140462
812.124	0.0141100
812.203	0.0140186
812.281	0.0141265
812.359	0.0141186
812.437	0.0141405
812.515	0.0141709
812.593	0.0141497
812.671	0.0143023
812.749	0.0141467
812.828	0.0142693
812.906	0.0141219
812.984	0.0140973
813.062	0.0141113
813.140	0.0141334
813.218	0.0140985
813.296	0.0139671
813.374	0.0140298
813.453	0.0141579
813.531	0.0139616
813.609	0.0139241
813.687	0.0139433
813.765	0.0139568
813.843	0.0138748
813.921	0.0139200
813.999	0.0139310
814.078	0.0138388
814.156	0.0139083
814.234	0.0139040
814.312	0.0138091
814.390	0.0140089
814.468	0.0138390
814.546	0.0140768
814.624	0.0140965
814.703	0.0140298
814.781	0.0140079
814.859	0.0140952
814.937	0.0140356
815.015	0.0141668
815.093	0.0141275
815.171	0.0140634
815.249	0.0142284
815.328	0.0142191
815.406	0.0143585
815.484	0.0141692
815.562	0.0140761
815.640	0.0141383
815.718	0.0141403
815.796	0.0141796
815.874	0.0141328
815.953	0.0138898
816.031	0.0139109
816.109	0.0141132
816.187	0.0141322
816.265	0.0139973
816.343	0.0138829
816.421	0.0140648
816.499	0.0138530
816.578	0.0138437
816.656	0.0137930
816.734	0.0137975
816.812	0.0138596
816.890	0.0138045
816.968	0.0137265
817.046	0.0138222
817.124	0.0138194
817.203	0.0138255
817.281	0.0137428
817.359	0.0137907
817.437	0.0139735
817.515	0.0138862
817.593	0.0139425
817.671	0.0140309
817.749	0.0139201
817.828	0.0139913
817.906	0.0140335
817.984	0.0140800
818.062	0.0140763
818.140	0.0139407
818.218	0.0139756
818.296	0.0140414
818.374	0.0140687
818.453	0.0140969
818.531	0.0140227
818.609	0.0139837
818.687	0.0140955
818.765	0.0140545
818.843	0.0138805
818.921	0.0138885
818.999	0.0140324
819.078	0.0139604
819.156	0.0140013
819.234	0.0138966
819.312	0.0139705
819.390	0.0139544
819.468	0.0138612
819.546	0.0138872
819.624	0.0139307
819.703	0.0139599
819.781	0.0138307
819.859	0.0137480
819.937	0.0139152
820.015	0.0138687
820.093	0.0138436
820.171	0.0138480
820.249	0.0137843
820.328	0.0137917
820.406	0.0138913
820.484	0.0138629
820.562	0.0138523
820.640	0.0137215
820.718	0.0138758
820.796	0.0138761
820.874	0.0137931
820.953	0.0138246
821.031	0.0139321
821.109	0.0138643
821.187	0.0137949
821.265	0.0138988
821.343	0.0140016
821.421	0.0139568
821.499	0.0138832
821.578	0.0139307
821.656	0.0140625
821.734	0.0140917
821.812	0.0140293
821.890	0.0141281
821.968	0.0139764
822.046	0.0140972
822.124	0.0140706
822.203	0.0139899
822.281	0.0140944
822.359	0.0140440
822.437	0.0139576
822.515	0.0139877
822.593	0.0138844
822.671	0.0140073
822.749	0.0138635
822.828	0.0139718
822.906	0.0139346
822.984	0.0140210
823.062	0.0139586
823.140	0.0139211
823.218	0.0138909
823.296	0.0138243
823.374	0.0138412
823.453	0.0137033
823.531	0.0138732
823.609	0.0137302
823.687	0.0137761
823.765	0.0138926
823.843	0.0138128
823.921	0.0138412
823.999	0.0138959
824.078	0.0139893
824.156	0.0138134
824.234	0.0138308
824.312	0.0138400
824.390	0.0139205
824.468	0.0137840
824.546	0.0136715
824.624	0.0138360
824.703	0.0137963
824.781	0.0137945
824.859	0.0140909
824.937	0.0138239
825.015	0.0136871
825.093	0.0137859
825.171	0.0137940
825.249	0.0138416
825.328	0.0138521
825.406	0.0139111
825.484	0.0139114
825.562	0.0138918
825.640	0.0140865
825.718	0.0139565
825.796	0.0138622
825.874	0.0138538
825.953	0.0139756
826.031	0.0140079
826.109	0.0138007
826.187	0.0140685
826.265	0.0141257
826.343	0.0140472
826.421	0.0141006
826.499	0.0140411
826.578	0.0139260
826.656	0.0139990
826.734	0.0140662
826.812	0.0138725
826.890	0.0141054
826.968	0.0139745
827.046	0.0140291
827.124	0.0140724
827.203	0.0138939
827.281	0.0139384
827.359	0.0140547
827.437	0.0139281
827.515	0.0139684
827.593	0.0139892
827.671	0.0139539
827.749	0.0140110
827.828	0.0139958
827.906	0.0139384
827.984	0.0141102
828.062	0.0139977
828.140	0.0138902
828.218	0.0141528
828.296	0.0140229
828.374	0.0141142
828.453	0.0141782
828.531	0.0141723
828.609	0.0141012
828.687	0.0141100
828.765	0.0141254
828.843	0.0139256
828.921	0.0138982
828.999	0.0140405
829.078	0.0140548
829.156	0.0139207
829.234	0.0140108
829.312	0.0139769
829.390	0.0139684
829.468	0.0138508
829.546	0.0139375
829.624	0.0139053
829.703	0.0139171
829.781	0.0140192
829.859	0.0138271
829.937	0.0140073
830.015	0.0139276
830.093	0.0138105
830.171	0.0139151
830.249	0.0139616
830.328	0.0139256
830.406	0.0138490
830.484	0.0139059
830.562	0.0139668
830.640	0.0140133
830.718	0.0140011
830.796	0.0139057
830.874	0.0139523
830.953	0.0139561
831.031	0.0139102
831.109	0.0138506
831.187	0.0138897
831.265	0.0139330
831.343	0.0138847
831.421	0.0138976
831.499	0.0139785
831.578	0.0139027
831.656	0.0139618
831.734	0.0139000
831.812	0.0140311
831.890	0.0139752
831.968	0.0139432
832.046	0.0140622
832.124	0.0140057
832.203	0.0140993
832.281	0.0141367
832.359	0.0142228
832.437	0.0141508
832.515	0.0140165
832.593	0.0142544
832.671	0.0142943
832.749	0.0141316
832.828	0.0140108
832.906	0.0140845
832.984	0.0140474
833.062	0.0141144
833.140	0.0141878
833.218	0.0140853
833.296	0.0140110
833.374	0.0140113
833.453	0.0140239
833.531	0.0139671
833.609	0.0141186
833.687	0.0139979
833.765	0.0140237
833.843	0.0140233
833.921	0.0139571
833.999	0.0139301
834.078	0.0139744
834.156	0.0138885
834.234	0.0139385
834.312	0.0139199
834.390	0.0140555
834.468	0.0138565
834.546	0.0138278
834.624	0.0138831
834.703	0.0139315
834.781	0.0138849
834.859	0.0139910
834.937	0.0139700
835.015	0.0140263
835.093	0.0138927
835.171	0.0140772
835.249	0.0140469
835.328	0.0140485
835.406	0.0142457
835.484	0.0142035
835.562	0.0141076
835.640	0.0141070
835.718	0.0142976
835.796	0.0141895
835.874	0.0140649
835.953	0.0141125
836.031	0.0141176
836.109	0.0140471
836.187	0.0140518
836.265	0.0141616
836.343	0.0139265
836.421	0.0138908
836.499	0.0139375
836.578	0.0139302
836.656	0.0140453
836.734	0.0141022
836.812	0.0139204
836.890	0.0139095
836.968	0.0139821
837.046	0.0139787
837.124	0.0138653
837.203	0.0138837
837.281	0.0138626
837.359	0.0139570
837.437	0.0138282
837.515	0.0139604
837.593	0.0138643
837.671	0.0139231
837.749	0.0138824
837.828	0.0137444
837.906	0.0137080
837.984	0.0139054
838.062	0.0138200
838.140	0.0138936
838.218	0.0138954
838.296	0.0139964
838.374	0.0139249
838.453	0.0139632
838.531	0.0140293
838.609	0.0139726
838.687	0.0140051
838.765	0.0141428
838.843	0.0141267
838.921	0.0141311
838.999	0.0141669
839.078	0.0140593
839.156	0.0141407
839.234	0.0142396
839.312	0.0141830
839.390	0.0139927
839.468	0.0141005
839.546	0.0141161
839.624	0.0141256
839.703	0.0141012
839.781	0.0142625
839.859	0.0140627
839.937	0.0142200
840.015	0.0143376
840.093	0.0141570
840.171	0.0141469
840.249	0.0143458
840.328	0.0141965
840.406	0.0140063
840.484	0.0141773
840.562	0.0141206
840.640	0.0140679
840.718	0.0142059
840.796	0.0141061
840.874	0.0141145
840.953	0.0141447
841.031	0.0140186
841.109	0.0139159
841.187	0.0140071
841.265	0.0141156
841.343	0.0139761
841.421	0.0138842
841.499	0.0139038
841.578	0.0139275
841.656	0.0139084
841.734	0.0138561
841.812	0.0138919
841.890	0.0139203
841.968	0.0139068
842.046	0.0136958
842.124	0.0136976
842.203	0.0137464
842.281	0.0138093
842.359	0.0137415
842.437	0.0138147
842.515	0.0136845
842.593	0.0136899
842.671	0.0137482
842.749	0.0137856
842.828	0.0137836
842.906	0.0137264
842.984	0.0138315
843.062	0.0139709
843.140	0.0138734
843.218	0.0138905
843.296	0.0138743
843.374	0.0140430
843.453	0.0140195
843.531	0.0140140
843.609	0.0139114
843.687	0.0140755
843.765	0.0141140
843.843	0.0142670
843.921	0.0141207
843.999	0.0143134
844.078	0.0141519
844.156	0.0143704
844.234	0.0142885
844.312	0.0141576
844.390	0.0142696
844.468	0.0141817
844.546	0.0142039
844.624	0.0142357
844.703	0.0142645
844.781	0.0141207
844.859	0.0139940
844.937	0.0139971
845.015	0.0139960
845.093	0.0140641
845.171	0.0140093
845.249	0.0140314
845.328	0.0139998
845.406	0.0139573
845.484	0.0139721
845.562	0.0137615
845.640	0.0138438
845.718	0.0137091
845.796	0.0138440
845.874	0.0139622
845.953	0.0137703
846.031	0.0138073
846.109	0.0139136
846.187	0.0140283
846.265	0.0138553
846.343	0.0138609
846.421	0.0139390
846.499	0.0140694
846.578	0.0139825
846.656	0.0138844
846.734	0.0140195
846.812	0.0139916
846.890	0.0140856
846.968	0.0140545
847.046	0.0139280
847.124	0.0140166
847.203	0.0141932
847.281	0.0140736
847.359	0.0140648
847.437	0.0137901
847.515	0.0140794
847.593	0.0140622
847.671	0.0140634
847.749	0.0141233
847.828	0.0141478
847.906	0.0141982
847.984	0.0141952
848.062	0.0141672
848.140	0.0141486
848.218	0.0140941
848.296	0.0143364
848.374	0.0142133
848.453	0.0140469
848.531	0.0141395
848.609	0.0141033
848.687	0.0139865
848.765	0.0142072
848.843	0.0141931
848.921	0.0141206
848.999	0.0140195
849.078	0.0141507
849.156	0.0141368
849.234	0.0140623
849.312	0.0140440
849.390	0.0140250
849.468	0.0139381
849.546	0.0140981
849.624	0.0140414
849.703	0.0139709
849.781	0.0139623
849.859	0.0139927
849.937	0.0139925
850.015	0.0139555
850.093	0.0141253
850.171	0.0139030
850.249	0.0139359
850.328	0.0138699
850.406	0.0138222
850.484	0.0137517
850.562	0.0139161
850.640	0.0140535
850.718	0.0139243
850.796	0.0139287
850.874	0.0138653
850.953	0.0140244
851.031	0.0140366
851.109	0.0141010
851.187	0.0141147
851.265	0.0141635
851.343	0.0142661
851.421	0.0142700
851.499	0.0142632
851.578	0.0143492
851.656	0.0143732
851.734	0.0143793
851.812	0.0142293
851.890	0.0142616
851.968	0.0142554
852.046	0.0141389
852.124	0.0142170
852.203	0.0142887
852.281	0.0142414
852.359	0.0141834
852.437	0.0139119
852.515	0.0142059
852.593	0.0141351
852.671	0.0139683
852.749	0.0139629
852.828	0.0139182
852.906	0.0138118
852.984	0.0139008
853.062	0.0138443
853.140	0.0137864
853.218	0.0138020
853.296	0.0136809
853.374	0.0137786
853.453	0.0137727
853.531	0.0137523
853.609	0.0137359
853.687	0.0137736
853.765	0.0137753
853.843	0.0136641
853.921	0.0137112
853.999	0.0137606
854.078	0.0138445
854.156	0.0137265
854.234	0.0138380
854.312	0.0137024
854.390	0.0137751
854.468	0.0139091
854.546	0.0139029
854.624	0.0139428
854.703	0.0140583
854.781	0.0139765
854.859	0.0140713
854.937	0.0140479
855.015	0.0140234
855.093	0.0140858
855.171	0.0141614
855.249	0.0141364
855.328	0.0141755
855.406	0.0141049
855.484	0.0141656
855.562	0.0142698
855.640	0.0143118
855.718	0.0141761
855.796	0.0142176
855.874	0.0142881
855.953	0.0143243
856.031	0.0143008
856.109	0.0142814
856.187	0.0142683
856.265	0.0142529
856.343	0.0142693
856.421	0.0142251
856.499	0.0142829
856.578	0.0142272
856.656	0.0140841
856.734	0.0141457
856.812	0.0139602
856.890	0.0139088
856.968	0.0139350
857.046	0.0140199
857.124	0.0140652
857.203	0.0138555
857.281	0.0137706
857.359	0.0139293
857.437	0.0138969
857.515	0.0137366
857.593	0.0137444
857.671	0.0138674
857.749	0.0138002
857.828	0.0137627
857.906	0.0137509
857.984	0.0137511
858.062	0.0137078
858.140	0.0138593
858.218	0.0138625
858.296	0.0137495
858.374	0.0137257
858.453	0.0136494
858.531	0.0137936
858.609	0.0139082
858.687	0.0138676
858.765	0.0138608
858.843	0.0137891
858.921	0.0139510
858.999	0.0139083
859.078	0.0138792
859.156	0.0138698
859.234	0.0140269
859.312	0.0139760
859.390	0.0138717
859.468	0.0139230
859.546	0.0139507
859.624	0.0139442
859.703	0.0140028
859.781	0.0138208
859.859	0.0139970
859.937	0.0140039
860.015	0.0140042
860.093	0.0140527
860.171	0.0140804
860.249	0.0140124
860.328	0.0140337
860.406	0.0140154
860.484	0.0141885
860.562	0.0140044
860.640	0.0142643
860.718	0.0141939
860.796	0.0140564
860.874	0.0142126
860.953	0.0142686
861.031	0.0142180
861.109	0.0142704
861.187	0.0141984
861.265	0.0141601
861.343	0.0141766
861.421	0.0141331
861.499	0.0141403
861.578	0.0140594
861.656	0.0140876
861.734	0.0141084
861.812	0.0141309
861.890	0.0139243
861.968	0.0139749
862.046	0.0139681
862.124	0.0139613
862.203	0.0139573
862.281	0.0139612
862.359	0.0140467
862.437	0.0140173
862.515	0.0139599
862.593	0.0138148
862.671	0.0139861
862.749	0.0139780
862.828	0.0139394
862.906	0.0139516
862.984	0.0139503
863.062	0.0137686
863.140	0.0139176
863.218	0.0138645
863.296	0.0139674
863.374	0.0138075
863.453	0.0138226
863.531	0.0139841
863.609	0.0140069
863.687	0.0138192
863.765	0.0138633
863.843	0.0138465
863.921	0.0139615
863.999	0.0138617
864.078	0.0140285
864.156	0.0140288
864.234	0.0139811
864.312	0.0142060
864.390	0.0140005
864.468	0.0140794
864.546	0.0142218
864.624	0.0142144
864.703	0.0142951
864.781	0.0143107
864.859	0.0141975
864.937	0.0142861
865.015	0.0143758
865.093	0.0141874
865.171	0.0143032
865.249	0.0144263
865.328	0.0143641
865.406	0.0141237
865.484	0.0142447
865.562	0.0143073
865.640	0.0142052
865.718	0.0142270
865.796	0.0142455
865.874	0.0142868
865.953	0.0141786
866.031	0.0141853
866.109	0.0141986
866.187	0.0142278
866.265	0.0142088
866.343	0.0140312
866.421	0.0140524
866.499	0.0139963
866.578	0.0140025
866.656	0.0139713
866.734	0.0139516
866.812	0.0137988
866.890	0.0139008
866.968	0.0139320
867.046	0.0138435
867.124	0.0137496
867.203	0.0137672
867.281	0.0137671
867.359	0.0137653
867.437	0.0136907
867.515	0.0138957
867.593	0.0137383
867.671	0.0138649
867.749	0.0137314
867.828	0.0138837
867.906	0.0136983
867.984	0.0138479
868.062	0.0139124
868.140	0.0139225
868.218	0.0138229
868.296	0.0139859
868.374	0.0137878
868.453	0.0139169
868.531	0.0139268
868.609	0.0139933
868.687	0.0139767
868.765	0.0140208
868.843	0.0140408
868.921	0.0139713
868.999	0.0139728
869.078	0.0139860
869.156	0.0138512
869.234	0.0139994
869.312	0.0139902
869.390	0.0140187
869.468	0.0140628
869.546	0.0142202
869.624	0.0140390
869.703	0.0140012
869.781	0.0142106
869.859	0.0141781
869.937	0.0141115
870.015	0.0140992
870.093	0.0141236
870.171	0.0140493
870.249	0.0140549
870.328	0.0141443
870.406	0.0140430
870.484	0.0141182
870.562	0.0139336
870.640	0.0138628
870.718	0.0140996
870.796	0.0141220
870.874	0.0137936
870.953	0.0139034
871.031	0.0139986
871.109	0.0140248
871.187	0.0140857
871.265	0.0140480
871.343	0.0139896
871.421	0.0140016
871.499	0.0141048
871.578	0.0142220
871.656	0.0142442
871.734	0.0142395
871.812	0.0142976
871.890	0.0142007
871.968	0.0142432
872.046	0.0143119
872.124	0.0142719
872.203	0.0142871
872.281	0.0141879
872.359	0.0142503
872.437	0.0141956
872.515	0.0141493
872.593	0.0143680
872.671	0.0141319
872.749	0.0141508
872.828	0.0141316
872.906	0.0140135
872.984	0.0141286
873.062	0.0141322
873.140	0.0141209
873.218	0.0139867
873.296	0.0139452
873.374	0.0140060
873.453	0.0139486
873.531	0.0138699
873.609	0.0137806
873.687	0.0138773
873.765	0.0138492
873.843	0.0137859
873.921	0.0137377
873.999	0.0136671
874.078	0.0139280
874.156	0.0138265
874.234	0.0137706
874.312	0.0138123
874.390	0.0138460
874.468	0.0139420
874.546	0.0138883
874.624	0.0137978
874.703	0.0137695
874.781	0.0138853
874.859	0.0139819
874.937	0.0139534
875.015	0.0140084
875.093	0.0139848
875.171	0.0141042
875.249	0.0140658
875.328	0.0140647
875.406	0.0142109
875.484	0.0142393
875.562	0.0142693
875.640	0.0141528
875.718	0.0141624
875.796	0.0141434
875.874	0.0140502
875.953	0.0140385
876.031	0.0142549
876.109	0.0139960
876.187	0.0140822
876.265	0.0139294
876.343	0.0138635
876.421	0.0140308
876.499	0.0139905
876.578	0.0140312
876.656	0.0139741
876.734	0.0138972
876.812	0.0141007
876.890	0.0138883
876.968	0.0140268
877.046	0.0140429
877.124	0.0139642
877.203	0.0138805
877.281	0.0139514
877.359	0.0140001
877.437	0.0139230
877.515	0.0139944
877.593	0.0139858
877.671	0.0139581
877.749	0.0140119
877.828	0.0140098
877.906	0.0139704
877.984	0.0139605
878.062	0.0140485
878.140	0.0139063
878.218	0.0138682
878.296	0.0139433
878.374	0.0138111
878.453	0.0138978
878.531	0.0139842
878.609	0.0140397
878.687	0.0141523
878.765	0.0141412
878.843	0.0140395
878.921	0.0141159
878.999	0.0140399
879.078	0.0139822
879.156	0.0139568
879.234	0.0141115
879.312	0.0140005
879.390	0.0139279
879.468	0.0139520
879.546	0.0138555
879.624	0.0139505
879.703	0.0138580
879.781	0.0137145
879.859	0.0138898
879.937	0.0139397
880.015	0.0138958
880.093	0.0139531
880.171	0.0139032
880.249	0.0139765
880.328	0.0139732
880.406	0.0140138
880.484	0.0139076
880.562	0.0139838
880.640	0.0138644
880.718	0.0140481
880.796	0.0141716
880.874	0.0139799
880.953	0.0140331
881.031	0.0141447
881.109	0.0140655
881.187	0.0140359
881.265	0.0141463
881.343	0.0140331
881.421	0.0140250
881.499	0.0140092
881.578	0.0141792
881.656	0.0140922
881.734	0.0140395
881.812	0.0141529
881.890	0.0140346
881.968	0.0141451
882.046	0.0140069
882.124	0.0141368
882.203	0.0140550
882.281	0.0142123
882.359	0.0143349
882.437	0.0141061
882.515	0.0140928
882.593	0.0140374
882.671	0.0140880
882.749	0.0140789
882.828	0.0141374
882.906	0.0140308
882.984	0.0139422
883.062	0.0140493
883.140	0.0142205
883.218	0.0140442
883.296	0.0140018
883.374	0.0140656
883.453	0.0139091
883.531	0.0139684
883.609	0.0139646
883.687	0.0138963
883.765	0.0138990
883.843	0.0139410
883.921	0.0138868
883.999	0.0139051
884.078	0.0139099
884.156	0.0138026
884.234	0.0137593
884.312	0.0136800
884.390	0.0136629
884.468	0.0136939
884.546	0.0137145
884.624	0.0137817
884.703	0.0136155
884.781	0.0138068
884.859	0.0137309
884.937	0.0136267
885.015	0.0137263
885.093	0.0138125
885.171	0.0138216
885.249	0.0137473
885.328	0.0136091
885.406	0.0137607
885.484	0.0137283
885.562	0.0137359
885.640	0.0138790
885.718	0.0138656
885.796	0.0138023
885.874	0.0138039
885.953	0.0138730
886.031	0.0139855
886.109	0.0139403
886.187	0.0139693
886.265	0.0140832
886.343	0.0141676
886.421	0.0141047
886.499	0.0140364
886.578	0.0141687
886.656	0.0141129
886.734	0.0141291
886.812	0.0142586
886.890	0.0140940
886.968	0.0140459
887.046	0.0142512
887.124	0.0141825
887.203	0.0141493
887.281	0.0140027
887.359	0.0140778
887.437	0.0140388
887.515	0.0140207
887.593	0.0138400
887.671	0.0140460
887.749	0.0141263
887.828	0.0140841
887.906	0.0139034
887.984	0.0138840
888.062	0.0139391
888.140	0.0139635
888.218	0.0140594
888.296	0.0139269
888.374	0.0138869
888.453	0.0138513
888.531	0.0140207
888.609	0.0138646
888.687	0.0138007
888.765	0.0136998
888.843	0.0137126
888.921	0.0137138
888.999	0.0138499
889.078	0.0138308
889.156	0.0137022
889.234	0.0136822
889.312	0.0137129
889.390	0.0137064
889.468	0.0138144
889.546	0.0137332
889.624	0.0137598
889.703	0.0138808
889.781	0.0137912
889.859	0.0139202
889.937	0.0138226
890.015	0.0138927
890.093	0.0138953
890.171	0.0137705
890.249	0.0138906
890.328	0.0138276
890.406	0.0137865
890.484	0.0140266
890.562	0.0139870
890.640	0.0139567
890.718	0.0140188
890.796	0.0141314
890.874	0.0143052
890.953	0.0141541
891.031	0.0141476
891.109	0.0142416
891.187	0.0142332
891.265	0.0142273
891.343	0.0142377
891.421	0.0142720
891.499	0.0143002
891.578	0.0141519
891.656	0.0141929
891.734	0.0141434
891.812	0.0141459
891.890	0.0140162
891.968	0.0140322
892.046	0.0138860
892.124	0.0140717
892.203	0.0140594
892.281	0.0139050
892.359	0.0139563
892.437	0.0140147
892.515	0.0139175
892.593	0.0138792
892.671	0.0138249
892.749	0.0138240
892.828	0.0140936
892.906	0.0139358
892.984	0.0137397
893.062	0.0138683
893.140	0.0138178
893.218	0.0137737
893.296	0.0138291
893.374	0.0139668
893.453	0.0138696
893.531	0.0138995
893.609	0.0141726
893.687	0.0140179
893.765	0.0141065
893.843	0.0141214
893.921	0.0140301
893.999	0.0141171
894.078	0.0140285
894.156	0.0141782
894.234	0.0140488
894.312	0.0141216
894.390	0.0142681
894.468	0.0141595
894.546	0.0141577
894.624	0.0140840
894.703	0.0141793
894.781	0.0142924
894.859	0.0141102
894.937	0.0140607
895.015	0.0139487
895.093	0.0139481
895.171	0.0139523
895.249	0.0139744
895.328	0.0138987
895.406	0.0137975
895.484	0.0138351
895.562	0.0137044
895.640	0.0138148
895.718	0.0138542
895.796	0.0137755
895.874	0.0138839
895.953	0.0137699
896.031	0.0138526
896.109	0.0139938
896.187	0.0138147
896.265	0.0138960
896.343	0.0139558
896.421	0.0142202
896.499	0.0140911
896.578	0.0141373
896.656	0.0140626
896.734	0.0142644
896.812	0.0141652
896.890	0.0142088
896.968	0.0142402
897.046	0.0142509
897.124	0.0142350
897.203	0.0142855
897.281	0.0142646
897.359	0.0141503
897.437	0.0142924
897.515	0.0142018
897.593	0.0141170
897.671	0.0142336
897.749	0.0142007
897.828	0.0141231
897.906	0.0141279
897.984	0.0140226
898.062	0.0141503
898.140	0.0141415
898.218	0.0139978
898.296	0.0140890
898.374	0.0141608
898.453	0.0139860
898.531	0.0140040
898.609	0.0141077
898.687	0.0141473
898.765	0.0140906
898.843	0.0138993
898.921	0.0139231
898.999	0.0139368
899.078	0.0140028
899.156	0.0139677
899.234	0.0140584
899.312	0.0137927
899.390	0.0138865
899.468	0.0141023
899.546	0.0140922
899.624	0.0139358
899.703	0.0140229
899.781	0.0140054
899.859	0.0138962
899.937	0.0139799
900.015	0.0141237
900.093	0.0140589
900.171	0.0139411
900.249	0.0139861
900.328	0.0138663
900.406	0.0139592
900.484	0.0139146
900.562	0.0137763
900.640	0.0139332
900.718	0.0138424
900.796	0.0138430
900.874	0.0138700
900.953	0.0137807
901.031	0.0138443
901.109	0.0139107
901.187	0.0137209
901.265	0.0136607
901.343	0.0136617
901.421	0.0136675
901.499	0.0135360
901.578	0.0136612
901.656	0.0137100
901.734	0.0136485
901.812	0.0136280
901.890	0.0136397
901.968	0.0136739
902.046	0.0136650
902.124	0.0138675
902.203	0.0137404
902.281	0.0136631
902.359	0.0138452
902.437	0.0137237
902.515	0.0138168
902.593	0.0138758
902.671	0.0138816
902.749	0.0139042
902.828	0.0141167
902.906	0.0139862
902.984	0.0140871
903.062	0.0141447
903.140	0.0141261
903.218	0.0140348
903.296	0.0142079
903.374	0.0143763
903.453	0.0142568
903.531	0.0142399
903.609	0.0142564
903.687	0.0141516
903.765	0.0143494
903.843	0.0142465
903.921	0.0141379
903.999	0.0143117
904.078	0.0142236
904.156	0.0142816
904.234	0.0141855
904.312	0.0142010
904.390	0.0141418
904.468	0.0142015
904.546	0.0139672
904.624	0.0141549
904.703	0.0141277
904.781	0.0139076
904.859	0.0138967
904.937	0.0140175
905.015	0.0139254
905.093	0.0141360
905.171	0.0139702
905.249	0.0138843
905.328	0.0137994
905.406	0.0137550
905.484	0.0137675
905.562	0.0138561
905.640	0.0139341
905.718	0.0138653
905.796	0.0137253
905.874	0.0137246
905.953	0.0136774
906.031	0.0136822
906.109	0.0137418
906.187	0.0136485
906.265	0.0137730
906.343	0.0136846
906.421	0.0136831
906.499	0.0136951
906.578	0.0138346
906.656	0.0139085
906.734	0.0138275
906.812	0.0137396
906.890	0.0138666
906.968	0.0139967
907.046	0.0140135
907.124	0.0141475
907.203	0.0139613
907.281	0.0139043
907.359	0.0140704
907.437	0.0141470
907.515	0.0140971
907.593	0.0141211
907.671	0.0139806
907.749	0.0142262
907.828	0.0142581
907.906	0.0141563
907.984	0.0142320
908.062	0.0142368
908.140	0.0141195
908.218	0.0143523
908.296	0.0142226
908.374	0.0142380
908.453	0.0142024
908.531	0.0141151
908.609	0.0142123
908.687	0.0142870
908.765	0.0140475
908.843	0.0141978
908.921	0.0141821
908.999	0.0140691
909.078	0.0141045
909.156	0.0142150
909.234	0.0142528
909.312	0.0141917
909.390	0.0141212
909.468	0.0141396
909.546	0.0141728
909.624	0.0141161
909.703	0.0139970
909.781	0.0140845
909.859	0.0140959
909.937	0.0142462
910.015	0.0140471
910.093	0.0140540
910.171	0.0140941
910.249	0.0140171
910.328	0.0140248
910.406	0.0139408
910.484	0.0139726
910.562	0.0140106
910.640	0.0139878
910.718	0.0138656
910.796	0.0138057
910.874	0.0137814
910.953	0.0138172
911.031	0.0138668
911.109	0.0137552
911.187	0.0138057
911.265	0.0137232
911.343	0.0137456
911.421	0.0138783
911.499	0.0138153
911.578	0.0138644
911.656	0.0138934
911.734	0.0138680
911.812	0.0136901
911.890	0.0137926
911.968	0.0139201
912.046	0.0138639
912.124	0.0136168
912.203	0.0137998
912.281	0.0138184
912.359	0.0138314
912.437	0.0138354
912.515	0.0139796
912.593	0.0139187
912.671	0.0138552
912.749	0.0139300
912.828	0.0139671
912.906	0.0138461
912.984	0.0138966
913.062	0.0139445
913.140	0.0138847
913.218	0.0138960
913.296	0.0139732
913.374	0.0138683
913.453	0.0138985
913.531	0.0138000
913.609	0.0140769
913.687	0.0140343
913.765	0.0139702
913.843	0.0138077
913.921	0.0139735
913.999	0.0139272
914.078	0.0139642
914.156	0.0138609
914.234	0.0139303
914.312	0.0138948
914.390	0.0138589
914.468	0.0140580
914.546	0.0140198
914.624	0.0138711
914.703	0.0139408
914.781	0.0138693
914.859	0.0138802
914.937	0.0139340
915.015	0.0141003
915.093	0.0138549
915.171	0.0138841
915.249	0.0141302
915.328	0.0139433
915.406	0.0138268
915.484	0.0139529
915.562	0.0139178
915.640	0.0141064
915.718	0.0139154
915.796	0.0139303
915.874	0.0140330
915.953	0.0139499
916.031	0.0138937
916.109	0.0140043
916.187	0.0139983
916.265	0.0140043
916.343	0.0140367
916.421	0.0139017
916.499	0.0139416
916.578	0.0140125
916.656	0.0140220
916.734	0.0141526
916.812	0.0141494
916.890	0.0140527
916.968	0.0139527
917.046	0.0139584
917.124	0.0140488
917.203	0.0142462
917.281	0.0140707
917.359	0.0141290
917.437	0.0141648
917.515	0.0141261
917.593	0.0140484
917.671	0.0141232
917.749	0.0141333
917.828	0.0140308
917.906	0.0140877
917.984	0.0140079
918.062	0.0140639
918.140	0.0140054
918.218	0.0139354
918.296	0.0139822
918.374	0.0139658
918.453	0.0139487
918.531	0.0139241
918.609	0.0139577
918.687	0.0138932
918.765	0.0138924
918.843	0.0141570
918.921	0.0140626
918.999	0.0140190
919.078	0.0139654
919.156	0.0140343
919.234	0.0140161
919.312	0.0139454
919.390	0.0140270
919.468	0.0139671
919.546	0.0138955
919.624	0.0139126
919.703	0.0138570
919.781	0.0138489
919.859	0.0139733
919.937	0.0139569
