05/08/2022	20:12:51	Ver.	4.1	UNKNOWN
Optical Delay	600.015094	Delta X		0.078125	Sweeps	1	Scan Rate	0/0
Coordinates	Axis 1	NaN	Axis 2	NaN	Axis 3	NaN	Axis 4	NaN	Axis 5	NaN	Axis 6	0.000000
TX Power	0.000000	RX Power	0.000000

600.015	0.0132903
600.093	0.0132559
600.171	0.0133937
600.249	0.0133633
600.328	0.0134284
600.406	0.0133501
600.484	0.0133493
600.562	0.0133923
600.640	0.0133367
600.718	0.0133385
600.796	0.0132671
600.874	0.0132465
600.953	0.0133032
601.031	0.0134563
601.109	0.0132383
601.187	0.0133735
601.265	0.0133077
601.343	0.0134061
601.421	0.0131995
601.499	0.0132731
601.578	0.0131912
601.656	0.0134070
601.734	0.0132822
601.812	0.0131898
601.890	0.0133538
601.968	0.0132906
602.046	0.0132660
602.124	0.0132575
602.203	0.0131964
602.281	0.0131248
602.359	0.0131107
602.437	0.0134026
602.515	0.0133183
602.593	0.0132711
602.671	0.0132139
602.749	0.0132981
602.828	0.0133201
602.906	0.0132946
602.984	0.0132410
603.062	0.0132931
603.140	0.0134619
603.218	0.0133592
603.296	0.0133036
603.374	0.0134396
603.453	0.0133828
603.531	0.0133618
603.609	0.0132919
603.687	0.0133640
603.765	0.0133723
603.843	0.0135355
603.921	0.0134359
603.999	0.0134032
604.078	0.0134812
604.156	0.0135341
604.234	0.0135115
604.312	0.0135273
604.390	0.0134896
604.468	0.0135801
604.546	0.0135656
604.624	0.0135016
604.703	0.0134879
604.781	0.0136465
604.859	0.0135264
604.937	0.0135868
605.015	0.0135841
605.093	0.0136607
605.171	0.0134118
605.249	0.0135710
605.328	0.0135193
605.406	0.0135865
605.484	0.0134822
605.562	0.0136007
605.640	0.0135131
605.718	0.0135491
605.796	0.0135477
605.874	0.0134721
605.953	0.0135228
606.031	0.0135521
606.109	0.0136497
606.187	0.0134042
606.265	0.0134619
606.343	0.0135033
606.421	0.0135071
606.499	0.0135370
606.578	0.0134605
606.656	0.0136215
606.734	0.0135398
606.812	0.0134550
606.890	0.0135287
606.968	0.0135244
607.046	0.0136474
607.124	0.0135825
607.203	0.0135702
607.281	0.0134660
607.359	0.0135968
607.437	0.0135540
607.515	0.0136173
607.593	0.0135675
607.671	0.0134737
607.749	0.0135838
607.828	0.0133771
607.906	0.0135104
607.984	0.0135067
608.062	0.0134628
608.140	0.0135183
608.218	0.0135086
608.296	0.0133134
608.374	0.0133429
608.453	0.0135412
608.531	0.0134047
608.609	0.0134097
608.687	0.0134774
608.765	0.0133710
608.843	0.0131834
608.921	0.0133881
608.999	0.0134051
609.078	0.0133387
609.156	0.0133912
609.234	0.0134694
609.312	0.0132050
609.390	0.0134658
609.468	0.0134104
609.546	0.0134861
609.624	0.0135107
609.703	0.0134831
609.781	0.0134534
609.859	0.0135530
609.937	0.0134772
610.015	0.0133306
610.093	0.0133686
610.171	0.0133208
610.249	0.0134396
610.328	0.0135497
610.406	0.0133903
610.484	0.0135162
610.562	0.0133212
610.640	0.0133485
610.718	0.0134907
610.796	0.0136304
610.874	0.0135023
610.953	0.0134821
611.031	0.0135812
611.109	0.0136315
611.187	0.0135776
611.265	0.0135938
611.343	0.0136157
611.421	0.0136714
611.499	0.0138041
611.578	0.0135955
611.656	0.0136418
611.734	0.0136754
611.812	0.0136533
611.890	0.0136250
611.968	0.0134922
612.046	0.0136011
612.124	0.0137292
612.203	0.0137426
612.281	0.0136688
612.359	0.0137068
612.437	0.0138650
612.515	0.0136466
612.593	0.0136221
612.671	0.0136816
612.749	0.0137118
612.828	0.0137983
612.906	0.0136646
612.984	0.0136137
613.062	0.0135286
613.140	0.0135928
613.218	0.0137091
613.296	0.0137308
613.374	0.0136791
613.453	0.0136298
613.531	0.0137257
613.609	0.0137299
613.687	0.0135653
613.765	0.0136681
613.843	0.0135448
613.921	0.0136574
613.999	0.0135204
614.078	0.0135241
614.156	0.0136740
614.234	0.0135390
614.312	0.0134382
614.390	0.0135485
614.468	0.0135075
614.546	0.0135203
614.624	0.0135909
614.703	0.0136153
614.781	0.0135008
614.859	0.0134843
614.937	0.0134666
615.015	0.0133999
615.093	0.0134272
615.171	0.0134569
615.249	0.0134566
615.328	0.0133851
615.406	0.0135522
615.484	0.0135651
615.562	0.0135847
615.640	0.0135013
615.718	0.0134924
615.796	0.0134518
615.874	0.0133662
615.953	0.0133484
616.031	0.0134039
616.109	0.0134850
616.187	0.0134760
616.265	0.0133372
616.343	0.0133861
616.421	0.0133460
616.499	0.0134064
616.578	0.0132473
616.656	0.0133721
616.734	0.0133109
616.812	0.0132678
616.890	0.0133167
616.968	0.0134417
617.046	0.0133210
617.124	0.0133102
617.203	0.0133113
617.281	0.0132590
617.359	0.0132951
617.437	0.0132731
617.515	0.0133350
617.593	0.0133473
617.671	0.0132717
617.749	0.0133749
617.828	0.0131703
617.906	0.0130656
617.984	0.0131180
618.062	0.0131403
618.140	0.0132631
618.218	0.0131944
618.296	0.0130818
618.374	0.0131400
618.453	0.0131680
618.531	0.0131210
618.609	0.0131609
618.687	0.0131811
618.765	0.0131339
618.843	0.0132016
618.921	0.0132190
618.999	0.0132399
619.078	0.0132330
619.156	0.0131093
619.234	0.0131643
619.312	0.0131499
619.390	0.0131120
619.468	0.0132368
619.546	0.0131782
619.624	0.0130904
619.703	0.0129887
619.781	0.0132380
619.859	0.0132133
619.937	0.0131581
620.015	0.0130791
620.093	0.0131837
620.171	0.0131855
620.249	0.0131713
620.328	0.0132192
620.406	0.0130421
620.484	0.0129967
620.562	0.0131267
620.640	0.0131873
620.718	0.0132345
620.796	0.0130680
620.874	0.0132008
620.953	0.0131100
621.031	0.0132214
621.109	0.0133415
621.187	0.0132957
621.265	0.0131335
621.343	0.0132281
621.421	0.0130988
621.499	0.0131882
621.578	0.0132252
621.656	0.0132079
621.734	0.0132468
621.812	0.0132341
621.890	0.0132793
621.968	0.0133437
622.046	0.0131763
622.124	0.0132518
622.203	0.0133177
622.281	0.0132725
622.359	0.0132320
622.437	0.0131845
622.515	0.0132990
622.593	0.0133816
622.671	0.0134013
622.749	0.0133067
622.828	0.0132150
622.906	0.0132800
622.984	0.0133415
623.062	0.0134930
623.140	0.0132388
623.218	0.0132619
623.296	0.0133366
623.374	0.0133408
623.453	0.0132578
623.531	0.0133978
623.609	0.0132779
623.687	0.0132456
623.765	0.0132973
623.843	0.0134687
623.921	0.0133588
623.999	0.0132334
624.078	0.0132355
624.156	0.0133516
624.234	0.0132166
624.312	0.0133194
624.390	0.0134208
624.468	0.0133281
624.546	0.0133675
624.624	0.0133086
624.703	0.0132237
624.781	0.0132915
624.859	0.0132629
624.937	0.0132926
625.015	0.0133548
625.093	0.0133853
625.171	0.0133741
625.249	0.0133947
625.328	0.0133441
625.406	0.0132314
625.484	0.0134579
625.562	0.0134107
625.640	0.0132180
625.718	0.0133693
625.796	0.0134932
625.874	0.0134582
625.953	0.0133823
626.031	0.0133738
626.109	0.0134040
626.187	0.0134444
626.265	0.0134261
626.343	0.0132568
626.421	0.0133659
626.499	0.0133601
626.578	0.0133018
626.656	0.0133707
626.734	0.0133786
626.812	0.0134094
626.890	0.0133135
626.968	0.0135231
627.046	0.0133549
627.124	0.0134315
627.203	0.0134441
627.281	0.0134257
627.359	0.0134003
627.437	0.0134913
627.515	0.0135442
627.593	0.0134188
627.671	0.0133955
627.749	0.0133449
627.828	0.0133629
627.906	0.0134230
627.984	0.0134655
628.062	0.0134542
628.140	0.0133562
628.218	0.0132969
628.296	0.0133951
628.374	0.0134797
628.453	0.0134236
628.531	0.0133623
628.609	0.0133824
628.687	0.0132927
628.765	0.0134470
628.843	0.0133885
628.921	0.0132573
628.999	0.0131502
629.078	0.0133756
629.156	0.0133765
629.234	0.0133803
629.312	0.0133016
629.390	0.0133809
629.468	0.0132643
629.546	0.0133421
629.624	0.0132786
629.703	0.0133207
629.781	0.0134584
629.859	0.0132919
629.937	0.0132391
630.015	0.0133122
630.093	0.0133798
630.171	0.0133613
630.249	0.0132530
630.328	0.0132527
630.406	0.0132804
630.484	0.0133899
630.562	0.0132519
630.640	0.0132594
630.718	0.0132540
630.796	0.0132890
630.874	0.0132713
630.953	0.0133804
631.031	0.0130441
631.109	0.0133624
631.187	0.0132659
631.265	0.0132859
631.343	0.0132716
631.421	0.0133054
631.499	0.0133092
631.578	0.0130569
631.656	0.0131881
631.734	0.0134439
631.812	0.0133123
631.890	0.0133050
631.968	0.0132294
632.046	0.0132246
632.124	0.0132710
632.203	0.0131902
632.281	0.0133283
632.359	0.0133746
632.437	0.0131745
632.515	0.0132706
632.593	0.0133059
632.671	0.0132803
632.749	0.0132463
632.828	0.0132809
632.906	0.0133335
632.984	0.0134508
633.062	0.0133608
633.140	0.0133201
633.218	0.0133324
633.296	0.0133251
633.374	0.0134224
633.453	0.0134239
633.531	0.0132831
633.609	0.0133826
633.687	0.0134367
633.765	0.0133896
633.843	0.0135594
633.921	0.0133724
633.999	0.0135661
634.078	0.0136258
634.156	0.0134660
634.234	0.0133823
634.312	0.0134370
634.390	0.0135812
634.468	0.0136961
634.546	0.0135564
634.624	0.0135867
634.703	0.0135633
634.781	0.0135336
634.859	0.0134857
634.937	0.0135760
635.015	0.0136229
635.093	0.0134473
635.171	0.0135796
635.249	0.0135126
635.328	0.0135157
635.406	0.0135419
635.484	0.0135735
635.562	0.0135872
635.640	0.0135445
635.718	0.0135333
635.796	0.0135230
635.874	0.0135439
635.953	0.0134529
636.031	0.0132551
636.109	0.0134576
636.187	0.0133937
636.265	0.0134700
636.343	0.0134027
636.421	0.0133699
636.499	0.0134326
636.578	0.0135190
636.656	0.0135139
636.734	0.0134296
636.812	0.0134180
636.890	0.0133659
636.968	0.0135150
637.046	0.0134260
637.124	0.0133738
637.203	0.0133717
637.281	0.0134647
637.359	0.0134241
637.437	0.0133060
637.515	0.0134718
637.593	0.0134393
637.671	0.0134389
637.749	0.0135294
637.828	0.0133923
637.906	0.0133347
637.984	0.0134016
638.062	0.0133067
638.140	0.0133355
638.218	0.0133266
638.296	0.0133680
638.374	0.0133129
638.453	0.0131816
638.531	0.0134260
638.609	0.0134846
638.687	0.0133212
638.765	0.0133083
638.843	0.0133273
638.921	0.0135036
638.999	0.0134669
639.078	0.0133875
639.156	0.0134103
639.234	0.0133577
639.312	0.0133750
639.390	0.0134232
639.468	0.0132961
639.546	0.0132678
639.624	0.0133080
639.703	0.0133637
639.781	0.0133508
639.859	0.0133179
639.937	0.0132610
640.015	0.0134649
640.093	0.0133773
640.171	0.0133991
640.249	0.0132746
640.328	0.0132586
640.406	0.0132424
640.484	0.0132426
640.562	0.0134141
640.640	0.0132832
640.718	0.0133158
640.796	0.0133920
640.874	0.0132174
640.953	0.0133733
641.031	0.0133014
641.109	0.0133137
641.187	0.0133769
641.265	0.0133087
641.343	0.0133770
641.421	0.0132850
641.499	0.0133079
641.578	0.0132288
641.656	0.0132312
641.734	0.0133361
641.812	0.0133263
641.890	0.0131412
641.968	0.0132983
642.046	0.0132425
642.124	0.0131888
642.203	0.0132037
642.281	0.0132195
642.359	0.0130596
642.437	0.0131353
642.515	0.0131068
642.593	0.0130676
642.671	0.0132277
642.749	0.0132806
642.828	0.0132467
642.906	0.0133755
642.984	0.0133384
643.062	0.0132969
643.140	0.0133762
643.218	0.0134388
643.296	0.0134541
643.374	0.0134319
643.453	0.0134880
643.531	0.0134597
643.609	0.0134454
643.687	0.0133982
643.765	0.0135373
643.843	0.0134146
643.921	0.0134306
643.999	0.0133990
644.078	0.0136380
644.156	0.0133516
644.234	0.0132288
644.312	0.0133691
644.390	0.0132433
644.468	0.0132945
644.546	0.0132858
644.624	0.0131785
644.703	0.0131632
644.781	0.0132074
644.859	0.0130570
644.937	0.0132376
645.015	0.0130762
645.093	0.0131392
645.171	0.0133527
645.249	0.0133543
645.328	0.0132516
645.406	0.0134692
645.484	0.0135788
645.562	0.0134266
645.640	0.0134338
645.718	0.0135519
645.796	0.0135930
645.874	0.0136538
645.953	0.0136141
646.031	0.0134995
646.109	0.0138152
646.187	0.0137789
646.265	0.0136530
646.343	0.0136432
646.421	0.0134966
646.499	0.0135910
646.578	0.0135755
646.656	0.0132446
646.734	0.0131351
646.812	0.0132677
646.890	0.0131480
646.968	0.0130768
647.046	0.0128833
647.124	0.0129573
647.203	0.0128537
647.281	0.0128062
647.359	0.0130415
647.437	0.0128112
647.515	0.0128239
647.593	0.0130782
647.671	0.0129752
647.749	0.0130818
647.828	0.0131680
647.906	0.0132439
647.984	0.0133179
648.062	0.0133301
648.140	0.0134883
648.218	0.0134010
648.296	0.0135632
648.374	0.0133368
648.453	0.0135397
648.531	0.0135725
648.609	0.0136602
648.687	0.0133669
648.765	0.0134337
648.843	0.0136431
648.921	0.0134628
648.999	0.0132939
649.078	0.0133854
649.156	0.0133882
649.234	0.0132438
649.312	0.0131461
649.390	0.0131764
649.468	0.0129449
649.546	0.0128737
649.624	0.0128467
649.703	0.0128396
649.781	0.0126705
649.859	0.0124731
649.937	0.0125345
650.015	0.0125597
650.093	0.0125675
650.171	0.0127059
650.249	0.0126231
650.328	0.0128341
650.406	0.0128819
650.484	0.0129654
650.562	0.0129583
650.640	0.0130365
650.718	0.0131752
650.796	0.0134009
650.874	0.0135229
650.953	0.0136875
651.031	0.0137859
651.109	0.0137618
651.187	0.0140671
651.265	0.0141513
651.343	0.0144305
651.421	0.0144533
651.499	0.0145512
651.578	0.0147466
651.656	0.0147688
651.734	0.0145528
651.812	0.0144633
651.890	0.0144769
651.968	0.0140772
652.046	0.0139516
652.124	0.0136877
652.203	0.0133521
652.281	0.0131443
652.359	0.0128479
652.437	0.0125544
652.515	0.0124479
652.593	0.0121783
652.671	0.0120310
652.749	0.0119997
652.828	0.0120075
652.906	0.0118454
652.984	0.0119366
653.062	0.0119984
653.140	0.0121795
653.218	0.0121285
653.296	0.0121324
653.374	0.0123258
653.453	0.0125387
653.531	0.0127404
653.609	0.0130801
653.687	0.0132053
653.765	0.0135303
653.843	0.0136574
653.921	0.0139199
653.999	0.0140687
654.078	0.0144247
654.156	0.0145973
654.234	0.0148195
654.312	0.0149336
654.390	0.0151209
654.468	0.0152519
654.546	0.0153422
654.624	0.0151982
654.703	0.0150574
654.781	0.0150748
654.859	0.0151124
654.937	0.0148853
655.015	0.0145735
655.093	0.0144428
655.171	0.0142883
655.249	0.0140172
655.328	0.0137038
655.406	0.0136212
655.484	0.0134037
655.562	0.0132048
655.640	0.0131149
655.718	0.0129817
655.796	0.0129161
655.874	0.0129462
655.953	0.0129056
656.031	0.0128255
656.109	0.0127551
656.187	0.0127685
656.265	0.0127117
656.343	0.0127312
656.421	0.0125674
656.499	0.0127504
656.578	0.0128498
656.656	0.0126919
656.734	0.0126275
656.812	0.0124709
656.890	0.0124735
656.968	0.0123291
657.046	0.0124273
657.124	0.0124483
657.203	0.0125905
657.281	0.0124369
657.359	0.0124688
657.437	0.0126621
657.515	0.0128027
657.593	0.0129385
657.671	0.0130987
657.749	0.0132999
657.828	0.0134123
657.906	0.0136221
657.984	0.0135937
658.062	0.0138145
658.140	0.0137953
658.218	0.0140408
658.296	0.0141664
658.374	0.0141853
658.453	0.0144402
658.531	0.0144205
658.609	0.0145533
658.687	0.0145650
658.765	0.0146896
658.843	0.0145095
658.921	0.0147163
658.999	0.0145879
659.078	0.0145777
659.156	0.0145489
659.234	0.0143493
659.312	0.0144122
659.390	0.0141521
659.468	0.0140639
659.546	0.0138852
659.624	0.0137868
659.703	0.0136375
659.781	0.0135744
659.859	0.0133855
659.937	0.0133276
660.015	0.0132706
660.093	0.0130763
660.171	0.0130123
660.249	0.0131806
660.328	0.0129678
660.406	0.0126857
660.484	0.0126313
660.562	0.0125288
660.640	0.0122363
660.718	0.0121162
660.796	0.0120275
660.874	0.0117118
660.953	0.0114320
661.031	0.0116362
661.109	0.0114337
661.187	0.0112325
661.265	0.0112331
661.343	0.0111027
661.421	0.0112209
661.499	0.0112123
661.578	0.0113040
661.656	0.0114714
661.734	0.0115593
661.812	0.0117828
661.890	0.0119747
661.968	0.0121236
662.046	0.0125284
662.124	0.0129353
662.203	0.0132768
662.281	0.0136636
662.359	0.0140070
662.437	0.0143801
662.515	0.0147404
662.593	0.0151730
662.671	0.0155242
662.749	0.0158266
662.828	0.0160340
662.906	0.0162687
662.984	0.0161295
663.062	0.0161729
663.140	0.0162174
663.218	0.0160509
663.296	0.0158620
663.374	0.0158223
663.453	0.0156046
663.531	0.0154142
663.609	0.0151675
663.687	0.0149109
663.765	0.0145411
663.843	0.0142625
663.921	0.0139177
663.999	0.0137473
664.078	0.0135478
664.156	0.0131431
664.234	0.0128419
664.312	0.0125858
664.390	0.0123880
664.468	0.0121464
664.546	0.0119836
664.624	0.0117760
664.703	0.0118288
664.781	0.0116622
664.859	0.0115314
664.937	0.0115769
665.015	0.0115567
665.093	0.0116927
665.171	0.0117336
665.249	0.0120817
665.328	0.0121168
665.406	0.0122640
665.484	0.0122836
665.562	0.0125336
665.640	0.0127004
665.718	0.0128548
665.796	0.0128710
665.874	0.0129840
665.953	0.0131005
666.031	0.0129568
666.109	0.0131046
666.187	0.0131015
666.265	0.0130267
666.343	0.0130759
666.421	0.0129623
666.499	0.0130077
666.578	0.0130551
666.656	0.0132650
666.734	0.0131550
666.812	0.0132373
666.890	0.0134422
666.968	0.0134097
667.046	0.0136320
667.124	0.0137872
667.203	0.0139134
667.281	0.0140522
667.359	0.0140916
667.437	0.0143640
667.515	0.0143977
667.593	0.0145320
667.671	0.0145470
667.749	0.0148518
667.828	0.0147603
667.906	0.0149224
667.984	0.0151690
668.062	0.0151532
668.140	0.0152908
668.218	0.0153432
668.296	0.0153263
668.374	0.0152030
668.453	0.0151435
668.531	0.0150210
668.609	0.0150140
668.687	0.0148444
668.765	0.0148929
668.843	0.0145930
668.921	0.0143840
668.999	0.0141505
669.078	0.0141921
669.156	0.0139314
669.234	0.0137558
669.312	0.0136287
669.390	0.0135004
669.468	0.0132178
669.546	0.0129518
669.624	0.0125085
669.703	0.0123038
669.781	0.0121911
669.859	0.0118952
669.937	0.0114578
670.015	0.0111546
670.093	0.0110094
670.171	0.0106693
670.249	0.0106564
670.328	0.0103826
670.406	0.0103548
670.484	0.0102063
670.562	0.0103968
670.640	0.0103865
670.718	0.0104543
670.796	0.0106036
670.874	0.0105397
670.953	0.0109090
671.031	0.0112658
671.109	0.0115070
671.187	0.0117766
671.265	0.0121002
671.343	0.0123952
671.421	0.0127716
671.499	0.0132201
671.578	0.0134895
671.656	0.0138432
671.734	0.0143272
671.812	0.0145240
671.890	0.0148476
671.968	0.0151054
672.046	0.0154161
672.124	0.0155167
672.203	0.0156841
672.281	0.0161025
672.359	0.0160229
672.437	0.0159849
672.515	0.0163208
672.593	0.0164690
672.671	0.0163166
672.749	0.0164106
672.828	0.0165157
672.906	0.0164170
672.984	0.0165367
673.062	0.0162148
673.140	0.0161294
673.218	0.0160673
673.296	0.0160674
673.374	0.0158364
673.453	0.0153505
673.531	0.0151624
673.609	0.0149381
673.687	0.0145085
673.765	0.0140520
673.843	0.0135800
673.921	0.0130104
673.999	0.0127987
674.078	0.0123853
674.156	0.0119815
674.234	0.0115646
674.312	0.0112738
674.390	0.0110873
674.468	0.0109547
674.546	0.0109167
674.624	0.0107462
674.703	0.0106763
674.781	0.0106825
674.859	0.0106308
674.937	0.0107637
675.015	0.0107635
675.093	0.0109177
675.171	0.0110032
675.249	0.0111827
675.328	0.0113402
675.406	0.0114347
675.484	0.0115999
675.562	0.0115943
675.640	0.0118714
675.718	0.0119405
675.796	0.0120724
675.874	0.0122003
675.953	0.0125518
676.031	0.0125704
676.109	0.0129317
676.187	0.0132304
676.265	0.0135896
676.343	0.0138767
676.421	0.0142523
676.499	0.0146227
676.578	0.0151088
676.656	0.0155019
676.734	0.0157665
676.812	0.0161205
676.890	0.0162936
676.968	0.0165855
677.046	0.0166904
677.124	0.0167480
677.203	0.0166201
677.281	0.0164797
677.359	0.0162296
677.437	0.0161553
677.515	0.0160197
677.593	0.0155596
677.671	0.0152941
677.749	0.0150848
677.828	0.0147466
677.906	0.0145352
677.984	0.0143922
678.062	0.0142542
678.140	0.0140649
678.218	0.0138962
678.296	0.0137033
678.374	0.0136273
678.453	0.0136272
678.531	0.0132814
678.609	0.0130396
678.687	0.0131784
678.765	0.0129571
678.843	0.0127711
678.921	0.0126247
678.999	0.0125816
679.078	0.0123859
679.156	0.0123231
679.234	0.0124451
679.312	0.0124171
679.390	0.0123614
679.468	0.0123761
679.546	0.0124761
679.624	0.0125821
679.703	0.0125410
679.781	0.0126268
679.859	0.0127681
679.937	0.0129952
680.015	0.0129558
680.093	0.0132103
680.171	0.0132179
680.249	0.0132711
680.328	0.0132265
680.406	0.0133519
680.484	0.0132906
680.562	0.0132111
680.640	0.0131033
680.718	0.0129039
680.796	0.0128181
680.874	0.0127541
680.953	0.0125619
681.031	0.0121427
681.109	0.0120557
681.187	0.0120223
681.265	0.0117622
681.343	0.0118087
681.421	0.0116644
681.499	0.0117027
681.578	0.0120227
681.656	0.0119162
681.734	0.0122646
681.812	0.0126439
681.890	0.0126387
681.968	0.0128663
682.046	0.0131985
682.124	0.0134243
682.203	0.0137579
682.281	0.0140267
682.359	0.0139767
682.437	0.0142016
682.515	0.0142369
682.593	0.0143901
682.671	0.0145618
682.749	0.0146938
682.828	0.0148324
682.906	0.0147350
682.984	0.0148385
683.062	0.0148191
683.140	0.0149340
683.218	0.0148241
683.296	0.0148149
683.374	0.0147835
683.453	0.0147514
683.531	0.0146098
683.609	0.0146326
683.687	0.0144920
683.765	0.0143836
683.843	0.0143177
683.921	0.0143745
683.999	0.0141865
684.078	0.0142126
684.156	0.0139161
684.234	0.0138832
684.312	0.0137909
684.390	0.0136962
684.468	0.0137887
684.546	0.0136298
684.624	0.0134987
684.703	0.0133342
684.781	0.0131780
684.859	0.0130332
684.937	0.0131514
685.015	0.0129639
685.093	0.0127585
685.171	0.0127586
685.249	0.0126805
685.328	0.0125126
685.406	0.0126156
685.484	0.0126482
685.562	0.0125835
685.640	0.0125787
685.718	0.0126007
685.796	0.0126653
685.874	0.0125161
685.953	0.0126293
686.031	0.0125189
686.109	0.0125471
686.187	0.0127137
686.265	0.0126643
686.343	0.0126087
686.421	0.0125048
686.499	0.0125181
686.578	0.0125886
686.656	0.0125569
686.734	0.0125188
686.812	0.0126650
686.890	0.0127513
686.968	0.0127328
687.046	0.0128211
687.124	0.0129211
687.203	0.0131510
687.281	0.0133292
687.359	0.0133139
687.437	0.0135481
687.515	0.0136378
687.593	0.0139463
687.671	0.0141100
687.749	0.0141157
687.828	0.0143390
687.906	0.0144180
687.984	0.0144085
688.062	0.0143634
688.140	0.0144369
688.218	0.0144744
688.296	0.0142449
688.374	0.0142502
688.453	0.0143417
688.531	0.0141362
688.609	0.0139619
688.687	0.0139693
688.765	0.0137479
688.843	0.0136273
688.921	0.0136050
688.999	0.0136691
689.078	0.0135495
689.156	0.0134148
689.234	0.0132928
689.312	0.0131428
689.390	0.0130330
689.468	0.0130734
689.546	0.0129086
689.624	0.0129630
689.703	0.0130321
689.781	0.0130478
689.859	0.0130798
689.937	0.0132152
690.015	0.0130883
690.093	0.0134030
690.171	0.0135615
690.249	0.0135711
690.328	0.0136993
690.406	0.0138840
690.484	0.0138194
690.562	0.0139407
690.640	0.0140866
690.718	0.0142126
690.796	0.0141190
690.874	0.0142136
690.953	0.0140845
691.031	0.0141561
691.109	0.0140857
691.187	0.0142529
691.265	0.0142850
691.343	0.0140516
691.421	0.0140063
691.499	0.0140000
691.578	0.0138616
691.656	0.0137708
691.734	0.0137066
691.812	0.0134987
691.890	0.0134566
691.968	0.0131207
692.046	0.0128362
692.124	0.0125974
692.203	0.0123922
692.281	0.0120571
692.359	0.0119222
692.437	0.0116784
692.515	0.0112648
692.593	0.0111981
692.671	0.0109914
692.749	0.0109049
692.828	0.0108091
692.906	0.0107851
692.984	0.0108467
693.062	0.0108755
693.140	0.0109332
693.218	0.0111507
693.296	0.0112750
693.374	0.0115305
693.453	0.0118599
693.531	0.0122466
693.609	0.0124234
693.687	0.0127985
693.765	0.0132252
693.843	0.0135358
693.921	0.0137571
693.999	0.0139869
694.078	0.0142174
694.156	0.0145525
694.234	0.0148241
694.312	0.0147143
694.390	0.0150005
694.468	0.0150728
694.546	0.0153033
694.624	0.0155074
694.703	0.0156110
694.781	0.0155721
694.859	0.0157793
694.937	0.0156905
695.015	0.0158464
695.093	0.0157440
695.171	0.0157223
695.249	0.0156860
695.328	0.0156772
695.406	0.0156960
695.484	0.0155002
695.562	0.0153078
695.640	0.0149661
695.718	0.0149044
695.796	0.0147253
695.874	0.0143779
695.953	0.0140874
696.031	0.0139496
696.109	0.0137405
696.187	0.0136106
696.265	0.0132285
696.343	0.0130651
696.421	0.0127331
696.499	0.0124899
696.578	0.0124831
696.656	0.0121045
696.734	0.0120567
696.812	0.0120007
696.890	0.0118849
696.968	0.0117930
697.046	0.0118336
697.124	0.0119378
697.203	0.0120592
697.281	0.0119525
697.359	0.0121160
697.437	0.0123220
697.515	0.0122703
697.593	0.0123865
697.671	0.0125357
697.749	0.0126620
697.828	0.0126579
697.906	0.0128193
697.984	0.0127854
698.062	0.0127205
698.140	0.0128787
698.218	0.0128204
698.296	0.0128709
698.374	0.0127399
698.453	0.0129015
698.531	0.0129527
698.609	0.0130865
698.687	0.0130400
698.765	0.0129819
698.843	0.0129880
698.921	0.0130823
698.999	0.0133842
699.078	0.0134182
699.156	0.0133247
699.234	0.0133339
699.312	0.0135506
699.390	0.0134761
699.468	0.0134222
699.546	0.0133326
699.624	0.0133869
699.703	0.0132639
699.781	0.0132553
699.859	0.0134663
699.937	0.0133667
700.015	0.0133687
700.093	0.0134860
700.171	0.0137775
700.249	0.0137617
700.328	0.0138283
700.406	0.0140376
700.484	0.0139951
700.562	0.0142350
700.640	0.0143959
700.718	0.0144457
700.796	0.0145296
700.874	0.0146543
700.953	0.0147199
701.031	0.0148632
701.109	0.0148521
701.187	0.0148521
701.265	0.0147256
701.343	0.0146501
701.421	0.0147863
701.499	0.0146273
701.578	0.0144946
701.656	0.0142841
701.734	0.0142596
701.812	0.0139922
701.890	0.0138360
701.968	0.0137138
702.046	0.0135989
702.124	0.0133747
702.203	0.0132440
702.281	0.0130159
702.359	0.0128906
702.437	0.0126833
702.515	0.0125490
702.593	0.0125346
702.671	0.0123959
702.749	0.0122644
702.828	0.0122549
702.906	0.0121330
702.984	0.0121487
703.062	0.0122331
703.140	0.0120603
703.218	0.0118328
703.296	0.0118957
703.374	0.0120173
703.453	0.0119922
703.531	0.0120264
703.609	0.0119627
703.687	0.0120522
703.765	0.0118874
703.843	0.0121448
703.921	0.0121703
703.999	0.0123043
704.078	0.0123920
704.156	0.0126607
704.234	0.0126691
704.312	0.0128482
704.390	0.0131593
704.468	0.0131453
704.546	0.0132150
704.624	0.0134808
704.703	0.0136227
704.781	0.0136609
704.859	0.0137531
704.937	0.0139443
705.015	0.0140321
705.093	0.0140498
705.171	0.0140504
705.249	0.0141083
705.328	0.0141840
705.406	0.0140657
705.484	0.0139278
705.562	0.0139794
705.640	0.0140090
705.718	0.0141328
705.796	0.0140346
705.874	0.0140034
705.953	0.0139809
706.031	0.0139439
706.109	0.0139556
706.187	0.0140490
706.265	0.0139657
706.343	0.0139482
706.421	0.0139433
706.499	0.0140431
706.578	0.0138737
706.656	0.0139330
706.734	0.0138009
706.812	0.0137885
706.890	0.0137610
706.968	0.0137545
707.046	0.0137117
707.124	0.0135814
707.203	0.0136034
707.281	0.0137253
707.359	0.0135505
707.437	0.0136689
707.515	0.0136729
707.593	0.0137106
707.671	0.0136555
707.749	0.0136121
707.828	0.0137805
707.906	0.0136050
707.984	0.0138084
708.062	0.0135107
708.140	0.0135309
708.218	0.0133117
708.296	0.0133035
708.374	0.0131775
708.453	0.0130075
708.531	0.0128796
708.609	0.0127388
708.687	0.0125344
708.765	0.0125423
708.843	0.0123526
708.921	0.0123671
708.999	0.0123074
709.078	0.0121820
709.156	0.0122430
709.234	0.0123311
709.312	0.0123396
709.390	0.0123122
709.468	0.0124156
709.546	0.0125236
709.624	0.0125121
709.703	0.0128016
709.781	0.0127675
709.859	0.0128503
709.937	0.0128784
710.015	0.0129479
710.093	0.0131146
710.171	0.0131105
710.249	0.0131265
710.328	0.0134335
710.406	0.0134457
710.484	0.0133938
710.562	0.0134496
710.640	0.0135892
710.718	0.0138293
710.796	0.0138227
710.874	0.0137439
710.953	0.0139136
711.031	0.0137750
711.109	0.0139035
711.187	0.0140420
711.265	0.0140870
711.343	0.0140678
711.421	0.0140672
711.499	0.0140764
711.578	0.0141097
711.656	0.0141119
711.734	0.0140752
711.812	0.0140189
711.890	0.0141132
711.968	0.0139496
712.046	0.0139847
712.124	0.0138491
712.203	0.0138702
712.281	0.0137262
712.359	0.0139785
712.437	0.0136724
712.515	0.0136213
712.593	0.0137266
712.671	0.0137876
712.749	0.0137907
712.828	0.0137433
712.906	0.0136812
712.984	0.0138318
713.062	0.0138039
713.140	0.0139229
713.218	0.0138651
713.296	0.0139078
713.374	0.0139336
713.453	0.0140043
713.531	0.0140340
713.609	0.0138155
713.687	0.0139378
713.765	0.0138383
713.843	0.0136949
713.921	0.0136679
713.999	0.0137534
714.078	0.0137032
714.156	0.0134307
714.234	0.0133597
714.312	0.0132897
714.390	0.0132598
714.468	0.0129804
714.546	0.0126805
714.624	0.0126688
714.703	0.0127173
714.781	0.0126176
714.859	0.0123996
714.937	0.0123690
715.015	0.0121820
715.093	0.0122487
715.171	0.0122324
715.249	0.0121699
715.328	0.0122185
715.406	0.0123507
715.484	0.0123504
715.562	0.0125098
715.640	0.0125452
715.718	0.0126467
715.796	0.0127154
715.874	0.0127388
715.953	0.0128591
716.031	0.0129527
716.109	0.0130359
716.187	0.0132389
716.265	0.0132870
716.343	0.0134326
716.421	0.0134023
716.499	0.0135495
716.578	0.0137598
716.656	0.0139193
716.734	0.0139079
716.812	0.0142947
716.890	0.0143684
716.968	0.0144517
717.046	0.0145786
717.124	0.0148315
717.203	0.0148132
717.281	0.0147188
717.359	0.0147961
717.437	0.0147617
717.515	0.0146227
717.593	0.0147224
717.671	0.0146532
717.749	0.0142384
717.828	0.0141863
717.906	0.0141235
717.984	0.0138297
718.062	0.0138266
718.140	0.0136445
718.218	0.0133108
718.296	0.0131172
718.374	0.0130586
718.453	0.0129144
718.531	0.0130299
718.609	0.0128971
718.687	0.0127395
718.765	0.0125629
718.843	0.0125749
718.921	0.0124776
718.999	0.0125031
719.078	0.0123740
719.156	0.0125273
719.234	0.0125298
719.312	0.0123230
719.390	0.0123714
719.468	0.0124349
719.546	0.0125338
719.624	0.0127160
719.703	0.0126890
719.781	0.0126146
719.859	0.0128224
719.937	0.0128565
720.015	0.0129514
720.093	0.0130515
720.171	0.0131573
720.249	0.0132240
720.328	0.0132140
720.406	0.0133236
720.484	0.0132864
720.562	0.0131453
720.640	0.0132410
720.718	0.0133798
720.796	0.0131142
720.874	0.0130476
720.953	0.0130193
721.031	0.0129422
721.109	0.0130605
721.187	0.0130344
721.265	0.0129282
721.343	0.0130696
721.421	0.0130591
721.499	0.0129731
721.578	0.0129217
721.656	0.0130520
721.734	0.0132314
721.812	0.0132600
721.890	0.0134081
721.968	0.0135734
722.046	0.0134490
722.124	0.0133799
722.203	0.0135897
722.281	0.0137225
722.359	0.0135496
722.437	0.0135958
722.515	0.0137616
722.593	0.0136224
722.671	0.0134889
722.749	0.0135737
722.828	0.0135686
722.906	0.0134506
722.984	0.0136983
723.062	0.0135881
723.140	0.0135305
723.218	0.0134428
723.296	0.0136098
723.374	0.0135283
723.453	0.0137498
723.531	0.0136855
723.609	0.0135868
723.687	0.0136597
723.765	0.0137236
723.843	0.0136826
723.921	0.0136653
723.999	0.0136530
724.078	0.0137073
724.156	0.0136152
724.234	0.0134974
724.312	0.0134410
724.390	0.0133168
724.468	0.0131878
724.546	0.0131429
724.624	0.0130981
724.703	0.0129169
724.781	0.0127979
724.859	0.0127752
724.937	0.0128139
725.015	0.0128201
725.093	0.0127370
725.171	0.0128751
725.249	0.0127933
725.328	0.0129063
725.406	0.0130087
725.484	0.0130159
725.562	0.0130189
725.640	0.0130705
725.718	0.0131339
725.796	0.0129699
725.874	0.0130884
725.953	0.0130292
726.031	0.0130106
726.109	0.0128571
726.187	0.0128815
726.265	0.0129407
726.343	0.0130033
726.421	0.0131329
726.499	0.0128796
726.578	0.0131943
726.656	0.0132588
726.734	0.0133781
726.812	0.0131340
726.890	0.0133114
726.968	0.0134039
727.046	0.0135949
727.124	0.0135311
727.203	0.0135005
727.281	0.0136821
727.359	0.0137347
727.437	0.0136671
727.515	0.0136380
727.593	0.0136264
727.671	0.0136092
727.749	0.0135153
727.828	0.0134565
727.906	0.0134577
727.984	0.0135018
728.062	0.0134598
728.140	0.0134397
728.218	0.0133349
728.296	0.0132899
728.374	0.0132144
728.453	0.0130952
728.531	0.0131831
728.609	0.0130691
728.687	0.0130954
728.765	0.0131695
728.843	0.0131865
728.921	0.0132265
728.999	0.0131290
729.078	0.0130804
729.156	0.0130370
729.234	0.0132800
729.312	0.0132928
729.390	0.0130615
729.468	0.0132181
729.546	0.0133964
729.624	0.0133829
729.703	0.0134359
729.781	0.0133155
729.859	0.0134245
729.937	0.0134833
730.015	0.0134173
730.093	0.0136166
730.171	0.0135111
730.249	0.0135782
730.328	0.0137337
730.406	0.0136694
730.484	0.0137534
730.562	0.0137225
730.640	0.0138114
730.718	0.0137943
730.796	0.0138074
730.874	0.0139412
730.953	0.0139185
731.031	0.0137789
731.109	0.0136974
731.187	0.0137363
731.265	0.0137544
731.343	0.0137736
731.421	0.0137075
731.499	0.0136581
731.578	0.0136389
731.656	0.0134733
731.734	0.0134228
731.812	0.0132940
731.890	0.0131866
731.968	0.0130581
732.046	0.0130786
732.124	0.0129971
732.203	0.0128149
732.281	0.0127319
732.359	0.0127841
732.437	0.0127159
732.515	0.0125547
732.593	0.0127385
732.671	0.0126200
732.749	0.0127719
732.828	0.0128432
732.906	0.0128182
732.984	0.0130426
733.062	0.0129195
733.140	0.0130542
733.218	0.0132579
733.296	0.0133471
733.374	0.0134218
733.453	0.0133642
733.531	0.0134164
733.609	0.0134817
733.687	0.0136152
733.765	0.0136737
733.843	0.0135605
733.921	0.0136236
733.999	0.0136977
734.078	0.0137804
734.156	0.0137799
734.234	0.0136942
734.312	0.0137294
734.390	0.0136774
734.468	0.0137812
734.546	0.0137036
734.624	0.0138329
734.703	0.0137968
734.781	0.0138152
734.859	0.0138489
734.937	0.0138901
735.015	0.0137492
735.093	0.0137223
735.171	0.0137787
735.249	0.0137191
735.328	0.0138153
735.406	0.0137405
735.484	0.0136696
735.562	0.0138036
735.640	0.0136974
735.718	0.0137933
735.796	0.0137604
735.874	0.0136973
735.953	0.0135150
736.031	0.0135770
736.109	0.0134481
736.187	0.0134512
736.265	0.0134178
736.343	0.0133685
736.421	0.0132583
736.499	0.0133340
736.578	0.0135354
736.656	0.0132982
736.734	0.0133574
736.812	0.0134342
736.890	0.0133778
736.968	0.0133652
737.046	0.0134579
737.124	0.0135303
737.203	0.0136085
737.281	0.0134939
737.359	0.0135783
737.437	0.0134353
737.515	0.0133893
737.593	0.0134309
737.671	0.0136118
737.749	0.0135473
737.828	0.0134274
737.906	0.0133694
737.984	0.0134843
738.062	0.0133598
738.140	0.0133399
738.218	0.0132468
738.296	0.0133776
738.374	0.0133232
738.453	0.0134547
738.531	0.0134985
738.609	0.0132822
738.687	0.0133447
738.765	0.0131931
738.843	0.0131127
738.921	0.0132948
738.999	0.0131646
739.078	0.0131159
739.156	0.0132907
739.234	0.0131782
739.312	0.0130194
739.390	0.0132865
739.468	0.0132159
739.546	0.0131505
739.624	0.0131985
739.703	0.0132899
739.781	0.0132477
739.859	0.0131400
739.937	0.0132487
740.015	0.0133326
740.093	0.0133670
740.171	0.0134033
740.249	0.0135884
740.328	0.0135001
740.406	0.0133546
740.484	0.0134037
740.562	0.0136275
740.640	0.0134186
740.718	0.0135456
740.796	0.0134734
740.874	0.0133450
740.953	0.0134267
741.031	0.0133515
741.109	0.0132907
741.187	0.0133879
741.265	0.0132771
741.343	0.0133116
741.421	0.0132154
741.499	0.0131274
741.578	0.0131562
741.656	0.0132587
741.734	0.0132729
741.812	0.0133981
741.890	0.0135129
741.968	0.0134312
742.046	0.0134576
742.124	0.0136227
742.203	0.0135335
742.281	0.0135313
742.359	0.0135498
742.437	0.0135699
742.515	0.0134200
742.593	0.0135663
742.671	0.0135233
742.749	0.0134659
742.828	0.0135131
742.906	0.0136912
742.984	0.0137501
743.062	0.0134950
743.140	0.0134588
743.218	0.0134719
743.296	0.0134325
743.374	0.0135468
743.453	0.0134354
743.531	0.0134781
743.609	0.0134634
743.687	0.0134721
743.765	0.0134017
743.843	0.0135084
743.921	0.0136060
743.999	0.0133738
744.078	0.0134464
744.156	0.0134525
744.234	0.0133649
744.312	0.0133799
744.390	0.0132260
744.468	0.0132143
744.546	0.0132352
744.624	0.0132226
744.703	0.0130759
744.781	0.0130248
744.859	0.0131361
744.937	0.0130833
745.015	0.0130658
745.093	0.0129413
745.171	0.0130982
745.249	0.0129836
745.328	0.0129820
745.406	0.0130193
745.484	0.0129043
745.562	0.0129034
745.640	0.0128627
745.718	0.0129795
745.796	0.0129552
745.874	0.0129078
745.953	0.0130062
746.031	0.0131297
746.109	0.0131198
746.187	0.0131594
746.265	0.0131779
746.343	0.0131789
746.421	0.0133316
746.499	0.0133836
746.578	0.0133464
746.656	0.0134544
746.734	0.0133037
746.812	0.0135517
746.890	0.0134605
746.968	0.0135583
747.046	0.0135651
747.124	0.0135013
747.203	0.0136610
747.281	0.0135794
747.359	0.0135449
747.437	0.0135956
747.515	0.0135275
747.593	0.0135873
747.671	0.0135645
747.749	0.0135935
747.828	0.0135100
747.906	0.0134884
747.984	0.0136504
748.062	0.0136070
748.140	0.0135502
748.218	0.0136770
748.296	0.0135317
748.374	0.0135107
748.453	0.0135274
748.531	0.0135623
748.609	0.0136035
748.687	0.0134988
748.765	0.0134667
748.843	0.0132665
748.921	0.0133545
748.999	0.0133422
749.078	0.0133904
749.156	0.0132607
749.234	0.0131742
749.312	0.0131461
749.390	0.0131717
749.468	0.0131407
749.546	0.0129295
749.624	0.0130995
749.703	0.0131263
749.781	0.0132169
749.859	0.0132986
749.937	0.0133022
750.015	0.0131708
750.093	0.0132536
750.171	0.0133604
750.249	0.0134881
750.328	0.0132722
750.406	0.0132811
750.484	0.0134641
750.562	0.0134949
750.640	0.0135978
750.718	0.0135128
750.796	0.0135201
750.874	0.0135434
750.953	0.0135394
751.031	0.0136124
751.109	0.0135325
751.187	0.0136526
751.265	0.0135989
751.343	0.0137856
751.421	0.0137788
751.499	0.0137019
751.578	0.0137901
751.656	0.0136704
751.734	0.0137059
751.812	0.0137289
751.890	0.0136340
751.968	0.0136449
752.046	0.0135371
752.124	0.0136527
752.203	0.0136472
752.281	0.0134746
752.359	0.0134081
752.437	0.0133422
752.515	0.0131924
752.593	0.0130937
752.671	0.0131699
752.749	0.0131345
752.828	0.0131309
752.906	0.0131816
752.984	0.0131623
753.062	0.0130207
753.140	0.0132609
753.218	0.0130704
753.296	0.0131083
753.374	0.0132457
753.453	0.0132873
753.531	0.0132294
753.609	0.0132713
753.687	0.0131554
753.765	0.0133124
753.843	0.0133213
753.921	0.0133625
753.999	0.0134624
754.078	0.0134921
754.156	0.0133448
754.234	0.0133630
754.312	0.0133630
754.390	0.0134990
754.468	0.0135047
754.546	0.0135560
754.624	0.0133700
754.703	0.0136478
754.781	0.0136174
754.859	0.0134943
754.937	0.0136792
755.015	0.0136768
755.093	0.0136748
755.171	0.0136915
755.249	0.0137835
755.328	0.0137521
755.406	0.0136591
755.484	0.0136932
755.562	0.0136025
755.640	0.0137935
755.718	0.0139294
755.796	0.0136883
755.874	0.0136614
755.953	0.0136747
756.031	0.0136888
756.109	0.0135200
756.187	0.0135910
756.265	0.0135013
756.343	0.0134571
756.421	0.0134384
756.499	0.0134103
756.578	0.0133559
756.656	0.0133974
756.734	0.0134189
756.812	0.0132439
756.890	0.0133343
756.968	0.0132198
757.046	0.0132715
757.124	0.0132047
757.203	0.0131699
757.281	0.0132526
757.359	0.0131004
757.437	0.0129124
757.515	0.0132267
757.593	0.0133775
757.671	0.0132555
757.749	0.0134063
757.828	0.0131732
757.906	0.0130971
757.984	0.0131970
758.062	0.0133311
758.140	0.0130489
758.218	0.0130341
758.296	0.0129852
758.374	0.0132177
758.453	0.0131178
758.531	0.0131322
758.609	0.0131203
758.687	0.0130614
758.765	0.0130994
758.843	0.0131237
758.921	0.0131706
758.999	0.0130091
759.078	0.0131440
759.156	0.0131159
759.234	0.0131958
759.312	0.0131260
759.390	0.0131989
759.468	0.0134298
759.546	0.0134229
759.624	0.0132806
759.703	0.0133999
759.781	0.0133249
759.859	0.0133591
759.937	0.0135493
760.015	0.0135439
760.093	0.0134652
760.171	0.0134221
760.249	0.0133907
760.328	0.0135107
760.406	0.0135752
760.484	0.0135466
760.562	0.0134385
760.640	0.0134761
760.718	0.0134232
760.796	0.0133477
760.874	0.0133896
760.953	0.0132360
761.031	0.0133584
761.109	0.0132848
761.187	0.0134677
761.265	0.0134101
761.343	0.0133427
761.421	0.0134578
761.499	0.0133009
761.578	0.0133451
761.656	0.0133282
761.734	0.0134589
761.812	0.0135295
761.890	0.0135689
761.968	0.0134154
762.046	0.0134081
762.124	0.0135204
762.203	0.0134869
762.281	0.0134536
762.359	0.0134560
762.437	0.0135598
762.515	0.0135423
762.593	0.0134322
762.671	0.0135233
762.749	0.0134251
762.828	0.0134436
762.906	0.0134690
762.984	0.0135270
763.062	0.0135286
763.140	0.0133597
763.218	0.0134830
763.296	0.0133929
763.374	0.0134396
763.453	0.0134567
763.531	0.0134629
763.609	0.0133453
763.687	0.0133324
763.765	0.0132922
763.843	0.0132664
763.921	0.0132712
763.999	0.0133616
764.078	0.0132285
764.156	0.0134564
764.234	0.0132891
764.312	0.0133739
764.390	0.0133481
764.468	0.0134802
764.546	0.0132549
764.624	0.0133792
764.703	0.0132599
764.781	0.0135529
764.859	0.0136217
764.937	0.0134579
765.015	0.0134954
765.093	0.0135239
765.171	0.0136889
765.249	0.0137099
765.328	0.0136150
765.406	0.0135630
765.484	0.0136913
765.562	0.0137654
765.640	0.0137325
765.718	0.0135482
765.796	0.0135633
765.874	0.0136473
765.953	0.0136980
766.031	0.0136192
766.109	0.0135484
766.187	0.0137024
766.265	0.0135050
766.343	0.0134578
766.421	0.0133173
766.499	0.0134780
766.578	0.0134536
766.656	0.0134300
766.734	0.0133771
766.812	0.0132961
766.890	0.0133513
766.968	0.0132908
767.046	0.0133638
767.124	0.0132746
767.203	0.0131924
767.281	0.0132092
767.359	0.0132449
767.437	0.0131116
767.515	0.0133397
767.593	0.0132039
767.671	0.0131133
767.749	0.0130076
767.828	0.0132173
767.906	0.0132696
767.984	0.0130947
768.062	0.0131528
768.140	0.0132320
768.218	0.0131801
768.296	0.0132796
768.374	0.0134652
768.453	0.0134537
768.531	0.0134397
768.609	0.0134350
768.687	0.0134363
768.765	0.0135036
768.843	0.0136333
768.921	0.0136113
768.999	0.0136553
769.078	0.0137992
769.156	0.0137315
769.234	0.0136082
769.312	0.0137669
769.390	0.0137612
769.468	0.0138116
769.546	0.0138004
769.624	0.0136994
769.703	0.0138332
769.781	0.0136680
769.859	0.0136309
769.937	0.0135551
770.015	0.0136673
770.093	0.0136897
770.171	0.0135744
770.249	0.0136629
770.328	0.0136401
770.406	0.0134930
770.484	0.0136097
770.562	0.0135326
770.640	0.0134959
770.718	0.0132919
770.796	0.0133106
770.874	0.0133907
770.953	0.0133709
771.031	0.0133655
771.109	0.0133267
771.187	0.0132511
771.265	0.0132683
771.343	0.0132107
771.421	0.0132301
771.499	0.0131941
771.578	0.0132135
771.656	0.0131885
771.734	0.0132413
771.812	0.0132293
771.890	0.0132365
771.968	0.0131809
772.046	0.0132277
772.124	0.0131377
772.203	0.0131910
772.281	0.0131198
772.359	0.0131984
772.437	0.0131709
772.515	0.0131652
772.593	0.0132265
772.671	0.0132266
772.749	0.0132833
772.828	0.0131695
772.906	0.0131667
772.984	0.0133067
773.062	0.0132654
773.140	0.0133698
773.218	0.0133714
773.296	0.0133068
773.374	0.0132799
773.453	0.0135483
773.531	0.0135327
773.609	0.0135336
773.687	0.0134429
773.765	0.0133889
773.843	0.0135127
773.921	0.0134706
773.999	0.0134273
774.078	0.0135662
774.156	0.0134072
774.234	0.0134200
774.312	0.0133854
774.390	0.0134597
774.468	0.0133469
774.546	0.0134756
774.624	0.0135413
774.703	0.0136507
774.781	0.0135522
774.859	0.0136156
774.937	0.0135421
775.015	0.0135323
775.093	0.0133720
775.171	0.0135125
775.249	0.0135184
775.328	0.0134134
775.406	0.0134691
775.484	0.0135181
775.562	0.0135300
775.640	0.0133835
775.718	0.0134200
775.796	0.0135277
775.874	0.0136738
775.953	0.0133241
776.031	0.0135024
776.109	0.0136486
776.187	0.0135963
776.265	0.0136375
776.343	0.0136597
776.421	0.0137490
776.499	0.0138638
776.578	0.0138094
776.656	0.0138178
776.734	0.0136034
776.812	0.0138097
776.890	0.0139408
776.968	0.0138445
777.046	0.0136386
777.124	0.0138072
777.203	0.0137528
777.281	0.0136423
777.359	0.0136279
777.437	0.0136260
777.515	0.0136408
777.593	0.0136776
777.671	0.0135442
777.749	0.0135432
777.828	0.0133088
777.906	0.0134960
777.984	0.0133783
778.062	0.0135242
778.140	0.0133303
778.218	0.0132653
778.296	0.0133817
778.374	0.0132581
778.453	0.0132761
778.531	0.0132727
778.609	0.0131933
778.687	0.0133746
778.765	0.0133640
778.843	0.0133588
778.921	0.0134862
778.999	0.0133352
779.078	0.0134385
779.156	0.0132097
779.234	0.0132534
779.312	0.0134105
779.390	0.0132829
779.468	0.0134400
779.546	0.0132876
779.624	0.0132987
779.703	0.0134457
779.781	0.0133385
779.859	0.0133481
779.937	0.0133968
780.015	0.0133789
780.093	0.0135104
780.171	0.0135133
780.249	0.0134338
780.328	0.0136248
780.406	0.0135497
780.484	0.0135586
780.562	0.0134727
780.640	0.0135461
780.718	0.0136610
780.796	0.0135175
780.874	0.0135184
780.953	0.0136319
781.031	0.0136179
781.109	0.0134824
781.187	0.0134896
781.265	0.0134396
781.343	0.0135455
781.421	0.0135087
781.499	0.0134248
781.578	0.0133035
781.656	0.0133881
781.734	0.0134882
781.812	0.0133282
781.890	0.0132623
781.968	0.0131336
782.046	0.0132375
782.124	0.0131229
782.203	0.0131066
782.281	0.0129584
782.359	0.0129469
782.437	0.0129840
782.515	0.0130642
782.593	0.0130466
782.671	0.0129888
782.749	0.0129916
782.828	0.0130173
782.906	0.0131020
782.984	0.0128719
783.062	0.0130193
783.140	0.0130437
783.218	0.0130582
783.296	0.0129918
783.374	0.0129910
783.453	0.0130619
783.531	0.0131653
783.609	0.0131853
783.687	0.0132345
783.765	0.0132642
783.843	0.0132613
783.921	0.0133774
783.999	0.0132820
784.078	0.0134024
784.156	0.0132066
784.234	0.0132224
784.312	0.0133442
784.390	0.0131165
784.468	0.0132687
784.546	0.0132949
784.624	0.0132741
784.703	0.0132647
784.781	0.0134065
784.859	0.0134582
784.937	0.0134235
785.015	0.0133883
785.093	0.0132768
785.171	0.0133276
785.249	0.0133099
785.328	0.0134856
785.406	0.0133105
785.484	0.0133241
785.562	0.0131183
785.640	0.0133857
785.718	0.0132957
785.796	0.0133493
785.874	0.0132056
785.953	0.0132806
786.031	0.0133492
786.109	0.0133681
786.187	0.0133035
786.265	0.0133914
786.343	0.0133443
786.421	0.0133649
786.499	0.0133540
786.578	0.0133308
786.656	0.0133475
786.734	0.0135053
786.812	0.0134212
786.890	0.0134594
786.968	0.0135683
787.046	0.0134998
787.124	0.0135870
787.203	0.0136327
787.281	0.0135983
787.359	0.0135790
787.437	0.0135179
787.515	0.0136116
787.593	0.0137726
787.671	0.0136194
787.749	0.0136391
787.828	0.0135513
787.906	0.0134280
787.984	0.0134414
788.062	0.0135429
788.140	0.0135546
788.218	0.0133585
788.296	0.0132655
788.374	0.0131134
788.453	0.0131830
788.531	0.0133781
788.609	0.0133160
788.687	0.0131872
788.765	0.0130972
788.843	0.0130846
788.921	0.0134264
788.999	0.0131332
789.078	0.0132436
789.156	0.0132260
789.234	0.0132317
789.312	0.0133641
789.390	0.0133327
789.468	0.0133023
789.546	0.0132929
789.624	0.0133701
789.703	0.0134734
789.781	0.0134705
789.859	0.0134238
789.937	0.0134618
790.015	0.0135336
790.093	0.0135002
790.171	0.0134885
790.249	0.0133784
790.328	0.0134127
790.406	0.0134032
790.484	0.0133403
790.562	0.0134348
790.640	0.0133820
790.718	0.0133280
790.796	0.0135312
790.874	0.0135528
790.953	0.0134403
791.031	0.0133591
791.109	0.0134676
791.187	0.0134506
791.265	0.0136414
791.343	0.0137103
791.421	0.0136253
791.499	0.0135656
791.578	0.0135987
791.656	0.0135973
791.734	0.0136298
791.812	0.0136485
791.890	0.0136796
791.968	0.0136240
792.046	0.0136165
792.124	0.0135435
792.203	0.0135702
792.281	0.0136167
792.359	0.0134914
792.437	0.0135586
792.515	0.0134482
792.593	0.0135516
792.671	0.0135437
792.749	0.0135257
792.828	0.0135036
792.906	0.0133541
792.984	0.0133655
793.062	0.0133536
793.140	0.0132520
793.218	0.0133242
793.296	0.0131447
793.374	0.0132697
793.453	0.0131599
793.531	0.0131519
793.609	0.0131467
793.687	0.0131687
793.765	0.0132125
793.843	0.0131209
793.921	0.0132109
793.999	0.0133080
794.078	0.0132540
794.156	0.0133260
794.234	0.0132494
794.312	0.0133326
794.390	0.0134544
794.468	0.0133864
794.546	0.0133105
794.624	0.0132890
794.703	0.0132748
794.781	0.0135060
794.859	0.0134291
794.937	0.0133851
795.015	0.0133718
795.093	0.0133101
795.171	0.0133612
795.249	0.0134729
795.328	0.0133757
795.406	0.0134322
795.484	0.0133200
795.562	0.0133102
795.640	0.0132143
795.718	0.0134547
795.796	0.0133077
795.874	0.0133727
795.953	0.0133932
796.031	0.0134085
796.109	0.0132986
796.187	0.0134527
796.265	0.0134151
796.343	0.0133772
796.421	0.0133593
796.499	0.0134283
796.578	0.0134533
796.656	0.0134792
796.734	0.0135220
796.812	0.0134166
796.890	0.0133926
796.968	0.0134536
797.046	0.0135040
797.124	0.0135474
797.203	0.0135023
797.281	0.0134282
797.359	0.0135300
797.437	0.0136585
797.515	0.0136881
797.593	0.0137125
797.671	0.0135778
797.749	0.0136937
797.828	0.0135311
797.906	0.0135929
797.984	0.0135051
798.062	0.0135741
798.140	0.0136031
798.218	0.0137325
798.296	0.0136150
798.374	0.0134343
798.453	0.0135616
798.531	0.0134364
798.609	0.0136221
798.687	0.0135950
798.765	0.0135091
798.843	0.0134660
798.921	0.0134654
798.999	0.0134834
799.078	0.0135159
799.156	0.0136153
799.234	0.0134649
799.312	0.0135267
799.390	0.0135371
799.468	0.0134370
799.546	0.0134911
799.624	0.0133334
799.703	0.0133572
799.781	0.0134272
799.859	0.0132566
799.937	0.0133384
800.015	0.0134501
800.093	0.0132809
800.171	0.0133511
800.249	0.0133549
800.328	0.0134408
800.406	0.0134578
800.484	0.0133855
800.562	0.0134581
800.640	0.0132787
800.718	0.0134679
800.796	0.0134003
800.874	0.0132847
800.953	0.0133516
801.031	0.0131393
801.109	0.0132359
801.187	0.0133633
801.265	0.0133915
801.343	0.0132427
801.421	0.0131612
801.499	0.0132105
801.578	0.0131795
801.656	0.0131614
801.734	0.0131731
801.812	0.0134634
801.890	0.0132178
801.968	0.0132524
802.046	0.0133291
802.124	0.0132594
802.203	0.0133319
802.281	0.0132502
802.359	0.0131863
802.437	0.0132352
802.515	0.0132985
802.593	0.0132195
802.671	0.0133471
802.749	0.0132531
802.828	0.0132568
802.906	0.0135181
802.984	0.0134330
803.062	0.0135271
803.140	0.0135768
803.218	0.0135835
803.296	0.0136313
803.374	0.0135516
803.453	0.0135775
803.531	0.0135396
803.609	0.0135674
803.687	0.0134149
803.765	0.0134351
803.843	0.0135151
803.921	0.0134518
803.999	0.0133565
804.078	0.0133810
804.156	0.0134690
804.234	0.0134885
804.312	0.0133035
804.390	0.0132819
804.468	0.0135822
804.546	0.0133192
804.624	0.0134163
804.703	0.0133251
804.781	0.0133766
804.859	0.0133370
804.937	0.0131521
805.015	0.0131934
805.093	0.0132335
805.171	0.0131383
805.249	0.0131197
805.328	0.0131435
805.406	0.0132653
805.484	0.0133041
805.562	0.0131973
805.640	0.0132936
805.718	0.0133318
805.796	0.0133188
805.874	0.0133138
805.953	0.0133506
806.031	0.0133674
806.109	0.0133652
806.187	0.0134177
806.265	0.0133683
806.343	0.0135423
806.421	0.0135168
806.499	0.0134834
806.578	0.0134133
806.656	0.0134605
806.734	0.0135129
806.812	0.0134495
806.890	0.0133356
806.968	0.0133116
807.046	0.0133167
807.124	0.0132993
807.203	0.0133123
807.281	0.0133022
807.359	0.0132404
807.437	0.0131363
807.515	0.0131052
807.593	0.0131210
807.671	0.0131195
807.749	0.0130372
807.828	0.0131837
807.906	0.0132105
807.984	0.0129346
808.062	0.0130323
808.140	0.0131387
808.218	0.0131162
808.296	0.0131344
808.374	0.0131673
808.453	0.0132095
808.531	0.0132491
808.609	0.0131369
808.687	0.0132505
808.765	0.0133299
808.843	0.0132127
808.921	0.0130785
808.999	0.0132083
809.078	0.0133475
809.156	0.0133244
809.234	0.0132718
809.312	0.0133056
809.390	0.0133450
809.468	0.0133129
809.546	0.0134925
809.624	0.0133834
809.703	0.0133885
809.781	0.0134148
809.859	0.0135049
809.937	0.0135516
810.015	0.0135400
810.093	0.0135517
810.171	0.0136310
810.249	0.0136287
810.328	0.0135214
810.406	0.0136482
810.484	0.0136902
810.562	0.0135660
810.640	0.0135725
810.718	0.0135583
810.796	0.0136418
810.874	0.0135125
810.953	0.0136652
811.031	0.0134483
811.109	0.0134823
811.187	0.0134869
811.265	0.0134364
811.343	0.0136354
811.421	0.0135931
811.499	0.0136245
811.578	0.0136945
811.656	0.0136199
811.734	0.0135165
811.812	0.0136119
811.890	0.0135949
811.968	0.0135236
812.046	0.0136575
812.124	0.0134708
812.203	0.0134492
812.281	0.0134113
812.359	0.0134041
812.437	0.0133267
812.515	0.0133136
812.593	0.0134248
812.671	0.0132220
812.749	0.0132327
812.828	0.0132127
812.906	0.0132337
812.984	0.0132145
813.062	0.0133071
813.140	0.0132343
813.218	0.0133997
813.296	0.0133909
813.374	0.0132194
813.453	0.0132022
813.531	0.0133154
813.609	0.0134954
813.687	0.0133901
813.765	0.0134980
813.843	0.0135528
813.921	0.0134166
813.999	0.0135103
814.078	0.0136028
814.156	0.0134090
814.234	0.0134836
814.312	0.0135092
814.390	0.0134813
814.468	0.0134050
814.546	0.0133136
814.624	0.0132981
814.703	0.0133619
814.781	0.0132841
814.859	0.0134416
814.937	0.0132881
815.015	0.0133649
815.093	0.0132808
815.171	0.0132312
815.249	0.0131650
815.328	0.0133175
815.406	0.0133562
815.484	0.0133627
815.562	0.0133069
815.640	0.0133090
815.718	0.0131982
815.796	0.0132331
815.874	0.0133937
815.953	0.0131805
816.031	0.0132610
816.109	0.0133498
816.187	0.0132915
816.265	0.0133204
816.343	0.0133847
816.421	0.0133866
816.499	0.0132597
816.578	0.0133177
816.656	0.0133032
816.734	0.0133256
816.812	0.0132900
816.890	0.0135037
816.968	0.0134003
817.046	0.0133031
817.124	0.0133886
817.203	0.0133795
817.281	0.0134420
817.359	0.0134312
817.437	0.0134218
817.515	0.0133632
817.593	0.0133566
817.671	0.0133382
817.749	0.0134941
817.828	0.0133861
817.906	0.0134209
817.984	0.0134869
818.062	0.0134359
818.140	0.0133905
818.218	0.0133479
818.296	0.0133374
818.374	0.0135096
818.453	0.0134885
818.531	0.0132344
818.609	0.0132154
818.687	0.0133380
818.765	0.0133755
818.843	0.0131998
818.921	0.0131728
818.999	0.0132314
819.078	0.0132407
819.156	0.0133345
819.234	0.0131784
819.312	0.0133170
819.390	0.0132280
819.468	0.0132835
819.546	0.0132068
819.624	0.0130907
819.703	0.0132479
819.781	0.0133665
819.859	0.0132959
819.937	0.0132106
820.015	0.0132717
820.093	0.0133055
820.171	0.0135406
820.249	0.0134584
820.328	0.0134961
820.406	0.0136002
820.484	0.0134982
820.562	0.0135873
820.640	0.0135369
820.718	0.0134418
820.796	0.0134961
820.874	0.0134711
820.953	0.0135001
821.031	0.0136044
821.109	0.0135773
821.187	0.0134876
821.265	0.0135863
821.343	0.0135555
821.421	0.0135222
821.499	0.0134486
821.578	0.0135250
821.656	0.0135950
821.734	0.0135718
821.812	0.0134348
821.890	0.0135822
821.968	0.0137436
822.046	0.0135792
822.124	0.0133963
822.203	0.0135142
822.281	0.0133376
822.359	0.0134040
822.437	0.0133487
822.515	0.0133235
822.593	0.0134830
822.671	0.0133237
822.749	0.0131670
822.828	0.0133675
822.906	0.0132845
822.984	0.0132545
823.062	0.0132845
823.140	0.0132236
823.218	0.0131135
823.296	0.0131779
823.374	0.0131076
823.453	0.0131085
823.531	0.0130688
823.609	0.0132221
823.687	0.0131374
823.765	0.0130462
823.843	0.0132407
823.921	0.0132317
823.999	0.0130788
824.078	0.0130894
824.156	0.0132151
824.234	0.0131692
824.312	0.0131984
824.390	0.0132034
824.468	0.0133434
824.546	0.0131326
824.624	0.0132533
824.703	0.0133610
824.781	0.0133818
824.859	0.0131893
824.937	0.0133245
825.015	0.0132649
825.093	0.0132612
825.171	0.0133936
825.249	0.0134340
825.328	0.0132993
825.406	0.0134153
825.484	0.0134068
825.562	0.0133776
825.640	0.0134235
825.718	0.0134964
825.796	0.0133954
825.874	0.0134467
825.953	0.0134275
826.031	0.0133363
826.109	0.0133459
826.187	0.0135319
826.265	0.0134322
826.343	0.0133695
826.421	0.0133025
826.499	0.0133277
826.578	0.0133382
826.656	0.0134966
826.734	0.0135188
826.812	0.0135198
826.890	0.0135604
826.968	0.0135921
827.046	0.0136250
827.124	0.0137092
827.203	0.0134499
827.281	0.0135081
827.359	0.0135413
827.437	0.0134303
827.515	0.0134640
827.593	0.0134721
827.671	0.0132223
827.749	0.0134610
827.828	0.0134617
827.906	0.0135528
827.984	0.0133999
828.062	0.0133120
828.140	0.0133508
828.218	0.0133095
828.296	0.0131681
828.374	0.0132658
828.453	0.0132433
828.531	0.0131899
828.609	0.0133742
828.687	0.0132959
828.765	0.0133863
828.843	0.0132459
828.921	0.0132029
828.999	0.0134288
829.078	0.0133754
829.156	0.0132084
829.234	0.0132052
829.312	0.0133831
829.390	0.0133435
829.468	0.0132406
829.546	0.0133613
829.624	0.0133827
829.703	0.0133031
829.781	0.0133130
829.859	0.0133759
829.937	0.0132604
830.015	0.0132935
830.093	0.0133784
830.171	0.0132481
830.249	0.0133614
830.328	0.0134239
830.406	0.0133876
830.484	0.0132738
830.562	0.0133297
830.640	0.0132891
830.718	0.0133331
830.796	0.0133413
830.874	0.0134515
830.953	0.0133355
831.031	0.0135522
831.109	0.0134220
831.187	0.0132552
831.265	0.0134766
831.343	0.0134613
831.421	0.0133900
831.499	0.0135069
831.578	0.0133401
831.656	0.0134898
831.734	0.0133705
831.812	0.0135029
831.890	0.0134930
831.968	0.0134541
832.046	0.0133302
832.124	0.0135205
832.203	0.0134724
832.281	0.0132970
832.359	0.0134570
832.437	0.0134737
832.515	0.0134218
832.593	0.0134447
832.671	0.0134698
832.749	0.0134853
832.828	0.0134205
832.906	0.0134203
832.984	0.0134788
833.062	0.0133871
833.140	0.0135049
833.218	0.0135187
833.296	0.0134699
833.374	0.0135065
833.453	0.0134577
833.531	0.0133840
833.609	0.0134733
833.687	0.0133850
833.765	0.0135013
833.843	0.0133254
833.921	0.0134242
833.999	0.0134928
834.078	0.0135061
834.156	0.0135495
834.234	0.0136053
834.312	0.0134792
834.390	0.0134338
834.468	0.0134480
834.546	0.0134777
834.624	0.0135326
834.703	0.0134609
834.781	0.0133813
834.859	0.0134962
834.937	0.0133737
835.015	0.0132986
835.093	0.0134901
835.171	0.0134760
835.249	0.0134147
835.328	0.0133758
835.406	0.0133836
835.484	0.0133712
835.562	0.0135207
835.640	0.0133943
835.718	0.0134475
835.796	0.0134966
835.874	0.0133258
835.953	0.0133728
836.031	0.0132490
836.109	0.0132738
836.187	0.0133354
836.265	0.0132841
836.343	0.0131776
836.421	0.0132442
836.499	0.0132710
836.578	0.0132310
836.656	0.0129834
836.734	0.0132550
836.812	0.0132792
836.890	0.0132243
836.968	0.0131049
837.046	0.0133305
837.124	0.0132858
837.203	0.0132341
837.281	0.0133667
837.359	0.0131935
837.437	0.0133058
837.515	0.0132340
837.593	0.0133776
837.671	0.0133747
837.749	0.0134032
837.828	0.0132571
837.906	0.0134779
837.984	0.0135039
838.062	0.0135469
838.140	0.0135533
838.218	0.0135819
838.296	0.0135625
838.374	0.0138277
838.453	0.0136309
838.531	0.0136572
838.609	0.0137925
838.687	0.0137237
838.765	0.0137492
838.843	0.0136965
838.921	0.0136768
838.999	0.0137526
839.078	0.0136462
839.156	0.0137012
839.234	0.0137381
839.312	0.0136666
839.390	0.0135976
839.468	0.0134850
839.546	0.0135799
839.624	0.0134364
839.703	0.0136079
839.781	0.0135696
839.859	0.0135204
839.937	0.0135066
840.015	0.0136078
840.093	0.0134809
840.171	0.0135462
840.249	0.0135306
840.328	0.0135851
840.406	0.0135633
840.484	0.0136544
840.562	0.0133791
840.640	0.0135720
840.718	0.0134727
840.796	0.0133321
840.874	0.0132983
840.953	0.0131891
841.031	0.0132644
841.109	0.0132969
841.187	0.0131279
841.265	0.0130212
841.343	0.0131452
841.421	0.0129286
841.499	0.0130057
841.578	0.0129948
841.656	0.0128752
841.734	0.0129819
841.812	0.0129676
841.890	0.0129974
841.968	0.0130756
842.046	0.0131366
842.124	0.0130562
842.203	0.0131976
842.281	0.0132755
842.359	0.0133540
842.437	0.0132426
842.515	0.0133029
842.593	0.0132735
842.671	0.0133792
842.749	0.0135381
842.828	0.0136693
842.906	0.0134664
842.984	0.0134576
843.062	0.0135448
843.140	0.0135628
843.218	0.0134495
843.296	0.0136508
843.374	0.0135950
843.453	0.0136149
843.531	0.0136264
843.609	0.0135645
843.687	0.0135808
843.765	0.0135040
843.843	0.0135249
843.921	0.0133223
843.999	0.0133870
844.078	0.0134898
844.156	0.0135344
844.234	0.0133199
844.312	0.0132592
844.390	0.0131680
844.468	0.0131430
844.546	0.0131689
844.624	0.0132956
844.703	0.0133717
844.781	0.0131411
844.859	0.0131844
844.937	0.0131553
845.015	0.0131110
845.093	0.0131988
845.171	0.0130888
845.249	0.0131293
845.328	0.0131613
845.406	0.0130309
845.484	0.0130076
845.562	0.0132750
845.640	0.0132263
845.718	0.0131162
845.796	0.0131881
845.874	0.0132962
845.953	0.0131806
846.031	0.0132576
846.109	0.0132145
846.187	0.0132802
846.265	0.0131910
846.343	0.0131321
846.421	0.0130975
846.499	0.0132052
846.578	0.0131042
846.656	0.0131656
846.734	0.0132030
846.812	0.0133104
846.890	0.0131583
846.968	0.0132686
847.046	0.0131763
847.124	0.0131538
847.203	0.0132254
847.281	0.0133228
847.359	0.0132063
847.437	0.0131546
847.515	0.0133973
847.593	0.0132114
847.671	0.0132699
847.749	0.0133691
847.828	0.0133617
847.906	0.0133062
847.984	0.0133911
848.062	0.0133474
848.140	0.0133459
848.218	0.0133734
848.296	0.0134164
848.374	0.0134795
848.453	0.0133633
848.531	0.0134657
848.609	0.0134252
848.687	0.0131693
848.765	0.0132256
848.843	0.0132209
848.921	0.0133193
848.999	0.0132644
849.078	0.0133540
849.156	0.0132450
849.234	0.0133406
849.312	0.0132108
849.390	0.0132118
849.468	0.0133687
849.546	0.0132945
849.624	0.0133051
849.703	0.0133084
849.781	0.0133392
849.859	0.0133902
849.937	0.0135008
850.015	0.0135129
850.093	0.0135152
850.171	0.0133423
850.249	0.0132870
850.328	0.0134393
850.406	0.0136910
850.484	0.0133840
850.562	0.0134574
850.640	0.0135316
850.718	0.0136031
850.796	0.0135392
850.874	0.0136139
850.953	0.0136607
851.031	0.0135375
851.109	0.0134203
851.187	0.0135000
851.265	0.0135347
851.343	0.0135762
851.421	0.0135174
851.499	0.0132368
851.578	0.0133021
851.656	0.0131969
851.734	0.0131741
851.812	0.0132523
851.890	0.0132658
851.968	0.0132076
852.046	0.0133065
852.124	0.0131879
852.203	0.0132714
852.281	0.0131368
852.359	0.0132779
852.437	0.0132123
852.515	0.0131725
852.593	0.0132076
852.671	0.0131120
852.749	0.0132951
852.828	0.0132970
852.906	0.0132260
852.984	0.0132500
853.062	0.0131855
853.140	0.0133686
853.218	0.0133395
853.296	0.0133312
853.374	0.0132144
853.453	0.0131422
853.531	0.0133083
853.609	0.0133976
853.687	0.0134357
853.765	0.0134550
853.843	0.0135381
853.921	0.0136494
853.999	0.0137437
854.078	0.0136127
854.156	0.0136700
854.234	0.0137411
854.312	0.0138077
854.390	0.0139015
854.468	0.0137025
854.546	0.0139388
854.624	0.0139387
854.703	0.0137815
854.781	0.0139704
854.859	0.0139758
854.937	0.0140137
855.015	0.0137623
855.093	0.0138544
855.171	0.0139104
855.249	0.0136853
855.328	0.0136468
855.406	0.0136022
855.484	0.0136237
855.562	0.0136753
855.640	0.0136246
855.718	0.0135946
855.796	0.0134893
855.874	0.0136221
855.953	0.0133111
856.031	0.0133135
856.109	0.0135448
856.187	0.0133386
856.265	0.0132808
856.343	0.0132517
856.421	0.0133341
856.499	0.0132789
856.578	0.0132641
856.656	0.0131319
856.734	0.0132375
856.812	0.0132957
856.890	0.0132430
856.968	0.0131495
857.046	0.0132256
857.124	0.0132394
857.203	0.0132758
857.281	0.0132855
857.359	0.0134375
857.437	0.0133819
857.515	0.0134708
857.593	0.0134478
857.671	0.0134512
857.749	0.0135601
857.828	0.0134738
857.906	0.0135354
857.984	0.0135261
858.062	0.0134292
858.140	0.0134595
858.218	0.0134719
858.296	0.0134726
858.374	0.0134146
858.453	0.0134627
858.531	0.0133662
858.609	0.0134404
858.687	0.0133360
858.765	0.0134299
858.843	0.0133728
858.921	0.0134612
858.999	0.0135187
859.078	0.0134494
859.156	0.0135213
859.234	0.0135052
859.312	0.0135804
859.390	0.0135921
859.468	0.0134763
859.546	0.0134569
859.624	0.0136125
859.703	0.0136927
859.781	0.0135859
859.859	0.0136942
859.937	0.0136074
860.015	0.0135209
860.093	0.0135881
860.171	0.0135416
860.249	0.0135172
860.328	0.0134990
860.406	0.0133746
860.484	0.0134153
860.562	0.0134054
860.640	0.0133637
860.718	0.0132758
860.796	0.0133235
860.874	0.0134142
860.953	0.0133520
861.031	0.0133850
861.109	0.0133952
861.187	0.0132691
861.265	0.0134695
861.343	0.0134765
861.421	0.0133852
861.499	0.0133529
861.578	0.0134206
861.656	0.0134851
861.734	0.0133568
861.812	0.0133867
861.890	0.0132918
861.968	0.0132472
862.046	0.0131091
862.124	0.0131231
862.203	0.0132183
862.281	0.0132194
862.359	0.0131983
862.437	0.0131591
862.515	0.0132903
862.593	0.0131586
862.671	0.0132424
862.749	0.0132743
862.828	0.0132060
862.906	0.0133057
862.984	0.0132553
863.062	0.0133311
863.140	0.0134409
863.218	0.0133702
863.296	0.0134378
863.374	0.0135413
863.453	0.0136237
863.531	0.0134507
863.609	0.0133908
863.687	0.0134044
863.765	0.0137022
863.843	0.0134779
863.921	0.0134335
863.999	0.0134789
864.078	0.0135640
864.156	0.0135992
864.234	0.0134049
864.312	0.0135042
864.390	0.0136327
864.468	0.0136700
864.546	0.0136331
864.624	0.0135570
864.703	0.0135394
864.781	0.0137067
864.859	0.0136657
864.937	0.0135909
865.015	0.0137846
865.093	0.0136314
865.171	0.0136459
865.249	0.0135651
865.328	0.0133781
865.406	0.0135285
865.484	0.0134424
865.562	0.0134729
865.640	0.0133920
865.718	0.0133679
865.796	0.0133990
865.874	0.0133680
865.953	0.0133416
866.031	0.0132523
866.109	0.0133585
866.187	0.0133776
866.265	0.0133421
866.343	0.0134090
866.421	0.0133821
866.499	0.0135227
866.578	0.0135601
866.656	0.0135001
866.734	0.0134177
866.812	0.0133514
866.890	0.0134785
866.968	0.0135069
867.046	0.0135010
867.124	0.0135735
867.203	0.0135153
867.281	0.0134231
867.359	0.0135051
867.437	0.0134661
867.515	0.0134319
867.593	0.0135059
867.671	0.0134864
867.749	0.0134239
867.828	0.0134147
867.906	0.0134822
867.984	0.0133059
868.062	0.0134042
868.140	0.0133583
868.218	0.0134678
868.296	0.0133578
868.374	0.0134413
868.453	0.0133969
868.531	0.0134551
868.609	0.0134228
868.687	0.0135275
868.765	0.0134493
868.843	0.0135204
868.921	0.0134068
868.999	0.0134516
869.078	0.0135216
869.156	0.0133548
869.234	0.0133002
869.312	0.0132726
869.390	0.0131689
869.468	0.0130666
869.546	0.0131188
869.624	0.0132160
869.703	0.0132294
869.781	0.0131899
869.859	0.0130716
869.937	0.0130122
870.015	0.0131012
870.093	0.0131503
870.171	0.0131306
870.249	0.0132961
870.328	0.0131812
870.406	0.0130709
870.484	0.0131330
870.562	0.0131548
870.640	0.0132041
870.718	0.0133204
870.796	0.0133006
870.874	0.0133288
870.953	0.0132582
871.031	0.0132461
871.109	0.0132548
871.187	0.0133381
871.265	0.0134836
871.343	0.0133526
871.421	0.0132171
871.499	0.0133025
871.578	0.0135081
871.656	0.0135512
871.734	0.0133337
871.812	0.0134849
871.890	0.0134949
871.968	0.0133028
872.046	0.0134261
872.124	0.0134071
872.203	0.0134505
872.281	0.0134216
872.359	0.0134697
872.437	0.0133945
872.515	0.0133642
872.593	0.0133342
872.671	0.0132372
872.749	0.0133940
872.828	0.0132455
872.906	0.0132935
872.984	0.0133516
873.062	0.0133755
873.140	0.0132556
873.218	0.0132841
873.296	0.0132013
873.374	0.0133402
873.453	0.0134419
873.531	0.0133459
873.609	0.0133640
873.687	0.0133918
873.765	0.0133517
873.843	0.0133102
873.921	0.0134468
873.999	0.0133196
874.078	0.0131916
874.156	0.0134425
874.234	0.0134091
874.312	0.0133793
874.390	0.0132526
874.468	0.0133488
874.546	0.0135018
874.624	0.0134037
874.703	0.0134266
874.781	0.0134128
874.859	0.0134531
874.937	0.0133163
875.015	0.0132095
875.093	0.0134696
875.171	0.0133440
875.249	0.0132916
875.328	0.0133283
875.406	0.0133090
875.484	0.0133221
875.562	0.0132686
875.640	0.0134845
875.718	0.0134402
875.796	0.0134129
875.874	0.0134093
875.953	0.0134250
876.031	0.0134406
876.109	0.0135074
876.187	0.0134105
876.265	0.0134853
876.343	0.0133410
876.421	0.0133965
876.499	0.0134738
876.578	0.0132807
876.656	0.0134303
876.734	0.0133296
876.812	0.0131715
876.890	0.0133648
876.968	0.0133633
877.046	0.0133368
877.124	0.0133397
877.203	0.0133047
877.281	0.0132568
877.359	0.0133725
877.437	0.0134328
877.515	0.0133141
877.593	0.0133318
877.671	0.0133196
877.749	0.0133380
877.828	0.0134011
877.906	0.0135320
877.984	0.0134004
878.062	0.0135928
878.140	0.0135228
878.218	0.0135214
878.296	0.0136848
878.374	0.0136631
878.453	0.0136299
878.531	0.0136014
878.609	0.0137775
878.687	0.0136397
878.765	0.0137243
878.843	0.0136329
878.921	0.0136562
878.999	0.0136093
879.078	0.0137731
879.156	0.0137492
879.234	0.0136395
879.312	0.0137437
879.390	0.0137975
879.468	0.0136993
879.546	0.0136720
879.624	0.0137171
879.703	0.0136937
879.781	0.0136713
879.859	0.0136860
879.937	0.0138776
880.015	0.0137000
880.093	0.0136694
880.171	0.0137209
880.249	0.0135707
880.328	0.0133369
880.406	0.0135679
880.484	0.0135806
880.562	0.0134006
880.640	0.0135120
880.718	0.0133530
880.796	0.0131903
880.874	0.0133379
880.953	0.0133501
881.031	0.0131734
881.109	0.0131461
881.187	0.0130915
881.265	0.0129407
881.343	0.0130130
881.421	0.0131194
881.499	0.0130304
881.578	0.0130140
881.656	0.0131371
881.734	0.0131767
881.812	0.0130845
881.890	0.0132307
881.968	0.0131723
882.046	0.0133231
882.124	0.0133927
882.203	0.0133472
882.281	0.0134060
882.359	0.0133865
882.437	0.0134346
882.515	0.0134792
882.593	0.0133832
882.671	0.0134843
882.749	0.0136113
882.828	0.0136005
882.906	0.0135763
882.984	0.0134767
883.062	0.0134850
883.140	0.0135925
883.218	0.0136929
883.296	0.0135641
883.374	0.0135414
883.453	0.0136802
883.531	0.0136040
883.609	0.0135683
883.687	0.0135564
883.765	0.0134725
883.843	0.0135155
883.921	0.0133703
883.999	0.0133912
884.078	0.0134565
884.156	0.0134678
884.234	0.0131351
884.312	0.0134543
884.390	0.0133134
884.468	0.0131713
884.546	0.0132525
884.624	0.0132286
884.703	0.0131554
884.781	0.0130496
884.859	0.0132091
884.937	0.0131243
885.015	0.0132721
885.093	0.0130673
885.171	0.0129501
885.249	0.0131227
885.328	0.0130357
885.406	0.0132371
885.484	0.0131334
885.562	0.0131680
885.640	0.0131224
885.718	0.0131819
885.796	0.0131219
885.874	0.0132282
885.953	0.0131686
886.031	0.0131448
886.109	0.0131477
886.187	0.0131544
886.265	0.0129868
886.343	0.0131145
886.421	0.0131797
886.499	0.0132452
886.578	0.0132071
886.656	0.0130669
886.734	0.0131796
886.812	0.0132221
886.890	0.0132229
886.968	0.0132422
887.046	0.0132622
887.124	0.0132195
887.203	0.0133649
887.281	0.0132546
887.359	0.0132669
887.437	0.0133364
887.515	0.0132798
887.593	0.0132748
887.671	0.0132377
887.749	0.0133419
887.828	0.0133208
887.906	0.0131654
887.984	0.0132912
888.062	0.0131628
888.140	0.0130779
888.218	0.0131260
888.296	0.0131435
888.374	0.0130733
888.453	0.0131210
888.531	0.0132600
888.609	0.0131252
888.687	0.0129906
888.765	0.0130361
888.843	0.0129712
888.921	0.0131345
888.999	0.0131715
889.078	0.0129729
889.156	0.0132403
889.234	0.0131493
889.312	0.0132014
889.390	0.0131471
889.468	0.0132220
889.546	0.0133076
889.624	0.0132239
889.703	0.0133758
889.781	0.0133654
889.859	0.0132745
889.937	0.0134854
890.015	0.0133561
890.093	0.0133318
890.171	0.0133714
890.249	0.0134747
890.328	0.0134960
890.406	0.0134779
890.484	0.0135415
890.562	0.0135273
890.640	0.0134794
890.718	0.0134633
890.796	0.0136006
890.874	0.0135177
890.953	0.0135056
891.031	0.0134386
891.109	0.0134876
891.187	0.0133987
891.265	0.0132764
891.343	0.0133917
891.421	0.0133253
891.499	0.0134047
891.578	0.0133907
891.656	0.0132276
891.734	0.0133442
891.812	0.0133870
891.890	0.0132638
891.968	0.0131860
892.046	0.0133028
892.124	0.0131715
892.203	0.0132193
892.281	0.0133537
892.359	0.0132454
892.437	0.0132452
892.515	0.0133173
892.593	0.0131940
892.671	0.0132545
892.749	0.0132089
892.828	0.0132373
892.906	0.0133924
892.984	0.0133648
893.062	0.0132981
893.140	0.0133418
893.218	0.0134892
893.296	0.0135171
893.374	0.0133974
893.453	0.0133866
893.531	0.0134513
893.609	0.0132306
893.687	0.0133343
893.765	0.0132372
893.843	0.0131299
893.921	0.0132009
893.999	0.0132790
894.078	0.0133464
894.156	0.0132915
894.234	0.0131816
894.312	0.0132231
894.390	0.0132716
894.468	0.0131116
894.546	0.0132133
894.624	0.0131711
894.703	0.0131903
894.781	0.0131796
894.859	0.0130434
894.937	0.0132683
895.015	0.0131585
895.093	0.0132055
895.171	0.0131800
895.249	0.0132255
895.328	0.0132556
895.406	0.0132067
895.484	0.0133769
895.562	0.0134206
895.640	0.0134135
895.718	0.0133716
895.796	0.0133881
895.874	0.0134843
895.953	0.0134149
896.031	0.0135127
896.109	0.0133990
896.187	0.0134947
896.265	0.0134321
896.343	0.0133053
896.421	0.0135870
896.499	0.0136014
896.578	0.0134321
896.656	0.0133789
896.734	0.0135178
896.812	0.0132858
896.890	0.0133685
896.968	0.0134375
897.046	0.0133428
897.124	0.0135942
897.203	0.0135878
897.281	0.0133377
897.359	0.0133711
897.437	0.0134444
897.515	0.0135137
897.593	0.0133441
897.671	0.0134516
897.749	0.0134969
897.828	0.0135009
897.906	0.0132901
897.984	0.0134303
898.062	0.0135616
898.140	0.0133483
898.218	0.0133215
898.296	0.0133928
898.374	0.0133804
898.453	0.0133492
898.531	0.0132561
898.609	0.0132713
898.687	0.0131329
898.765	0.0132454
898.843	0.0133311
898.921	0.0133188
898.999	0.0133447
899.078	0.0132236
899.156	0.0131554
899.234	0.0131546
899.312	0.0131770
899.390	0.0132272
899.468	0.0132018
899.546	0.0130637
899.624	0.0132671
899.703	0.0130624
899.781	0.0130488
899.859	0.0131522
899.937	0.0129449
900.015	0.0130116
900.093	0.0131166
900.171	0.0130834
900.249	0.0129469
900.328	0.0130335
900.406	0.0130791
900.484	0.0130450
900.562	0.0130295
900.640	0.0131621
900.718	0.0132275
900.796	0.0131008
900.874	0.0131836
900.953	0.0133430
901.031	0.0133007
901.109	0.0134008
901.187	0.0133516
901.265	0.0132658
901.343	0.0133185
901.421	0.0134095
901.499	0.0133966
901.578	0.0134638
901.656	0.0135079
901.734	0.0135648
901.812	0.0135905
901.890	0.0135172
901.968	0.0136571
902.046	0.0135677
902.124	0.0135040
902.203	0.0136081
902.281	0.0136355
902.359	0.0134344
902.437	0.0133824
902.515	0.0136142
902.593	0.0135535
902.671	0.0136475
902.749	0.0136069
902.828	0.0136332
902.906	0.0135754
902.984	0.0136284
903.062	0.0135664
903.140	0.0135722
903.218	0.0135863
903.296	0.0135584
903.374	0.0135013
903.453	0.0134687
903.531	0.0135708
903.609	0.0134537
903.687	0.0133749
903.765	0.0134337
903.843	0.0133466
903.921	0.0133440
903.999	0.0133032
904.078	0.0134046
904.156	0.0132861
904.234	0.0132241
904.312	0.0132891
904.390	0.0132587
904.468	0.0133231
904.546	0.0132547
904.624	0.0131899
904.703	0.0132844
904.781	0.0134212
904.859	0.0133002
904.937	0.0132019
905.015	0.0132259
905.093	0.0132169
905.171	0.0132628
905.249	0.0133306
905.328	0.0131216
905.406	0.0132604
905.484	0.0132450
905.562	0.0134321
905.640	0.0134235
905.718	0.0131599
905.796	0.0132374
905.874	0.0132539
905.953	0.0133748
906.031	0.0131224
906.109	0.0131333
906.187	0.0131813
906.265	0.0132069
906.343	0.0131284
906.421	0.0130961
906.499	0.0130824
906.578	0.0131607
906.656	0.0132161
906.734	0.0132732
906.812	0.0130637
906.890	0.0130689
906.968	0.0130917
907.046	0.0132142
907.124	0.0131900
907.203	0.0131760
907.281	0.0129661
907.359	0.0131823
907.437	0.0132419
907.515	0.0131620
907.593	0.0131796
907.671	0.0132571
907.749	0.0132217
907.828	0.0132659
907.906	0.0132116
907.984	0.0132967
908.062	0.0131915
908.140	0.0133606
908.218	0.0133061
908.296	0.0134014
908.374	0.0134344
908.453	0.0134545
908.531	0.0133779
908.609	0.0133781
908.687	0.0135340
908.765	0.0134644
908.843	0.0135300
908.921	0.0135544
908.999	0.0133802
909.078	0.0133939
909.156	0.0132993
909.234	0.0134377
909.312	0.0132993
909.390	0.0133578
909.468	0.0132378
909.546	0.0132037
909.624	0.0132700
909.703	0.0132346
909.781	0.0133060
909.859	0.0131912
909.937	0.0132328
910.015	0.0132223
910.093	0.0132697
910.171	0.0131744
910.249	0.0132490
910.328	0.0131479
910.406	0.0132714
910.484	0.0133268
910.562	0.0132056
910.640	0.0132809
910.718	0.0133306
910.796	0.0132898
910.874	0.0132241
910.953	0.0132378
911.031	0.0133845
911.109	0.0134441
911.187	0.0133173
911.265	0.0134317
911.343	0.0133157
911.421	0.0133549
911.499	0.0134077
911.578	0.0133539
911.656	0.0133570
911.734	0.0133330
911.812	0.0134438
911.890	0.0135410
911.968	0.0134303
912.046	0.0134084
912.124	0.0135547
912.203	0.0134238
912.281	0.0134897
912.359	0.0134606
912.437	0.0134087
912.515	0.0134031
912.593	0.0135323
912.671	0.0135267
912.749	0.0135248
912.828	0.0135730
912.906	0.0134827
912.984	0.0135700
913.062	0.0133818
913.140	0.0136230
913.218	0.0135063
913.296	0.0135726
913.374	0.0134345
913.453	0.0134401
913.531	0.0135029
913.609	0.0134757
913.687	0.0135846
913.765	0.0135296
913.843	0.0135713
913.921	0.0135291
913.999	0.0135226
914.078	0.0133775
914.156	0.0134238
914.234	0.0135829
914.312	0.0133615
914.390	0.0133111
914.468	0.0133238
914.546	0.0134487
914.624	0.0134647
914.703	0.0133433
914.781	0.0134151
914.859	0.0132928
914.937	0.0133642
915.015	0.0134071
915.093	0.0132568
915.171	0.0133914
915.249	0.0133054
915.328	0.0133388
915.406	0.0134609
915.484	0.0134000
915.562	0.0133530
915.640	0.0133354
915.718	0.0132826
915.796	0.0135056
915.874	0.0135471
915.953	0.0133791
916.031	0.0134052
916.109	0.0132870
916.187	0.0134555
916.265	0.0134279
916.343	0.0132446
916.421	0.0134250
916.499	0.0134587
916.578	0.0135076
916.656	0.0132706
916.734	0.0132828
916.812	0.0134933
916.890	0.0135337
916.968	0.0135184
917.046	0.0135272
917.124	0.0134909
917.203	0.0135789
917.281	0.0134283
917.359	0.0135501
917.437	0.0136124
917.515	0.0135844
917.593	0.0135635
917.671	0.0134321
917.749	0.0134951
917.828	0.0134151
917.906	0.0136279
917.984	0.0135731
918.062	0.0133482
918.140	0.0134751
918.218	0.0134106
918.296	0.0133745
918.374	0.0134370
918.453	0.0133924
918.531	0.0134267
918.609	0.0132471
918.687	0.0132951
918.765	0.0133566
918.843	0.0133006
918.921	0.0133547
918.999	0.0134912
919.078	0.0133852
919.156	0.0132793
919.234	0.0134420
919.312	0.0133841
919.390	0.0132516
919.468	0.0132832
919.546	0.0133878
919.624	0.0134026
919.703	0.0133207
919.781	0.0133900
919.859	0.0134125
919.937	0.0132368
