05/08/2022	20:13:06	Ver.	4.1	UNKNOWN
Optical Delay	600.015094	Delta X		0.078125	Sweeps	1	Scan Rate	0/0
Coordinates	Axis 1	NaN	Axis 2	NaN	Axis 3	NaN	Axis 4	NaN	Axis 5	NaN	Axis 6	0.000000
TX Power	0.000000	RX Power	0.000000

600.015	0.0132419
600.093	0.0135482
600.171	0.0134958
600.249	0.0134174
600.328	0.0134291
600.406	0.0134065
600.484	0.0133448
600.562	0.0135221
600.640	0.0134868
600.718	0.0135616
600.796	0.0133594
600.874	0.0135865
600.953	0.0136124
601.031	0.0134451
601.109	0.0135202
601.187	0.0136140
601.265	0.0135086
601.343	0.0134384
601.421	0.0134205
601.499	0.0133849
601.578	0.0134270
601.656	0.0134025
601.734	0.0133907
601.812	0.0133572
601.890	0.0133388
601.968	0.0134612
602.046	0.0135120
602.124	0.0135281
602.203	0.0134822
602.281	0.0134536
602.359	0.0134048
602.437	0.0134621
602.515	0.0134156
602.593	0.0133425
602.671	0.0135206
602.749	0.0134370
602.828	0.0134132
602.906	0.0133540
602.984	0.0133470
603.062	0.0133838
603.140	0.0131952
603.218	0.0133776
603.296	0.0133067
603.374	0.0134798
603.453	0.0134595
603.531	0.0133269
603.609	0.0134159
603.687	0.0133373
603.765	0.0132784
603.843	0.0132700
603.921	0.0133635
603.999	0.0134377
604.078	0.0133071
604.156	0.0132552
604.234	0.0134326
604.312	0.0133577
604.390	0.0133033
604.468	0.0132869
604.546	0.0134319
604.624	0.0133220
604.703	0.0133459
604.781	0.0133910
604.859	0.0132681
604.937	0.0133295
605.015	0.0132693
605.093	0.0132096
605.171	0.0133044
605.249	0.0133048
605.328	0.0134213
605.406	0.0134385
605.484	0.0133833
605.562	0.0133582
605.640	0.0133694
605.718	0.0131904
605.796	0.0133308
605.874	0.0133397
605.953	0.0133524
606.031	0.0133761
606.109	0.0134365
606.187	0.0133399
606.265	0.0132159
606.343	0.0133112
606.421	0.0133735
606.499	0.0133979
606.578	0.0133654
606.656	0.0134158
606.734	0.0134766
606.812	0.0134743
606.890	0.0136414
606.968	0.0135529
607.046	0.0135538
607.124	0.0134699
607.203	0.0135982
607.281	0.0136304
607.359	0.0134541
607.437	0.0135825
607.515	0.0134691
607.593	0.0134271
607.671	0.0136078
607.749	0.0135857
607.828	0.0135879
607.906	0.0135117
607.984	0.0134959
608.062	0.0135384
608.140	0.0135708
608.218	0.0136445
608.296	0.0136836
608.374	0.0136033
608.453	0.0135606
608.531	0.0137400
608.609	0.0137114
608.687	0.0137162
608.765	0.0135679
608.843	0.0137156
608.921	0.0136248
608.999	0.0136385
609.078	0.0136487
609.156	0.0134908
609.234	0.0134693
609.312	0.0134708
609.390	0.0135961
609.468	0.0134848
609.546	0.0134151
609.624	0.0135084
609.703	0.0135317
609.781	0.0135176
609.859	0.0134956
609.937	0.0134412
610.015	0.0134992
610.093	0.0135865
610.171	0.0133873
610.249	0.0134090
610.328	0.0134532
610.406	0.0134948
610.484	0.0134808
610.562	0.0136127
610.640	0.0133761
610.718	0.0134072
610.796	0.0134875
610.874	0.0134737
610.953	0.0134322
611.031	0.0134434
611.109	0.0134321
611.187	0.0134538
611.265	0.0133243
611.343	0.0133941
611.421	0.0133714
611.499	0.0132793
611.578	0.0134410
611.656	0.0132785
611.734	0.0133069
611.812	0.0133585
611.890	0.0133329
611.968	0.0132928
612.046	0.0132452
612.124	0.0134013
612.203	0.0133767
612.281	0.0132989
612.359	0.0133414
612.437	0.0133430
612.515	0.0132576
612.593	0.0132230
612.671	0.0132481
612.749	0.0131792
612.828	0.0133524
612.906	0.0132594
612.984	0.0133017
613.062	0.0132913
613.140	0.0131017
613.218	0.0132027
613.296	0.0131514
613.374	0.0130407
613.453	0.0131828
613.531	0.0132150
613.609	0.0131205
613.687	0.0131479
613.765	0.0131749
613.843	0.0130391
613.921	0.0130692
613.999	0.0130580
614.078	0.0132077
614.156	0.0130979
614.234	0.0130576
614.312	0.0131379
614.390	0.0131287
614.468	0.0131836
614.546	0.0130928
614.624	0.0130939
614.703	0.0130729
614.781	0.0130519
614.859	0.0129715
614.937	0.0130080
615.015	0.0131623
615.093	0.0130374
615.171	0.0127887
615.249	0.0130363
615.328	0.0131780
615.406	0.0131004
615.484	0.0130106
615.562	0.0130645
615.640	0.0130513
615.718	0.0131142
615.796	0.0130080
615.874	0.0129238
615.953	0.0131001
616.031	0.0132071
616.109	0.0131041
616.187	0.0129991
616.265	0.0130149
616.343	0.0131054
616.421	0.0130859
616.499	0.0129701
616.578	0.0129617
616.656	0.0130778
616.734	0.0129332
616.812	0.0130669
616.890	0.0130154
616.968	0.0130869
617.046	0.0130566
617.124	0.0130730
617.203	0.0131193
617.281	0.0131401
617.359	0.0130709
617.437	0.0130971
617.515	0.0130830
617.593	0.0132058
617.671	0.0131863
617.749	0.0131210
617.828	0.0132413
617.906	0.0130994
617.984	0.0131365
618.062	0.0130814
618.140	0.0130402
618.218	0.0131819
618.296	0.0131411
618.374	0.0132005
618.453	0.0130537
618.531	0.0131910
618.609	0.0131083
618.687	0.0129703
618.765	0.0131190
618.843	0.0131561
618.921	0.0131379
618.999	0.0131837
619.078	0.0131964
619.156	0.0132127
619.234	0.0132430
619.312	0.0131374
619.390	0.0132307
619.468	0.0130912
619.546	0.0131858
619.624	0.0131991
619.703	0.0130482
619.781	0.0131542
619.859	0.0131545
619.937	0.0130686
620.015	0.0131718
620.093	0.0130853
620.171	0.0130387
620.249	0.0131257
620.328	0.0131493
620.406	0.0132193
620.484	0.0132629
620.562	0.0131014
620.640	0.0132267
620.718	0.0133483
620.796	0.0131715
620.874	0.0131851
620.953	0.0131787
621.031	0.0131517
621.109	0.0133394
621.187	0.0133004
621.265	0.0131805
621.343	0.0130994
621.421	0.0132395
621.499	0.0131390
621.578	0.0134333
621.656	0.0133829
621.734	0.0133139
621.812	0.0132993
621.890	0.0132661
621.968	0.0131948
622.046	0.0133483
622.124	0.0132752
622.203	0.0132738
622.281	0.0133501
622.359	0.0132607
622.437	0.0133167
622.515	0.0132172
622.593	0.0134497
622.671	0.0133089
622.749	0.0132544
622.828	0.0133787
622.906	0.0133457
622.984	0.0133228
623.062	0.0132821
623.140	0.0133475
623.218	0.0132949
623.296	0.0131958
623.374	0.0133135
623.453	0.0132452
623.531	0.0133486
623.609	0.0132005
623.687	0.0131903
623.765	0.0133377
623.843	0.0134003
623.921	0.0132883
623.999	0.0133450
624.078	0.0134218
624.156	0.0132182
624.234	0.0133296
624.312	0.0134525
624.390	0.0133512
624.468	0.0134396
624.546	0.0133307
624.624	0.0133678
624.703	0.0133234
624.781	0.0132710
624.859	0.0131806
624.937	0.0134577
625.015	0.0133955
625.093	0.0133180
625.171	0.0133298
625.249	0.0132913
625.328	0.0133157
625.406	0.0131531
625.484	0.0132689
625.562	0.0131591
625.640	0.0132871
625.718	0.0133436
625.796	0.0131195
625.874	0.0133556
625.953	0.0133091
626.031	0.0131647
626.109	0.0130927
626.187	0.0132381
626.265	0.0132531
626.343	0.0132835
626.421	0.0131989
626.499	0.0133562
626.578	0.0132158
626.656	0.0132703
626.734	0.0131865
626.812	0.0131387
626.890	0.0133113
626.968	0.0132419
627.046	0.0131911
627.124	0.0131399
627.203	0.0131040
627.281	0.0132153
627.359	0.0129195
627.437	0.0131150
627.515	0.0131194
627.593	0.0129901
627.671	0.0131092
627.749	0.0130977
627.828	0.0132238
627.906	0.0131425
627.984	0.0130665
628.062	0.0131963
628.140	0.0131093
628.218	0.0132014
628.296	0.0131326
628.374	0.0130042
628.453	0.0130885
628.531	0.0131779
628.609	0.0132084
628.687	0.0132486
628.765	0.0132364
628.843	0.0131440
628.921	0.0131618
628.999	0.0132677
629.078	0.0133047
629.156	0.0133518
629.234	0.0133131
629.312	0.0131987
629.390	0.0134060
629.468	0.0132967
629.546	0.0132462
629.624	0.0132957
629.703	0.0133435
629.781	0.0132505
629.859	0.0132469
629.937	0.0133289
630.015	0.0133735
630.093	0.0134370
630.171	0.0133704
630.249	0.0132139
630.328	0.0133375
630.406	0.0133878
630.484	0.0133755
630.562	0.0133882
630.640	0.0133123
630.718	0.0134438
630.796	0.0133804
630.874	0.0132910
630.953	0.0133826
631.031	0.0133701
631.109	0.0134026
631.187	0.0132552
631.265	0.0133268
631.343	0.0133311
631.421	0.0134571
631.499	0.0132662
631.578	0.0134185
631.656	0.0132368
631.734	0.0133994
631.812	0.0134617
631.890	0.0133023
631.968	0.0134402
632.046	0.0133239
632.124	0.0133537
632.203	0.0133351
632.281	0.0132938
632.359	0.0133408
632.437	0.0133315
632.515	0.0133675
632.593	0.0133176
632.671	0.0132597
632.749	0.0133616
632.828	0.0133282
632.906	0.0132999
632.984	0.0132968
633.062	0.0132986
633.140	0.0133201
633.218	0.0132166
633.296	0.0132254
633.374	0.0132474
633.453	0.0132027
633.531	0.0132655
633.609	0.0132348
633.687	0.0133770
633.765	0.0133512
633.843	0.0133110
633.921	0.0132751
633.999	0.0132426
634.078	0.0133318
634.156	0.0132396
634.234	0.0131915
634.312	0.0131878
634.390	0.0133141
634.468	0.0133086
634.546	0.0133183
634.624	0.0132555
634.703	0.0133736
634.781	0.0131712
634.859	0.0132638
634.937	0.0132296
635.015	0.0131816
635.093	0.0132046
635.171	0.0133273
635.249	0.0131750
635.328	0.0132232
635.406	0.0132074
635.484	0.0134084
635.562	0.0132732
635.640	0.0133073
635.718	0.0132621
635.796	0.0131721
635.874	0.0131848
635.953	0.0132579
636.031	0.0132967
636.109	0.0131979
636.187	0.0131591
636.265	0.0132896
636.343	0.0131614
636.421	0.0132598
636.499	0.0132560
636.578	0.0132501
636.656	0.0132265
636.734	0.0132146
636.812	0.0132272
636.890	0.0131271
636.968	0.0132172
637.046	0.0132746
637.124	0.0132746
637.203	0.0131915
637.281	0.0131985
637.359	0.0131369
637.437	0.0131223
637.515	0.0131578
637.593	0.0131484
637.671	0.0131554
637.749	0.0132215
637.828	0.0130928
637.906	0.0130969
637.984	0.0132269
638.062	0.0132396
638.140	0.0131602
638.218	0.0131563
638.296	0.0132209
638.374	0.0131654
638.453	0.0130418
638.531	0.0131487
638.609	0.0131861
638.687	0.0131658
638.765	0.0131184
638.843	0.0132291
638.921	0.0131921
638.999	0.0132561
639.078	0.0132619
639.156	0.0131695
639.234	0.0131004
639.312	0.0132751
639.390	0.0131079
639.468	0.0132193
639.546	0.0132331
639.624	0.0131202
639.703	0.0132199
639.781	0.0131094
639.859	0.0131692
639.937	0.0132391
640.015	0.0131635
640.093	0.0131820
640.171	0.0132059
640.249	0.0132188
640.328	0.0132098
640.406	0.0133292
640.484	0.0132856
640.562	0.0132863
640.640	0.0132877
640.718	0.0131844
640.796	0.0132598
640.874	0.0132755
640.953	0.0133712
641.031	0.0132642
641.109	0.0131042
641.187	0.0131563
641.265	0.0132288
641.343	0.0130257
641.421	0.0130409
641.499	0.0130836
641.578	0.0130486
641.656	0.0130476
641.734	0.0131353
641.812	0.0131316
641.890	0.0130702
641.968	0.0131290
642.046	0.0130942
642.124	0.0131068
642.203	0.0131458
642.281	0.0131342
642.359	0.0130375
642.437	0.0132142
642.515	0.0133229
642.593	0.0133363
642.671	0.0132227
642.749	0.0132742
642.828	0.0133420
642.906	0.0134231
642.984	0.0132828
643.062	0.0132234
643.140	0.0134849
643.218	0.0133099
643.296	0.0133459
643.374	0.0131944
643.453	0.0133543
643.531	0.0133058
643.609	0.0132899
643.687	0.0132318
643.765	0.0132233
643.843	0.0131921
643.921	0.0132265
643.999	0.0131324
644.078	0.0130228
644.156	0.0129832
644.234	0.0130936
644.312	0.0127811
644.390	0.0129207
644.468	0.0129766
644.546	0.0129335
644.624	0.0129463
644.703	0.0130820
644.781	0.0131250
644.859	0.0130820
644.937	0.0130042
645.015	0.0130688
645.093	0.0132901
645.171	0.0132155
645.249	0.0132789
645.328	0.0133408
645.406	0.0133202
645.484	0.0133435
645.562	0.0134224
645.640	0.0134634
645.718	0.0134201
645.796	0.0134302
645.874	0.0133622
645.953	0.0134466
646.031	0.0134155
646.109	0.0132407
646.187	0.0132382
646.265	0.0131835
646.343	0.0130467
646.421	0.0129281
646.499	0.0128603
646.578	0.0127362
646.656	0.0128551
646.734	0.0127798
646.812	0.0126440
646.890	0.0126700
646.968	0.0125954
647.046	0.0127449
647.124	0.0127668
647.203	0.0128292
647.281	0.0128711
647.359	0.0128934
647.437	0.0131266
647.515	0.0132854
647.593	0.0132230
647.671	0.0132853
647.749	0.0133490
647.828	0.0134898
647.906	0.0134772
647.984	0.0133880
648.062	0.0134635
648.140	0.0135616
648.218	0.0135305
648.296	0.0135915
648.374	0.0137485
648.453	0.0136243
648.531	0.0134631
648.609	0.0136467
648.687	0.0136391
648.765	0.0135792
648.843	0.0136378
648.921	0.0136737
648.999	0.0135088
649.078	0.0132120
649.156	0.0129756
649.234	0.0129885
649.312	0.0130858
649.390	0.0127769
649.468	0.0128487
649.546	0.0126120
649.624	0.0126881
649.703	0.0125695
649.781	0.0126863
649.859	0.0126538
649.937	0.0127901
650.015	0.0128397
650.093	0.0129563
650.171	0.0132066
650.249	0.0131596
650.328	0.0133245
650.406	0.0133498
650.484	0.0136057
650.562	0.0137474
650.640	0.0138764
650.718	0.0139967
650.796	0.0143714
650.874	0.0145322
650.953	0.0145925
651.031	0.0146186
651.109	0.0148329
651.187	0.0148851
651.265	0.0148232
651.343	0.0146468
651.421	0.0145711
651.499	0.0145526
651.578	0.0144069
651.656	0.0140929
651.734	0.0139150
651.812	0.0134586
651.890	0.0130521
651.968	0.0128900
652.046	0.0124992
652.124	0.0123931
652.203	0.0121870
652.281	0.0119273
652.359	0.0118159
652.437	0.0118553
652.515	0.0118138
652.593	0.0118817
652.671	0.0119116
652.749	0.0118697
652.828	0.0118550
652.906	0.0121212
652.984	0.0121997
653.062	0.0125209
653.140	0.0125281
653.218	0.0127816
653.296	0.0131406
653.374	0.0133000
653.453	0.0134763
653.531	0.0137557
653.609	0.0140489
653.687	0.0142139
653.765	0.0145617
653.843	0.0147385
653.921	0.0149059
653.999	0.0149289
654.078	0.0150057
654.156	0.0150755
654.234	0.0150153
654.312	0.0149413
654.390	0.0147985
654.468	0.0147842
654.546	0.0146054
654.624	0.0142443
654.703	0.0141142
654.781	0.0138495
654.859	0.0134913
654.937	0.0132815
655.015	0.0130922
655.093	0.0130237
655.171	0.0126516
655.249	0.0125979
655.328	0.0124435
655.406	0.0123315
655.484	0.0124068
655.562	0.0122995
655.640	0.0124238
655.718	0.0122509
655.796	0.0122742
655.874	0.0122358
655.953	0.0123076
656.031	0.0122808
656.109	0.0123618
656.187	0.0124274
656.265	0.0124817
656.343	0.0124298
656.421	0.0124548
656.499	0.0124779
656.578	0.0123831
656.656	0.0123481
656.734	0.0125024
656.812	0.0125014
656.890	0.0125848
656.968	0.0126133
657.046	0.0124700
657.124	0.0128168
657.203	0.0128053
657.281	0.0130740
657.359	0.0131171
657.437	0.0132656
657.515	0.0135025
657.593	0.0135722
657.671	0.0137906
657.749	0.0137704
657.828	0.0138759
657.906	0.0139885
657.984	0.0139143
658.062	0.0140074
658.140	0.0141695
658.218	0.0142329
658.296	0.0140810
658.374	0.0142722
658.453	0.0142715
658.531	0.0143861
658.609	0.0143423
658.687	0.0143850
658.765	0.0142262
658.843	0.0142784
658.921	0.0142076
658.999	0.0141047
659.078	0.0141041
659.156	0.0139436
659.234	0.0137457
659.312	0.0136312
659.390	0.0134933
659.468	0.0135342
659.546	0.0135607
659.624	0.0134334
659.703	0.0133981
659.781	0.0133366
659.859	0.0134370
659.937	0.0132808
660.015	0.0130302
660.093	0.0130276
660.171	0.0130950
660.249	0.0127200
660.328	0.0125343
660.406	0.0124503
660.484	0.0122766
660.562	0.0121165
660.640	0.0120009
660.718	0.0117506
660.796	0.0116524
660.874	0.0115065
660.953	0.0114347
661.031	0.0113459
661.109	0.0112380
661.187	0.0113608
661.265	0.0113915
661.343	0.0115253
661.421	0.0116128
661.499	0.0117641
661.578	0.0120269
661.656	0.0121172
661.734	0.0124563
661.812	0.0128779
661.890	0.0132893
661.968	0.0136140
662.046	0.0139119
662.124	0.0143211
662.203	0.0149423
662.281	0.0152798
662.359	0.0155370
662.437	0.0157794
662.515	0.0160596
662.593	0.0162149
662.671	0.0162808
662.749	0.0163599
662.828	0.0162721
662.906	0.0161658
662.984	0.0161001
663.062	0.0157495
663.140	0.0154736
663.218	0.0152646
663.296	0.0149223
663.374	0.0145792
663.453	0.0143338
663.531	0.0141329
663.609	0.0137009
663.687	0.0133799
663.765	0.0131287
663.843	0.0127550
663.921	0.0125890
663.999	0.0122630
664.078	0.0120006
664.156	0.0118182
664.234	0.0116631
664.312	0.0114549
664.390	0.0114551
664.468	0.0113531
664.546	0.0111893
664.624	0.0112379
664.703	0.0112933
664.781	0.0113818
664.859	0.0116640
664.937	0.0116271
665.015	0.0116418
665.093	0.0119287
665.171	0.0122200
665.249	0.0122387
665.328	0.0122961
665.406	0.0124395
665.484	0.0126231
665.562	0.0127979
665.640	0.0129340
665.718	0.0129196
665.796	0.0129070
665.874	0.0129413
665.953	0.0130157
666.031	0.0129943
666.109	0.0129497
666.187	0.0129441
666.265	0.0127478
666.343	0.0130370
666.421	0.0131637
666.499	0.0132984
666.578	0.0132912
666.656	0.0132906
666.734	0.0135001
666.812	0.0135228
666.890	0.0137093
666.968	0.0138336
667.046	0.0140308
667.124	0.0141989
667.203	0.0142662
667.281	0.0144706
667.359	0.0146494
667.437	0.0148627
667.515	0.0148457
667.593	0.0148925
667.671	0.0148841
667.749	0.0150109
667.828	0.0150811
667.906	0.0151218
667.984	0.0150150
668.062	0.0148508
668.140	0.0150882
668.218	0.0149586
668.296	0.0149351
668.374	0.0147459
668.453	0.0146027
668.531	0.0147012
668.609	0.0145311
668.687	0.0142448
668.765	0.0142545
668.843	0.0139436
668.921	0.0138846
668.999	0.0137087
669.078	0.0135282
669.156	0.0132546
669.234	0.0130264
669.312	0.0128369
669.390	0.0125457
669.468	0.0122035
669.546	0.0120589
669.624	0.0117078
669.703	0.0113135
669.781	0.0110343
669.859	0.0108374
669.937	0.0106409
670.015	0.0106772
670.093	0.0103645
670.171	0.0104012
670.249	0.0103391
670.328	0.0103357
670.406	0.0105106
670.484	0.0107086
670.562	0.0109358
670.640	0.0113686
670.718	0.0114791
670.796	0.0117623
670.874	0.0120591
670.953	0.0121935
671.031	0.0126302
671.109	0.0130349
671.187	0.0132349
671.265	0.0135442
671.343	0.0137029
671.421	0.0139664
671.499	0.0143977
671.578	0.0146004
671.656	0.0148977
671.734	0.0151711
671.812	0.0152959
671.890	0.0156700
671.968	0.0157304
672.046	0.0160838
672.124	0.0163476
672.203	0.0162791
672.281	0.0164329
672.359	0.0165571
672.437	0.0166315
672.515	0.0167014
672.593	0.0166089
672.671	0.0165176
672.749	0.0164177
672.828	0.0162746
672.906	0.0161366
672.984	0.0159785
673.062	0.0157492
673.140	0.0153890
673.218	0.0153085
673.296	0.0150221
673.374	0.0146147
673.453	0.0143113
673.531	0.0139299
673.609	0.0136406
673.687	0.0131628
673.765	0.0127187
673.843	0.0122842
673.921	0.0120591
673.999	0.0116973
674.078	0.0113955
674.156	0.0111369
674.234	0.0110588
674.312	0.0108244
674.390	0.0106181
674.468	0.0105869
674.546	0.0104278
674.624	0.0104205
674.703	0.0103044
674.781	0.0103832
674.859	0.0105001
674.937	0.0105980
675.015	0.0107696
675.093	0.0108832
675.171	0.0110069
675.249	0.0111213
675.328	0.0113316
675.406	0.0115920
675.484	0.0118878
675.562	0.0122197
675.640	0.0123975
675.718	0.0126086
675.796	0.0128101
675.874	0.0132001
675.953	0.0135654
676.031	0.0138286
676.109	0.0141361
676.187	0.0144628
676.265	0.0146930
676.343	0.0149044
676.421	0.0152046
676.499	0.0153478
676.578	0.0155934
676.656	0.0157624
676.734	0.0159395
676.812	0.0157968
676.890	0.0159132
676.968	0.0160021
677.046	0.0158569
677.124	0.0156378
677.203	0.0153908
677.281	0.0152370
677.359	0.0149075
677.437	0.0146057
677.515	0.0144333
677.593	0.0142358
677.671	0.0139359
677.749	0.0138364
677.828	0.0137650
677.906	0.0134163
677.984	0.0134249
678.062	0.0131246
678.140	0.0132164
678.218	0.0130373
678.296	0.0129523
678.374	0.0128912
678.453	0.0126340
678.531	0.0125754
678.609	0.0124727
678.687	0.0123522
678.765	0.0121774
678.843	0.0120448
678.921	0.0119051
678.999	0.0118950
679.078	0.0117556
679.156	0.0118828
679.234	0.0118745
679.312	0.0119962
679.390	0.0121574
679.468	0.0123357
679.546	0.0124864
679.624	0.0126536
679.703	0.0129844
679.781	0.0131332
679.859	0.0134042
679.937	0.0135988
680.015	0.0137255
680.093	0.0139144
680.171	0.0141302
680.249	0.0139710
680.328	0.0141002
680.406	0.0141584
680.484	0.0140469
680.562	0.0138312
680.640	0.0137550
680.718	0.0135401
680.796	0.0131056
680.874	0.0131101
680.953	0.0129025
681.031	0.0125865
681.109	0.0124012
681.187	0.0124084
681.265	0.0124557
681.343	0.0122832
681.421	0.0124502
681.499	0.0124991
681.578	0.0125762
681.656	0.0126653
681.734	0.0129255
681.812	0.0131226
681.890	0.0132861
681.968	0.0134912
682.046	0.0137531
682.124	0.0138424
682.203	0.0138196
682.281	0.0139675
682.359	0.0140825
682.437	0.0141582
682.515	0.0142068
682.593	0.0140960
682.671	0.0141168
682.749	0.0140893
682.828	0.0140923
682.906	0.0141524
682.984	0.0141734
683.062	0.0142126
683.140	0.0143283
683.218	0.0143596
683.296	0.0142744
683.374	0.0144419
683.453	0.0145756
683.531	0.0145049
683.609	0.0146292
683.687	0.0144826
683.765	0.0145473
683.843	0.0144972
683.921	0.0143192
683.999	0.0141011
684.078	0.0139986
684.156	0.0136976
684.234	0.0135802
684.312	0.0134279
684.390	0.0132418
684.468	0.0131123
684.546	0.0128521
684.624	0.0126218
684.703	0.0126917
684.781	0.0124489
684.859	0.0124323
684.937	0.0124483
685.015	0.0123946
685.093	0.0124319
685.171	0.0123585
685.249	0.0122121
685.328	0.0124366
685.406	0.0124079
685.484	0.0124568
685.562	0.0122932
685.640	0.0122591
685.718	0.0122094
685.796	0.0124503
685.874	0.0123651
685.953	0.0124475
686.031	0.0123600
686.109	0.0124405
686.187	0.0124953
686.265	0.0124577
686.343	0.0125579
686.421	0.0126762
686.499	0.0125013
686.578	0.0126557
686.656	0.0127568
686.734	0.0127740
686.812	0.0129002
686.890	0.0130650
686.968	0.0131126
687.046	0.0132051
687.124	0.0135442
687.203	0.0136697
687.281	0.0137687
687.359	0.0138236
687.437	0.0141205
687.515	0.0142788
687.593	0.0144379
687.671	0.0145332
687.749	0.0145832
687.828	0.0145707
687.906	0.0147472
687.984	0.0146325
688.062	0.0145341
688.140	0.0143387
688.218	0.0142693
688.296	0.0141521
688.374	0.0139414
688.453	0.0138454
688.531	0.0135873
688.609	0.0134480
688.687	0.0133480
688.765	0.0131628
688.843	0.0130531
688.921	0.0129062
688.999	0.0128960
689.078	0.0127448
689.156	0.0126429
689.234	0.0126888
689.312	0.0126963
689.390	0.0125950
689.468	0.0127034
689.546	0.0126745
689.624	0.0127668
689.703	0.0127235
689.781	0.0126868
689.859	0.0126134
689.937	0.0128597
690.015	0.0129917
690.093	0.0129068
690.171	0.0131003
690.249	0.0132308
690.328	0.0134028
690.406	0.0135505
690.484	0.0136346
690.562	0.0136848
690.640	0.0137728
690.718	0.0139436
690.796	0.0140781
690.874	0.0140943
690.953	0.0142614
691.031	0.0142825
691.109	0.0144831
691.187	0.0147186
691.265	0.0143176
691.343	0.0143377
691.421	0.0143330
691.499	0.0144675
691.578	0.0142760
691.656	0.0140626
691.734	0.0139528
691.812	0.0139364
691.890	0.0134660
691.968	0.0132567
692.046	0.0131898
692.124	0.0127453
692.203	0.0125137
692.281	0.0122616
692.359	0.0120294
692.437	0.0118977
692.515	0.0116718
692.593	0.0115200
692.671	0.0113683
692.749	0.0114896
692.828	0.0113171
692.906	0.0113045
692.984	0.0113776
693.062	0.0114489
693.140	0.0115640
693.218	0.0117085
693.296	0.0120012
693.374	0.0121492
693.453	0.0124001
693.531	0.0125764
693.609	0.0128488
693.687	0.0131245
693.765	0.0132997
693.843	0.0135617
693.921	0.0139069
693.999	0.0140151
694.078	0.0142836
694.156	0.0143716
694.234	0.0145589
694.312	0.0147008
694.390	0.0148580
694.468	0.0148943
694.546	0.0150446
694.624	0.0151827
694.703	0.0151383
694.781	0.0152650
694.859	0.0154745
694.937	0.0154129
695.015	0.0152634
695.093	0.0152002
695.171	0.0152250
695.249	0.0152277
695.328	0.0153157
695.406	0.0150642
695.484	0.0148933
695.562	0.0146902
695.640	0.0146628
695.718	0.0142614
695.796	0.0138697
695.874	0.0137886
695.953	0.0135091
696.031	0.0131629
696.109	0.0130151
696.187	0.0127832
696.265	0.0125820
696.343	0.0124482
696.421	0.0120510
696.499	0.0118978
696.578	0.0118708
696.656	0.0116290
696.734	0.0117383
696.812	0.0119528
696.890	0.0117165
696.968	0.0118163
697.046	0.0119957
697.124	0.0120117
697.203	0.0120865
697.281	0.0122101
697.359	0.0124759
697.437	0.0125658
697.515	0.0124614
697.593	0.0126447
697.671	0.0126682
697.749	0.0123674
697.828	0.0126427
697.906	0.0125886
697.984	0.0126739
698.062	0.0126691
698.140	0.0126488
698.218	0.0127587
698.296	0.0128065
698.374	0.0128551
698.453	0.0128093
698.531	0.0128894
698.609	0.0130330
698.687	0.0130185
698.765	0.0131505
698.843	0.0132178
698.921	0.0132018
698.999	0.0133488
699.078	0.0134446
699.156	0.0135633
699.234	0.0134225
699.312	0.0135313
699.390	0.0135455
699.468	0.0134913
699.546	0.0136179
699.624	0.0135709
699.703	0.0136211
699.781	0.0136043
699.859	0.0134644
699.937	0.0136643
700.015	0.0137204
700.093	0.0138179
700.171	0.0139523
700.249	0.0139262
700.328	0.0141312
700.406	0.0140654
700.484	0.0141688
700.562	0.0143559
700.640	0.0143934
700.718	0.0142942
700.796	0.0143391
700.874	0.0143662
700.953	0.0144185
701.031	0.0143130
701.109	0.0143180
701.187	0.0141277
701.265	0.0139939
701.343	0.0139852
701.421	0.0138206
701.499	0.0137635
701.578	0.0135581
701.656	0.0133788
701.734	0.0133327
701.812	0.0132253
701.890	0.0131745
701.968	0.0130273
702.046	0.0128547
702.124	0.0129227
702.203	0.0128236
702.281	0.0127573
702.359	0.0127988
702.437	0.0128722
702.515	0.0127833
702.593	0.0126584
702.671	0.0127029
702.749	0.0126183
702.828	0.0125105
702.906	0.0125670
702.984	0.0125497
703.062	0.0123612
703.140	0.0126334
703.218	0.0125217
703.296	0.0123361
703.374	0.0123105
703.453	0.0125215
703.531	0.0125234
703.609	0.0126064
703.687	0.0125954
703.765	0.0125263
703.843	0.0124300
703.921	0.0123983
703.999	0.0124175
704.078	0.0126154
704.156	0.0126813
704.234	0.0127743
704.312	0.0128246
704.390	0.0128725
704.468	0.0128852
704.546	0.0131432
704.624	0.0134018
704.703	0.0133656
704.781	0.0135384
704.859	0.0138342
704.937	0.0139085
705.015	0.0138897
705.093	0.0138567
705.171	0.0140264
705.249	0.0141478
705.328	0.0142329
705.406	0.0139379
705.484	0.0138810
705.562	0.0139133
705.640	0.0139320
705.718	0.0139334
705.796	0.0138693
705.874	0.0138799
705.953	0.0139097
706.031	0.0140050
706.109	0.0139599
706.187	0.0140185
706.265	0.0141111
706.343	0.0141635
706.421	0.0140379
706.499	0.0141663
706.578	0.0142580
706.656	0.0142074
706.734	0.0140335
706.812	0.0139793
706.890	0.0139482
706.968	0.0138666
707.046	0.0138982
707.124	0.0137894
707.203	0.0137052
707.281	0.0136739
707.359	0.0136766
707.437	0.0134712
707.515	0.0135413
707.593	0.0134993
707.671	0.0133153
707.749	0.0134402
707.828	0.0132802
707.906	0.0131735
707.984	0.0132031
708.062	0.0130600
708.140	0.0130557
708.218	0.0128319
708.296	0.0127590
708.374	0.0127145
708.453	0.0127348
708.531	0.0126285
708.609	0.0124648
708.687	0.0124386
708.765	0.0123435
708.843	0.0123782
708.921	0.0123713
708.999	0.0124241
709.078	0.0124804
709.156	0.0126243
709.234	0.0124572
709.312	0.0126412
709.390	0.0126206
709.468	0.0127329
709.546	0.0128908
709.624	0.0131294
709.703	0.0131807
709.781	0.0133041
709.859	0.0135040
709.937	0.0134678
710.015	0.0136007
710.093	0.0136665
710.171	0.0136926
710.249	0.0137774
710.328	0.0135959
710.406	0.0137705
710.484	0.0137966
710.562	0.0137124
710.640	0.0137963
710.718	0.0138046
710.796	0.0138738
710.874	0.0138335
710.953	0.0138029
711.031	0.0139078
711.109	0.0137830
711.187	0.0136909
711.265	0.0136131
711.343	0.0135909
711.421	0.0136279
711.499	0.0135272
711.578	0.0135929
711.656	0.0135874
711.734	0.0135951
711.812	0.0137496
711.890	0.0135338
711.968	0.0137650
712.046	0.0136612
712.124	0.0135594
712.203	0.0136961
712.281	0.0137032
712.359	0.0138058
712.437	0.0138629
712.515	0.0138902
712.593	0.0136593
712.671	0.0137059
712.749	0.0135994
712.828	0.0136727
712.906	0.0136616
712.984	0.0137312
713.062	0.0137647
713.140	0.0136564
713.218	0.0137140
713.296	0.0136947
713.374	0.0137087
713.453	0.0137725
713.531	0.0136639
713.609	0.0135261
713.687	0.0135844
713.765	0.0134914
713.843	0.0132973
713.921	0.0132710
713.999	0.0132169
714.078	0.0131007
714.156	0.0128336
714.234	0.0128686
714.312	0.0127903
714.390	0.0125753
714.468	0.0125194
714.546	0.0122838
714.624	0.0122540
714.703	0.0121400
714.781	0.0119983
714.859	0.0118676
714.937	0.0117062
715.015	0.0117300
715.093	0.0117388
715.171	0.0117735
715.249	0.0118634
715.328	0.0118845
715.406	0.0120306
715.484	0.0121130
715.562	0.0121242
715.640	0.0122702
715.718	0.0125257
715.796	0.0126859
715.874	0.0128271
715.953	0.0128137
716.031	0.0129985
716.109	0.0132742
716.187	0.0134592
716.265	0.0133977
716.343	0.0134366
716.421	0.0137585
716.499	0.0139394
716.578	0.0138375
716.656	0.0138284
716.734	0.0140101
716.812	0.0141668
716.890	0.0142690
716.968	0.0143648
717.046	0.0144313
717.124	0.0144574
717.203	0.0145959
717.281	0.0146364
717.359	0.0145308
717.437	0.0145554
717.515	0.0144138
717.593	0.0143752
717.671	0.0141328
717.749	0.0140372
717.828	0.0140545
717.906	0.0138715
717.984	0.0137781
718.062	0.0137013
718.140	0.0133714
718.218	0.0132481
718.296	0.0131651
718.374	0.0130145
718.453	0.0129963
718.531	0.0129214
718.609	0.0128291
718.687	0.0126965
718.765	0.0127731
718.843	0.0126785
718.921	0.0126470
718.999	0.0125821
719.078	0.0125584
719.156	0.0126891
719.234	0.0126613
719.312	0.0127365
719.390	0.0126759
719.468	0.0126056
719.546	0.0126254
719.624	0.0126787
719.703	0.0127485
719.781	0.0128550
719.859	0.0127402
719.937	0.0127406
720.015	0.0129124
720.093	0.0129073
720.171	0.0127956
720.249	0.0130470
720.328	0.0129408
720.406	0.0128882
720.484	0.0129725
720.562	0.0130157
720.640	0.0131484
720.718	0.0130580
720.796	0.0130918
720.874	0.0129877
720.953	0.0129461
721.031	0.0127773
721.109	0.0128064
721.187	0.0128477
721.265	0.0127940
721.343	0.0128838
721.421	0.0128538
721.499	0.0128942
721.578	0.0130941
721.656	0.0130343
721.734	0.0130252
721.812	0.0132105
721.890	0.0133185
721.968	0.0132080
722.046	0.0132470
722.124	0.0134482
722.203	0.0136076
722.281	0.0136327
722.359	0.0136618
722.437	0.0135915
722.515	0.0136581
722.593	0.0137498
722.671	0.0139495
722.749	0.0138265
722.828	0.0137683
722.906	0.0137309
722.984	0.0138260
723.062	0.0138548
723.140	0.0137076
723.218	0.0136973
723.296	0.0136910
723.374	0.0135821
723.453	0.0136556
723.531	0.0134537
723.609	0.0132900
723.687	0.0134192
723.765	0.0133450
723.843	0.0134377
723.921	0.0133067
723.999	0.0133051
724.078	0.0133222
724.156	0.0131271
724.234	0.0131461
724.312	0.0130569
724.390	0.0129416
724.468	0.0129315
724.546	0.0127493
724.624	0.0125888
724.703	0.0127386
724.781	0.0125767
724.859	0.0125455
724.937	0.0124777
725.015	0.0127276
725.093	0.0126445
725.171	0.0126233
725.249	0.0128490
725.328	0.0128934
725.406	0.0128754
725.484	0.0130492
725.562	0.0131854
725.640	0.0133115
725.718	0.0132848
725.796	0.0132990
725.874	0.0134908
725.953	0.0134953
726.031	0.0134590
726.109	0.0133534
726.187	0.0134074
726.265	0.0132674
726.343	0.0132628
726.421	0.0133157
726.499	0.0133213
726.578	0.0132605
726.656	0.0133608
726.734	0.0133483
726.812	0.0135011
726.890	0.0135072
726.968	0.0136698
727.046	0.0134139
727.124	0.0133275
727.203	0.0134020
727.281	0.0133946
727.359	0.0134364
727.437	0.0134109
727.515	0.0133750
727.593	0.0133806
727.671	0.0133641
727.749	0.0133418
727.828	0.0134103
727.906	0.0134756
727.984	0.0133405
728.062	0.0134250
728.140	0.0134629
728.218	0.0133235
728.296	0.0133546
728.374	0.0133379
728.453	0.0132952
728.531	0.0132052
728.609	0.0132565
728.687	0.0131966
728.765	0.0133868
728.843	0.0133604
728.921	0.0132638
728.999	0.0133227
729.078	0.0133727
729.156	0.0132404
729.234	0.0133279
729.312	0.0135300
729.390	0.0134780
729.468	0.0133688
729.546	0.0135942
729.624	0.0136687
729.703	0.0136603
729.781	0.0136750
729.859	0.0135543
729.937	0.0137486
730.015	0.0138570
730.093	0.0139944
730.171	0.0137608
730.249	0.0138686
730.328	0.0139854
730.406	0.0138733
730.484	0.0139684
730.562	0.0139679
730.640	0.0138811
730.718	0.0137944
730.796	0.0138870
730.874	0.0136726
730.953	0.0136108
731.031	0.0136722
731.109	0.0134494
731.187	0.0133836
731.265	0.0132302
731.343	0.0131997
731.421	0.0132825
731.499	0.0132153
731.578	0.0131829
731.656	0.0132362
731.734	0.0131229
731.812	0.0130696
731.890	0.0128987
731.968	0.0129390
732.046	0.0128934
732.124	0.0129447
732.203	0.0128667
732.281	0.0126795
732.359	0.0128362
732.437	0.0129142
732.515	0.0126808
732.593	0.0127528
732.671	0.0126937
732.749	0.0129288
732.828	0.0127853
732.906	0.0129539
732.984	0.0129655
733.062	0.0127514
733.140	0.0129122
733.218	0.0131236
733.296	0.0131834
733.374	0.0134159
733.453	0.0133525
733.531	0.0132787
733.609	0.0134005
733.687	0.0135135
733.765	0.0134275
733.843	0.0135704
733.921	0.0136050
733.999	0.0135004
734.078	0.0135411
734.156	0.0135600
734.234	0.0134338
734.312	0.0134897
734.390	0.0135313
734.468	0.0135119
734.546	0.0136867
734.624	0.0136688
734.703	0.0136218
734.781	0.0135989
734.859	0.0135526
734.937	0.0135698
735.015	0.0136291
735.093	0.0135003
735.171	0.0136053
735.249	0.0135545
735.328	0.0135211
735.406	0.0135059
735.484	0.0134631
735.562	0.0134879
735.640	0.0134245
735.718	0.0134282
735.796	0.0133070
735.874	0.0133447
735.953	0.0132094
736.031	0.0131462
736.109	0.0132480
736.187	0.0132849
736.265	0.0132638
736.343	0.0129959
736.421	0.0131991
736.499	0.0131754
736.578	0.0131355
736.656	0.0132126
736.734	0.0132908
736.812	0.0133437
736.890	0.0132086
736.968	0.0133179
737.046	0.0133839
737.124	0.0133388
737.203	0.0134093
737.281	0.0134612
737.359	0.0134069
737.437	0.0134494
737.515	0.0134120
737.593	0.0132343
737.671	0.0133636
737.749	0.0133495
737.828	0.0133098
737.906	0.0133125
737.984	0.0132899
738.062	0.0131657
738.140	0.0132389
738.218	0.0132322
738.296	0.0131638
738.374	0.0130679
738.453	0.0131673
738.531	0.0130810
738.609	0.0130246
738.687	0.0130800
738.765	0.0130129
738.843	0.0130967
738.921	0.0130548
738.999	0.0129891
739.078	0.0129723
739.156	0.0131188
739.234	0.0132451
739.312	0.0131654
739.390	0.0132878
739.468	0.0131815
739.546	0.0133185
739.624	0.0134064
739.703	0.0133186
739.781	0.0133973
739.859	0.0133490
739.937	0.0133152
740.015	0.0134420
740.093	0.0134733
740.171	0.0133527
740.249	0.0133828
740.328	0.0134910
740.406	0.0133566
740.484	0.0132977
740.562	0.0134978
740.640	0.0133546
740.718	0.0133868
740.796	0.0132723
740.874	0.0132150
740.953	0.0132529
741.031	0.0133047
741.109	0.0131322
741.187	0.0131615
741.265	0.0131591
741.343	0.0131239
741.421	0.0130948
741.499	0.0131973
741.578	0.0132188
741.656	0.0131698
741.734	0.0131067
741.812	0.0131921
741.890	0.0130829
741.968	0.0130864
742.046	0.0131532
742.124	0.0133449
742.203	0.0131853
742.281	0.0132171
742.359	0.0133174
742.437	0.0133831
742.515	0.0133147
742.593	0.0133500
742.671	0.0134197
742.749	0.0133881
742.828	0.0135242
742.906	0.0134496
742.984	0.0132990
743.062	0.0134698
743.140	0.0133824
743.218	0.0134057
743.296	0.0133674
743.374	0.0133930
743.453	0.0132817
743.531	0.0132536
743.609	0.0133062
743.687	0.0133914
743.765	0.0133549
743.843	0.0134101
743.921	0.0134224
743.999	0.0134050
744.078	0.0133910
744.156	0.0132780
744.234	0.0133098
744.312	0.0133775
744.390	0.0132278
744.468	0.0130813
744.546	0.0131533
744.624	0.0130403
744.703	0.0131010
744.781	0.0131598
744.859	0.0129884
744.937	0.0128631
745.015	0.0127757
745.093	0.0129758
745.171	0.0129082
745.249	0.0128046
745.328	0.0128024
745.406	0.0129506
745.484	0.0129556
745.562	0.0128435
745.640	0.0127942
745.718	0.0129733
745.796	0.0130092
745.874	0.0131581
745.953	0.0131200
746.031	0.0132611
746.109	0.0132964
746.187	0.0132175
746.265	0.0133092
746.343	0.0134435
746.421	0.0134734
746.499	0.0134460
746.578	0.0135307
746.656	0.0134711
746.734	0.0135848
746.812	0.0135800
746.890	0.0134659
746.968	0.0137267
747.046	0.0136725
747.124	0.0136055
747.203	0.0136680
747.281	0.0138146
747.359	0.0137053
747.437	0.0136488
747.515	0.0136588
747.593	0.0136865
747.671	0.0137170
747.749	0.0136192
747.828	0.0135809
747.906	0.0136199
747.984	0.0137032
748.062	0.0136317
748.140	0.0136592
748.218	0.0136217
748.296	0.0135953
748.374	0.0135354
748.453	0.0136047
748.531	0.0135525
748.609	0.0133839
748.687	0.0132101
748.765	0.0133258
748.843	0.0132969
748.921	0.0131856
748.999	0.0131293
749.078	0.0129883
749.156	0.0129758
749.234	0.0128672
749.312	0.0130222
749.390	0.0128417
749.468	0.0127891
749.546	0.0128413
749.624	0.0130161
749.703	0.0130235
749.781	0.0129901
749.859	0.0130814
749.937	0.0130067
750.015	0.0130683
750.093	0.0133141
750.171	0.0133970
750.249	0.0134262
750.328	0.0134064
750.406	0.0135310
750.484	0.0136796
750.562	0.0136473
750.640	0.0136767
750.718	0.0137434
750.796	0.0137418
750.874	0.0139222
750.953	0.0138480
751.031	0.0138438
751.109	0.0138778
751.187	0.0136924
751.265	0.0136681
751.343	0.0136494
751.421	0.0136567
751.499	0.0135421
751.578	0.0134908
751.656	0.0133987
751.734	0.0134065
751.812	0.0133858
751.890	0.0132987
751.968	0.0133289
752.046	0.0132687
752.124	0.0130677
752.203	0.0131031
752.281	0.0130801
752.359	0.0130833
752.437	0.0129771
752.515	0.0129050
752.593	0.0129396
752.671	0.0130576
752.749	0.0129340
752.828	0.0129905
752.906	0.0130132
752.984	0.0131380
753.062	0.0131339
753.140	0.0131026
753.218	0.0131233
753.296	0.0131190
753.374	0.0132829
753.453	0.0134354
753.531	0.0133215
753.609	0.0132739
753.687	0.0132808
753.765	0.0132664
753.843	0.0133092
753.921	0.0131921
753.999	0.0133802
754.078	0.0135461
754.156	0.0134132
754.234	0.0132849
754.312	0.0134244
754.390	0.0133929
754.468	0.0132535
754.546	0.0132429
754.624	0.0133826
754.703	0.0134034
754.781	0.0133015
754.859	0.0134280
754.937	0.0133281
755.015	0.0133363
755.093	0.0134515
755.171	0.0134272
755.249	0.0134475
755.328	0.0134332
755.406	0.0134467
755.484	0.0135899
755.562	0.0134029
755.640	0.0135737
755.718	0.0135320
755.796	0.0135167
755.874	0.0136455
755.953	0.0134967
756.031	0.0133963
756.109	0.0134391
756.187	0.0134210
756.265	0.0132635
756.343	0.0133347
756.421	0.0132803
756.499	0.0133013
756.578	0.0131699
756.656	0.0130932
756.734	0.0131928
756.812	0.0130099
756.890	0.0131091
756.968	0.0130583
757.046	0.0130227
757.124	0.0130811
757.203	0.0129790
757.281	0.0131008
757.359	0.0129864
757.437	0.0132069
757.515	0.0130591
757.593	0.0130996
757.671	0.0132156
757.749	0.0131393
757.828	0.0131188
757.906	0.0132117
757.984	0.0132461
758.062	0.0133609
758.140	0.0133369
758.218	0.0131875
758.296	0.0133160
758.374	0.0131714
758.453	0.0132137
758.531	0.0133072
758.609	0.0132226
758.687	0.0132324
758.765	0.0129331
758.843	0.0132804
758.921	0.0134412
758.999	0.0131889
759.078	0.0132219
759.156	0.0132568
759.234	0.0131956
759.312	0.0132635
759.390	0.0134305
759.468	0.0133986
759.546	0.0133758
759.624	0.0134513
759.703	0.0134235
759.781	0.0134264
759.859	0.0133902
759.937	0.0133864
760.015	0.0134160
760.093	0.0135745
760.171	0.0135365
760.249	0.0134428
760.328	0.0135329
760.406	0.0134165
760.484	0.0134219
760.562	0.0133565
760.640	0.0134050
760.718	0.0133833
760.796	0.0133600
760.874	0.0132675
760.953	0.0132719
761.031	0.0133762
761.109	0.0134940
761.187	0.0133542
761.265	0.0132672
761.343	0.0132473
761.421	0.0132253
761.499	0.0134126
761.578	0.0133425
761.656	0.0133524
761.734	0.0134404
761.812	0.0134446
761.890	0.0134317
761.968	0.0132625
762.046	0.0133208
762.124	0.0134026
762.203	0.0133217
762.281	0.0132788
762.359	0.0131643
762.437	0.0132227
762.515	0.0133053
762.593	0.0132465
762.671	0.0132212
762.749	0.0132872
762.828	0.0133192
762.906	0.0133953
762.984	0.0134747
763.062	0.0132812
763.140	0.0132109
763.218	0.0134621
763.296	0.0133694
763.374	0.0133476
763.453	0.0134293
763.531	0.0134578
763.609	0.0133285
763.687	0.0133552
763.765	0.0134025
763.843	0.0133247
763.921	0.0133061
763.999	0.0132634
764.078	0.0132389
764.156	0.0133594
764.234	0.0132355
764.312	0.0132544
764.390	0.0133231
764.468	0.0132957
764.546	0.0134223
764.624	0.0133287
764.703	0.0132597
764.781	0.0132733
764.859	0.0133448
764.937	0.0133064
765.015	0.0132861
765.093	0.0133501
765.171	0.0133747
765.249	0.0133464
765.328	0.0133533
765.406	0.0134549
765.484	0.0135432
765.562	0.0132526
765.640	0.0133143
765.718	0.0133247
765.796	0.0133130
765.874	0.0132667
765.953	0.0133440
766.031	0.0132519
766.109	0.0132124
766.187	0.0133764
766.265	0.0133564
766.343	0.0133013
766.421	0.0132417
766.499	0.0132108
766.578	0.0130778
766.656	0.0131499
766.734	0.0131523
766.812	0.0130511
766.890	0.0130070
766.968	0.0131722
767.046	0.0131929
767.124	0.0129708
767.203	0.0129823
767.281	0.0130129
767.359	0.0130946
767.437	0.0131283
767.515	0.0129441
767.593	0.0130691
767.671	0.0131110
767.749	0.0131019
767.828	0.0132465
767.906	0.0130948
767.984	0.0132120
768.062	0.0132322
768.140	0.0132164
768.218	0.0131395
768.296	0.0132584
768.374	0.0135014
768.453	0.0135216
768.531	0.0134321
768.609	0.0133541
768.687	0.0135782
768.765	0.0136619
768.843	0.0136038
768.921	0.0136787
768.999	0.0136397
769.078	0.0137833
769.156	0.0136976
769.234	0.0137066
769.312	0.0136066
769.390	0.0137741
769.468	0.0137177
769.546	0.0138242
769.624	0.0136427
769.703	0.0136059
769.781	0.0137007
769.859	0.0136346
769.937	0.0133765
770.015	0.0134781
770.093	0.0134171
770.171	0.0133285
770.249	0.0133681
770.328	0.0133404
770.406	0.0134151
770.484	0.0133669
770.562	0.0131895
770.640	0.0132167
770.718	0.0131966
770.796	0.0131114
770.874	0.0130779
770.953	0.0131795
771.031	0.0131084
771.109	0.0131719
771.187	0.0131531
771.265	0.0131950
771.343	0.0130274
771.421	0.0130389
771.499	0.0131935
771.578	0.0130386
771.656	0.0130129
771.734	0.0132475
771.812	0.0131488
771.890	0.0132548
771.968	0.0131862
772.046	0.0133103
772.124	0.0132269
772.203	0.0131152
772.281	0.0131673
772.359	0.0132698
772.437	0.0132352
772.515	0.0133722
772.593	0.0132097
772.671	0.0133395
772.749	0.0133135
772.828	0.0133202
772.906	0.0136008
772.984	0.0134577
773.062	0.0133568
773.140	0.0133916
773.218	0.0135734
773.296	0.0135569
773.374	0.0135208
773.453	0.0135920
773.531	0.0136252
773.609	0.0136128
773.687	0.0136202
773.765	0.0135221
773.843	0.0135284
773.921	0.0136315
773.999	0.0135590
774.078	0.0134985
774.156	0.0135850
774.234	0.0134477
774.312	0.0135469
774.390	0.0136015
774.468	0.0133365
774.546	0.0134061
774.624	0.0136202
774.703	0.0133964
774.781	0.0133936
774.859	0.0134784
774.937	0.0135704
775.015	0.0135361
775.093	0.0135284
775.171	0.0135816
775.249	0.0135011
775.328	0.0135318
775.406	0.0134875
775.484	0.0133955
775.562	0.0133679
775.640	0.0133654
775.718	0.0132572
775.796	0.0133143
775.874	0.0132317
775.953	0.0131831
776.031	0.0133109
776.109	0.0132597
776.187	0.0131887
776.265	0.0131992
776.343	0.0134717
776.421	0.0133657
776.499	0.0132498
776.578	0.0132747
776.656	0.0132887
776.734	0.0132554
776.812	0.0131979
776.890	0.0132085
776.968	0.0131331
777.046	0.0132201
777.124	0.0131480
777.203	0.0131977
777.281	0.0131897
777.359	0.0130425
777.437	0.0130846
777.515	0.0130414
777.593	0.0131453
777.671	0.0131028
777.749	0.0130604
777.828	0.0128854
777.906	0.0128944
777.984	0.0131190
778.062	0.0130685
778.140	0.0130073
778.218	0.0129829
778.296	0.0130463
778.374	0.0131501
778.453	0.0128323
778.531	0.0129146
778.609	0.0130803
778.687	0.0131161
778.765	0.0131504
778.843	0.0131960
778.921	0.0130541
778.999	0.0131180
779.078	0.0132360
779.156	0.0132066
779.234	0.0131785
779.312	0.0133820
779.390	0.0133331
779.468	0.0131733
779.546	0.0130216
779.624	0.0131894
779.703	0.0132825
779.781	0.0132162
779.859	0.0131618
779.937	0.0131551
780.015	0.0131390
780.093	0.0131485
780.171	0.0131261
780.249	0.0131184
780.328	0.0132040
780.406	0.0131178
780.484	0.0132098
780.562	0.0130857
780.640	0.0132217
780.718	0.0131952
780.796	0.0131936
780.874	0.0131575
780.953	0.0132864
781.031	0.0133840
781.109	0.0133700
781.187	0.0133041
781.265	0.0132162
781.343	0.0133286
781.421	0.0134160
781.499	0.0133445
781.578	0.0132460
781.656	0.0132806
781.734	0.0130599
781.812	0.0130416
781.890	0.0131055
781.968	0.0129410
782.046	0.0129771
782.124	0.0128976
782.203	0.0129823
782.281	0.0128577
782.359	0.0128101
782.437	0.0129122
782.515	0.0127689
782.593	0.0126830
782.671	0.0129118
782.749	0.0127531
782.828	0.0127218
782.906	0.0128182
782.984	0.0128052
783.062	0.0128038
783.140	0.0129629
783.218	0.0130733
783.296	0.0130312
783.374	0.0131999
783.453	0.0131927
783.531	0.0131881
783.609	0.0133025
783.687	0.0133012
783.765	0.0133133
783.843	0.0134042
783.921	0.0132188
783.999	0.0133089
784.078	0.0134859
784.156	0.0135041
784.234	0.0135053
784.312	0.0133878
784.390	0.0135207
784.468	0.0135369
784.546	0.0134943
784.624	0.0136403
784.703	0.0135484
784.781	0.0134898
784.859	0.0134983
784.937	0.0135623
785.015	0.0135778
785.093	0.0135300
785.171	0.0134820
785.249	0.0135359
785.328	0.0134798
785.406	0.0134089
785.484	0.0134943
785.562	0.0133527
785.640	0.0133682
785.718	0.0132622
785.796	0.0131966
785.874	0.0133975
785.953	0.0133275
786.031	0.0133065
786.109	0.0133788
786.187	0.0132650
786.265	0.0133505
786.343	0.0134827
786.421	0.0132644
786.499	0.0131972
786.578	0.0133321
786.656	0.0133208
786.734	0.0133454
786.812	0.0132975
786.890	0.0133683
786.968	0.0132140
787.046	0.0132482
787.124	0.0132645
787.203	0.0132230
787.281	0.0134435
787.359	0.0134350
787.437	0.0133726
787.515	0.0134568
787.593	0.0133231
787.671	0.0134012
787.749	0.0135928
787.828	0.0133447
787.906	0.0133753
787.984	0.0134724
788.062	0.0133348
788.140	0.0133227
788.218	0.0132555
788.296	0.0132024
788.374	0.0130614
788.453	0.0131561
788.531	0.0130369
788.609	0.0129624
788.687	0.0130036
788.765	0.0131252
788.843	0.0130040
788.921	0.0129358
788.999	0.0130499
789.078	0.0129317
789.156	0.0132336
789.234	0.0129897
789.312	0.0131626
789.390	0.0131702
789.468	0.0132181
789.546	0.0133414
789.624	0.0133739
789.703	0.0133147
789.781	0.0131567
789.859	0.0133061
789.937	0.0133243
790.015	0.0133341
790.093	0.0132801
790.171	0.0134502
790.249	0.0134550
790.328	0.0133427
790.406	0.0132198
790.484	0.0132236
790.562	0.0133109
790.640	0.0133669
790.718	0.0132632
790.796	0.0135355
790.874	0.0135131
790.953	0.0135731
791.031	0.0134862
791.109	0.0134765
791.187	0.0136198
791.265	0.0135759
791.343	0.0136255
791.421	0.0137081
791.499	0.0137052
791.578	0.0135425
791.656	0.0134689
791.734	0.0136250
791.812	0.0134988
791.890	0.0133990
791.968	0.0134038
792.046	0.0134183
792.124	0.0133323
792.203	0.0134824
792.281	0.0133669
792.359	0.0133297
792.437	0.0133106
792.515	0.0132341
792.593	0.0133241
792.671	0.0133648
792.749	0.0133662
792.828	0.0132372
792.906	0.0132465
792.984	0.0131484
793.062	0.0132761
793.140	0.0132106
793.218	0.0130704
793.296	0.0130598
793.374	0.0131853
793.453	0.0131625
793.531	0.0130293
793.609	0.0130907
793.687	0.0130442
793.765	0.0128902
793.843	0.0129515
793.921	0.0130803
793.999	0.0129735
794.078	0.0130656
794.156	0.0130890
794.234	0.0131499
794.312	0.0133147
794.390	0.0130021
794.468	0.0131492
794.546	0.0132375
794.624	0.0132440
794.703	0.0132813
794.781	0.0132187
794.859	0.0131864
794.937	0.0132227
795.015	0.0132463
795.093	0.0132446
795.171	0.0132336
795.249	0.0132990
795.328	0.0131909
795.406	0.0133664
795.484	0.0133517
795.562	0.0131791
795.640	0.0132145
795.718	0.0133739
795.796	0.0132542
795.874	0.0134403
795.953	0.0134827
796.031	0.0132833
796.109	0.0133528
796.187	0.0135619
796.265	0.0134811
796.343	0.0135091
796.421	0.0135706
796.499	0.0135384
796.578	0.0135935
796.656	0.0135312
796.734	0.0134633
796.812	0.0136315
796.890	0.0134743
796.968	0.0135561
797.046	0.0135017
797.124	0.0133971
797.203	0.0134350
797.281	0.0133736
797.359	0.0133575
797.437	0.0133585
797.515	0.0132629
797.593	0.0131604
797.671	0.0133441
797.749	0.0133125
797.828	0.0132596
797.906	0.0131365
797.984	0.0131039
798.062	0.0132315
798.140	0.0130454
798.218	0.0130963
798.296	0.0131306
798.374	0.0130932
798.453	0.0132514
798.531	0.0132106
798.609	0.0131939
798.687	0.0131511
798.765	0.0130403
798.843	0.0131158
798.921	0.0131591
798.999	0.0131570
799.078	0.0133223
799.156	0.0132666
799.234	0.0132738
799.312	0.0132629
799.390	0.0131548
799.468	0.0132574
799.546	0.0131737
799.624	0.0131432
799.703	0.0130396
799.781	0.0130845
799.859	0.0131342
799.937	0.0132225
800.015	0.0131731
800.093	0.0132291
800.171	0.0131728
800.249	0.0132433
800.328	0.0131002
800.406	0.0133607
800.484	0.0132063
800.562	0.0133189
800.640	0.0132737
800.718	0.0132004
800.796	0.0133644
800.874	0.0132774
800.953	0.0131297
801.031	0.0131161
801.109	0.0131730
801.187	0.0130537
801.265	0.0130681
801.343	0.0130099
801.421	0.0130888
801.499	0.0129397
801.578	0.0128293
801.656	0.0128737
801.734	0.0129861
801.812	0.0129761
801.890	0.0129444
801.968	0.0130205
802.046	0.0129457
802.124	0.0130206
802.203	0.0131594
802.281	0.0130825
802.359	0.0130072
802.437	0.0132001
802.515	0.0131551
802.593	0.0131419
802.671	0.0132343
802.749	0.0132784
802.828	0.0133938
802.906	0.0132232
802.984	0.0132829
803.062	0.0133593
803.140	0.0133147
803.218	0.0132997
803.296	0.0134083
803.374	0.0132855
803.453	0.0132164
803.531	0.0134398
803.609	0.0132615
803.687	0.0133289
803.765	0.0133276
803.843	0.0132107
803.921	0.0131622
803.999	0.0133160
804.078	0.0132460
804.156	0.0132671
804.234	0.0132032
804.312	0.0132005
804.390	0.0131181
804.468	0.0131831
804.546	0.0131893
804.624	0.0131435
804.703	0.0130562
804.781	0.0130292
804.859	0.0131725
804.937	0.0132407
805.015	0.0130985
805.093	0.0130733
805.171	0.0131281
805.249	0.0131627
805.328	0.0130671
805.406	0.0132336
805.484	0.0132019
805.562	0.0131090
805.640	0.0131323
805.718	0.0132454
805.796	0.0132261
805.874	0.0131220
805.953	0.0133320
806.031	0.0133437
806.109	0.0134750
806.187	0.0134352
806.265	0.0133235
806.343	0.0133335
806.421	0.0134013
806.499	0.0134795
806.578	0.0133558
806.656	0.0134396
806.734	0.0132835
806.812	0.0134012
806.890	0.0132996
806.968	0.0133086
807.046	0.0133641
807.124	0.0135082
807.203	0.0132880
807.281	0.0131442
807.359	0.0133453
807.437	0.0132153
807.515	0.0132024
807.593	0.0133784
807.671	0.0132298
807.749	0.0133521
807.828	0.0133827
807.906	0.0135367
807.984	0.0134984
808.062	0.0135060
808.140	0.0135403
808.218	0.0135671
808.296	0.0136472
808.374	0.0137005
808.453	0.0135880
808.531	0.0135434
808.609	0.0135008
808.687	0.0136738
808.765	0.0137266
808.843	0.0134983
808.921	0.0133134
808.999	0.0134116
809.078	0.0133537
809.156	0.0131176
809.234	0.0132148
809.312	0.0133034
809.390	0.0131908
809.468	0.0132423
809.546	0.0133138
809.624	0.0133527
809.703	0.0132389
809.781	0.0133620
809.859	0.0134165
809.937	0.0134802
810.015	0.0134032
810.093	0.0134907
810.171	0.0134698
810.249	0.0133644
810.328	0.0134438
810.406	0.0135371
810.484	0.0134759
810.562	0.0134041
810.640	0.0134598
810.718	0.0133995
810.796	0.0133963
810.874	0.0133045
810.953	0.0134030
811.031	0.0133450
811.109	0.0132574
811.187	0.0132658
811.265	0.0131136
811.343	0.0132365
811.421	0.0131261
811.499	0.0129945
811.578	0.0129495
811.656	0.0129855
811.734	0.0129800
811.812	0.0127864
811.890	0.0129224
811.968	0.0128953
812.046	0.0129299
812.124	0.0129389
812.203	0.0128838
812.281	0.0130309
812.359	0.0129393
812.437	0.0130311
812.515	0.0132053
812.593	0.0131296
812.671	0.0131818
812.749	0.0132752
812.828	0.0132132
812.906	0.0131125
812.984	0.0131033
813.062	0.0131895
813.140	0.0131358
813.218	0.0133029
813.296	0.0132297
813.374	0.0131276
813.453	0.0132342
813.531	0.0132743
813.609	0.0133446
813.687	0.0133740
813.765	0.0133879
813.843	0.0134795
813.921	0.0133192
813.999	0.0135097
814.078	0.0135500
814.156	0.0135683
814.234	0.0135394
814.312	0.0134623
814.390	0.0136031
814.468	0.0134972
814.546	0.0134811
814.624	0.0134650
814.703	0.0132989
814.781	0.0133287
814.859	0.0133826
814.937	0.0132050
815.015	0.0132545
815.093	0.0131734
815.171	0.0132104
815.249	0.0130399
815.328	0.0131710
815.406	0.0131774
815.484	0.0132249
815.562	0.0132232
815.640	0.0130856
815.718	0.0130141
815.796	0.0132166
815.874	0.0133462
815.953	0.0132600
816.031	0.0131660
816.109	0.0131857
816.187	0.0133234
816.265	0.0132043
816.343	0.0132317
816.421	0.0132866
816.499	0.0134315
816.578	0.0134206
816.656	0.0133254
816.734	0.0131783
816.812	0.0132144
816.890	0.0134513
816.968	0.0134869
817.046	0.0134387
817.124	0.0133170
817.203	0.0133392
817.281	0.0133353
817.359	0.0134069
817.437	0.0133974
817.515	0.0133949
817.593	0.0133958
817.671	0.0133994
817.749	0.0133649
817.828	0.0133722
817.906	0.0134310
817.984	0.0135674
818.062	0.0135189
818.140	0.0133657
818.218	0.0133168
818.296	0.0133160
818.374	0.0132616
818.453	0.0131730
818.531	0.0132706
818.609	0.0133292
818.687	0.0132568
818.765	0.0131280
818.843	0.0133190
818.921	0.0131001
818.999	0.0132377
819.078	0.0131031
819.156	0.0131227
819.234	0.0131154
819.312	0.0132147
819.390	0.0131622
819.468	0.0132698
819.546	0.0132213
819.624	0.0131904
819.703	0.0132564
819.781	0.0132386
819.859	0.0132768
819.937	0.0132617
820.015	0.0132848
820.093	0.0133469
820.171	0.0132858
820.249	0.0133638
820.328	0.0132645
820.406	0.0134216
820.484	0.0133459
820.562	0.0133630
820.640	0.0132973
820.718	0.0132358
820.796	0.0131923
820.874	0.0133412
820.953	0.0132071
821.031	0.0131587
821.109	0.0131178
821.187	0.0131709
821.265	0.0132524
821.343	0.0131908
821.421	0.0131696
821.499	0.0132666
821.578	0.0132995
821.656	0.0134038
821.734	0.0134055
821.812	0.0134368
821.890	0.0134403
821.968	0.0134740
822.046	0.0134289
822.124	0.0135612
822.203	0.0135976
822.281	0.0134037
822.359	0.0132710
822.437	0.0132887
822.515	0.0133928
822.593	0.0133626
822.671	0.0132558
822.749	0.0131966
822.828	0.0132037
822.906	0.0131342
822.984	0.0131638
823.062	0.0130968
823.140	0.0131726
823.218	0.0130797
823.296	0.0131300
823.374	0.0129811
823.453	0.0131532
823.531	0.0130816
823.609	0.0131243
823.687	0.0129372
823.765	0.0128798
823.843	0.0131554
823.921	0.0132290
823.999	0.0131456
824.078	0.0131356
824.156	0.0132203
824.234	0.0132108
824.312	0.0132373
824.390	0.0132036
824.468	0.0132270
824.546	0.0132526
824.624	0.0131070
824.703	0.0132252
824.781	0.0131714
824.859	0.0131082
824.937	0.0131488
825.015	0.0132889
825.093	0.0132576
825.171	0.0131961
825.249	0.0132822
825.328	0.0132137
825.406	0.0133617
825.484	0.0132363
825.562	0.0133287
825.640	0.0132001
825.718	0.0132352
825.796	0.0132794
825.874	0.0133016
825.953	0.0131173
826.031	0.0133656
826.109	0.0133659
826.187	0.0132812
826.265	0.0132758
826.343	0.0133131
826.421	0.0133804
826.499	0.0131317
826.578	0.0133600
826.656	0.0133848
826.734	0.0134235
826.812	0.0134081
826.890	0.0133540
826.968	0.0134428
827.046	0.0135618
827.124	0.0135028
827.203	0.0134399
827.281	0.0134062
827.359	0.0134272
827.437	0.0134198
827.515	0.0135250
827.593	0.0133138
827.671	0.0134470
827.749	0.0132973
827.828	0.0133817
827.906	0.0132904
827.984	0.0131037
828.062	0.0130974
828.140	0.0132902
828.218	0.0132756
828.296	0.0131391
828.374	0.0130785
828.453	0.0130544
828.531	0.0130808
828.609	0.0130397
828.687	0.0131955
828.765	0.0130016
828.843	0.0130807
828.921	0.0131459
828.999	0.0132529
829.078	0.0132343
829.156	0.0132098
829.234	0.0133329
829.312	0.0133534
829.390	0.0132600
829.468	0.0132063
829.546	0.0132275
829.624	0.0131996
829.703	0.0131435
829.781	0.0131738
829.859	0.0132272
829.937	0.0132649
830.015	0.0131847
830.093	0.0132236
830.171	0.0131780
830.249	0.0132883
830.328	0.0133628
830.406	0.0133507
830.484	0.0133570
830.562	0.0133167
830.640	0.0133736
830.718	0.0133869
830.796	0.0134635
830.874	0.0133514
830.953	0.0134288
831.031	0.0133736
831.109	0.0132409
831.187	0.0132809
831.265	0.0134898
831.343	0.0133240
831.421	0.0133861
831.499	0.0132104
831.578	0.0133114
831.656	0.0132856
831.734	0.0133900
831.812	0.0134302
831.890	0.0133076
831.968	0.0133390
832.046	0.0133901
832.124	0.0133485
832.203	0.0132038
832.281	0.0133060
832.359	0.0132812
832.437	0.0131435
832.515	0.0133746
832.593	0.0132327
832.671	0.0131966
832.749	0.0133144
832.828	0.0132941
832.906	0.0132082
832.984	0.0132063
833.062	0.0133773
833.140	0.0132272
833.218	0.0133203
833.296	0.0134254
833.374	0.0132423
833.453	0.0133018
833.531	0.0133958
833.609	0.0134184
833.687	0.0134108
833.765	0.0135377
833.843	0.0135399
833.921	0.0134381
833.999	0.0134936
834.078	0.0135062
834.156	0.0135056
834.234	0.0134541
834.312	0.0135006
834.390	0.0135267
834.468	0.0134692
834.546	0.0133684
834.624	0.0134313
834.703	0.0134910
834.781	0.0135236
834.859	0.0134376
834.937	0.0135108
835.015	0.0134528
835.093	0.0134226
835.171	0.0134267
835.249	0.0134042
835.328	0.0133365
835.406	0.0134999
835.484	0.0134253
835.562	0.0134369
835.640	0.0133385
835.718	0.0134471
835.796	0.0133575
835.874	0.0134892
835.953	0.0132881
836.031	0.0133426
836.109	0.0133095
836.187	0.0131883
836.265	0.0131286
836.343	0.0132262
836.421	0.0132034
836.499	0.0131446
836.578	0.0130414
836.656	0.0129546
836.734	0.0130339
836.812	0.0130621
836.890	0.0128453
836.968	0.0130313
837.046	0.0131525
837.124	0.0129926
837.203	0.0130907
837.281	0.0130471
837.359	0.0130421
837.437	0.0132726
837.515	0.0132092
837.593	0.0130497
837.671	0.0131320
837.749	0.0131971
837.828	0.0132516
837.906	0.0133471
837.984	0.0133237
838.062	0.0133441
838.140	0.0132906
838.218	0.0133281
838.296	0.0134094
838.374	0.0134399
838.453	0.0135103
838.531	0.0134053
838.609	0.0134410
838.687	0.0134151
838.765	0.0133994
838.843	0.0133901
838.921	0.0135765
838.999	0.0135753
839.078	0.0135182
839.156	0.0134924
839.234	0.0135701
839.312	0.0136031
839.390	0.0134758
839.468	0.0133372
839.546	0.0132520
839.624	0.0134109
839.703	0.0133833
839.781	0.0134192
839.859	0.0134972
839.937	0.0133978
840.015	0.0131950
840.093	0.0132954
840.171	0.0132593
840.249	0.0132270
840.328	0.0132378
840.406	0.0131818
840.484	0.0131622
840.562	0.0131161
840.640	0.0130177
840.718	0.0129994
840.796	0.0130536
840.874	0.0129469
840.953	0.0128451
841.031	0.0128513
841.109	0.0128867
841.187	0.0127849
841.265	0.0127037
841.343	0.0127608
841.421	0.0127468
841.499	0.0127839
841.578	0.0129816
841.656	0.0127548
841.734	0.0126743
841.812	0.0128939
841.890	0.0128795
841.968	0.0129610
842.046	0.0127920
842.124	0.0129624
842.203	0.0130247
842.281	0.0130251
842.359	0.0131177
842.437	0.0131106
842.515	0.0132102
842.593	0.0132814
842.671	0.0131532
842.749	0.0132619
842.828	0.0133434
842.906	0.0133797
842.984	0.0134398
843.062	0.0135331
843.140	0.0134929
843.218	0.0134863
843.296	0.0135638
843.374	0.0135468
843.453	0.0134814
843.531	0.0134731
843.609	0.0134139
843.687	0.0134010
843.765	0.0133021
843.843	0.0133024
843.921	0.0133026
843.999	0.0133737
844.078	0.0132369
844.156	0.0131992
844.234	0.0133244
844.312	0.0132503
844.390	0.0132442
844.468	0.0131955
844.546	0.0132061
844.624	0.0131892
844.703	0.0131762
844.781	0.0133000
844.859	0.0132800
844.937	0.0132482
845.015	0.0132888
845.093	0.0133080
845.171	0.0133886
845.249	0.0133479
845.328	0.0132732
845.406	0.0132910
845.484	0.0133400
845.562	0.0134135
845.640	0.0132529
845.718	0.0133373
845.796	0.0132558
845.874	0.0132162
845.953	0.0133110
846.031	0.0132117
846.109	0.0132575
846.187	0.0133276
846.265	0.0131763
846.343	0.0131782
846.421	0.0131838
846.499	0.0132483
846.578	0.0130274
846.656	0.0131284
846.734	0.0129446
846.812	0.0131247
846.890	0.0130502
846.968	0.0130677
847.046	0.0130815
847.124	0.0131018
847.203	0.0130916
847.281	0.0131773
847.359	0.0130817
847.437	0.0132438
847.515	0.0132298
847.593	0.0133059
847.671	0.0132351
847.749	0.0133790
847.828	0.0133712
847.906	0.0133157
847.984	0.0134561
848.062	0.0133781
848.140	0.0134471
848.218	0.0132941
848.296	0.0133276
848.374	0.0132381
848.453	0.0133980
848.531	0.0134782
848.609	0.0133883
848.687	0.0133636
848.765	0.0132613
848.843	0.0133143
848.921	0.0132525
848.999	0.0133501
849.078	0.0133617
849.156	0.0133433
849.234	0.0134415
849.312	0.0132719
849.390	0.0132768
849.468	0.0134219
849.546	0.0134896
849.624	0.0133861
849.703	0.0133978
849.781	0.0134645
849.859	0.0136054
849.937	0.0135136
850.015	0.0136801
850.093	0.0136282
850.171	0.0135815
850.249	0.0136109
850.328	0.0135221
850.406	0.0136494
850.484	0.0137373
850.562	0.0137821
850.640	0.0137453
850.718	0.0136282
850.796	0.0135149
850.874	0.0135981
850.953	0.0136302
851.031	0.0136668
851.109	0.0135500
851.187	0.0134216
851.265	0.0134149
851.343	0.0133390
851.421	0.0134433
851.499	0.0134911
851.578	0.0135275
851.656	0.0133219
851.734	0.0135305
851.812	0.0133562
851.890	0.0133878
851.968	0.0135168
852.046	0.0134687
852.124	0.0133872
852.203	0.0134244
852.281	0.0132671
852.359	0.0132192
852.437	0.0132632
852.515	0.0132246
852.593	0.0131215
852.671	0.0130877
852.749	0.0132213
852.828	0.0130499
852.906	0.0132023
852.984	0.0132822
853.062	0.0132253
853.140	0.0130105
853.218	0.0131509
853.296	0.0133028
853.374	0.0133656
853.453	0.0131735
853.531	0.0132510
853.609	0.0133428
853.687	0.0134824
853.765	0.0135410
853.843	0.0134824
853.921	0.0136799
853.999	0.0137199
854.078	0.0137798
854.156	0.0138188
854.234	0.0137110
854.312	0.0137340
854.390	0.0136224
854.468	0.0136102
854.546	0.0136678
854.624	0.0136382
854.703	0.0134708
854.781	0.0135737
854.859	0.0134005
854.937	0.0133858
855.015	0.0133469
855.093	0.0133054
855.171	0.0132043
855.249	0.0132808
855.328	0.0131434
855.406	0.0131108
855.484	0.0131297
855.562	0.0132481
855.640	0.0131779
855.718	0.0131751
855.796	0.0130512
855.874	0.0130592
855.953	0.0130980
856.031	0.0131352
856.109	0.0130463
856.187	0.0129703
856.265	0.0130076
856.343	0.0129794
856.421	0.0130889
856.499	0.0131519
856.578	0.0132314
856.656	0.0132067
856.734	0.0131545
856.812	0.0131850
856.890	0.0132030
856.968	0.0131741
857.046	0.0132574
857.124	0.0130137
857.203	0.0131778
857.281	0.0132237
857.359	0.0132742
857.437	0.0132332
857.515	0.0133707
857.593	0.0133152
857.671	0.0131837
857.749	0.0133498
857.828	0.0133614
857.906	0.0132979
857.984	0.0133341
858.062	0.0135149
858.140	0.0133171
858.218	0.0134450
858.296	0.0132845
858.374	0.0133534
858.453	0.0133738
858.531	0.0135778
858.609	0.0135601
858.687	0.0135042
858.765	0.0134963
858.843	0.0134624
858.921	0.0135400
858.999	0.0134685
859.078	0.0135159
859.156	0.0135407
859.234	0.0137420
859.312	0.0136737
859.390	0.0135236
859.468	0.0135162
859.546	0.0134485
859.624	0.0134911
859.703	0.0135822
859.781	0.0133247
859.859	0.0133573
859.937	0.0134987
860.015	0.0133974
860.093	0.0132487
860.171	0.0131818
860.249	0.0133511
860.328	0.0133244
860.406	0.0133131
860.484	0.0132404
860.562	0.0133257
860.640	0.0132977
860.718	0.0133884
860.796	0.0133894
860.874	0.0133659
860.953	0.0133294
861.031	0.0134173
861.109	0.0133450
861.187	0.0132761
861.265	0.0133801
861.343	0.0133656
861.421	0.0133036
861.499	0.0133920
861.578	0.0133388
861.656	0.0132851
861.734	0.0132256
861.812	0.0132564
861.890	0.0131372
861.968	0.0130742
862.046	0.0131687
862.124	0.0131788
862.203	0.0130068
862.281	0.0130647
862.359	0.0131355
862.437	0.0131280
862.515	0.0132755
862.593	0.0131102
862.671	0.0130847
862.749	0.0132092
862.828	0.0132542
862.906	0.0130690
862.984	0.0132492
863.062	0.0133068
863.140	0.0132536
863.218	0.0131764
863.296	0.0133717
863.374	0.0133410
863.453	0.0132333
863.531	0.0132899
863.609	0.0134738
863.687	0.0133186
863.765	0.0132030
863.843	0.0133434
863.921	0.0134274
863.999	0.0134579
864.078	0.0134210
864.156	0.0134297
864.234	0.0133287
864.312	0.0134124
864.390	0.0134325
864.468	0.0134022
864.546	0.0134542
864.624	0.0134512
864.703	0.0134019
864.781	0.0134663
864.859	0.0132400
864.937	0.0132054
865.015	0.0133231
865.093	0.0132088
865.171	0.0133324
865.249	0.0131661
865.328	0.0131178
865.406	0.0131802
865.484	0.0130038
865.562	0.0129417
865.640	0.0129727
865.718	0.0130544
865.796	0.0131281
865.874	0.0129556
865.953	0.0128903
866.031	0.0129325
866.109	0.0130398
866.187	0.0130696
866.265	0.0130053
866.343	0.0130815
866.421	0.0131458
866.499	0.0129624
866.578	0.0130955
866.656	0.0131718
866.734	0.0132012
866.812	0.0132017
866.890	0.0129719
866.968	0.0131123
867.046	0.0131746
867.124	0.0132055
867.203	0.0132921
867.281	0.0132942
867.359	0.0132016
867.437	0.0132656
867.515	0.0134019
867.593	0.0133487
867.671	0.0133055
867.749	0.0132375
867.828	0.0134627
867.906	0.0132353
867.984	0.0133440
868.062	0.0133634
868.140	0.0135123
868.218	0.0132822
868.296	0.0133024
868.374	0.0134557
868.453	0.0133973
868.531	0.0134904
868.609	0.0134795
868.687	0.0133881
868.765	0.0135197
868.843	0.0134842
868.921	0.0134444
868.999	0.0134628
869.078	0.0133553
869.156	0.0134631
869.234	0.0133331
869.312	0.0133739
869.390	0.0133887
869.468	0.0134689
869.546	0.0133116
869.624	0.0133173
869.703	0.0134085
869.781	0.0133048
869.859	0.0131670
869.937	0.0132221
870.015	0.0132292
870.093	0.0131658
870.171	0.0132318
870.249	0.0131059
870.328	0.0130837
870.406	0.0132302
870.484	0.0131792
870.562	0.0132682
870.640	0.0131421
870.718	0.0131596
870.796	0.0133042
870.874	0.0134078
870.953	0.0133900
871.031	0.0133785
871.109	0.0133105
871.187	0.0134035
871.265	0.0135000
871.343	0.0135529
871.421	0.0135416
871.499	0.0135339
871.578	0.0134095
871.656	0.0135568
871.734	0.0136205
871.812	0.0135226
871.890	0.0135355
871.968	0.0135516
872.046	0.0133852
872.124	0.0134983
872.203	0.0133936
872.281	0.0135048
872.359	0.0133298
872.437	0.0133376
872.515	0.0133398
872.593	0.0132632
872.671	0.0132918
872.749	0.0135362
872.828	0.0132188
872.906	0.0131062
872.984	0.0132936
873.062	0.0132906
873.140	0.0132152
873.218	0.0133739
873.296	0.0132111
873.374	0.0132175
873.453	0.0134199
873.531	0.0132999
873.609	0.0131046
873.687	0.0133681
873.765	0.0134823
873.843	0.0134486
873.921	0.0133611
873.999	0.0135578
874.078	0.0135706
874.156	0.0136184
874.234	0.0135906
874.312	0.0134766
874.390	0.0136272
874.468	0.0135577
874.546	0.0136713
874.624	0.0135289
874.703	0.0133951
874.781	0.0136099
874.859	0.0134039
874.937	0.0134927
875.015	0.0135587
875.093	0.0135887
875.171	0.0135399
875.249	0.0135299
875.328	0.0135913
875.406	0.0136562
875.484	0.0135452
875.562	0.0134946
875.640	0.0135918
875.718	0.0136029
875.796	0.0134836
875.874	0.0134052
875.953	0.0135523
876.031	0.0134906
876.109	0.0135770
876.187	0.0133871
876.265	0.0134509
876.343	0.0132626
876.421	0.0132849
876.499	0.0134068
876.578	0.0134423
876.656	0.0133499
876.734	0.0133596
876.812	0.0134171
876.890	0.0133906
876.968	0.0132923
877.046	0.0132745
877.124	0.0131886
877.203	0.0132057
877.281	0.0133578
877.359	0.0132028
877.437	0.0132278
877.515	0.0133392
877.593	0.0132653
877.671	0.0131296
877.749	0.0131660
877.828	0.0132825
877.906	0.0131633
877.984	0.0132568
878.062	0.0132333
878.140	0.0132442
878.218	0.0133254
878.296	0.0130898
878.374	0.0132169
878.453	0.0132170
878.531	0.0132735
878.609	0.0133235
878.687	0.0132740
878.765	0.0132969
878.843	0.0133039
878.921	0.0133678
878.999	0.0134616
879.078	0.0133612
879.156	0.0133164
879.234	0.0135470
879.312	0.0134069
879.390	0.0134648
879.468	0.0134795
879.546	0.0133733
879.624	0.0134440
879.703	0.0134084
879.781	0.0133656
879.859	0.0132510
879.937	0.0132926
880.015	0.0133781
880.093	0.0132740
880.171	0.0131379
880.249	0.0131805
880.328	0.0131133
880.406	0.0132196
880.484	0.0130377
880.562	0.0128732
880.640	0.0128905
880.718	0.0127496
880.796	0.0127250
880.874	0.0127801
880.953	0.0127428
881.031	0.0127216
881.109	0.0128058
881.187	0.0128703
881.265	0.0129351
881.343	0.0127796
881.421	0.0127482
881.499	0.0127903
881.578	0.0129703
881.656	0.0129182
881.734	0.0130187
881.812	0.0130822
881.890	0.0129903
881.968	0.0129995
882.046	0.0130974
882.124	0.0131600
882.203	0.0131264
882.281	0.0131565
882.359	0.0131240
882.437	0.0132758
882.515	0.0131812
882.593	0.0131412
882.671	0.0132711
882.749	0.0131332
882.828	0.0132475
882.906	0.0132604
882.984	0.0133555
883.062	0.0134428
883.140	0.0134174
883.218	0.0133811
883.296	0.0132763
883.374	0.0135712
883.453	0.0134344
883.531	0.0135152
883.609	0.0133503
883.687	0.0134030
883.765	0.0134603
883.843	0.0132097
883.921	0.0132690
883.999	0.0133189
884.078	0.0131841
884.156	0.0132345
884.234	0.0130890
884.312	0.0129958
884.390	0.0130679
884.468	0.0132227
884.546	0.0131186
884.624	0.0130356
884.703	0.0130314
884.781	0.0130212
884.859	0.0129882
884.937	0.0130804
885.015	0.0129848
885.093	0.0131964
885.171	0.0132227
885.249	0.0132110
885.328	0.0131351
885.406	0.0131418
885.484	0.0130691
885.562	0.0132240
885.640	0.0131541
885.718	0.0131869
885.796	0.0131590
885.874	0.0132993
885.953	0.0131530
886.031	0.0131683
886.109	0.0133498
886.187	0.0132932
886.265	0.0132421
886.343	0.0131833
886.421	0.0132317
886.499	0.0134357
886.578	0.0133662
886.656	0.0132982
886.734	0.0133893
886.812	0.0134669
886.890	0.0133666
886.968	0.0135006
887.046	0.0134760
887.124	0.0133972
887.203	0.0134157
887.281	0.0134142
887.359	0.0135185
887.437	0.0134097
887.515	0.0134048
887.593	0.0134432
887.671	0.0133164
887.749	0.0132363
887.828	0.0133028
887.906	0.0133113
887.984	0.0132862
888.062	0.0131880
888.140	0.0131018
888.218	0.0130681
888.296	0.0131282
888.374	0.0130472
888.453	0.0130707
888.531	0.0129935
888.609	0.0129919
888.687	0.0130208
888.765	0.0131354
888.843	0.0130200
888.921	0.0130663
888.999	0.0131307
889.078	0.0131148
889.156	0.0131567
889.234	0.0131966
889.312	0.0131626
889.390	0.0132075
889.468	0.0131752
889.546	0.0130484
889.624	0.0131093
889.703	0.0132108
889.781	0.0132961
889.859	0.0131738
889.937	0.0131223
890.015	0.0131955
890.093	0.0130476
890.171	0.0131659
890.249	0.0131872
890.328	0.0130755
890.406	0.0131580
890.484	0.0130771
890.562	0.0131438
890.640	0.0131752
890.718	0.0130920
890.796	0.0130315
890.874	0.0132668
890.953	0.0131121
891.031	0.0130439
891.109	0.0131585
891.187	0.0131470
891.265	0.0131424
891.343	0.0131361
891.421	0.0130945
891.499	0.0133473
891.578	0.0131295
891.656	0.0131339
891.734	0.0133062
891.812	0.0133038
891.890	0.0132367
891.968	0.0131499
892.046	0.0130967
892.124	0.0132298
892.203	0.0132272
892.281	0.0131667
892.359	0.0133125
892.437	0.0131322
892.515	0.0131876
892.593	0.0133343
892.671	0.0132359
892.749	0.0132240
892.828	0.0130829
892.906	0.0132545
892.984	0.0133884
893.062	0.0133371
893.140	0.0133806
893.218	0.0132230
893.296	0.0132633
893.374	0.0132809
893.453	0.0133348
893.531	0.0133317
893.609	0.0134230
893.687	0.0133350
893.765	0.0133388
893.843	0.0132753
893.921	0.0134045
893.999	0.0132967
894.078	0.0133230
894.156	0.0133573
894.234	0.0133708
894.312	0.0133993
894.390	0.0132855
894.468	0.0134121
894.546	0.0133497
894.624	0.0133230
894.703	0.0132812
894.781	0.0132705
894.859	0.0131693
894.937	0.0131529
895.015	0.0131570
895.093	0.0131866
895.171	0.0131432
895.249	0.0130629
895.328	0.0133058
895.406	0.0133084
895.484	0.0131468
895.562	0.0131977
895.640	0.0133070
895.718	0.0132368
895.796	0.0131536
895.874	0.0134607
895.953	0.0132494
896.031	0.0133177
896.109	0.0135219
896.187	0.0134068
896.265	0.0133997
896.343	0.0133096
896.421	0.0134850
896.499	0.0133729
896.578	0.0134680
896.656	0.0134967
896.734	0.0133083
896.812	0.0135469
896.890	0.0136008
896.968	0.0134547
897.046	0.0134451
897.124	0.0135841
897.203	0.0135210
897.281	0.0134216
897.359	0.0135989
897.437	0.0134103
897.515	0.0133056
897.593	0.0134192
897.671	0.0134085
897.749	0.0133670
897.828	0.0135258
897.906	0.0134148
897.984	0.0132552
898.062	0.0135900
898.140	0.0133189
898.218	0.0132771
898.296	0.0134637
898.374	0.0133568
898.453	0.0132991
898.531	0.0133064
898.609	0.0132818
898.687	0.0131774
898.765	0.0132874
898.843	0.0132957
898.921	0.0131340
898.999	0.0132264
899.078	0.0132664
899.156	0.0131526
899.234	0.0132724
899.312	0.0131323
899.390	0.0132712
899.468	0.0132498
899.546	0.0131347
899.624	0.0131835
899.703	0.0133314
899.781	0.0132935
899.859	0.0132112
899.937	0.0130771
900.015	0.0130341
900.093	0.0132395
900.171	0.0130576
900.249	0.0129437
900.328	0.0130800
900.406	0.0129861
900.484	0.0129836
900.562	0.0130057
900.640	0.0129290
900.718	0.0130216
900.796	0.0130614
900.874	0.0130717
900.953	0.0130315
901.031	0.0131561
901.109	0.0132821
901.187	0.0132574
901.265	0.0132239
901.343	0.0132315
901.421	0.0132369
901.499	0.0132084
901.578	0.0134764
901.656	0.0132271
901.734	0.0133206
901.812	0.0132609
901.890	0.0134223
901.968	0.0133135
902.046	0.0133363
902.124	0.0133775
902.203	0.0133815
902.281	0.0133569
902.359	0.0134275
902.437	0.0132691
902.515	0.0132305
902.593	0.0132290
902.671	0.0133189
902.749	0.0133231
902.828	0.0131981
902.906	0.0132076
902.984	0.0130644
903.062	0.0130830
903.140	0.0131480
903.218	0.0131562
903.296	0.0129971
903.374	0.0130244
903.453	0.0131032
903.531	0.0128906
903.609	0.0131182
903.687	0.0130529
903.765	0.0129975
903.843	0.0130068
903.921	0.0129991
903.999	0.0130718
904.078	0.0130186
904.156	0.0131097
904.234	0.0129880
904.312	0.0129884
904.390	0.0130681
904.468	0.0131342
904.546	0.0130916
904.624	0.0130433
904.703	0.0131203
904.781	0.0129792
904.859	0.0131039
904.937	0.0130968
905.015	0.0131191
905.093	0.0131329
905.171	0.0130326
905.249	0.0133164
905.328	0.0131748
905.406	0.0130035
905.484	0.0130877
905.562	0.0130933
905.640	0.0131849
905.718	0.0131707
905.796	0.0133183
905.874	0.0130719
905.953	0.0131623
906.031	0.0132358
906.109	0.0131398
906.187	0.0132937
906.265	0.0131674
906.343	0.0131989
906.421	0.0133392
906.499	0.0131335
906.578	0.0132198
906.656	0.0132449
906.734	0.0132250
906.812	0.0133165
906.890	0.0132719
906.968	0.0132509
907.046	0.0132504
907.124	0.0134307
907.203	0.0133720
907.281	0.0134351
907.359	0.0134845
907.437	0.0133123
907.515	0.0133328
907.593	0.0134123
907.671	0.0134096
907.749	0.0134639
907.828	0.0134339
907.906	0.0134103
907.984	0.0135139
908.062	0.0132961
908.140	0.0134451
908.218	0.0133759
908.296	0.0134702
908.374	0.0134431
908.453	0.0134304
908.531	0.0133369
908.609	0.0133951
908.687	0.0134489
908.765	0.0133019
908.843	0.0134669
908.921	0.0134732
908.999	0.0133729
909.078	0.0132986
909.156	0.0133176
909.234	0.0133744
909.312	0.0133215
909.390	0.0133362
909.468	0.0132507
909.546	0.0133369
909.624	0.0131860
909.703	0.0132431
909.781	0.0132072
909.859	0.0131488
909.937	0.0132498
910.015	0.0131957
910.093	0.0132338
910.171	0.0131858
910.249	0.0132545
910.328	0.0132582
910.406	0.0131710
910.484	0.0133846
910.562	0.0131882
910.640	0.0131403
910.718	0.0132410
910.796	0.0131445
910.874	0.0132481
910.953	0.0131956
911.031	0.0133389
911.109	0.0132885
911.187	0.0132444
911.265	0.0132040
911.343	0.0132397
911.421	0.0132617
911.499	0.0132238
911.578	0.0133073
911.656	0.0133355
911.734	0.0132235
911.812	0.0133452
911.890	0.0132898
911.968	0.0132940
912.046	0.0134169
912.124	0.0132380
912.203	0.0132972
912.281	0.0133573
912.359	0.0132673
912.437	0.0133681
912.515	0.0133994
912.593	0.0133322
912.671	0.0134065
912.749	0.0133330
912.828	0.0133578
912.906	0.0135293
912.984	0.0134370
913.062	0.0131903
913.140	0.0133255
913.218	0.0134905
913.296	0.0132748
913.374	0.0131661
913.453	0.0133346
913.531	0.0132834
913.609	0.0133746
913.687	0.0133490
913.765	0.0132671
913.843	0.0132718
913.921	0.0133417
913.999	0.0133727
914.078	0.0132474
914.156	0.0132124
914.234	0.0133421
914.312	0.0133023
914.390	0.0133691
914.468	0.0133350
914.546	0.0132583
914.624	0.0131904
914.703	0.0132626
914.781	0.0134322
914.859	0.0134875
914.937	0.0133267
915.015	0.0133588
915.093	0.0133205
915.171	0.0132961
915.249	0.0134209
915.328	0.0134559
915.406	0.0132851
915.484	0.0133660
915.562	0.0134332
915.640	0.0135294
915.718	0.0133012
915.796	0.0132980
915.874	0.0132671
915.953	0.0133038
916.031	0.0133369
916.109	0.0131933
916.187	0.0133549
916.265	0.0132642
916.343	0.0132929
916.421	0.0133273
916.499	0.0132655
916.578	0.0132015
916.656	0.0132952
916.734	0.0132948
916.812	0.0132298
916.890	0.0134481
916.968	0.0132048
917.046	0.0132703
917.124	0.0133028
917.203	0.0135087
917.281	0.0133071
917.359	0.0134795
917.437	0.0134452
917.515	0.0133331
917.593	0.0131953
917.671	0.0134116
917.749	0.0133649
917.828	0.0132138
917.906	0.0133449
917.984	0.0133064
918.062	0.0132764
918.140	0.0132065
918.218	0.0132971
918.296	0.0133549
918.374	0.0132748
918.453	0.0132751
918.531	0.0133017
918.609	0.0133018
918.687	0.0134219
918.765	0.0132232
918.843	0.0133887
918.921	0.0136012
918.999	0.0134049
919.078	0.0134023
919.156	0.0133760
919.234	0.0133875
919.312	0.0133700
919.390	0.0134299
919.468	0.0135211
919.546	0.0134503
919.624	0.0134309
919.703	0.0135973
919.781	0.0134126
919.859	0.0135675
919.937	0.0135139
