05/08/2022	20:13:36	Ver.	4.1	UNKNOWN
Optical Delay	600.015094	Delta X		0.078125	Sweeps	1	Scan Rate	0/0
Coordinates	Axis 1	NaN	Axis 2	NaN	Axis 3	NaN	Axis 4	NaN	Axis 5	NaN	Axis 6	0.000000
TX Power	0.000000	RX Power	0.000000

600.015	0.0138279
600.093	0.0140969
600.171	0.0140815
600.249	0.0137959
600.328	0.0139293
600.406	0.0138630
600.484	0.0140762
600.562	0.0140750
600.640	0.0140111
600.718	0.0138713
600.796	0.0140266
600.874	0.0139981
600.953	0.0139785
601.031	0.0140298
601.109	0.0139518
601.187	0.0139650
601.265	0.0138255
601.343	0.0138020
601.421	0.0138678
601.499	0.0139706
601.578	0.0138875
601.656	0.0139977
601.734	0.0139367
601.812	0.0138987
601.890	0.0140138
601.968	0.0140077
602.046	0.0139420
602.124	0.0139351
602.203	0.0139191
602.281	0.0140516
602.359	0.0140112
602.437	0.0140083
602.515	0.0139035
602.593	0.0139855
602.671	0.0139094
602.749	0.0139655
602.828	0.0139088
602.906	0.0140244
602.984	0.0140620
603.062	0.0138618
603.140	0.0139322
603.218	0.0138209
603.296	0.0138845
603.374	0.0138210
603.453	0.0139477
603.531	0.0139692
603.609	0.0138136
603.687	0.0139767
603.765	0.0139125
603.843	0.0139373
603.921	0.0136872
603.999	0.0137399
604.078	0.0139857
604.156	0.0139034
604.234	0.0138291
604.312	0.0138255
604.390	0.0137773
604.468	0.0137734
604.546	0.0138091
604.624	0.0137173
604.703	0.0137549
604.781	0.0138725
604.859	0.0138062
604.937	0.0136198
605.015	0.0136936
605.093	0.0137280
605.171	0.0136669
605.249	0.0137834
605.328	0.0136371
605.406	0.0136184
605.484	0.0136710
605.562	0.0137017
605.640	0.0135305
605.718	0.0135886
605.796	0.0136796
605.874	0.0134992
605.953	0.0135169
606.031	0.0136426
606.109	0.0134696
606.187	0.0134145
606.265	0.0136163
606.343	0.0135835
606.421	0.0135145
606.499	0.0134313
606.578	0.0135167
606.656	0.0134559
606.734	0.0133957
606.812	0.0134530
606.890	0.0134716
606.968	0.0132658
607.046	0.0135439
607.124	0.0132888
607.203	0.0133940
607.281	0.0132809
607.359	0.0133721
607.437	0.0136460
607.515	0.0132533
607.593	0.0133375
607.671	0.0134599
607.749	0.0133407
607.828	0.0135489
607.906	0.0134488
607.984	0.0133022
608.062	0.0133767
608.140	0.0133263
608.218	0.0134792
608.296	0.0135343
608.374	0.0134720
608.453	0.0135067
608.531	0.0133086
608.609	0.0134103
608.687	0.0135076
608.765	0.0134401
608.843	0.0134136
608.921	0.0134486
608.999	0.0134516
609.078	0.0134133
609.156	0.0133908
609.234	0.0133148
609.312	0.0133947
609.390	0.0133672
609.468	0.0133954
609.546	0.0134245
609.624	0.0135871
609.703	0.0133259
609.781	0.0133381
609.859	0.0135129
609.937	0.0135049
610.015	0.0135707
610.093	0.0134082
610.171	0.0133816
610.249	0.0135101
610.328	0.0134653
610.406	0.0135275
610.484	0.0134826
610.562	0.0133927
610.640	0.0134979
610.718	0.0135526
610.796	0.0135043
610.874	0.0135841
610.953	0.0135331
611.031	0.0135215
611.109	0.0135495
611.187	0.0134229
611.265	0.0134860
611.343	0.0135887
611.421	0.0135327
611.499	0.0134386
611.578	0.0135815
611.656	0.0135992
611.734	0.0136244
611.812	0.0135974
611.890	0.0134252
611.968	0.0135538
612.046	0.0136339
612.124	0.0135537
612.203	0.0136505
612.281	0.0136180
612.359	0.0135206
612.437	0.0135516
612.515	0.0135620
612.593	0.0135764
612.671	0.0135293
612.749	0.0135963
612.828	0.0135109
612.906	0.0133207
612.984	0.0135091
613.062	0.0136100
613.140	0.0135385
613.218	0.0134351
613.296	0.0134263
613.374	0.0134979
613.453	0.0135674
613.531	0.0134499
613.609	0.0134392
613.687	0.0135104
613.765	0.0134609
613.843	0.0136577
613.921	0.0134807
613.999	0.0134237
614.078	0.0135653
614.156	0.0135953
614.234	0.0135975
614.312	0.0135352
614.390	0.0137124
614.468	0.0135209
614.546	0.0136756
614.624	0.0136026
614.703	0.0136020
614.781	0.0137110
614.859	0.0135986
614.937	0.0135598
615.015	0.0136542
615.093	0.0136233
615.171	0.0135150
615.249	0.0134703
615.328	0.0136734
615.406	0.0135535
615.484	0.0136270
615.562	0.0136614
615.640	0.0135943
615.718	0.0136941
615.796	0.0136668
615.874	0.0136752
615.953	0.0137445
616.031	0.0137368
616.109	0.0136315
616.187	0.0136891
616.265	0.0139292
616.343	0.0137148
616.421	0.0137024
616.499	0.0138121
616.578	0.0136646
616.656	0.0137819
616.734	0.0135774
616.812	0.0137576
616.890	0.0137093
616.968	0.0135584
617.046	0.0136534
617.124	0.0136906
617.203	0.0135933
617.281	0.0137126
617.359	0.0136157
617.437	0.0136965
617.515	0.0136969
617.593	0.0136831
617.671	0.0136154
617.749	0.0137640
617.828	0.0137913
617.906	0.0135351
617.984	0.0137176
618.062	0.0136237
618.140	0.0137260
618.218	0.0136994
618.296	0.0136571
618.374	0.0136948
618.453	0.0136994
618.531	0.0137173
618.609	0.0137442
618.687	0.0138120
618.765	0.0135532
618.843	0.0137936
618.921	0.0137207
618.999	0.0136904
619.078	0.0137148
619.156	0.0136934
619.234	0.0136884
619.312	0.0137735
619.390	0.0136922
619.468	0.0137189
619.546	0.0138252
619.624	0.0136871
619.703	0.0136761
619.781	0.0136775
619.859	0.0135632
619.937	0.0136514
620.015	0.0136703
620.093	0.0137395
620.171	0.0136327
620.249	0.0136181
620.328	0.0135152
620.406	0.0136440
620.484	0.0137715
620.562	0.0136133
620.640	0.0135667
620.718	0.0136375
620.796	0.0136583
620.874	0.0135752
620.953	0.0137782
621.031	0.0136167
621.109	0.0135924
621.187	0.0136462
621.265	0.0136195
621.343	0.0137749
621.421	0.0137366
621.499	0.0136907
621.578	0.0136391
621.656	0.0136263
621.734	0.0137081
621.812	0.0137705
621.890	0.0136707
621.968	0.0136462
622.046	0.0137952
622.124	0.0137000
622.203	0.0137543
622.281	0.0137051
622.359	0.0136982
622.437	0.0137025
622.515	0.0136733
622.593	0.0136974
622.671	0.0136841
622.749	0.0137208
622.828	0.0137335
622.906	0.0138638
622.984	0.0139050
623.062	0.0136774
623.140	0.0138307
623.218	0.0138075
623.296	0.0137291
623.374	0.0136873
623.453	0.0136604
623.531	0.0136746
623.609	0.0137417
623.687	0.0138427
623.765	0.0136752
623.843	0.0137340
623.921	0.0138029
623.999	0.0136808
624.078	0.0137887
624.156	0.0136497
624.234	0.0137103
624.312	0.0137643
624.390	0.0138198
624.468	0.0137679
624.546	0.0139442
624.624	0.0137806
624.703	0.0136340
624.781	0.0136638
624.859	0.0136640
624.937	0.0137280
625.015	0.0136933
625.093	0.0137004
625.171	0.0137199
625.249	0.0137082
625.328	0.0136987
625.406	0.0137955
625.484	0.0137590
625.562	0.0135592
625.640	0.0137897
625.718	0.0136993
625.796	0.0137276
625.874	0.0137934
625.953	0.0137144
626.031	0.0135795
626.109	0.0136829
626.187	0.0136229
626.265	0.0135646
626.343	0.0136701
626.421	0.0136549
626.499	0.0138026
626.578	0.0137319
626.656	0.0136045
626.734	0.0136913
626.812	0.0137379
626.890	0.0138179
626.968	0.0137861
627.046	0.0136942
627.124	0.0136796
627.203	0.0136760
627.281	0.0137578
627.359	0.0136469
627.437	0.0136528
627.515	0.0136626
627.593	0.0138553
627.671	0.0136649
627.749	0.0136308
627.828	0.0137148
627.906	0.0137022
627.984	0.0137393
628.062	0.0137071
628.140	0.0135793
628.218	0.0137349
628.296	0.0137006
628.374	0.0135469
628.453	0.0135300
628.531	0.0136387
628.609	0.0135790
628.687	0.0135563
628.765	0.0136028
628.843	0.0135876
628.921	0.0136229
628.999	0.0135706
629.078	0.0135957
629.156	0.0135693
629.234	0.0135901
629.312	0.0136179
629.390	0.0136862
629.468	0.0135761
629.546	0.0135843
629.624	0.0135954
629.703	0.0134989
629.781	0.0135023
629.859	0.0135705
629.937	0.0135912
630.015	0.0135453
630.093	0.0135488
630.171	0.0136654
630.249	0.0136197
630.328	0.0134175
630.406	0.0135695
630.484	0.0135571
630.562	0.0134704
630.640	0.0135464
630.718	0.0136578
630.796	0.0135463
630.874	0.0135911
630.953	0.0135618
631.031	0.0134209
631.109	0.0134536
631.187	0.0135675
631.265	0.0136609
631.343	0.0135940
631.421	0.0136617
631.499	0.0135822
631.578	0.0136508
631.656	0.0135008
631.734	0.0135345
631.812	0.0135183
631.890	0.0135968
631.968	0.0134753
632.046	0.0136251
632.124	0.0135000
632.203	0.0136014
632.281	0.0135633
632.359	0.0134693
632.437	0.0135794
632.515	0.0134924
632.593	0.0135182
632.671	0.0136179
632.749	0.0136869
632.828	0.0136563
632.906	0.0136584
632.984	0.0134515
633.062	0.0136420
633.140	0.0137110
633.218	0.0137087
633.296	0.0136729
633.374	0.0137502
633.453	0.0136374
633.531	0.0135980
633.609	0.0136013
633.687	0.0136179
633.765	0.0137695
633.843	0.0136618
633.921	0.0135699
633.999	0.0136845
634.078	0.0135860
634.156	0.0135915
634.234	0.0136829
634.312	0.0137679
634.390	0.0135495
634.468	0.0135512
634.546	0.0135774
634.624	0.0136358
634.703	0.0137025
634.781	0.0136542
634.859	0.0135820
634.937	0.0134648
635.015	0.0134416
635.093	0.0135379
635.171	0.0136118
635.249	0.0135441
635.328	0.0134413
635.406	0.0134427
635.484	0.0135421
635.562	0.0135380
635.640	0.0133902
635.718	0.0134666
635.796	0.0136949
635.874	0.0135568
635.953	0.0134709
636.031	0.0135464
636.109	0.0134293
636.187	0.0135463
636.265	0.0135703
636.343	0.0135564
636.421	0.0134825
636.499	0.0135717
636.578	0.0135655
636.656	0.0134755
636.734	0.0134439
636.812	0.0135935
636.890	0.0135633
636.968	0.0135915
637.046	0.0134724
637.124	0.0136250
637.203	0.0135378
637.281	0.0135342
637.359	0.0133828
637.437	0.0135172
637.515	0.0135023
637.593	0.0134775
637.671	0.0133826
637.749	0.0134307
637.828	0.0136400
637.906	0.0136501
637.984	0.0135429
638.062	0.0134548
638.140	0.0135255
638.218	0.0133823
638.296	0.0135000
638.374	0.0133672
638.453	0.0136210
638.531	0.0133794
638.609	0.0132858
638.687	0.0135020
638.765	0.0135583
638.843	0.0134285
638.921	0.0133423
638.999	0.0133974
639.078	0.0133051
639.156	0.0132977
639.234	0.0133810
639.312	0.0133340
639.390	0.0133978
639.468	0.0135139
639.546	0.0133945
639.624	0.0134211
639.703	0.0135645
639.781	0.0134884
639.859	0.0133591
639.937	0.0135216
640.015	0.0134650
640.093	0.0135738
640.171	0.0136560
640.249	0.0135840
640.328	0.0134438
640.406	0.0133948
640.484	0.0134549
640.562	0.0134791
640.640	0.0134488
640.718	0.0135909
640.796	0.0135892
640.874	0.0134653
640.953	0.0134834
641.031	0.0135658
641.109	0.0135558
641.187	0.0136395
641.265	0.0136343
641.343	0.0135642
641.421	0.0135603
641.499	0.0135740
641.578	0.0137588
641.656	0.0137798
641.734	0.0137760
641.812	0.0136667
641.890	0.0136890
641.968	0.0136433
642.046	0.0137767
642.124	0.0137303
642.203	0.0138815
642.281	0.0138231
642.359	0.0138902
642.437	0.0140583
642.515	0.0141117
642.593	0.0140536
642.671	0.0140594
642.749	0.0140559
642.828	0.0141934
642.906	0.0140620
642.984	0.0139896
643.062	0.0139870
643.140	0.0140041
643.218	0.0139567
643.296	0.0139340
643.374	0.0139122
643.453	0.0136687
643.531	0.0137997
643.609	0.0137660
643.687	0.0137880
643.765	0.0136486
643.843	0.0135214
643.921	0.0136539
643.999	0.0137027
644.078	0.0137159
644.156	0.0137103
644.234	0.0138330
644.312	0.0140808
644.390	0.0138012
644.468	0.0141255
644.546	0.0139551
644.624	0.0140363
644.703	0.0141767
644.781	0.0141765
644.859	0.0142381
644.937	0.0141956
645.015	0.0142689
645.093	0.0141695
645.171	0.0142939
645.249	0.0142224
645.328	0.0141206
645.406	0.0141750
645.484	0.0140051
645.562	0.0140518
645.640	0.0139185
645.718	0.0139155
645.796	0.0137746
645.874	0.0136359
645.953	0.0135619
646.031	0.0133880
646.109	0.0133018
646.187	0.0132424
646.265	0.0133138
646.343	0.0132288
646.421	0.0131736
646.499	0.0132473
646.578	0.0133465
646.656	0.0134958
646.734	0.0135039
646.812	0.0135722
646.890	0.0134950
646.968	0.0136328
647.046	0.0137567
647.124	0.0137972
647.203	0.0138657
647.281	0.0139682
647.359	0.0139754
647.437	0.0140415
647.515	0.0139907
647.593	0.0139623
647.671	0.0140337
647.749	0.0140929
647.828	0.0141321
647.906	0.0141809
647.984	0.0140705
648.062	0.0141174
648.140	0.0140582
648.218	0.0140132
648.296	0.0140350
648.374	0.0139249
648.453	0.0138373
648.531	0.0136227
648.609	0.0134567
648.687	0.0132832
648.765	0.0132628
648.843	0.0130524
648.921	0.0129279
648.999	0.0127805
649.078	0.0127209
649.156	0.0126624
649.234	0.0126966
649.312	0.0126383
649.390	0.0126580
649.468	0.0130062
649.546	0.0130298
649.624	0.0130797
649.703	0.0133119
649.781	0.0134210
649.859	0.0136192
649.937	0.0136940
650.015	0.0137280
650.093	0.0140315
650.171	0.0142407
650.249	0.0142959
650.328	0.0144571
650.406	0.0145460
650.484	0.0147838
650.562	0.0148129
650.640	0.0148756
650.718	0.0147470
650.796	0.0148283
650.874	0.0147711
650.953	0.0146935
651.031	0.0144811
651.109	0.0141751
651.187	0.0139064
651.265	0.0136756
651.343	0.0133111
651.421	0.0129598
651.499	0.0126131
651.578	0.0124331
651.656	0.0123080
651.734	0.0120573
651.812	0.0118925
651.890	0.0118279
651.968	0.0118449
652.046	0.0117637
652.124	0.0119585
652.203	0.0120110
652.281	0.0122616
652.359	0.0123315
652.437	0.0124681
652.515	0.0126407
652.593	0.0129165
652.671	0.0131439
652.749	0.0134415
652.828	0.0135966
652.906	0.0138569
652.984	0.0142281
653.062	0.0143640
653.140	0.0145683
653.218	0.0148574
653.296	0.0150830
653.374	0.0153212
653.453	0.0154745
653.531	0.0154456
653.609	0.0155146
653.687	0.0154819
653.765	0.0154868
653.843	0.0153082
653.921	0.0151291
653.999	0.0149006
654.078	0.0146515
654.156	0.0145164
654.234	0.0142186
654.312	0.0138987
654.390	0.0137075
654.468	0.0135635
654.546	0.0132008
654.624	0.0128503
654.703	0.0128741
654.781	0.0128230
654.859	0.0125105
654.937	0.0123739
655.015	0.0123349
655.093	0.0126404
655.171	0.0126262
655.249	0.0124155
655.328	0.0125634
655.406	0.0126542
655.484	0.0127040
655.562	0.0130014
655.640	0.0129784
655.718	0.0130823
655.796	0.0131181
655.874	0.0131605
655.953	0.0132728
656.031	0.0132545
656.109	0.0133160
656.187	0.0133587
656.265	0.0132679
656.343	0.0133542
656.421	0.0135209
656.499	0.0133833
656.578	0.0136541
656.656	0.0137019
656.734	0.0137347
656.812	0.0139047
656.890	0.0139088
656.968	0.0138335
657.046	0.0140811
657.124	0.0141214
657.203	0.0140683
657.281	0.0141475
657.359	0.0140568
657.437	0.0140646
657.515	0.0139523
657.593	0.0141364
657.671	0.0140674
657.749	0.0141714
657.828	0.0141998
657.906	0.0141559
657.984	0.0142241
658.062	0.0141644
658.140	0.0141200
658.218	0.0142031
658.296	0.0143093
658.374	0.0142268
658.453	0.0141559
658.531	0.0140968
658.609	0.0141769
658.687	0.0140723
658.765	0.0140591
658.843	0.0140186
658.921	0.0139432
658.999	0.0139677
659.078	0.0139359
659.156	0.0139040
659.234	0.0138553
659.312	0.0140095
659.390	0.0137862
659.468	0.0137493
659.546	0.0137332
659.624	0.0135088
659.703	0.0135506
659.781	0.0134344
659.859	0.0132421
659.937	0.0130780
660.015	0.0128873
660.093	0.0128088
660.171	0.0125327
660.249	0.0123917
660.328	0.0121284
660.406	0.0121194
660.484	0.0119792
660.562	0.0118938
660.640	0.0118806
660.718	0.0118127
660.796	0.0118163
660.874	0.0118607
660.953	0.0121035
661.031	0.0121708
661.109	0.0123106
661.187	0.0124937
661.265	0.0128486
661.343	0.0132248
661.421	0.0134534
661.499	0.0139611
661.578	0.0143007
661.656	0.0145570
661.734	0.0150440
661.812	0.0154321
661.890	0.0157462
661.968	0.0158934
662.046	0.0162859
662.124	0.0165391
662.203	0.0165714
662.281	0.0166729
662.359	0.0166077
662.437	0.0165378
662.515	0.0165266
662.593	0.0163422
662.671	0.0159949
662.749	0.0158145
662.828	0.0156232
662.906	0.0152384
662.984	0.0149075
663.062	0.0145322
663.140	0.0141578
663.218	0.0140196
663.296	0.0136600
663.374	0.0133977
663.453	0.0130139
663.531	0.0128782
663.609	0.0124846
663.687	0.0122347
663.765	0.0121597
663.843	0.0120338
663.921	0.0119713
663.999	0.0119861
664.078	0.0119688
664.156	0.0118787
664.234	0.0119612
664.312	0.0120023
664.390	0.0122209
664.468	0.0123472
664.546	0.0125211
664.624	0.0126770
664.703	0.0125099
664.781	0.0126864
664.859	0.0129456
664.937	0.0130737
665.015	0.0131213
665.093	0.0131150
665.171	0.0132112
665.249	0.0133354
665.328	0.0135958
665.406	0.0136421
665.484	0.0136185
665.562	0.0136788
665.640	0.0137157
665.718	0.0136797
665.796	0.0138902
665.874	0.0138547
665.953	0.0139838
666.031	0.0141284
666.109	0.0142027
666.187	0.0142902
666.265	0.0144862
666.343	0.0144694
666.421	0.0146902
666.499	0.0147161
666.578	0.0148081
666.656	0.0148656
666.734	0.0151134
666.812	0.0151562
666.890	0.0151418
666.968	0.0152409
667.046	0.0154868
667.124	0.0155354
667.203	0.0155950
667.281	0.0155586
667.359	0.0156459
667.437	0.0155174
667.515	0.0155538
667.593	0.0153941
667.671	0.0152841
667.749	0.0153328
667.828	0.0151154
667.906	0.0150778
667.984	0.0150423
668.062	0.0147645
668.140	0.0145719
668.218	0.0145406
668.296	0.0143787
668.374	0.0142484
668.453	0.0139730
668.531	0.0138741
668.609	0.0136479
668.687	0.0132957
668.765	0.0132523
668.843	0.0130291
668.921	0.0126167
668.999	0.0123762
669.078	0.0121562
669.156	0.0117954
669.234	0.0113318
669.312	0.0112506
669.390	0.0109615
669.468	0.0107440
669.546	0.0106319
669.624	0.0105570
669.703	0.0105099
669.781	0.0105148
669.859	0.0104562
669.937	0.0106583
670.015	0.0107748
670.093	0.0109379
670.171	0.0113390
670.249	0.0115089
670.328	0.0120224
670.406	0.0122424
670.484	0.0125716
670.562	0.0129305
670.640	0.0132826
670.718	0.0135466
670.796	0.0138734
670.874	0.0142547
670.953	0.0145081
671.031	0.0146841
671.109	0.0148110
671.187	0.0150600
671.265	0.0153358
671.343	0.0154877
671.421	0.0155602
671.499	0.0156028
671.578	0.0157396
671.656	0.0159432
671.734	0.0159692
671.812	0.0160921
671.890	0.0160995
671.968	0.0162706
672.046	0.0162310
672.124	0.0163743
672.203	0.0164565
672.281	0.0164397
672.359	0.0164662
672.437	0.0163560
672.515	0.0163205
672.593	0.0162471
672.671	0.0160773
672.749	0.0159344
672.828	0.0155925
672.906	0.0152481
672.984	0.0149621
673.062	0.0147413
673.140	0.0143854
673.218	0.0138705
673.296	0.0136051
673.374	0.0134115
673.453	0.0130649
673.531	0.0127610
673.609	0.0124121
673.687	0.0119632
673.765	0.0118213
673.843	0.0115891
673.921	0.0112753
673.999	0.0109136
674.078	0.0107192
674.156	0.0104477
674.234	0.0103181
674.312	0.0101019
674.390	0.0100094
674.468	0.00983871
674.546	0.0100079
674.624	0.00996872
674.703	0.00995201
674.781	0.0101183
674.859	0.0104758
674.937	0.0106788
675.015	0.0108361
675.093	0.0112634
675.171	0.0115302
675.249	0.0120064
675.328	0.0123312
675.406	0.0129559
675.484	0.0135526
675.562	0.0139812
675.640	0.0143949
675.718	0.0148928
675.796	0.0152908
675.874	0.0159121
675.953	0.0161140
676.031	0.0163020
676.109	0.0165903
676.187	0.0166302
676.265	0.0170132
676.343	0.0167595
676.421	0.0167417
676.499	0.0167639
676.578	0.0167332
676.656	0.0167388
676.734	0.0166038
676.812	0.0165076
676.890	0.0161568
676.968	0.0161329
677.046	0.0161973
677.124	0.0159468
677.203	0.0157966
677.281	0.0157613
677.359	0.0153356
677.437	0.0152203
677.515	0.0149979
677.593	0.0147544
677.671	0.0145026
677.749	0.0141487
677.828	0.0140323
677.906	0.0136518
677.984	0.0133853
678.062	0.0132057
678.140	0.0128880
678.218	0.0126801
678.296	0.0124228
678.374	0.0122401
678.453	0.0120695
678.531	0.0118214
678.609	0.0117445
678.687	0.0115845
678.765	0.0115285
678.843	0.0113921
678.921	0.0114564
678.999	0.0114436
679.078	0.0114960
679.156	0.0115488
679.234	0.0116837
679.312	0.0118433
679.390	0.0120276
679.468	0.0122559
679.546	0.0124739
679.624	0.0125978
679.703	0.0128802
679.781	0.0131139
679.859	0.0133906
679.937	0.0134563
680.015	0.0135199
680.093	0.0137634
680.171	0.0138068
680.249	0.0138610
680.328	0.0138028
680.406	0.0137564
680.484	0.0137904
680.562	0.0137850
680.640	0.0136387
680.718	0.0137013
680.796	0.0138320
680.874	0.0137073
680.953	0.0137444
681.031	0.0135683
681.109	0.0136461
681.187	0.0137342
681.265	0.0137389
681.343	0.0137034
681.421	0.0138725
681.499	0.0138456
681.578	0.0139293
681.656	0.0141135
681.734	0.0140974
681.812	0.0142220
681.890	0.0141714
681.968	0.0142667
682.046	0.0141264
682.124	0.0142601
682.203	0.0142055
682.281	0.0140622
682.359	0.0141409
682.437	0.0143796
682.515	0.0143628
682.593	0.0140910
682.671	0.0140857
682.749	0.0141392
682.828	0.0142755
682.906	0.0143221
682.984	0.0143420
683.062	0.0144954
683.140	0.0145679
683.218	0.0146236
683.296	0.0147284
683.374	0.0146868
683.453	0.0147522
683.531	0.0146867
683.609	0.0146590
683.687	0.0146307
683.765	0.0146034
683.843	0.0142000
683.921	0.0141667
683.999	0.0140125
684.078	0.0139821
684.156	0.0138036
684.234	0.0136877
684.312	0.0134904
684.390	0.0133861
684.468	0.0132535
684.546	0.0130730
684.624	0.0129720
684.703	0.0126882
684.781	0.0125258
684.859	0.0123188
684.937	0.0122846
685.015	0.0120374
685.093	0.0121975
685.171	0.0120741
685.249	0.0120251
685.328	0.0120520
685.406	0.0120616
685.484	0.0120649
685.562	0.0120984
685.640	0.0122980
685.718	0.0123821
685.796	0.0122553
685.874	0.0124884
685.953	0.0128248
686.031	0.0128174
686.109	0.0128134
686.187	0.0129974
686.265	0.0132722
686.343	0.0132889
686.421	0.0133661
686.499	0.0136234
686.578	0.0138670
686.656	0.0140404
686.734	0.0142272
686.812	0.0144824
686.890	0.0146671
686.968	0.0149080
687.046	0.0150018
687.124	0.0151581
687.203	0.0153809
687.281	0.0155003
687.359	0.0154333
687.437	0.0156043
687.515	0.0155172
687.593	0.0153724
687.671	0.0153527
687.749	0.0154269
687.828	0.0153508
687.906	0.0151868
687.984	0.0151786
688.062	0.0149184
688.140	0.0147379
688.218	0.0146549
688.296	0.0145165
688.374	0.0142211
688.453	0.0141521
688.531	0.0138161
688.609	0.0138955
688.687	0.0135465
688.765	0.0135458
688.843	0.0131828
688.921	0.0130449
688.999	0.0128957
689.078	0.0129415
689.156	0.0128309
689.234	0.0127570
689.312	0.0127368
689.390	0.0126520
689.468	0.0129098
689.546	0.0128039
689.624	0.0127270
689.703	0.0126867
689.781	0.0127699
689.859	0.0127598
689.937	0.0128339
690.015	0.0128104
690.093	0.0128951
690.171	0.0128456
690.249	0.0129498
690.328	0.0130633
690.406	0.0132986
690.484	0.0132437
690.562	0.0133752
690.640	0.0133968
690.718	0.0135508
690.796	0.0137097
690.874	0.0138335
690.953	0.0138708
691.031	0.0141132
691.109	0.0141192
691.187	0.0142821
691.265	0.0143245
691.343	0.0143221
691.421	0.0142633
691.499	0.0142241
691.578	0.0140392
691.656	0.0139610
691.734	0.0139371
691.812	0.0139574
691.890	0.0137910
691.968	0.0136261
692.046	0.0134612
692.124	0.0134782
692.203	0.0131860
692.281	0.0130294
692.359	0.0130132
692.437	0.0128491
692.515	0.0127753
692.593	0.0126469
692.671	0.0124111
692.749	0.0123161
692.828	0.0124133
692.906	0.0124064
692.984	0.0125091
693.062	0.0125209
693.140	0.0126411
693.218	0.0127894
693.296	0.0129213
693.374	0.0131047
693.453	0.0131387
693.531	0.0132581
693.609	0.0135390
693.687	0.0135953
693.765	0.0137601
693.843	0.0138412
693.921	0.0138870
693.999	0.0141084
694.078	0.0142686
694.156	0.0144289
694.234	0.0145026
694.312	0.0145690
694.390	0.0145825
694.468	0.0147482
694.546	0.0148547
694.624	0.0147335
694.703	0.0150150
694.781	0.0148705
694.859	0.0149659
694.937	0.0149753
695.015	0.0149355
695.093	0.0149538
695.171	0.0149020
695.249	0.0149227
695.328	0.0147634
695.406	0.0147015
695.484	0.0144964
695.562	0.0142789
695.640	0.0141828
695.718	0.0139510
695.796	0.0137747
695.874	0.0136680
695.953	0.0136024
696.031	0.0133662
696.109	0.0133730
696.187	0.0133627
696.265	0.0132665
696.343	0.0130765
696.421	0.0130067
696.499	0.0130498
696.578	0.0129871
696.656	0.0130761
696.734	0.0128763
696.812	0.0128338
696.890	0.0128607
696.968	0.0127206
697.046	0.0127570
697.124	0.0127393
697.203	0.0126970
697.281	0.0126603
697.359	0.0126402
697.437	0.0125745
697.515	0.0126914
697.593	0.0127079
697.671	0.0126743
697.749	0.0128558
697.828	0.0128740
697.906	0.0129875
697.984	0.0128322
698.062	0.0129799
698.140	0.0130254
698.218	0.0130346
698.296	0.0130791
698.374	0.0132472
698.453	0.0132706
698.531	0.0135123
698.609	0.0134695
698.687	0.0137402
698.765	0.0137036
698.843	0.0138420
698.921	0.0140960
698.999	0.0143144
699.078	0.0143948
699.156	0.0146474
699.234	0.0147397
699.312	0.0147277
699.390	0.0149550
699.468	0.0148943
699.546	0.0150423
699.624	0.0149975
699.703	0.0149038
699.781	0.0150873
699.859	0.0148103
699.937	0.0147946
700.015	0.0147906
700.093	0.0146247
700.171	0.0146024
700.249	0.0144524
700.328	0.0142665
700.406	0.0141837
700.484	0.0142385
700.562	0.0142224
700.640	0.0140585
700.718	0.0138856
700.796	0.0137796
700.874	0.0137704
700.953	0.0137963
701.031	0.0133813
701.109	0.0135322
701.187	0.0136385
701.265	0.0134249
701.343	0.0134966
701.421	0.0135104
701.499	0.0133641
701.578	0.0134970
701.656	0.0134891
701.734	0.0134808
701.812	0.0135236
701.890	0.0135355
701.968	0.0136083
702.046	0.0135770
702.124	0.0137317
702.203	0.0135609
702.281	0.0137714
702.359	0.0136279
702.437	0.0136478
702.515	0.0136691
702.593	0.0136787
702.671	0.0138268
702.749	0.0137163
702.828	0.0136546
702.906	0.0136367
702.984	0.0135532
703.062	0.0135457
703.140	0.0134502
703.218	0.0133019
703.296	0.0132426
703.374	0.0132033
703.453	0.0129802
703.531	0.0129069
703.609	0.0129595
703.687	0.0126974
703.765	0.0127001
703.843	0.0126626
703.921	0.0126258
703.999	0.0125504
704.078	0.0127687
704.156	0.0127777
704.234	0.0127829
704.312	0.0129166
704.390	0.0132079
704.468	0.0132025
704.546	0.0135046
704.624	0.0134233
704.703	0.0137395
704.781	0.0138487
704.859	0.0139069
704.937	0.0140348
705.015	0.0141300
705.093	0.0142789
705.171	0.0143771
705.249	0.0143479
705.328	0.0144683
705.406	0.0144516
705.484	0.0143639
705.562	0.0144913
705.640	0.0144247
705.718	0.0143797
705.796	0.0144182
705.874	0.0144603
705.953	0.0144065
706.031	0.0145046
706.109	0.0145132
706.187	0.0144271
706.265	0.0145077
706.343	0.0145696
706.421	0.0144480
706.499	0.0145741
706.578	0.0144835
706.656	0.0144459
706.734	0.0142739
706.812	0.0142113
706.890	0.0141990
706.968	0.0140432
707.046	0.0141168
707.124	0.0140247
707.203	0.0137787
707.281	0.0138451
707.359	0.0136516
707.437	0.0134879
707.515	0.0134306
707.593	0.0133784
707.671	0.0131985
707.749	0.0131609
707.828	0.0129037
707.906	0.0128112
707.984	0.0127269
708.062	0.0127606
708.140	0.0125645
708.218	0.0126196
708.296	0.0125715
708.374	0.0124448
708.453	0.0125043
708.531	0.0123580
708.609	0.0123420
708.687	0.0124373
708.765	0.0124223
708.843	0.0125107
708.921	0.0126635
708.999	0.0125758
709.078	0.0124251
709.156	0.0125149
709.234	0.0127222
709.312	0.0125215
709.390	0.0127178
709.468	0.0127509
709.546	0.0129657
709.624	0.0130005
709.703	0.0132047
709.781	0.0132974
709.859	0.0134191
709.937	0.0136875
710.015	0.0137908
710.093	0.0139063
710.171	0.0138728
710.249	0.0141801
710.328	0.0142099
710.406	0.0142287
710.484	0.0141447
710.562	0.0141357
710.640	0.0141247
710.718	0.0141109
710.796	0.0140365
710.874	0.0138711
710.953	0.0137785
711.031	0.0135487
711.109	0.0137021
711.187	0.0135484
711.265	0.0135017
711.343	0.0134678
711.421	0.0135029
711.499	0.0134045
711.578	0.0134332
711.656	0.0135848
711.734	0.0135865
711.812	0.0136440
711.890	0.0136520
711.968	0.0138313
712.046	0.0138547
712.124	0.0139940
712.203	0.0139913
712.281	0.0140588
712.359	0.0140855
712.437	0.0141505
712.515	0.0141443
712.593	0.0143079
712.671	0.0141994
712.749	0.0140918
712.828	0.0141824
712.906	0.0141656
712.984	0.0142474
713.062	0.0143192
713.140	0.0141647
713.218	0.0142268
713.296	0.0139714
713.374	0.0139616
713.453	0.0139318
713.531	0.0139563
713.609	0.0139821
713.687	0.0138267
713.765	0.0137827
713.843	0.0137834
713.921	0.0136278
713.999	0.0134997
714.078	0.0133918
714.156	0.0134947
714.234	0.0133745
714.312	0.0133206
714.390	0.0133602
714.468	0.0131500
714.546	0.0128297
714.624	0.0128106
714.703	0.0127718
714.781	0.0126019
714.859	0.0125536
714.937	0.0125121
715.015	0.0125410
715.093	0.0124344
715.171	0.0123762
715.249	0.0124831
715.328	0.0125491
715.406	0.0126231
715.484	0.0127345
715.562	0.0128016
715.640	0.0128317
715.718	0.0129696
715.796	0.0131271
715.874	0.0131979
715.953	0.0132420
716.031	0.0133698
716.109	0.0133820
716.187	0.0136815
716.265	0.0136549
716.343	0.0136526
716.421	0.0139706
716.499	0.0139577
716.578	0.0140941
716.656	0.0142410
716.734	0.0142686
716.812	0.0143365
716.890	0.0143383
716.968	0.0143074
717.046	0.0145566
717.124	0.0146545
717.203	0.0145048
717.281	0.0145583
717.359	0.0145301
717.437	0.0146249
717.515	0.0146021
717.593	0.0145610
717.671	0.0145050
717.749	0.0145630
717.828	0.0144861
717.906	0.0143135
717.984	0.0141811
718.062	0.0142574
718.140	0.0141707
718.218	0.0141637
718.296	0.0139024
718.374	0.0138429
718.453	0.0138403
718.531	0.0137771
718.609	0.0136348
718.687	0.0134879
718.765	0.0134083
718.843	0.0133936
718.921	0.0134193
718.999	0.0134010
719.078	0.0133611
719.156	0.0133800
719.234	0.0133546
719.312	0.0133372
719.390	0.0133622
719.468	0.0133089
719.546	0.0133842
719.624	0.0133501
719.703	0.0134616
719.781	0.0134615
719.859	0.0134048
719.937	0.0134886
720.015	0.0135769
720.093	0.0135136
720.171	0.0134576
720.249	0.0134393
720.328	0.0133159
720.406	0.0134560
720.484	0.0132549
720.562	0.0134266
720.640	0.0133234
720.718	0.0132709
720.796	0.0131571
720.874	0.0131587
720.953	0.0133511
721.031	0.0133798
721.109	0.0132699
721.187	0.0133537
721.265	0.0132128
721.343	0.0134227
721.421	0.0133843
721.499	0.0133435
721.578	0.0136022
721.656	0.0135789
721.734	0.0137437
721.812	0.0137827
721.890	0.0137666
721.968	0.0139657
722.046	0.0140929
722.124	0.0141457
722.203	0.0141721
722.281	0.0141338
722.359	0.0144006
722.437	0.0143101
722.515	0.0145407
722.593	0.0145909
722.671	0.0146653
722.749	0.0147506
722.828	0.0146422
722.906	0.0146070
722.984	0.0146989
723.062	0.0147681
723.140	0.0146125
723.218	0.0144670
723.296	0.0143198
723.374	0.0143716
723.453	0.0143738
723.531	0.0141294
723.609	0.0138825
723.687	0.0138297
723.765	0.0137068
723.843	0.0135796
723.921	0.0136071
723.999	0.0135107
724.078	0.0132696
724.156	0.0131437
724.234	0.0133187
724.312	0.0130901
724.390	0.0131253
724.468	0.0130782
724.546	0.0131489
724.624	0.0132456
724.703	0.0131161
724.781	0.0132813
724.859	0.0133540
724.937	0.0132340
725.015	0.0134668
725.093	0.0134197
725.171	0.0134412
725.249	0.0135255
725.328	0.0135596
725.406	0.0136725
725.484	0.0136136
725.562	0.0136666
725.640	0.0137071
725.718	0.0136907
725.796	0.0136870
725.874	0.0137601
725.953	0.0138165
726.031	0.0138895
726.109	0.0138748
726.187	0.0139252
726.265	0.0139358
726.343	0.0138664
726.421	0.0138952
726.499	0.0138824
726.578	0.0139349
726.656	0.0138343
726.734	0.0137820
726.812	0.0136766
726.890	0.0137697
726.968	0.0136063
727.046	0.0135972
727.124	0.0135286
727.203	0.0133856
727.281	0.0134065
727.359	0.0132010
727.437	0.0132659
727.515	0.0132684
727.593	0.0131995
727.671	0.0130970
727.749	0.0131891
727.828	0.0131749
727.906	0.0131692
727.984	0.0133173
728.062	0.0134729
728.140	0.0133956
728.218	0.0133302
728.296	0.0134856
728.374	0.0135415
728.453	0.0135981
728.531	0.0136299
728.609	0.0136658
728.687	0.0136292
728.765	0.0138554
728.843	0.0138381
728.921	0.0139590
728.999	0.0137365
729.078	0.0138651
729.156	0.0139452
729.234	0.0141192
729.312	0.0138387
729.390	0.0140710
729.468	0.0141137
729.546	0.0141630
729.624	0.0140099
729.703	0.0140387
729.781	0.0141167
729.859	0.0143629
729.937	0.0142685
730.015	0.0142368
730.093	0.0142933
730.171	0.0143811
730.249	0.0143603
730.328	0.0144253
730.406	0.0142635
730.484	0.0141476
730.562	0.0141420
730.640	0.0141623
730.718	0.0140601
730.796	0.0138748
730.874	0.0137244
730.953	0.0137392
731.031	0.0135610
731.109	0.0135013
731.187	0.0133940
731.265	0.0133639
731.343	0.0131819
731.421	0.0130876
731.499	0.0131813
731.578	0.0131094
731.656	0.0130617
731.734	0.0130489
731.812	0.0130353
731.890	0.0130414
731.968	0.0128828
732.046	0.0130454
732.124	0.0131090
732.203	0.0130894
732.281	0.0132346
732.359	0.0132053
732.437	0.0130782
732.515	0.0131138
732.593	0.0132465
732.671	0.0132288
732.749	0.0133167
732.828	0.0133172
732.906	0.0132202
732.984	0.0134537
733.062	0.0133618
733.140	0.0134418
733.218	0.0135926
733.296	0.0134877
733.374	0.0132233
733.453	0.0134290
733.531	0.0135586
733.609	0.0135885
733.687	0.0136319
733.765	0.0134696
733.843	0.0135651
733.921	0.0136327
733.999	0.0136034
734.078	0.0136211
734.156	0.0135943
734.234	0.0136245
734.312	0.0137734
734.390	0.0138313
734.468	0.0138633
734.546	0.0139844
734.624	0.0139789
734.703	0.0138496
734.781	0.0137737
734.859	0.0139151
734.937	0.0138061
735.015	0.0138318
735.093	0.0137822
735.171	0.0137884
735.249	0.0137824
735.328	0.0138799
735.406	0.0138749
735.484	0.0137795
735.562	0.0139618
735.640	0.0139314
735.718	0.0137926
735.796	0.0138241
735.874	0.0138949
735.953	0.0138568
736.031	0.0139352
736.109	0.0139478
736.187	0.0137389
736.265	0.0137307
736.343	0.0137637
736.421	0.0137806
736.499	0.0138508
736.578	0.0137385
736.656	0.0136090
736.734	0.0136056
736.812	0.0135490
736.890	0.0134983
736.968	0.0136352
737.046	0.0134940
737.124	0.0134044
737.203	0.0133694
737.281	0.0133987
737.359	0.0135479
737.437	0.0134426
737.515	0.0134735
737.593	0.0133875
737.671	0.0135165
737.749	0.0135161
737.828	0.0135497
737.906	0.0136701
737.984	0.0135453
738.062	0.0135792
738.140	0.0133999
738.218	0.0135812
738.296	0.0135453
738.374	0.0135380
738.453	0.0134387
738.531	0.0134725
738.609	0.0135114
738.687	0.0134212
738.765	0.0133680
738.843	0.0134364
738.921	0.0135221
738.999	0.0134381
739.078	0.0134209
739.156	0.0134680
739.234	0.0135274
739.312	0.0137421
739.390	0.0134958
739.468	0.0136983
739.546	0.0137713
739.624	0.0136976
739.703	0.0135848
739.781	0.0137684
739.859	0.0138546
739.937	0.0140067
740.015	0.0139526
740.093	0.0139958
740.171	0.0140459
740.249	0.0139349
740.328	0.0141377
740.406	0.0140371
740.484	0.0140018
740.562	0.0138992
740.640	0.0139729
740.718	0.0138338
740.796	0.0139275
740.874	0.0140167
740.953	0.0136589
741.031	0.0138785
741.109	0.0138342
741.187	0.0137643
741.265	0.0137022
741.343	0.0138144
741.421	0.0138145
741.499	0.0138034
741.578	0.0138111
741.656	0.0138004
741.734	0.0138120
741.812	0.0137314
741.890	0.0139565
741.968	0.0139428
742.046	0.0138401
742.124	0.0138782
742.203	0.0138541
742.281	0.0137840
742.359	0.0137708
742.437	0.0138137
742.515	0.0138943
742.593	0.0137988
742.671	0.0138173
742.749	0.0138105
742.828	0.0136771
742.906	0.0138043
742.984	0.0137240
743.062	0.0138061
743.140	0.0138117
743.218	0.0139911
743.296	0.0139738
743.374	0.0138461
743.453	0.0138821
743.531	0.0139732
743.609	0.0137411
743.687	0.0138341
743.765	0.0137728
743.843	0.0139764
743.921	0.0135777
743.999	0.0135473
744.078	0.0136783
744.156	0.0135725
744.234	0.0135693
744.312	0.0136469
744.390	0.0135274
744.468	0.0135522
744.546	0.0133939
744.624	0.0134399
744.703	0.0134078
744.781	0.0135050
744.859	0.0135297
744.937	0.0134145
745.015	0.0134590
745.093	0.0136068
745.171	0.0135036
745.249	0.0135030
745.328	0.0135905
745.406	0.0135570
745.484	0.0136621
745.562	0.0136252
745.640	0.0136002
745.718	0.0137279
745.796	0.0136858
745.874	0.0137775
745.953	0.0137919
746.031	0.0138042
746.109	0.0137833
746.187	0.0137549
746.265	0.0138853
746.343	0.0139503
746.421	0.0139680
746.499	0.0139643
746.578	0.0138890
746.656	0.0140567
746.734	0.0139851
746.812	0.0139772
746.890	0.0141292
746.968	0.0140340
747.046	0.0140111
747.124	0.0140134
747.203	0.0140439
747.281	0.0139771
747.359	0.0140494
747.437	0.0140660
747.515	0.0139444
747.593	0.0139988
747.671	0.0138919
747.749	0.0138408
747.828	0.0137405
747.906	0.0138610
747.984	0.0139259
748.062	0.0137343
748.140	0.0136021
748.218	0.0136286
748.296	0.0134916
748.374	0.0135909
748.453	0.0134749
748.531	0.0134598
748.609	0.0133717
748.687	0.0133498
748.765	0.0132204
748.843	0.0132290
748.921	0.0132098
748.999	0.0132256
749.078	0.0131477
749.156	0.0132057
749.234	0.0132339
749.312	0.0133192
749.390	0.0131296
749.468	0.0132107
749.546	0.0131359
749.624	0.0132049
749.703	0.0133284
749.781	0.0132899
749.859	0.0133683
749.937	0.0134553
750.015	0.0135709
750.093	0.0136059
750.171	0.0136590
750.249	0.0136065
750.328	0.0136672
750.406	0.0138779
750.484	0.0140504
750.562	0.0139233
750.640	0.0140147
750.718	0.0140837
750.796	0.0140525
750.874	0.0139652
750.953	0.0139227
751.031	0.0138612
751.109	0.0139391
751.187	0.0138776
751.265	0.0137391
751.343	0.0135908
751.421	0.0136176
751.499	0.0135707
751.578	0.0134485
751.656	0.0133887
751.734	0.0132555
751.812	0.0132421
751.890	0.0134074
751.968	0.0130973
752.046	0.0132021
752.124	0.0131187
752.203	0.0132062
752.281	0.0131686
752.359	0.0132986
752.437	0.0133058
752.515	0.0133588
752.593	0.0134041
752.671	0.0135110
752.749	0.0136441
752.828	0.0135748
752.906	0.0136787
752.984	0.0137555
753.062	0.0136622
753.140	0.0136987
753.218	0.0138243
753.296	0.0138298
753.374	0.0138351
753.453	0.0138807
753.531	0.0138593
753.609	0.0141602
753.687	0.0138148
753.765	0.0139903
753.843	0.0138388
753.921	0.0139362
753.999	0.0139014
754.078	0.0138903
754.156	0.0139249
754.234	0.0137987
754.312	0.0139098
754.390	0.0138879
754.468	0.0138252
754.546	0.0138305
754.624	0.0137054
754.703	0.0137335
754.781	0.0136382
754.859	0.0137247
754.937	0.0137787
755.015	0.0137363
755.093	0.0137489
755.171	0.0136351
755.249	0.0137333
755.328	0.0139325
755.406	0.0139130
755.484	0.0138553
755.562	0.0137192
755.640	0.0137248
755.718	0.0137793
755.796	0.0138918
755.874	0.0138510
755.953	0.0137330
756.031	0.0137827
756.109	0.0138414
756.187	0.0138448
756.265	0.0137252
756.343	0.0138493
756.421	0.0138692
756.499	0.0136826
756.578	0.0137882
756.656	0.0138783
756.734	0.0138143
756.812	0.0138104
756.890	0.0135013
756.968	0.0136944
757.046	0.0136546
757.124	0.0134573
757.203	0.0137129
757.281	0.0135390
757.359	0.0135269
757.437	0.0134313
757.515	0.0134534
757.593	0.0134201
757.671	0.0132359
757.749	0.0132709
757.828	0.0133369
757.906	0.0132640
757.984	0.0133419
758.062	0.0132647
758.140	0.0132700
758.218	0.0134329
758.296	0.0134146
758.374	0.0135571
758.453	0.0135368
758.531	0.0136303
758.609	0.0135669
758.687	0.0138493
758.765	0.0138383
758.843	0.0137228
758.921	0.0137566
758.999	0.0137864
759.078	0.0138573
759.156	0.0138889
759.234	0.0138124
759.312	0.0137600
759.390	0.0138222
759.468	0.0138504
759.546	0.0138118
759.624	0.0136514
759.703	0.0135970
759.781	0.0138136
759.859	0.0137634
759.937	0.0138480
760.015	0.0136078
760.093	0.0136610
760.171	0.0137251
760.249	0.0137202
760.328	0.0137164
760.406	0.0137659
760.484	0.0136970
760.562	0.0137745
760.640	0.0135796
760.718	0.0137699
760.796	0.0136858
760.874	0.0136832
760.953	0.0137240
761.031	0.0136153
761.109	0.0136497
761.187	0.0135814
761.265	0.0136779
761.343	0.0137483
761.421	0.0137173
761.499	0.0135083
761.578	0.0135711
761.656	0.0136469
761.734	0.0138153
761.812	0.0138139
761.890	0.0137273
761.968	0.0137704
762.046	0.0137761
762.124	0.0138481
762.203	0.0137040
762.281	0.0137746
762.359	0.0137651
762.437	0.0136983
762.515	0.0138499
762.593	0.0137221
762.671	0.0135789
762.749	0.0136614
762.828	0.0137021
762.906	0.0136126
762.984	0.0136355
763.062	0.0135173
763.140	0.0136301
763.218	0.0137125
763.296	0.0135694
763.374	0.0134963
763.453	0.0135640
763.531	0.0135973
763.609	0.0136447
763.687	0.0137078
763.765	0.0138391
763.843	0.0137530
763.921	0.0137196
763.999	0.0138300
764.078	0.0138573
764.156	0.0139208
764.234	0.0138778
764.312	0.0137382
764.390	0.0138832
764.468	0.0137511
764.546	0.0137569
764.624	0.0138206
764.703	0.0136029
764.781	0.0135940
764.859	0.0136934
764.937	0.0137884
765.015	0.0137926
765.093	0.0136478
765.171	0.0137974
765.249	0.0136652
765.328	0.0138171
765.406	0.0137862
765.484	0.0137214
765.562	0.0138683
765.640	0.0136609
765.718	0.0135994
765.796	0.0138009
765.874	0.0137157
765.953	0.0136614
766.031	0.0138709
766.109	0.0137720
766.187	0.0137725
766.265	0.0137566
766.343	0.0137920
766.421	0.0137170
766.499	0.0136134
766.578	0.0136724
766.656	0.0136023
766.734	0.0136937
766.812	0.0135384
766.890	0.0136176
766.968	0.0136208
767.046	0.0134944
767.124	0.0135467
767.203	0.0136355
767.281	0.0134110
767.359	0.0133992
767.437	0.0134590
767.515	0.0134203
767.593	0.0134386
767.671	0.0135857
767.749	0.0136244
767.828	0.0136254
767.906	0.0137290
767.984	0.0138639
768.062	0.0137426
768.140	0.0138728
768.218	0.0138142
768.296	0.0138326
768.374	0.0140346
768.453	0.0140718
768.531	0.0138390
768.609	0.0138300
768.687	0.0139641
768.765	0.0138175
768.843	0.0138165
768.921	0.0139554
768.999	0.0139800
769.078	0.0138416
769.156	0.0138538
769.234	0.0138505
769.312	0.0139114
769.390	0.0139282
769.468	0.0138657
769.546	0.0139531
769.624	0.0140145
769.703	0.0139715
769.781	0.0140331
769.859	0.0139121
769.937	0.0137769
770.015	0.0138124
770.093	0.0136359
770.171	0.0136759
770.249	0.0134644
770.328	0.0133569
770.406	0.0134587
770.484	0.0132738
770.562	0.0132735
770.640	0.0131832
770.718	0.0132137
770.796	0.0131831
770.874	0.0132307
770.953	0.0133219
771.031	0.0132072
771.109	0.0132770
771.187	0.0133947
771.265	0.0132816
771.343	0.0133641
771.421	0.0133926
771.499	0.0134608
771.578	0.0134740
771.656	0.0135524
771.734	0.0134089
771.812	0.0135064
771.890	0.0134821
771.968	0.0135741
772.046	0.0134423
772.124	0.0134730
772.203	0.0134711
772.281	0.0134954
772.359	0.0136189
772.437	0.0135703
772.515	0.0134428
772.593	0.0135163
772.671	0.0135237
772.749	0.0136251
772.828	0.0135374
772.906	0.0135110
772.984	0.0136398
773.062	0.0137161
773.140	0.0135897
773.218	0.0135538
773.296	0.0136872
773.374	0.0137773
773.453	0.0136874
773.531	0.0138359
773.609	0.0138380
773.687	0.0136964
773.765	0.0137520
773.843	0.0138620
773.921	0.0137643
773.999	0.0137445
774.078	0.0139647
774.156	0.0137946
774.234	0.0138116
774.312	0.0138478
774.390	0.0136689
774.468	0.0136570
774.546	0.0137966
774.624	0.0135819
774.703	0.0137008
774.781	0.0134740
774.859	0.0134752
774.937	0.0135583
775.015	0.0134554
775.093	0.0135996
775.171	0.0135355
775.249	0.0136768
775.328	0.0134422
775.406	0.0136182
775.484	0.0135106
775.562	0.0136008
775.640	0.0137363
775.718	0.0136870
775.796	0.0136156
775.874	0.0137193
775.953	0.0136916
776.031	0.0136921
776.109	0.0136785
776.187	0.0135110
776.265	0.0135255
776.343	0.0134630
776.421	0.0135105
776.499	0.0135151
776.578	0.0134695
776.656	0.0135188
776.734	0.0135227
776.812	0.0136716
776.890	0.0136078
776.968	0.0136303
777.046	0.0134742
777.124	0.0135401
777.203	0.0136807
777.281	0.0135718
777.359	0.0136224
777.437	0.0135110
777.515	0.0134881
777.593	0.0135084
777.671	0.0135944
777.749	0.0136240
777.828	0.0136974
777.906	0.0135420
777.984	0.0137140
778.062	0.0138596
778.140	0.0135831
778.218	0.0137012
778.296	0.0136081
778.374	0.0135973
778.453	0.0137917
778.531	0.0138541
778.609	0.0138041
778.687	0.0136244
778.765	0.0137533
778.843	0.0137082
778.921	0.0137170
778.999	0.0136208
779.078	0.0139158
779.156	0.0138589
779.234	0.0137245
779.312	0.0138367
779.390	0.0139535
779.468	0.0139873
779.546	0.0138358
779.624	0.0136726
779.703	0.0138756
779.781	0.0138601
779.859	0.0138283
779.937	0.0137387
780.015	0.0137841
780.093	0.0137355
780.171	0.0138839
780.249	0.0139259
780.328	0.0138201
780.406	0.0137711
780.484	0.0137480
780.562	0.0137626
780.640	0.0138826
780.718	0.0137836
780.796	0.0138255
780.874	0.0138347
780.953	0.0136327
781.031	0.0136169
781.109	0.0136905
781.187	0.0136603
781.265	0.0136226
781.343	0.0137320
781.421	0.0135651
781.499	0.0135493
781.578	0.0134711
781.656	0.0134580
781.734	0.0135985
781.812	0.0134256
781.890	0.0135995
781.968	0.0135369
782.046	0.0134032
782.124	0.0135193
782.203	0.0134756
782.281	0.0134653
782.359	0.0132655
782.437	0.0133079
782.515	0.0134230
782.593	0.0134007
782.671	0.0134012
782.749	0.0134314
782.828	0.0134315
782.906	0.0133395
782.984	0.0134791
783.062	0.0135432
783.140	0.0135580
783.218	0.0135398
783.296	0.0135920
783.374	0.0136780
783.453	0.0137163
783.531	0.0136723
783.609	0.0136629
783.687	0.0137003
783.765	0.0138759
783.843	0.0137594
783.921	0.0137813
783.999	0.0138110
784.078	0.0138045
784.156	0.0139038
784.234	0.0140430
784.312	0.0139639
784.390	0.0140421
784.468	0.0139322
784.546	0.0139713
784.624	0.0139763
784.703	0.0141969
784.781	0.0141228
784.859	0.0141486
784.937	0.0140510
785.015	0.0139750
785.093	0.0139848
785.171	0.0138454
785.249	0.0139958
785.328	0.0139079
785.406	0.0138268
785.484	0.0138400
785.562	0.0137309
785.640	0.0139054
785.718	0.0137611
785.796	0.0137174
785.874	0.0137123
785.953	0.0136015
786.031	0.0135899
786.109	0.0136965
786.187	0.0135728
786.265	0.0134001
786.343	0.0133682
786.421	0.0134000
786.499	0.0133571
786.578	0.0134029
786.656	0.0133405
786.734	0.0134073
786.812	0.0132994
786.890	0.0133545
786.968	0.0134464
787.046	0.0134458
787.124	0.0134177
787.203	0.0135804
787.281	0.0135550
787.359	0.0135014
787.437	0.0136898
787.515	0.0135929
787.593	0.0135761
787.671	0.0136545
787.749	0.0136270
787.828	0.0137028
787.906	0.0135913
787.984	0.0135601
788.062	0.0137443
788.140	0.0138327
788.218	0.0137023
788.296	0.0137032
788.374	0.0137529
788.453	0.0137451
788.531	0.0138155
788.609	0.0137777
788.687	0.0138213
788.765	0.0138802
788.843	0.0137156
788.921	0.0137023
788.999	0.0137377
789.078	0.0136683
789.156	0.0135662
789.234	0.0136069
789.312	0.0137037
789.390	0.0136039
789.468	0.0136987
789.546	0.0135175
789.624	0.0135724
789.703	0.0135605
789.781	0.0137037
789.859	0.0134489
789.937	0.0135834
790.015	0.0135855
790.093	0.0135637
790.171	0.0135471
790.249	0.0137684
790.328	0.0135047
790.406	0.0135725
790.484	0.0137137
790.562	0.0135749
790.640	0.0135205
790.718	0.0136600
790.796	0.0136724
790.874	0.0136182
790.953	0.0135950
791.031	0.0136823
791.109	0.0137141
791.187	0.0136242
791.265	0.0137556
791.343	0.0137852
791.421	0.0137177
791.499	0.0137095
791.578	0.0136179
791.656	0.0136250
791.734	0.0137639
791.812	0.0134593
791.890	0.0136201
791.968	0.0137398
792.046	0.0135231
792.124	0.0135652
792.203	0.0137128
792.281	0.0136730
792.359	0.0136458
792.437	0.0135421
792.515	0.0135020
792.593	0.0136574
792.671	0.0134439
792.749	0.0135313
792.828	0.0136191
792.906	0.0134834
792.984	0.0135038
793.062	0.0135012
793.140	0.0135175
793.218	0.0135255
793.296	0.0135658
793.374	0.0133366
793.453	0.0135570
793.531	0.0135233
793.609	0.0134551
793.687	0.0134309
793.765	0.0134068
793.843	0.0135050
793.921	0.0134789
793.999	0.0133996
794.078	0.0134322
794.156	0.0134753
794.234	0.0134447
794.312	0.0134563
794.390	0.0133098
794.468	0.0134610
794.546	0.0133865
794.624	0.0134232
794.703	0.0133908
794.781	0.0133943
794.859	0.0134337
794.937	0.0132667
795.015	0.0135381
795.093	0.0134677
795.171	0.0136718
795.249	0.0136079
795.328	0.0136179
795.406	0.0136095
795.484	0.0135100
795.562	0.0135261
795.640	0.0135508
795.718	0.0134877
795.796	0.0136733
795.874	0.0137354
795.953	0.0136236
796.031	0.0136324
796.109	0.0137801
796.187	0.0138120
796.265	0.0137238
796.343	0.0137879
796.421	0.0137908
796.499	0.0139156
796.578	0.0137303
796.656	0.0138722
796.734	0.0138895
796.812	0.0140262
796.890	0.0138792
796.968	0.0139938
797.046	0.0138022
797.124	0.0139793
797.203	0.0139488
797.281	0.0138027
797.359	0.0137908
797.437	0.0137470
797.515	0.0136549
797.593	0.0135541
797.671	0.0135627
797.749	0.0137191
797.828	0.0136462
797.906	0.0135487
797.984	0.0135458
798.062	0.0134541
798.140	0.0134176
798.218	0.0134895
798.296	0.0134588
798.374	0.0135319
798.453	0.0135676
798.531	0.0135429
798.609	0.0136268
798.687	0.0135751
798.765	0.0135967
798.843	0.0136745
798.921	0.0136841
798.999	0.0137368
799.078	0.0137869
799.156	0.0136191
799.234	0.0137588
799.312	0.0137520
799.390	0.0137169
799.468	0.0138058
799.546	0.0138058
799.624	0.0138840
799.703	0.0139400
799.781	0.0138062
799.859	0.0137115
799.937	0.0137772
800.015	0.0137395
800.093	0.0139054
800.171	0.0138545
800.249	0.0139267
800.328	0.0139075
800.406	0.0140174
800.484	0.0140405
800.562	0.0139049
800.640	0.0141275
800.718	0.0140685
800.796	0.0139664
800.874	0.0141351
800.953	0.0139229
801.031	0.0138754
801.109	0.0138684
801.187	0.0138885
801.265	0.0138089
801.343	0.0138486
801.421	0.0137336
801.499	0.0136275
801.578	0.0136529
801.656	0.0136292
801.734	0.0136349
801.812	0.0135954
801.890	0.0136611
801.968	0.0136072
802.046	0.0136262
802.124	0.0138402
802.203	0.0137377
802.281	0.0137821
802.359	0.0137199
802.437	0.0138210
802.515	0.0138795
802.593	0.0139872
802.671	0.0139730
802.749	0.0140314
802.828	0.0139528
802.906	0.0139046
802.984	0.0138998
803.062	0.0138313
803.140	0.0137123
803.218	0.0135359
803.296	0.0137025
803.374	0.0138824
803.453	0.0136127
803.531	0.0134638
803.609	0.0135603
803.687	0.0135102
803.765	0.0134496
803.843	0.0135081
803.921	0.0134473
803.999	0.0134502
804.078	0.0136357
804.156	0.0135222
804.234	0.0136246
804.312	0.0136362
804.390	0.0136258
804.468	0.0137077
804.546	0.0138511
804.624	0.0136054
804.703	0.0136606
804.781	0.0136672
804.859	0.0135947
804.937	0.0134980
805.015	0.0135150
805.093	0.0135693
805.171	0.0134142
805.249	0.0134076
805.328	0.0132872
805.406	0.0133714
805.484	0.0133790
805.562	0.0134005
805.640	0.0132551
805.718	0.0134380
805.796	0.0133246
805.874	0.0133160
805.953	0.0135320
806.031	0.0133870
806.109	0.0134684
806.187	0.0137126
806.265	0.0135262
806.343	0.0136811
806.421	0.0139188
806.499	0.0137806
806.578	0.0137293
806.656	0.0138622
806.734	0.0139011
806.812	0.0139989
806.890	0.0139417
806.968	0.0138421
807.046	0.0138230
807.124	0.0138518
807.203	0.0136508
807.281	0.0137138
807.359	0.0136169
807.437	0.0135526
807.515	0.0135560
807.593	0.0135806
807.671	0.0135976
807.749	0.0134363
807.828	0.0135183
807.906	0.0135040
807.984	0.0135246
808.062	0.0135047
808.140	0.0135764
808.218	0.0134272
808.296	0.0135434
808.374	0.0136188
808.453	0.0134005
808.531	0.0133160
808.609	0.0135021
808.687	0.0136742
808.765	0.0137138
808.843	0.0134730
808.921	0.0136796
808.999	0.0135136
809.078	0.0136634
809.156	0.0136959
809.234	0.0136881
809.312	0.0138918
809.390	0.0137263
809.468	0.0138611
809.546	0.0138709
809.624	0.0137920
809.703	0.0138759
809.781	0.0139689
809.859	0.0141557
809.937	0.0140497
810.015	0.0139547
810.093	0.0139054
810.171	0.0139825
810.249	0.0140968
810.328	0.0138833
810.406	0.0140992
810.484	0.0139559
810.562	0.0139296
810.640	0.0139673
810.718	0.0140520
810.796	0.0137933
810.874	0.0138041
810.953	0.0137820
811.031	0.0136871
811.109	0.0137845
811.187	0.0136891
811.265	0.0136929
811.343	0.0135777
811.421	0.0135880
811.499	0.0135509
811.578	0.0134787
811.656	0.0133766
811.734	0.0134615
811.812	0.0135070
811.890	0.0133914
811.968	0.0134043
812.046	0.0134855
812.124	0.0133232
812.203	0.0134075
812.281	0.0134490
812.359	0.0134406
812.437	0.0133221
812.515	0.0133868
812.593	0.0134262
812.671	0.0133927
812.749	0.0134404
812.828	0.0134315
812.906	0.0135150
812.984	0.0134448
813.062	0.0134914
813.140	0.0134534
813.218	0.0135962
813.296	0.0134890
813.374	0.0135644
813.453	0.0137056
813.531	0.0137481
813.609	0.0136410
813.687	0.0136259
813.765	0.0137151
813.843	0.0137923
813.921	0.0136731
813.999	0.0137932
814.078	0.0136978
814.156	0.0136387
814.234	0.0136894
814.312	0.0136326
814.390	0.0137421
814.468	0.0136167
814.546	0.0136993
814.624	0.0135767
814.703	0.0138190
814.781	0.0136000
814.859	0.0135310
814.937	0.0137189
815.015	0.0135790
815.093	0.0136832
815.171	0.0136351
815.249	0.0136519
815.328	0.0135731
815.406	0.0135846
815.484	0.0135021
815.562	0.0135914
815.640	0.0136372
815.718	0.0135490
815.796	0.0135170
815.874	0.0136642
815.953	0.0136658
816.031	0.0137094
816.109	0.0136726
816.187	0.0135841
816.265	0.0135400
816.343	0.0136607
816.421	0.0136879
816.499	0.0135085
816.578	0.0135937
816.656	0.0136655
816.734	0.0134874
816.812	0.0134560
816.890	0.0134488
816.968	0.0134542
817.046	0.0136186
817.124	0.0134909
817.203	0.0135461
817.281	0.0135763
817.359	0.0135651
817.437	0.0135799
817.515	0.0136076
817.593	0.0137029
817.671	0.0135568
817.749	0.0137239
817.828	0.0136549
817.906	0.0136005
817.984	0.0136411
818.062	0.0136941
818.140	0.0136076
818.218	0.0133994
818.296	0.0135099
818.374	0.0134528
818.453	0.0134219
818.531	0.0133876
818.609	0.0135954
818.687	0.0135607
818.765	0.0134939
818.843	0.0134911
818.921	0.0135307
818.999	0.0135333
819.078	0.0136206
819.156	0.0136304
819.234	0.0138023
819.312	0.0137663
819.390	0.0138192
819.468	0.0139184
819.546	0.0138586
819.624	0.0137508
819.703	0.0138356
819.781	0.0138033
819.859	0.0138323
819.937	0.0138087
820.015	0.0137235
820.093	0.0137849
820.171	0.0136975
820.249	0.0137804
820.328	0.0137977
820.406	0.0137441
820.484	0.0137603
820.562	0.0136248
820.640	0.0135777
820.718	0.0136201
820.796	0.0136673
820.874	0.0135724
820.953	0.0135271
821.031	0.0135757
821.109	0.0136308
821.187	0.0136618
821.265	0.0135751
821.343	0.0133820
821.421	0.0136751
821.499	0.0138122
821.578	0.0137659
821.656	0.0136966
821.734	0.0136607
821.812	0.0137375
821.890	0.0137511
821.968	0.0137077
822.046	0.0135613
822.124	0.0137614
822.203	0.0137911
822.281	0.0138036
822.359	0.0137556
822.437	0.0137915
822.515	0.0136652
822.593	0.0136605
822.671	0.0136618
822.749	0.0137177
822.828	0.0135464
822.906	0.0136437
822.984	0.0136426
823.062	0.0135888
823.140	0.0135613
823.218	0.0135557
823.296	0.0135524
823.374	0.0135492
823.453	0.0135759
823.531	0.0135146
823.609	0.0137382
823.687	0.0135971
823.765	0.0135308
823.843	0.0135728
823.921	0.0136697
823.999	0.0135505
824.078	0.0136161
824.156	0.0136441
824.234	0.0136017
824.312	0.0136370
824.390	0.0136794
824.468	0.0137585
824.546	0.0136689
824.624	0.0135426
824.703	0.0135265
824.781	0.0136809
824.859	0.0137407
824.937	0.0137733
825.015	0.0137482
825.093	0.0136492
825.171	0.0135983
825.249	0.0135867
825.328	0.0137304
825.406	0.0136990
825.484	0.0136363
825.562	0.0137663
825.640	0.0137015
825.718	0.0137529
825.796	0.0137922
825.874	0.0136534
825.953	0.0136588
826.031	0.0138280
826.109	0.0138721
826.187	0.0136872
826.265	0.0136432
826.343	0.0138225
826.421	0.0138535
826.499	0.0138107
826.578	0.0138231
826.656	0.0139021
826.734	0.0137737
826.812	0.0137762
826.890	0.0138979
826.968	0.0138786
827.046	0.0137373
827.124	0.0138914
827.203	0.0138481
827.281	0.0137811
827.359	0.0138618
827.437	0.0138271
827.515	0.0137573
827.593	0.0137589
827.671	0.0138100
827.749	0.0138572
827.828	0.0137256
827.906	0.0135788
827.984	0.0136867
828.062	0.0137793
828.140	0.0136077
828.218	0.0135851
828.296	0.0136335
828.374	0.0136560
828.453	0.0135513
828.531	0.0135448
828.609	0.0136802
828.687	0.0135905
828.765	0.0136556
828.843	0.0136667
828.921	0.0136028
828.999	0.0136816
829.078	0.0136676
829.156	0.0136781
829.234	0.0136767
829.312	0.0137302
829.390	0.0138334
829.468	0.0137168
829.546	0.0134618
829.624	0.0137946
829.703	0.0137935
829.781	0.0137755
829.859	0.0137098
829.937	0.0136252
830.015	0.0137015
830.093	0.0136761
830.171	0.0136992
830.249	0.0137378
830.328	0.0135147
830.406	0.0135543
830.484	0.0136282
830.562	0.0136147
830.640	0.0135490
830.718	0.0136316
830.796	0.0136159
830.874	0.0136038
830.953	0.0136146
831.031	0.0136751
831.109	0.0136435
831.187	0.0136544
831.265	0.0136344
831.343	0.0137067
831.421	0.0136891
831.499	0.0138890
831.578	0.0138438
831.656	0.0136046
831.734	0.0137837
831.812	0.0137864
831.890	0.0135669
831.968	0.0137393
832.046	0.0139104
832.124	0.0136552
832.203	0.0136818
832.281	0.0136386
832.359	0.0138215
832.437	0.0138654
832.515	0.0137170
832.593	0.0138489
832.671	0.0138065
832.749	0.0138549
832.828	0.0140059
832.906	0.0138807
832.984	0.0138445
833.062	0.0138039
833.140	0.0138695
833.218	0.0138809
833.296	0.0136252
833.374	0.0138038
833.453	0.0138903
833.531	0.0137762
833.609	0.0137914
833.687	0.0137673
833.765	0.0137280
833.843	0.0137656
833.921	0.0136601
833.999	0.0137164
834.078	0.0137357
834.156	0.0135706
834.234	0.0136014
834.312	0.0135956
834.390	0.0135152
834.468	0.0136535
834.546	0.0135528
834.624	0.0134987
834.703	0.0134664
834.781	0.0133987
834.859	0.0134504
834.937	0.0133647
835.015	0.0134268
835.093	0.0134959
835.171	0.0134315
835.249	0.0134615
835.328	0.0136244
835.406	0.0132218
835.484	0.0131786
835.562	0.0132954
835.640	0.0132973
835.718	0.0133710
835.796	0.0132610
835.874	0.0133204
835.953	0.0132869
836.031	0.0134196
836.109	0.0135512
836.187	0.0134724
836.265	0.0134827
836.343	0.0133801
836.421	0.0133605
836.499	0.0135816
836.578	0.0134856
836.656	0.0133994
836.734	0.0134487
836.812	0.0133484
836.890	0.0134671
836.968	0.0134452
837.046	0.0133697
837.124	0.0135829
837.203	0.0134783
837.281	0.0135397
837.359	0.0134501
837.437	0.0134687
837.515	0.0135287
837.593	0.0134863
837.671	0.0136376
837.749	0.0136325
837.828	0.0137259
837.906	0.0137054
837.984	0.0138231
838.062	0.0137712
838.140	0.0139005
838.218	0.0139717
838.296	0.0139048
838.374	0.0140140
838.453	0.0140663
838.531	0.0140745
838.609	0.0140785
838.687	0.0137551
838.765	0.0138504
838.843	0.0139365
838.921	0.0138396
838.999	0.0139500
839.078	0.0139064
839.156	0.0139440
839.234	0.0139678
839.312	0.0140171
839.390	0.0139349
839.468	0.0137450
839.546	0.0139227
839.624	0.0137714
839.703	0.0136520
839.781	0.0137484
839.859	0.0137363
839.937	0.0136156
840.015	0.0137524
840.093	0.0136958
840.171	0.0135669
840.249	0.0136139
840.328	0.0136272
840.406	0.0135386
840.484	0.0136581
840.562	0.0136581
840.640	0.0134864
840.718	0.0135844
840.796	0.0134195
840.874	0.0134956
840.953	0.0134480
841.031	0.0135217
841.109	0.0135372
841.187	0.0134231
841.265	0.0134534
841.343	0.0135206
841.421	0.0134538
841.499	0.0135940
841.578	0.0135349
841.656	0.0135055
841.734	0.0135980
841.812	0.0136673
841.890	0.0135992
841.968	0.0136616
842.046	0.0136672
842.124	0.0138146
842.203	0.0138472
842.281	0.0137359
842.359	0.0137125
842.437	0.0140488
842.515	0.0138205
842.593	0.0138871
842.671	0.0139098
842.749	0.0139289
842.828	0.0137564
842.906	0.0138903
842.984	0.0138615
843.062	0.0139381
843.140	0.0139528
843.218	0.0137474
843.296	0.0137489
843.374	0.0136461
843.453	0.0138633
843.531	0.0138968
843.609	0.0138289
843.687	0.0137534
843.765	0.0137575
843.843	0.0136412
843.921	0.0138606
843.999	0.0138142
844.078	0.0139083
844.156	0.0138742
844.234	0.0139838
844.312	0.0138880
844.390	0.0138837
844.468	0.0139158
844.546	0.0139686
844.624	0.0138437
844.703	0.0138118
844.781	0.0138823
844.859	0.0139587
844.937	0.0137621
845.015	0.0137069
845.093	0.0138108
845.171	0.0138589
845.249	0.0137593
845.328	0.0138846
845.406	0.0138164
845.484	0.0139057
845.562	0.0137957
845.640	0.0138581
845.718	0.0138425
845.796	0.0137958
845.874	0.0138026
845.953	0.0138902
846.031	0.0137344
846.109	0.0137428
846.187	0.0137628
846.265	0.0138181
846.343	0.0136910
846.421	0.0136800
846.499	0.0137365
846.578	0.0136379
846.656	0.0135288
846.734	0.0137391
846.812	0.0135812
846.890	0.0135056
846.968	0.0137479
847.046	0.0135931
847.124	0.0136310
847.203	0.0137003
847.281	0.0137846
847.359	0.0137847
847.437	0.0138286
847.515	0.0137125
847.593	0.0136861
847.671	0.0137768
847.749	0.0136598
847.828	0.0137986
847.906	0.0138884
847.984	0.0137468
848.062	0.0136794
848.140	0.0136811
848.218	0.0136786
848.296	0.0135835
848.374	0.0137182
848.453	0.0137145
848.531	0.0136068
848.609	0.0136876
848.687	0.0138593
848.765	0.0138037
848.843	0.0136433
848.921	0.0136424
848.999	0.0137864
849.078	0.0136838
849.156	0.0136736
849.234	0.0136264
849.312	0.0136437
849.390	0.0136354
849.468	0.0137373
849.546	0.0137008
849.624	0.0135838
849.703	0.0136792
849.781	0.0137514
849.859	0.0135930
849.937	0.0136758
850.015	0.0136459
850.093	0.0136864
850.171	0.0136712
850.249	0.0135455
850.328	0.0136000
850.406	0.0135754
850.484	0.0135745
850.562	0.0136511
850.640	0.0136029
850.718	0.0136376
850.796	0.0136029
850.874	0.0135027
850.953	0.0135611
851.031	0.0136283
851.109	0.0135817
851.187	0.0134732
851.265	0.0134063
851.343	0.0135497
851.421	0.0136651
851.499	0.0135463
851.578	0.0135410
851.656	0.0135129
851.734	0.0134399
851.812	0.0134109
851.890	0.0135741
851.968	0.0135453
852.046	0.0134474
852.124	0.0135668
852.203	0.0134367
852.281	0.0133327
852.359	0.0135679
852.437	0.0134257
852.515	0.0134048
852.593	0.0134340
852.671	0.0134016
852.749	0.0135760
852.828	0.0136064
852.906	0.0135017
852.984	0.0135185
853.062	0.0134836
853.140	0.0135523
853.218	0.0136099
853.296	0.0135718
853.374	0.0137177
853.453	0.0138447
853.531	0.0137838
853.609	0.0137600
853.687	0.0136958
853.765	0.0139196
853.843	0.0138737
853.921	0.0139298
853.999	0.0140295
854.078	0.0141268
854.156	0.0140308
854.234	0.0140476
854.312	0.0140684
854.390	0.0140018
854.468	0.0139638
854.546	0.0140474
854.624	0.0139549
854.703	0.0138658
854.781	0.0139146
854.859	0.0138418
854.937	0.0137724
855.015	0.0137266
855.093	0.0136710
855.171	0.0136802
855.249	0.0136685
855.328	0.0136773
855.406	0.0135686
855.484	0.0134709
855.562	0.0135536
855.640	0.0134906
855.718	0.0136220
855.796	0.0135480
855.874	0.0134911
855.953	0.0136383
856.031	0.0135061
856.109	0.0134299
856.187	0.0135691
856.265	0.0136634
856.343	0.0136536
856.421	0.0136543
856.499	0.0135429
856.578	0.0135986
856.656	0.0135480
856.734	0.0136730
856.812	0.0136615
856.890	0.0136491
856.968	0.0136385
857.046	0.0136134
857.124	0.0138547
857.203	0.0137177
857.281	0.0136382
857.359	0.0137239
857.437	0.0136434
857.515	0.0136750
857.593	0.0136827
857.671	0.0135622
857.749	0.0137856
857.828	0.0137234
857.906	0.0136652
857.984	0.0137092
858.062	0.0138474
858.140	0.0136615
858.218	0.0137691
858.296	0.0136856
858.374	0.0136758
858.453	0.0136673
858.531	0.0135509
858.609	0.0136285
858.687	0.0137085
858.765	0.0136182
858.843	0.0135654
858.921	0.0136452
858.999	0.0135208
859.078	0.0137025
859.156	0.0136566
859.234	0.0137411
859.312	0.0135836
859.390	0.0135400
859.468	0.0135435
859.546	0.0136192
859.624	0.0135450
859.703	0.0137137
859.781	0.0135509
859.859	0.0135677
859.937	0.0137385
860.015	0.0136611
860.093	0.0135586
860.171	0.0136584
860.249	0.0136214
860.328	0.0135493
860.406	0.0137971
860.484	0.0138866
860.562	0.0136154
860.640	0.0135858
860.718	0.0138686
860.796	0.0136369
860.874	0.0137669
860.953	0.0138734
861.031	0.0138018
861.109	0.0137834
861.187	0.0136726
861.265	0.0137990
861.343	0.0137642
861.421	0.0137473
861.499	0.0137546
861.578	0.0137362
861.656	0.0139231
861.734	0.0137846
861.812	0.0137678
861.890	0.0139191
861.968	0.0139155
862.046	0.0137549
862.124	0.0138165
862.203	0.0138062
862.281	0.0138152
862.359	0.0138206
862.437	0.0137777
862.515	0.0138486
862.593	0.0136750
862.671	0.0136063
862.749	0.0136420
862.828	0.0137216
862.906	0.0136424
862.984	0.0135181
863.062	0.0136348
863.140	0.0135651
863.218	0.0136272
863.296	0.0137358
863.374	0.0136875
863.453	0.0138800
863.531	0.0138371
863.609	0.0137373
863.687	0.0137040
863.765	0.0137704
863.843	0.0138475
863.921	0.0139908
863.999	0.0138512
864.078	0.0138680
864.156	0.0139169
864.234	0.0139288
864.312	0.0138351
864.390	0.0137331
864.468	0.0138038
864.546	0.0138710
864.624	0.0138222
864.703	0.0136959
864.781	0.0138347
864.859	0.0137608
864.937	0.0137679
865.015	0.0135976
865.093	0.0136474
865.171	0.0136882
865.249	0.0135561
865.328	0.0136640
865.406	0.0136661
865.484	0.0136723
865.562	0.0136349
865.640	0.0136089
865.718	0.0134910
865.796	0.0135439
865.874	0.0136993
865.953	0.0136697
866.031	0.0135492
866.109	0.0135219
866.187	0.0135574
866.265	0.0134542
866.343	0.0135173
866.421	0.0135426
866.499	0.0136722
866.578	0.0137602
866.656	0.0136320
866.734	0.0137254
866.812	0.0138928
866.890	0.0138438
866.968	0.0136578
867.046	0.0138009
867.124	0.0138541
867.203	0.0137916
867.281	0.0138910
867.359	0.0139754
867.437	0.0140475
867.515	0.0138985
867.593	0.0140322
867.671	0.0138840
867.749	0.0140148
867.828	0.0140474
867.906	0.0139710
867.984	0.0137039
868.062	0.0140143
868.140	0.0139687
868.218	0.0139059
868.296	0.0137781
868.374	0.0138270
868.453	0.0136265
868.531	0.0137086
868.609	0.0137722
868.687	0.0137427
868.765	0.0137231
868.843	0.0137359
868.921	0.0136519
868.999	0.0136175
869.078	0.0136961
869.156	0.0135881
869.234	0.0136531
869.312	0.0136622
869.390	0.0135206
869.468	0.0134900
869.546	0.0135497
869.624	0.0134870
869.703	0.0134569
869.781	0.0135474
869.859	0.0133988
869.937	0.0134372
870.015	0.0134765
870.093	0.0133881
870.171	0.0134093
870.249	0.0134223
870.328	0.0134864
870.406	0.0133861
870.484	0.0133993
870.562	0.0134361
870.640	0.0134286
870.718	0.0134141
870.796	0.0133884
870.874	0.0134975
870.953	0.0134459
871.031	0.0134712
871.109	0.0134927
871.187	0.0136255
871.265	0.0136811
871.343	0.0137878
871.421	0.0137212
871.499	0.0136074
871.578	0.0137071
871.656	0.0137713
871.734	0.0137584
871.812	0.0137360
871.890	0.0138078
871.968	0.0136948
872.046	0.0137051
872.124	0.0137737
872.203	0.0137503
872.281	0.0137346
872.359	0.0136658
872.437	0.0135866
872.515	0.0136065
872.593	0.0135841
872.671	0.0134516
872.749	0.0135276
872.828	0.0134722
872.906	0.0135098
872.984	0.0135406
873.062	0.0135158
873.140	0.0135679
873.218	0.0133920
873.296	0.0135397
873.374	0.0135799
873.453	0.0134388
873.531	0.0134066
873.609	0.0133994
873.687	0.0135437
873.765	0.0136106
873.843	0.0134772
873.921	0.0135765
873.999	0.0135146
874.078	0.0136375
874.156	0.0135679
874.234	0.0135799
874.312	0.0134953
874.390	0.0136336
874.468	0.0135741
874.546	0.0134270
874.624	0.0134145
874.703	0.0134226
874.781	0.0135193
874.859	0.0134527
874.937	0.0136023
875.015	0.0135445
875.093	0.0134335
875.171	0.0134597
875.249	0.0135224
875.328	0.0135538
875.406	0.0135964
875.484	0.0136612
875.562	0.0136798
875.640	0.0134489
875.718	0.0135548
875.796	0.0135416
875.874	0.0135742
875.953	0.0133767
876.031	0.0136160
876.109	0.0135574
876.187	0.0135099
876.265	0.0135899
876.343	0.0134982
876.421	0.0136189
876.499	0.0135990
876.578	0.0134748
876.656	0.0135511
876.734	0.0136670
876.812	0.0135490
876.890	0.0134628
876.968	0.0135556
877.046	0.0134498
877.124	0.0133479
877.203	0.0135729
877.281	0.0134960
877.359	0.0134509
877.437	0.0134158
877.515	0.0135598
877.593	0.0134605
877.671	0.0133369
877.749	0.0135102
877.828	0.0134801
877.906	0.0134971
877.984	0.0136152
878.062	0.0135210
878.140	0.0134654
878.218	0.0137941
878.296	0.0135726
878.374	0.0136756
878.453	0.0136941
878.531	0.0136772
878.609	0.0136225
878.687	0.0139156
878.765	0.0137513
878.843	0.0138670
878.921	0.0138174
878.999	0.0137222
879.078	0.0137869
879.156	0.0139227
879.234	0.0138199
879.312	0.0138116
879.390	0.0138344
879.468	0.0137225
879.546	0.0138390
879.624	0.0136970
879.703	0.0136613
879.781	0.0137487
879.859	0.0136314
879.937	0.0136288
880.015	0.0136195
880.093	0.0134556
880.171	0.0134287
880.249	0.0135040
880.328	0.0133002
880.406	0.0133379
880.484	0.0134724
880.562	0.0133614
880.640	0.0133507
880.718	0.0132584
880.796	0.0133759
880.874	0.0133989
880.953	0.0134902
881.031	0.0133757
881.109	0.0133334
881.187	0.0133457
881.265	0.0134254
881.343	0.0134054
881.421	0.0135508
881.499	0.0134155
881.578	0.0134207
881.656	0.0134606
881.734	0.0134559
881.812	0.0136604
881.890	0.0135641
881.968	0.0136217
882.046	0.0136224
882.124	0.0136158
882.203	0.0136275
882.281	0.0136634
882.359	0.0136048
882.437	0.0137146
882.515	0.0137579
882.593	0.0137943
882.671	0.0138236
882.749	0.0139181
882.828	0.0137617
882.906	0.0136303
882.984	0.0136615
883.062	0.0137366
883.140	0.0138288
883.218	0.0137289
883.296	0.0136773
883.374	0.0138326
883.453	0.0136359
883.531	0.0135549
883.609	0.0136035
883.687	0.0136098
883.765	0.0136639
883.843	0.0134511
883.921	0.0137360
883.999	0.0136396
884.078	0.0135928
884.156	0.0136330
884.234	0.0136272
884.312	0.0136841
884.390	0.0135567
884.468	0.0135096
884.546	0.0136612
884.624	0.0137029
884.703	0.0136121
884.781	0.0135751
884.859	0.0136278
884.937	0.0136372
885.015	0.0134852
885.093	0.0136196
885.171	0.0137583
885.249	0.0136074
885.328	0.0134760
885.406	0.0135937
885.484	0.0135583
885.562	0.0136307
885.640	0.0135476
885.718	0.0134856
885.796	0.0135722
885.874	0.0136741
885.953	0.0135567
886.031	0.0136407
886.109	0.0136558
886.187	0.0135847
886.265	0.0135572
886.343	0.0136098
886.421	0.0135968
886.499	0.0136363
886.578	0.0137794
886.656	0.0136946
886.734	0.0137188
886.812	0.0137799
886.890	0.0136736
886.968	0.0136189
887.046	0.0137202
887.124	0.0136201
887.203	0.0137376
887.281	0.0137713
887.359	0.0136784
887.437	0.0137471
887.515	0.0135753
887.593	0.0137273
887.671	0.0137235
887.749	0.0136145
887.828	0.0135457
887.906	0.0137154
887.984	0.0136683
888.062	0.0136085
888.140	0.0137183
888.218	0.0136416
888.296	0.0136227
888.374	0.0135876
888.453	0.0136459
888.531	0.0137958
888.609	0.0137119
888.687	0.0138368
888.765	0.0137758
888.843	0.0136236
888.921	0.0137946
888.999	0.0137219
889.078	0.0137021
889.156	0.0136253
889.234	0.0137987
889.312	0.0137321
889.390	0.0137865
889.468	0.0136711
889.546	0.0136403
889.624	0.0137847
889.703	0.0137612
889.781	0.0136279
889.859	0.0136464
889.937	0.0135905
890.015	0.0135943
890.093	0.0135184
890.171	0.0136230
890.249	0.0135942
890.328	0.0136386
890.406	0.0137959
890.484	0.0135854
890.562	0.0135838
890.640	0.0137693
890.718	0.0137518
890.796	0.0135664
890.874	0.0136814
890.953	0.0136368
891.031	0.0136653
891.109	0.0138084
891.187	0.0137173
891.265	0.0136501
891.343	0.0137288
891.421	0.0136980
891.499	0.0136480
891.578	0.0136323
891.656	0.0136126
891.734	0.0136188
891.812	0.0137555
891.890	0.0136071
891.968	0.0136782
892.046	0.0137485
892.124	0.0137259
892.203	0.0134956
892.281	0.0137132
892.359	0.0137025
892.437	0.0135761
892.515	0.0135880
892.593	0.0135388
892.671	0.0136512
892.749	0.0135766
892.828	0.0136212
892.906	0.0137234
892.984	0.0135876
893.062	0.0135885
893.140	0.0135650
893.218	0.0137430
893.296	0.0136134
893.374	0.0135550
893.453	0.0136628
893.531	0.0136172
893.609	0.0136872
893.687	0.0136767
893.765	0.0135204
893.843	0.0136380
893.921	0.0137503
893.999	0.0136166
894.078	0.0135871
894.156	0.0136137
894.234	0.0136132
894.312	0.0136543
894.390	0.0135191
894.468	0.0136268
894.546	0.0136591
894.624	0.0135181
894.703	0.0137302
894.781	0.0134775
894.859	0.0135556
894.937	0.0136031
895.015	0.0134532
895.093	0.0133402
895.171	0.0136351
895.249	0.0135078
895.328	0.0132492
895.406	0.0133369
895.484	0.0134032
895.562	0.0134343
895.640	0.0133791
895.718	0.0132880
895.796	0.0134463
895.874	0.0135169
895.953	0.0135731
896.031	0.0134309
896.109	0.0135225
896.187	0.0135194
896.265	0.0136719
896.343	0.0137347
896.421	0.0136665
896.499	0.0136455
896.578	0.0137813
896.656	0.0138641
896.734	0.0138652
896.812	0.0138580
896.890	0.0138503
896.968	0.0137941
897.046	0.0138517
897.124	0.0138626
897.203	0.0139015
897.281	0.0137447
897.359	0.0137656
897.437	0.0136777
897.515	0.0137101
897.593	0.0138188
897.671	0.0136854
897.749	0.0136887
897.828	0.0137290
897.906	0.0138084
897.984	0.0136380
898.062	0.0135773
898.140	0.0136668
898.218	0.0135773
898.296	0.0135548
898.374	0.0135282
898.453	0.0134930
898.531	0.0133328
898.609	0.0133369
898.687	0.0134308
898.765	0.0133360
898.843	0.0131392
898.921	0.0132082
898.999	0.0131155
899.078	0.0131855
899.156	0.0132213
899.234	0.0132072
899.312	0.0132810
899.390	0.0132933
899.468	0.0131704
899.546	0.0132421
899.624	0.0132948
899.703	0.0133276
899.781	0.0132455
899.859	0.0134100
899.937	0.0133067
900.015	0.0133035
900.093	0.0134801
900.171	0.0135136
900.249	0.0133585
900.328	0.0134805
900.406	0.0135954
900.484	0.0135300
900.562	0.0135945
900.640	0.0138172
900.718	0.0137200
900.796	0.0137799
900.874	0.0137484
900.953	0.0138782
901.031	0.0138298
901.109	0.0138142
901.187	0.0140109
901.265	0.0140652
901.343	0.0140719
901.421	0.0140626
901.499	0.0140584
901.578	0.0141544
901.656	0.0141381
901.734	0.0141964
901.812	0.0141505
901.890	0.0141795
901.968	0.0141805
902.046	0.0140403
902.124	0.0141484
902.203	0.0141248
902.281	0.0141037
902.359	0.0139863
902.437	0.0139241
902.515	0.0138074
902.593	0.0137373
902.671	0.0137947
902.749	0.0138137
902.828	0.0136972
902.906	0.0136626
902.984	0.0135635
903.062	0.0136285
903.140	0.0136211
903.218	0.0134984
903.296	0.0134203
903.374	0.0135734
903.453	0.0135531
903.531	0.0136514
903.609	0.0135725
903.687	0.0135413
903.765	0.0134487
903.843	0.0135262
903.921	0.0134668
903.999	0.0135449
904.078	0.0135732
904.156	0.0134151
904.234	0.0136070
904.312	0.0134867
904.390	0.0134822
904.468	0.0135175
904.546	0.0135814
904.624	0.0136073
904.703	0.0136192
904.781	0.0137545
904.859	0.0137328
904.937	0.0136867
905.015	0.0134811
905.093	0.0135240
905.171	0.0135950
905.249	0.0138331
905.328	0.0137271
905.406	0.0136273
905.484	0.0137073
905.562	0.0136772
905.640	0.0136901
905.718	0.0136438
905.796	0.0137064
905.874	0.0137212
905.953	0.0138955
906.031	0.0138229
906.109	0.0135619
906.187	0.0136926
906.265	0.0137815
906.343	0.0138266
906.421	0.0138870
906.499	0.0137765
906.578	0.0137703
906.656	0.0137649
906.734	0.0136547
906.812	0.0136644
906.890	0.0137738
906.968	0.0137666
907.046	0.0139076
907.124	0.0136842
907.203	0.0137832
907.281	0.0138634
907.359	0.0137695
907.437	0.0138661
907.515	0.0137729
907.593	0.0137239
907.671	0.0137565
907.749	0.0138206
907.828	0.0137151
907.906	0.0136246
907.984	0.0137772
908.062	0.0138513
908.140	0.0137705
908.218	0.0134772
908.296	0.0135583
908.374	0.0136817
908.453	0.0135193
908.531	0.0135876
908.609	0.0136642
908.687	0.0138064
908.765	0.0136844
908.843	0.0137113
908.921	0.0135193
908.999	0.0136041
909.078	0.0137053
909.156	0.0137433
909.234	0.0135284
909.312	0.0137080
909.390	0.0136375
909.468	0.0136933
909.546	0.0137257
909.624	0.0136344
909.703	0.0138114
909.781	0.0138329
909.859	0.0138321
909.937	0.0137312
910.015	0.0136176
910.093	0.0137547
910.171	0.0137244
910.249	0.0138136
910.328	0.0137282
910.406	0.0137466
910.484	0.0137205
910.562	0.0137004
910.640	0.0136900
910.718	0.0137758
910.796	0.0137260
910.874	0.0137802
910.953	0.0137506
911.031	0.0138276
911.109	0.0138252
911.187	0.0137880
911.265	0.0137791
911.343	0.0138393
911.421	0.0138067
911.499	0.0137593
911.578	0.0138461
911.656	0.0138969
911.734	0.0138929
911.812	0.0137528
911.890	0.0138467
911.968	0.0138439
912.046	0.0137516
912.124	0.0137222
912.203	0.0138439
912.281	0.0137231
912.359	0.0137812
912.437	0.0138621
912.515	0.0138351
912.593	0.0137383
912.671	0.0137405
912.749	0.0136685
912.828	0.0137919
912.906	0.0137531
912.984	0.0137797
913.062	0.0138600
913.140	0.0137793
913.218	0.0138184
913.296	0.0137302
913.374	0.0137605
913.453	0.0138188
913.531	0.0136274
913.609	0.0137422
913.687	0.0138570
913.765	0.0137174
913.843	0.0137720
913.921	0.0137963
913.999	0.0138123
914.078	0.0138548
914.156	0.0137293
914.234	0.0135857
914.312	0.0137453
914.390	0.0138467
914.468	0.0137464
914.546	0.0137329
914.624	0.0136777
914.703	0.0136578
914.781	0.0137245
914.859	0.0138040
914.937	0.0138521
915.015	0.0138958
915.093	0.0137398
915.171	0.0138247
915.249	0.0138255
915.328	0.0136806
915.406	0.0136716
915.484	0.0138438
915.562	0.0137132
915.640	0.0137566
915.718	0.0137339
915.796	0.0137027
915.874	0.0137637
915.953	0.0137376
916.031	0.0136444
916.109	0.0135761
916.187	0.0136392
916.265	0.0135954
916.343	0.0136837
916.421	0.0136388
916.499	0.0136262
916.578	0.0136649
916.656	0.0137437
916.734	0.0137235
916.812	0.0137860
916.890	0.0137257
916.968	0.0137374
917.046	0.0136198
917.124	0.0137137
917.203	0.0137326
917.281	0.0135458
917.359	0.0135818
917.437	0.0136336
917.515	0.0135877
917.593	0.0136731
917.671	0.0136540
917.749	0.0136780
917.828	0.0136890
917.906	0.0136508
917.984	0.0136092
918.062	0.0135637
918.140	0.0136307
918.218	0.0136559
918.296	0.0135738
918.374	0.0135842
918.453	0.0136514
918.531	0.0136112
918.609	0.0135503
918.687	0.0135522
918.765	0.0136494
918.843	0.0137138
918.921	0.0136683
918.999	0.0135139
919.078	0.0136515
919.156	0.0136395
919.234	0.0137725
919.312	0.0137508
919.390	0.0136227
919.468	0.0135855
919.546	0.0136492
919.624	0.0136691
919.703	0.0137058
919.781	0.0136691
919.859	0.0137582
919.937	0.0137173
