06/03/2022	18:05:22	Ver.	4.1	UNKNOWN
Optical Delay	599.995081	Delta X		0.078125	Sweeps	1	Scan Rate	0/0
Coordinates	Axis 1	NaN	Axis 2	NaN	Axis 3	NaN	Axis 4	NaN	Axis 5	NaN	Axis 6	0.000000
TX Power	0.000000	RX Power	0.000000

599.995	0.0181093
600.073	0.0181395
600.151	0.0180860
600.229	0.0180373
600.308	0.0181364
600.386	0.0181525
600.464	0.0180672
600.542	0.0181739
600.620	0.0181517
600.698	0.0180679
600.776	0.0181133
600.854	0.0180724
600.933	0.0180452
601.011	0.0179484
601.089	0.0180660
601.167	0.0181767
601.245	0.0180767
601.323	0.0181456
601.401	0.0180399
601.479	0.0181064
601.558	0.0181885
601.636	0.0180666
601.714	0.0182902
601.792	0.0180827
601.870	0.0179967
601.948	0.0182674
602.026	0.0182050
602.104	0.0181478
602.183	0.0181536
602.261	0.0180898
602.339	0.0181020
602.417	0.0181936
602.495	0.0182103
602.573	0.0182135
602.651	0.0182642
602.729	0.0182768
602.808	0.0180537
602.886	0.0179969
602.964	0.0183763
603.042	0.0181874
603.120	0.0181741
603.198	0.0181903
603.276	0.0180351
603.354	0.0180676
603.433	0.0182156
603.511	0.0182243
603.589	0.0180443
603.667	0.0181542
603.745	0.0181925
603.823	0.0181888
603.901	0.0180560
603.979	0.0181496
604.058	0.0180835
604.136	0.0181364
604.214	0.0182021
604.292	0.0181487
604.370	0.0180744
604.448	0.0180877
604.526	0.0180798
604.604	0.0180844
604.683	0.0181187
604.761	0.0181181
604.839	0.0181796
604.917	0.0182277
604.995	0.0181853
605.073	0.0180905
605.151	0.0180915
605.229	0.0180070
605.308	0.0181546
605.386	0.0182551
605.464	0.0182357
605.542	0.0182930
605.620	0.0181712
605.698	0.0180415
605.776	0.0181725
605.854	0.0182329
605.933	0.0181119
606.011	0.0181264
606.089	0.0183048
606.167	0.0181119
606.245	0.0182495
606.323	0.0181544
606.401	0.0180795
606.479	0.0181536
606.558	0.0180492
606.636	0.0182292
606.714	0.0180885
606.792	0.0182275
606.870	0.0181796
606.948	0.0181135
607.026	0.0180677
607.104	0.0180550
607.183	0.0180934
607.261	0.0182452
607.339	0.0182337
607.417	0.0181985
607.495	0.0181197
607.573	0.0180473
607.651	0.0180910
607.729	0.0181813
607.808	0.0180804
607.886	0.0181829
607.964	0.0181300
608.042	0.0180956
608.120	0.0180650
608.198	0.0179715
608.276	0.0181856
608.354	0.0181711
608.433	0.0182069
608.511	0.0180503
608.589	0.0181818
608.667	0.0182623
608.745	0.0180592
608.823	0.0180769
608.901	0.0182054
608.979	0.0180471
609.058	0.0180591
609.136	0.0181023
609.214	0.0182863
609.292	0.0182878
609.370	0.0181561
609.448	0.0181615
609.526	0.0181261
609.604	0.0182271
609.683	0.0181692
609.761	0.0180651
609.839	0.0181519
609.917	0.0181107
609.995	0.0181390
610.073	0.0182246
610.151	0.0182008
610.229	0.0181068
610.308	0.0180086
610.386	0.0181028
610.464	0.0180837
610.542	0.0180291
610.620	0.0181499
610.698	0.0181596
610.776	0.0180437
610.854	0.0180872
610.933	0.0181256
611.011	0.0182764
611.089	0.0182294
611.167	0.0181905
611.245	0.0181546
611.323	0.0181057
611.401	0.0181393
611.479	0.0180255
611.558	0.0180144
611.636	0.0180949
611.714	0.0180210
611.792	0.0179352
611.870	0.0179584
611.948	0.0180391
612.026	0.0181902
612.104	0.0180328
612.183	0.0180714
612.261	0.0182021
612.339	0.0179795
612.417	0.0180654
612.495	0.0181403
612.573	0.0181670
612.651	0.0181304
612.729	0.0181305
612.808	0.0181194
612.886	0.0181564
612.964	0.0180599
613.042	0.0181299
613.120	0.0181506
613.198	0.0180826
613.276	0.0180551
613.354	0.0180891
613.433	0.0180386
613.511	0.0181363
613.589	0.0181358
613.667	0.0180621
613.745	0.0180870
613.823	0.0181123
613.901	0.0181360
613.979	0.0181067
614.058	0.0181388
614.136	0.0180712
614.214	0.0179861
614.292	0.0181319
614.370	0.0182812
614.448	0.0180231
614.526	0.0181511
614.604	0.0181167
614.683	0.0181679
614.761	0.0182177
614.839	0.0179814
614.917	0.0180414
614.995	0.0181008
615.073	0.0180835
615.151	0.0182090
615.229	0.0181987
615.308	0.0180846
615.386	0.0181042
615.464	0.0181862
615.542	0.0180446
615.620	0.0180460
615.698	0.0181306
615.776	0.0181121
615.854	0.0181435
615.933	0.0180912
616.011	0.0180788
616.089	0.0181733
616.167	0.0182381
616.245	0.0181551
616.323	0.0180189
616.401	0.0181852
616.479	0.0181460
616.558	0.0181842
616.636	0.0181121
616.714	0.0180750
616.792	0.0180731
616.870	0.0181788
616.948	0.0181583
617.026	0.0180715
617.104	0.0181601
617.183	0.0181228
617.261	0.0181054
617.339	0.0181873
617.417	0.0180846
617.495	0.0181136
617.573	0.0181974
617.651	0.0181208
617.729	0.0180888
617.808	0.0180440
617.886	0.0180981
617.964	0.0179982
618.042	0.0182073
618.120	0.0182169
618.198	0.0180099
618.276	0.0181858
618.354	0.0180984
618.433	0.0181601
618.511	0.0179962
618.589	0.0181451
618.667	0.0181486
618.745	0.0180169
618.823	0.0181269
618.901	0.0181833
618.979	0.0180215
619.058	0.0180475
619.136	0.0183015
619.214	0.0181013
619.292	0.0180453
619.370	0.0181672
619.448	0.0181721
619.526	0.0182076
619.604	0.0180775
619.683	0.0181758
619.761	0.0181095
619.839	0.0180694
619.917	0.0181662
619.995	0.0180787
620.073	0.0181800
620.151	0.0181580
620.229	0.0181229
620.308	0.0181255
620.386	0.0180872
620.464	0.0180080
620.542	0.0181197
620.620	0.0180617
620.698	0.0180707
620.776	0.0180986
620.854	0.0181156
620.933	0.0180587
621.011	0.0181839
621.089	0.0180895
621.167	0.0179681
621.245	0.0180461
621.323	0.0181756
621.401	0.0180544
621.479	0.0180671
621.558	0.0180491
621.636	0.0179946
621.714	0.0180734
621.792	0.0181084
621.870	0.0182056
621.948	0.0180937
622.026	0.0181300
622.104	0.0181627
622.183	0.0181024
622.261	0.0181448
622.339	0.0181113
622.417	0.0178510
622.495	0.0180402
622.573	0.0181170
622.651	0.0181001
622.729	0.0180031
622.808	0.0181348
622.886	0.0180859
622.964	0.0179851
623.042	0.0180584
623.120	0.0181441
623.198	0.0180380
623.276	0.0180322
623.354	0.0180654
623.433	0.0180962
623.511	0.0179466
623.589	0.0180447
623.667	0.0182108
623.745	0.0180328
623.823	0.0180683
623.901	0.0180444
623.979	0.0181667
624.058	0.0181177
624.136	0.0181542
624.214	0.0180210
624.292	0.0180051
624.370	0.0179942
624.448	0.0181478
624.526	0.0182024
624.604	0.0181184
624.683	0.0179806
624.761	0.0181333
624.839	0.0181293
624.917	0.0180851
624.995	0.0181119
625.073	0.0179406
625.151	0.0179951
625.229	0.0180294
625.308	0.0180055
625.386	0.0179449
625.464	0.0180907
625.542	0.0181749
625.620	0.0180975
625.698	0.0179916
625.776	0.0180095
625.854	0.0182021
625.933	0.0181662
626.011	0.0180101
626.089	0.0180840
626.167	0.0180120
626.245	0.0180844
626.323	0.0180134
626.401	0.0180555
626.479	0.0181628
626.558	0.0181036
626.636	0.0181551
626.714	0.0181882
626.792	0.0180923
626.870	0.0179681
626.948	0.0181211
627.026	0.0180902
627.104	0.0180751
627.183	0.0181242
627.261	0.0179485
627.339	0.0180891
627.417	0.0182463
627.495	0.0180107
627.573	0.0181216
627.651	0.0180598
627.729	0.0179899
627.808	0.0181359
627.886	0.0182217
627.964	0.0179709
628.042	0.0180738
628.120	0.0180719
628.198	0.0179723
628.276	0.0180981
628.354	0.0181607
628.433	0.0181026
628.511	0.0179888
628.589	0.0181844
628.667	0.0180727
628.745	0.0180638
628.823	0.0179602
628.901	0.0181207
628.979	0.0180041
629.058	0.0181688
629.136	0.0181213
629.214	0.0181583
629.292	0.0181715
629.370	0.0181335
629.448	0.0180141
629.526	0.0181145
629.604	0.0180624
629.683	0.0180788
629.761	0.0180099
629.839	0.0181214
629.917	0.0180989
629.995	0.0180894
630.073	0.0180674
630.151	0.0181893
630.229	0.0181680
630.308	0.0179975
630.386	0.0181191
630.464	0.0181705
630.542	0.0181869
630.620	0.0182793
630.698	0.0181053
630.776	0.0180757
630.854	0.0180672
630.933	0.0180128
631.011	0.0180739
631.089	0.0180499
631.167	0.0181306
631.245	0.0181170
631.323	0.0179716
631.401	0.0180287
631.479	0.0181561
631.558	0.0181818
631.636	0.0180473
631.714	0.0181212
631.792	0.0181395
631.870	0.0180135
631.948	0.0181846
632.026	0.0180862
632.104	0.0180455
632.183	0.0181796
632.261	0.0181395
632.339	0.0181097
632.417	0.0180453
632.495	0.0180061
632.573	0.0181074
632.651	0.0181030
632.729	0.0181234
632.808	0.0181861
632.886	0.0180481
632.964	0.0180767
633.042	0.0182076
633.120	0.0181343
633.198	0.0181507
633.276	0.0181680
633.354	0.0180492
633.433	0.0180784
633.511	0.0180671
633.589	0.0180401
633.667	0.0181473
633.745	0.0180869
633.823	0.0181689
633.901	0.0181833
633.979	0.0180824
634.058	0.0181055
634.136	0.0179346
634.214	0.0180703
634.292	0.0180228
634.370	0.0181566
634.448	0.0180429
634.526	0.0180306
634.604	0.0180417
634.683	0.0180357
634.761	0.0180841
634.839	0.0180313
634.917	0.0180448
634.995	0.0179928
635.073	0.0180825
635.151	0.0181200
635.229	0.0180028
635.308	0.0179726
635.386	0.0181438
635.464	0.0180112
635.542	0.0180825
635.620	0.0180280
635.698	0.0181530
635.776	0.0181897
635.854	0.0179659
635.933	0.0181358
636.011	0.0180420
636.089	0.0182039
636.167	0.0181004
636.245	0.0180615
636.323	0.0180192
636.401	0.0181831
636.479	0.0181383
636.558	0.0180222
636.636	0.0179852
636.714	0.0181900
636.792	0.0182036
636.870	0.0181762
636.948	0.0181531
637.026	0.0180278
637.104	0.0181827
637.183	0.0181049
637.261	0.0180767
637.339	0.0179559
637.417	0.0181467
637.495	0.0182186
637.573	0.0183173
637.651	0.0180128
637.729	0.0180566
637.808	0.0182160
637.886	0.0180900
637.964	0.0180191
638.042	0.0179967
638.120	0.0181186
638.198	0.0180574
638.276	0.0181573
638.354	0.0180625
638.433	0.0180131
638.511	0.0180959
638.589	0.0181441
638.667	0.0180309
638.745	0.0180380
638.823	0.0180888
638.901	0.0181809
638.979	0.0179590
639.058	0.0180186
639.136	0.0181092
639.214	0.0182722
639.292	0.0180129
639.370	0.0180135
639.448	0.0182143
639.526	0.0181990
639.604	0.0180418
639.683	0.0178840
639.761	0.0181747
639.839	0.0181148
639.917	0.0182987
639.995	0.0181226
640.073	0.0180279
640.151	0.0180258
640.229	0.0180755
640.308	0.0181226
640.386	0.0180453
640.464	0.0181659
640.542	0.0181335
640.620	0.0180016
640.698	0.0180766
640.776	0.0181851
640.854	0.0181372
640.933	0.0181054
641.011	0.0180405
641.089	0.0180946
641.167	0.0182382
641.245	0.0180666
641.323	0.0180573
641.401	0.0181837
641.479	0.0180642
641.558	0.0181693
641.636	0.0180167
641.714	0.0178792
641.792	0.0180559
641.870	0.0181540
641.948	0.0180248
642.026	0.0181272
642.104	0.0180991
642.183	0.0180975
642.261	0.0180924
642.339	0.0180602
642.417	0.0180402
642.495	0.0180631
642.573	0.0180323
642.651	0.0180894
642.729	0.0180741
642.808	0.0181073
642.886	0.0180661
642.964	0.0181252
643.042	0.0181384
643.120	0.0181532
643.198	0.0180527
643.276	0.0180977
643.354	0.0180077
643.433	0.0180954
643.511	0.0181000
643.589	0.0181194
643.667	0.0181353
643.745	0.0180676
643.823	0.0182175
643.901	0.0181335
643.979	0.0181437
644.058	0.0181049
644.136	0.0181087
644.214	0.0180901
644.292	0.0179748
644.370	0.0180711
644.448	0.0182577
644.526	0.0181913
644.604	0.0182029
644.683	0.0181356
644.761	0.0181148
644.839	0.0179859
644.917	0.0179809
644.995	0.0181109
645.073	0.0181806
645.151	0.0180882
645.229	0.0181840
645.308	0.0182601
645.386	0.0181084
645.464	0.0180976
645.542	0.0181592
645.620	0.0181580
645.698	0.0181436
645.776	0.0181329
645.854	0.0181681
645.933	0.0181160
646.011	0.0180378
646.089	0.0181434
646.167	0.0182150
646.245	0.0181944
646.323	0.0180544
646.401	0.0181142
646.479	0.0180129
646.558	0.0180230
646.636	0.0181606
646.714	0.0181154
646.792	0.0180834
646.870	0.0179226
646.948	0.0179688
647.026	0.0181316
647.104	0.0180280
647.183	0.0181538
647.261	0.0180989
647.339	0.0180698
647.417	0.0180197
647.495	0.0181451
647.573	0.0180127
647.651	0.0181702
647.729	0.0181417
647.808	0.0180597
647.886	0.0181200
647.964	0.0180171
648.042	0.0181290
648.120	0.0182248
648.198	0.0180409
648.276	0.0181460
648.354	0.0181069
648.433	0.0181022
648.511	0.0181778
648.589	0.0181423
648.667	0.0181210
648.745	0.0179647
648.823	0.0179946
648.901	0.0180680
648.979	0.0181927
649.058	0.0180909
649.136	0.0181036
649.214	0.0179827
649.292	0.0179421
649.370	0.0181441
649.448	0.0181508
649.526	0.0181168
649.604	0.0180442
649.683	0.0182025
649.761	0.0181155
649.839	0.0180794
649.917	0.0179677
649.995	0.0181487
650.073	0.0179939
650.151	0.0181630
650.229	0.0181555
650.308	0.0180312
650.386	0.0179517
650.464	0.0181985
650.542	0.0181205
650.620	0.0181331
650.698	0.0180708
650.776	0.0180031
650.854	0.0180885
650.933	0.0180469
651.011	0.0180566
651.089	0.0180035
651.167	0.0180553
651.245	0.0180708
651.323	0.0181386
651.401	0.0180317
651.479	0.0182510
651.558	0.0179742
651.636	0.0181409
651.714	0.0180984
651.792	0.0181116
651.870	0.0180833
651.948	0.0180928
652.026	0.0180458
652.104	0.0180447
652.183	0.0181689
652.261	0.0180972
652.339	0.0180097
652.417	0.0180976
652.495	0.0179720
652.573	0.0180830
652.651	0.0181337
652.729	0.0182508
652.808	0.0181966
652.886	0.0181699
652.964	0.0180228
653.042	0.0180331
653.120	0.0181005
653.198	0.0181437
653.276	0.0180945
653.354	0.0181418
653.433	0.0180627
653.511	0.0182197
653.589	0.0181690
653.667	0.0181713
653.745	0.0181767
653.823	0.0181461
653.901	0.0180680
653.979	0.0180962
654.058	0.0181570
654.136	0.0180840
654.214	0.0180901
654.292	0.0180725
654.370	0.0179852
654.448	0.0181075
654.526	0.0182607
654.604	0.0181112
654.683	0.0181084
654.761	0.0181543
654.839	0.0181381
654.917	0.0182220
654.995	0.0182030
655.073	0.0181301
655.151	0.0181145
655.229	0.0182863
655.308	0.0181615
655.386	0.0180566
655.464	0.0179534
655.542	0.0180185
655.620	0.0181775
655.698	0.0181233
655.776	0.0181145
655.854	0.0180714
655.933	0.0179552
656.011	0.0180669
656.089	0.0181921
656.167	0.0180484
656.245	0.0181412
656.323	0.0180700
656.401	0.0180812
656.479	0.0180682
656.558	0.0180843
656.636	0.0182365
656.714	0.0181287
656.792	0.0180067
656.870	0.0180650
656.948	0.0182593
657.026	0.0181944
657.104	0.0180830
657.183	0.0181518
657.261	0.0180342
657.339	0.0181744
657.417	0.0181182
657.495	0.0179992
657.573	0.0180633
657.651	0.0181302
657.729	0.0181195
657.808	0.0180965
657.886	0.0181044
657.964	0.0179987
658.042	0.0180607
658.120	0.0181273
658.198	0.0180940
658.276	0.0180417
658.354	0.0180405
658.433	0.0181242
658.511	0.0180547
658.589	0.0181583
658.667	0.0181100
658.745	0.0181203
658.823	0.0180898
658.901	0.0180963
658.979	0.0180977
659.058	0.0179709
659.136	0.0181070
659.214	0.0181334
659.292	0.0180286
659.370	0.0181049
659.448	0.0181070
659.526	0.0180595
659.604	0.0181252
659.683	0.0181628
659.761	0.0180126
659.839	0.0181530
659.917	0.0179302
659.995	0.0180484
660.073	0.0182002
660.151	0.0181615
660.229	0.0182005
660.308	0.0181675
660.386	0.0181409
660.464	0.0181084
660.542	0.0180783
660.620	0.0180283
660.698	0.0181705
660.776	0.0180810
660.854	0.0181628
660.933	0.0179848
661.011	0.0180975
661.089	0.0181827
661.167	0.0180236
661.245	0.0180252
661.323	0.0182746
661.401	0.0182421
661.479	0.0180939
661.558	0.0180579
661.636	0.0181026
661.714	0.0180717
661.792	0.0181570
661.870	0.0180585
661.948	0.0181415
662.026	0.0182175
662.104	0.0181511
662.183	0.0180516
662.261	0.0180862
662.339	0.0182026
662.417	0.0180956
662.495	0.0182083
662.573	0.0180156
662.651	0.0179913
662.729	0.0182057
662.808	0.0181889
662.886	0.0181584
662.964	0.0180363
663.042	0.0181496
663.120	0.0181555
663.198	0.0181222
663.276	0.0181533
663.354	0.0181448
663.433	0.0182162
663.511	0.0180103
663.589	0.0180796
663.667	0.0180341
663.745	0.0180650
663.823	0.0180598
663.901	0.0180974
663.979	0.0180761
664.058	0.0182542
664.136	0.0182005
664.214	0.0180569
664.292	0.0180085
664.370	0.0180293
664.448	0.0181593
664.526	0.0181728
664.604	0.0180298
664.683	0.0180007
664.761	0.0181296
664.839	0.0180257
664.917	0.0181300
664.995	0.0179794
665.073	0.0180276
665.151	0.0181578
665.229	0.0181184
665.308	0.0182224
665.386	0.0181716
665.464	0.0181352
665.542	0.0180756
665.620	0.0181054
665.698	0.0182165
665.776	0.0181599
665.854	0.0182592
665.933	0.0182281
666.011	0.0180000
666.089	0.0180399
666.167	0.0181155
666.245	0.0182200
666.323	0.0180914
666.401	0.0179999
666.479	0.0179289
666.558	0.0180235
666.636	0.0179647
666.714	0.0181153
666.792	0.0182026
666.870	0.0180923
666.948	0.0181202
667.026	0.0179472
667.104	0.0180251
667.183	0.0181474
667.261	0.0179997
667.339	0.0181499
667.417	0.0181220
667.495	0.0181499
667.573	0.0180445
667.651	0.0179993
667.729	0.0181258
667.808	0.0182319
667.886	0.0180754
667.964	0.0181341
668.042	0.0179124
668.120	0.0180238
668.198	0.0181196
668.276	0.0181875
668.354	0.0181196
668.433	0.0180588
668.511	0.0180599
668.589	0.0181454
668.667	0.0181020
668.745	0.0180776
668.823	0.0180897
668.901	0.0180809
668.979	0.0182475
669.058	0.0180542
669.136	0.0179801
669.214	0.0180223
669.292	0.0182250
669.370	0.0181293
669.448	0.0181291
669.526	0.0180398
669.604	0.0182076
669.683	0.0181107
669.761	0.0180979
669.839	0.0180069
669.917	0.0181445
669.995	0.0179302
670.073	0.0180523
670.151	0.0181314
670.229	0.0181467
670.308	0.0182677
670.386	0.0181736
670.464	0.0180259
670.542	0.0180968
670.620	0.0182960
670.698	0.0180883
670.776	0.0179553
670.854	0.0181586
670.933	0.0179642
671.011	0.0179926
671.089	0.0180837
671.167	0.0180437
671.245	0.0180885
671.323	0.0181125
671.401	0.0180945
671.479	0.0181850
671.558	0.0179973
671.636	0.0180893
671.714	0.0181137
671.792	0.0182928
671.870	0.0180994
671.948	0.0179260
672.026	0.0179810
672.104	0.0181629
672.183	0.0182415
672.261	0.0181797
672.339	0.0181374
672.417	0.0181262
672.495	0.0181078
672.573	0.0181679
672.651	0.0181104
672.729	0.0181818
672.808	0.0180782
672.886	0.0181549
672.964	0.0182076
673.042	0.0180284
673.120	0.0181406
673.198	0.0182626
673.276	0.0181283
673.354	0.0180903
673.433	0.0181769
673.511	0.0181661
673.589	0.0180576
673.667	0.0181298
673.745	0.0181032
673.823	0.0181863
673.901	0.0179187
673.979	0.0180216
674.058	0.0181633
674.136	0.0181973
674.214	0.0181093
674.292	0.0182219
674.370	0.0180323
674.448	0.0181182
674.526	0.0182442
674.604	0.0181161
674.683	0.0181454
674.761	0.0181584
674.839	0.0181833
674.917	0.0181463
674.995	0.0180730
675.073	0.0180363
675.151	0.0183058
675.229	0.0182927
675.308	0.0181986
675.386	0.0181128
675.464	0.0180894
675.542	0.0181377
675.620	0.0181896
675.698	0.0181566
675.776	0.0181381
675.854	0.0180617
675.933	0.0181525
676.011	0.0180993
676.089	0.0181771
676.167	0.0182731
676.245	0.0182015
676.323	0.0180488
676.401	0.0181602
676.479	0.0181576
676.558	0.0181388
676.636	0.0180286
676.714	0.0180498
676.792	0.0182251
676.870	0.0181182
676.948	0.0181207
677.026	0.0180563
677.104	0.0180862
677.183	0.0179998
677.261	0.0182489
677.339	0.0179992
677.417	0.0179546
677.495	0.0181013
677.573	0.0181892
677.651	0.0181063
677.729	0.0181956
677.808	0.0181820
677.886	0.0179812
677.964	0.0180605
678.042	0.0180824
678.120	0.0181506
678.198	0.0179800
678.276	0.0179838
678.354	0.0180592
678.433	0.0180447
678.511	0.0180450
678.589	0.0181525
678.667	0.0180976
678.745	0.0180167
678.823	0.0180107
678.901	0.0181002
678.979	0.0181394
679.058	0.0181470
679.136	0.0180917
679.214	0.0181088
679.292	0.0180501
679.370	0.0181660
679.448	0.0180444
679.526	0.0180635
679.604	0.0180019
679.683	0.0181077
679.761	0.0180629
679.839	0.0180821
679.917	0.0180259
679.995	0.0179527
680.073	0.0179975
680.151	0.0181192
680.229	0.0181367
680.308	0.0179998
680.386	0.0179333
680.464	0.0182421
680.542	0.0181561
680.620	0.0181882
680.698	0.0180136
680.776	0.0179597
680.854	0.0180614
680.933	0.0181881
681.011	0.0180505
681.089	0.0179961
681.167	0.0180132
681.245	0.0179963
681.323	0.0179701
681.401	0.0180891
681.479	0.0180524
681.558	0.0180791
681.636	0.0180291
681.714	0.0180420
681.792	0.0180005
681.870	0.0181594
681.948	0.0179853
682.026	0.0178745
682.104	0.0181118
682.183	0.0182025
682.261	0.0180186
682.339	0.0180641
682.417	0.0180136
682.495	0.0180704
682.573	0.0180553
682.651	0.0181726
682.729	0.0180309
682.808	0.0180684
682.886	0.0180196
682.964	0.0180626
683.042	0.0182026
683.120	0.0180620
683.198	0.0181243
683.276	0.0181036
683.354	0.0180453
683.433	0.0180411
683.511	0.0180814
683.589	0.0182298
683.667	0.0180946
683.745	0.0179652
683.823	0.0181215
683.901	0.0181135
683.979	0.0180611
684.058	0.0181189
684.136	0.0181364
684.214	0.0180675
684.292	0.0179999
684.370	0.0180766
684.448	0.0180465
684.526	0.0180466
684.604	0.0182122
684.683	0.0182025
684.761	0.0180990
684.839	0.0181463
684.917	0.0181705
684.995	0.0181470
685.073	0.0182238
685.151	0.0181659
685.229	0.0182173
685.308	0.0181843
685.386	0.0181899
685.464	0.0180907
685.542	0.0181399
685.620	0.0182529
685.698	0.0181120
685.776	0.0181543
685.854	0.0180863
685.933	0.0180451
686.011	0.0181510
686.089	0.0182943
686.167	0.0183030
686.245	0.0181749
686.323	0.0181305
686.401	0.0181880
686.479	0.0182308
686.558	0.0181193
686.636	0.0181181
686.714	0.0181628
686.792	0.0182255
686.870	0.0182504
686.948	0.0182254
687.026	0.0180338
687.104	0.0181088
687.183	0.0182559
687.261	0.0182171
687.339	0.0182092
687.417	0.0180841
687.495	0.0181025
687.573	0.0181518
687.651	0.0182738
687.729	0.0181856
687.808	0.0182416
687.886	0.0180814
687.964	0.0181276
688.042	0.0181506
688.120	0.0181389
688.198	0.0182006
688.276	0.0181439
688.354	0.0181754
688.433	0.0180199
688.511	0.0181514
688.589	0.0182953
688.667	0.0181250
688.745	0.0181380
688.823	0.0181332
688.901	0.0180946
688.979	0.0182426
689.058	0.0181975
689.136	0.0182365
689.214	0.0182176
689.292	0.0182433
689.370	0.0181806
689.448	0.0180273
689.526	0.0180699
689.604	0.0182129
689.683	0.0182484
689.761	0.0180926
689.839	0.0180656
689.917	0.0180924
689.995	0.0182022
690.073	0.0181036
690.151	0.0181225
690.229	0.0182274
690.308	0.0180651
690.386	0.0180817
690.464	0.0181004
690.542	0.0180675
690.620	0.0180633
690.698	0.0180258
690.776	0.0181063
690.854	0.0180975
690.933	0.0181575
691.011	0.0180344
691.089	0.0180093
691.167	0.0180759
691.245	0.0181844
691.323	0.0179748
691.401	0.0181356
691.479	0.0181534
691.558	0.0180296
691.636	0.0180588
691.714	0.0180597
691.792	0.0181506
691.870	0.0181267
691.948	0.0180897
692.026	0.0181971
692.104	0.0179639
692.183	0.0179453
692.261	0.0181662
692.339	0.0181392
692.417	0.0181773
692.495	0.0181352
692.573	0.0180527
692.651	0.0182474
692.729	0.0181824
692.808	0.0180853
692.886	0.0181247
692.964	0.0181613
693.042	0.0181038
693.120	0.0180965
693.198	0.0178945
693.276	0.0179828
693.354	0.0181633
693.433	0.0180996
693.511	0.0180331
693.589	0.0180690
693.667	0.0181664
693.745	0.0181332
693.823	0.0179857
693.901	0.0180112
693.979	0.0181344
694.058	0.0180939
694.136	0.0181377
694.214	0.0180851
694.292	0.0181410
694.370	0.0179858
694.448	0.0180775
694.526	0.0180444
694.604	0.0181297
694.683	0.0179829
694.761	0.0181130
694.839	0.0180398
694.917	0.0181457
694.995	0.0181324
695.073	0.0180860
695.151	0.0181181
695.229	0.0179588
695.308	0.0180441
695.386	0.0181233
695.464	0.0179773
695.542	0.0180984
695.620	0.0181525
695.698	0.0181979
695.776	0.0180996
695.854	0.0181217
695.933	0.0181217
696.011	0.0180981
696.089	0.0181692
696.167	0.0180878
696.245	0.0181790
696.323	0.0181948
696.401	0.0180861
696.479	0.0180708
696.558	0.0180007
696.636	0.0181718
696.714	0.0182088
696.792	0.0181476
696.870	0.0183009
696.948	0.0184763
697.026	0.0184372
697.104	0.0185883
697.183	0.0186500
697.261	0.0186279
697.339	0.0185860
697.417	0.0183770
697.495	0.0184676
697.573	0.0182950
697.651	0.0179037
697.729	0.0178581
697.808	0.0177248
697.886	0.0176821
697.964	0.0177499
698.042	0.0176556
698.120	0.0176384
698.198	0.0176720
698.276	0.0177415
698.354	0.0177153
698.433	0.0178292
698.511	0.0178182
698.589	0.0177268
698.667	0.0176715
698.745	0.0177432
698.823	0.0178149
698.901	0.0179144
698.979	0.0181415
699.058	0.0181475
699.136	0.0182642
699.214	0.0183569
699.292	0.0186283
699.370	0.0189351
699.448	0.0190717
699.526	0.0192786
699.604	0.0193523
699.683	0.0193240
699.761	0.0191824
699.839	0.0191853
699.917	0.0190047
699.995	0.0187325
700.073	0.0187217
700.151	0.0184305
700.229	0.0180416
700.308	0.0179861
700.386	0.0178075
700.464	0.0176708
700.542	0.0173972
700.620	0.0173454
700.698	0.0172932
700.776	0.0172094
700.854	0.0171184
700.933	0.0173986
701.011	0.0172175
701.089	0.0173891
701.167	0.0174609
701.245	0.0173840
701.323	0.0175983
701.401	0.0176964
701.479	0.0179282
701.558	0.0180375
701.636	0.0182262
701.714	0.0184007
701.792	0.0187163
701.870	0.0187508
701.948	0.0188174
702.026	0.0191560
702.104	0.0192076
702.183	0.0194346
702.261	0.0194344
702.339	0.0193476
702.417	0.0193024
702.495	0.0192370
702.573	0.0190826
702.651	0.0189082
702.729	0.0188747
702.808	0.0186464
702.886	0.0184577
702.964	0.0183073
703.042	0.0179755
703.120	0.0177561
703.198	0.0176221
703.276	0.0173360
703.354	0.0171334
703.433	0.0169824
703.511	0.0168803
703.589	0.0167836
703.667	0.0167197
703.745	0.0166773
703.823	0.0165423
703.901	0.0166039
703.979	0.0167427
704.058	0.0168692
704.136	0.0170290
704.214	0.0172454
704.292	0.0173297
704.370	0.0179402
704.448	0.0180737
704.526	0.0182835
704.604	0.0186251
704.683	0.0188260
704.761	0.0188239
704.839	0.0191050
704.917	0.0192551
704.995	0.0192716
705.073	0.0190911
705.151	0.0193462
705.229	0.0191190
705.308	0.0191165
705.386	0.0190312
705.464	0.0191074
705.542	0.0188788
705.620	0.0188751
705.698	0.0186871
705.776	0.0185051
705.854	0.0184632
705.933	0.0180749
706.011	0.0179703
706.089	0.0177876
706.167	0.0176222
706.245	0.0175309
706.323	0.0172608
706.401	0.0171424
706.479	0.0173378
706.558	0.0172322
706.636	0.0172107
706.714	0.0172519
706.792	0.0171294
706.870	0.0172591
706.948	0.0174801
707.026	0.0176331
707.104	0.0178107
707.183	0.0178021
707.261	0.0179874
707.339	0.0179710
707.417	0.0182086
707.495	0.0184461
707.573	0.0185410
707.651	0.0186565
707.729	0.0187569
707.808	0.0187658
707.886	0.0186189
707.964	0.0187634
708.042	0.0186605
708.120	0.0185316
708.198	0.0185558
708.276	0.0184914
708.354	0.0184476
708.433	0.0182938
708.511	0.0181898
708.589	0.0180865
708.667	0.0181111
708.745	0.0182086
708.823	0.0179359
708.901	0.0179203
708.979	0.0179366
709.058	0.0177640
709.136	0.0177004
709.214	0.0178914
709.292	0.0178141
709.370	0.0177207
709.448	0.0176669
709.526	0.0177774
709.604	0.0177888
709.683	0.0177652
709.761	0.0177409
709.839	0.0178246
709.917	0.0179327
709.995	0.0177901
710.073	0.0177999
710.151	0.0180170
710.229	0.0180270
710.308	0.0182123
710.386	0.0183041
710.464	0.0183773
710.542	0.0183261
710.620	0.0185012
710.698	0.0185458
710.776	0.0185391
710.854	0.0185747
710.933	0.0185716
711.011	0.0185721
711.089	0.0186597
711.167	0.0186803
711.245	0.0185714
711.323	0.0184797
711.401	0.0184481
711.479	0.0183128
711.558	0.0181962
711.636	0.0179879
711.714	0.0179424
711.792	0.0178750
711.870	0.0178097
711.948	0.0177081
712.026	0.0179300
712.104	0.0178979
712.183	0.0176786
712.261	0.0178729
712.339	0.0179719
712.417	0.0180473
712.495	0.0180198
712.573	0.0181115
712.651	0.0180776
712.729	0.0182215
712.808	0.0181673
712.886	0.0182039
712.964	0.0181525
713.042	0.0183652
713.120	0.0182052
713.198	0.0182015
713.276	0.0179379
713.354	0.0180625
713.433	0.0178569
713.511	0.0179472
713.589	0.0178995
713.667	0.0178898
713.745	0.0178722
713.823	0.0180669
713.901	0.0182336
713.979	0.0179723
714.058	0.0181163
714.136	0.0180660
714.214	0.0181067
714.292	0.0181840
714.370	0.0184138
714.448	0.0183471
714.526	0.0183606
714.604	0.0183218
714.683	0.0184943
714.761	0.0185058
714.839	0.0186352
714.917	0.0185919
714.995	0.0187688
715.073	0.0187766
715.151	0.0185493
715.229	0.0185516
715.308	0.0185516
715.386	0.0183046
715.464	0.0182702
715.542	0.0180763
715.620	0.0179020
715.698	0.0179131
715.776	0.0179313
715.854	0.0179357
715.933	0.0178624
716.011	0.0179317
716.089	0.0179642
716.167	0.0180782
716.245	0.0183358
716.323	0.0182565
716.401	0.0183001
716.479	0.0184400
716.558	0.0184454
716.636	0.0183872
716.714	0.0183897
716.792	0.0185462
716.870	0.0183772
716.948	0.0184038
717.026	0.0183052
717.104	0.0182435
717.183	0.0182299
717.261	0.0181442
717.339	0.0180963
717.417	0.0180150
717.495	0.0179682
717.573	0.0178552
717.651	0.0177858
717.729	0.0177782
717.808	0.0178204
717.886	0.0177086
717.964	0.0177341
718.042	0.0176115
718.120	0.0177851
718.198	0.0178027
718.276	0.0178530
718.354	0.0179139
718.433	0.0177193
718.511	0.0178413
718.589	0.0179973
718.667	0.0179942
718.745	0.0180491
718.823	0.0182203
718.901	0.0182202
718.979	0.0180901
719.058	0.0181289
719.136	0.0181599
719.214	0.0180239
719.292	0.0180849
719.370	0.0179652
719.448	0.0178542
719.526	0.0179684
719.604	0.0179596
719.683	0.0179934
719.761	0.0180642
719.839	0.0179742
719.917	0.0178561
719.995	0.0180233
720.073	0.0178760
720.151	0.0178443
720.229	0.0179820
720.308	0.0181209
720.386	0.0180803
720.464	0.0182745
720.542	0.0182407
720.620	0.0183401
720.698	0.0184648
720.776	0.0185662
720.854	0.0185551
720.933	0.0186233
721.011	0.0186507
721.089	0.0186121
721.167	0.0185165
721.245	0.0184639
721.323	0.0185220
721.401	0.0184877
721.479	0.0182971
721.558	0.0182977
721.636	0.0181437
721.714	0.0180708
721.792	0.0178100
721.870	0.0178729
721.948	0.0177488
722.026	0.0177202
722.104	0.0176764
722.183	0.0176533
722.261	0.0176392
722.339	0.0176019
722.417	0.0178544
722.495	0.0178696
722.573	0.0179303
722.651	0.0179952
722.729	0.0180798
722.808	0.0181390
722.886	0.0182723
722.964	0.0183713
723.042	0.0184277
723.120	0.0184559
723.198	0.0186190
723.276	0.0185097
723.354	0.0185403
723.433	0.0184198
723.511	0.0183143
723.589	0.0183321
723.667	0.0181715
723.745	0.0182558
723.823	0.0179768
723.901	0.0179073
723.979	0.0179453
724.058	0.0178997
724.136	0.0179106
724.214	0.0177465
724.292	0.0176696
724.370	0.0179119
724.448	0.0177996
724.526	0.0177789
724.604	0.0179063
724.683	0.0180187
724.761	0.0181340
724.839	0.0180305
724.917	0.0179949
724.995	0.0183345
725.073	0.0183110
725.151	0.0183031
725.229	0.0183107
725.308	0.0185034
725.386	0.0184361
725.464	0.0183425
725.542	0.0183286
725.620	0.0184515
725.698	0.0183442
725.776	0.0181529
725.854	0.0181512
725.933	0.0179433
726.011	0.0180949
726.089	0.0178815
726.167	0.0178614
726.245	0.0178764
726.323	0.0180474
726.401	0.0180103
726.479	0.0180239
726.558	0.0179511
726.636	0.0180511
726.714	0.0182168
726.792	0.0183131
726.870	0.0183112
726.948	0.0183782
727.026	0.0184149
727.104	0.0184123
727.183	0.0183273
727.261	0.0183080
727.339	0.0182980
727.417	0.0183317
727.495	0.0181663
727.573	0.0180811
727.651	0.0181528
727.729	0.0180679
727.808	0.0180672
727.886	0.0179696
727.964	0.0178731
728.042	0.0177840
728.120	0.0178536
728.198	0.0178882
728.276	0.0178362
728.354	0.0178186
728.433	0.0179157
728.511	0.0180565
728.589	0.0177554
728.667	0.0178532
728.745	0.0179178
728.823	0.0180987
728.901	0.0180738
728.979	0.0179857
729.058	0.0178521
729.136	0.0180428
729.214	0.0181401
729.292	0.0180379
729.370	0.0180939
729.448	0.0181265
729.526	0.0180029
729.604	0.0179784
729.683	0.0180507
729.761	0.0180636
729.839	0.0179773
729.917	0.0180888
729.995	0.0180822
730.073	0.0181052
730.151	0.0181097
730.229	0.0181715
730.308	0.0181891
730.386	0.0181878
730.464	0.0182481
730.542	0.0181564
730.620	0.0184258
730.698	0.0183779
730.776	0.0184357
730.854	0.0184784
730.933	0.0184924
731.011	0.0183514
731.089	0.0185321
731.167	0.0184264
731.245	0.0183999
731.323	0.0183410
731.401	0.0185026
731.479	0.0183713
731.558	0.0182230
731.636	0.0180550
731.714	0.0180975
731.792	0.0181459
731.870	0.0180227
731.948	0.0179450
732.026	0.0180765
732.104	0.0179373
732.183	0.0180040
732.261	0.0180370
732.339	0.0179500
732.417	0.0181387
732.495	0.0179517
732.573	0.0180245
732.651	0.0180962
732.729	0.0180781
732.808	0.0182306
732.886	0.0181776
732.964	0.0181502
733.042	0.0181538
733.120	0.0180733
733.198	0.0182261
733.276	0.0179252
733.354	0.0179984
733.433	0.0180177
733.511	0.0179480
733.589	0.0180003
733.667	0.0179124
733.745	0.0178664
733.823	0.0179774
733.901	0.0178280
733.979	0.0179642
734.058	0.0180930
734.136	0.0180999
734.214	0.0181718
734.292	0.0182370
734.370	0.0182350
734.448	0.0182796
734.526	0.0184270
734.604	0.0182008
734.683	0.0183045
734.761	0.0184562
734.839	0.0183611
734.917	0.0184484
734.995	0.0183258
735.073	0.0183434
735.151	0.0182149
735.229	0.0181241
735.308	0.0181380
735.386	0.0182259
735.464	0.0180836
735.542	0.0180627
735.620	0.0181033
735.698	0.0180764
735.776	0.0179831
735.854	0.0180649
735.933	0.0180257
736.011	0.0181577
736.089	0.0181186
736.167	0.0181160
736.245	0.0181239
736.323	0.0182076
736.401	0.0182265
736.479	0.0180849
736.558	0.0182082
736.636	0.0181609
736.714	0.0181759
736.792	0.0182225
736.870	0.0182674
736.948	0.0180785
737.026	0.0181965
737.104	0.0180129
737.183	0.0180771
737.261	0.0180737
737.339	0.0181017
737.417	0.0180549
737.495	0.0179480
737.573	0.0180762
737.651	0.0179961
737.729	0.0180532
737.808	0.0180534
737.886	0.0181130
737.964	0.0180391
738.042	0.0179184
738.120	0.0179250
738.198	0.0180096
738.276	0.0179497
738.354	0.0179740
738.433	0.0179528
738.511	0.0178764
738.589	0.0179292
738.667	0.0180753
738.745	0.0180743
738.823	0.0179459
738.901	0.0178622
738.979	0.0179118
739.058	0.0178759
739.136	0.0180869
739.214	0.0182069
739.292	0.0181441
739.370	0.0181650
739.448	0.0180676
739.526	0.0181704
739.604	0.0183223
739.683	0.0181984
739.761	0.0182693
739.839	0.0183688
739.917	0.0182898
739.995	0.0183621
740.073	0.0183863
740.151	0.0184748
740.229	0.0183958
740.308	0.0184483
740.386	0.0183395
740.464	0.0184412
740.542	0.0183707
740.620	0.0184835
740.698	0.0183598
740.776	0.0181676
740.854	0.0180719
740.933	0.0181131
741.011	0.0181786
741.089	0.0181659
741.167	0.0180988
741.245	0.0180028
741.323	0.0180882
741.401	0.0180685
741.479	0.0181239
741.558	0.0178774
741.636	0.0180256
741.714	0.0181585
741.792	0.0182611
741.870	0.0181178
741.948	0.0181590
742.026	0.0182204
742.104	0.0181255
742.183	0.0180626
742.261	0.0181380
742.339	0.0181909
742.417	0.0180224
742.495	0.0179284
742.573	0.0181063
742.651	0.0180479
742.729	0.0180597
742.808	0.0179970
742.886	0.0180172
742.964	0.0180121
743.042	0.0179670
743.120	0.0179800
743.198	0.0180820
743.276	0.0180104
743.354	0.0179920
743.433	0.0180457
743.511	0.0180976
743.589	0.0180835
743.667	0.0182323
743.745	0.0182970
743.823	0.0181905
743.901	0.0180943
743.979	0.0182357
744.058	0.0181654
744.136	0.0181295
744.214	0.0182011
744.292	0.0180244
744.370	0.0179941
744.448	0.0181743
744.526	0.0180568
744.604	0.0180296
744.683	0.0179584
744.761	0.0179829
744.839	0.0179245
744.917	0.0180383
744.995	0.0178918
745.073	0.0180908
745.151	0.0180334
745.229	0.0178493
745.308	0.0180776
745.386	0.0181683
745.464	0.0180164
745.542	0.0181960
745.620	0.0181252
745.698	0.0180628
745.776	0.0182115
745.854	0.0183339
745.933	0.0183244
746.011	0.0182398
746.089	0.0182325
746.167	0.0181670
746.245	0.0183195
746.323	0.0181926
746.401	0.0180647
746.479	0.0181925
746.558	0.0180621
746.636	0.0181162
746.714	0.0179804
746.792	0.0179909
746.870	0.0180095
746.948	0.0181286
747.026	0.0179359
747.104	0.0180508
747.183	0.0180548
747.261	0.0180846
747.339	0.0181493
747.417	0.0179500
747.495	0.0181746
747.573	0.0181472
747.651	0.0180878
747.729	0.0180923
747.808	0.0180727
747.886	0.0181294
747.964	0.0181390
748.042	0.0180003
748.120	0.0180577
748.198	0.0181633
748.276	0.0180830
748.354	0.0180880
748.433	0.0181260
748.511	0.0181514
748.589	0.0180364
748.667	0.0181208
748.745	0.0180946
748.823	0.0181526
748.901	0.0179514
748.979	0.0181708
749.058	0.0181290
749.136	0.0180734
749.214	0.0180930
749.292	0.0183576
749.370	0.0182716
749.448	0.0180654
749.526	0.0181062
749.604	0.0181963
749.683	0.0183504
749.761	0.0182256
749.839	0.0182598
749.917	0.0181935
749.995	0.0182150
750.073	0.0181525
750.151	0.0181899
750.229	0.0182258
750.308	0.0182545
750.386	0.0180246
750.464	0.0180389
750.542	0.0179411
750.620	0.0178445
750.698	0.0179045
750.776	0.0179890
750.854	0.0177122
750.933	0.0181229
751.011	0.0181709
751.089	0.0179674
751.167	0.0178778
751.245	0.0179351
751.323	0.0180501
751.401	0.0180499
751.479	0.0180431
751.558	0.0180005
751.636	0.0180167
751.714	0.0181020
751.792	0.0179652
751.870	0.0180351
751.948	0.0179914
752.026	0.0179332
752.104	0.0179890
752.183	0.0180063
752.261	0.0180437
752.339	0.0179504
752.417	0.0179767
752.495	0.0179913
752.573	0.0181081
752.651	0.0180458
752.729	0.0179884
752.808	0.0179805
752.886	0.0181469
752.964	0.0180751
753.042	0.0181230
753.120	0.0181698
753.198	0.0182086
753.276	0.0182690
753.354	0.0182143
753.433	0.0183510
753.511	0.0184339
753.589	0.0182913
753.667	0.0182878
753.745	0.0182840
753.823	0.0184002
753.901	0.0183221
753.979	0.0183427
754.058	0.0183650
754.136	0.0183614
754.214	0.0183631
754.292	0.0182312
754.370	0.0181682
754.448	0.0184067
754.526	0.0183498
754.604	0.0181314
754.683	0.0181503
754.761	0.0181612
754.839	0.0181145
754.917	0.0180257
754.995	0.0180314
755.073	0.0180361
755.151	0.0179807
755.229	0.0181068
755.308	0.0180371
755.386	0.0178791
755.464	0.0180779
755.542	0.0179590
755.620	0.0179855
755.698	0.0180812
755.776	0.0180941
755.854	0.0181780
755.933	0.0181691
756.011	0.0180447
756.089	0.0182243
756.167	0.0180858
756.245	0.0180352
756.323	0.0180176
756.401	0.0179829
756.479	0.0182122
756.558	0.0181364
756.636	0.0181683
756.714	0.0181007
756.792	0.0182491
756.870	0.0179489
756.948	0.0180138
757.026	0.0179545
757.104	0.0179059
757.183	0.0180634
757.261	0.0179673
757.339	0.0179750
757.417	0.0178713
757.495	0.0180270
757.573	0.0180381
757.651	0.0180756
757.729	0.0180452
757.808	0.0179346
757.886	0.0179816
757.964	0.0179576
758.042	0.0179900
758.120	0.0181149
758.198	0.0181236
758.276	0.0181522
758.354	0.0181116
758.433	0.0182668
758.511	0.0183042
758.589	0.0182831
758.667	0.0180515
758.745	0.0182988
758.823	0.0181065
758.901	0.0179675
758.979	0.0179924
759.058	0.0181209
759.136	0.0180685
759.214	0.0179234
759.292	0.0180587
759.370	0.0181390
759.448	0.0179826
759.526	0.0179507
759.604	0.0179372
759.683	0.0180857
759.761	0.0180658
759.839	0.0182268
759.917	0.0181760
759.995	0.0180382
760.073	0.0182304
760.151	0.0183746
760.229	0.0182390
760.308	0.0183078
760.386	0.0183587
760.464	0.0182710
760.542	0.0182777
760.620	0.0182243
760.698	0.0181730
760.776	0.0182410
760.854	0.0181812
760.933	0.0182133
761.011	0.0182464
761.089	0.0181149
761.167	0.0181567
761.245	0.0181577
761.323	0.0180820
761.401	0.0181344
761.479	0.0181129
761.558	0.0180013
761.636	0.0181059
761.714	0.0181622
761.792	0.0180968
761.870	0.0180946
761.948	0.0181106
762.026	0.0182759
762.104	0.0182307
762.183	0.0182414
762.261	0.0182162
762.339	0.0182047
762.417	0.0180628
762.495	0.0181819
762.573	0.0182531
762.651	0.0183818
762.729	0.0183040
762.808	0.0180673
762.886	0.0182393
762.964	0.0183529
763.042	0.0181645
763.120	0.0182992
763.198	0.0182102
763.276	0.0182677
763.354	0.0182378
763.433	0.0182673
763.511	0.0181386
763.589	0.0182700
763.667	0.0182666
763.745	0.0182399
763.823	0.0183099
763.901	0.0182730
763.979	0.0182817
764.058	0.0181535
764.136	0.0180741
764.214	0.0182519
764.292	0.0182800
764.370	0.0180656
764.448	0.0181998
764.526	0.0181733
764.604	0.0180383
764.683	0.0180675
764.761	0.0181709
764.839	0.0181051
764.917	0.0179473
764.995	0.0180148
765.073	0.0180656
765.151	0.0180090
765.229	0.0179131
765.308	0.0178273
765.386	0.0178998
765.464	0.0180517
765.542	0.0179271
765.620	0.0179568
765.698	0.0180110
765.776	0.0180594
765.854	0.0179881
765.933	0.0179208
766.011	0.0179602
766.089	0.0180988
766.167	0.0180322
766.245	0.0182104
766.323	0.0180331
766.401	0.0181680
766.479	0.0182013
766.558	0.0181948
766.636	0.0180721
766.714	0.0182341
766.792	0.0182181
766.870	0.0183331
766.948	0.0181152
767.026	0.0182835
767.104	0.0181934
767.183	0.0181870
767.261	0.0180072
767.339	0.0180422
767.417	0.0182148
767.495	0.0180728
767.573	0.0181207
767.651	0.0181221
767.729	0.0180398
767.808	0.0179668
767.886	0.0179585
767.964	0.0179852
768.042	0.0181380
768.120	0.0179964
768.198	0.0179752
768.276	0.0181627
768.354	0.0181145
768.433	0.0180656
768.511	0.0181638
768.589	0.0180953
768.667	0.0180035
768.745	0.0179427
768.823	0.0181414
768.901	0.0181418
768.979	0.0182018
769.058	0.0182487
769.136	0.0181369
769.214	0.0181472
769.292	0.0181898
769.370	0.0182014
769.448	0.0181289
769.526	0.0181895
769.604	0.0180684
769.683	0.0182039
769.761	0.0181009
769.839	0.0181183
769.917	0.0181591
769.995	0.0181844
770.073	0.0180526
770.151	0.0181772
770.229	0.0180271
770.308	0.0180807
770.386	0.0180598
770.464	0.0180640
770.542	0.0181963
770.620	0.0180925
770.698	0.0180438
770.776	0.0180230
770.854	0.0180115
770.933	0.0180052
771.011	0.0179784
771.089	0.0180635
771.167	0.0181409
771.245	0.0181944
771.323	0.0180127
771.401	0.0180817
771.479	0.0181470
771.558	0.0180987
771.636	0.0181120
771.714	0.0179706
771.792	0.0181838
771.870	0.0181030
771.948	0.0180100
772.026	0.0181173
772.104	0.0179483
772.183	0.0180390
772.261	0.0179421
772.339	0.0179345
772.417	0.0178364
772.495	0.0179501
772.573	0.0180190
772.651	0.0179973
772.729	0.0181399
772.808	0.0180688
772.886	0.0181931
772.964	0.0181210
773.042	0.0181724
773.120	0.0181355
773.198	0.0180692
773.276	0.0181976
773.354	0.0181161
773.433	0.0179928
773.511	0.0179979
773.589	0.0182779
773.667	0.0182446
773.745	0.0182529
773.823	0.0180608
773.901	0.0180901
773.979	0.0179221
774.058	0.0180594
774.136	0.0181071
774.214	0.0179234
774.292	0.0179410
774.370	0.0180837
774.448	0.0181760
774.526	0.0181119
774.604	0.0181019
774.683	0.0179830
774.761	0.0179886
774.839	0.0180758
774.917	0.0180779
774.995	0.0180923
775.073	0.0180611
775.151	0.0180299
775.229	0.0179995
775.308	0.0181340
775.386	0.0180029
775.464	0.0178761
775.542	0.0180464
775.620	0.0180898
775.698	0.0181660
775.776	0.0181355
775.854	0.0181947
775.933	0.0180476
776.011	0.0181507
776.089	0.0181185
776.167	0.0183824
776.245	0.0182809
776.323	0.0182037
776.401	0.0184639
776.479	0.0183669
776.558	0.0183501
776.636	0.0185067
776.714	0.0183510
776.792	0.0183897
776.870	0.0181855
776.948	0.0182543
777.026	0.0181270
777.104	0.0182401
777.183	0.0181193
777.261	0.0179256
777.339	0.0179402
777.417	0.0180232
777.495	0.0179994
777.573	0.0179028
777.651	0.0179819
777.729	0.0181079
777.808	0.0180184
777.886	0.0179749
777.964	0.0180949
778.042	0.0180775
778.120	0.0179974
778.198	0.0182446
778.276	0.0181935
778.354	0.0181288
778.433	0.0182603
778.511	0.0182331
778.589	0.0181706
778.667	0.0181579
778.745	0.0182680
778.823	0.0180859
778.901	0.0181063
778.979	0.0183051
779.058	0.0181208
779.136	0.0179914
779.214	0.0181618
779.292	0.0181062
779.370	0.0180970
779.448	0.0181139
779.526	0.0181263
779.604	0.0181168
779.683	0.0179335
779.761	0.0180758
779.839	0.0180781
779.917	0.0180521
779.995	0.0180745
780.073	0.0181448
780.151	0.0181944
780.229	0.0180878
780.308	0.0181335
780.386	0.0182140
780.464	0.0180569
780.542	0.0181638
780.620	0.0181036
780.698	0.0181699
780.776	0.0181491
780.854	0.0181964
780.933	0.0182818
781.011	0.0181721
781.089	0.0180640
781.167	0.0180772
781.245	0.0181326
781.323	0.0180729
781.401	0.0180701
781.479	0.0180258
781.558	0.0180746
781.636	0.0180001
781.714	0.0180586
781.792	0.0179831
781.870	0.0178759
781.948	0.0180053
782.026	0.0180937
782.104	0.0179364
782.183	0.0179433
782.261	0.0179244
782.339	0.0180269
782.417	0.0180771
782.495	0.0180568
782.573	0.0179988
782.651	0.0180384
782.729	0.0180412
782.808	0.0179971
782.886	0.0181321
782.964	0.0180704
783.042	0.0180902
783.120	0.0180476
783.198	0.0181618
783.276	0.0180856
783.354	0.0181922
783.433	0.0182421
783.511	0.0183221
783.589	0.0181540
783.667	0.0182051
783.745	0.0181033
783.823	0.0180128
783.901	0.0182038
783.979	0.0182866
784.058	0.0182640
784.136	0.0181065
784.214	0.0181473
784.292	0.0181534
784.370	0.0180708
784.448	0.0182214
784.526	0.0182493
784.604	0.0181452
784.683	0.0183417
784.761	0.0180952
784.839	0.0180741
784.917	0.0182459
784.995	0.0181018
785.073	0.0180679
785.151	0.0180558
785.229	0.0181470
785.308	0.0180019
785.386	0.0180982
785.464	0.0180444
785.542	0.0181316
785.620	0.0182104
785.698	0.0180701
785.776	0.0180428
785.854	0.0181702
785.933	0.0180902
786.011	0.0182194
786.089	0.0180254
786.167	0.0181606
786.245	0.0182233
786.323	0.0182632
786.401	0.0179996
786.479	0.0179799
786.558	0.0182173
786.636	0.0182616
786.714	0.0180264
786.792	0.0180418
786.870	0.0181310
786.948	0.0182740
787.026	0.0180751
787.104	0.0181596
787.183	0.0182453
787.261	0.0181114
787.339	0.0182132
787.417	0.0180376
787.495	0.0181123
787.573	0.0181962
787.651	0.0181362
787.729	0.0181393
787.808	0.0180419
787.886	0.0180763
787.964	0.0180913
788.042	0.0180725
788.120	0.0181958
788.198	0.0180054
788.276	0.0181042
788.354	0.0180288
788.433	0.0179820
788.511	0.0180338
788.589	0.0180397
788.667	0.0180602
788.745	0.0179642
788.823	0.0179830
788.901	0.0180422
788.979	0.0180501
789.058	0.0180098
789.136	0.0182359
789.214	0.0181652
789.292	0.0182093
789.370	0.0181539
789.448	0.0181783
789.526	0.0182751
789.604	0.0182829
789.683	0.0181570
789.761	0.0182304
789.839	0.0180682
789.917	0.0183019
789.995	0.0183038
790.073	0.0182007
790.151	0.0182056
790.229	0.0182080
790.308	0.0181670
790.386	0.0181779
790.464	0.0180679
790.542	0.0180574
790.620	0.0181236
790.698	0.0181419
790.776	0.0179339
790.854	0.0180273
790.933	0.0179770
791.011	0.0180877
791.089	0.0180961
791.167	0.0181570
791.245	0.0180079
791.323	0.0180680
791.401	0.0181262
791.479	0.0180512
791.558	0.0181506
791.636	0.0181937
791.714	0.0181032
791.792	0.0180278
791.870	0.0182529
791.948	0.0183008
792.026	0.0180961
792.104	0.0182368
792.183	0.0183010
792.261	0.0182647
792.339	0.0182706
792.417	0.0182200
792.495	0.0181688
792.573	0.0183144
792.651	0.0182990
792.729	0.0182092
792.808	0.0180698
792.886	0.0181888
792.964	0.0180812
793.042	0.0180477
793.120	0.0181278
793.198	0.0180606
793.276	0.0179860
793.354	0.0179966
793.433	0.0180241
793.511	0.0180595
793.589	0.0181026
793.667	0.0180206
793.745	0.0180571
793.823	0.0181615
793.901	0.0181178
793.979	0.0179710
794.058	0.0182114
794.136	0.0182250
794.214	0.0182318
794.292	0.0181680
794.370	0.0181416
794.448	0.0181461
794.526	0.0179801
794.604	0.0181900
794.683	0.0181750
794.761	0.0180064
794.839	0.0180886
794.917	0.0179902
794.995	0.0179974
795.073	0.0179498
795.151	0.0180286
795.229	0.0181670
795.308	0.0181045
795.386	0.0181154
795.464	0.0179536
795.542	0.0182715
795.620	0.0181353
795.698	0.0180401
795.776	0.0182873
795.854	0.0182550
795.933	0.0181069
796.011	0.0182401
796.089	0.0180792
796.167	0.0181949
796.245	0.0183907
796.323	0.0182471
796.401	0.0182914
796.479	0.0183027
796.558	0.0182543
796.636	0.0182500
796.714	0.0181287
796.792	0.0182598
796.870	0.0181940
796.948	0.0181157
797.026	0.0181868
797.104	0.0181256
797.183	0.0180374
797.261	0.0180078
797.339	0.0179726
797.417	0.0181937
797.495	0.0181455
797.573	0.0181569
797.651	0.0180828
797.729	0.0182349
797.808	0.0180833
797.886	0.0181874
797.964	0.0182326
798.042	0.0183157
798.120	0.0181736
798.198	0.0181900
798.276	0.0181609
798.354	0.0180481
798.433	0.0182494
798.511	0.0182397
798.589	0.0181828
798.667	0.0181055
798.745	0.0182122
798.823	0.0183326
798.901	0.0182047
798.979	0.0182297
799.058	0.0179870
799.136	0.0181282
799.214	0.0181613
799.292	0.0180786
799.370	0.0179599
799.448	0.0179925
799.526	0.0180337
799.604	0.0180399
799.683	0.0180537
799.761	0.0179779
799.839	0.0180626
799.917	0.0180844
799.995	0.0181831
800.073	0.0181052
800.151	0.0180469
800.229	0.0180237
800.308	0.0181322
800.386	0.0180349
800.464	0.0180666
800.542	0.0181969
800.620	0.0180231
800.698	0.0182528
800.776	0.0181106
800.854	0.0181639
800.933	0.0180238
801.011	0.0180875
801.089	0.0182230
801.167	0.0180962
801.245	0.0181615
801.323	0.0181360
801.401	0.0181807
801.479	0.0181252
801.558	0.0180373
801.636	0.0181416
801.714	0.0180227
801.792	0.0181734
801.870	0.0182371
801.948	0.0182521
802.026	0.0183131
802.104	0.0182580
802.183	0.0182085
802.261	0.0181638
802.339	0.0181878
802.417	0.0181332
802.495	0.0180639
802.573	0.0181092
802.651	0.0181626
802.729	0.0180032
802.808	0.0180360
802.886	0.0182001
802.964	0.0179349
803.042	0.0180612
803.120	0.0180444
803.198	0.0178131
803.276	0.0179130
803.354	0.0180527
803.433	0.0179980
803.511	0.0178297
803.589	0.0179865
803.667	0.0181219
803.745	0.0180526
803.823	0.0178834
803.901	0.0179947
803.979	0.0179623
804.058	0.0180099
804.136	0.0179305
804.214	0.0178678
804.292	0.0181124
804.370	0.0180945
804.448	0.0182270
804.526	0.0181364
804.604	0.0181863
804.683	0.0180310
804.761	0.0180507
804.839	0.0181622
804.917	0.0181683
804.995	0.0180563
805.073	0.0180966
805.151	0.0182388
805.229	0.0182065
805.308	0.0180816
805.386	0.0181252
805.464	0.0181908
805.542	0.0182098
805.620	0.0181420
805.698	0.0180629
805.776	0.0182108
805.854	0.0182169
805.933	0.0181939
806.011	0.0180973
806.089	0.0182005
806.167	0.0181973
806.245	0.0181705
806.323	0.0181959
806.401	0.0180496
806.479	0.0181671
806.558	0.0181495
806.636	0.0180882
806.714	0.0180462
806.792	0.0180935
806.870	0.0179403
806.948	0.0179678
807.026	0.0180996
807.104	0.0181563
807.183	0.0181483
807.261	0.0179446
807.339	0.0181111
807.417	0.0181494
807.495	0.0181857
807.573	0.0182336
807.651	0.0182583
807.729	0.0181973
807.808	0.0182108
807.886	0.0183318
807.964	0.0182532
808.042	0.0182555
808.120	0.0183214
808.198	0.0183475
808.276	0.0184021
808.354	0.0183347
808.433	0.0182938
808.511	0.0183158
808.589	0.0183957
808.667	0.0182484
808.745	0.0181961
808.823	0.0182241
808.901	0.0182115
808.979	0.0181777
809.058	0.0181892
809.136	0.0182223
809.214	0.0181248
809.292	0.0182018
809.370	0.0181525
809.448	0.0180350
809.526	0.0181465
809.604	0.0179890
809.683	0.0178944
809.761	0.0180057
809.839	0.0178726
809.917	0.0180193
809.995	0.0180784
810.073	0.0180031
810.151	0.0180978
810.229	0.0181110
810.308	0.0181042
810.386	0.0181104
810.464	0.0180520
810.542	0.0180878
810.620	0.0181779
810.698	0.0180784
810.776	0.0179829
810.854	0.0180986
810.933	0.0182090
811.011	0.0181514
811.089	0.0180820
811.167	0.0181594
811.245	0.0182064
811.323	0.0180701
811.401	0.0180386
811.479	0.0179598
811.558	0.0180540
811.636	0.0180642
811.714	0.0180566
811.792	0.0179894
811.870	0.0178695
811.948	0.0179866
812.026	0.0181417
812.104	0.0179881
812.183	0.0180373
812.261	0.0180210
812.339	0.0180366
812.417	0.0179716
812.495	0.0179706
812.573	0.0180961
812.651	0.0182449
812.729	0.0182069
812.808	0.0180365
812.886	0.0180898
812.964	0.0181758
813.042	0.0181784
813.120	0.0181450
813.198	0.0180617
813.276	0.0182446
813.354	0.0181155
813.433	0.0181193
813.511	0.0179643
813.589	0.0179375
813.667	0.0179537
813.745	0.0179671
813.823	0.0178608
813.901	0.0179095
813.979	0.0178371
814.058	0.0180385
814.136	0.0178880
814.214	0.0180331
814.292	0.0179224
814.370	0.0180481
814.448	0.0181741
814.526	0.0180220
814.604	0.0181570
814.683	0.0182155
814.761	0.0181594
814.839	0.0182554
814.917	0.0182866
814.995	0.0181451
815.073	0.0182935
815.151	0.0181735
815.229	0.0181873
815.308	0.0182616
815.386	0.0180973
815.464	0.0182469
815.542	0.0180876
815.620	0.0181352
815.698	0.0182375
815.776	0.0181597
815.854	0.0180473
815.933	0.0181486
816.011	0.0179948
816.089	0.0179845
816.167	0.0178742
816.245	0.0178926
816.323	0.0180535
816.401	0.0179805
816.479	0.0179665
816.558	0.0181103
816.636	0.0181024
816.714	0.0179905
816.792	0.0180710
816.870	0.0181582
816.948	0.0181837
817.026	0.0181618
817.104	0.0181895
817.183	0.0180912
817.261	0.0181750
817.339	0.0182207
817.417	0.0182200
817.495	0.0182243
817.573	0.0182111
817.651	0.0180622
817.729	0.0181142
817.808	0.0181282
817.886	0.0181941
817.964	0.0182248
818.042	0.0182316
818.120	0.0182008
818.198	0.0180766
818.276	0.0181079
818.354	0.0180036
818.433	0.0180128
818.511	0.0180957
818.589	0.0180607
818.667	0.0180727
818.745	0.0180502
818.823	0.0180807
818.901	0.0181798
818.979	0.0180502
819.058	0.0180522
819.136	0.0180302
819.214	0.0180532
819.292	0.0182201
819.370	0.0182296
819.448	0.0180638
819.526	0.0181418
819.604	0.0181962
819.683	0.0181239
819.761	0.0181767
819.839	0.0182191
819.917	0.0182767
819.995	0.0180746
820.073	0.0181606
820.151	0.0181001
820.229	0.0180219
820.308	0.0182141
820.386	0.0182593
820.464	0.0180343
820.542	0.0180723
820.620	0.0180912
820.698	0.0181004
820.776	0.0181348
820.854	0.0181127
820.933	0.0180872
821.011	0.0180939
821.089	0.0180544
821.167	0.0181839
821.245	0.0179876
821.323	0.0181537
821.401	0.0181794
821.479	0.0180818
821.558	0.0181570
821.636	0.0180984
821.714	0.0180687
821.792	0.0180492
821.870	0.0182077
821.948	0.0181917
822.026	0.0179294
822.104	0.0182365
822.183	0.0182298
822.261	0.0181227
822.339	0.0180351
822.417	0.0180480
822.495	0.0182158
822.573	0.0181594
822.651	0.0182208
822.729	0.0179559
822.808	0.0182514
822.886	0.0182684
822.964	0.0180901
823.042	0.0182306
823.120	0.0181597
823.198	0.0181245
823.276	0.0183311
823.354	0.0183463
823.433	0.0183918
823.511	0.0183195
823.589	0.0182748
823.667	0.0182095
823.745	0.0182247
823.823	0.0182396
823.901	0.0183142
823.979	0.0181498
824.058	0.0179808
824.136	0.0181959
824.214	0.0181435
824.292	0.0180505
824.370	0.0181463
824.448	0.0180605
824.526	0.0179445
824.604	0.0178839
824.683	0.0180818
824.761	0.0180000
824.839	0.0179949
824.917	0.0179588
824.995	0.0179177
825.073	0.0179224
825.151	0.0180360
825.229	0.0181248
825.308	0.0178973
825.386	0.0179531
825.464	0.0182180
825.542	0.0180400
825.620	0.0179954
825.698	0.0180018
825.776	0.0181434
825.854	0.0182040
825.933	0.0180779
826.011	0.0181055
826.089	0.0180827
826.167	0.0181295
826.245	0.0180264
826.323	0.0180377
826.401	0.0180197
826.479	0.0180211
826.558	0.0179649
826.636	0.0181229
826.714	0.0180959
826.792	0.0180396
826.870	0.0179799
826.948	0.0180442
827.026	0.0180177
827.104	0.0181474
827.183	0.0180659
827.261	0.0180947
827.339	0.0180542
827.417	0.0180148
827.495	0.0180593
827.573	0.0182153
827.651	0.0180988
827.729	0.0181875
827.808	0.0182552
827.886	0.0182325
827.964	0.0180897
828.042	0.0180931
828.120	0.0180820
828.198	0.0181355
828.276	0.0183102
828.354	0.0181555
828.433	0.0181084
828.511	0.0180735
828.589	0.0181359
828.667	0.0181828
828.745	0.0180647
828.823	0.0180250
828.901	0.0181241
828.979	0.0182122
829.058	0.0180997
829.136	0.0181033
829.214	0.0180692
829.292	0.0181367
829.370	0.0180740
829.448	0.0183025
829.526	0.0180263
829.604	0.0180195
829.683	0.0180534
829.761	0.0180386
829.839	0.0179675
829.917	0.0181174
829.995	0.0180480
830.073	0.0180376
830.151	0.0180991
830.229	0.0180177
830.308	0.0180747
830.386	0.0181161
830.464	0.0180309
830.542	0.0180223
830.620	0.0179943
830.698	0.0179185
830.776	0.0180493
830.854	0.0180920
830.933	0.0180553
831.011	0.0180579
831.089	0.0178896
831.167	0.0181242
831.245	0.0180193
831.323	0.0179359
831.401	0.0180156
831.479	0.0181040
831.558	0.0180257
831.636	0.0181263
831.714	0.0180554
831.792	0.0180289
831.870	0.0180667
831.948	0.0183719
832.026	0.0180082
832.104	0.0180867
832.183	0.0180719
832.261	0.0182154
832.339	0.0182117
832.417	0.0182735
832.495	0.0182080
832.573	0.0182387
832.651	0.0180730
832.729	0.0181274
832.808	0.0179763
832.886	0.0180610
832.964	0.0181911
833.042	0.0180399
833.120	0.0180527
833.198	0.0181107
833.276	0.0180334
833.354	0.0181316
833.433	0.0181947
833.511	0.0180912
833.589	0.0178883
833.667	0.0181538
833.745	0.0180653
833.823	0.0180245
833.901	0.0179679
833.979	0.0180739
834.058	0.0181191
834.136	0.0180935
834.214	0.0182051
834.292	0.0181525
834.370	0.0181072
834.448	0.0181956
834.526	0.0181770
834.604	0.0181200
834.683	0.0180747
834.761	0.0184048
834.839	0.0180521
834.917	0.0181071
834.995	0.0182397
835.073	0.0180142
835.151	0.0181059
835.229	0.0180949
835.308	0.0181592
835.386	0.0181728
835.464	0.0182372
835.542	0.0181387
835.620	0.0181860
835.698	0.0181299
835.776	0.0182487
835.854	0.0181755
835.933	0.0181083
836.011	0.0181037
836.089	0.0180665
836.167	0.0181139
836.245	0.0179870
836.323	0.0180331
836.401	0.0180412
836.479	0.0179250
836.558	0.0178871
836.636	0.0178718
836.714	0.0178607
836.792	0.0179408
836.870	0.0181673
836.948	0.0179900
837.026	0.0180314
837.104	0.0179660
837.183	0.0180009
837.261	0.0179984
837.339	0.0179015
837.417	0.0179968
837.495	0.0181812
837.573	0.0181895
837.651	0.0182713
837.729	0.0181760
837.808	0.0182742
837.886	0.0183221
837.964	0.0183339
838.042	0.0181393
838.120	0.0181883
838.198	0.0182713
838.276	0.0182578
838.354	0.0182570
838.433	0.0181406
838.511	0.0181136
838.589	0.0181759
838.667	0.0180489
838.745	0.0180257
838.823	0.0179883
838.901	0.0181403
838.979	0.0179690
839.058	0.0179395
839.136	0.0179200
839.214	0.0180466
839.292	0.0180595
839.370	0.0179304
839.448	0.0179205
839.526	0.0180809
839.604	0.0180708
839.683	0.0179355
839.761	0.0180255
839.839	0.0180326
839.917	0.0181731
839.995	0.0181063
840.073	0.0180504
840.151	0.0181696
840.229	0.0182160
840.308	0.0182606
840.386	0.0182876
840.464	0.0182379
840.542	0.0180848
840.620	0.0180345
840.698	0.0181305
840.776	0.0181731
840.854	0.0179466
840.933	0.0179587
841.011	0.0180991
841.089	0.0180432
841.167	0.0179967
841.245	0.0180164
841.323	0.0180505
841.401	0.0180320
841.479	0.0180056
841.558	0.0178900
841.636	0.0179690
841.714	0.0180059
841.792	0.0181448
841.870	0.0180036
841.948	0.0180318
842.026	0.0179250
842.104	0.0180374
842.183	0.0181657
842.261	0.0181776
842.339	0.0181839
842.417	0.0182471
842.495	0.0182000
842.573	0.0180682
842.651	0.0182741
842.729	0.0181574
842.808	0.0180456
842.886	0.0182948
842.964	0.0181496
843.042	0.0182663
843.120	0.0180762
843.198	0.0180988
843.276	0.0182105
843.354	0.0180838
843.433	0.0181437
843.511	0.0181420
843.589	0.0182663
843.667	0.0182729
843.745	0.0180998
843.823	0.0180507
843.901	0.0181786
843.979	0.0182585
844.058	0.0182491
844.136	0.0183701
844.214	0.0182148
844.292	0.0182217
844.370	0.0181227
844.448	0.0183448
844.526	0.0181239
844.604	0.0181990
844.683	0.0181063
844.761	0.0181207
844.839	0.0182009
844.917	0.0181140
844.995	0.0181215
845.073	0.0181989
845.151	0.0181841
845.229	0.0180959
845.308	0.0181590
845.386	0.0181110
845.464	0.0181525
845.542	0.0180338
845.620	0.0181326
845.698	0.0181483
845.776	0.0180518
845.854	0.0180270
845.933	0.0180730
846.011	0.0179589
846.089	0.0180437
846.167	0.0181013
846.245	0.0180601
846.323	0.0181258
846.401	0.0180402
846.479	0.0180890
846.558	0.0180672
846.636	0.0180777
846.714	0.0180510
846.792	0.0181978
846.870	0.0181524
846.948	0.0180875
847.026	0.0180595
847.104	0.0180389
847.183	0.0181624
847.261	0.0182249
847.339	0.0181934
847.417	0.0180823
847.495	0.0180969
847.573	0.0182502
847.651	0.0180864
847.729	0.0180369
847.808	0.0181126
847.886	0.0182050
847.964	0.0181153
848.042	0.0180246
848.120	0.0181902
848.198	0.0181448
848.276	0.0181686
848.354	0.0181542
848.433	0.0180510
848.511	0.0181788
848.589	0.0182370
848.667	0.0181333
848.745	0.0181007
848.823	0.0181037
848.901	0.0181207
848.979	0.0181772
849.058	0.0182197
849.136	0.0180981
849.214	0.0182175
849.292	0.0181948
849.370	0.0181586
849.448	0.0181284
849.526	0.0179826
849.604	0.0180846
849.683	0.0181244
849.761	0.0179624
849.839	0.0180848
849.917	0.0182584
849.995	0.0180991
850.073	0.0181048
850.151	0.0179916
850.229	0.0181568
850.308	0.0181056
850.386	0.0179330
850.464	0.0180215
850.542	0.0181329
850.620	0.0180850
850.698	0.0179526
850.776	0.0179494
850.854	0.0180304
850.933	0.0180322
851.011	0.0181635
851.089	0.0181201
851.167	0.0179944
851.245	0.0181152
851.323	0.0180973
851.401	0.0181303
851.479	0.0179120
851.558	0.0181657
851.636	0.0180644
851.714	0.0180154
851.792	0.0181186
851.870	0.0181168
851.948	0.0180933
852.026	0.0181809
852.104	0.0181564
852.183	0.0180981
852.261	0.0181633
852.339	0.0182085
852.417	0.0179758
852.495	0.0182322
852.573	0.0180296
852.651	0.0180507
852.729	0.0180389
852.808	0.0182517
852.886	0.0180437
852.964	0.0180682
853.042	0.0180833
853.120	0.0180296
853.198	0.0180824
853.276	0.0181713
853.354	0.0181913
853.433	0.0180504
853.511	0.0179669
853.589	0.0181182
853.667	0.0179773
853.745	0.0181859
853.823	0.0180999
853.901	0.0181860
853.979	0.0181669
854.058	0.0180367
854.136	0.0181250
854.214	0.0180586
854.292	0.0180630
854.370	0.0179453
854.448	0.0180224
854.526	0.0180595
854.604	0.0181209
854.683	0.0180299
854.761	0.0181683
854.839	0.0181305
854.917	0.0180859
854.995	0.0180399
855.073	0.0180418
855.151	0.0180927
855.229	0.0179391
855.308	0.0181619
855.386	0.0180523
855.464	0.0181396
855.542	0.0180136
855.620	0.0181355
855.698	0.0182937
855.776	0.0181859
855.854	0.0181694
855.933	0.0181323
856.011	0.0181551
856.089	0.0180495
856.167	0.0181834
856.245	0.0181812
856.323	0.0181823
856.401	0.0181751
856.479	0.0181516
856.558	0.0181704
856.636	0.0180436
856.714	0.0181583
856.792	0.0182854
856.870	0.0182846
856.948	0.0181633
857.026	0.0182085
857.104	0.0182116
857.183	0.0182161
857.261	0.0182725
857.339	0.0181740
857.417	0.0181721
857.495	0.0182545
857.573	0.0182224
857.651	0.0180884
857.729	0.0183382
857.808	0.0182068
857.886	0.0180647
857.964	0.0182121
858.042	0.0182478
858.120	0.0182240
858.198	0.0182208
858.276	0.0181100
858.354	0.0182562
858.433	0.0182332
858.511	0.0179801
858.589	0.0181035
858.667	0.0181718
858.745	0.0182460
858.823	0.0181184
858.901	0.0181984
858.979	0.0182212
859.058	0.0181978
859.136	0.0181004
859.214	0.0179683
859.292	0.0180226
859.370	0.0181506
859.448	0.0182120
859.526	0.0181005
859.604	0.0181412
859.683	0.0181921
859.761	0.0181425
859.839	0.0181485
859.917	0.0181091
859.995	0.0181501
860.073	0.0181805
860.151	0.0181156
860.229	0.0181167
860.308	0.0180699
860.386	0.0181990
860.464	0.0181584
860.542	0.0180535
860.620	0.0180695
860.698	0.0182216
860.776	0.0179874
860.854	0.0180195
860.933	0.0181748
861.011	0.0182924
861.089	0.0180435
861.167	0.0180337
861.245	0.0181713
861.323	0.0180956
861.401	0.0180486
861.479	0.0181578
861.558	0.0182426
861.636	0.0183098
861.714	0.0180598
861.792	0.0181287
861.870	0.0180480
861.948	0.0180024
862.026	0.0181155
862.104	0.0180524
862.183	0.0180623
862.261	0.0180632
862.339	0.0182389
862.417	0.0178922
862.495	0.0180928
862.573	0.0181554
862.651	0.0180787
862.729	0.0182071
862.808	0.0180577
862.886	0.0180929
862.964	0.0181266
863.042	0.0181239
863.120	0.0181980
863.198	0.0180970
863.276	0.0181255
863.354	0.0180302
863.433	0.0179987
863.511	0.0179910
863.589	0.0179269
863.667	0.0180370
863.745	0.0179886
863.823	0.0180548
863.901	0.0180948
863.979	0.0180943
864.058	0.0181526
864.136	0.0182238
864.214	0.0180145
864.292	0.0180448
864.370	0.0181210
864.448	0.0182404
864.526	0.0181629
864.604	0.0180394
864.683	0.0181317
864.761	0.0182416
864.839	0.0181702
864.917	0.0182340
864.995	0.0181020
865.073	0.0182175
865.151	0.0182681
865.229	0.0181375
865.308	0.0180675
865.386	0.0182213
865.464	0.0183237
865.542	0.0181676
865.620	0.0181350
865.698	0.0180876
865.776	0.0180395
865.854	0.0181017
865.933	0.0181428
866.011	0.0180546
866.089	0.0181602
866.167	0.0180849
866.245	0.0180997
866.323	0.0181937
866.401	0.0180563
866.479	0.0180043
866.558	0.0182067
866.636	0.0182258
866.714	0.0181799
866.792	0.0181165
866.870	0.0181911
866.948	0.0181725
867.026	0.0181907
867.104	0.0180424
867.183	0.0180938
867.261	0.0179905
867.339	0.0179916
867.417	0.0179789
867.495	0.0180208
867.573	0.0181396
867.651	0.0181046
867.729	0.0180064
867.808	0.0181293
867.886	0.0182044
867.964	0.0180346
868.042	0.0179612
868.120	0.0181057
868.198	0.0181690
868.276	0.0181035
868.354	0.0180230
868.433	0.0182329
868.511	0.0182735
868.589	0.0180927
868.667	0.0182869
868.745	0.0181233
868.823	0.0182349
868.901	0.0182458
868.979	0.0182232
869.058	0.0182966
869.136	0.0180612
869.214	0.0183018
869.292	0.0183740
869.370	0.0184241
869.448	0.0183732
869.526	0.0183434
869.604	0.0183659
869.683	0.0181768
869.761	0.0182389
869.839	0.0181715
869.917	0.0181714
869.995	0.0181969
870.073	0.0182217
870.151	0.0181068
870.229	0.0180382
870.308	0.0181390
870.386	0.0181205
870.464	0.0180234
870.542	0.0181165
870.620	0.0181483
870.698	0.0182385
870.776	0.0180716
870.854	0.0181621
870.933	0.0180606
871.011	0.0181195
871.089	0.0182182
871.167	0.0180179
871.245	0.0181071
871.323	0.0181576
871.401	0.0179950
871.479	0.0180390
871.558	0.0180277
871.636	0.0179694
871.714	0.0180229
871.792	0.0181298
871.870	0.0181607
871.948	0.0180910
872.026	0.0181752
872.104	0.0180899
872.183	0.0179749
872.261	0.0180991
872.339	0.0180959
872.417	0.0180090
872.495	0.0181553
872.573	0.0181463
872.651	0.0181861
872.729	0.0180754
872.808	0.0181898
872.886	0.0182310
872.964	0.0182077
873.042	0.0181303
873.120	0.0181696
873.198	0.0181969
873.276	0.0180822
873.354	0.0181119
873.433	0.0183459
873.511	0.0181902
873.589	0.0180977
873.667	0.0182282
873.745	0.0180838
873.823	0.0181497
873.901	0.0181159
873.979	0.0180679
874.058	0.0181084
874.136	0.0181143
874.214	0.0182425
874.292	0.0181543
874.370	0.0180674
874.448	0.0181435
874.526	0.0180962
874.604	0.0181570
874.683	0.0181497
874.761	0.0181041
874.839	0.0182301
874.917	0.0180938
874.995	0.0181463
875.073	0.0181091
875.151	0.0180917
875.229	0.0179927
875.308	0.0181820
875.386	0.0180460
875.464	0.0181014
875.542	0.0181475
875.620	0.0179503
875.698	0.0181100
875.776	0.0181313
875.854	0.0180190
875.933	0.0180327
876.011	0.0180809
876.089	0.0180493
876.167	0.0180520
876.245	0.0180867
876.323	0.0180275
876.401	0.0181072
876.479	0.0181018
876.558	0.0180864
876.636	0.0181057
876.714	0.0181152
876.792	0.0181842
876.870	0.0181634
876.948	0.0180074
877.026	0.0181293
877.104	0.0181361
877.183	0.0181247
877.261	0.0182519
877.339	0.0181486
877.417	0.0181430
877.495	0.0180455
877.573	0.0182135
877.651	0.0180435
877.729	0.0180702
877.808	0.0181066
877.886	0.0181351
877.964	0.0182406
878.042	0.0180364
878.120	0.0182772
878.198	0.0181168
878.276	0.0180578
878.354	0.0180542
878.433	0.0181436
878.511	0.0180047
878.589	0.0179585
878.667	0.0180566
878.745	0.0181061
878.823	0.0178732
878.901	0.0180064
878.979	0.0180691
879.058	0.0179523
879.136	0.0179847
879.214	0.0181185
879.292	0.0180699
879.370	0.0180320
879.448	0.0180788
879.526	0.0179995
879.604	0.0179772
879.683	0.0179839
879.761	0.0182494
879.839	0.0181892
879.917	0.0181162
879.995	0.0181557
880.073	0.0181558
880.151	0.0181801
880.229	0.0182087
880.308	0.0180794
880.386	0.0182126
880.464	0.0182327
880.542	0.0181344
880.620	0.0181494
880.698	0.0180576
880.776	0.0183237
880.854	0.0181842
880.933	0.0181505
881.011	0.0180397
881.089	0.0180969
881.167	0.0181131
881.245	0.0181369
881.323	0.0182188
881.401	0.0181490
881.479	0.0181362
881.558	0.0180711
881.636	0.0181461
881.714	0.0181548
881.792	0.0182011
881.870	0.0181428
881.948	0.0181203
882.026	0.0182011
882.104	0.0181377
882.183	0.0180581
882.261	0.0181201
882.339	0.0181904
882.417	0.0182059
882.495	0.0181481
882.573	0.0181683
882.651	0.0181189
882.729	0.0182117
882.808	0.0182346
882.886	0.0181799
882.964	0.0181074
883.042	0.0180733
883.120	0.0182114
883.198	0.0180802
883.276	0.0180833
883.354	0.0181941
883.433	0.0182469
883.511	0.0181196
883.589	0.0181339
883.667	0.0180687
883.745	0.0181267
883.823	0.0181903
883.901	0.0182211
883.979	0.0181641
884.058	0.0181011
884.136	0.0182006
884.214	0.0180801
884.292	0.0180882
884.370	0.0180355
884.448	0.0181887
884.526	0.0181227
884.604	0.0181260
884.683	0.0180968
884.761	0.0181147
884.839	0.0180706
884.917	0.0180994
884.995	0.0180945
885.073	0.0181416
885.151	0.0181622
885.229	0.0181155
885.308	0.0179959
885.386	0.0181480
885.464	0.0181239
885.542	0.0180758
885.620	0.0181692
885.698	0.0180627
885.776	0.0180030
885.854	0.0180304
885.933	0.0181203
886.011	0.0180760
886.089	0.0180568
886.167	0.0180881
886.245	0.0180489
886.323	0.0180668
886.401	0.0181708
886.479	0.0180283
886.558	0.0180750
886.636	0.0180248
886.714	0.0181098
886.792	0.0180569
886.870	0.0181584
886.948	0.0180037
887.026	0.0180181
887.104	0.0181799
887.183	0.0181025
887.261	0.0180862
887.339	0.0179695
887.417	0.0182597
887.495	0.0180963
887.573	0.0181258
887.651	0.0181116
887.729	0.0181425
887.808	0.0180730
887.886	0.0182504
887.964	0.0180957
888.042	0.0180406
888.120	0.0180946
888.198	0.0180791
888.276	0.0179384
888.354	0.0179266
888.433	0.0179742
888.511	0.0179970
888.589	0.0179235
888.667	0.0179743
888.745	0.0181137
888.823	0.0181102
888.901	0.0179676
888.979	0.0181091
889.058	0.0180235
889.136	0.0180555
889.214	0.0179523
889.292	0.0180950
889.370	0.0179919
889.448	0.0180196
889.526	0.0180327
889.604	0.0180489
889.683	0.0179458
889.761	0.0180331
889.839	0.0178616
889.917	0.0179558
889.995	0.0180963
890.073	0.0179775
890.151	0.0180602
890.229	0.0180639
890.308	0.0180189
890.386	0.0180234
890.464	0.0180921
890.542	0.0181210
890.620	0.0182669
890.698	0.0180891
890.776	0.0181432
890.854	0.0182438
890.933	0.0181162
891.011	0.0182098
891.089	0.0182455
891.167	0.0182313
891.245	0.0181967
891.323	0.0181910
891.401	0.0182190
891.479	0.0182965
891.558	0.0181763
891.636	0.0182558
891.714	0.0180898
891.792	0.0181390
891.870	0.0180434
891.948	0.0181025
892.026	0.0180624
892.104	0.0179394
892.183	0.0180309
892.261	0.0180125
892.339	0.0179108
892.417	0.0178138
892.495	0.0178561
892.573	0.0179713
892.651	0.0179049
892.729	0.0179786
892.808	0.0178281
892.886	0.0180416
892.964	0.0180068
893.042	0.0181010
893.120	0.0180843
893.198	0.0181859
893.276	0.0181546
893.354	0.0181818
893.433	0.0182112
893.511	0.0182983
893.589	0.0182624
893.667	0.0182535
893.745	0.0181612
893.823	0.0182409
893.901	0.0183133
893.979	0.0183501
894.058	0.0183114
894.136	0.0183268
894.214	0.0182491
894.292	0.0181699
894.370	0.0181622
894.448	0.0181660
894.526	0.0182233
894.604	0.0180104
894.683	0.0182172
894.761	0.0181391
894.839	0.0180640
894.917	0.0179359
894.995	0.0179045
895.073	0.0179482
895.151	0.0180464
895.229	0.0179581
895.308	0.0179875
895.386	0.0180299
895.464	0.0179782
895.542	0.0181081
895.620	0.0179785
895.698	0.0179680
895.776	0.0179395
895.854	0.0178445
895.933	0.0180599
896.011	0.0179530
896.089	0.0180405
896.167	0.0181532
896.245	0.0183080
896.323	0.0181475
896.401	0.0182835
896.479	0.0182011
896.558	0.0183994
896.636	0.0183349
896.714	0.0182149
896.792	0.0181579
896.870	0.0183527
896.948	0.0182904
897.026	0.0182534
897.104	0.0180973
897.183	0.0181704
897.261	0.0182187
897.339	0.0182064
897.417	0.0180592
897.495	0.0180055
897.573	0.0180794
897.651	0.0178949
897.729	0.0179286
897.808	0.0180778
897.886	0.0180204
897.964	0.0178551
898.042	0.0179816
898.120	0.0178783
898.198	0.0180196
898.276	0.0179124
898.354	0.0178761
898.433	0.0178883
898.511	0.0181263
898.589	0.0180252
898.667	0.0181285
898.745	0.0180463
898.823	0.0179996
898.901	0.0181095
898.979	0.0180911
899.058	0.0182299
899.136	0.0183536
899.214	0.0181646
899.292	0.0181541
899.370	0.0182509
899.448	0.0182090
899.526	0.0182532
899.604	0.0181512
899.683	0.0182991
899.761	0.0181902
899.839	0.0181108
899.917	0.0180891
899.995	0.0180788
900.073	0.0180368
900.151	0.0180482
900.229	0.0180724
900.308	0.0179933
900.386	0.0180075
900.464	0.0179848
900.542	0.0178835
900.620	0.0178693
900.698	0.0180067
900.776	0.0178666
900.854	0.0179257
900.933	0.0180042
901.011	0.0180525
901.089	0.0180299
901.167	0.0180299
901.245	0.0180952
901.323	0.0182394
901.401	0.0180791
901.479	0.0179945
901.558	0.0181720
901.636	0.0182277
901.714	0.0182511
901.792	0.0181076
901.870	0.0181831
901.948	0.0180890
902.026	0.0180634
902.104	0.0181535
902.183	0.0180918
902.261	0.0179574
902.339	0.0180222
902.417	0.0180841
902.495	0.0181018
902.573	0.0179847
902.651	0.0179221
902.729	0.0179700
902.808	0.0181199
902.886	0.0180933
902.964	0.0179758
903.042	0.0180157
903.120	0.0181226
903.198	0.0182039
903.276	0.0180282
903.354	0.0181283
903.433	0.0179804
903.511	0.0180996
903.589	0.0180157
903.667	0.0179722
903.745	0.0180401
903.823	0.0181181
903.901	0.0181554
903.979	0.0180137
904.058	0.0180871
904.136	0.0181374
904.214	0.0179867
904.292	0.0180672
904.370	0.0180099
904.448	0.0179699
904.526	0.0181595
904.604	0.0181604
904.683	0.0180814
904.761	0.0180691
904.839	0.0181302
904.917	0.0180119
904.995	0.0179974
905.073	0.0180264
905.151	0.0179779
905.229	0.0179642
905.308	0.0180737
905.386	0.0180524
905.464	0.0181297
905.542	0.0180868
905.620	0.0180849
905.698	0.0181056
905.776	0.0180391
905.854	0.0181059
905.933	0.0181401
906.011	0.0181313
906.089	0.0179861
906.167	0.0180689
906.245	0.0180535
906.323	0.0181023
906.401	0.0181764
906.479	0.0181922
906.558	0.0182146
906.636	0.0181049
906.714	0.0180216
906.792	0.0180731
906.870	0.0181908
906.948	0.0181067
907.026	0.0180644
907.104	0.0180853
907.183	0.0180309
907.261	0.0180566
907.339	0.0180512
907.417	0.0181585
907.495	0.0180569
907.573	0.0178789
907.651	0.0179611
907.729	0.0179476
907.808	0.0180539
907.886	0.0180955
907.964	0.0180264
908.042	0.0180433
908.120	0.0181004
908.198	0.0181561
908.276	0.0181665
908.354	0.0181784
908.433	0.0181583
908.511	0.0180938
908.589	0.0181537
908.667	0.0180933
908.745	0.0182109
908.823	0.0181690
908.901	0.0180334
908.979	0.0180215
909.058	0.0180793
909.136	0.0181501
909.214	0.0179807
909.292	0.0180035
909.370	0.0179857
909.448	0.0180329
909.526	0.0179285
909.604	0.0180056
909.683	0.0180147
909.761	0.0180704
909.839	0.0179999
909.917	0.0179052
909.995	0.0179951
910.073	0.0179881
910.151	0.0179945
910.229	0.0179868
910.308	0.0181181
910.386	0.0179238
910.464	0.0179274
910.542	0.0182277
910.620	0.0180262
910.698	0.0180683
910.776	0.0180818
910.854	0.0180486
910.933	0.0181039
911.011	0.0180919
911.089	0.0181450
911.167	0.0181568
911.245	0.0179616
911.323	0.0180596
911.401	0.0179492
911.479	0.0180408
911.558	0.0180538
911.636	0.0180419
911.714	0.0180484
911.792	0.0180357
911.870	0.0179712
911.948	0.0180598
912.026	0.0181157
912.104	0.0181638
912.183	0.0182204
912.261	0.0182878
912.339	0.0181972
912.417	0.0182346
912.495	0.0181499
912.573	0.0181711
912.651	0.0182426
912.729	0.0181892
912.808	0.0183097
912.886	0.0182845
912.964	0.0183029
913.042	0.0180347
913.120	0.0180753
913.198	0.0181831
913.276	0.0181507
913.354	0.0181309
913.433	0.0180445
913.511	0.0180746
913.589	0.0180502
913.667	0.0179794
913.745	0.0180296
913.823	0.0179575
913.901	0.0179839
913.979	0.0180598
914.058	0.0180334
914.136	0.0179978
914.214	0.0179916
914.292	0.0182324
914.370	0.0182256
914.448	0.0179961
914.526	0.0179189
914.604	0.0180027
914.683	0.0179508
914.761	0.0179948
914.839	0.0179914
914.917	0.0180791
914.995	0.0180695
915.073	0.0180904
915.151	0.0179561
915.229	0.0179290
915.308	0.0179475
915.386	0.0179809
915.464	0.0179958
915.542	0.0180157
915.620	0.0180441
915.698	0.0179465
915.776	0.0179310
915.854	0.0181610
915.933	0.0180888
916.011	0.0180386
916.089	0.0179574
916.167	0.0180558
916.245	0.0180886
916.323	0.0180888
916.401	0.0180654
916.479	0.0179844
916.558	0.0181608
916.636	0.0181171
916.714	0.0181744
916.792	0.0183083
916.870	0.0183312
916.948	0.0180721
917.026	0.0181839
917.104	0.0182030
917.183	0.0183023
917.261	0.0182184
917.339	0.0182422
917.417	0.0182662
917.495	0.0180329
917.573	0.0181357
917.651	0.0183193
917.729	0.0182397
917.808	0.0181696
917.886	0.0182021
917.964	0.0180779
918.042	0.0181491
918.120	0.0182153
918.198	0.0181266
918.276	0.0180398
918.354	0.0180820
918.433	0.0180782
918.511	0.0181487
918.589	0.0181076
918.667	0.0180568
918.745	0.0181078
918.823	0.0181232
918.901	0.0181249
918.979	0.0180753
919.058	0.0180610
919.136	0.0181481
919.214	0.0182150
919.292	0.0181912
919.370	0.0181036
919.448	0.0179955
919.526	0.0181653
919.604	0.0181545
919.683	0.0181104
919.761	0.0181630
919.839	0.0181339
919.917	0.0182230
