06/03/2022	18:31:19	Ver.	4.1	UNKNOWN
Optical Delay	550.027179	Delta X		0.078125	Sweeps	1	Scan Rate	0/0
Coordinates	Axis 1	NaN	Axis 2	NaN	Axis 3	NaN	Axis 4	NaN	Axis 5	NaN	Axis 6	0.000000
TX Power	0.000000	RX Power	0.000000

550.027	0.0179626
550.105	0.0178028
550.183	0.0178238
550.262	0.0181010
550.340	0.0179999
550.418	0.0178999
550.496	0.0180294
550.574	0.0181404
550.652	0.0178725
550.730	0.0180495
550.808	0.0180589
550.887	0.0180585
550.965	0.0179362
551.043	0.0181110
551.121	0.0180034
551.199	0.0179515
551.277	0.0180192
551.355	0.0179304
551.433	0.0181474
551.512	0.0180067
551.590	0.0181643
551.668	0.0181007
551.746	0.0181261
551.824	0.0180820
551.902	0.0181564
551.980	0.0178918
552.058	0.0180505
552.137	0.0180958
552.215	0.0180650
552.293	0.0180654
552.371	0.0180307
552.449	0.0180518
552.527	0.0180096
552.605	0.0180009
552.683	0.0180077
552.762	0.0180566
552.840	0.0180128
552.918	0.0181732
552.996	0.0180746
553.074	0.0180027
553.152	0.0180000
553.230	0.0179989
553.308	0.0180685
553.387	0.0179324
553.465	0.0180217
553.543	0.0180500
553.621	0.0180066
553.699	0.0180382
553.777	0.0179016
553.855	0.0179300
553.933	0.0180671
554.012	0.0179244
554.090	0.0179688
554.168	0.0178714
554.246	0.0178636
554.324	0.0179036
554.402	0.0180836
554.480	0.0180672
554.558	0.0178587
554.637	0.0180244
554.715	0.0178931
554.793	0.0180210
554.871	0.0180403
554.949	0.0178471
555.027	0.0179880
555.105	0.0180251
555.183	0.0178373
555.262	0.0178368
555.340	0.0179992
555.418	0.0180132
555.496	0.0178781
555.574	0.0178443
555.652	0.0179381
555.730	0.0180196
555.808	0.0180489
555.887	0.0179051
555.965	0.0178583
556.043	0.0180081
556.121	0.0179011
556.199	0.0178884
556.277	0.0178302
556.355	0.0179175
556.433	0.0178484
556.512	0.0179461
556.590	0.0180393
556.668	0.0179224
556.746	0.0179988
556.824	0.0178366
556.902	0.0180066
556.980	0.0180630
557.058	0.0179834
557.137	0.0178462
557.215	0.0178673
557.293	0.0178625
557.371	0.0180234
557.449	0.0178855
557.527	0.0179086
557.605	0.0179909
557.683	0.0178281
557.762	0.0178268
557.840	0.0179464
557.918	0.0179811
557.996	0.0178168
558.074	0.0179652
558.152	0.0178865
558.230	0.0177769
558.308	0.0178356
558.387	0.0178400
558.465	0.0178878
558.543	0.0178143
558.621	0.0179938
558.699	0.0179807
558.777	0.0178907
558.855	0.0179801
558.933	0.0179903
559.012	0.0178347
559.090	0.0178325
559.168	0.0178360
559.246	0.0179362
559.324	0.0178697
559.402	0.0178909
559.480	0.0179401
559.558	0.0177858
559.637	0.0178337
559.715	0.0179100
559.793	0.0179731
559.871	0.0179376
559.949	0.0178852
560.027	0.0179668
560.105	0.0178807
560.183	0.0178965
560.262	0.0177539
560.340	0.0178100
560.418	0.0179385
560.496	0.0179544
560.574	0.0178516
560.652	0.0178214
560.730	0.0180279
560.808	0.0179143
560.887	0.0179552
560.965	0.0178557
561.043	0.0179696
561.121	0.0178378
561.199	0.0179572
561.277	0.0178452
561.355	0.0178124
561.433	0.0179550
561.512	0.0179500
561.590	0.0178529
561.668	0.0180298
561.746	0.0179143
561.824	0.0177849
561.902	0.0178444
561.980	0.0179533
562.058	0.0178432
562.137	0.0179889
562.215	0.0177464
562.293	0.0179214
562.371	0.0179233
562.449	0.0179983
562.527	0.0178198
562.605	0.0179499
562.683	0.0178593
562.762	0.0179543
562.840	0.0180050
562.918	0.0179051
562.996	0.0177676
563.074	0.0178668
563.152	0.0180743
563.230	0.0179016
563.308	0.0179649
563.387	0.0178055
563.465	0.0177834
563.543	0.0179065
563.621	0.0180213
563.699	0.0179497
563.777	0.0178551
563.855	0.0177303
563.933	0.0178258
564.012	0.0178918
564.090	0.0178694
564.168	0.0178645
564.246	0.0179593
564.324	0.0178609
564.402	0.0179845
564.480	0.0179276
564.558	0.0180124
564.637	0.0179398
564.715	0.0178005
564.793	0.0178979
564.871	0.0178974
564.949	0.0178830
565.027	0.0179211
565.105	0.0178230
565.183	0.0178522
565.262	0.0179320
565.340	0.0178411
565.418	0.0178630
565.496	0.0179050
565.574	0.0179012
565.652	0.0178556
565.730	0.0178853
565.808	0.0178080
565.887	0.0178300
565.965	0.0179060
566.043	0.0178917
566.121	0.0178927
566.199	0.0178592
566.277	0.0178970
566.355	0.0178344
566.433	0.0179066
566.512	0.0178788
566.590	0.0178500
566.668	0.0178490
566.746	0.0177980
566.824	0.0178594
566.902	0.0178204
566.980	0.0178053
567.058	0.0178310
567.137	0.0177755
567.215	0.0177866
567.293	0.0179916
567.371	0.0177773
567.449	0.0177992
567.527	0.0178751
567.605	0.0178519
567.683	0.0179810
567.762	0.0178852
567.840	0.0176717
567.918	0.0176488
567.996	0.0177868
568.074	0.0178371
568.152	0.0178525
568.230	0.0179170
568.308	0.0178271
568.387	0.0176842
568.465	0.0178601
568.543	0.0178594
568.621	0.0178660
568.699	0.0178808
568.777	0.0177763
568.855	0.0177802
568.933	0.0177608
569.012	0.0177364
569.090	0.0178994
569.168	0.0179150
569.246	0.0178489
569.324	0.0178075
569.402	0.0178010
569.480	0.0179736
569.558	0.0178748
569.637	0.0179450
569.715	0.0179425
569.793	0.0178961
569.871	0.0179457
569.949	0.0180005
570.027	0.0179427
570.105	0.0178599
570.183	0.0179327
570.262	0.0178826
570.340	0.0180000
570.418	0.0178535
570.496	0.0179852
570.574	0.0178410
570.652	0.0178649
570.730	0.0178693
570.808	0.0177915
570.887	0.0179963
570.965	0.0180587
571.043	0.0179430
571.121	0.0179131
571.199	0.0179640
571.277	0.0179402
571.355	0.0179499
571.433	0.0179246
571.512	0.0178245
571.590	0.0177735
571.668	0.0178968
571.746	0.0178533
571.824	0.0179560
571.902	0.0179147
571.980	0.0177617
572.058	0.0177772
572.137	0.0179248
572.215	0.0178874
572.293	0.0178967
572.371	0.0177561
572.449	0.0179041
572.527	0.0178457
572.605	0.0179327
572.683	0.0179095
572.762	0.0178768
572.840	0.0178669
572.918	0.0178030
572.996	0.0179028
573.074	0.0178951
573.152	0.0179982
573.230	0.0179613
573.308	0.0180596
573.387	0.0178939
573.465	0.0179086
573.543	0.0179971
573.621	0.0180211
573.699	0.0179437
573.777	0.0178558
573.855	0.0179121
573.933	0.0177911
574.012	0.0179718
574.090	0.0180785
574.168	0.0179241
574.246	0.0180133
574.324	0.0178999
574.402	0.0179775
574.480	0.0179694
574.558	0.0179107
574.637	0.0179009
574.715	0.0178692
574.793	0.0179500
574.871	0.0179163
574.949	0.0180737
575.027	0.0178034
575.105	0.0180184
575.183	0.0179920
575.262	0.0179234
575.340	0.0179569
575.418	0.0179817
575.496	0.0179958
575.574	0.0178327
575.652	0.0180242
575.730	0.0180193
575.808	0.0180173
575.887	0.0179908
575.965	0.0178563
576.043	0.0179406
576.121	0.0179722
576.199	0.0179562
576.277	0.0177982
576.355	0.0179403
576.433	0.0179398
576.512	0.0179964
576.590	0.0179820
576.668	0.0180950
576.746	0.0180656
576.824	0.0179459
576.902	0.0179541
576.980	0.0180627
577.058	0.0179411
577.137	0.0180566
577.215	0.0180115
577.293	0.0181311
577.371	0.0181084
577.449	0.0180565
577.527	0.0181016
577.605	0.0180723
577.683	0.0180915
577.762	0.0180724
577.840	0.0180918
577.918	0.0180493
577.996	0.0179012
578.074	0.0182745
578.152	0.0180849
578.230	0.0180846
578.308	0.0181400
578.387	0.0181120
578.465	0.0180548
578.543	0.0179847
578.621	0.0181193
578.699	0.0180829
578.777	0.0181419
578.855	0.0180444
578.933	0.0179900
579.012	0.0180003
579.090	0.0178819
579.168	0.0180089
579.246	0.0180027
579.324	0.0180328
579.402	0.0179594
579.480	0.0178680
579.558	0.0180782
579.637	0.0178486
579.715	0.0178271
579.793	0.0178345
579.871	0.0179230
579.949	0.0179671
580.027	0.0180302
580.105	0.0179648
580.183	0.0178528
580.262	0.0180286
580.340	0.0178069
580.418	0.0179348
580.496	0.0178423
580.574	0.0178049
580.652	0.0179436
580.730	0.0179259
580.808	0.0178165
580.887	0.0178709
580.965	0.0179283
581.043	0.0178662
581.121	0.0179140
581.199	0.0179422
581.277	0.0179140
581.355	0.0179301
581.433	0.0179860
581.512	0.0179840
581.590	0.0179702
581.668	0.0178545
581.746	0.0178754
581.824	0.0179048
581.902	0.0177551
581.980	0.0178454
582.058	0.0178920
582.137	0.0179515
582.215	0.0177958
582.293	0.0178513
582.371	0.0179324
582.449	0.0177353
582.527	0.0176210
582.605	0.0177619
582.683	0.0177750
582.762	0.0178773
582.840	0.0179285
582.918	0.0178777
582.996	0.0176448
583.074	0.0178193
583.152	0.0177679
583.230	0.0178388
583.308	0.0177438
583.387	0.0178220
583.465	0.0177182
583.543	0.0178175
583.621	0.0177296
583.699	0.0176588
583.777	0.0177937
583.855	0.0177399
583.933	0.0177692
584.012	0.0179807
584.090	0.0178362
584.168	0.0177319
584.246	0.0177516
584.324	0.0178117
584.402	0.0177601
584.480	0.0177838
584.558	0.0177412
584.637	0.0177397
584.715	0.0178436
584.793	0.0178063
584.871	0.0177330
584.949	0.0177708
585.027	0.0178090
585.105	0.0177238
585.183	0.0176862
585.262	0.0177337
585.340	0.0177081
585.418	0.0178812
585.496	0.0176810
585.574	0.0178989
585.652	0.0177354
585.730	0.0177840
585.808	0.0177489
585.887	0.0177668
585.965	0.0177362
586.043	0.0178197
586.121	0.0177876
586.199	0.0176899
586.277	0.0178598
586.355	0.0177473
586.433	0.0177361
586.512	0.0178379
586.590	0.0177638
586.668	0.0178371
586.746	0.0177736
586.824	0.0178439
586.902	0.0178727
586.980	0.0176537
587.058	0.0176920
587.137	0.0178468
587.215	0.0177940
587.293	0.0177404
587.371	0.0178049
587.449	0.0178598
587.527	0.0178630
587.605	0.0178153
587.683	0.0179044
587.762	0.0178007
587.840	0.0178909
587.918	0.0176752
587.996	0.0177802
588.074	0.0178610
588.152	0.0177792
588.230	0.0178142
588.308	0.0179288
588.387	0.0178972
588.465	0.0178749
588.543	0.0178176
588.621	0.0178663
588.699	0.0178671
588.777	0.0178247
588.855	0.0178764
588.933	0.0177728
589.012	0.0178668
589.090	0.0178247
589.168	0.0179021
589.246	0.0178796
589.324	0.0178636
589.402	0.0178899
589.480	0.0178706
589.558	0.0179050
589.637	0.0178111
589.715	0.0178828
589.793	0.0177912
589.871	0.0178510
589.949	0.0179080
590.027	0.0178051
590.105	0.0179401
590.183	0.0178825
590.262	0.0178166
590.340	0.0179144
590.418	0.0178382
590.496	0.0178671
590.574	0.0180180
590.652	0.0177414
590.730	0.0178576
590.808	0.0180255
590.887	0.0178754
590.965	0.0178328
591.043	0.0179830
591.121	0.0179205
591.199	0.0179327
591.277	0.0179721
591.355	0.0179585
591.433	0.0179515
591.512	0.0179685
591.590	0.0180106
591.668	0.0179984
591.746	0.0179412
591.824	0.0179638
591.902	0.0180698
591.980	0.0180009
592.058	0.0179991
592.137	0.0179174
592.215	0.0180300
592.293	0.0179850
592.371	0.0180621
592.449	0.0180665
592.527	0.0180593
592.605	0.0178464
592.683	0.0179100
592.762	0.0179072
592.840	0.0180800
592.918	0.0180716
592.996	0.0181198
593.074	0.0179491
593.152	0.0178790
593.230	0.0180726
593.308	0.0179964
593.387	0.0179260
593.465	0.0179184
593.543	0.0179411
593.621	0.0180403
593.699	0.0179953
593.777	0.0178411
593.855	0.0179932
593.933	0.0179387
594.012	0.0179720
594.090	0.0179855
594.168	0.0180412
594.246	0.0179131
594.324	0.0179034
594.402	0.0180039
594.480	0.0180479
594.558	0.0180282
594.637	0.0178696
594.715	0.0177953
594.793	0.0179223
594.871	0.0178194
594.949	0.0180614
595.027	0.0179379
595.105	0.0178063
595.183	0.0179311
595.262	0.0179321
595.340	0.0179050
595.418	0.0178677
595.496	0.0177370
595.574	0.0179133
595.652	0.0178129
595.730	0.0177988
595.808	0.0179196
595.887	0.0179487
595.965	0.0179628
596.043	0.0179816
596.121	0.0177750
596.199	0.0179276
596.277	0.0179317
596.355	0.0177914
596.433	0.0178805
596.512	0.0179425
596.590	0.0179728
596.668	0.0178429
596.746	0.0177808
596.824	0.0178307
596.902	0.0178609
596.980	0.0180214
597.058	0.0179501
597.137	0.0177361
597.215	0.0179720
597.293	0.0179057
597.371	0.0179097
597.449	0.0179240
597.527	0.0178522
597.605	0.0178503
597.683	0.0178857
597.762	0.0180104
597.840	0.0180176
597.918	0.0178881
597.996	0.0178030
598.074	0.0178492
598.152	0.0177619
598.230	0.0178939
598.308	0.0179483
598.387	0.0179970
598.465	0.0180572
598.543	0.0179586
598.621	0.0178233
598.699	0.0179002
598.777	0.0179079
598.855	0.0179099
598.933	0.0179652
599.012	0.0179786
599.090	0.0178561
599.168	0.0179545
599.246	0.0180102
599.324	0.0181192
599.402	0.0179105
599.480	0.0179383
599.558	0.0179858
599.637	0.0179811
599.715	0.0178927
599.793	0.0179537
599.871	0.0181527
599.949	0.0180776
600.027	0.0178708
600.105	0.0179200
600.183	0.0179837
600.262	0.0180025
600.340	0.0179207
600.418	0.0178852
600.496	0.0178777
600.574	0.0180483
600.652	0.0180120
600.730	0.0180161
600.808	0.0180164
600.887	0.0179057
600.965	0.0179535
601.043	0.0179851
601.121	0.0180227
601.199	0.0180247
601.277	0.0180841
601.355	0.0179861
601.433	0.0180289
601.512	0.0180540
601.590	0.0179459
601.668	0.0179720
601.746	0.0179996
601.824	0.0179011
601.902	0.0179495
601.980	0.0180454
602.058	0.0179520
602.137	0.0180403
602.215	0.0179205
602.293	0.0179807
602.371	0.0178848
602.449	0.0181325
602.527	0.0180678
602.605	0.0180844
602.683	0.0180806
602.762	0.0179581
602.840	0.0179496
602.918	0.0179205
602.996	0.0180826
603.074	0.0178195
603.152	0.0179865
603.230	0.0179508
603.308	0.0179688
603.387	0.0179092
603.465	0.0179948
603.543	0.0180238
603.621	0.0179662
603.699	0.0179885
603.777	0.0178646
603.855	0.0178902
603.933	0.0178509
604.012	0.0179120
604.090	0.0179197
604.168	0.0177955
604.246	0.0178622
604.324	0.0179447
604.402	0.0179749
604.480	0.0178902
604.558	0.0178736
604.637	0.0178666
604.715	0.0180489
604.793	0.0179424
604.871	0.0177750
604.949	0.0178773
605.027	0.0178210
605.105	0.0178439
605.183	0.0178900
605.262	0.0178483
605.340	0.0179662
605.418	0.0178000
605.496	0.0178185
605.574	0.0179173
605.652	0.0179697
605.730	0.0179603
605.808	0.0179430
605.887	0.0178951
605.965	0.0178212
606.043	0.0177256
606.121	0.0179183
606.199	0.0179346
606.277	0.0178926
606.355	0.0178554
606.433	0.0177844
606.512	0.0179444
606.590	0.0177714
606.668	0.0179324
606.746	0.0178234
606.824	0.0177209
606.902	0.0179131
606.980	0.0177854
607.058	0.0177994
607.137	0.0178223
607.215	0.0176860
607.293	0.0177937
607.371	0.0178786
607.449	0.0178170
607.527	0.0177997
607.605	0.0178752
607.683	0.0178239
607.762	0.0178001
607.840	0.0179292
607.918	0.0178715
607.996	0.0178840
608.074	0.0178535
608.152	0.0178636
608.230	0.0178439
608.308	0.0178284
608.387	0.0179155
608.465	0.0178660
608.543	0.0178606
608.621	0.0178912
608.699	0.0178925
608.777	0.0179027
608.855	0.0179492
608.933	0.0178076
609.012	0.0177951
609.090	0.0177661
609.168	0.0177628
609.246	0.0179101
609.324	0.0178601
609.402	0.0178606
609.480	0.0179155
609.558	0.0178176
609.637	0.0178838
609.715	0.0177745
609.793	0.0179189
609.871	0.0179745
609.949	0.0179380
610.027	0.0179488
610.105	0.0179140
610.183	0.0178563
610.262	0.0178311
610.340	0.0179209
610.418	0.0178754
610.496	0.0178693
610.574	0.0179170
610.652	0.0177808
610.730	0.0178983
610.808	0.0177587
610.887	0.0178568
610.965	0.0178194
611.043	0.0178831
611.121	0.0178828
611.199	0.0178632
611.277	0.0179427
611.355	0.0179232
611.433	0.0178951
611.512	0.0178557
611.590	0.0178123
611.668	0.0179183
611.746	0.0178694
611.824	0.0178490
611.902	0.0179020
611.980	0.0177972
612.058	0.0178716
612.137	0.0177939
612.215	0.0178625
612.293	0.0179636
612.371	0.0179385
612.449	0.0179684
612.527	0.0179306
612.605	0.0179681
612.683	0.0178922
612.762	0.0178085
612.840	0.0179262
612.918	0.0178445
612.996	0.0178806
613.074	0.0180878
613.152	0.0178453
613.230	0.0178193
613.308	0.0179238
613.387	0.0180168
613.465	0.0180346
613.543	0.0179218
613.621	0.0178783
613.699	0.0178015
613.777	0.0179254
613.855	0.0178530
613.933	0.0178725
614.012	0.0179611
614.090	0.0179693
614.168	0.0177563
614.246	0.0178614
614.324	0.0179773
614.402	0.0179073
614.480	0.0179339
614.558	0.0178172
614.637	0.0178358
614.715	0.0179554
614.793	0.0179413
614.871	0.0178964
614.949	0.0177880
615.027	0.0178822
615.105	0.0177554
615.183	0.0178311
615.262	0.0179876
615.340	0.0179458
615.418	0.0179100
615.496	0.0178600
615.574	0.0178677
615.652	0.0178778
615.730	0.0178281
615.808	0.0179815
615.887	0.0179983
615.965	0.0177966
616.043	0.0179025
616.121	0.0180215
616.199	0.0178000
616.277	0.0179984
616.355	0.0181100
616.433	0.0180057
616.512	0.0179167
616.590	0.0179573
616.668	0.0179808
616.746	0.0179534
616.824	0.0180391
616.902	0.0179684
616.980	0.0179495
617.058	0.0179676
617.137	0.0179508
617.215	0.0180322
617.293	0.0179174
617.371	0.0179632
617.449	0.0181129
617.527	0.0179685
617.605	0.0179790
617.683	0.0179287
617.762	0.0179417
617.840	0.0179903
617.918	0.0181198
617.996	0.0179636
618.074	0.0179688
618.152	0.0180181
618.230	0.0179840
618.308	0.0179395
618.387	0.0180064
618.465	0.0180251
618.543	0.0179263
618.621	0.0179722
618.699	0.0179319
618.777	0.0179771
618.855	0.0180994
618.933	0.0180390
619.012	0.0178222
619.090	0.0179937
619.168	0.0180271
619.246	0.0179456
619.324	0.0179790
619.402	0.0180523
619.480	0.0181052
619.558	0.0180245
619.637	0.0179781
619.715	0.0179626
619.793	0.0180227
619.871	0.0178915
619.949	0.0180496
620.027	0.0180119
620.105	0.0179515
620.183	0.0179803
620.262	0.0179185
620.340	0.0181062
620.418	0.0180342
620.496	0.0179052
620.574	0.0179886
620.652	0.0180259
620.730	0.0180943
620.808	0.0179702
620.887	0.0179385
620.965	0.0181801
621.043	0.0181444
621.121	0.0180759
621.199	0.0180043
621.277	0.0180077
621.355	0.0180114
621.433	0.0181288
621.512	0.0181224
621.590	0.0180666
621.668	0.0180717
621.746	0.0180370
621.824	0.0181281
621.902	0.0179630
621.980	0.0179382
622.058	0.0180189
622.137	0.0180650
622.215	0.0179877
622.293	0.0178799
622.371	0.0179484
622.449	0.0178564
622.527	0.0180686
622.605	0.0180207
622.683	0.0178544
622.762	0.0179295
622.840	0.0179852
622.918	0.0180022
622.996	0.0178884
623.074	0.0179581
623.152	0.0180134
623.230	0.0179859
623.308	0.0179256
623.387	0.0179960
623.465	0.0179363
623.543	0.0180743
623.621	0.0179958
623.699	0.0179108
623.777	0.0179671
623.855	0.0179905
623.933	0.0179337
624.012	0.0179794
624.090	0.0178091
624.168	0.0180049
624.246	0.0180003
624.324	0.0179985
624.402	0.0179056
624.480	0.0178599
624.558	0.0178598
624.637	0.0178220
624.715	0.0177377
624.793	0.0178854
624.871	0.0180954
624.949	0.0178854
625.027	0.0179674
625.105	0.0179140
625.183	0.0178146
625.262	0.0179774
625.340	0.0179606
625.418	0.0179095
625.496	0.0179266
625.574	0.0178815
625.652	0.0180128
625.730	0.0180200
625.808	0.0179608
625.887	0.0179237
625.965	0.0180286
626.043	0.0178402
626.121	0.0179408
626.199	0.0178994
626.277	0.0180354
626.355	0.0179524
626.433	0.0177922
626.512	0.0178378
626.590	0.0178950
626.668	0.0179483
626.746	0.0178576
626.824	0.0179034
626.902	0.0180221
626.980	0.0178976
627.058	0.0179282
627.137	0.0179753
627.215	0.0181013
627.293	0.0178933
627.371	0.0179687
627.449	0.0179572
627.527	0.0178827
627.605	0.0180978
627.683	0.0179599
627.762	0.0179263
627.840	0.0180328
627.918	0.0180253
627.996	0.0180224
628.074	0.0179189
628.152	0.0179526
628.230	0.0179098
628.308	0.0180117
628.387	0.0180582
628.465	0.0180576
628.543	0.0180383
628.621	0.0179953
628.699	0.0179367
628.777	0.0181051
628.855	0.0180285
628.933	0.0179967
629.012	0.0180418
629.090	0.0178177
629.168	0.0179765
629.246	0.0179121
629.324	0.0179750
629.402	0.0179972
629.480	0.0179921
629.558	0.0180916
629.637	0.0179978
629.715	0.0180585
629.793	0.0179983
629.871	0.0179666
629.949	0.0181615
630.027	0.0180785
630.105	0.0179900
630.183	0.0179272
630.262	0.0180805
630.340	0.0180759
630.418	0.0181132
630.496	0.0179656
630.574	0.0179499
630.652	0.0180289
630.730	0.0181209
630.808	0.0180527
630.887	0.0180861
630.965	0.0180609
631.043	0.0179321
631.121	0.0180219
631.199	0.0180633
631.277	0.0179842
631.355	0.0178969
631.433	0.0180164
631.512	0.0179497
631.590	0.0179968
631.668	0.0180285
631.746	0.0180151
631.824	0.0179612
631.902	0.0179405
631.980	0.0180009
632.058	0.0179600
632.137	0.0179645
632.215	0.0179518
632.293	0.0178049
632.371	0.0180072
632.449	0.0180347
632.527	0.0180199
632.605	0.0177892
632.683	0.0178047
632.762	0.0179012
632.840	0.0179449
632.918	0.0179239
632.996	0.0177724
633.074	0.0179808
633.152	0.0179243
633.230	0.0178468
633.308	0.0178613
633.387	0.0178202
633.465	0.0179508
633.543	0.0178628
633.621	0.0177581
633.699	0.0178623
633.777	0.0180075
633.855	0.0179675
633.933	0.0178297
634.012	0.0179340
634.090	0.0178425
634.168	0.0178708
634.246	0.0178832
634.324	0.0178586
634.402	0.0178118
634.480	0.0179037
634.558	0.0179185
634.637	0.0177624
634.715	0.0177436
634.793	0.0178187
634.871	0.0178567
634.949	0.0177133
635.027	0.0178505
635.105	0.0178973
635.183	0.0178729
635.262	0.0178043
635.340	0.0178541
635.418	0.0178460
635.496	0.0176696
635.574	0.0177895
635.652	0.0178500
635.730	0.0178992
635.808	0.0178563
635.887	0.0178482
635.965	0.0179354
636.043	0.0177808
636.121	0.0177437
636.199	0.0179065
636.277	0.0178732
636.355	0.0176908
636.433	0.0179234
636.512	0.0179189
636.590	0.0177638
636.668	0.0177618
636.746	0.0178654
636.824	0.0178201
636.902	0.0177952
636.980	0.0178468
637.058	0.0177408
637.137	0.0176908
637.215	0.0179473
637.293	0.0178175
637.371	0.0177667
637.449	0.0180475
637.527	0.0179823
637.605	0.0178610
637.683	0.0179075
637.762	0.0179408
637.840	0.0178727
637.918	0.0178811
637.996	0.0179949
638.074	0.0178362
638.152	0.0179659
638.230	0.0178767
638.308	0.0178397
638.387	0.0178194
638.465	0.0177910
638.543	0.0178339
638.621	0.0178597
638.699	0.0179366
638.777	0.0178865
638.855	0.0178165
638.933	0.0179776
639.012	0.0179323
639.090	0.0178477
639.168	0.0178901
639.246	0.0178419
639.324	0.0178966
639.402	0.0178735
639.480	0.0179524
639.558	0.0178838
639.637	0.0180405
639.715	0.0179680
639.793	0.0179530
639.871	0.0179987
639.949	0.0179446
640.027	0.0178863
640.105	0.0177677
640.183	0.0177444
640.262	0.0178957
640.340	0.0177808
640.418	0.0178170
640.496	0.0178142
640.574	0.0178503
640.652	0.0179126
640.730	0.0178160
640.808	0.0178889
640.887	0.0178742
640.965	0.0176762
641.043	0.0178667
641.121	0.0178252
641.199	0.0177120
641.277	0.0178609
641.355	0.0178427
641.433	0.0178143
641.512	0.0178153
641.590	0.0178885
641.668	0.0179376
641.746	0.0179234
641.824	0.0178671
641.902	0.0177932
641.980	0.0179305
642.058	0.0178477
642.137	0.0179001
642.215	0.0179575
642.293	0.0178812
642.371	0.0179184
642.449	0.0180739
642.527	0.0178624
642.605	0.0180314
642.683	0.0179420
642.762	0.0178099
642.840	0.0178925
642.918	0.0179178
642.996	0.0179089
643.074	0.0179111
643.152	0.0179188
643.230	0.0179028
643.308	0.0177990
643.387	0.0179655
643.465	0.0178990
643.543	0.0178080
643.621	0.0179144
643.699	0.0179758
643.777	0.0179566
643.855	0.0179268
643.933	0.0179456
644.012	0.0180138
644.090	0.0178799
644.168	0.0178625
644.246	0.0178831
644.324	0.0179024
644.402	0.0179397
644.480	0.0177785
644.558	0.0178398
644.637	0.0178614
644.715	0.0179193
644.793	0.0179549
644.871	0.0179251
644.949	0.0178194
645.027	0.0177880
645.105	0.0179213
645.183	0.0178374
645.262	0.0177750
645.340	0.0179449
645.418	0.0179282
645.496	0.0178890
645.574	0.0180369
645.652	0.0179459
645.730	0.0179024
645.808	0.0180055
645.887	0.0179276
645.965	0.0179084
646.043	0.0178765
646.121	0.0178965
646.199	0.0178666
646.277	0.0179448
646.355	0.0179834
646.433	0.0177836
646.512	0.0179425
646.590	0.0179140
646.668	0.0179933
646.746	0.0180247
646.824	0.0180619
646.902	0.0179233
646.980	0.0178502
647.058	0.0178357
647.137	0.0180252
647.215	0.0179766
647.293	0.0179560
647.371	0.0179294
647.449	0.0179482
647.527	0.0178152
647.605	0.0178863
647.683	0.0179359
647.762	0.0178945
647.840	0.0178008
647.918	0.0177777
647.996	0.0178924
648.074	0.0179569
648.152	0.0178530
648.230	0.0178329
648.308	0.0178253
648.387	0.0179939
648.465	0.0178415
648.543	0.0179214
648.621	0.0178777
648.699	0.0179019
648.777	0.0178790
648.855	0.0179065
648.933	0.0179290
649.012	0.0179024
649.090	0.0178489
649.168	0.0179498
649.246	0.0178392
649.324	0.0179575
649.402	0.0179242
649.480	0.0179381
649.558	0.0179433
649.637	0.0178088
649.715	0.0178088
649.793	0.0179998
649.871	0.0179991
649.949	0.0178426
650.027	0.0178206
650.105	0.0179728
650.183	0.0178680
650.262	0.0179211
650.340	0.0179642
650.418	0.0178644
650.496	0.0179318
650.574	0.0179877
650.652	0.0178388
650.730	0.0178745
650.808	0.0178443
650.887	0.0178515
650.965	0.0179276
651.043	0.0178393
651.121	0.0178051
651.199	0.0178857
651.277	0.0178316
651.355	0.0179382
651.433	0.0178714
651.512	0.0178738
651.590	0.0178898
651.668	0.0179630
651.746	0.0178450
651.824	0.0176940
651.902	0.0180373
651.980	0.0179571
652.058	0.0179267
652.137	0.0178999
652.215	0.0180184
652.293	0.0178410
652.371	0.0178931
652.449	0.0177535
652.527	0.0178165
652.605	0.0178863
652.683	0.0177700
652.762	0.0178596
652.840	0.0179230
652.918	0.0178403
652.996	0.0178153
653.074	0.0179792
653.152	0.0179684
653.230	0.0179380
653.308	0.0179433
653.387	0.0177990
653.465	0.0178249
653.543	0.0180218
653.621	0.0180720
653.699	0.0180576
653.777	0.0180196
653.855	0.0179951
653.933	0.0179908
654.012	0.0179540
654.090	0.0179799
654.168	0.0180182
654.246	0.0179593
654.324	0.0178619
654.402	0.0180759
654.480	0.0178948
654.558	0.0178416
654.637	0.0177792
654.715	0.0179612
654.793	0.0179240
654.871	0.0179803
654.949	0.0178965
655.027	0.0177934
655.105	0.0178334
655.183	0.0178588
655.262	0.0179569
655.340	0.0179170
655.418	0.0179522
655.496	0.0179746
655.574	0.0179064
655.652	0.0179341
655.730	0.0179688
655.808	0.0179137
655.887	0.0177632
655.965	0.0179549
656.043	0.0178799
656.121	0.0179253
656.199	0.0177947
656.277	0.0178796
656.355	0.0179610
656.433	0.0179558
656.512	0.0178257
656.590	0.0178352
656.668	0.0180270
656.746	0.0178706
656.824	0.0178271
656.902	0.0178675
656.980	0.0178526
657.058	0.0179378
657.137	0.0179593
657.215	0.0178480
657.293	0.0178833
657.371	0.0179748
657.449	0.0178925
657.527	0.0177744
657.605	0.0178373
657.683	0.0179238
657.762	0.0179357
657.840	0.0179552
657.918	0.0178675
657.996	0.0178739
658.074	0.0179488
658.152	0.0180406
658.230	0.0179575
658.308	0.0178988
658.387	0.0179856
658.465	0.0180912
658.543	0.0179610
658.621	0.0179125
658.699	0.0179682
658.777	0.0179541
658.855	0.0178561
658.933	0.0179395
659.012	0.0179242
659.090	0.0179020
659.168	0.0178399
659.246	0.0178703
659.324	0.0179339
659.402	0.0179409
659.480	0.0179122
659.558	0.0177779
659.637	0.0178880
659.715	0.0178476
659.793	0.0178973
659.871	0.0178696
659.949	0.0178630
660.027	0.0177697
660.105	0.0178387
660.183	0.0179109
660.262	0.0177913
660.340	0.0179778
660.418	0.0178224
660.496	0.0178004
660.574	0.0177146
660.652	0.0178326
660.730	0.0178654
660.808	0.0178127
660.887	0.0177923
660.965	0.0177575
661.043	0.0177481
661.121	0.0178246
661.199	0.0178110
661.277	0.0177291
661.355	0.0178782
661.433	0.0177804
661.512	0.0176552
661.590	0.0177229
661.668	0.0177431
661.746	0.0178180
661.824	0.0179689
661.902	0.0177118
661.980	0.0176488
662.058	0.0178719
662.137	0.0177950
662.215	0.0176778
662.293	0.0178050
662.371	0.0178455
662.449	0.0177840
662.527	0.0177015
662.605	0.0178156
662.683	0.0178289
662.762	0.0178778
662.840	0.0177974
662.918	0.0175959
662.996	0.0178764
663.074	0.0177038
663.152	0.0177170
663.230	0.0178708
663.308	0.0177441
663.387	0.0178379
663.465	0.0177848
663.543	0.0177419
663.621	0.0178375
663.699	0.0178173
663.777	0.0177168
663.855	0.0178558
663.933	0.0177590
664.012	0.0178664
664.090	0.0179023
664.168	0.0178584
664.246	0.0179356
664.324	0.0178119
664.402	0.0178564
664.480	0.0177780
664.558	0.0178128
664.637	0.0178068
664.715	0.0177847
664.793	0.0179204
664.871	0.0178197
664.949	0.0178922
665.027	0.0177754
665.105	0.0177328
665.183	0.0178603
665.262	0.0179388
665.340	0.0178443
665.418	0.0176926
665.496	0.0177108
665.574	0.0177912
665.652	0.0178244
665.730	0.0177308
665.808	0.0177769
665.887	0.0177561
665.965	0.0177459
666.043	0.0178593
666.121	0.0178474
666.199	0.0179404
666.277	0.0177366
666.355	0.0177629
666.433	0.0178423
666.512	0.0178355
666.590	0.0179604
666.668	0.0179807
666.746	0.0178640
666.824	0.0178815
666.902	0.0179212
666.980	0.0178233
667.058	0.0179210
667.137	0.0178796
667.215	0.0179765
667.293	0.0179949
667.371	0.0179491
667.449	0.0178374
667.527	0.0178979
667.605	0.0178834
667.683	0.0179022
667.762	0.0179572
667.840	0.0179360
667.918	0.0180345
667.996	0.0180349
668.074	0.0179164
668.152	0.0179495
668.230	0.0179218
668.308	0.0178869
668.387	0.0179362
668.465	0.0179488
668.543	0.0180257
668.621	0.0179604
668.699	0.0179104
668.777	0.0179428
668.855	0.0179591
668.933	0.0180393
669.012	0.0179901
669.090	0.0178738
669.168	0.0178799
669.246	0.0179225
669.324	0.0178091
669.402	0.0178110
669.480	0.0177977
669.558	0.0177706
669.637	0.0179095
669.715	0.0177571
669.793	0.0178006
669.871	0.0178029
669.949	0.0177572
670.027	0.0178696
670.105	0.0177625
670.183	0.0178467
670.262	0.0178043
670.340	0.0178416
670.418	0.0178809
670.496	0.0177607
670.574	0.0176804
670.652	0.0179112
670.730	0.0178301
670.808	0.0178751
670.887	0.0177654
670.965	0.0178148
671.043	0.0178843
671.121	0.0178177
671.199	0.0177866
671.277	0.0178210
671.355	0.0177912
671.433	0.0176843
671.512	0.0176791
671.590	0.0178373
671.668	0.0179371
671.746	0.0177708
671.824	0.0177943
671.902	0.0178689
671.980	0.0179035
672.058	0.0178024
672.137	0.0177848
672.215	0.0177944
672.293	0.0178755
672.371	0.0178541
672.449	0.0179841
672.527	0.0177498
672.605	0.0178357
672.683	0.0177728
672.762	0.0177690
672.840	0.0178400
672.918	0.0178369
672.996	0.0177968
673.074	0.0177530
673.152	0.0177559
673.230	0.0179783
673.308	0.0179754
673.387	0.0179527
673.465	0.0179053
673.543	0.0178612
673.621	0.0180098
673.699	0.0180377
673.777	0.0180373
673.855	0.0180069
673.933	0.0181748
674.012	0.0180762
674.090	0.0181149
674.168	0.0181731
674.246	0.0181496
674.324	0.0180190
674.402	0.0179636
674.480	0.0179848
674.558	0.0179343
674.637	0.0180012
674.715	0.0179078
674.793	0.0177821
674.871	0.0177397
674.949	0.0177451
675.027	0.0177042
675.105	0.0176920
675.183	0.0178239
675.262	0.0176318
675.340	0.0176611
675.418	0.0176191
675.496	0.0177717
675.574	0.0177910
675.652	0.0177448
675.730	0.0177867
675.808	0.0177814
675.887	0.0177292
675.965	0.0177418
676.043	0.0177856
676.121	0.0179679
676.199	0.0178805
676.277	0.0178548
676.355	0.0179430
676.433	0.0178072
676.512	0.0179508
676.590	0.0180566
676.668	0.0179854
676.746	0.0181301
676.824	0.0180619
676.902	0.0179642
676.980	0.0179945
677.058	0.0180000
677.137	0.0180431
677.215	0.0180984
677.293	0.0182517
677.371	0.0181816
677.449	0.0180328
677.527	0.0182358
677.605	0.0182137
677.683	0.0181775
677.762	0.0181926
677.840	0.0181663
677.918	0.0182669
677.996	0.0182507
678.074	0.0183221
678.152	0.0182531
678.230	0.0182921
678.308	0.0181284
678.387	0.0183105
678.465	0.0182123
678.543	0.0182436
678.621	0.0182264
678.699	0.0182073
678.777	0.0180568
678.855	0.0181820
678.933	0.0180494
679.012	0.0180051
679.090	0.0180688
679.168	0.0179470
679.246	0.0179844
679.324	0.0178651
679.402	0.0179261
679.480	0.0179272
679.558	0.0179507
679.637	0.0179221
679.715	0.0179041
679.793	0.0178651
679.871	0.0179409
679.949	0.0180155
680.027	0.0179420
680.105	0.0178408
680.183	0.0179390
680.262	0.0179384
680.340	0.0177832
680.418	0.0178178
680.496	0.0178218
680.574	0.0178188
680.652	0.0178069
680.730	0.0177361
680.808	0.0177329
680.887	0.0176974
680.965	0.0176456
681.043	0.0176277
681.121	0.0174984
681.199	0.0177893
681.277	0.0177512
681.355	0.0176287
681.433	0.0176141
681.512	0.0177911
681.590	0.0178727
681.668	0.0178535
681.746	0.0177812
681.824	0.0179544
681.902	0.0179157
681.980	0.0179910
682.058	0.0180200
682.137	0.0181214
682.215	0.0182538
682.293	0.0181057
682.371	0.0181358
682.449	0.0182875
682.527	0.0181011
682.605	0.0182819
682.683	0.0181008
682.762	0.0182193
682.840	0.0182487
682.918	0.0181854
682.996	0.0182482
683.074	0.0181189
683.152	0.0181647
683.230	0.0182603
683.308	0.0181086
683.387	0.0180474
683.465	0.0179923
683.543	0.0180774
683.621	0.0180318
683.699	0.0180044
683.777	0.0177854
683.855	0.0177264
683.933	0.0178278
684.012	0.0178658
684.090	0.0175761
684.168	0.0177361
684.246	0.0176418
684.324	0.0175266
684.402	0.0175544
684.480	0.0175911
684.558	0.0175388
684.637	0.0176756
684.715	0.0175795
684.793	0.0176156
684.871	0.0175749
684.949	0.0175816
685.027	0.0176365
685.105	0.0175604
685.183	0.0175485
685.262	0.0176080
685.340	0.0176854
685.418	0.0176532
685.496	0.0176930
685.574	0.0177549
685.652	0.0177326
685.730	0.0178883
685.808	0.0178631
685.887	0.0179151
685.965	0.0179855
686.043	0.0179973
686.121	0.0181247
686.199	0.0180766
686.277	0.0181509
686.355	0.0181516
686.433	0.0180324
686.512	0.0180769
686.590	0.0179927
686.668	0.0180637
686.746	0.0180939
686.824	0.0179162
686.902	0.0179993
686.980	0.0178763
687.058	0.0179305
687.137	0.0178931
687.215	0.0178431
687.293	0.0177634
687.371	0.0177093
687.449	0.0178571
687.527	0.0178967
687.605	0.0177525
687.683	0.0178741
687.762	0.0179089
687.840	0.0178905
687.918	0.0178256
687.996	0.0178617
688.074	0.0178895
688.152	0.0178771
688.230	0.0179895
688.308	0.0180311
688.387	0.0181398
688.465	0.0179803
688.543	0.0182387
688.621	0.0182672
688.699	0.0181470
688.777	0.0181213
688.855	0.0180957
688.933	0.0181583
689.012	0.0181577
689.090	0.0182632
689.168	0.0182688
689.246	0.0180955
689.324	0.0181804
689.402	0.0182705
689.480	0.0180745
689.558	0.0179408
689.637	0.0179466
689.715	0.0179504
689.793	0.0179097
689.871	0.0179694
689.949	0.0179246
690.027	0.0179024
690.105	0.0178806
690.183	0.0176353
690.262	0.0177461
690.340	0.0176711
690.418	0.0176408
690.496	0.0176431
690.574	0.0176308
690.652	0.0176099
690.730	0.0177151
690.808	0.0175830
690.887	0.0175890
690.965	0.0176478
691.043	0.0175610
691.121	0.0177751
691.199	0.0178027
691.277	0.0178041
691.355	0.0178161
691.433	0.0178111
691.512	0.0179666
691.590	0.0179922
691.668	0.0181318
691.746	0.0180456
691.824	0.0180475
691.902	0.0180932
691.980	0.0180767
692.058	0.0180711
692.137	0.0179736
692.215	0.0181620
692.293	0.0181859
692.371	0.0182209
692.449	0.0180598
692.527	0.0180173
692.605	0.0181226
692.683	0.0183115
692.762	0.0181534
692.840	0.0181241
692.918	0.0180511
692.996	0.0180010
693.074	0.0180610
693.152	0.0180057
693.230	0.0178699
693.308	0.0178478
693.387	0.0179417
693.465	0.0179877
693.543	0.0178603
693.621	0.0178907
693.699	0.0177409
693.777	0.0179811
693.855	0.0177427
693.933	0.0177604
694.012	0.0177617
694.090	0.0178483
694.168	0.0178310
694.246	0.0178946
694.324	0.0178733
694.402	0.0177866
694.480	0.0178057
694.558	0.0179112
694.637	0.0177470
694.715	0.0179324
694.793	0.0179372
694.871	0.0180521
694.949	0.0178610
695.027	0.0178202
695.105	0.0179147
695.183	0.0180861
695.262	0.0179655
695.340	0.0178950
695.418	0.0179861
695.496	0.0179818
695.574	0.0178851
695.652	0.0178876
695.730	0.0178900
695.808	0.0179008
695.887	0.0178751
695.965	0.0180013
696.043	0.0178391
696.121	0.0178934
696.199	0.0178705
696.277	0.0179530
696.355	0.0179343
696.433	0.0179119
696.512	0.0177661
696.590	0.0178025
696.668	0.0179077
696.746	0.0179427
696.824	0.0179106
696.902	0.0178540
696.980	0.0179579
697.058	0.0178986
697.137	0.0180593
697.215	0.0179649
697.293	0.0179452
697.371	0.0180202
697.449	0.0180705
697.527	0.0179335
697.605	0.0180560
697.683	0.0180388
697.762	0.0180341
697.840	0.0180324
697.918	0.0180729
697.996	0.0181628
698.074	0.0181797
698.152	0.0179133
698.230	0.0180296
698.308	0.0182883
698.387	0.0181879
698.465	0.0181531
698.543	0.0183025
698.621	0.0183730
698.699	0.0183485
698.777	0.0185381
698.855	0.0184797
698.933	0.0184304
699.012	0.0183421
699.090	0.0183350
699.168	0.0183800
699.246	0.0183797
699.324	0.0183678
699.402	0.0182208
699.480	0.0182519
699.558	0.0181898
699.637	0.0181478
699.715	0.0181568
699.793	0.0179918
699.871	0.0178714
699.949	0.0178828
700.027	0.0178815
700.105	0.0178027
700.183	0.0177626
700.262	0.0177454
700.340	0.0176524
700.418	0.0178302
700.496	0.0176672
700.574	0.0178891
700.652	0.0177178
700.730	0.0178262
700.808	0.0177691
700.887	0.0178481
700.965	0.0178190
701.043	0.0179401
701.121	0.0178865
701.199	0.0180145
701.277	0.0181017
701.355	0.0180379
701.433	0.0181409
701.512	0.0180289
701.590	0.0182049
701.668	0.0182339
701.746	0.0181921
701.824	0.0182213
701.902	0.0181335
701.980	0.0180927
702.058	0.0182670
702.137	0.0181157
702.215	0.0182369
702.293	0.0180420
702.371	0.0181504
702.449	0.0180193
702.527	0.0179803
702.605	0.0179436
702.683	0.0179336
702.762	0.0178616
702.840	0.0178316
702.918	0.0179861
702.996	0.0178804
703.074	0.0178802
703.152	0.0178304
703.230	0.0180023
703.308	0.0179641
703.387	0.0180109
703.465	0.0180404
703.543	0.0180977
703.621	0.0181062
703.699	0.0180061
703.777	0.0179673
703.855	0.0181688
703.933	0.0181126
704.012	0.0181606
704.090	0.0181440
704.168	0.0181304
704.246	0.0181956
704.324	0.0180949
704.402	0.0181775
704.480	0.0180766
704.558	0.0181786
704.637	0.0181847
704.715	0.0180235
704.793	0.0180948
704.871	0.0180222
704.949	0.0180692
705.027	0.0179265
705.105	0.0180531
705.183	0.0180265
705.262	0.0180259
705.340	0.0179494
705.418	0.0181078
705.496	0.0180628
705.574	0.0179545
705.652	0.0178719
705.730	0.0179197
705.808	0.0177895
705.887	0.0178148
705.965	0.0177010
706.043	0.0178754
706.121	0.0178340
706.199	0.0177489
706.277	0.0176157
706.355	0.0176820
706.433	0.0176348
706.512	0.0176182
706.590	0.0177134
706.668	0.0177541
706.746	0.0177493
706.824	0.0176542
706.902	0.0178133
706.980	0.0177800
707.058	0.0177690
707.137	0.0178671
707.215	0.0179836
707.293	0.0180153
707.371	0.0180508
707.449	0.0181717
707.527	0.0181659
707.605	0.0183011
707.683	0.0181866
707.762	0.0183344
707.840	0.0182069
707.918	0.0182470
707.996	0.0181280
708.074	0.0181421
708.152	0.0179810
708.230	0.0178322
708.308	0.0178992
708.387	0.0177534
708.465	0.0174848
708.543	0.0174659
708.621	0.0175625
708.699	0.0174501
708.777	0.0174680
708.855	0.0172385
708.933	0.0172696
709.012	0.0172939
709.090	0.0173385
709.168	0.0175610
709.246	0.0174437
709.324	0.0175706
709.402	0.0175829
709.480	0.0177744
709.558	0.0179428
709.637	0.0180497
709.715	0.0180508
709.793	0.0181694
709.871	0.0182967
709.949	0.0184090
710.027	0.0183848
710.105	0.0185577
710.183	0.0186537
710.262	0.0186002
710.340	0.0184090
710.418	0.0184655
710.496	0.0184642
710.574	0.0185160
710.652	0.0184469
710.730	0.0183144
710.808	0.0184235
710.887	0.0183285
710.965	0.0181517
711.043	0.0180048
711.121	0.0179804
711.199	0.0179246
711.277	0.0179663
711.355	0.0179274
711.433	0.0177835
711.512	0.0177944
711.590	0.0177474
711.668	0.0176795
711.746	0.0178052
711.824	0.0177111
711.902	0.0175803
711.980	0.0178155
712.058	0.0180206
712.137	0.0179117
712.215	0.0177723
712.293	0.0179267
712.371	0.0179359
712.449	0.0177812
712.527	0.0178254
712.605	0.0179577
712.683	0.0179224
712.762	0.0178774
712.840	0.0179789
712.918	0.0178593
712.996	0.0178973
713.074	0.0178099
713.152	0.0177795
713.230	0.0177783
713.308	0.0178130
713.387	0.0177227
713.465	0.0176523
713.543	0.0176470
713.621	0.0175153
713.699	0.0175015
713.777	0.0175700
713.855	0.0174921
713.933	0.0175993
714.012	0.0174482
714.090	0.0174992
714.168	0.0175449
714.246	0.0175771
714.324	0.0176202
714.402	0.0176629
714.480	0.0177400
714.558	0.0178751
714.637	0.0180266
714.715	0.0178745
714.793	0.0180140
714.871	0.0180257
714.949	0.0181474
715.027	0.0181533
715.105	0.0182223
715.183	0.0183049
715.262	0.0182674
715.340	0.0182124
715.418	0.0182571
715.496	0.0181756
715.574	0.0183488
715.652	0.0181485
715.730	0.0180452
715.808	0.0180660
715.887	0.0180521
715.965	0.0181487
716.043	0.0178793
716.121	0.0176848
716.199	0.0177738
716.277	0.0178720
716.355	0.0176652
716.433	0.0176144
716.512	0.0176601
716.590	0.0174924
716.668	0.0174535
716.746	0.0174527
716.824	0.0174181
716.902	0.0175350
716.980	0.0175016
717.058	0.0174878
717.137	0.0174955
717.215	0.0176966
717.293	0.0177612
717.371	0.0177495
717.449	0.0176976
717.527	0.0178835
717.605	0.0179313
717.683	0.0180662
717.762	0.0181361
717.840	0.0182591
717.918	0.0182140
717.996	0.0181665
718.074	0.0183183
718.152	0.0184632
718.230	0.0184468
718.308	0.0184126
718.387	0.0184955
718.465	0.0185257
718.543	0.0184119
718.621	0.0183926
718.699	0.0183781
718.777	0.0183128
718.855	0.0181770
718.933	0.0182249
719.012	0.0182434
719.090	0.0181268
719.168	0.0180225
719.246	0.0181539
719.324	0.0180209
719.402	0.0180168
719.480	0.0181061
719.558	0.0180027
719.637	0.0178630
719.715	0.0178695
719.793	0.0177199
719.871	0.0177082
719.949	0.0177517
720.027	0.0176875
720.105	0.0175345
720.183	0.0175405
720.262	0.0175191
720.340	0.0174525
720.418	0.0173920
720.496	0.0174691
720.574	0.0173814
720.652	0.0174437
720.730	0.0175330
720.808	0.0175999
720.887	0.0176247
720.965	0.0177101
721.043	0.0177814
721.121	0.0177635
721.199	0.0180199
721.277	0.0180621
721.355	0.0182241
721.433	0.0182899
721.512	0.0183376
721.590	0.0183823
721.668	0.0185007
721.746	0.0183927
721.824	0.0184376
721.902	0.0183949
721.980	0.0184540
722.058	0.0182712
722.137	0.0183429
722.215	0.0182903
722.293	0.0181747
722.371	0.0182365
722.449	0.0180673
722.527	0.0181560
722.605	0.0180878
722.683	0.0180383
722.762	0.0177711
722.840	0.0180183
722.918	0.0178677
722.996	0.0178938
723.074	0.0178178
723.152	0.0178876
723.230	0.0178637
723.308	0.0180042
723.387	0.0180011
723.465	0.0179822
723.543	0.0179660
723.621	0.0180013
723.699	0.0180611
723.777	0.0180453
723.855	0.0179384
723.933	0.0180441
724.012	0.0179777
724.090	0.0179340
724.168	0.0181429
724.246	0.0180805
724.324	0.0180920
724.402	0.0180469
724.480	0.0179805
724.558	0.0179841
724.637	0.0179151
724.715	0.0179514
724.793	0.0178091
724.871	0.0176913
724.949	0.0177737
725.027	0.0178570
725.105	0.0175812
725.183	0.0177480
725.262	0.0178231
725.340	0.0176751
725.418	0.0178706
725.496	0.0179193
725.574	0.0179868
725.652	0.0179665
725.730	0.0180823
725.808	0.0182337
725.887	0.0181602
725.965	0.0180205
726.043	0.0180690
726.121	0.0181193
726.199	0.0180633
726.277	0.0180154
726.355	0.0178260
726.433	0.0177787
726.512	0.0176920
726.590	0.0176740
726.668	0.0175584
726.746	0.0175033
726.824	0.0175361
726.902	0.0175921
726.980	0.0176059
727.058	0.0175605
727.137	0.0174745
727.215	0.0174731
727.293	0.0174667
727.371	0.0175204
727.449	0.0174854
727.527	0.0175772
727.605	0.0176431
727.683	0.0176163
727.762	0.0177729
727.840	0.0176565
727.918	0.0177845
727.996	0.0179998
728.074	0.0180025
728.152	0.0181971
728.230	0.0182964
728.308	0.0183257
728.387	0.0183408
728.465	0.0183294
728.543	0.0183006
728.621	0.0184374
728.699	0.0185286
728.777	0.0184828
728.855	0.0184307
728.933	0.0182493
729.012	0.0181659
729.090	0.0183060
729.168	0.0180258
729.246	0.0181496
729.324	0.0180582
729.402	0.0178700
729.480	0.0179795
729.558	0.0180127
729.637	0.0180854
729.715	0.0179827
729.793	0.0178329
729.871	0.0180415
729.949	0.0179234
730.027	0.0179707
730.105	0.0179741
730.183	0.0177697
730.262	0.0178711
730.340	0.0177827
730.418	0.0177386
730.496	0.0177005
730.574	0.0175677
730.652	0.0174194
730.730	0.0174141
730.808	0.0173216
730.887	0.0171152
730.965	0.0172408
731.043	0.0171567
731.121	0.0170019
731.199	0.0170793
731.277	0.0169904
731.355	0.0172327
731.433	0.0171946
731.512	0.0172079
731.590	0.0172284
731.668	0.0171716
731.746	0.0173733
731.824	0.0174862
731.902	0.0174986
731.980	0.0176033
732.058	0.0175776
732.137	0.0178824
732.215	0.0178265
732.293	0.0180964
732.371	0.0181704
732.449	0.0182607
732.527	0.0183714
732.605	0.0184641
732.683	0.0185964
732.762	0.0185877
732.840	0.0185022
732.918	0.0186887
732.996	0.0189243
733.074	0.0189146
733.152	0.0186932
733.230	0.0187174
733.308	0.0187730
733.387	0.0186103
733.465	0.0187327
733.543	0.0186138
733.621	0.0184077
733.699	0.0182146
733.777	0.0181280
733.855	0.0180545
733.933	0.0179067
734.012	0.0179243
734.090	0.0177024
734.168	0.0176929
734.246	0.0175117
734.324	0.0173720
734.402	0.0174579
734.480	0.0174467
734.558	0.0171890
734.637	0.0172108
734.715	0.0172015
734.793	0.0170194
734.871	0.0171170
734.949	0.0171857
735.027	0.0172236
735.105	0.0171729
735.183	0.0173136
735.262	0.0173669
735.340	0.0174078
735.418	0.0173801
735.496	0.0173264
735.574	0.0174587
735.652	0.0175950
735.730	0.0175223
735.808	0.0174037
735.887	0.0175733
735.965	0.0176614
736.043	0.0177669
736.121	0.0179106
736.199	0.0177613
736.277	0.0176646
736.355	0.0179872
736.433	0.0179068
736.512	0.0179881
736.590	0.0180193
736.668	0.0179375
736.746	0.0181097
736.824	0.0179688
736.902	0.0180239
736.980	0.0181609
737.058	0.0182487
737.137	0.0181977
737.215	0.0182118
737.293	0.0182730
737.371	0.0182365
737.449	0.0182278
737.527	0.0180268
737.605	0.0181633
737.683	0.0183403
737.762	0.0183030
737.840	0.0182919
737.918	0.0182016
737.996	0.0181570
738.074	0.0182117
738.152	0.0180218
738.230	0.0182355
738.308	0.0182364
738.387	0.0178957
738.465	0.0180297
738.543	0.0181191
738.621	0.0180434
738.699	0.0180913
738.777	0.0179952
738.855	0.0179200
738.933	0.0178745
739.012	0.0178826
739.090	0.0177557
739.168	0.0179099
739.246	0.0178143
739.324	0.0177183
739.402	0.0178618
739.480	0.0177251
739.558	0.0176904
739.637	0.0177699
739.715	0.0178387
739.793	0.0177263
739.871	0.0177157
739.949	0.0178019
740.027	0.0178654
740.105	0.0177831
740.183	0.0177438
740.262	0.0178391
740.340	0.0179568
740.418	0.0180024
740.496	0.0180305
740.574	0.0180425
740.652	0.0179500
740.730	0.0178639
740.808	0.0178875
740.887	0.0179504
740.965	0.0177706
741.043	0.0177559
741.121	0.0177569
741.199	0.0175990
741.277	0.0176842
741.355	0.0176688
741.433	0.0176894
741.512	0.0177177
741.590	0.0175840
741.668	0.0176291
741.746	0.0175939
741.824	0.0176267
741.902	0.0175014
741.980	0.0177913
742.058	0.0178190
742.137	0.0178053
742.215	0.0178551
742.293	0.0178657
742.371	0.0177568
742.449	0.0178822
742.527	0.0179552
742.605	0.0179304
742.683	0.0180109
742.762	0.0181564
742.840	0.0182481
742.918	0.0182104
742.996	0.0180269
743.074	0.0180009
743.152	0.0181621
743.230	0.0181528
743.308	0.0181853
743.387	0.0182141
743.465	0.0181971
743.543	0.0182344
743.621	0.0181838
743.699	0.0182652
743.777	0.0181481
743.855	0.0181295
743.933	0.0179907
744.012	0.0181065
744.090	0.0181634
744.168	0.0181027
744.246	0.0179693
744.324	0.0179404
744.402	0.0179819
744.480	0.0180009
744.558	0.0179454
744.637	0.0177689
744.715	0.0177443
744.793	0.0177921
744.871	0.0178485
744.949	0.0177988
745.027	0.0175671
745.105	0.0177066
745.183	0.0176290
745.262	0.0175618
745.340	0.0174583
745.418	0.0175751
745.496	0.0176149
745.574	0.0176541
745.652	0.0176817
745.730	0.0177021
745.808	0.0177054
745.887	0.0176910
745.965	0.0177487
746.043	0.0178583
746.121	0.0178902
746.199	0.0177155
746.277	0.0178835
746.355	0.0178629
746.433	0.0179388
746.512	0.0180618
746.590	0.0179945
746.668	0.0179284
746.746	0.0180968
746.824	0.0180459
746.902	0.0179553
746.980	0.0180116
747.058	0.0178972
747.137	0.0179121
747.215	0.0181027
747.293	0.0180017
747.371	0.0179400
747.449	0.0178915
747.527	0.0179346
747.605	0.0178716
747.683	0.0177496
747.762	0.0177534
747.840	0.0178865
747.918	0.0178311
747.996	0.0178775
748.074	0.0177962
748.152	0.0177600
748.230	0.0177639
748.308	0.0177718
748.387	0.0178039
748.465	0.0179095
748.543	0.0179674
748.621	0.0178354
748.699	0.0179771
748.777	0.0179929
748.855	0.0179879
748.933	0.0179772
749.012	0.0178786
749.090	0.0178414
749.168	0.0177835
749.246	0.0176940
749.324	0.0177131
749.402	0.0177724
749.480	0.0177644
749.558	0.0177091
749.637	0.0176958
749.715	0.0176833
749.793	0.0175806
749.871	0.0176554
749.949	0.0178371
750.027	0.0178157
750.105	0.0179246
750.183	0.0178308
750.262	0.0178198
750.340	0.0179506
750.418	0.0179342
750.496	0.0180924
750.574	0.0181277
750.652	0.0181203
750.730	0.0183313
750.808	0.0183412
750.887	0.0182209
750.965	0.0182829
751.043	0.0182247
751.121	0.0182061
751.199	0.0182018
751.277	0.0182996
751.355	0.0181566
751.433	0.0179992
751.512	0.0180063
751.590	0.0180569
751.668	0.0179886
751.746	0.0179929
751.824	0.0179745
751.902	0.0179640
751.980	0.0178758
752.058	0.0179472
752.137	0.0178485
752.215	0.0177374
752.293	0.0176620
752.371	0.0176894
752.449	0.0176588
752.527	0.0177358
752.605	0.0176531
752.683	0.0174636
752.762	0.0173548
752.840	0.0174289
752.918	0.0174302
752.996	0.0174184
753.074	0.0174727
753.152	0.0174569
753.230	0.0175598
753.308	0.0174733
753.387	0.0175283
753.465	0.0176189
753.543	0.0176649
753.621	0.0176165
753.699	0.0177435
753.777	0.0177347
753.855	0.0176750
753.933	0.0176788
754.012	0.0178554
754.090	0.0178004
754.168	0.0178143
754.246	0.0179034
754.324	0.0178713
754.402	0.0178190
754.480	0.0179672
754.558	0.0178996
754.637	0.0177882
754.715	0.0178182
754.793	0.0178505
754.871	0.0178068
754.949	0.0178162
755.027	0.0176898
755.105	0.0178096
755.183	0.0178375
755.262	0.0177640
755.340	0.0178712
755.418	0.0177607
755.496	0.0178100
755.574	0.0179050
755.652	0.0180762
755.730	0.0179296
755.808	0.0179527
755.887	0.0180054
755.965	0.0180083
756.043	0.0179225
756.121	0.0180212
756.199	0.0179651
756.277	0.0180318
756.355	0.0179903
756.433	0.0178799
756.512	0.0179663
756.590	0.0180777
756.668	0.0180523
756.746	0.0180183
756.824	0.0180168
756.902	0.0179005
756.980	0.0179845
757.058	0.0180457
757.137	0.0180209
757.215	0.0180698
757.293	0.0179168
757.371	0.0179751
757.449	0.0180509
757.527	0.0179650
757.605	0.0180077
757.683	0.0179218
757.762	0.0178697
757.840	0.0180855
757.918	0.0179086
757.996	0.0179104
758.074	0.0178038
758.152	0.0178781
758.230	0.0179806
758.308	0.0176731
758.387	0.0176949
758.465	0.0177563
758.543	0.0176860
758.621	0.0176534
758.699	0.0176008
758.777	0.0177489
758.855	0.0178061
758.933	0.0176334
759.012	0.0177095
759.090	0.0177491
759.168	0.0177872
759.246	0.0177293
759.324	0.0179655
759.402	0.0178857
759.480	0.0181349
759.558	0.0180556
759.637	0.0181890
759.715	0.0180238
759.793	0.0181958
759.871	0.0181980
759.949	0.0181599
760.027	0.0182390
760.105	0.0183390
760.183	0.0181815
760.262	0.0181200
760.340	0.0182878
760.418	0.0182510
760.496	0.0181911
760.574	0.0181316
760.652	0.0181406
760.730	0.0181171
760.808	0.0181628
760.887	0.0181660
760.965	0.0182608
761.043	0.0183571
761.121	0.0182139
761.199	0.0180794
761.277	0.0182288
761.355	0.0178675
761.433	0.0181286
761.512	0.0181813
761.590	0.0181108
761.668	0.0181026
761.746	0.0181400
761.824	0.0180111
761.902	0.0179848
761.980	0.0180922
762.058	0.0179803
762.137	0.0179918
762.215	0.0179186
762.293	0.0179380
762.371	0.0179825
762.449	0.0179639
762.527	0.0180144
762.605	0.0179493
762.683	0.0179011
762.762	0.0179207
762.840	0.0179494
762.918	0.0178875
762.996	0.0179751
763.074	0.0179758
763.152	0.0179590
763.230	0.0179744
763.308	0.0179698
763.387	0.0179844
763.465	0.0178810
763.543	0.0178937
763.621	0.0178226
763.699	0.0178370
763.777	0.0178395
763.855	0.0177648
763.933	0.0176836
764.012	0.0178969
764.090	0.0178036
764.168	0.0178980
764.246	0.0177761
764.324	0.0179133
764.402	0.0179815
764.480	0.0179245
764.558	0.0179897
764.637	0.0178652
764.715	0.0180068
764.793	0.0180109
764.871	0.0180980
764.949	0.0181568
765.027	0.0181339
765.105	0.0181638
765.183	0.0180734
765.262	0.0180787
765.340	0.0180965
765.418	0.0181574
765.496	0.0181426
765.574	0.0180923
765.652	0.0179923
765.730	0.0181001
765.808	0.0181818
765.887	0.0179898
765.965	0.0180271
766.043	0.0179499
766.121	0.0178722
766.199	0.0181342
766.277	0.0179696
766.355	0.0178326
766.433	0.0179347
766.512	0.0179041
766.590	0.0178302
766.668	0.0179107
766.746	0.0178651
766.824	0.0177711
766.902	0.0178786
766.980	0.0177642
767.058	0.0177209
767.137	0.0176252
767.215	0.0177559
767.293	0.0177026
767.371	0.0176288
767.449	0.0177454
767.527	0.0176781
767.605	0.0177255
767.683	0.0176935
767.762	0.0176638
767.840	0.0177441
767.918	0.0176646
767.996	0.0176334
768.074	0.0177769
768.152	0.0178219
768.230	0.0176910
768.308	0.0178224
768.387	0.0179147
768.465	0.0178318
768.543	0.0178397
768.621	0.0180071
768.699	0.0180830
768.777	0.0180146
768.855	0.0178958
768.933	0.0178748
769.012	0.0180240
769.090	0.0179150
769.168	0.0179808
769.246	0.0179351
769.324	0.0179472
769.402	0.0177885
769.480	0.0178535
769.558	0.0177934
769.637	0.0179795
769.715	0.0178638
769.793	0.0177856
769.871	0.0179888
769.949	0.0177824
770.027	0.0180231
770.105	0.0178423
770.183	0.0179145
770.262	0.0179565
770.340	0.0178109
770.418	0.0178594
770.496	0.0180034
770.574	0.0179836
770.652	0.0179885
770.730	0.0178587
770.808	0.0179131
770.887	0.0178684
770.965	0.0178382
771.043	0.0177379
771.121	0.0177062
771.199	0.0177664
771.277	0.0177351
771.355	0.0175831
771.433	0.0176901
771.512	0.0177110
771.590	0.0176884
771.668	0.0177173
771.746	0.0176498
771.824	0.0177251
771.902	0.0176913
771.980	0.0177232
772.058	0.0177445
772.137	0.0177434
772.215	0.0178365
772.293	0.0178423
772.371	0.0179375
772.449	0.0178217
772.527	0.0176972
772.605	0.0179469
772.683	0.0180178
772.762	0.0178990
772.840	0.0179116
772.918	0.0178960
772.996	0.0179858
773.074	0.0179061
773.152	0.0179494
773.230	0.0178146
773.308	0.0178032
773.387	0.0178959
773.465	0.0177920
773.543	0.0177924
773.621	0.0177689
773.699	0.0176645
773.777	0.0177785
773.855	0.0176691
773.933	0.0177847
774.012	0.0176679
774.090	0.0177232
774.168	0.0176643
774.246	0.0177802
774.324	0.0178157
774.402	0.0178564
774.480	0.0177541
774.558	0.0179252
774.637	0.0179759
774.715	0.0179641
774.793	0.0180560
774.871	0.0178932
774.949	0.0180276
775.027	0.0180057
775.105	0.0180085
775.183	0.0180219
775.262	0.0179886
775.340	0.0179723
775.418	0.0180930
775.496	0.0179403
775.574	0.0179407
775.652	0.0179343
775.730	0.0178730
775.808	0.0178568
775.887	0.0179411
775.965	0.0177588
776.043	0.0179817
776.121	0.0178288
776.199	0.0176228
776.277	0.0177057
776.355	0.0177147
776.433	0.0176596
776.512	0.0176732
776.590	0.0176286
776.668	0.0177756
776.746	0.0178032
776.824	0.0177637
776.902	0.0176446
776.980	0.0178364
777.058	0.0178041
777.137	0.0177328
777.215	0.0178001
777.293	0.0177747
777.371	0.0178537
777.449	0.0178769
777.527	0.0179156
777.605	0.0177397
777.683	0.0178550
777.762	0.0179674
777.840	0.0179564
777.918	0.0178989
777.996	0.0178976
778.074	0.0179602
778.152	0.0181268
778.230	0.0180383
778.308	0.0180951
778.387	0.0180917
778.465	0.0180778
778.543	0.0181106
778.621	0.0180520
778.699	0.0181438
778.777	0.0179620
778.855	0.0178362
778.933	0.0179435
779.012	0.0179045
779.090	0.0178737
779.168	0.0178816
779.246	0.0178993
779.324	0.0179089
779.402	0.0178332
779.480	0.0178455
779.558	0.0179551
779.637	0.0178324
779.715	0.0179293
779.793	0.0180601
779.871	0.0180177
779.949	0.0179663
780.027	0.0180098
780.105	0.0179742
780.183	0.0179207
780.262	0.0180480
780.340	0.0181724
780.418	0.0180539
780.496	0.0179967
780.574	0.0179857
780.652	0.0179931
780.730	0.0181277
780.808	0.0180383
780.887	0.0179903
780.965	0.0180862
781.043	0.0180523
781.121	0.0179727
781.199	0.0181534
781.277	0.0181250
781.355	0.0182178
781.433	0.0182127
781.512	0.0181138
781.590	0.0181791
781.668	0.0181870
781.746	0.0180885
781.824	0.0181262
781.902	0.0181357
781.980	0.0181799
782.058	0.0181001
782.137	0.0180159
782.215	0.0180061
782.293	0.0180117
782.371	0.0177901
782.449	0.0178136
782.527	0.0178704
782.605	0.0178260
782.683	0.0176921
782.762	0.0178609
782.840	0.0178699
782.918	0.0176997
782.996	0.0178651
783.074	0.0178403
783.152	0.0179692
783.230	0.0180063
783.308	0.0179644
783.387	0.0179142
783.465	0.0180228
783.543	0.0179023
783.621	0.0178990
783.699	0.0179318
783.777	0.0180984
783.855	0.0179790
783.933	0.0179977
784.012	0.0181559
784.090	0.0180589
784.168	0.0180558
784.246	0.0179938
784.324	0.0181544
784.402	0.0181005
784.480	0.0181958
784.558	0.0182281
784.637	0.0181590
784.715	0.0180695
784.793	0.0181491
784.871	0.0181408
784.949	0.0182082
785.027	0.0182403
785.105	0.0182525
785.183	0.0180663
785.262	0.0182001
785.340	0.0181767
785.418	0.0183145
785.496	0.0181152
785.574	0.0181709
785.652	0.0183051
785.730	0.0182239
785.808	0.0181122
785.887	0.0181204
785.965	0.0180392
786.043	0.0180510
786.121	0.0180212
786.199	0.0179367
786.277	0.0178880
786.355	0.0180089
786.433	0.0178864
786.512	0.0178335
786.590	0.0178394
786.668	0.0177824
786.746	0.0177545
786.824	0.0177303
786.902	0.0178654
786.980	0.0178031
787.058	0.0177155
787.137	0.0178064
787.215	0.0178453
787.293	0.0178934
787.371	0.0178450
787.449	0.0180224
787.527	0.0179475
787.605	0.0178973
787.683	0.0180482
787.762	0.0180431
787.840	0.0182249
787.918	0.0181807
787.996	0.0180555
788.074	0.0181149
788.152	0.0182462
788.230	0.0181474
788.308	0.0179794
788.387	0.0180528
788.465	0.0180451
788.543	0.0180129
788.621	0.0179091
788.699	0.0179015
788.777	0.0179058
788.855	0.0177974
788.933	0.0179180
789.012	0.0179200
789.090	0.0178703
789.168	0.0179134
789.246	0.0180287
789.324	0.0178564
789.402	0.0180218
789.480	0.0180061
789.558	0.0179394
789.637	0.0178836
789.715	0.0180859
789.793	0.0179172
789.871	0.0180110
789.949	0.0179990
790.027	0.0179259
790.105	0.0178113
790.183	0.0177772
790.262	0.0178787
790.340	0.0178199
790.418	0.0177316
790.496	0.0180514
790.574	0.0179227
790.652	0.0178176
790.730	0.0178597
790.808	0.0179774
790.887	0.0180576
790.965	0.0179138
791.043	0.0179328
791.121	0.0180161
791.199	0.0179909
791.277	0.0180499
791.355	0.0178519
791.433	0.0179281
791.512	0.0178957
791.590	0.0177931
791.668	0.0178336
791.746	0.0177590
791.824	0.0178694
791.902	0.0176421
791.980	0.0176844
792.058	0.0176707
792.137	0.0177131
792.215	0.0177988
792.293	0.0177425
792.371	0.0176455
792.449	0.0175695
792.527	0.0177393
792.605	0.0177289
792.683	0.0177266
792.762	0.0177491
792.840	0.0177740
792.918	0.0178658
792.996	0.0180005
793.074	0.0180157
793.152	0.0179240
793.230	0.0179463
793.308	0.0180339
793.387	0.0179211
793.465	0.0179333
793.543	0.0180138
793.621	0.0179154
793.699	0.0180263
793.777	0.0179929
793.855	0.0179568
793.933	0.0181098
794.012	0.0178278
794.090	0.0177517
794.168	0.0178188
794.246	0.0178413
794.324	0.0176983
794.402	0.0177477
794.480	0.0177702
794.558	0.0175143
794.637	0.0177289
794.715	0.0176380
794.793	0.0176100
794.871	0.0175673
794.949	0.0176442
795.027	0.0176208
795.105	0.0174842
795.183	0.0175729
795.262	0.0177423
795.340	0.0176926
795.418	0.0175570
795.496	0.0176829
795.574	0.0177636
795.652	0.0176786
795.730	0.0178520
795.808	0.0177174
795.887	0.0177757
795.965	0.0177892
796.043	0.0178336
796.121	0.0178931
796.199	0.0178496
796.277	0.0177940
796.355	0.0180070
796.433	0.0180209
796.512	0.0180218
796.590	0.0177740
796.668	0.0179244
796.746	0.0178687
796.824	0.0179465
796.902	0.0178431
796.980	0.0178307
797.058	0.0177776
797.137	0.0177483
797.215	0.0179916
797.293	0.0178707
797.371	0.0177483
797.449	0.0177792
797.527	0.0179343
797.605	0.0178325
797.683	0.0177573
797.762	0.0178474
797.840	0.0179206
797.918	0.0178098
797.996	0.0177843
798.074	0.0178232
798.152	0.0178335
798.230	0.0178891
798.308	0.0178474
798.387	0.0179567
798.465	0.0178271
798.543	0.0178585
798.621	0.0179066
798.699	0.0178416
798.777	0.0178275
798.855	0.0177904
798.933	0.0178756
799.012	0.0178990
799.090	0.0178528
799.168	0.0178030
799.246	0.0178040
799.324	0.0178085
799.402	0.0179084
799.480	0.0179070
799.558	0.0179267
799.637	0.0177925
799.715	0.0179780
799.793	0.0179476
799.871	0.0178214
799.949	0.0178451
800.027	0.0180467
800.105	0.0179095
800.183	0.0177945
800.262	0.0178886
800.340	0.0177999
800.418	0.0180961
800.496	0.0180061
800.574	0.0180421
800.652	0.0180065
800.730	0.0179124
800.808	0.0180254
800.887	0.0179859
800.965	0.0180990
801.043	0.0180118
801.121	0.0179884
801.199	0.0180631
801.277	0.0179701
801.355	0.0179770
801.433	0.0179422
801.512	0.0178931
801.590	0.0179816
801.668	0.0178626
801.746	0.0179964
801.824	0.0180004
801.902	0.0179204
801.980	0.0180347
802.058	0.0179404
802.137	0.0178880
802.215	0.0179526
802.293	0.0178984
802.371	0.0179054
802.449	0.0179904
802.527	0.0179586
802.605	0.0178882
802.683	0.0179268
802.762	0.0179889
802.840	0.0179318
802.918	0.0178288
802.996	0.0178354
803.074	0.0179491
803.152	0.0182094
803.230	0.0180795
803.308	0.0179138
803.387	0.0178963
803.465	0.0180574
803.543	0.0178148
803.621	0.0179756
803.699	0.0180711
803.777	0.0178247
803.855	0.0179066
803.933	0.0179156
804.012	0.0179885
804.090	0.0180011
804.168	0.0179546
804.246	0.0179907
804.324	0.0179498
804.402	0.0180529
804.480	0.0181004
804.558	0.0181401
804.637	0.0181138
804.715	0.0180462
804.793	0.0181481
804.871	0.0179741
804.949	0.0181056
805.027	0.0180765
805.105	0.0180378
805.183	0.0179354
805.262	0.0179456
805.340	0.0178999
805.418	0.0180575
805.496	0.0180135
805.574	0.0179379
805.652	0.0179796
805.730	0.0180403
805.808	0.0179451
805.887	0.0180276
805.965	0.0179746
806.043	0.0179025
806.121	0.0179090
806.199	0.0178951
806.277	0.0182402
806.355	0.0180424
806.433	0.0180591
806.512	0.0180252
806.590	0.0180431
806.668	0.0179945
806.746	0.0180630
806.824	0.0179906
806.902	0.0180029
806.980	0.0180384
807.058	0.0178653
807.137	0.0179637
807.215	0.0178784
807.293	0.0179621
807.371	0.0178413
807.449	0.0178041
807.527	0.0179482
807.605	0.0178813
807.683	0.0179007
807.762	0.0180491
807.840	0.0178664
807.918	0.0178207
807.996	0.0179401
808.074	0.0179851
808.152	0.0181310
808.230	0.0179791
808.308	0.0180051
808.387	0.0179048
808.465	0.0179248
808.543	0.0180498
808.621	0.0180347
808.699	0.0180242
808.777	0.0180038
808.855	0.0179227
808.933	0.0180534
809.012	0.0179437
809.090	0.0178302
809.168	0.0179764
809.246	0.0179095
809.324	0.0178268
809.402	0.0180096
809.480	0.0179649
809.558	0.0177892
809.637	0.0178187
809.715	0.0179336
809.793	0.0176598
809.871	0.0177486
809.949	0.0178198
810.027	0.0177760
810.105	0.0177419
810.183	0.0177370
810.262	0.0176817
810.340	0.0177449
810.418	0.0177941
810.496	0.0178537
810.574	0.0177470
810.652	0.0177309
810.730	0.0178774
810.808	0.0179682
810.887	0.0179064
810.965	0.0179145
811.043	0.0177812
811.121	0.0179820
811.199	0.0179166
811.277	0.0178848
811.355	0.0178891
811.433	0.0179097
811.512	0.0179555
811.590	0.0179866
811.668	0.0178924
811.746	0.0178730
811.824	0.0178687
811.902	0.0179128
811.980	0.0178101
812.058	0.0179060
812.137	0.0179398
812.215	0.0179513
812.293	0.0178279
812.371	0.0179215
812.449	0.0178655
812.527	0.0179699
812.605	0.0177520
812.683	0.0178283
812.762	0.0179400
812.840	0.0178728
812.918	0.0177562
812.996	0.0178209
813.074	0.0178472
813.152	0.0178038
813.230	0.0178706
813.308	0.0177608
813.387	0.0177715
813.465	0.0179560
813.543	0.0179165
813.621	0.0177836
813.699	0.0178636
813.777	0.0179008
813.855	0.0177856
813.933	0.0179314
814.012	0.0178387
814.090	0.0179659
814.168	0.0178699
814.246	0.0179179
814.324	0.0178865
814.402	0.0178580
814.480	0.0179654
814.558	0.0179262
814.637	0.0178808
814.715	0.0178815
814.793	0.0180138
814.871	0.0180058
814.949	0.0178771
815.027	0.0179209
815.105	0.0180041
815.183	0.0180218
815.262	0.0179047
815.340	0.0180111
815.418	0.0180028
815.496	0.0181219
815.574	0.0179549
815.652	0.0180243
815.730	0.0180548
815.808	0.0181252
815.887	0.0179003
815.965	0.0178188
816.043	0.0179065
816.121	0.0180479
816.199	0.0180170
816.277	0.0178771
816.355	0.0178595
816.433	0.0178916
816.512	0.0179289
816.590	0.0179793
816.668	0.0179149
816.746	0.0180017
816.824	0.0180471
816.902	0.0178338
816.980	0.0178928
817.058	0.0179028
817.137	0.0179682
817.215	0.0178860
817.293	0.0179462
817.371	0.0179385
817.449	0.0179088
817.527	0.0179226
817.605	0.0179248
817.683	0.0179825
817.762	0.0180484
817.840	0.0179144
817.918	0.0180229
817.996	0.0180072
818.074	0.0177944
818.152	0.0179307
818.230	0.0179467
818.308	0.0178885
818.387	0.0179044
818.465	0.0178814
818.543	0.0177954
818.621	0.0179971
818.699	0.0179091
818.777	0.0179192
818.855	0.0179390
818.933	0.0179831
819.012	0.0179562
819.090	0.0179686
819.168	0.0179755
819.246	0.0180962
819.324	0.0180955
819.402	0.0180511
819.480	0.0179410
819.558	0.0179236
819.637	0.0180475
819.715	0.0179584
819.793	0.0181559
819.871	0.0181290
819.949	0.0181853
820.027	0.0180783
820.105	0.0181075
820.183	0.0181351
820.262	0.0181348
820.340	0.0180968
820.418	0.0181464
820.496	0.0180354
820.574	0.0180389
820.652	0.0180853
820.730	0.0179689
820.808	0.0181199
820.887	0.0181306
820.965	0.0180103
821.043	0.0179347
821.121	0.0179059
821.199	0.0180579
821.277	0.0180424
821.355	0.0179050
821.433	0.0178276
821.512	0.0179361
821.590	0.0180056
821.668	0.0178961
821.746	0.0179752
821.824	0.0178941
821.902	0.0178343
821.980	0.0177724
822.058	0.0181509
822.137	0.0179115
822.215	0.0179050
822.293	0.0178285
822.371	0.0179192
822.449	0.0178584
822.527	0.0179703
822.605	0.0179326
822.683	0.0179179
822.762	0.0178478
822.840	0.0178970
822.918	0.0179460
822.996	0.0179568
823.074	0.0179774
823.152	0.0177060
823.230	0.0179819
823.308	0.0180170
823.387	0.0179954
823.465	0.0177434
823.543	0.0179382
823.621	0.0178863
823.699	0.0180521
823.777	0.0178479
823.855	0.0179263
823.933	0.0179627
824.012	0.0177602
824.090	0.0178613
824.168	0.0179588
824.246	0.0178496
824.324	0.0178760
824.402	0.0178001
824.480	0.0179297
824.558	0.0177100
824.637	0.0178524
824.715	0.0179125
824.793	0.0177991
824.871	0.0177969
824.949	0.0178322
825.027	0.0179026
825.105	0.0178599
825.183	0.0178272
825.262	0.0178105
825.340	0.0179135
825.418	0.0178410
825.496	0.0178558
825.574	0.0179630
825.652	0.0178766
825.730	0.0178757
825.808	0.0179676
825.887	0.0179407
825.965	0.0179978
826.043	0.0180320
826.121	0.0180034
826.199	0.0180045
826.277	0.0179758
826.355	0.0179765
826.433	0.0180405
826.512	0.0179937
826.590	0.0178614
826.668	0.0179322
826.746	0.0180737
826.824	0.0179301
826.902	0.0178977
826.980	0.0178455
827.058	0.0178618
827.137	0.0178615
827.215	0.0178566
827.293	0.0177948
827.371	0.0177130
827.449	0.0177503
827.527	0.0177822
827.605	0.0178446
827.683	0.0177060
827.762	0.0177675
827.840	0.0178205
827.918	0.0177099
827.996	0.0177738
828.074	0.0176676
828.152	0.0177109
828.230	0.0178593
828.308	0.0178947
828.387	0.0177967
828.465	0.0177485
828.543	0.0178826
828.621	0.0178695
828.699	0.0178410
828.777	0.0180116
828.855	0.0180414
828.933	0.0179690
829.012	0.0180180
829.090	0.0180222
829.168	0.0180423
829.246	0.0179375
829.324	0.0180469
829.402	0.0179557
829.480	0.0179606
829.558	0.0180126
829.637	0.0180449
829.715	0.0180304
829.793	0.0179440
829.871	0.0179690
829.949	0.0180464
830.027	0.0180507
830.105	0.0181140
830.183	0.0181596
830.262	0.0179970
830.340	0.0179749
830.418	0.0179597
830.496	0.0178918
830.574	0.0179366
830.652	0.0179997
830.730	0.0180545
830.808	0.0179768
830.887	0.0179349
830.965	0.0179985
831.043	0.0179227
831.121	0.0179407
831.199	0.0179823
831.277	0.0178915
831.355	0.0179733
831.433	0.0177783
831.512	0.0178177
831.590	0.0178477
831.668	0.0178150
831.746	0.0178236
831.824	0.0178036
831.902	0.0176738
831.980	0.0178294
832.058	0.0179721
832.137	0.0177663
832.215	0.0177733
832.293	0.0178640
832.371	0.0177234
832.449	0.0178925
832.527	0.0178561
832.605	0.0177980
832.683	0.0177691
832.762	0.0176962
832.840	0.0178111
832.918	0.0178554
832.996	0.0178368
833.074	0.0179018
833.152	0.0179717
833.230	0.0177534
833.308	0.0178093
833.387	0.0178453
833.465	0.0177888
833.543	0.0178870
833.621	0.0178783
833.699	0.0178335
833.777	0.0178717
833.855	0.0179037
833.933	0.0178367
834.012	0.0177957
834.090	0.0178336
834.168	0.0178122
834.246	0.0178440
834.324	0.0178378
834.402	0.0177376
834.480	0.0177637
834.558	0.0179438
834.637	0.0178152
834.715	0.0178931
834.793	0.0178659
834.871	0.0176411
834.949	0.0179281
835.027	0.0178387
835.105	0.0178749
835.183	0.0177607
835.262	0.0176886
835.340	0.0179532
835.418	0.0178286
835.496	0.0177469
835.574	0.0177883
835.652	0.0176894
835.730	0.0177646
835.808	0.0178228
835.887	0.0178152
835.965	0.0178072
836.043	0.0176787
836.121	0.0177127
836.199	0.0176990
836.277	0.0178440
836.355	0.0178082
836.433	0.0177664
836.512	0.0178031
836.590	0.0179036
836.668	0.0178829
836.746	0.0178122
836.824	0.0178971
836.902	0.0179970
836.980	0.0178835
837.058	0.0178221
837.137	0.0178577
837.215	0.0178222
837.293	0.0179424
837.371	0.0178567
837.449	0.0177144
837.527	0.0178067
837.605	0.0178825
837.683	0.0178922
837.762	0.0178477
837.840	0.0179451
837.918	0.0178892
837.996	0.0178835
838.074	0.0179683
838.152	0.0179336
838.230	0.0178969
838.308	0.0178602
838.387	0.0178919
838.465	0.0179784
838.543	0.0178979
838.621	0.0178175
838.699	0.0179594
838.777	0.0179404
838.855	0.0180413
838.933	0.0178976
839.012	0.0180175
839.090	0.0181872
839.168	0.0179884
839.246	0.0179073
839.324	0.0180422
839.402	0.0181641
839.480	0.0180546
839.558	0.0179727
839.637	0.0179806
839.715	0.0179792
839.793	0.0179558
839.871	0.0180261
839.949	0.0180382
840.027	0.0181187
840.105	0.0181681
840.183	0.0179449
840.262	0.0180099
840.340	0.0181011
840.418	0.0179204
840.496	0.0180070
840.574	0.0180800
840.652	0.0178764
840.730	0.0179582
840.808	0.0180630
840.887	0.0180315
840.965	0.0180216
841.043	0.0179232
841.121	0.0178914
841.199	0.0180540
841.277	0.0180242
841.355	0.0179557
841.433	0.0180504
841.512	0.0180236
841.590	0.0179024
841.668	0.0178726
841.746	0.0180106
841.824	0.0180028
841.902	0.0179451
841.980	0.0179179
842.058	0.0179255
842.137	0.0178125
842.215	0.0179881
842.293	0.0180232
842.371	0.0179092
842.449	0.0179308
842.527	0.0178157
842.605	0.0180032
842.683	0.0178531
842.762	0.0179108
842.840	0.0181244
842.918	0.0180672
842.996	0.0179359
843.074	0.0178690
843.152	0.0180639
843.230	0.0180109
843.308	0.0178497
843.387	0.0177720
843.465	0.0179087
843.543	0.0178517
843.621	0.0179014
843.699	0.0179378
843.777	0.0178912
843.855	0.0178054
843.933	0.0178004
844.012	0.0179386
844.090	0.0178410
844.168	0.0179301
844.246	0.0178246
844.324	0.0180769
844.402	0.0179185
844.480	0.0180640
844.558	0.0179922
844.637	0.0179784
844.715	0.0180578
844.793	0.0180070
844.871	0.0180289
844.949	0.0180731
845.027	0.0180161
845.105	0.0181082
845.183	0.0180227
845.262	0.0179740
845.340	0.0180221
845.418	0.0179334
845.496	0.0179930
845.574	0.0179699
845.652	0.0180485
845.730	0.0179346
845.808	0.0178302
845.887	0.0179375
845.965	0.0179465
846.043	0.0180094
846.121	0.0178930
846.199	0.0179591
846.277	0.0179914
846.355	0.0180756
846.433	0.0178284
846.512	0.0178339
846.590	0.0179147
846.668	0.0179391
846.746	0.0178857
846.824	0.0178592
846.902	0.0179251
846.980	0.0179884
847.058	0.0179470
847.137	0.0179778
847.215	0.0179380
847.293	0.0179766
847.371	0.0179149
847.449	0.0177761
847.527	0.0179550
847.605	0.0181152
847.683	0.0179131
847.762	0.0178983
847.840	0.0179073
847.918	0.0180285
847.996	0.0181138
848.074	0.0181145
848.152	0.0179788
848.230	0.0179670
848.308	0.0180228
848.387	0.0179514
848.465	0.0180299
848.543	0.0180797
848.621	0.0178024
848.699	0.0178942
848.777	0.0179588
848.855	0.0179433
848.933	0.0180525
849.012	0.0179325
849.090	0.0179828
849.168	0.0179362
849.246	0.0177905
849.324	0.0179330
849.402	0.0178514
849.480	0.0178944
849.558	0.0179253
849.637	0.0177636
849.715	0.0178139
849.793	0.0178607
849.871	0.0178860
849.949	0.0177232
850.027	0.0178610
850.105	0.0178607
850.183	0.0178488
850.262	0.0179159
850.340	0.0177254
850.418	0.0177125
850.496	0.0178934
850.574	0.0178246
850.652	0.0178469
850.730	0.0177843
850.808	0.0177596
850.887	0.0177238
850.965	0.0178491
851.043	0.0179407
851.121	0.0179104
851.199	0.0179093
851.277	0.0177473
851.355	0.0177972
851.433	0.0177976
851.512	0.0178344
851.590	0.0177986
851.668	0.0178075
851.746	0.0176832
851.824	0.0176542
851.902	0.0178144
851.980	0.0178350
852.058	0.0177424
852.137	0.0177578
852.215	0.0177006
852.293	0.0176243
852.371	0.0176696
852.449	0.0175488
852.527	0.0177192
852.605	0.0178112
852.683	0.0176087
852.762	0.0177007
852.840	0.0177192
852.918	0.0177089
852.996	0.0176514
853.074	0.0177643
853.152	0.0177070
853.230	0.0176792
853.308	0.0176624
853.387	0.0177453
853.465	0.0178043
853.543	0.0177538
853.621	0.0177586
853.699	0.0178284
853.777	0.0178323
853.855	0.0177729
853.933	0.0177828
854.012	0.0176850
854.090	0.0177126
854.168	0.0177940
854.246	0.0178516
854.324	0.0178915
854.402	0.0178491
854.480	0.0177986
854.558	0.0177702
854.637	0.0177576
854.715	0.0178687
854.793	0.0178982
854.871	0.0178341
854.949	0.0178694
855.027	0.0177697
855.105	0.0178717
855.183	0.0178204
855.262	0.0177586
855.340	0.0178662
855.418	0.0178534
855.496	0.0178609
855.574	0.0178289
855.652	0.0178208
855.730	0.0177673
855.808	0.0178575
855.887	0.0178577
855.965	0.0178580
856.043	0.0178642
856.121	0.0179053
856.199	0.0179733
856.277	0.0179830
856.355	0.0179529
856.433	0.0178337
856.512	0.0179893
856.590	0.0179275
856.668	0.0178755
856.746	0.0179641
856.824	0.0178998
856.902	0.0178204
856.980	0.0178854
857.058	0.0179800
857.137	0.0179969
857.215	0.0177762
857.293	0.0178236
857.371	0.0179707
857.449	0.0177945
857.527	0.0177222
857.605	0.0177944
857.683	0.0176891
857.762	0.0178116
857.840	0.0178328
857.918	0.0179921
857.996	0.0178356
858.074	0.0177235
858.152	0.0178760
858.230	0.0177426
858.308	0.0177731
858.387	0.0179170
858.465	0.0177441
858.543	0.0178384
858.621	0.0179588
858.699	0.0178238
858.777	0.0179572
858.855	0.0178871
858.933	0.0178725
859.012	0.0178797
859.090	0.0177832
859.168	0.0178620
859.246	0.0178459
859.324	0.0179031
859.402	0.0179339
859.480	0.0178487
859.558	0.0179088
859.637	0.0177903
859.715	0.0176629
859.793	0.0177266
859.871	0.0178759
859.949	0.0179192
860.027	0.0179222
860.105	0.0178304
860.183	0.0178958
860.262	0.0177478
860.340	0.0178012
860.418	0.0178710
860.496	0.0179172
860.574	0.0178696
860.652	0.0178907
860.730	0.0178190
860.808	0.0178094
860.887	0.0179174
860.965	0.0179058
861.043	0.0179095
861.121	0.0178781
861.199	0.0180222
861.277	0.0179690
861.355	0.0179132
861.433	0.0178830
861.512	0.0179813
861.590	0.0180952
861.668	0.0180457
861.746	0.0179937
861.824	0.0180174
861.902	0.0180096
861.980	0.0179440
862.058	0.0179309
862.137	0.0179739
862.215	0.0180576
862.293	0.0180060
862.371	0.0180100
862.449	0.0178862
862.527	0.0180359
862.605	0.0180434
862.683	0.0179028
862.762	0.0180489
862.840	0.0179703
862.918	0.0179123
862.996	0.0179596
863.074	0.0179714
863.152	0.0179725
863.230	0.0179140
863.308	0.0179908
863.387	0.0177976
863.465	0.0179010
863.543	0.0178480
863.621	0.0177673
863.699	0.0179185
863.777	0.0179441
863.855	0.0177294
863.933	0.0178978
864.012	0.0178976
864.090	0.0177956
864.168	0.0178470
864.246	0.0179366
864.324	0.0179175
864.402	0.0178729
864.480	0.0179893
864.558	0.0179224
864.637	0.0179427
864.715	0.0179298
864.793	0.0179771
864.871	0.0179369
864.949	0.0178830
865.027	0.0180064
865.105	0.0179372
865.183	0.0178436
865.262	0.0179839
865.340	0.0180663
865.418	0.0180309
865.496	0.0178622
865.574	0.0180063
865.652	0.0179093
865.730	0.0180614
865.808	0.0180299
865.887	0.0180141
865.965	0.0179935
866.043	0.0180077
866.121	0.0179849
866.199	0.0180145
866.277	0.0179813
866.355	0.0181993
866.433	0.0180237
866.512	0.0177899
866.590	0.0181133
866.668	0.0180299
866.746	0.0179987
866.824	0.0180248
866.902	0.0180122
866.980	0.0179739
867.058	0.0178573
867.137	0.0179579
867.215	0.0180907
867.293	0.0179078
867.371	0.0179688
867.449	0.0178947
867.527	0.0178936
867.605	0.0178849
867.683	0.0178623
867.762	0.0179789
867.840	0.0179151
867.918	0.0178423
867.996	0.0177737
868.074	0.0178819
868.152	0.0178249
868.230	0.0178160
868.308	0.0178937
868.387	0.0177791
868.465	0.0177633
868.543	0.0178557
868.621	0.0178883
868.699	0.0178573
868.777	0.0178114
868.855	0.0178867
868.933	0.0177893
869.012	0.0177409
869.090	0.0177791
869.168	0.0177537
869.246	0.0178938
869.324	0.0178839
869.402	0.0178867
869.480	0.0178900
869.558	0.0178577
869.637	0.0178088
869.715	0.0178223
869.793	0.0178372
869.871	0.0178972
869.949	0.0179076
