06/03/2022	18:32:04	Ver.	4.1	UNKNOWN
Optical Delay	550.027179	Delta X		0.078125	Sweeps	1	Scan Rate	0/0
Coordinates	Axis 1	NaN	Axis 2	NaN	Axis 3	NaN	Axis 4	NaN	Axis 5	NaN	Axis 6	0.000000
TX Power	0.000000	RX Power	0.000000

550.027	0.0179314
550.105	0.0179128
550.183	0.0178180
550.262	0.0178285
550.340	0.0179478
550.418	0.0179723
550.496	0.0178504
550.574	0.0179646
550.652	0.0178822
550.730	0.0177736
550.808	0.0179981
550.887	0.0179838
550.965	0.0178681
551.043	0.0178545
551.121	0.0178893
551.199	0.0179810
551.277	0.0178556
551.355	0.0178757
551.433	0.0180425
551.512	0.0179466
551.590	0.0179531
551.668	0.0178336
551.746	0.0179230
551.824	0.0179861
551.902	0.0179592
551.980	0.0177744
552.058	0.0178915
552.137	0.0178200
552.215	0.0178048
552.293	0.0176945
552.371	0.0178536
552.449	0.0178831
552.527	0.0178091
552.605	0.0178436
552.683	0.0178952
552.762	0.0179394
552.840	0.0179836
552.918	0.0179254
552.996	0.0180031
553.074	0.0179039
553.152	0.0179307
553.230	0.0179489
553.308	0.0179213
553.387	0.0178189
553.465	0.0179146
553.543	0.0179463
553.621	0.0177953
553.699	0.0178135
553.777	0.0178278
553.855	0.0178558
553.933	0.0179638
554.012	0.0180074
554.090	0.0177847
554.168	0.0177151
554.246	0.0178118
554.324	0.0178365
554.402	0.0177606
554.480	0.0177601
554.558	0.0179591
554.637	0.0178574
554.715	0.0178795
554.793	0.0178605
554.871	0.0177754
554.949	0.0177709
555.027	0.0177071
555.105	0.0178199
555.183	0.0177966
555.262	0.0178489
555.340	0.0178460
555.418	0.0178310
555.496	0.0177868
555.574	0.0177801
555.652	0.0177718
555.730	0.0176877
555.808	0.0177325
555.887	0.0178656
555.965	0.0178098
556.043	0.0178239
556.121	0.0177682
556.199	0.0178709
556.277	0.0177073
556.355	0.0177097
556.433	0.0178222
556.512	0.0176819
556.590	0.0178391
556.668	0.0176645
556.746	0.0179086
556.824	0.0177332
556.902	0.0177621
556.980	0.0178849
557.058	0.0179702
557.137	0.0178394
557.215	0.0178549
557.293	0.0178535
557.371	0.0178747
557.449	0.0178713
557.527	0.0178309
557.605	0.0178827
557.683	0.0177290
557.762	0.0178834
557.840	0.0179326
557.918	0.0179140
557.996	0.0179035
558.074	0.0178032
558.152	0.0178868
558.230	0.0178139
558.308	0.0178123
558.387	0.0179419
558.465	0.0178477
558.543	0.0177207
558.621	0.0175925
558.699	0.0176571
558.777	0.0177479
558.855	0.0178636
558.933	0.0178378
559.012	0.0177837
559.090	0.0177699
559.168	0.0177832
559.246	0.0177451
559.324	0.0178240
559.402	0.0177563
559.480	0.0177994
559.558	0.0178308
559.637	0.0177119
559.715	0.0177049
559.793	0.0178122
559.871	0.0177980
559.949	0.0178588
560.027	0.0175839
560.105	0.0177309
560.183	0.0177610
560.262	0.0178721
560.340	0.0179171
560.418	0.0177544
560.496	0.0177325
560.574	0.0176897
560.652	0.0178433
560.730	0.0177277
560.808	0.0178769
560.887	0.0177916
560.965	0.0177693
561.043	0.0178806
561.121	0.0177924
561.199	0.0178545
561.277	0.0178073
561.355	0.0178912
561.433	0.0177917
561.512	0.0179392
561.590	0.0178558
561.668	0.0179247
561.746	0.0179576
561.824	0.0178669
561.902	0.0178240
561.980	0.0178719
562.058	0.0180571
562.137	0.0179196
562.215	0.0180523
562.293	0.0179956
562.371	0.0178357
562.449	0.0178624
562.527	0.0179794
562.605	0.0180183
562.683	0.0179465
562.762	0.0179366
562.840	0.0180753
562.918	0.0179379
562.996	0.0178008
563.074	0.0178937
563.152	0.0179916
563.230	0.0178942
563.308	0.0180537
563.387	0.0180104
563.465	0.0178214
563.543	0.0179154
563.621	0.0180075
563.699	0.0179897
563.777	0.0180675
563.855	0.0180876
563.933	0.0180254
564.012	0.0179725
564.090	0.0179729
564.168	0.0179850
564.246	0.0179776
564.324	0.0178944
564.402	0.0178631
564.480	0.0180932
564.558	0.0182108
564.637	0.0179459
564.715	0.0179982
564.793	0.0179124
564.871	0.0180958
564.949	0.0180349
565.027	0.0182507
565.105	0.0180565
565.183	0.0179924
565.262	0.0179884
565.340	0.0179715
565.418	0.0179623
565.496	0.0181609
565.574	0.0179586
565.652	0.0179315
565.730	0.0179533
565.808	0.0180258
565.887	0.0180035
565.965	0.0180460
566.043	0.0181123
566.121	0.0180099
566.199	0.0178192
566.277	0.0179874
566.355	0.0181612
566.433	0.0179626
566.512	0.0178446
566.590	0.0179408
566.668	0.0179737
566.746	0.0179766
566.824	0.0179503
566.902	0.0177541
566.980	0.0180415
567.058	0.0181561
567.137	0.0179211
567.215	0.0178594
567.293	0.0179723
567.371	0.0180778
567.449	0.0179932
567.527	0.0180377
567.605	0.0179355
567.683	0.0179465
567.762	0.0178526
567.840	0.0179044
567.918	0.0179417
567.996	0.0179610
568.074	0.0178532
568.152	0.0179238
568.230	0.0180005
568.308	0.0179686
568.387	0.0178824
568.465	0.0179485
568.543	0.0179372
568.621	0.0179527
568.699	0.0179288
568.777	0.0177574
568.855	0.0178017
568.933	0.0179122
569.012	0.0180225
569.090	0.0178728
569.168	0.0179726
569.246	0.0179823
569.324	0.0178877
569.402	0.0178337
569.480	0.0178739
569.558	0.0179383
569.637	0.0177448
569.715	0.0178666
569.793	0.0179427
569.871	0.0178091
569.949	0.0178546
570.027	0.0179594
570.105	0.0178808
570.183	0.0179764
570.262	0.0178547
570.340	0.0176441
570.418	0.0178384
570.496	0.0179285
570.574	0.0179530
570.652	0.0178223
570.730	0.0176636
570.808	0.0177774
570.887	0.0177908
570.965	0.0177477
571.043	0.0179367
571.121	0.0176706
571.199	0.0176965
571.277	0.0178330
571.355	0.0177393
571.433	0.0178751
571.512	0.0177685
571.590	0.0177814
571.668	0.0177493
571.746	0.0177636
571.824	0.0178149
571.902	0.0177111
571.980	0.0177372
572.058	0.0177007
572.137	0.0178364
572.215	0.0177711
572.293	0.0177314
572.371	0.0177102
572.449	0.0178397
572.527	0.0175829
572.605	0.0177551
572.683	0.0178368
572.762	0.0177456
572.840	0.0176275
572.918	0.0177378
572.996	0.0177129
573.074	0.0177549
573.152	0.0178647
573.230	0.0177094
573.308	0.0177061
573.387	0.0178295
573.465	0.0177931
573.543	0.0176953
573.621	0.0177887
573.699	0.0177302
573.777	0.0177766
573.855	0.0177097
573.933	0.0177251
574.012	0.0178715
574.090	0.0178452
574.168	0.0177979
574.246	0.0177954
574.324	0.0176085
574.402	0.0178450
574.480	0.0179057
574.558	0.0177905
574.637	0.0178353
574.715	0.0177325
574.793	0.0179091
574.871	0.0179134
574.949	0.0177776
575.027	0.0178103
575.105	0.0177863
575.183	0.0178938
575.262	0.0179202
575.340	0.0179041
575.418	0.0178587
575.496	0.0178388
575.574	0.0179733
575.652	0.0177708
575.730	0.0178101
575.808	0.0178528
575.887	0.0177567
575.965	0.0178431
576.043	0.0178864
576.121	0.0178335
576.199	0.0179246
576.277	0.0177570
576.355	0.0178483
576.433	0.0177312
576.512	0.0178529
576.590	0.0177733
576.668	0.0178318
576.746	0.0178549
576.824	0.0178501
576.902	0.0178308
576.980	0.0178294
577.058	0.0178505
577.137	0.0178170
577.215	0.0178139
577.293	0.0178436
577.371	0.0178300
577.449	0.0178992
577.527	0.0178725
577.605	0.0178191
577.683	0.0178729
577.762	0.0178008
577.840	0.0178345
577.918	0.0179018
577.996	0.0175530
578.074	0.0177058
578.152	0.0179198
578.230	0.0179840
578.308	0.0177876
578.387	0.0178320
578.465	0.0178052
578.543	0.0177396
578.621	0.0177525
578.699	0.0178203
578.777	0.0178255
578.855	0.0177802
578.933	0.0178231
579.012	0.0176815
579.090	0.0177973
579.168	0.0177412
579.246	0.0178798
579.324	0.0177984
579.402	0.0178488
579.480	0.0177789
579.558	0.0178199
579.637	0.0177772
579.715	0.0178078
579.793	0.0179034
579.871	0.0178632
579.949	0.0177999
580.027	0.0179430
580.105	0.0177435
580.183	0.0176306
580.262	0.0178648
580.340	0.0178304
580.418	0.0177248
580.496	0.0177137
580.574	0.0178875
580.652	0.0177255
580.730	0.0176453
580.808	0.0178182
580.887	0.0177711
580.965	0.0176511
581.043	0.0178080
581.121	0.0178436
581.199	0.0177792
581.277	0.0176943
581.355	0.0177911
581.433	0.0178371
581.512	0.0178426
581.590	0.0177322
581.668	0.0176715
581.746	0.0177387
581.824	0.0175990
581.902	0.0178016
581.980	0.0179359
582.058	0.0177408
582.137	0.0178636
582.215	0.0177589
582.293	0.0178555
582.371	0.0178491
582.449	0.0177946
582.527	0.0179218
582.605	0.0177412
582.683	0.0177179
582.762	0.0180245
582.840	0.0178308
582.918	0.0178692
582.996	0.0177783
583.074	0.0178854
583.152	0.0177724
583.230	0.0177212
583.308	0.0177512
583.387	0.0177497
583.465	0.0179012
583.543	0.0179804
583.621	0.0178843
583.699	0.0178341
583.777	0.0179504
583.855	0.0179566
583.933	0.0178831
584.012	0.0180462
584.090	0.0178343
584.168	0.0179430
584.246	0.0180136
584.324	0.0179500
584.402	0.0180250
584.480	0.0177868
584.558	0.0179054
584.637	0.0179823
584.715	0.0179006
584.793	0.0178760
584.871	0.0177909
584.949	0.0178018
585.027	0.0179192
585.105	0.0179893
585.183	0.0179414
585.262	0.0179975
585.340	0.0179403
585.418	0.0178185
585.496	0.0178811
585.574	0.0179346
585.652	0.0179561
585.730	0.0179894
585.808	0.0179459
585.887	0.0179043
585.965	0.0179446
586.043	0.0179342
586.121	0.0179436
586.199	0.0177656
586.277	0.0179564
586.355	0.0179935
586.433	0.0178821
586.512	0.0179662
586.590	0.0178658
586.668	0.0178311
586.746	0.0178249
586.824	0.0179647
586.902	0.0178237
586.980	0.0178804
587.058	0.0179185
587.137	0.0178896
587.215	0.0179816
587.293	0.0179501
587.371	0.0177668
587.449	0.0179565
587.527	0.0179010
587.605	0.0178969
587.683	0.0178658
587.762	0.0177387
587.840	0.0180398
587.918	0.0178669
587.996	0.0179979
588.074	0.0179027
588.152	0.0179440
588.230	0.0180264
588.308	0.0178566
588.387	0.0178323
588.465	0.0179616
588.543	0.0178761
588.621	0.0178788
588.699	0.0179382
588.777	0.0179621
588.855	0.0178220
588.933	0.0179198
589.012	0.0178661
589.090	0.0179058
589.168	0.0178944
589.246	0.0177280
589.324	0.0178555
589.402	0.0180186
589.480	0.0178777
589.558	0.0177876
589.637	0.0178152
589.715	0.0178481
589.793	0.0178407
589.871	0.0178591
589.949	0.0179112
590.027	0.0180003
590.105	0.0179203
590.183	0.0178542
590.262	0.0179886
590.340	0.0178027
590.418	0.0178622
590.496	0.0178236
590.574	0.0179646
590.652	0.0178270
590.730	0.0178574
590.808	0.0178771
590.887	0.0178566
590.965	0.0179123
591.043	0.0178557
591.121	0.0178530
591.199	0.0178547
591.277	0.0179662
591.355	0.0178940
591.433	0.0178828
591.512	0.0178424
591.590	0.0177021
591.668	0.0179066
591.746	0.0177009
591.824	0.0178489
591.902	0.0178558
591.980	0.0179845
592.058	0.0179048
592.137	0.0179303
592.215	0.0179642
592.293	0.0179329
592.371	0.0178294
592.449	0.0179482
592.527	0.0178148
592.605	0.0178960
592.683	0.0179316
592.762	0.0180821
592.840	0.0179874
592.918	0.0180581
592.996	0.0178963
593.074	0.0179607
593.152	0.0179934
593.230	0.0180154
593.308	0.0178708
593.387	0.0179948
593.465	0.0179752
593.543	0.0181029
593.621	0.0180283
593.699	0.0180373
593.777	0.0180062
593.855	0.0179517
593.933	0.0180786
594.012	0.0179169
594.090	0.0179711
594.168	0.0179854
594.246	0.0180420
594.324	0.0180357
594.402	0.0179405
594.480	0.0179298
594.558	0.0178789
594.637	0.0179160
594.715	0.0179619
594.793	0.0179468
594.871	0.0178366
594.949	0.0179137
595.027	0.0178640
595.105	0.0177762
595.183	0.0177765
595.262	0.0178895
595.340	0.0179156
595.418	0.0179182
595.496	0.0178080
595.574	0.0177451
595.652	0.0178833
595.730	0.0178954
595.808	0.0179629
595.887	0.0180003
595.965	0.0178557
596.043	0.0177723
596.121	0.0178011
596.199	0.0178983
596.277	0.0177841
596.355	0.0178814
596.433	0.0178104
596.512	0.0179302
596.590	0.0178670
596.668	0.0177470
596.746	0.0178349
596.824	0.0179066
596.902	0.0178761
596.980	0.0178439
597.058	0.0177783
597.137	0.0179353
597.215	0.0178384
597.293	0.0179540
597.371	0.0178828
597.449	0.0178275
597.527	0.0179089
597.605	0.0179154
597.683	0.0177773
597.762	0.0179593
597.840	0.0178911
597.918	0.0178206
597.996	0.0178782
598.074	0.0178226
598.152	0.0178160
598.230	0.0179201
598.308	0.0179020
598.387	0.0179075
598.465	0.0176407
598.543	0.0177789
598.621	0.0178944
598.699	0.0177628
598.777	0.0177726
598.855	0.0179229
598.933	0.0178358
599.012	0.0179075
599.090	0.0178934
599.168	0.0178827
599.246	0.0177992
599.324	0.0177177
599.402	0.0179083
599.480	0.0178709
599.558	0.0179472
599.637	0.0179132
599.715	0.0177301
599.793	0.0178367
599.871	0.0177753
599.949	0.0178957
600.027	0.0178150
600.105	0.0179041
600.183	0.0178107
600.262	0.0178006
600.340	0.0179208
600.418	0.0177661
600.496	0.0179108
600.574	0.0179623
600.652	0.0177643
600.730	0.0178285
600.808	0.0178714
600.887	0.0178578
600.965	0.0177926
601.043	0.0178429
601.121	0.0177630
601.199	0.0179304
601.277	0.0178896
601.355	0.0178725
601.433	0.0179348
601.512	0.0178483
601.590	0.0178215
601.668	0.0178594
601.746	0.0180813
601.824	0.0178271
601.902	0.0177732
601.980	0.0178029
602.058	0.0178613
602.137	0.0178799
602.215	0.0178549
602.293	0.0179194
602.371	0.0179989
602.449	0.0179027
602.527	0.0179420
602.605	0.0179367
602.683	0.0178549
602.762	0.0179353
602.840	0.0178551
602.918	0.0178141
602.996	0.0179285
603.074	0.0179021
603.152	0.0178006
603.230	0.0178928
603.308	0.0179445
603.387	0.0179086
603.465	0.0179118
603.543	0.0178346
603.621	0.0177280
603.699	0.0178551
603.777	0.0180438
603.855	0.0178368
603.933	0.0179760
604.012	0.0178725
604.090	0.0177471
604.168	0.0178561
604.246	0.0179167
604.324	0.0178555
604.402	0.0177883
604.480	0.0179334
604.558	0.0178381
604.637	0.0176914
604.715	0.0178875
604.793	0.0178527
604.871	0.0179735
604.949	0.0180978
605.027	0.0178551
605.105	0.0178941
605.183	0.0179828
605.262	0.0179261
605.340	0.0179576
605.418	0.0178930
605.496	0.0179032
605.574	0.0180029
605.652	0.0179478
605.730	0.0178965
605.808	0.0178718
605.887	0.0177760
605.965	0.0178515
606.043	0.0179162
606.121	0.0177723
606.199	0.0179521
606.277	0.0179160
606.355	0.0179379
606.433	0.0178087
606.512	0.0179672
606.590	0.0180455
606.668	0.0179136
606.746	0.0178981
606.824	0.0178436
606.902	0.0179872
606.980	0.0178587
607.058	0.0179227
607.137	0.0180054
607.215	0.0178304
607.293	0.0179060
607.371	0.0179268
607.449	0.0179914
607.527	0.0178973
607.605	0.0178990
607.683	0.0180041
607.762	0.0179280
607.840	0.0178416
607.918	0.0178964
607.996	0.0180340
608.074	0.0180895
608.152	0.0179726
608.230	0.0178896
608.308	0.0179045
608.387	0.0180529
608.465	0.0181333
608.543	0.0179700
608.621	0.0180157
608.699	0.0179590
608.777	0.0178241
608.855	0.0180904
608.933	0.0180571
609.012	0.0179025
609.090	0.0179530
609.168	0.0179529
609.246	0.0179668
609.324	0.0180647
609.402	0.0179411
609.480	0.0179168
609.558	0.0180829
609.637	0.0180386
609.715	0.0179881
609.793	0.0180176
609.871	0.0180796
609.949	0.0179510
610.027	0.0179050
610.105	0.0179639
610.183	0.0179843
610.262	0.0179862
610.340	0.0180048
610.418	0.0180787
610.496	0.0180187
610.574	0.0178477
610.652	0.0178709
610.730	0.0178443
610.808	0.0179483
610.887	0.0179530
610.965	0.0178444
611.043	0.0179858
611.121	0.0179391
611.199	0.0178410
611.277	0.0179552
611.355	0.0178830
611.433	0.0179974
611.512	0.0180067
611.590	0.0177837
611.668	0.0179239
611.746	0.0178796
611.824	0.0179954
611.902	0.0179240
611.980	0.0178953
612.058	0.0178973
612.137	0.0178246
612.215	0.0180642
612.293	0.0178569
612.371	0.0179251
612.449	0.0178847
612.527	0.0178800
612.605	0.0178731
612.683	0.0179356
612.762	0.0178774
612.840	0.0178478
612.918	0.0179846
612.996	0.0179931
613.074	0.0179082
613.152	0.0179285
613.230	0.0179710
613.308	0.0178746
613.387	0.0179003
613.465	0.0178895
613.543	0.0178726
613.621	0.0180868
613.699	0.0178952
613.777	0.0178816
613.855	0.0178957
613.933	0.0179710
614.012	0.0180901
614.090	0.0178234
614.168	0.0178530
614.246	0.0179216
614.324	0.0180119
614.402	0.0180630
614.480	0.0178998
614.558	0.0179435
614.637	0.0178822
614.715	0.0179565
614.793	0.0180470
614.871	0.0179350
614.949	0.0179262
615.027	0.0179587
615.105	0.0180617
615.183	0.0180603
615.262	0.0179396
615.340	0.0179823
615.418	0.0178840
615.496	0.0178643
615.574	0.0179218
615.652	0.0180194
615.730	0.0179163
615.808	0.0180144
615.887	0.0178702
615.965	0.0180081
616.043	0.0179538
616.121	0.0179086
616.199	0.0180376
616.277	0.0179760
616.355	0.0179778
616.433	0.0179964
616.512	0.0180396
616.590	0.0178860
616.668	0.0180831
616.746	0.0180185
616.824	0.0179691
616.902	0.0179984
616.980	0.0178457
617.058	0.0179238
617.137	0.0179532
617.215	0.0180224
617.293	0.0179626
617.371	0.0179942
617.449	0.0179057
617.527	0.0179134
617.605	0.0179608
617.683	0.0179882
617.762	0.0179523
617.840	0.0178236
617.918	0.0178593
617.996	0.0179547
618.074	0.0179829
618.152	0.0179211
618.230	0.0180078
618.308	0.0179741
618.387	0.0178232
618.465	0.0179169
618.543	0.0179766
618.621	0.0179973
618.699	0.0179667
618.777	0.0179373
618.855	0.0179636
618.933	0.0179192
619.012	0.0180110
619.090	0.0177863
619.168	0.0179023
619.246	0.0178571
619.324	0.0178451
619.402	0.0180140
619.480	0.0180412
619.558	0.0180060
619.637	0.0179501
619.715	0.0180188
619.793	0.0178561
619.871	0.0178588
619.949	0.0180383
620.027	0.0180182
620.105	0.0180337
620.183	0.0178575
620.262	0.0178054
620.340	0.0178951
620.418	0.0180291
620.496	0.0180238
620.574	0.0179655
620.652	0.0178351
620.730	0.0179802
620.808	0.0179490
620.887	0.0179585
620.965	0.0178682
621.043	0.0179139
621.121	0.0178748
621.199	0.0178798
621.277	0.0179637
621.355	0.0178087
621.433	0.0179007
621.512	0.0178118
621.590	0.0178292
621.668	0.0179199
621.746	0.0179081
621.824	0.0178993
621.902	0.0177766
621.980	0.0179636
622.058	0.0179945
622.137	0.0178026
622.215	0.0178345
622.293	0.0178519
622.371	0.0179027
622.449	0.0179705
622.527	0.0178789
622.605	0.0178146
622.683	0.0179697
622.762	0.0178688
622.840	0.0178005
622.918	0.0179232
622.996	0.0180501
623.074	0.0179423
623.152	0.0177935
623.230	0.0179330
623.308	0.0178940
623.387	0.0179376
623.465	0.0179253
623.543	0.0179081
623.621	0.0177610
623.699	0.0179416
623.777	0.0179781
623.855	0.0179508
623.933	0.0179068
624.012	0.0177435
624.090	0.0179497
624.168	0.0179186
624.246	0.0179017
624.324	0.0178128
624.402	0.0177689
624.480	0.0178343
624.558	0.0179002
624.637	0.0179233
624.715	0.0178510
624.793	0.0180051
624.871	0.0179462
624.949	0.0178263
625.027	0.0178933
625.105	0.0179771
625.183	0.0179022
625.262	0.0179865
625.340	0.0178743
625.418	0.0179559
625.496	0.0178667
625.574	0.0177711
625.652	0.0179848
625.730	0.0179136
625.808	0.0179856
625.887	0.0178291
625.965	0.0178896
626.043	0.0178139
626.121	0.0178892
626.199	0.0179140
626.277	0.0178820
626.355	0.0178580
626.433	0.0178890
626.512	0.0179459
626.590	0.0178989
626.668	0.0177623
626.746	0.0180636
626.824	0.0179134
626.902	0.0177856
626.980	0.0178736
627.058	0.0179863
627.137	0.0178598
627.215	0.0178761
627.293	0.0178461
627.371	0.0177550
627.449	0.0177640
627.527	0.0178874
627.605	0.0178685
627.683	0.0177872
627.762	0.0179205
627.840	0.0178210
627.918	0.0176899
627.996	0.0177259
628.074	0.0177707
628.152	0.0179029
628.230	0.0179072
628.308	0.0177934
628.387	0.0178219
628.465	0.0178378
628.543	0.0179350
628.621	0.0177904
628.699	0.0178050
628.777	0.0179078
628.855	0.0179519
628.933	0.0178555
629.012	0.0179389
629.090	0.0179591
629.168	0.0178323
629.246	0.0179345
629.324	0.0177563
629.402	0.0178161
629.480	0.0178848
629.558	0.0177946
629.637	0.0176716
629.715	0.0178092
629.793	0.0178844
629.871	0.0179769
629.949	0.0178368
630.027	0.0177367
630.105	0.0178394
630.183	0.0178706
630.262	0.0178265
630.340	0.0179017
630.418	0.0177853
630.496	0.0177515
630.574	0.0178991
630.652	0.0180030
630.730	0.0180051
630.808	0.0178726
630.887	0.0178289
630.965	0.0178590
631.043	0.0178716
631.121	0.0178052
631.199	0.0178262
631.277	0.0177453
631.355	0.0177660
631.433	0.0177976
631.512	0.0179386
631.590	0.0178381
631.668	0.0178873
631.746	0.0178226
631.824	0.0177663
631.902	0.0177828
631.980	0.0179183
632.058	0.0176818
632.137	0.0178231
632.215	0.0177639
632.293	0.0178548
632.371	0.0177690
632.449	0.0178728
632.527	0.0178620
632.605	0.0180054
632.683	0.0178190
632.762	0.0177165
632.840	0.0176105
632.918	0.0178772
632.996	0.0180376
633.074	0.0179134
633.152	0.0179082
633.230	0.0177836
633.308	0.0177375
633.387	0.0177282
633.465	0.0178349
633.543	0.0177299
633.621	0.0178069
633.699	0.0178378
633.777	0.0178684
633.855	0.0177712
633.933	0.0177683
634.012	0.0176888
634.090	0.0177605
634.168	0.0178326
634.246	0.0178042
634.324	0.0178043
634.402	0.0179319
634.480	0.0178684
634.558	0.0177670
634.637	0.0177985
634.715	0.0178184
634.793	0.0177044
634.871	0.0178875
634.949	0.0177278
635.027	0.0176122
635.105	0.0177494
635.183	0.0179268
635.262	0.0177093
635.340	0.0178374
635.418	0.0177786
635.496	0.0177948
635.574	0.0178112
635.652	0.0177074
635.730	0.0176601
635.808	0.0178394
635.887	0.0178440
635.965	0.0179700
636.043	0.0178072
636.121	0.0177984
636.199	0.0177247
636.277	0.0178330
636.355	0.0179478
636.433	0.0178200
636.512	0.0180472
636.590	0.0178375
636.668	0.0178262
636.746	0.0179135
636.824	0.0179462
636.902	0.0178133
636.980	0.0177407
637.058	0.0178519
637.137	0.0178509
637.215	0.0178832
637.293	0.0178176
637.371	0.0178589
637.449	0.0178722
637.527	0.0177788
637.605	0.0178446
637.683	0.0178802
637.762	0.0179343
637.840	0.0178210
637.918	0.0178655
637.996	0.0178127
638.074	0.0179057
638.152	0.0178085
638.230	0.0178360
638.308	0.0178448
638.387	0.0178458
638.465	0.0179456
638.543	0.0178735
638.621	0.0178139
638.699	0.0177116
638.777	0.0179163
638.855	0.0179404
638.933	0.0177728
639.012	0.0177679
639.090	0.0178652
639.168	0.0178201
639.246	0.0178308
639.324	0.0179675
639.402	0.0177908
639.480	0.0178254
639.558	0.0179220
639.637	0.0179271
639.715	0.0178922
639.793	0.0179168
639.871	0.0177759
639.949	0.0178352
640.027	0.0179131
640.105	0.0179636
640.183	0.0179745
640.262	0.0178217
640.340	0.0178367
640.418	0.0179327
640.496	0.0178664
640.574	0.0179436
640.652	0.0180597
640.730	0.0177413
640.808	0.0178253
640.887	0.0179074
640.965	0.0178817
641.043	0.0180064
641.121	0.0180134
641.199	0.0179197
641.277	0.0179126
641.355	0.0179428
641.433	0.0178985
641.512	0.0179851
641.590	0.0179531
641.668	0.0178823
641.746	0.0179212
641.824	0.0177903
641.902	0.0179269
641.980	0.0179963
642.058	0.0178033
642.137	0.0179961
642.215	0.0178970
642.293	0.0179205
642.371	0.0178879
642.449	0.0177938
642.527	0.0179617
642.605	0.0179059
642.683	0.0178459
642.762	0.0178262
642.840	0.0178875
642.918	0.0179076
642.996	0.0178086
643.074	0.0178802
643.152	0.0179150
643.230	0.0178945
643.308	0.0178568
643.387	0.0178474
643.465	0.0178781
643.543	0.0178003
643.621	0.0177848
643.699	0.0179322
643.777	0.0178623
643.855	0.0178999
643.933	0.0178213
644.012	0.0179799
644.090	0.0178143
644.168	0.0179197
644.246	0.0178811
644.324	0.0179668
644.402	0.0178672
644.480	0.0179868
644.558	0.0177962
644.637	0.0178467
644.715	0.0178964
644.793	0.0179503
644.871	0.0178107
644.949	0.0177768
645.027	0.0176936
645.105	0.0178222
645.183	0.0177934
645.262	0.0177534
645.340	0.0177879
645.418	0.0179014
645.496	0.0177457
645.574	0.0177235
645.652	0.0177701
645.730	0.0177452
645.808	0.0178687
645.887	0.0178692
645.965	0.0177763
646.043	0.0178629
646.121	0.0176490
646.199	0.0178891
646.277	0.0179221
646.355	0.0178590
646.433	0.0178531
646.512	0.0179350
646.590	0.0178892
646.668	0.0178476
646.746	0.0179073
646.824	0.0178272
646.902	0.0177592
646.980	0.0177905
647.058	0.0178881
647.137	0.0178853
647.215	0.0180000
647.293	0.0177975
647.371	0.0177663
647.449	0.0178114
647.527	0.0177249
647.605	0.0177690
647.683	0.0178055
647.762	0.0179088
647.840	0.0178773
647.918	0.0178971
647.996	0.0180170
648.074	0.0178724
648.152	0.0178848
648.230	0.0179360
648.308	0.0178569
648.387	0.0178956
648.465	0.0178984
648.543	0.0180726
648.621	0.0179134
648.699	0.0178849
648.777	0.0180701
648.855	0.0177084
648.933	0.0179178
649.012	0.0178973
649.090	0.0179121
649.168	0.0178838
649.246	0.0179426
649.324	0.0178107
649.402	0.0178621
649.480	0.0179294
649.558	0.0178699
649.637	0.0178427
649.715	0.0178565
649.793	0.0178044
649.871	0.0178113
649.949	0.0177353
650.027	0.0179536
650.105	0.0178175
650.183	0.0178683
650.262	0.0179179
650.340	0.0179126
650.418	0.0178719
650.496	0.0178489
650.574	0.0177277
650.652	0.0177177
650.730	0.0177811
650.808	0.0179078
650.887	0.0178526
650.965	0.0178371
651.043	0.0179763
651.121	0.0178221
651.199	0.0178623
651.277	0.0178619
651.355	0.0178324
651.433	0.0178242
651.512	0.0179337
651.590	0.0178591
651.668	0.0177991
651.746	0.0178346
651.824	0.0178165
651.902	0.0178725
651.980	0.0178975
652.058	0.0178127
652.137	0.0177662
652.215	0.0176837
652.293	0.0177448
652.371	0.0178861
652.449	0.0178054
652.527	0.0178372
652.605	0.0177779
652.683	0.0178881
652.762	0.0177612
652.840	0.0177418
652.918	0.0177539
652.996	0.0177207
653.074	0.0177935
653.152	0.0177782
653.230	0.0176302
653.308	0.0175525
653.387	0.0176317
653.465	0.0177711
653.543	0.0177110
653.621	0.0177234
653.699	0.0176242
653.777	0.0176499
653.855	0.0178021
653.933	0.0176620
654.012	0.0178136
654.090	0.0177245
654.168	0.0176259
654.246	0.0176588
654.324	0.0177986
654.402	0.0176956
654.480	0.0177335
654.558	0.0177541
654.637	0.0177818
654.715	0.0176923
654.793	0.0176971
654.871	0.0177059
654.949	0.0176524
655.027	0.0178902
655.105	0.0178199
655.183	0.0178246
655.262	0.0176371
655.340	0.0176495
655.418	0.0177591
655.496	0.0176202
655.574	0.0176534
655.652	0.0176882
655.730	0.0176590
655.808	0.0177106
655.887	0.0177664
655.965	0.0177786
656.043	0.0176600
656.121	0.0177972
656.199	0.0176073
656.277	0.0176885
656.355	0.0176992
656.433	0.0176311
656.512	0.0176405
656.590	0.0175957
656.668	0.0177471
656.746	0.0176537
656.824	0.0176350
656.902	0.0177264
656.980	0.0176887
657.058	0.0177167
657.137	0.0176227
657.215	0.0176836
657.293	0.0176250
657.371	0.0176020
657.449	0.0176717
657.527	0.0177869
657.605	0.0176270
657.683	0.0177152
657.762	0.0176779
657.840	0.0176216
657.918	0.0175758
657.996	0.0176767
658.074	0.0177118
658.152	0.0176340
658.230	0.0177077
658.308	0.0177773
658.387	0.0176290
658.465	0.0175774
658.543	0.0176559
658.621	0.0177597
658.699	0.0175855
658.777	0.0177009
658.855	0.0177110
658.933	0.0176313
659.012	0.0177443
659.090	0.0176291
659.168	0.0176862
659.246	0.0177637
659.324	0.0177493
659.402	0.0177663
659.480	0.0176838
659.558	0.0177218
659.637	0.0177413
659.715	0.0177834
659.793	0.0177774
659.871	0.0177642
659.949	0.0177407
660.027	0.0178146
660.105	0.0178268
660.183	0.0178116
660.262	0.0178264
660.340	0.0177205
660.418	0.0178061
660.496	0.0178608
660.574	0.0177275
660.652	0.0178108
660.730	0.0177442
660.808	0.0178281
660.887	0.0178404
660.965	0.0177454
661.043	0.0177777
661.121	0.0178246
661.199	0.0177417
661.277	0.0177650
661.355	0.0178459
661.433	0.0178114
661.512	0.0178434
661.590	0.0177220
661.668	0.0177948
661.746	0.0177174
661.824	0.0178034
661.902	0.0177833
661.980	0.0178150
662.058	0.0179291
662.137	0.0177493
662.215	0.0178130
662.293	0.0179293
662.371	0.0177630
662.449	0.0178532
662.527	0.0178087
662.605	0.0178618
662.683	0.0177901
662.762	0.0179201
662.840	0.0179308
662.918	0.0177718
662.996	0.0177879
663.074	0.0180041
663.152	0.0179636
663.230	0.0178693
663.308	0.0178855
663.387	0.0178352
663.465	0.0177966
663.543	0.0178876
663.621	0.0179071
663.699	0.0178665
663.777	0.0177011
663.855	0.0177853
663.933	0.0177601
664.012	0.0179800
664.090	0.0178446
664.168	0.0176877
664.246	0.0177886
664.324	0.0176772
664.402	0.0179010
664.480	0.0178944
664.558	0.0179025
664.637	0.0178539
664.715	0.0178766
664.793	0.0180524
664.871	0.0178137
664.949	0.0177881
665.027	0.0180013
665.105	0.0179103
665.183	0.0178674
665.262	0.0180115
665.340	0.0180014
665.418	0.0180514
665.496	0.0180371
665.574	0.0179681
665.652	0.0180589
665.730	0.0180870
665.808	0.0179346
665.887	0.0180239
665.965	0.0181404
666.043	0.0180268
666.121	0.0179866
666.199	0.0179861
666.277	0.0178613
666.355	0.0178716
666.433	0.0180505
666.512	0.0180618
666.590	0.0179761
666.668	0.0179603
666.746	0.0179681
666.824	0.0180624
666.902	0.0179412
666.980	0.0179943
667.058	0.0180050
667.137	0.0178830
667.215	0.0180322
667.293	0.0180105
667.371	0.0180330
667.449	0.0179152
667.527	0.0181362
667.605	0.0180489
667.683	0.0178604
667.762	0.0180171
667.840	0.0177826
667.918	0.0179755
667.996	0.0179607
668.074	0.0178775
668.152	0.0178628
668.230	0.0178434
668.308	0.0178782
668.387	0.0178445
668.465	0.0178797
668.543	0.0178761
668.621	0.0178780
668.699	0.0178290
668.777	0.0178161
668.855	0.0178783
668.933	0.0178432
669.012	0.0178497
669.090	0.0177962
669.168	0.0178714
669.246	0.0178584
669.324	0.0179597
669.402	0.0178234
669.480	0.0179494
669.558	0.0179955
669.637	0.0179032
669.715	0.0180364
669.793	0.0178922
669.871	0.0180078
669.949	0.0178793
670.027	0.0178895
670.105	0.0178805
670.183	0.0178994
670.262	0.0179549
670.340	0.0180355
670.418	0.0178334
670.496	0.0179511
670.574	0.0179087
670.652	0.0179169
670.730	0.0177790
670.808	0.0178462
670.887	0.0178592
670.965	0.0177874
671.043	0.0178230
671.121	0.0177101
671.199	0.0179325
671.277	0.0178362
671.355	0.0177781
671.433	0.0175919
671.512	0.0177354
671.590	0.0179146
671.668	0.0178590
671.746	0.0178241
671.824	0.0178915
671.902	0.0178405
671.980	0.0178118
672.058	0.0177960
672.137	0.0177605
672.215	0.0179697
672.293	0.0180184
672.371	0.0179619
672.449	0.0179967
672.527	0.0179890
672.605	0.0179956
672.683	0.0179723
672.762	0.0181091
672.840	0.0179905
672.918	0.0181643
672.996	0.0180912
673.074	0.0178944
673.152	0.0178818
673.230	0.0179638
673.308	0.0179957
673.387	0.0180350
673.465	0.0179240
673.543	0.0179057
673.621	0.0177635
673.699	0.0178068
673.777	0.0177493
673.855	0.0175220
673.933	0.0175202
674.012	0.0175639
674.090	0.0174560
674.168	0.0175498
674.246	0.0174223
674.324	0.0176446
674.402	0.0175024
674.480	0.0174905
674.558	0.0174925
674.637	0.0175999
674.715	0.0177171
674.793	0.0176719
674.871	0.0175595
674.949	0.0174618
675.027	0.0177589
675.105	0.0177510
675.183	0.0177656
675.262	0.0177676
675.340	0.0177975
675.418	0.0178273
675.496	0.0178526
675.574	0.0177197
675.652	0.0176873
675.730	0.0178735
675.808	0.0180186
675.887	0.0179535
675.965	0.0179725
676.043	0.0178680
676.121	0.0180096
676.199	0.0178574
676.277	0.0179298
676.355	0.0180808
676.433	0.0179707
676.512	0.0180175
676.590	0.0182247
676.668	0.0180233
676.746	0.0180270
676.824	0.0180739
676.902	0.0181344
676.980	0.0181461
677.058	0.0181315
677.137	0.0181812
677.215	0.0180678
677.293	0.0179932
677.371	0.0179263
677.449	0.0180927
677.527	0.0180160
677.605	0.0180361
677.683	0.0178158
677.762	0.0178143
677.840	0.0178425
677.918	0.0177765
677.996	0.0176088
678.074	0.0175372
678.152	0.0176137
678.230	0.0177151
678.308	0.0176549
678.387	0.0175245
678.465	0.0175154
678.543	0.0177975
678.621	0.0177366
678.699	0.0177260
678.777	0.0177437
678.855	0.0176514
678.933	0.0176505
679.012	0.0176669
679.090	0.0177078
679.168	0.0176923
679.246	0.0176988
679.324	0.0176653
679.402	0.0175921
679.480	0.0176391
679.558	0.0177766
679.637	0.0176173
679.715	0.0177478
679.793	0.0176816
679.871	0.0175890
679.949	0.0175818
680.027	0.0177843
680.105	0.0176271
680.183	0.0176512
680.262	0.0177229
680.340	0.0176263
680.418	0.0177357
680.496	0.0177634
680.574	0.0176935
680.652	0.0178654
680.730	0.0179848
680.808	0.0179402
680.887	0.0178989
680.965	0.0178099
681.043	0.0179637
681.121	0.0178972
681.199	0.0179228
681.277	0.0181393
681.355	0.0181061
681.433	0.0180509
681.512	0.0181324
681.590	0.0181516
681.668	0.0182306
681.746	0.0181997
681.824	0.0181956
681.902	0.0182594
681.980	0.0182153
682.058	0.0183352
682.137	0.0182661
682.215	0.0182766
682.293	0.0181209
682.371	0.0181902
682.449	0.0182491
682.527	0.0182526
682.605	0.0181818
682.683	0.0180270
682.762	0.0178883
682.840	0.0179446
682.918	0.0180385
682.996	0.0178978
683.074	0.0178483
683.152	0.0177978
683.230	0.0178333
683.308	0.0177321
683.387	0.0175703
683.465	0.0175223
683.543	0.0174896
683.621	0.0176811
683.699	0.0175984
683.777	0.0175800
683.855	0.0175701
683.933	0.0175822
684.012	0.0174491
684.090	0.0175291
684.168	0.0177184
684.246	0.0176482
684.324	0.0175879
684.402	0.0175553
684.480	0.0177964
684.558	0.0178541
684.637	0.0179109
684.715	0.0179576
684.793	0.0177944
684.871	0.0180367
684.949	0.0178661
685.027	0.0178944
685.105	0.0181413
685.183	0.0179808
685.262	0.0180258
685.340	0.0181473
685.418	0.0181905
685.496	0.0181940
685.574	0.0182506
685.652	0.0182583
685.730	0.0181392
685.808	0.0182726
685.887	0.0181166
685.965	0.0180928
686.043	0.0181664
686.121	0.0182713
686.199	0.0181402
686.277	0.0179781
686.355	0.0181755
686.433	0.0180506
686.512	0.0179473
686.590	0.0179902
686.668	0.0179465
686.746	0.0180886
686.824	0.0180100
686.902	0.0179559
686.980	0.0179398
687.058	0.0179845
687.137	0.0179848
687.215	0.0179393
687.293	0.0180564
687.371	0.0178851
687.449	0.0179016
687.527	0.0178691
687.605	0.0180484
687.683	0.0179864
687.762	0.0181274
687.840	0.0179902
687.918	0.0180390
687.996	0.0180793
688.074	0.0182117
688.152	0.0180628
688.230	0.0181434
688.308	0.0181695
688.387	0.0180798
688.465	0.0181966
688.543	0.0181712
688.621	0.0180384
688.699	0.0182043
688.777	0.0179972
688.855	0.0180183
688.933	0.0178892
689.012	0.0179393
689.090	0.0177805
689.168	0.0180485
689.246	0.0179782
689.324	0.0179222
689.402	0.0179042
689.480	0.0180006
689.558	0.0178814
689.637	0.0179966
689.715	0.0177949
689.793	0.0179479
689.871	0.0176956
689.949	0.0176672
690.027	0.0178011
690.105	0.0178597
690.183	0.0177003
690.262	0.0177810
690.340	0.0178938
690.418	0.0178923
690.496	0.0178907
690.574	0.0178989
690.652	0.0179622
690.730	0.0179539
690.808	0.0179638
690.887	0.0179203
690.965	0.0179188
691.043	0.0180070
691.121	0.0180455
691.199	0.0180847
691.277	0.0181421
691.355	0.0180083
691.433	0.0179929
691.512	0.0180978
691.590	0.0181497
691.668	0.0182877
691.746	0.0182088
691.824	0.0181814
691.902	0.0182053
691.980	0.0181940
692.058	0.0182339
692.137	0.0180682
692.215	0.0181263
692.293	0.0182738
692.371	0.0180553
692.449	0.0181166
692.527	0.0180845
692.605	0.0180305
692.683	0.0180964
692.762	0.0179394
692.840	0.0180385
692.918	0.0178036
692.996	0.0178580
693.074	0.0179273
693.152	0.0178162
693.230	0.0177520
693.308	0.0177200
693.387	0.0178535
693.465	0.0178687
693.543	0.0176468
693.621	0.0177596
693.699	0.0177540
693.777	0.0177073
693.855	0.0179073
693.933	0.0177528
694.012	0.0177361
694.090	0.0176730
694.168	0.0177763
694.246	0.0179218
694.324	0.0178664
694.402	0.0179591
694.480	0.0178940
694.558	0.0178514
694.637	0.0177480
694.715	0.0180680
694.793	0.0179783
694.871	0.0178802
694.949	0.0180169
695.027	0.0180695
695.105	0.0180307
695.183	0.0178930
695.262	0.0178687
695.340	0.0179147
695.418	0.0179713
695.496	0.0181445
695.574	0.0180409
695.652	0.0180270
695.730	0.0181211
695.808	0.0180206
695.887	0.0179134
695.965	0.0179968
696.043	0.0180282
696.121	0.0179423
696.199	0.0179628
696.277	0.0179604
696.355	0.0179213
696.433	0.0178352
696.512	0.0178591
696.590	0.0178628
696.668	0.0179283
696.746	0.0177897
696.824	0.0177528
696.902	0.0178768
696.980	0.0177843
697.058	0.0178152
697.137	0.0177170
697.215	0.0177165
697.293	0.0178201
697.371	0.0179844
697.449	0.0177715
697.527	0.0178435
697.605	0.0179268
697.683	0.0178439
697.762	0.0181284
697.840	0.0178870
697.918	0.0179191
697.996	0.0179483
698.074	0.0180070
698.152	0.0179041
698.230	0.0179062
698.308	0.0179750
698.387	0.0180350
698.465	0.0179878
698.543	0.0180323
698.621	0.0180762
698.699	0.0181544
698.777	0.0180354
698.855	0.0180331
698.933	0.0181776
699.012	0.0181304
699.090	0.0181723
699.168	0.0181441
699.246	0.0179796
699.324	0.0180322
699.402	0.0179756
699.480	0.0177837
699.558	0.0178728
699.637	0.0178630
699.715	0.0176880
699.793	0.0176874
699.871	0.0175760
699.949	0.0175480
700.027	0.0176270
700.105	0.0174879
700.183	0.0173550
700.262	0.0174547
700.340	0.0174407
700.418	0.0175373
700.496	0.0174913
700.574	0.0175952
700.652	0.0175439
700.730	0.0175390
700.808	0.0176556
700.887	0.0175284
700.965	0.0176399
701.043	0.0177090
701.121	0.0178083
701.199	0.0178074
701.277	0.0178938
701.355	0.0179775
701.433	0.0178305
701.512	0.0179253
701.590	0.0178803
701.668	0.0179278
701.746	0.0179897
701.824	0.0179669
701.902	0.0180265
701.980	0.0182001
702.058	0.0180692
702.137	0.0179828
702.215	0.0180078
702.293	0.0179962
702.371	0.0179016
702.449	0.0178996
702.527	0.0180312
702.605	0.0179570
702.683	0.0179369
702.762	0.0179469
702.840	0.0178740
702.918	0.0178004
702.996	0.0178819
703.074	0.0178556
703.152	0.0178960
703.230	0.0179842
703.308	0.0178948
703.387	0.0177741
703.465	0.0179249
703.543	0.0177802
703.621	0.0179030
703.699	0.0179706
703.777	0.0179417
703.855	0.0178928
703.933	0.0179073
704.012	0.0178128
704.090	0.0177701
704.168	0.0179307
704.246	0.0179472
704.324	0.0178039
704.402	0.0178280
704.480	0.0178562
704.558	0.0178437
704.637	0.0179213
704.715	0.0176878
704.793	0.0177865
704.871	0.0178712
704.949	0.0179044
705.027	0.0179218
705.105	0.0177916
705.183	0.0178657
705.262	0.0178853
705.340	0.0178352
705.418	0.0178429
705.496	0.0177617
705.574	0.0178828
705.652	0.0179146
705.730	0.0178796
705.808	0.0178709
705.887	0.0178260
705.965	0.0178590
706.043	0.0178255
706.121	0.0178210
706.199	0.0178136
706.277	0.0176936
706.355	0.0175959
706.433	0.0175707
706.512	0.0175906
706.590	0.0175961
706.668	0.0176213
706.746	0.0175077
706.824	0.0173567
706.902	0.0174050
706.980	0.0176550
707.058	0.0177670
707.137	0.0175748
707.215	0.0176811
707.293	0.0177998
707.371	0.0178138
707.449	0.0180888
707.527	0.0180410
707.605	0.0180748
707.683	0.0181658
707.762	0.0182880
707.840	0.0183454
707.918	0.0183503
707.996	0.0185104
708.074	0.0183527
708.152	0.0182527
708.230	0.0184901
708.308	0.0183916
708.387	0.0183339
708.465	0.0182767
708.543	0.0181527
708.621	0.0181433
708.699	0.0180360
708.777	0.0179684
708.855	0.0179039
708.933	0.0177583
709.012	0.0176852
709.090	0.0175941
709.168	0.0176367
709.246	0.0177139
709.324	0.0176423
709.402	0.0175066
709.480	0.0175172
709.558	0.0177783
709.637	0.0176747
709.715	0.0178010
709.793	0.0175675
709.871	0.0177904
709.949	0.0179028
710.027	0.0178871
710.105	0.0181950
710.183	0.0181704
710.262	0.0181155
710.340	0.0180737
710.418	0.0182414
710.496	0.0183521
710.574	0.0182011
710.652	0.0183974
710.730	0.0182620
710.808	0.0183845
710.887	0.0183652
710.965	0.0183171
711.043	0.0182640
711.121	0.0180599
711.199	0.0184707
711.277	0.0183639
711.355	0.0182440
711.433	0.0181248
711.512	0.0180046
711.590	0.0179997
711.668	0.0179381
711.746	0.0176588
711.824	0.0176604
711.902	0.0177466
711.980	0.0176045
712.058	0.0173970
712.137	0.0173806
712.215	0.0173095
712.293	0.0174517
712.371	0.0174538
712.449	0.0171791
712.527	0.0174821
712.605	0.0175191
712.683	0.0176097
712.762	0.0176199
712.840	0.0176051
712.918	0.0178368
712.996	0.0177275
713.074	0.0176629
713.152	0.0178368
713.230	0.0179253
713.308	0.0177807
713.387	0.0178339
713.465	0.0178152
713.543	0.0177425
713.621	0.0177904
713.699	0.0178198
713.777	0.0176210
713.855	0.0178073
713.933	0.0177300
714.012	0.0178302
714.090	0.0176570
714.168	0.0177579
714.246	0.0177265
714.324	0.0178302
714.402	0.0177271
714.480	0.0177048
714.558	0.0177524
714.637	0.0178136
714.715	0.0177748
714.793	0.0178641
714.871	0.0179359
714.949	0.0179858
715.027	0.0180228
715.105	0.0180709
715.183	0.0180685
715.262	0.0180828
715.340	0.0181068
715.418	0.0182520
715.496	0.0182108
715.574	0.0182308
715.652	0.0181624
715.730	0.0183600
715.808	0.0183532
715.887	0.0181807
715.965	0.0182309
716.043	0.0181051
716.121	0.0182217
716.199	0.0181164
716.277	0.0181159
716.355	0.0180857
716.433	0.0179780
716.512	0.0180499
716.590	0.0179430
716.668	0.0178852
716.746	0.0179336
716.824	0.0178861
716.902	0.0175840
716.980	0.0176145
717.058	0.0174850
717.137	0.0175523
717.215	0.0175793
717.293	0.0174895
717.371	0.0175174
717.449	0.0174805
717.527	0.0174135
717.605	0.0175983
717.683	0.0174574
717.762	0.0174064
717.840	0.0175269
717.918	0.0176296
717.996	0.0174406
718.074	0.0175932
718.152	0.0176300
718.230	0.0175188
718.308	0.0178062
718.387	0.0178165
718.465	0.0177187
718.543	0.0178056
718.621	0.0178275
718.699	0.0178005
718.777	0.0178307
718.855	0.0179538
718.933	0.0178175
719.012	0.0178371
719.090	0.0180716
719.168	0.0179335
719.246	0.0180424
719.324	0.0179467
719.402	0.0178674
719.480	0.0180521
719.558	0.0180132
719.637	0.0181030
719.715	0.0178902
719.793	0.0179772
719.871	0.0180675
719.949	0.0180910
720.027	0.0178088
720.105	0.0178159
720.183	0.0179207
720.262	0.0178378
720.340	0.0177280
720.418	0.0176834
720.496	0.0176588
720.574	0.0175549
720.652	0.0174686
720.730	0.0175356
720.808	0.0175383
720.887	0.0174261
720.965	0.0173367
721.043	0.0173707
721.121	0.0173180
721.199	0.0174176
721.277	0.0172954
721.355	0.0174635
721.433	0.0173155
721.512	0.0172499
721.590	0.0175065
721.668	0.0177473
721.746	0.0176905
721.824	0.0177325
721.902	0.0177892
721.980	0.0180473
722.058	0.0181047
722.137	0.0181581
722.215	0.0181773
722.293	0.0183839
722.371	0.0182950
722.449	0.0183382
722.527	0.0183622
722.605	0.0182719
722.683	0.0183631
722.762	0.0184834
722.840	0.0184426
722.918	0.0181901
722.996	0.0182290
723.074	0.0182429
723.152	0.0180009
723.230	0.0180659
723.308	0.0180054
723.387	0.0178874
723.465	0.0177103
723.543	0.0177537
723.621	0.0175951
723.699	0.0176405
723.777	0.0175287
723.855	0.0174321
723.933	0.0174421
724.012	0.0173650
724.090	0.0173286
724.168	0.0172919
724.246	0.0172297
724.324	0.0171415
724.402	0.0171939
724.480	0.0173380
724.558	0.0174137
724.637	0.0173541
724.715	0.0175370
724.793	0.0176242
724.871	0.0176952
724.949	0.0177608
725.027	0.0178065
725.105	0.0177161
725.183	0.0178969
725.262	0.0179372
725.340	0.0179489
725.418	0.0180162
725.496	0.0179317
725.574	0.0179985
725.652	0.0179158
725.730	0.0180336
725.808	0.0179243
725.887	0.0179901
725.965	0.0179021
726.043	0.0178653
726.121	0.0179765
726.199	0.0181277
726.277	0.0181951
726.355	0.0179154
726.433	0.0179910
726.512	0.0180505
726.590	0.0179897
726.668	0.0179802
726.746	0.0181133
726.824	0.0180949
726.902	0.0179029
726.980	0.0177141
727.058	0.0177291
727.137	0.0177399
727.215	0.0177013
727.293	0.0176983
727.371	0.0173578
727.449	0.0173460
727.527	0.0175347
727.605	0.0174191
727.683	0.0173737
727.762	0.0172871
727.840	0.0172754
727.918	0.0175488
727.996	0.0175011
728.074	0.0175375
728.152	0.0177068
728.230	0.0176272
728.308	0.0177387
728.387	0.0178289
728.465	0.0178600
728.543	0.0179393
728.621	0.0180022
728.699	0.0182460
728.777	0.0181900
728.855	0.0183003
728.933	0.0183023
729.012	0.0184147
729.090	0.0184916
729.168	0.0184533
729.246	0.0183735
729.324	0.0184737
729.402	0.0184427
729.480	0.0182519
729.558	0.0182681
729.637	0.0180725
729.715	0.0181957
729.793	0.0181940
729.871	0.0180494
729.949	0.0179014
730.027	0.0179388
730.105	0.0178600
730.183	0.0178671
730.262	0.0177904
730.340	0.0178278
730.418	0.0176970
730.496	0.0177130
730.574	0.0177284
730.652	0.0176965
730.730	0.0176051
730.808	0.0176425
730.887	0.0175787
730.965	0.0177536
731.043	0.0177308
731.121	0.0175695
731.199	0.0175461
731.277	0.0175320
731.355	0.0176369
731.433	0.0175552
731.512	0.0174538
731.590	0.0174883
731.668	0.0175706
731.746	0.0175395
731.824	0.0175467
731.902	0.0175059
731.980	0.0174622
732.058	0.0175590
732.137	0.0175032
732.215	0.0174436
732.293	0.0174385
732.371	0.0174866
732.449	0.0174657
732.527	0.0173676
732.605	0.0174022
732.683	0.0174540
732.762	0.0174316
732.840	0.0175459
732.918	0.0176390
732.996	0.0177400
733.074	0.0178165
733.152	0.0178872
733.230	0.0180225
733.308	0.0178928
733.387	0.0181866
733.465	0.0184084
733.543	0.0183308
733.621	0.0184222
733.699	0.0185997
733.777	0.0187720
733.855	0.0186707
733.933	0.0187660
734.012	0.0186665
734.090	0.0187840
734.168	0.0187087
734.246	0.0185944
734.324	0.0185087
734.402	0.0183440
734.480	0.0182793
734.558	0.0182887
734.637	0.0180752
734.715	0.0180371
734.793	0.0178455
734.871	0.0175949
734.949	0.0174587
735.027	0.0172389
735.105	0.0172330
735.183	0.0170679
735.262	0.0171072
735.340	0.0169525
735.418	0.0168533
735.496	0.0169548
735.574	0.0169190
735.652	0.0169799
735.730	0.0170296
735.808	0.0170679
735.887	0.0170326
735.965	0.0172057
736.043	0.0170552
736.121	0.0173158
736.199	0.0173956
736.277	0.0174240
736.355	0.0174192
736.433	0.0174928
736.512	0.0174825
736.590	0.0176186
736.668	0.0176096
736.746	0.0177386
736.824	0.0177503
736.902	0.0178042
736.980	0.0178444
737.058	0.0178548
737.137	0.0178914
737.215	0.0180169
737.293	0.0181334
737.371	0.0181773
737.449	0.0181570
737.527	0.0182198
737.605	0.0181996
737.683	0.0183424
737.762	0.0183518
737.840	0.0182968
737.918	0.0183141
737.996	0.0182695
738.074	0.0181448
738.152	0.0182676
738.230	0.0182527
738.308	0.0181026
738.387	0.0181042
738.465	0.0180888
738.543	0.0181184
738.621	0.0181264
738.699	0.0180607
738.777	0.0180080
738.855	0.0179737
738.933	0.0179848
739.012	0.0179339
739.090	0.0179385
739.168	0.0177432
739.246	0.0178091
739.324	0.0175906
739.402	0.0176949
739.480	0.0177608
739.558	0.0175939
739.637	0.0176127
739.715	0.0174969
739.793	0.0176366
739.871	0.0176476
739.949	0.0175705
740.027	0.0176440
740.105	0.0176398
740.183	0.0176427
740.262	0.0175726
740.340	0.0175730
740.418	0.0175175
740.496	0.0175233
740.574	0.0175395
740.652	0.0174491
740.730	0.0173991
740.808	0.0173406
740.887	0.0175659
740.965	0.0175154
741.043	0.0176362
741.121	0.0176247
741.199	0.0178548
741.277	0.0176678
741.355	0.0176781
741.433	0.0178504
741.512	0.0179088
741.590	0.0179527
741.668	0.0180869
741.746	0.0181329
741.824	0.0181209
741.902	0.0180529
741.980	0.0180503
742.058	0.0180212
742.137	0.0181963
742.215	0.0179784
742.293	0.0179400
742.371	0.0180822
742.449	0.0181017
742.527	0.0180245
742.605	0.0181161
742.683	0.0181858
742.762	0.0179873
742.840	0.0179523
742.918	0.0179763
742.996	0.0179897
743.074	0.0179156
743.152	0.0177759
743.230	0.0179816
743.308	0.0180347
743.387	0.0179626
743.465	0.0179305
743.543	0.0179491
743.621	0.0179384
743.699	0.0179375
743.777	0.0178714
743.855	0.0179913
743.933	0.0180225
744.012	0.0180453
744.090	0.0181858
744.168	0.0181355
744.246	0.0180826
744.324	0.0180130
744.402	0.0179988
744.480	0.0180453
744.558	0.0180927
744.637	0.0181287
744.715	0.0180854
744.793	0.0179213
744.871	0.0178108
744.949	0.0180244
745.027	0.0180132
745.105	0.0179758
745.183	0.0178271
745.262	0.0178865
745.340	0.0177669
745.418	0.0178873
745.496	0.0177701
745.574	0.0177155
745.652	0.0177670
745.730	0.0176217
745.808	0.0177062
745.887	0.0175919
745.965	0.0175967
746.043	0.0176508
746.121	0.0175471
746.199	0.0175169
746.277	0.0176468
746.355	0.0174572
746.433	0.0174349
746.512	0.0174784
746.590	0.0174355
746.668	0.0176009
746.746	0.0175737
746.824	0.0174242
746.902	0.0174332
746.980	0.0176486
747.058	0.0177096
747.137	0.0176373
747.215	0.0175481
747.293	0.0177604
747.371	0.0178551
747.449	0.0177795
747.527	0.0180200
747.605	0.0180049
747.683	0.0179157
747.762	0.0180065
747.840	0.0181688
747.918	0.0181726
747.996	0.0180271
748.074	0.0181869
748.152	0.0180785
748.230	0.0180379
748.308	0.0181457
748.387	0.0181615
748.465	0.0180838
748.543	0.0179232
748.621	0.0180045
748.699	0.0178748
748.777	0.0180083
748.855	0.0179560
748.933	0.0180055
749.012	0.0179217
749.090	0.0178860
749.168	0.0178639
749.246	0.0178720
749.324	0.0178149
749.402	0.0179521
749.480	0.0178904
749.558	0.0178748
749.637	0.0177923
749.715	0.0178069
749.793	0.0177220
749.871	0.0175022
749.949	0.0177679
750.027	0.0177133
750.105	0.0177013
750.183	0.0177218
750.262	0.0176829
750.340	0.0177140
750.418	0.0175341
750.496	0.0176492
750.574	0.0177405
750.652	0.0178596
750.730	0.0178129
750.808	0.0178801
750.887	0.0179861
750.965	0.0180448
751.043	0.0179725
751.121	0.0178941
751.199	0.0179820
751.277	0.0179060
751.355	0.0179005
751.433	0.0179844
751.512	0.0178764
751.590	0.0179157
751.668	0.0178976
751.746	0.0179688
751.824	0.0178856
751.902	0.0180145
751.980	0.0181423
752.058	0.0182056
752.137	0.0181553
752.215	0.0180377
752.293	0.0180543
752.371	0.0182094
752.449	0.0180507
752.527	0.0180043
752.605	0.0179636
752.683	0.0179424
752.762	0.0179418
752.840	0.0178802
752.918	0.0179194
752.996	0.0178150
753.074	0.0177657
753.152	0.0176669
753.230	0.0175532
753.308	0.0176016
753.387	0.0176263
753.465	0.0176650
753.543	0.0176855
753.621	0.0176179
753.699	0.0175988
753.777	0.0178084
753.855	0.0176958
753.933	0.0177995
754.012	0.0178417
754.090	0.0178904
754.168	0.0179224
754.246	0.0178764
754.324	0.0178241
754.402	0.0178495
754.480	0.0178770
754.558	0.0177824
754.637	0.0177568
754.715	0.0178543
754.793	0.0178703
754.871	0.0178938
754.949	0.0178617
755.027	0.0179098
755.105	0.0178517
755.183	0.0179340
755.262	0.0179725
755.340	0.0177606
755.418	0.0180055
755.496	0.0181445
755.574	0.0182423
755.652	0.0181648
755.730	0.0180152
755.808	0.0179710
755.887	0.0180457
755.965	0.0180815
756.043	0.0178899
756.121	0.0179061
756.199	0.0180808
756.277	0.0179689
756.355	0.0179671
756.433	0.0179182
756.512	0.0178246
756.590	0.0178764
756.668	0.0179485
756.746	0.0178711
756.824	0.0178255
756.902	0.0178416
756.980	0.0178693
757.058	0.0178658
757.137	0.0177412
757.215	0.0178928
757.293	0.0178931
757.371	0.0179125
757.449	0.0179095
757.527	0.0177526
757.605	0.0178906
757.683	0.0179623
757.762	0.0178262
757.840	0.0178176
757.918	0.0179198
757.996	0.0177161
758.074	0.0176707
758.152	0.0176176
758.230	0.0176534
758.308	0.0177089
758.387	0.0177402
758.465	0.0176450
758.543	0.0176673
758.621	0.0175288
758.699	0.0177067
758.777	0.0176363
758.855	0.0177076
758.933	0.0176569
759.012	0.0176411
759.090	0.0178174
759.168	0.0175343
759.246	0.0177006
759.324	0.0176005
759.402	0.0175762
759.480	0.0176559
759.558	0.0176254
759.637	0.0176830
759.715	0.0177039
759.793	0.0176830
759.871	0.0177055
759.949	0.0178065
760.027	0.0176974
760.105	0.0176447
760.183	0.0177776
760.262	0.0177626
760.340	0.0177095
760.418	0.0178135
760.496	0.0177938
760.574	0.0177905
760.652	0.0178502
760.730	0.0177666
760.808	0.0178441
760.887	0.0178316
760.965	0.0179477
761.043	0.0178374
761.121	0.0179494
761.199	0.0179768
761.277	0.0180315
761.355	0.0179836
761.433	0.0179705
761.512	0.0179931
761.590	0.0179997
761.668	0.0179971
761.746	0.0179259
761.824	0.0179908
761.902	0.0179869
761.980	0.0181525
762.058	0.0181821
762.137	0.0181927
762.215	0.0180938
762.293	0.0181525
762.371	0.0180165
762.449	0.0180997
762.527	0.0180470
762.605	0.0180244
762.683	0.0181691
762.762	0.0179038
762.840	0.0179336
762.918	0.0181309
762.996	0.0181419
763.074	0.0180720
763.152	0.0179277
763.230	0.0179539
763.308	0.0180284
763.387	0.0180328
763.465	0.0180640
763.543	0.0179830
763.621	0.0180330
763.699	0.0178800
763.777	0.0178898
763.855	0.0178833
763.933	0.0178460
764.012	0.0177639
764.090	0.0177335
764.168	0.0176593
764.246	0.0176570
764.324	0.0175839
764.402	0.0176216
764.480	0.0174017
764.558	0.0175175
764.637	0.0176917
764.715	0.0176836
764.793	0.0177454
764.871	0.0177628
764.949	0.0174689
765.027	0.0178920
765.105	0.0178784
765.183	0.0178678
765.262	0.0180878
765.340	0.0180061
765.418	0.0180642
765.496	0.0181731
765.574	0.0183531
765.652	0.0183128
765.730	0.0182118
765.808	0.0182361
765.887	0.0182337
765.965	0.0182594
766.043	0.0182524
766.121	0.0181921
766.199	0.0181390
766.277	0.0180298
766.355	0.0181087
766.433	0.0180301
766.512	0.0178982
766.590	0.0180719
766.668	0.0180831
766.746	0.0178704
766.824	0.0180167
766.902	0.0179085
766.980	0.0179379
767.058	0.0179602
767.137	0.0179781
767.215	0.0180609
767.293	0.0180804
767.371	0.0180659
767.449	0.0178092
767.527	0.0180724
767.605	0.0180318
767.683	0.0178844
767.762	0.0180668
767.840	0.0179370
767.918	0.0179287
767.996	0.0177674
768.074	0.0178954
768.152	0.0178670
768.230	0.0177830
768.308	0.0177417
768.387	0.0179586
768.465	0.0178396
768.543	0.0176897
768.621	0.0178764
768.699	0.0178614
768.777	0.0178234
768.855	0.0178784
768.933	0.0178546
769.012	0.0178317
769.090	0.0178423
769.168	0.0178378
769.246	0.0177517
769.324	0.0178735
769.402	0.0179694
769.480	0.0179031
769.558	0.0178047
769.637	0.0178166
769.715	0.0179723
769.793	0.0178391
769.871	0.0178185
769.949	0.0178370
770.027	0.0179398
770.105	0.0178191
770.183	0.0178540
770.262	0.0179255
770.340	0.0180906
770.418	0.0179213
770.496	0.0180729
770.574	0.0182063
770.652	0.0182225
770.730	0.0181625
770.808	0.0182442
770.887	0.0184556
770.965	0.0181528
771.043	0.0180784
771.121	0.0182655
771.199	0.0183025
771.277	0.0181860
771.355	0.0180717
771.433	0.0180864
771.512	0.0180125
771.590	0.0179705
771.668	0.0178573
771.746	0.0178916
771.824	0.0177775
771.902	0.0177827
771.980	0.0176582
772.058	0.0177020
772.137	0.0178329
772.215	0.0177545
772.293	0.0177480
772.371	0.0177383
772.449	0.0177126
772.527	0.0176565
772.605	0.0177993
772.683	0.0177398
772.762	0.0178336
772.840	0.0178745
772.918	0.0180733
772.996	0.0179714
773.074	0.0180132
773.152	0.0179435
773.230	0.0178471
773.308	0.0179874
773.387	0.0180706
773.465	0.0180109
773.543	0.0177959
773.621	0.0179778
773.699	0.0181345
773.777	0.0179252
773.855	0.0179716
773.933	0.0180291
774.012	0.0179937
774.090	0.0180135
774.168	0.0180038
774.246	0.0178819
774.324	0.0179399
774.402	0.0179836
774.480	0.0180112
774.558	0.0180528
774.637	0.0179765
774.715	0.0180830
774.793	0.0179558
774.871	0.0180634
774.949	0.0179334
775.027	0.0180477
775.105	0.0179944
775.183	0.0180196
775.262	0.0180201
775.340	0.0179578
775.418	0.0179785
775.496	0.0177958
775.574	0.0180325
775.652	0.0180599
775.730	0.0178618
775.808	0.0179169
775.887	0.0179343
775.965	0.0178571
776.043	0.0178540
776.121	0.0177344
776.199	0.0178483
776.277	0.0177724
776.355	0.0178156
776.433	0.0178585
776.512	0.0180206
776.590	0.0178072
776.668	0.0178973
776.746	0.0179762
776.824	0.0177837
776.902	0.0180289
776.980	0.0178813
777.058	0.0180184
777.137	0.0178854
777.215	0.0179008
777.293	0.0178184
777.371	0.0177823
777.449	0.0177847
777.527	0.0178915
777.605	0.0177084
777.683	0.0176888
777.762	0.0177419
777.840	0.0177524
777.918	0.0178117
777.996	0.0178253
778.074	0.0178002
778.152	0.0178848
778.230	0.0179879
778.308	0.0178638
778.387	0.0178544
778.465	0.0178890
778.543	0.0179095
778.621	0.0180676
778.699	0.0180329
778.777	0.0180898
778.855	0.0179823
778.933	0.0180656
779.012	0.0181226
779.090	0.0179764
779.168	0.0180482
779.246	0.0180285
779.324	0.0179868
779.402	0.0178889
779.480	0.0178976
779.558	0.0178023
779.637	0.0176981
779.715	0.0176334
779.793	0.0177250
779.871	0.0175787
779.949	0.0177284
780.027	0.0176704
780.105	0.0177381
780.183	0.0176595
780.262	0.0176151
780.340	0.0176638
780.418	0.0177286
780.496	0.0177087
780.574	0.0177150
780.652	0.0177710
780.730	0.0178294
780.808	0.0178278
780.887	0.0179626
780.965	0.0179595
781.043	0.0178268
781.121	0.0179376
781.199	0.0180292
781.277	0.0181208
781.355	0.0180459
781.433	0.0180234
781.512	0.0180087
781.590	0.0181609
781.668	0.0181270
781.746	0.0181037
781.824	0.0181253
781.902	0.0181298
781.980	0.0180336
782.058	0.0179338
782.137	0.0180052
782.215	0.0179347
782.293	0.0178070
782.371	0.0178233
782.449	0.0177813
782.527	0.0176346
782.605	0.0177471
782.683	0.0177509
782.762	0.0178207
782.840	0.0176159
782.918	0.0176958
782.996	0.0176884
783.074	0.0176902
783.152	0.0175406
783.230	0.0176459
783.308	0.0177048
783.387	0.0177748
783.465	0.0177712
783.543	0.0177019
783.621	0.0177608
783.699	0.0176420
783.777	0.0176739
783.855	0.0177059
783.933	0.0178772
784.012	0.0178417
784.090	0.0177081
784.168	0.0179782
784.246	0.0178979
784.324	0.0179533
784.402	0.0180434
784.480	0.0180824
784.558	0.0181219
784.637	0.0180932
784.715	0.0181024
784.793	0.0179940
784.871	0.0181515
784.949	0.0179749
785.027	0.0182088
785.105	0.0180628
785.183	0.0180241
785.262	0.0180386
785.340	0.0180175
785.418	0.0180631
785.496	0.0178794
785.574	0.0179321
785.652	0.0180851
785.730	0.0179935
785.808	0.0180022
785.887	0.0179533
785.965	0.0179977
786.043	0.0179020
786.121	0.0179227
786.199	0.0178565
786.277	0.0178145
786.355	0.0178033
786.433	0.0176698
786.512	0.0177676
786.590	0.0178640
786.668	0.0178810
786.746	0.0177982
786.824	0.0177444
786.902	0.0177599
786.980	0.0178721
787.058	0.0178764
787.137	0.0176912
787.215	0.0177274
787.293	0.0178681
787.371	0.0178676
787.449	0.0179361
787.527	0.0179659
787.605	0.0178956
787.683	0.0179891
787.762	0.0177856
787.840	0.0178096
787.918	0.0178280
787.996	0.0179428
788.074	0.0179379
788.152	0.0178629
788.230	0.0177511
788.308	0.0179582
788.387	0.0178721
788.465	0.0178062
788.543	0.0178227
788.621	0.0178373
788.699	0.0178198
788.777	0.0178484
788.855	0.0177419
788.933	0.0178153
789.012	0.0177128
789.090	0.0177171
789.168	0.0176689
789.246	0.0178042
789.324	0.0177418
789.402	0.0177687
789.480	0.0178075
789.558	0.0177471
789.637	0.0176259
789.715	0.0177131
789.793	0.0178342
789.871	0.0179482
789.949	0.0178088
790.027	0.0179913
790.105	0.0178072
790.183	0.0178411
790.262	0.0179156
790.340	0.0179949
790.418	0.0179392
790.496	0.0179001
790.574	0.0178645
790.652	0.0178029
790.730	0.0179794
790.808	0.0179629
790.887	0.0179173
790.965	0.0178323
791.043	0.0178809
791.121	0.0178414
791.199	0.0179094
791.277	0.0177592
791.355	0.0178400
791.433	0.0177188
791.512	0.0179095
791.590	0.0178573
791.668	0.0177714
791.746	0.0177957
791.824	0.0177598
791.902	0.0179876
791.980	0.0178532
792.058	0.0178670
792.137	0.0178376
792.215	0.0179210
792.293	0.0178286
792.371	0.0178931
792.449	0.0178216
792.527	0.0179268
792.605	0.0178026
792.683	0.0178073
792.762	0.0178949
792.840	0.0178510
792.918	0.0178179
792.996	0.0178962
793.074	0.0179593
793.152	0.0177866
793.230	0.0177771
793.308	0.0178777
793.387	0.0178623
793.465	0.0178650
793.543	0.0180013
793.621	0.0179368
793.699	0.0178386
793.777	0.0179611
793.855	0.0179983
793.933	0.0179200
794.012	0.0180877
794.090	0.0179778
794.168	0.0179992
794.246	0.0181158
794.324	0.0179971
794.402	0.0180965
794.480	0.0179979
794.558	0.0180003
794.637	0.0180919
794.715	0.0179010
794.793	0.0178822
794.871	0.0179259
794.949	0.0180775
795.027	0.0180637
795.105	0.0178176
795.183	0.0178294
795.262	0.0178606
795.340	0.0178706
795.418	0.0179932
795.496	0.0178252
795.574	0.0177878
795.652	0.0176550
795.730	0.0177238
795.808	0.0177698
795.887	0.0177419
795.965	0.0177749
796.043	0.0178765
796.121	0.0177150
796.199	0.0176794
796.277	0.0177554
796.355	0.0178182
796.433	0.0178986
796.512	0.0180285
796.590	0.0178537
796.668	0.0178902
796.746	0.0179427
796.824	0.0178540
796.902	0.0177158
796.980	0.0180000
797.058	0.0179723
797.137	0.0178543
797.215	0.0179306
797.293	0.0179528
797.371	0.0179447
797.449	0.0179459
797.527	0.0177982
797.605	0.0179681
797.683	0.0178928
797.762	0.0178734
797.840	0.0180200
797.918	0.0181007
797.996	0.0180383
798.074	0.0180570
798.152	0.0180891
798.230	0.0180656
798.308	0.0179553
798.387	0.0179017
798.465	0.0180246
798.543	0.0180305
798.621	0.0180059
798.699	0.0179994
798.777	0.0178540
798.855	0.0179333
798.933	0.0179732
799.012	0.0180596
799.090	0.0178934
799.168	0.0177360
799.246	0.0177272
799.324	0.0178686
799.402	0.0177496
799.480	0.0177152
799.558	0.0177677
799.637	0.0178566
799.715	0.0178207
799.793	0.0178435
799.871	0.0178811
799.949	0.0179205
800.027	0.0179257
800.105	0.0179263
800.183	0.0180180
800.262	0.0180171
800.340	0.0178430
800.418	0.0178835
800.496	0.0180617
800.574	0.0179072
800.652	0.0179791
800.730	0.0178564
800.808	0.0179964
800.887	0.0178825
800.965	0.0179106
801.043	0.0179214
801.121	0.0180425
801.199	0.0178033
801.277	0.0177040
801.355	0.0179141
801.433	0.0178489
801.512	0.0178458
801.590	0.0178265
801.668	0.0178696
801.746	0.0177784
801.824	0.0177779
801.902	0.0177219
801.980	0.0179521
802.058	0.0179166
802.137	0.0179523
802.215	0.0180115
802.293	0.0178865
802.371	0.0178551
802.449	0.0179255
802.527	0.0179317
802.605	0.0178396
802.683	0.0180128
802.762	0.0179105
802.840	0.0178312
802.918	0.0179481
802.996	0.0178919
803.074	0.0178274
803.152	0.0178780
803.230	0.0178888
803.308	0.0178168
803.387	0.0178780
803.465	0.0177605
803.543	0.0177055
803.621	0.0178825
803.699	0.0179494
803.777	0.0176774
803.855	0.0177916
803.933	0.0178152
804.012	0.0177664
804.090	0.0177399
804.168	0.0177847
804.246	0.0178446
804.324	0.0178286
804.402	0.0178192
804.480	0.0177565
804.558	0.0176942
804.637	0.0178172
804.715	0.0177554
804.793	0.0176656
804.871	0.0177895
804.949	0.0178652
805.027	0.0178972
805.105	0.0179572
805.183	0.0178120
805.262	0.0177058
805.340	0.0177860
805.418	0.0179919
805.496	0.0178811
805.574	0.0178545
805.652	0.0179759
805.730	0.0178577
805.808	0.0177802
805.887	0.0180350
805.965	0.0179292
806.043	0.0179921
806.121	0.0179456
806.199	0.0179120
806.277	0.0179251
806.355	0.0179762
806.433	0.0180856
806.512	0.0179681
806.590	0.0180318
806.668	0.0178581
806.746	0.0180475
806.824	0.0180922
806.902	0.0180976
806.980	0.0180215
807.058	0.0178815
807.137	0.0179000
807.215	0.0180223
807.293	0.0178815
807.371	0.0179154
807.449	0.0179402
807.527	0.0179120
807.605	0.0179319
807.683	0.0178936
807.762	0.0177651
807.840	0.0178546
807.918	0.0177728
807.996	0.0176572
808.074	0.0176392
808.152	0.0177078
808.230	0.0176366
808.308	0.0178557
808.387	0.0176575
808.465	0.0176443
808.543	0.0177737
808.621	0.0178261
808.699	0.0176715
808.777	0.0176805
808.855	0.0177509
808.933	0.0177169
809.012	0.0179144
809.090	0.0177919
809.168	0.0177932
809.246	0.0178374
809.324	0.0178017
809.402	0.0179727
809.480	0.0179042
809.558	0.0177878
809.637	0.0179951
809.715	0.0178714
809.793	0.0177354
809.871	0.0178663
809.949	0.0179581
810.027	0.0178114
810.105	0.0177839
810.183	0.0178333
810.262	0.0177591
810.340	0.0178139
810.418	0.0177746
810.496	0.0178169
810.574	0.0177936
810.652	0.0178214
810.730	0.0176649
810.808	0.0179700
810.887	0.0179083
810.965	0.0177336
811.043	0.0177288
811.121	0.0178765
811.199	0.0178471
811.277	0.0178201
811.355	0.0177969
811.433	0.0179604
811.512	0.0179602
811.590	0.0179642
811.668	0.0178951
811.746	0.0178620
811.824	0.0179076
811.902	0.0178661
811.980	0.0178653
812.058	0.0178342
812.137	0.0178466
812.215	0.0178033
812.293	0.0179132
812.371	0.0179508
812.449	0.0178754
812.527	0.0179352
812.605	0.0178267
812.683	0.0178699
812.762	0.0178842
812.840	0.0180373
812.918	0.0180089
812.996	0.0179467
813.074	0.0179630
813.152	0.0180098
813.230	0.0178651
813.308	0.0179392
813.387	0.0179558
813.465	0.0177758
813.543	0.0178277
813.621	0.0178277
813.699	0.0178204
813.777	0.0177110
813.855	0.0176271
813.933	0.0178122
814.012	0.0176619
814.090	0.0176887
814.168	0.0176581
814.246	0.0176761
814.324	0.0176720
814.402	0.0177228
814.480	0.0175553
814.558	0.0176508
814.637	0.0176222
814.715	0.0176967
814.793	0.0176619
814.871	0.0177231
814.949	0.0177275
815.027	0.0178228
815.105	0.0176936
815.183	0.0176672
815.262	0.0178368
815.340	0.0178936
815.418	0.0177385
815.496	0.0179425
815.574	0.0179030
815.652	0.0178563
815.730	0.0179256
815.808	0.0179230
815.887	0.0177303
815.965	0.0177617
816.043	0.0179350
816.121	0.0177470
816.199	0.0178188
816.277	0.0178971
816.355	0.0178207
816.433	0.0178449
816.512	0.0178599
816.590	0.0179894
816.668	0.0178593
816.746	0.0178493
816.824	0.0180209
816.902	0.0178304
816.980	0.0178108
817.058	0.0178752
817.137	0.0179782
817.215	0.0179275
817.293	0.0177808
817.371	0.0179105
817.449	0.0178161
817.527	0.0180455
817.605	0.0177594
817.683	0.0179567
817.762	0.0178454
817.840	0.0179510
817.918	0.0179215
817.996	0.0178480
818.074	0.0179081
818.152	0.0180206
818.230	0.0179160
818.308	0.0178311
818.387	0.0179550
818.465	0.0181030
818.543	0.0181097
818.621	0.0178954
818.699	0.0180011
818.777	0.0180992
818.855	0.0181587
818.933	0.0179417
819.012	0.0180318
819.090	0.0181202
819.168	0.0180029
819.246	0.0180019
819.324	0.0180322
819.402	0.0180837
819.480	0.0179595
819.558	0.0180546
819.637	0.0180563
819.715	0.0180951
819.793	0.0179099
819.871	0.0178239
819.949	0.0180534
820.027	0.0178717
820.105	0.0178348
820.183	0.0177850
820.262	0.0177853
820.340	0.0177855
820.418	0.0176862
820.496	0.0177332
820.574	0.0177650
820.652	0.0178283
820.730	0.0179539
820.808	0.0179725
820.887	0.0176888
820.965	0.0179601
821.043	0.0178973
821.121	0.0178374
821.199	0.0179687
821.277	0.0179668
821.355	0.0178693
821.433	0.0180097
821.512	0.0179655
821.590	0.0179752
821.668	0.0179372
821.746	0.0179855
821.824	0.0180379
821.902	0.0180396
821.980	0.0179285
822.058	0.0180582
822.137	0.0179647
822.215	0.0179733
822.293	0.0178428
822.371	0.0179213
822.449	0.0179460
822.527	0.0178658
822.605	0.0177265
822.683	0.0179391
822.762	0.0180750
822.840	0.0179781
822.918	0.0178289
822.996	0.0178575
823.074	0.0178844
823.152	0.0179832
823.230	0.0179050
823.308	0.0179446
823.387	0.0178350
823.465	0.0178475
823.543	0.0178349
823.621	0.0178854
823.699	0.0178980
823.777	0.0177621
823.855	0.0178111
823.933	0.0179089
824.012	0.0176602
824.090	0.0177782
824.168	0.0178492
824.246	0.0178826
824.324	0.0177690
824.402	0.0178393
824.480	0.0178376
824.558	0.0177841
824.637	0.0179145
824.715	0.0177204
824.793	0.0178789
824.871	0.0178790
824.949	0.0179177
825.027	0.0177737
825.105	0.0178078
825.183	0.0178805
825.262	0.0179156
825.340	0.0177921
825.418	0.0179595
825.496	0.0178394
825.574	0.0177505
825.652	0.0178220
825.730	0.0178308
825.808	0.0177730
825.887	0.0178041
825.965	0.0179155
826.043	0.0178259
826.121	0.0177942
826.199	0.0178662
826.277	0.0177882
826.355	0.0178495
826.433	0.0177832
826.512	0.0177758
826.590	0.0179024
826.668	0.0178921
826.746	0.0178476
826.824	0.0176791
826.902	0.0178246
826.980	0.0177958
827.058	0.0178637
827.137	0.0179030
827.215	0.0178760
827.293	0.0178990
827.371	0.0179205
827.449	0.0178365
827.527	0.0178617
827.605	0.0178503
827.683	0.0178362
827.762	0.0178151
827.840	0.0178777
827.918	0.0177987
827.996	0.0177631
828.074	0.0178081
828.152	0.0179662
828.230	0.0178846
828.308	0.0178326
828.387	0.0177501
828.465	0.0176907
828.543	0.0176824
828.621	0.0179440
828.699	0.0177766
828.777	0.0178958
828.855	0.0178757
828.933	0.0178298
829.012	0.0178494
829.090	0.0178822
829.168	0.0178342
829.246	0.0179022
829.324	0.0178655
829.402	0.0177210
829.480	0.0178468
829.558	0.0176723
829.637	0.0178532
829.715	0.0179638
829.793	0.0178699
829.871	0.0178839
829.949	0.0179578
830.027	0.0179826
830.105	0.0179212
830.183	0.0179187
830.262	0.0179677
830.340	0.0180524
830.418	0.0180567
830.496	0.0179269
830.574	0.0179759
830.652	0.0179152
830.730	0.0178010
830.808	0.0178144
830.887	0.0178306
830.965	0.0178989
831.043	0.0179816
831.121	0.0179041
831.199	0.0180357
831.277	0.0177685
831.355	0.0178394
831.433	0.0179140
831.512	0.0178867
831.590	0.0179089
831.668	0.0178516
831.746	0.0178397
831.824	0.0179510
831.902	0.0178664
831.980	0.0178434
832.058	0.0178378
832.137	0.0178111
832.215	0.0176134
832.293	0.0177797
832.371	0.0177244
832.449	0.0176804
832.527	0.0177086
832.605	0.0178077
832.683	0.0176344
832.762	0.0178438
832.840	0.0177549
832.918	0.0176669
832.996	0.0176777
833.074	0.0176856
833.152	0.0177879
833.230	0.0178113
833.308	0.0176960
833.387	0.0175480
833.465	0.0176385
833.543	0.0176176
833.621	0.0177783
833.699	0.0176738
833.777	0.0177433
833.855	0.0177897
833.933	0.0178039
834.012	0.0178065
834.090	0.0178117
834.168	0.0177464
834.246	0.0178452
834.324	0.0179852
834.402	0.0180290
834.480	0.0180473
834.558	0.0179501
834.637	0.0179572
834.715	0.0180366
834.793	0.0179755
834.871	0.0179684
834.949	0.0179369
835.027	0.0178683
835.105	0.0179305
835.183	0.0180109
835.262	0.0180439
835.340	0.0178951
835.418	0.0178870
835.496	0.0178371
835.574	0.0178188
835.652	0.0179881
835.730	0.0179076
835.808	0.0177559
835.887	0.0177259
835.965	0.0178151
836.043	0.0176949
836.121	0.0175111
836.199	0.0177456
836.277	0.0176944
836.355	0.0177020
836.433	0.0176601
836.512	0.0176544
836.590	0.0176982
836.668	0.0177229
836.746	0.0176213
836.824	0.0176773
836.902	0.0177747
836.980	0.0176382
837.058	0.0178170
837.137	0.0177107
837.215	0.0178699
837.293	0.0178164
837.371	0.0177346
837.449	0.0177612
837.527	0.0176865
837.605	0.0177680
837.683	0.0177773
837.762	0.0178385
837.840	0.0178223
837.918	0.0176929
837.996	0.0177864
838.074	0.0178259
838.152	0.0178181
838.230	0.0178230
838.308	0.0177012
838.387	0.0177597
838.465	0.0178537
838.543	0.0178075
838.621	0.0178130
838.699	0.0178162
838.777	0.0176182
838.855	0.0176424
838.933	0.0177117
839.012	0.0177885
839.090	0.0177137
839.168	0.0175670
839.246	0.0176969
839.324	0.0178933
839.402	0.0177912
839.480	0.0177507
839.558	0.0177434
839.637	0.0177540
839.715	0.0178606
839.793	0.0177366
839.871	0.0179076
839.949	0.0178974
840.027	0.0179711
840.105	0.0178912
840.183	0.0178992
840.262	0.0179305
840.340	0.0178976
840.418	0.0179886
840.496	0.0181760
840.574	0.0179916
840.652	0.0179221
840.730	0.0179755
840.808	0.0179398
840.887	0.0179603
840.965	0.0179778
841.043	0.0178644
841.121	0.0178270
841.199	0.0178423
841.277	0.0180225
841.355	0.0179829
841.433	0.0179486
841.512	0.0179155
841.590	0.0179623
841.668	0.0178499
841.746	0.0178342
841.824	0.0177920
841.902	0.0177616
841.980	0.0176279
842.058	0.0177881
842.137	0.0179745
842.215	0.0178364
842.293	0.0177768
842.371	0.0177723
842.449	0.0177753
842.527	0.0178738
842.605	0.0178368
842.683	0.0179087
842.762	0.0179095
842.840	0.0179681
842.918	0.0179168
842.996	0.0179456
843.074	0.0179288
843.152	0.0179511
843.230	0.0179662
843.308	0.0179862
843.387	0.0180563
843.465	0.0178973
843.543	0.0180254
843.621	0.0180202
843.699	0.0179794
843.777	0.0180495
843.855	0.0179593
843.933	0.0179154
844.012	0.0179042
844.090	0.0178918
844.168	0.0180840
844.246	0.0179887
844.324	0.0179163
844.402	0.0178046
844.480	0.0181098
844.558	0.0178442
844.637	0.0178934
844.715	0.0181863
844.793	0.0179494
844.871	0.0179472
844.949	0.0179168
845.027	0.0178881
845.105	0.0180324
845.183	0.0179785
845.262	0.0179238
845.340	0.0179424
845.418	0.0179487
845.496	0.0179014
845.574	0.0179275
845.652	0.0179465
845.730	0.0179655
845.808	0.0179429
845.887	0.0179091
845.965	0.0180042
846.043	0.0179449
846.121	0.0178727
846.199	0.0180531
846.277	0.0178268
846.355	0.0178387
846.433	0.0178910
846.512	0.0178421
846.590	0.0178712
846.668	0.0177531
846.746	0.0177473
846.824	0.0177824
846.902	0.0177565
846.980	0.0178526
847.058	0.0177032
847.137	0.0176983
847.215	0.0177602
847.293	0.0176806
847.371	0.0178826
847.449	0.0178393
847.527	0.0177969
847.605	0.0178120
847.683	0.0177941
847.762	0.0177893
847.840	0.0178214
847.918	0.0178127
847.996	0.0177716
848.074	0.0178172
848.152	0.0178326
848.230	0.0178270
848.308	0.0177844
848.387	0.0178983
848.465	0.0178329
848.543	0.0178922
848.621	0.0179595
848.699	0.0178403
848.777	0.0179006
848.855	0.0179713
848.933	0.0177739
849.012	0.0178879
849.090	0.0178929
849.168	0.0178771
849.246	0.0178596
849.324	0.0178034
849.402	0.0178085
849.480	0.0178873
849.558	0.0178539
849.637	0.0178297
849.715	0.0177750
849.793	0.0178238
849.871	0.0177307
849.949	0.0177914
850.027	0.0178979
850.105	0.0178307
850.183	0.0177859
850.262	0.0177427
850.340	0.0179116
850.418	0.0176712
850.496	0.0178831
850.574	0.0177606
850.652	0.0176940
850.730	0.0178741
850.808	0.0178877
850.887	0.0177293
850.965	0.0177634
851.043	0.0177043
851.121	0.0179465
851.199	0.0179336
851.277	0.0180193
851.355	0.0178860
851.433	0.0179336
851.512	0.0179839
851.590	0.0179112
851.668	0.0179091
851.746	0.0179846
851.824	0.0179900
851.902	0.0179615
851.980	0.0179623
852.058	0.0180273
852.137	0.0179647
852.215	0.0180351
852.293	0.0180705
852.371	0.0181280
852.449	0.0181128
852.527	0.0180217
852.605	0.0178889
852.683	0.0180010
852.762	0.0179303
852.840	0.0179111
852.918	0.0180485
852.996	0.0179328
853.074	0.0178637
853.152	0.0178944
853.230	0.0179797
853.308	0.0179032
853.387	0.0179370
853.465	0.0179499
853.543	0.0179355
853.621	0.0177999
853.699	0.0179639
853.777	0.0178778
853.855	0.0178143
853.933	0.0178205
854.012	0.0179649
854.090	0.0179461
854.168	0.0178082
854.246	0.0178117
854.324	0.0178405
854.402	0.0178685
854.480	0.0178142
854.558	0.0179203
854.637	0.0179073
854.715	0.0179163
854.793	0.0179865
854.871	0.0178656
854.949	0.0177433
855.027	0.0178569
855.105	0.0178770
855.183	0.0178584
855.262	0.0177787
855.340	0.0178571
855.418	0.0178366
855.496	0.0179480
855.574	0.0178293
855.652	0.0178167
855.730	0.0178344
855.808	0.0178384
855.887	0.0178999
855.965	0.0178040
856.043	0.0178100
856.121	0.0177116
856.199	0.0178159
856.277	0.0178326
856.355	0.0178239
856.433	0.0178424
856.512	0.0178867
856.590	0.0177310
856.668	0.0178366
856.746	0.0177476
856.824	0.0176711
856.902	0.0176906
856.980	0.0178191
857.058	0.0178228
857.137	0.0177924
857.215	0.0179346
857.293	0.0179456
857.371	0.0178805
857.449	0.0178632
857.527	0.0178820
857.605	0.0178845
857.683	0.0177921
857.762	0.0179572
857.840	0.0178251
857.918	0.0179205
857.996	0.0178895
858.074	0.0177429
858.152	0.0178926
858.230	0.0178876
858.308	0.0178775
858.387	0.0178950
858.465	0.0178435
858.543	0.0177943
858.621	0.0179240
858.699	0.0179641
858.777	0.0179240
858.855	0.0180064
858.933	0.0179605
859.012	0.0180301
859.090	0.0179836
859.168	0.0179749
859.246	0.0178076
859.324	0.0178138
859.402	0.0180614
859.480	0.0177697
859.558	0.0179533
859.637	0.0178552
859.715	0.0180549
859.793	0.0180151
859.871	0.0177696
859.949	0.0179967
860.027	0.0178891
860.105	0.0179131
860.183	0.0180138
860.262	0.0179338
860.340	0.0178587
860.418	0.0179225
860.496	0.0178996
860.574	0.0181067
860.652	0.0179416
860.730	0.0180097
860.808	0.0180402
860.887	0.0179236
860.965	0.0179571
861.043	0.0179721
861.121	0.0178848
861.199	0.0179658
861.277	0.0179185
861.355	0.0178177
861.433	0.0180306
861.512	0.0179676
861.590	0.0179965
861.668	0.0179413
861.746	0.0178609
861.824	0.0179353
861.902	0.0178537
861.980	0.0180139
862.058	0.0179623
862.137	0.0181176
862.215	0.0178967
862.293	0.0179803
862.371	0.0179983
862.449	0.0178808
862.527	0.0179407
862.605	0.0180767
862.683	0.0179880
862.762	0.0179327
862.840	0.0179581
862.918	0.0178499
862.996	0.0180742
863.074	0.0179607
863.152	0.0178847
863.230	0.0180687
863.308	0.0178243
863.387	0.0180238
863.465	0.0178933
863.543	0.0180967
863.621	0.0179678
863.699	0.0179478
863.777	0.0180151
863.855	0.0179131
863.933	0.0178072
864.012	0.0179198
864.090	0.0179980
864.168	0.0177612
864.246	0.0179403
864.324	0.0180840
864.402	0.0177926
864.480	0.0180046
864.558	0.0179425
864.637	0.0179108
864.715	0.0180477
864.793	0.0179106
864.871	0.0178404
864.949	0.0179039
865.027	0.0180314
865.105	0.0179366
865.183	0.0179007
865.262	0.0179230
865.340	0.0178400
865.418	0.0178854
865.496	0.0180724
865.574	0.0180417
865.652	0.0179073
865.730	0.0179828
865.808	0.0179031
865.887	0.0178565
865.965	0.0179537
866.043	0.0179191
866.121	0.0179034
866.199	0.0178057
866.277	0.0178262
866.355	0.0177175
866.433	0.0177789
866.512	0.0177476
866.590	0.0178818
866.668	0.0178937
866.746	0.0179415
866.824	0.0178703
866.902	0.0177366
866.980	0.0177948
867.058	0.0178439
867.137	0.0179098
867.215	0.0178339
867.293	0.0177911
867.371	0.0178821
867.449	0.0178392
867.527	0.0178732
867.605	0.0179330
867.683	0.0178978
867.762	0.0178444
867.840	0.0178635
867.918	0.0178340
867.996	0.0179759
868.074	0.0179293
868.152	0.0179048
868.230	0.0178246
868.308	0.0179109
868.387	0.0178009
868.465	0.0179426
868.543	0.0180489
868.621	0.0179451
868.699	0.0178914
868.777	0.0179776
868.855	0.0177435
868.933	0.0179690
869.012	0.0178420
869.090	0.0178816
869.168	0.0177908
869.246	0.0178359
869.324	0.0179047
869.402	0.0178722
869.480	0.0179549
869.558	0.0177965
869.637	0.0177907
869.715	0.0177958
869.793	0.0177865
869.871	0.0178510
869.949	0.0177719
