06/03/2022	18:32:19	Ver.	4.1	UNKNOWN
Optical Delay	550.027179	Delta X		0.078125	Sweeps	1	Scan Rate	0/0
Coordinates	Axis 1	NaN	Axis 2	NaN	Axis 3	NaN	Axis 4	NaN	Axis 5	NaN	Axis 6	0.000000
TX Power	0.000000	RX Power	0.000000

550.027	0.0178310
550.105	0.0178304
550.183	0.0177293
550.262	0.0179615
550.340	0.0178631
550.418	0.0177025
550.496	0.0177013
550.574	0.0177126
550.652	0.0178372
550.730	0.0179219
550.808	0.0177829
550.887	0.0178181
550.965	0.0178355
551.043	0.0177142
551.121	0.0178177
551.199	0.0178803
551.277	0.0177632
551.355	0.0177193
551.433	0.0178831
551.512	0.0178768
551.590	0.0177034
551.668	0.0178367
551.746	0.0179557
551.824	0.0177839
551.902	0.0178200
551.980	0.0178554
552.058	0.0178194
552.137	0.0178342
552.215	0.0177470
552.293	0.0178855
552.371	0.0177560
552.449	0.0177286
552.527	0.0177524
552.605	0.0177360
552.683	0.0178774
552.762	0.0178363
552.840	0.0176679
552.918	0.0177120
552.996	0.0177129
553.074	0.0176942
553.152	0.0176622
553.230	0.0177333
553.308	0.0177915
553.387	0.0178766
553.465	0.0177094
553.543	0.0177159
553.621	0.0177663
553.699	0.0176818
553.777	0.0177866
553.855	0.0177480
553.933	0.0177697
554.012	0.0177919
554.090	0.0176756
554.168	0.0176521
554.246	0.0177956
554.324	0.0176939
554.402	0.0177071
554.480	0.0177940
554.558	0.0179147
554.637	0.0179095
554.715	0.0178607
554.793	0.0176636
554.871	0.0176682
554.949	0.0176772
555.027	0.0177596
555.105	0.0177449
555.183	0.0177274
555.262	0.0177291
555.340	0.0175831
555.418	0.0177884
555.496	0.0177731
555.574	0.0176926
555.652	0.0176309
555.730	0.0178432
555.808	0.0177608
555.887	0.0178567
555.965	0.0177304
556.043	0.0177854
556.121	0.0176427
556.199	0.0176870
556.277	0.0177699
556.355	0.0177471
556.433	0.0175768
556.512	0.0177296
556.590	0.0177419
556.668	0.0177499
556.746	0.0176756
556.824	0.0178505
556.902	0.0177522
556.980	0.0177035
557.058	0.0176504
557.137	0.0177727
557.215	0.0177362
557.293	0.0176690
557.371	0.0177435
557.449	0.0175773
557.527	0.0177354
557.605	0.0176972
557.683	0.0176096
557.762	0.0176553
557.840	0.0177514
557.918	0.0177837
557.996	0.0175902
558.074	0.0176681
558.152	0.0178022
558.230	0.0178014
558.308	0.0177869
558.387	0.0177706
558.465	0.0178266
558.543	0.0179113
558.621	0.0178751
558.699	0.0179596
558.777	0.0178309
558.855	0.0178597
558.933	0.0178394
559.012	0.0178339
559.090	0.0179210
559.168	0.0179355
559.246	0.0178531
559.324	0.0178671
559.402	0.0178705
559.480	0.0178770
559.558	0.0178924
559.637	0.0179437
559.715	0.0177879
559.793	0.0178441
559.871	0.0179195
559.949	0.0180123
560.027	0.0178394
560.105	0.0179147
560.183	0.0178632
560.262	0.0177635
560.340	0.0179276
560.418	0.0179037
560.496	0.0180165
560.574	0.0178773
560.652	0.0178404
560.730	0.0179644
560.808	0.0180289
560.887	0.0178431
560.965	0.0179249
561.043	0.0178507
561.121	0.0180454
561.199	0.0179778
561.277	0.0178898
561.355	0.0177999
561.433	0.0178255
561.512	0.0179263
561.590	0.0180623
561.668	0.0179735
561.746	0.0179155
561.824	0.0180473
561.902	0.0178817
561.980	0.0178963
562.058	0.0180013
562.137	0.0179943
562.215	0.0179866
562.293	0.0179919
562.371	0.0179694
562.449	0.0179401
562.527	0.0179218
562.605	0.0179536
562.683	0.0179733
562.762	0.0178968
562.840	0.0178387
562.918	0.0179160
562.996	0.0179085
563.074	0.0177761
563.152	0.0178400
563.230	0.0180219
563.308	0.0178848
563.387	0.0178673
563.465	0.0178976
563.543	0.0177638
563.621	0.0180575
563.699	0.0179558
563.777	0.0178912
563.855	0.0178690
563.933	0.0178883
564.012	0.0179196
564.090	0.0178966
564.168	0.0179744
564.246	0.0178432
564.324	0.0178409
564.402	0.0178619
564.480	0.0179294
564.558	0.0179259
564.637	0.0178991
564.715	0.0179848
564.793	0.0179908
564.871	0.0180122
564.949	0.0178947
565.027	0.0178796
565.105	0.0178020
565.183	0.0177926
565.262	0.0177843
565.340	0.0177650
565.418	0.0178451
565.496	0.0178777
565.574	0.0178503
565.652	0.0177863
565.730	0.0177989
565.808	0.0178456
565.887	0.0178751
565.965	0.0178426
566.043	0.0179020
566.121	0.0177265
566.199	0.0177489
566.277	0.0177032
566.355	0.0177971
566.433	0.0178645
566.512	0.0177966
566.590	0.0178058
566.668	0.0178527
566.746	0.0178232
566.824	0.0177975
566.902	0.0178147
566.980	0.0180251
567.058	0.0178450
567.137	0.0179626
567.215	0.0177986
567.293	0.0178040
567.371	0.0177209
567.449	0.0178607
567.527	0.0177052
567.605	0.0178650
567.683	0.0178334
567.762	0.0177203
567.840	0.0178025
567.918	0.0178352
567.996	0.0177787
568.074	0.0176915
568.152	0.0177789
568.230	0.0177322
568.308	0.0178449
568.387	0.0178604
568.465	0.0177748
568.543	0.0177765
568.621	0.0178527
568.699	0.0178284
568.777	0.0178370
568.855	0.0177292
568.933	0.0176961
569.012	0.0177568
569.090	0.0178275
569.168	0.0177771
569.246	0.0178389
569.324	0.0177922
569.402	0.0178384
569.480	0.0176738
569.558	0.0177971
569.637	0.0178449
569.715	0.0177328
569.793	0.0177562
569.871	0.0177458
569.949	0.0177837
570.027	0.0177705
570.105	0.0178053
570.183	0.0177548
570.262	0.0177208
570.340	0.0177120
570.418	0.0177594
570.496	0.0179043
570.574	0.0177171
570.652	0.0177951
570.730	0.0176212
570.808	0.0176621
570.887	0.0177258
570.965	0.0178692
571.043	0.0177501
571.121	0.0177949
571.199	0.0177483
571.277	0.0176586
571.355	0.0178043
571.433	0.0178366
571.512	0.0178500
571.590	0.0177464
571.668	0.0178548
571.746	0.0178941
571.824	0.0178422
571.902	0.0177774
571.980	0.0177846
572.058	0.0178912
572.137	0.0177826
572.215	0.0177756
572.293	0.0177834
572.371	0.0178013
572.449	0.0178066
572.527	0.0178972
572.605	0.0177966
572.683	0.0177084
572.762	0.0178444
572.840	0.0179697
572.918	0.0177487
572.996	0.0178613
573.074	0.0178915
573.152	0.0178146
573.230	0.0177613
573.308	0.0178011
573.387	0.0178668
573.465	0.0179220
573.543	0.0178332
573.621	0.0176975
573.699	0.0179438
573.777	0.0178300
573.855	0.0177187
573.933	0.0177283
574.012	0.0177736
574.090	0.0177750
574.168	0.0178233
574.246	0.0177311
574.324	0.0178871
574.402	0.0177834
574.480	0.0177139
574.558	0.0177637
574.637	0.0179009
574.715	0.0178361
574.793	0.0177348
574.871	0.0176107
574.949	0.0178429
575.027	0.0177489
575.105	0.0175900
575.183	0.0178269
575.262	0.0177697
575.340	0.0177139
575.418	0.0178310
575.496	0.0177953
575.574	0.0178257
575.652	0.0178495
575.730	0.0177301
575.808	0.0177700
575.887	0.0177068
575.965	0.0177944
576.043	0.0177485
576.121	0.0178234
576.199	0.0176812
576.277	0.0177324
576.355	0.0178452
576.433	0.0176195
576.512	0.0177869
576.590	0.0176733
576.668	0.0177035
576.746	0.0177740
576.824	0.0177255
576.902	0.0174961
576.980	0.0176017
577.058	0.0177184
577.137	0.0177093
577.215	0.0176350
577.293	0.0176802
577.371	0.0176550
577.449	0.0176894
577.527	0.0177412
577.605	0.0177494
577.683	0.0177323
577.762	0.0176287
577.840	0.0176665
577.918	0.0176801
577.996	0.0175216
578.074	0.0177871
578.152	0.0177716
578.230	0.0177187
578.308	0.0176733
578.387	0.0177593
578.465	0.0176678
578.543	0.0177854
578.621	0.0177209
578.699	0.0177588
578.777	0.0178177
578.855	0.0176965
578.933	0.0176498
579.012	0.0177099
579.090	0.0177982
579.168	0.0177175
579.246	0.0177335
579.324	0.0176439
579.402	0.0177715
579.480	0.0178481
579.558	0.0178282
579.637	0.0177516
579.715	0.0178226
579.793	0.0177261
579.871	0.0175204
579.949	0.0177840
580.027	0.0177787
580.105	0.0177921
580.183	0.0178470
580.262	0.0176375
580.340	0.0178632
580.418	0.0177666
580.496	0.0178153
580.574	0.0177241
580.652	0.0177334
580.730	0.0178015
580.808	0.0178069
580.887	0.0178578
580.965	0.0178897
581.043	0.0178860
581.121	0.0179035
581.199	0.0177550
581.277	0.0178797
581.355	0.0178935
581.433	0.0179800
581.512	0.0179599
581.590	0.0179578
581.668	0.0179632
581.746	0.0178040
581.824	0.0178922
581.902	0.0179048
581.980	0.0179266
582.058	0.0179650
582.137	0.0179417
582.215	0.0178902
582.293	0.0180206
582.371	0.0180870
582.449	0.0179676
582.527	0.0179279
582.605	0.0179945
582.683	0.0178900
582.762	0.0180254
582.840	0.0180244
582.918	0.0181591
582.996	0.0180483
583.074	0.0178505
583.152	0.0180344
583.230	0.0179639
583.308	0.0179512
583.387	0.0179967
583.465	0.0179826
583.543	0.0180585
583.621	0.0178558
583.699	0.0179610
583.777	0.0180331
583.855	0.0178574
583.933	0.0178828
584.012	0.0179551
584.090	0.0178596
584.168	0.0178290
584.246	0.0178423
584.324	0.0179948
584.402	0.0178534
584.480	0.0178876
584.558	0.0178780
584.637	0.0178514
584.715	0.0178373
584.793	0.0177722
584.871	0.0179747
584.949	0.0179592
585.027	0.0177876
585.105	0.0178977
585.183	0.0179454
585.262	0.0178967
585.340	0.0178426
585.418	0.0178992
585.496	0.0179921
585.574	0.0179118
585.652	0.0178364
585.730	0.0177968
585.808	0.0179048
585.887	0.0178131
585.965	0.0177350
586.043	0.0178172
586.121	0.0178188
586.199	0.0178890
586.277	0.0178819
586.355	0.0179536
586.433	0.0179842
586.512	0.0178002
586.590	0.0179455
586.668	0.0179173
586.746	0.0178985
586.824	0.0178645
586.902	0.0178282
586.980	0.0177409
587.058	0.0179008
587.137	0.0178325
587.215	0.0179773
587.293	0.0178863
587.371	0.0178037
587.449	0.0178756
587.527	0.0179058
587.605	0.0177013
587.683	0.0177647
587.762	0.0178139
587.840	0.0179408
587.918	0.0178802
587.996	0.0178166
588.074	0.0178252
588.152	0.0178055
588.230	0.0178237
588.308	0.0179699
588.387	0.0178648
588.465	0.0178033
588.543	0.0178778
588.621	0.0177499
588.699	0.0178104
588.777	0.0178254
588.855	0.0179219
588.933	0.0179157
589.012	0.0177187
589.090	0.0178582
589.168	0.0177100
589.246	0.0179126
589.324	0.0178805
589.402	0.0179740
589.480	0.0178392
589.558	0.0179276
589.637	0.0177876
589.715	0.0177550
589.793	0.0178399
589.871	0.0177558
589.949	0.0177264
590.027	0.0177402
590.105	0.0178465
590.183	0.0179018
590.262	0.0178541
590.340	0.0178870
590.418	0.0177158
590.496	0.0178350
590.574	0.0178159
590.652	0.0178356
590.730	0.0178565
590.808	0.0179134
590.887	0.0178097
590.965	0.0179066
591.043	0.0179027
591.121	0.0179385
591.199	0.0179579
591.277	0.0179105
591.355	0.0177561
591.433	0.0179289
591.512	0.0180173
591.590	0.0179354
591.668	0.0178812
591.746	0.0180231
591.824	0.0178754
591.902	0.0180274
591.980	0.0178507
592.058	0.0178392
592.137	0.0179516
592.215	0.0178593
592.293	0.0179656
592.371	0.0179990
592.449	0.0179881
592.527	0.0179831
592.605	0.0178365
592.683	0.0179036
592.762	0.0179018
592.840	0.0179939
592.918	0.0178746
592.996	0.0177850
593.074	0.0179091
593.152	0.0178748
593.230	0.0178835
593.308	0.0179301
593.387	0.0179666
593.465	0.0179306
593.543	0.0179025
593.621	0.0179141
593.699	0.0179093
593.777	0.0177541
593.855	0.0178017
593.933	0.0179712
594.012	0.0178290
594.090	0.0179276
594.168	0.0178565
594.246	0.0178977
594.324	0.0178674
594.402	0.0178619
594.480	0.0179726
594.558	0.0177377
594.637	0.0177357
594.715	0.0177825
594.793	0.0179289
594.871	0.0178771
594.949	0.0177246
595.027	0.0178835
595.105	0.0178663
595.183	0.0178491
595.262	0.0178296
595.340	0.0178894
595.418	0.0178303
595.496	0.0178801
595.574	0.0178263
595.652	0.0176447
595.730	0.0178358
595.808	0.0177658
595.887	0.0177374
595.965	0.0177168
596.043	0.0177708
596.121	0.0179017
596.199	0.0177607
596.277	0.0177849
596.355	0.0177633
596.433	0.0177339
596.512	0.0178207
596.590	0.0177157
596.668	0.0177866
596.746	0.0179259
596.824	0.0178075
596.902	0.0179104
596.980	0.0177837
597.058	0.0177504
597.137	0.0177268
597.215	0.0178228
597.293	0.0179999
597.371	0.0178271
597.449	0.0176761
597.527	0.0176878
597.605	0.0179076
597.683	0.0178365
597.762	0.0177618
597.840	0.0177950
597.918	0.0177251
597.996	0.0177961
598.074	0.0177601
598.152	0.0178982
598.230	0.0179122
598.308	0.0177218
598.387	0.0177397
598.465	0.0176775
598.543	0.0177826
598.621	0.0177621
598.699	0.0178699
598.777	0.0177855
598.855	0.0176231
598.933	0.0177769
599.012	0.0178477
599.090	0.0178158
599.168	0.0177705
599.246	0.0177791
599.324	0.0178654
599.402	0.0177974
599.480	0.0177765
599.558	0.0178063
599.637	0.0177729
599.715	0.0180082
599.793	0.0179163
599.871	0.0178553
599.949	0.0177878
600.027	0.0178188
600.105	0.0178313
600.183	0.0178750
600.262	0.0178188
600.340	0.0178164
600.418	0.0178598
600.496	0.0177843
600.574	0.0177644
600.652	0.0177483
600.730	0.0177237
600.808	0.0177995
600.887	0.0178668
600.965	0.0177673
601.043	0.0178451
601.121	0.0177539
601.199	0.0178867
601.277	0.0177719
601.355	0.0177003
601.433	0.0178654
601.512	0.0176997
601.590	0.0177737
601.668	0.0178628
601.746	0.0178682
601.824	0.0178286
601.902	0.0178522
601.980	0.0179521
602.058	0.0178636
602.137	0.0178034
602.215	0.0178075
602.293	0.0179263
602.371	0.0178076
602.449	0.0178885
602.527	0.0179145
602.605	0.0178348
602.683	0.0178936
602.762	0.0177663
602.840	0.0178539
602.918	0.0178656
602.996	0.0180669
603.074	0.0179367
603.152	0.0179014
603.230	0.0178697
603.308	0.0178442
603.387	0.0178289
603.465	0.0179620
603.543	0.0179704
603.621	0.0179954
603.699	0.0178979
603.777	0.0178731
603.855	0.0178875
603.933	0.0179966
604.012	0.0179809
604.090	0.0178794
604.168	0.0179831
604.246	0.0177725
604.324	0.0178566
604.402	0.0179001
604.480	0.0179593
604.558	0.0179063
604.637	0.0178534
604.715	0.0178395
604.793	0.0179662
604.871	0.0180139
604.949	0.0178888
605.027	0.0180061
605.105	0.0178577
605.183	0.0179425
605.262	0.0180072
605.340	0.0179654
605.418	0.0178580
605.496	0.0178746
605.574	0.0180327
605.652	0.0179380
605.730	0.0178981
605.808	0.0179882
605.887	0.0178665
605.965	0.0179040
606.043	0.0180761
606.121	0.0178387
606.199	0.0179449
606.277	0.0179826
606.355	0.0178769
606.433	0.0179858
606.512	0.0178784
606.590	0.0179263
606.668	0.0179773
606.746	0.0179710
606.824	0.0178629
606.902	0.0179532
606.980	0.0180033
607.058	0.0179588
607.137	0.0179758
607.215	0.0179539
607.293	0.0178818
607.371	0.0177801
607.449	0.0177341
607.527	0.0180482
607.605	0.0179479
607.683	0.0180510
607.762	0.0180396
607.840	0.0179372
607.918	0.0177209
607.996	0.0177504
608.074	0.0179180
608.152	0.0178371
608.230	0.0179802
608.308	0.0178465
608.387	0.0178508
608.465	0.0178175
608.543	0.0177419
608.621	0.0179166
608.699	0.0178688
608.777	0.0177753
608.855	0.0178545
608.933	0.0179010
609.012	0.0178129
609.090	0.0178194
609.168	0.0177967
609.246	0.0177445
609.324	0.0178419
609.402	0.0177612
609.480	0.0177865
609.558	0.0178749
609.637	0.0177953
609.715	0.0177789
609.793	0.0178713
609.871	0.0178153
609.949	0.0178023
610.027	0.0178644
610.105	0.0176369
610.183	0.0177836
610.262	0.0178695
610.340	0.0177554
610.418	0.0178385
610.496	0.0178438
610.574	0.0178887
610.652	0.0177838
610.730	0.0176873
610.808	0.0178976
610.887	0.0179269
610.965	0.0178901
611.043	0.0180088
611.121	0.0178479
611.199	0.0178349
611.277	0.0179796
611.355	0.0178429
611.433	0.0179227
611.512	0.0178075
611.590	0.0180109
611.668	0.0178957
611.746	0.0178845
611.824	0.0179720
611.902	0.0180054
611.980	0.0179371
612.058	0.0178134
612.137	0.0179132
612.215	0.0180020
612.293	0.0178913
612.371	0.0178852
612.449	0.0179766
612.527	0.0178757
612.605	0.0178817
612.683	0.0180669
612.762	0.0180070
612.840	0.0179159
612.918	0.0179539
612.996	0.0177780
613.074	0.0180144
613.152	0.0180730
613.230	0.0179668
613.308	0.0179813
613.387	0.0179848
613.465	0.0180505
613.543	0.0180112
613.621	0.0180041
613.699	0.0179744
613.777	0.0178968
613.855	0.0179848
613.933	0.0179758
614.012	0.0179614
614.090	0.0179198
614.168	0.0179941
614.246	0.0181100
614.324	0.0180157
614.402	0.0179423
614.480	0.0179111
614.558	0.0181316
614.637	0.0179449
614.715	0.0179796
614.793	0.0179250
614.871	0.0179672
614.949	0.0181491
615.027	0.0180520
615.105	0.0179572
615.183	0.0179504
615.262	0.0179985
615.340	0.0179980
615.418	0.0179144
615.496	0.0178477
615.574	0.0179617
615.652	0.0179977
615.730	0.0179327
615.808	0.0179372
615.887	0.0178047
615.965	0.0178399
616.043	0.0179115
616.121	0.0179807
616.199	0.0178492
616.277	0.0181633
616.355	0.0179521
616.433	0.0180523
616.512	0.0179123
616.590	0.0178484
616.668	0.0179200
616.746	0.0180351
616.824	0.0179545
616.902	0.0179597
616.980	0.0179387
617.058	0.0177110
617.137	0.0177978
617.215	0.0179587
617.293	0.0177512
617.371	0.0178574
617.449	0.0178803
617.527	0.0178519
617.605	0.0178661
617.683	0.0178373
617.762	0.0178376
617.840	0.0178543
617.918	0.0178328
617.996	0.0178361
618.074	0.0177129
618.152	0.0177422
618.230	0.0178792
618.308	0.0177916
618.387	0.0177570
618.465	0.0180396
618.543	0.0179025
618.621	0.0179255
618.699	0.0180051
618.777	0.0179559
618.855	0.0177718
618.933	0.0177588
619.012	0.0177701
619.090	0.0178517
619.168	0.0179243
619.246	0.0177274
619.324	0.0178705
619.402	0.0178603
619.480	0.0177856
619.558	0.0178504
619.637	0.0178959
619.715	0.0179316
619.793	0.0178118
619.871	0.0179089
619.949	0.0179242
620.027	0.0178777
620.105	0.0176733
620.183	0.0178647
620.262	0.0178241
620.340	0.0177375
620.418	0.0178619
620.496	0.0179546
620.574	0.0178793
620.652	0.0180070
620.730	0.0178209
620.808	0.0178128
620.887	0.0178794
620.965	0.0179353
621.043	0.0179288
621.121	0.0177924
621.199	0.0178836
621.277	0.0178022
621.355	0.0178678
621.433	0.0178838
621.512	0.0178131
621.590	0.0178853
621.668	0.0179272
621.746	0.0179506
621.824	0.0179166
621.902	0.0178394
621.980	0.0177745
622.058	0.0177966
622.137	0.0180040
622.215	0.0179736
622.293	0.0179314
622.371	0.0178094
622.449	0.0178840
622.527	0.0179330
622.605	0.0178763
622.683	0.0179430
622.762	0.0178837
622.840	0.0178226
622.918	0.0177485
622.996	0.0179446
623.074	0.0178944
623.152	0.0179033
623.230	0.0178626
623.308	0.0178062
623.387	0.0177191
623.465	0.0177974
623.543	0.0178986
623.621	0.0178927
623.699	0.0178207
623.777	0.0178196
623.855	0.0178837
623.933	0.0178712
624.012	0.0178720
624.090	0.0178642
624.168	0.0177929
624.246	0.0177740
624.324	0.0178557
624.402	0.0178073
624.480	0.0177888
624.558	0.0180233
624.637	0.0178362
624.715	0.0178118
624.793	0.0177232
624.871	0.0178716
624.949	0.0179140
625.027	0.0177425
625.105	0.0177934
625.183	0.0177954
625.262	0.0177823
625.340	0.0177080
625.418	0.0177404
625.496	0.0177607
625.574	0.0178487
625.652	0.0177357
625.730	0.0176467
625.808	0.0176901
625.887	0.0179237
625.965	0.0177568
626.043	0.0176983
626.121	0.0176888
626.199	0.0177335
626.277	0.0179799
626.355	0.0177931
626.433	0.0178644
626.512	0.0177541
626.590	0.0176935
626.668	0.0177337
626.746	0.0178250
626.824	0.0177376
626.902	0.0177802
626.980	0.0178905
627.058	0.0177593
627.137	0.0177995
627.215	0.0177188
627.293	0.0177396
627.371	0.0177023
627.449	0.0178198
627.527	0.0178442
627.605	0.0178953
627.683	0.0178197
627.762	0.0177391
627.840	0.0178419
627.918	0.0179514
627.996	0.0179649
628.074	0.0177774
628.152	0.0179304
628.230	0.0177916
628.308	0.0177663
628.387	0.0178347
628.465	0.0178442
628.543	0.0177749
628.621	0.0177126
628.699	0.0177949
628.777	0.0179198
628.855	0.0177879
628.933	0.0178152
629.012	0.0177747
629.090	0.0176643
629.168	0.0176458
629.246	0.0178129
629.324	0.0177106
629.402	0.0178861
629.480	0.0178596
629.558	0.0176949
629.637	0.0177890
629.715	0.0177908
629.793	0.0178762
629.871	0.0177291
629.949	0.0179125
630.027	0.0178193
630.105	0.0177039
630.183	0.0177805
630.262	0.0177831
630.340	0.0178894
630.418	0.0177103
630.496	0.0177786
630.574	0.0178149
630.652	0.0178223
630.730	0.0177264
630.808	0.0176872
630.887	0.0178383
630.965	0.0177382
631.043	0.0176507
631.121	0.0176767
631.199	0.0176694
631.277	0.0177407
631.355	0.0177708
631.433	0.0177143
631.512	0.0176236
631.590	0.0177689
631.668	0.0177299
631.746	0.0177174
631.824	0.0178416
631.902	0.0178867
631.980	0.0177401
632.058	0.0176335
632.137	0.0177139
632.215	0.0177431
632.293	0.0177365
632.371	0.0177744
632.449	0.0176643
632.527	0.0177338
632.605	0.0177482
632.683	0.0176432
632.762	0.0175026
632.840	0.0175497
632.918	0.0176211
632.996	0.0176149
633.074	0.0178269
633.152	0.0177382
633.230	0.0176266
633.308	0.0176256
633.387	0.0176105
633.465	0.0176220
633.543	0.0178032
633.621	0.0176473
633.699	0.0176855
633.777	0.0178941
633.855	0.0177153
633.933	0.0177618
634.012	0.0178229
634.090	0.0177182
634.168	0.0177856
634.246	0.0177159
634.324	0.0178802
634.402	0.0176559
634.480	0.0177863
634.558	0.0178787
634.637	0.0177663
634.715	0.0177303
634.793	0.0178566
634.871	0.0177762
634.949	0.0179398
635.027	0.0177798
635.105	0.0179041
635.183	0.0177700
635.262	0.0177296
635.340	0.0178835
635.418	0.0177731
635.496	0.0177139
635.574	0.0178022
635.652	0.0178715
635.730	0.0178318
635.808	0.0179189
635.887	0.0178442
635.965	0.0177892
636.043	0.0176697
636.121	0.0179377
636.199	0.0177795
636.277	0.0179615
636.355	0.0178518
636.433	0.0178504
636.512	0.0178439
636.590	0.0177997
636.668	0.0177941
636.746	0.0177992
636.824	0.0177274
636.902	0.0178442
636.980	0.0178450
637.058	0.0177006
637.137	0.0178441
637.215	0.0178354
637.293	0.0178117
637.371	0.0178037
637.449	0.0177460
637.527	0.0178054
637.605	0.0177712
637.683	0.0178360
637.762	0.0179029
637.840	0.0178571
637.918	0.0177100
637.996	0.0177730
638.074	0.0179416
638.152	0.0178373
638.230	0.0177612
638.308	0.0178941
638.387	0.0177959
638.465	0.0178448
638.543	0.0177885
638.621	0.0180138
638.699	0.0178489
638.777	0.0178407
638.855	0.0178572
638.933	0.0179041
639.012	0.0178667
639.090	0.0178423
639.168	0.0178062
639.246	0.0178072
639.324	0.0180035
639.402	0.0178082
639.480	0.0178338
639.558	0.0180332
639.637	0.0178551
639.715	0.0178429
639.793	0.0179116
639.871	0.0178468
639.949	0.0178255
640.027	0.0178493
640.105	0.0178747
640.183	0.0178260
640.262	0.0178932
640.340	0.0178899
640.418	0.0178702
640.496	0.0178161
640.574	0.0177837
640.652	0.0177905
640.730	0.0177973
640.808	0.0177531
640.887	0.0179143
640.965	0.0178892
641.043	0.0177834
641.121	0.0177433
641.199	0.0179445
641.277	0.0178597
641.355	0.0179568
641.433	0.0177704
641.512	0.0178274
641.590	0.0178246
641.668	0.0179045
641.746	0.0177773
641.824	0.0176542
641.902	0.0177930
641.980	0.0178998
642.058	0.0178721
642.137	0.0178099
642.215	0.0180164
642.293	0.0178811
642.371	0.0178797
642.449	0.0177444
642.527	0.0177754
642.605	0.0180864
642.683	0.0178098
642.762	0.0177523
642.840	0.0178745
642.918	0.0179047
642.996	0.0179691
643.074	0.0178973
643.152	0.0177424
643.230	0.0177595
643.308	0.0178865
643.387	0.0177960
643.465	0.0179190
643.543	0.0178666
643.621	0.0177337
643.699	0.0178860
643.777	0.0177944
643.855	0.0178088
643.933	0.0177685
644.012	0.0178704
644.090	0.0177767
644.168	0.0178102
644.246	0.0178232
644.324	0.0178432
644.402	0.0178408
644.480	0.0177421
644.558	0.0178190
644.637	0.0177266
644.715	0.0176731
644.793	0.0178934
644.871	0.0177585
644.949	0.0176850
645.027	0.0177934
645.105	0.0177661
645.183	0.0177293
645.262	0.0177660
645.340	0.0177334
645.418	0.0176939
645.496	0.0179137
645.574	0.0178643
645.652	0.0177650
645.730	0.0177289
645.808	0.0177831
645.887	0.0178042
645.965	0.0178697
646.043	0.0178157
646.121	0.0177650
646.199	0.0177901
646.277	0.0177265
646.355	0.0177410
646.433	0.0176793
646.512	0.0178570
646.590	0.0176975
646.668	0.0176345
646.746	0.0176967
646.824	0.0176913
646.902	0.0178281
646.980	0.0177123
647.058	0.0177148
647.137	0.0177336
647.215	0.0177576
647.293	0.0176943
647.371	0.0177347
647.449	0.0177509
647.527	0.0176654
647.605	0.0176950
647.683	0.0177333
647.762	0.0178153
647.840	0.0178001
647.918	0.0177193
647.996	0.0176634
648.074	0.0176953
648.152	0.0178021
648.230	0.0178136
648.308	0.0177835
648.387	0.0177541
648.465	0.0177208
648.543	0.0178086
648.621	0.0177290
648.699	0.0176481
648.777	0.0176903
648.855	0.0175778
648.933	0.0175868
649.012	0.0176629
649.090	0.0177439
649.168	0.0178966
649.246	0.0176170
649.324	0.0177002
649.402	0.0177379
649.480	0.0177110
649.558	0.0177279
649.637	0.0177718
649.715	0.0177002
649.793	0.0177630
649.871	0.0176635
649.949	0.0177805
650.027	0.0175906
650.105	0.0176396
650.183	0.0175896
650.262	0.0177900
650.340	0.0177507
650.418	0.0177070
650.496	0.0176756
650.574	0.0177344
650.652	0.0176563
650.730	0.0176942
650.808	0.0177382
650.887	0.0177636
650.965	0.0176600
651.043	0.0176119
651.121	0.0175764
651.199	0.0176799
651.277	0.0176759
651.355	0.0177400
651.433	0.0176866
651.512	0.0176678
651.590	0.0177326
651.668	0.0176736
651.746	0.0177767
651.824	0.0176927
651.902	0.0176713
651.980	0.0176560
652.058	0.0175835
652.137	0.0177486
652.215	0.0177472
652.293	0.0176239
652.371	0.0176322
652.449	0.0176250
652.527	0.0176868
652.605	0.0176580
652.683	0.0176557
652.762	0.0177375
652.840	0.0177148
652.918	0.0178031
652.996	0.0176470
653.074	0.0175833
653.152	0.0176655
653.230	0.0177957
653.308	0.0176849
653.387	0.0176013
653.465	0.0177407
653.543	0.0178265
653.621	0.0177456
653.699	0.0176122
653.777	0.0176643
653.855	0.0175472
653.933	0.0177617
654.012	0.0179707
654.090	0.0177438
654.168	0.0176784
654.246	0.0175778
654.324	0.0176385
654.402	0.0177022
654.480	0.0177982
654.558	0.0177616
654.637	0.0177467
654.715	0.0175240
654.793	0.0177635
654.871	0.0177240
654.949	0.0175684
655.027	0.0176236
655.105	0.0176538
655.183	0.0176182
655.262	0.0177865
655.340	0.0178236
655.418	0.0176948
655.496	0.0176478
655.574	0.0176093
655.652	0.0176339
655.730	0.0176069
655.808	0.0176025
655.887	0.0176991
655.965	0.0177065
656.043	0.0176494
656.121	0.0176102
656.199	0.0176393
656.277	0.0177805
656.355	0.0177285
656.433	0.0176561
656.512	0.0176668
656.590	0.0176945
656.668	0.0177287
656.746	0.0177962
656.824	0.0176981
656.902	0.0177222
656.980	0.0176933
657.058	0.0178605
657.137	0.0177308
657.215	0.0178644
657.293	0.0178648
657.371	0.0178486
657.449	0.0178309
657.527	0.0178703
657.605	0.0179285
657.683	0.0176642
657.762	0.0177972
657.840	0.0179128
657.918	0.0177328
657.996	0.0178207
658.074	0.0178764
658.152	0.0177984
658.230	0.0177118
658.308	0.0178732
658.387	0.0178921
658.465	0.0178017
658.543	0.0178374
658.621	0.0178716
658.699	0.0178394
658.777	0.0177965
658.855	0.0178046
658.933	0.0178214
659.012	0.0178939
659.090	0.0178282
659.168	0.0177548
659.246	0.0178149
659.324	0.0177919
659.402	0.0178181
659.480	0.0176344
659.558	0.0177641
659.637	0.0179604
659.715	0.0176275
659.793	0.0178278
659.871	0.0178513
659.949	0.0177592
660.027	0.0178929
660.105	0.0176861
660.183	0.0178666
660.262	0.0178389
660.340	0.0178904
660.418	0.0178665
660.496	0.0178716
660.574	0.0178554
660.652	0.0178628
660.730	0.0179402
660.808	0.0179327
660.887	0.0179074
660.965	0.0178250
661.043	0.0179003
661.121	0.0177814
661.199	0.0179662
661.277	0.0179566
661.355	0.0179565
661.433	0.0179202
661.512	0.0177821
661.590	0.0179013
661.668	0.0177915
661.746	0.0180029
661.824	0.0180014
661.902	0.0180934
661.980	0.0179931
662.058	0.0180035
662.137	0.0180843
662.215	0.0180667
662.293	0.0179349
662.371	0.0179509
662.449	0.0180492
662.527	0.0179548
662.605	0.0180135
662.683	0.0181150
662.762	0.0180393
662.840	0.0180548
662.918	0.0181693
662.996	0.0179825
663.074	0.0177434
663.152	0.0178472
663.230	0.0177879
663.308	0.0179504
663.387	0.0178981
663.465	0.0179172
663.543	0.0178449
663.621	0.0177794
663.699	0.0177393
663.777	0.0178953
663.855	0.0179370
663.933	0.0178239
664.012	0.0178960
664.090	0.0179988
664.168	0.0178170
664.246	0.0177805
664.324	0.0178120
664.402	0.0179762
664.480	0.0179392
664.558	0.0179281
664.637	0.0177554
664.715	0.0177799
664.793	0.0178358
664.871	0.0178900
664.949	0.0180180
665.027	0.0179048
665.105	0.0178909
665.183	0.0180889
665.262	0.0179997
665.340	0.0178621
665.418	0.0178678
665.496	0.0177911
665.574	0.0177499
665.652	0.0180222
665.730	0.0179212
665.808	0.0180084
665.887	0.0179420
665.965	0.0178567
666.043	0.0179997
666.121	0.0178880
666.199	0.0178039
666.277	0.0177706
666.355	0.0180621
666.433	0.0181516
666.512	0.0179096
666.590	0.0179314
666.668	0.0178695
666.746	0.0178091
666.824	0.0180128
666.902	0.0181696
666.980	0.0178034
667.058	0.0178378
667.137	0.0179806
667.215	0.0178415
667.293	0.0177225
667.371	0.0178373
667.449	0.0177806
667.527	0.0177817
667.605	0.0177551
667.683	0.0178275
667.762	0.0177426
667.840	0.0177709
667.918	0.0178077
667.996	0.0176997
668.074	0.0177666
668.152	0.0179157
668.230	0.0178623
668.308	0.0178817
668.387	0.0178535
668.465	0.0177828
668.543	0.0178981
668.621	0.0177924
668.699	0.0178261
668.777	0.0179221
668.855	0.0178071
668.933	0.0179379
669.012	0.0177622
669.090	0.0178529
669.168	0.0180081
669.246	0.0178522
669.324	0.0179903
669.402	0.0178951
669.480	0.0178319
669.558	0.0177245
669.637	0.0179422
669.715	0.0178736
669.793	0.0178366
669.871	0.0179537
669.949	0.0178989
670.027	0.0178775
670.105	0.0178818
670.183	0.0178735
670.262	0.0178677
670.340	0.0177923
670.418	0.0178720
670.496	0.0178088
670.574	0.0178699
670.652	0.0177505
670.730	0.0177201
670.808	0.0178618
670.887	0.0178900
670.965	0.0176464
671.043	0.0178576
671.121	0.0178004
671.199	0.0178338
671.277	0.0176822
671.355	0.0177720
671.433	0.0177885
671.512	0.0176844
671.590	0.0177854
671.668	0.0177856
671.746	0.0177982
671.824	0.0178066
671.902	0.0178212
671.980	0.0177827
672.058	0.0179120
672.137	0.0180094
672.215	0.0179081
672.293	0.0180022
672.371	0.0180064
672.449	0.0181406
672.527	0.0181297
672.605	0.0180083
672.683	0.0179916
672.762	0.0180372
672.840	0.0180708
672.918	0.0180807
672.996	0.0180798
673.074	0.0179401
673.152	0.0179185
673.230	0.0178651
673.308	0.0177814
673.387	0.0176196
673.465	0.0177091
673.543	0.0176743
673.621	0.0175394
673.699	0.0174970
673.777	0.0177071
673.855	0.0174651
673.933	0.0175225
674.012	0.0175352
674.090	0.0175082
674.168	0.0175843
674.246	0.0175940
674.324	0.0176224
674.402	0.0175472
674.480	0.0175955
674.558	0.0175771
674.637	0.0175392
674.715	0.0176429
674.793	0.0177081
674.871	0.0176034
674.949	0.0176647
675.027	0.0176997
675.105	0.0177570
675.183	0.0178861
675.262	0.0179156
675.340	0.0178947
675.418	0.0178213
675.496	0.0179118
675.574	0.0179926
675.652	0.0179490
675.730	0.0179373
675.808	0.0179481
675.887	0.0180181
675.965	0.0179182
676.043	0.0179638
676.121	0.0180472
676.199	0.0180380
676.277	0.0180876
676.355	0.0181395
676.433	0.0180589
676.512	0.0181889
676.590	0.0180954
676.668	0.0180672
676.746	0.0181110
676.824	0.0179761
676.902	0.0180912
676.980	0.0180919
677.058	0.0180346
677.137	0.0178873
677.215	0.0179941
677.293	0.0179978
677.371	0.0178761
677.449	0.0177590
677.527	0.0177168
677.605	0.0177209
677.683	0.0176434
677.762	0.0175890
677.840	0.0177602
677.918	0.0177760
677.996	0.0176875
678.074	0.0176275
678.152	0.0175079
678.230	0.0176301
678.308	0.0177648
678.387	0.0176338
678.465	0.0176310
678.543	0.0176965
678.621	0.0176322
678.699	0.0176169
678.777	0.0176639
678.855	0.0177887
678.933	0.0177484
679.012	0.0178484
679.090	0.0178082
679.168	0.0178088
679.246	0.0176958
679.324	0.0178222
679.402	0.0177090
679.480	0.0175673
679.558	0.0176644
679.637	0.0176730
679.715	0.0176540
679.793	0.0177662
679.871	0.0176749
679.949	0.0176856
680.027	0.0179870
680.105	0.0178197
680.183	0.0176704
680.262	0.0177676
680.340	0.0177542
680.418	0.0179889
680.496	0.0180039
680.574	0.0179215
680.652	0.0178900
680.730	0.0180366
680.808	0.0180074
680.887	0.0181099
680.965	0.0181319
681.043	0.0181411
681.121	0.0181976
681.199	0.0181566
681.277	0.0180917
681.355	0.0182233
681.433	0.0181480
681.512	0.0182587
681.590	0.0182425
681.668	0.0183986
681.746	0.0183351
681.824	0.0182252
681.902	0.0182246
681.980	0.0181260
682.058	0.0181239
682.137	0.0183459
682.215	0.0180927
682.293	0.0180585
682.371	0.0182036
682.449	0.0179902
682.527	0.0180793
682.605	0.0179588
682.683	0.0179422
682.762	0.0180521
682.840	0.0178496
682.918	0.0178183
682.996	0.0176647
683.074	0.0176601
683.152	0.0177205
683.230	0.0178126
683.308	0.0177393
683.387	0.0176371
683.465	0.0175307
683.543	0.0176906
683.621	0.0177161
683.699	0.0178252
683.777	0.0176170
683.855	0.0177495
683.933	0.0176617
684.012	0.0177333
684.090	0.0176211
684.168	0.0177802
684.246	0.0177907
684.324	0.0177609
684.402	0.0178722
684.480	0.0179356
684.558	0.0180286
684.637	0.0178896
684.715	0.0178906
684.793	0.0181665
684.871	0.0181985
684.949	0.0181889
685.027	0.0183034
685.105	0.0181892
685.183	0.0182072
685.262	0.0181561
685.340	0.0181055
685.418	0.0181844
685.496	0.0181568
685.574	0.0181539
685.652	0.0181828
685.730	0.0182172
685.808	0.0181843
685.887	0.0180125
685.965	0.0181517
686.043	0.0180896
686.121	0.0180297
686.199	0.0181003
686.277	0.0179794
686.355	0.0181471
686.433	0.0179701
686.512	0.0180372
686.590	0.0179952
686.668	0.0179086
686.746	0.0180296
686.824	0.0180212
686.902	0.0179592
686.980	0.0180015
687.058	0.0179338
687.137	0.0178497
687.215	0.0179366
687.293	0.0181335
687.371	0.0179310
687.449	0.0180486
687.527	0.0179646
687.605	0.0178638
687.683	0.0179601
687.762	0.0181474
687.840	0.0182108
687.918	0.0180450
687.996	0.0181623
688.074	0.0182285
688.152	0.0181068
688.230	0.0180972
688.308	0.0181442
688.387	0.0181531
688.465	0.0180887
688.543	0.0178867
688.621	0.0179898
688.699	0.0178725
688.777	0.0177724
688.855	0.0180753
688.933	0.0179658
689.012	0.0178773
689.090	0.0177377
689.168	0.0178476
689.246	0.0177982
689.324	0.0177444
689.402	0.0178404
689.480	0.0178353
689.558	0.0177727
689.637	0.0178022
689.715	0.0177589
689.793	0.0177465
689.871	0.0177569
689.949	0.0177945
690.027	0.0179051
690.105	0.0178101
690.183	0.0176717
690.262	0.0178154
690.340	0.0178452
690.418	0.0177450
690.496	0.0177182
690.574	0.0179156
690.652	0.0178484
690.730	0.0178590
690.808	0.0177991
690.887	0.0179416
690.965	0.0180730
691.043	0.0176214
691.121	0.0177146
691.199	0.0180198
691.277	0.0179806
691.355	0.0180159
691.433	0.0180898
691.512	0.0180379
691.590	0.0179792
691.668	0.0181213
691.746	0.0180216
691.824	0.0181973
691.902	0.0181541
691.980	0.0180988
692.058	0.0181122
692.137	0.0180712
692.215	0.0181294
692.293	0.0179629
692.371	0.0180483
692.449	0.0179719
692.527	0.0178117
692.605	0.0180717
692.683	0.0179624
692.762	0.0179353
692.840	0.0180670
692.918	0.0178878
692.996	0.0178506
693.074	0.0178170
693.152	0.0177528
693.230	0.0175157
693.308	0.0176914
693.387	0.0176851
693.465	0.0176855
693.543	0.0176971
693.621	0.0176239
693.699	0.0177505
693.777	0.0176769
693.855	0.0176182
693.933	0.0176439
694.012	0.0176934
694.090	0.0178751
694.168	0.0177397
694.246	0.0178117
694.324	0.0177675
694.402	0.0176370
694.480	0.0177851
694.558	0.0178281
694.637	0.0177996
694.715	0.0178469
694.793	0.0179286
694.871	0.0179642
694.949	0.0179669
695.027	0.0179428
695.105	0.0177596
695.183	0.0179646
695.262	0.0179555
695.340	0.0179641
695.418	0.0178159
695.496	0.0179055
695.574	0.0180693
695.652	0.0180109
695.730	0.0180340
695.808	0.0179105
695.887	0.0179326
695.965	0.0178588
696.043	0.0180092
696.121	0.0179748
696.199	0.0178953
696.277	0.0177961
696.355	0.0176907
696.433	0.0176153
696.512	0.0178246
696.590	0.0177562
696.668	0.0174965
696.746	0.0177397
696.824	0.0177899
696.902	0.0176540
696.980	0.0177077
697.058	0.0176949
697.137	0.0176577
697.215	0.0176667
697.293	0.0177758
697.371	0.0178878
697.449	0.0178320
697.527	0.0177294
697.605	0.0178378
697.683	0.0178116
697.762	0.0179066
697.840	0.0179504
697.918	0.0177460
697.996	0.0179183
698.074	0.0177494
698.152	0.0177911
698.230	0.0178555
698.308	0.0180010
698.387	0.0179690
698.465	0.0179199
698.543	0.0179726
698.621	0.0179316
698.699	0.0179269
698.777	0.0180103
698.855	0.0182184
698.933	0.0179559
699.012	0.0179595
699.090	0.0180772
699.168	0.0179972
699.246	0.0178870
699.324	0.0179289
699.402	0.0179272
699.480	0.0178120
699.558	0.0177186
699.637	0.0176723
699.715	0.0175304
699.793	0.0174556
699.871	0.0175260
699.949	0.0173062
700.027	0.0173267
700.105	0.0173330
700.183	0.0172621
700.262	0.0173399
700.340	0.0174135
700.418	0.0173699
700.496	0.0173552
700.574	0.0174165
700.652	0.0173392
700.730	0.0174183
700.808	0.0173655
700.887	0.0175812
700.965	0.0175984
701.043	0.0176092
701.121	0.0176810
701.199	0.0177235
701.277	0.0178065
701.355	0.0178680
701.433	0.0178493
701.512	0.0178912
701.590	0.0178746
701.668	0.0179012
701.746	0.0180495
701.824	0.0180276
701.902	0.0179485
701.980	0.0182803
702.058	0.0180965
702.137	0.0179858
702.215	0.0180456
702.293	0.0180779
702.371	0.0180985
702.449	0.0180399
702.527	0.0179085
702.605	0.0179766
702.683	0.0179858
702.762	0.0179834
702.840	0.0180433
702.918	0.0179639
702.996	0.0179879
703.074	0.0179270
703.152	0.0178798
703.230	0.0179091
703.308	0.0177804
703.387	0.0179071
703.465	0.0179940
703.543	0.0179232
703.621	0.0179234
703.699	0.0177808
703.777	0.0178182
703.855	0.0178962
703.933	0.0179021
704.012	0.0180373
704.090	0.0178799
704.168	0.0178577
704.246	0.0177425
704.324	0.0178166
704.402	0.0179099
704.480	0.0178081
704.558	0.0177768
704.637	0.0178824
704.715	0.0177555
704.793	0.0179670
704.871	0.0178760
704.949	0.0177657
705.027	0.0177335
705.105	0.0179326
705.183	0.0177462
705.262	0.0177841
705.340	0.0178112
705.418	0.0179775
705.496	0.0179551
705.574	0.0180116
705.652	0.0179506
705.730	0.0178564
705.808	0.0178215
705.887	0.0180184
705.965	0.0178297
706.043	0.0178667
706.121	0.0178905
706.199	0.0177528
706.277	0.0177158
706.355	0.0177462
706.433	0.0177428
706.512	0.0175290
706.590	0.0174551
706.668	0.0174923
706.746	0.0175556
706.824	0.0174605
706.902	0.0175898
706.980	0.0175116
707.058	0.0176159
707.137	0.0175864
707.215	0.0176443
707.293	0.0177361
707.371	0.0178322
707.449	0.0180271
707.527	0.0179226
707.605	0.0179919
707.683	0.0181332
707.762	0.0182291
707.840	0.0183907
707.918	0.0183759
707.996	0.0184474
708.074	0.0183107
708.152	0.0184287
708.230	0.0183873
708.308	0.0182569
708.387	0.0182621
708.465	0.0180579
708.543	0.0180527
708.621	0.0179591
708.699	0.0179345
708.777	0.0178926
708.855	0.0178408
708.933	0.0177071
709.012	0.0176344
709.090	0.0175380
709.168	0.0175718
709.246	0.0174472
709.324	0.0175323
709.402	0.0174740
709.480	0.0174610
709.558	0.0174697
709.637	0.0175784
709.715	0.0176186
709.793	0.0176796
709.871	0.0177417
709.949	0.0178581
710.027	0.0176563
710.105	0.0177666
710.183	0.0179671
710.262	0.0178639
710.340	0.0179686
710.418	0.0181281
710.496	0.0182135
710.574	0.0181728
710.652	0.0181681
710.730	0.0181250
710.808	0.0182109
710.887	0.0183865
710.965	0.0183995
711.043	0.0182098
711.121	0.0183182
711.199	0.0183609
711.277	0.0181903
711.355	0.0181922
711.433	0.0180752
711.512	0.0179406
711.590	0.0178715
711.668	0.0178823
711.746	0.0176328
711.824	0.0176563
711.902	0.0175023
711.980	0.0174845
712.058	0.0173022
712.137	0.0173109
712.215	0.0172323
712.293	0.0171545
712.371	0.0171948
712.449	0.0171466
712.527	0.0172702
712.605	0.0173024
712.683	0.0173757
712.762	0.0174923
712.840	0.0174846
712.918	0.0174617
712.996	0.0175266
713.074	0.0176097
713.152	0.0177988
713.230	0.0177769
713.308	0.0177669
713.387	0.0178493
713.465	0.0176794
713.543	0.0177656
713.621	0.0178574
713.699	0.0177113
713.777	0.0178412
713.855	0.0178286
713.933	0.0177505
714.012	0.0176051
714.090	0.0177338
714.168	0.0177081
714.246	0.0175896
714.324	0.0177449
714.402	0.0175742
714.480	0.0177814
714.558	0.0176735
714.637	0.0177901
714.715	0.0177909
714.793	0.0178670
714.871	0.0178307
714.949	0.0178548
715.027	0.0179359
715.105	0.0179721
715.183	0.0180976
715.262	0.0181345
715.340	0.0180701
715.418	0.0180737
715.496	0.0181697
715.574	0.0181207
715.652	0.0181005
715.730	0.0181143
715.808	0.0182349
715.887	0.0181505
715.965	0.0180436
716.043	0.0182326
716.121	0.0180782
716.199	0.0180409
716.277	0.0180332
716.355	0.0180689
716.433	0.0180145
716.512	0.0181390
716.590	0.0178790
716.668	0.0177596
716.746	0.0178208
716.824	0.0177292
716.902	0.0175484
716.980	0.0176825
717.058	0.0175723
717.137	0.0175353
717.215	0.0172759
717.293	0.0173435
717.371	0.0175159
717.449	0.0172829
717.527	0.0173882
717.605	0.0172890
717.683	0.0174426
717.762	0.0173985
717.840	0.0174150
717.918	0.0174061
717.996	0.0176223
718.074	0.0174940
718.152	0.0177440
718.230	0.0174799
718.308	0.0176713
718.387	0.0177914
718.465	0.0176877
718.543	0.0176668
718.621	0.0176530
718.699	0.0176807
718.777	0.0178632
718.855	0.0178237
718.933	0.0177687
719.012	0.0178073
719.090	0.0178907
719.168	0.0179463
719.246	0.0179752
719.324	0.0180051
719.402	0.0180393
719.480	0.0180822
719.558	0.0181252
719.637	0.0180095
719.715	0.0180693
719.793	0.0181802
719.871	0.0181741
719.949	0.0179958
720.027	0.0180402
720.105	0.0179939
720.183	0.0179249
720.262	0.0178504
720.340	0.0176679
720.418	0.0175788
720.496	0.0176369
720.574	0.0175810
720.652	0.0174836
720.730	0.0172852
720.808	0.0173642
720.887	0.0173721
720.965	0.0173218
721.043	0.0173737
721.121	0.0175412
721.199	0.0172863
721.277	0.0172230
721.355	0.0172988
721.433	0.0174120
721.512	0.0174457
721.590	0.0173608
721.668	0.0174980
721.746	0.0175384
721.824	0.0176041
721.902	0.0176481
721.980	0.0177015
722.058	0.0179397
722.137	0.0178667
722.215	0.0180074
722.293	0.0181411
722.371	0.0181809
722.449	0.0182587
722.527	0.0182729
722.605	0.0182536
722.683	0.0183092
722.762	0.0183543
722.840	0.0182980
722.918	0.0182925
722.996	0.0181510
723.074	0.0181551
723.152	0.0180560
723.230	0.0179614
723.308	0.0179892
723.387	0.0178687
723.465	0.0177354
723.543	0.0175194
723.621	0.0177507
723.699	0.0175855
723.777	0.0173211
723.855	0.0173824
723.933	0.0173636
724.012	0.0171179
724.090	0.0171294
724.168	0.0171355
724.246	0.0170099
724.324	0.0172000
724.402	0.0173331
724.480	0.0171493
724.558	0.0172340
724.637	0.0172734
724.715	0.0173851
724.793	0.0174178
724.871	0.0175955
724.949	0.0177306
725.027	0.0176952
725.105	0.0178273
725.183	0.0177884
725.262	0.0177969
725.340	0.0178513
725.418	0.0179322
725.496	0.0178777
725.574	0.0179237
725.652	0.0180334
725.730	0.0179477
725.808	0.0180459
725.887	0.0178752
725.965	0.0180495
726.043	0.0181851
726.121	0.0180109
726.199	0.0179376
726.277	0.0179613
726.355	0.0180888
726.433	0.0181245
726.512	0.0180220
726.590	0.0179802
726.668	0.0180116
726.746	0.0180116
726.824	0.0179421
726.902	0.0179173
726.980	0.0178120
727.058	0.0176286
727.137	0.0177299
727.215	0.0175755
727.293	0.0175565
727.371	0.0173917
727.449	0.0172777
727.527	0.0173264
727.605	0.0173740
727.683	0.0174046
727.762	0.0172334
727.840	0.0172235
727.918	0.0173022
727.996	0.0172993
728.074	0.0175764
728.152	0.0174273
728.230	0.0175256
728.308	0.0178003
728.387	0.0177525
728.465	0.0178525
728.543	0.0178106
728.621	0.0179085
728.699	0.0181004
728.777	0.0180725
728.855	0.0182674
728.933	0.0183332
729.012	0.0182875
729.090	0.0182611
729.168	0.0182645
729.246	0.0181487
729.324	0.0180621
729.402	0.0182755
729.480	0.0181802
729.558	0.0182410
729.637	0.0181172
729.715	0.0179814
729.793	0.0178468
729.871	0.0179819
729.949	0.0178030
730.027	0.0177454
730.105	0.0176318
730.183	0.0176490
730.262	0.0175826
730.340	0.0176775
730.418	0.0175313
730.496	0.0174508
730.574	0.0176451
730.652	0.0175571
730.730	0.0175244
730.808	0.0176822
730.887	0.0176528
730.965	0.0175791
731.043	0.0176771
731.121	0.0175680
731.199	0.0174440
731.277	0.0174146
731.355	0.0174374
731.433	0.0175447
731.512	0.0175439
731.590	0.0173669
731.668	0.0175034
731.746	0.0176169
731.824	0.0173990
731.902	0.0174995
731.980	0.0173962
732.058	0.0173930
732.137	0.0173969
732.215	0.0173782
732.293	0.0174757
732.371	0.0174237
732.449	0.0173113
732.527	0.0174581
732.605	0.0172850
732.683	0.0174728
732.762	0.0174546
732.840	0.0175123
732.918	0.0174414
732.996	0.0175389
733.074	0.0175907
733.152	0.0177303
733.230	0.0177827
733.308	0.0178767
733.387	0.0180472
733.465	0.0180428
733.543	0.0181818
733.621	0.0181571
733.699	0.0183261
733.777	0.0184582
733.855	0.0183167
733.933	0.0184024
734.012	0.0185699
734.090	0.0186021
734.168	0.0186384
734.246	0.0186223
734.324	0.0185992
734.402	0.0184647
734.480	0.0183765
734.558	0.0184105
734.637	0.0182298
734.715	0.0182173
734.793	0.0180256
734.871	0.0178587
734.949	0.0177428
735.027	0.0175865
735.105	0.0173607
735.183	0.0172509
735.262	0.0173301
735.340	0.0172513
735.418	0.0170998
735.496	0.0170127
735.574	0.0169321
735.652	0.0168242
735.730	0.0168825
735.808	0.0168438
735.887	0.0169890
735.965	0.0168897
736.043	0.0168362
736.121	0.0170190
736.199	0.0171013
736.277	0.0169993
736.355	0.0171650
736.433	0.0173079
736.512	0.0173436
736.590	0.0173977
736.668	0.0174416
736.746	0.0175927
736.824	0.0176223
736.902	0.0178465
736.980	0.0179028
737.058	0.0178458
737.137	0.0179910
737.215	0.0180813
737.293	0.0181470
737.371	0.0182171
737.449	0.0181908
737.527	0.0184401
737.605	0.0182863
737.683	0.0182314
737.762	0.0183932
737.840	0.0185236
737.918	0.0185929
737.996	0.0183905
738.074	0.0182495
738.152	0.0183575
738.230	0.0182269
738.308	0.0182317
738.387	0.0180861
738.465	0.0181547
738.543	0.0180186
738.621	0.0178384
738.699	0.0179451
738.777	0.0180746
738.855	0.0180851
738.933	0.0178978
739.012	0.0179443
739.090	0.0180869
739.168	0.0179427
739.246	0.0179723
739.324	0.0179258
739.402	0.0178692
739.480	0.0177791
739.558	0.0177566
739.637	0.0178461
739.715	0.0178114
739.793	0.0177258
739.871	0.0178032
739.949	0.0178948
740.027	0.0177705
740.105	0.0177924
740.183	0.0176833
740.262	0.0176902
740.340	0.0175327
740.418	0.0176395
740.496	0.0176860
740.574	0.0175824
740.652	0.0175475
740.730	0.0174747
740.808	0.0175880
740.887	0.0174911
740.965	0.0175148
741.043	0.0175970
741.121	0.0175880
741.199	0.0173426
741.277	0.0176716
741.355	0.0176535
741.433	0.0177077
741.512	0.0177436
741.590	0.0178904
741.668	0.0178743
741.746	0.0180034
741.824	0.0180220
741.902	0.0180027
741.980	0.0179811
742.058	0.0179884
742.137	0.0180073
742.215	0.0179863
742.293	0.0180264
742.371	0.0180283
742.449	0.0179867
742.527	0.0179520
742.605	0.0180690
742.683	0.0178543
742.762	0.0178637
742.840	0.0179416
742.918	0.0180555
742.996	0.0177824
743.074	0.0178510
743.152	0.0179396
743.230	0.0178381
743.308	0.0177355
743.387	0.0177450
743.465	0.0176920
743.543	0.0176685
743.621	0.0176179
743.699	0.0176659
743.777	0.0176550
743.855	0.0177464
743.933	0.0177147
744.012	0.0179295
744.090	0.0178565
744.168	0.0178825
744.246	0.0178389
744.324	0.0180151
744.402	0.0180157
744.480	0.0180024
744.558	0.0179148
744.637	0.0178750
744.715	0.0179072
744.793	0.0179507
744.871	0.0180763
744.949	0.0179992
745.027	0.0179639
745.105	0.0179347
745.183	0.0178856
745.262	0.0179019
745.340	0.0179153
745.418	0.0180037
745.496	0.0177435
745.574	0.0177784
745.652	0.0178185
745.730	0.0177428
745.808	0.0177408
745.887	0.0176911
745.965	0.0176306
746.043	0.0176372
746.121	0.0175928
746.199	0.0175657
746.277	0.0174153
746.355	0.0173197
746.433	0.0174444
746.512	0.0175256
746.590	0.0175037
746.668	0.0174538
746.746	0.0174733
746.824	0.0174201
746.902	0.0174853
746.980	0.0174937
747.058	0.0174587
747.137	0.0175929
747.215	0.0175697
747.293	0.0176900
747.371	0.0177275
747.449	0.0177607
747.527	0.0178439
747.605	0.0176441
747.683	0.0179147
747.762	0.0179153
747.840	0.0178598
747.918	0.0181944
747.996	0.0181458
748.074	0.0180383
748.152	0.0180399
748.230	0.0180695
748.308	0.0180682
748.387	0.0180653
748.465	0.0180030
748.543	0.0181225
748.621	0.0179817
748.699	0.0179659
748.777	0.0179395
748.855	0.0179822
748.933	0.0179851
749.012	0.0179245
749.090	0.0179189
749.168	0.0179967
749.246	0.0178766
749.324	0.0177743
749.402	0.0178150
749.480	0.0178482
749.558	0.0177950
749.637	0.0179426
749.715	0.0179147
749.793	0.0178526
749.871	0.0177258
749.949	0.0176801
750.027	0.0178671
750.105	0.0177115
750.183	0.0176491
750.262	0.0177011
750.340	0.0176482
750.418	0.0177575
750.496	0.0176431
750.574	0.0178901
750.652	0.0178611
750.730	0.0177050
750.808	0.0177196
750.887	0.0178468
750.965	0.0178681
751.043	0.0177039
751.121	0.0177307
751.199	0.0178077
751.277	0.0178532
751.355	0.0179744
751.433	0.0178109
751.512	0.0177737
751.590	0.0179697
751.668	0.0179491
751.746	0.0179610
751.824	0.0179209
751.902	0.0179630
751.980	0.0178238
752.058	0.0180384
752.137	0.0181641
752.215	0.0179430
752.293	0.0180941
752.371	0.0181022
752.449	0.0180194
752.527	0.0179498
752.605	0.0178153
752.683	0.0179658
752.762	0.0178708
752.840	0.0177238
752.918	0.0178055
752.996	0.0177168
753.074	0.0176692
753.152	0.0175851
753.230	0.0175232
753.308	0.0174677
753.387	0.0175359
753.465	0.0174168
753.543	0.0175512
753.621	0.0174816
753.699	0.0175999
753.777	0.0174796
753.855	0.0174648
753.933	0.0175599
754.012	0.0176365
754.090	0.0176125
754.168	0.0176344
754.246	0.0177034
754.324	0.0177563
754.402	0.0178482
754.480	0.0177306
754.558	0.0178809
754.637	0.0178935
754.715	0.0178302
754.793	0.0176981
754.871	0.0176775
754.949	0.0176419
755.027	0.0176027
755.105	0.0176781
755.183	0.0176444
755.262	0.0176044
755.340	0.0178063
755.418	0.0176764
755.496	0.0176294
755.574	0.0177574
755.652	0.0178368
755.730	0.0178819
755.808	0.0179124
755.887	0.0177720
755.965	0.0177869
756.043	0.0179746
756.121	0.0180394
756.199	0.0178844
756.277	0.0178557
756.355	0.0178246
756.433	0.0179040
756.512	0.0178648
756.590	0.0178122
756.668	0.0176887
756.746	0.0177949
756.824	0.0176498
756.902	0.0177066
756.980	0.0178337
757.058	0.0176724
757.137	0.0175864
757.215	0.0176717
757.293	0.0177448
757.371	0.0178547
757.449	0.0177267
757.527	0.0178225
757.605	0.0176976
757.683	0.0177885
757.762	0.0179305
757.840	0.0179184
757.918	0.0178446
757.996	0.0178423
758.074	0.0179082
758.152	0.0178677
758.230	0.0178793
758.308	0.0178397
758.387	0.0178500
758.465	0.0178732
758.543	0.0177644
758.621	0.0178074
758.699	0.0178151
758.777	0.0176086
758.855	0.0178094
758.933	0.0177929
759.012	0.0177335
759.090	0.0177090
759.168	0.0177947
759.246	0.0178344
759.324	0.0178002
759.402	0.0177342
759.480	0.0177428
759.558	0.0177906
759.637	0.0176799
759.715	0.0178144
759.793	0.0177370
759.871	0.0177451
759.949	0.0178116
760.027	0.0177142
760.105	0.0177119
760.183	0.0176255
760.262	0.0177075
760.340	0.0178384
760.418	0.0177173
760.496	0.0178033
760.574	0.0178474
760.652	0.0176939
760.730	0.0177768
760.808	0.0179786
760.887	0.0179068
760.965	0.0179422
761.043	0.0179732
761.121	0.0179124
761.199	0.0179757
761.277	0.0179755
761.355	0.0181412
761.433	0.0181241
761.512	0.0180035
761.590	0.0179877
761.668	0.0180566
761.746	0.0181355
761.824	0.0181364
761.902	0.0180198
761.980	0.0181356
762.058	0.0181345
762.137	0.0182301
762.215	0.0181368
762.293	0.0180627
762.371	0.0181607
762.449	0.0181478
762.527	0.0180971
762.605	0.0181772
762.683	0.0180688
762.762	0.0181972
762.840	0.0181406
762.918	0.0180022
762.996	0.0181722
763.074	0.0180849
763.152	0.0181268
763.230	0.0181488
763.308	0.0179701
763.387	0.0179539
763.465	0.0179682
763.543	0.0180669
763.621	0.0178707
763.699	0.0177763
763.777	0.0178967
763.855	0.0178041
763.933	0.0178836
764.012	0.0176751
764.090	0.0176299
764.168	0.0175809
764.246	0.0176014
764.324	0.0175024
764.402	0.0176447
764.480	0.0176167
764.558	0.0174922
764.637	0.0175500
764.715	0.0174295
764.793	0.0175678
764.871	0.0175064
764.949	0.0175475
765.027	0.0176914
765.105	0.0176206
765.183	0.0176670
765.262	0.0178996
765.340	0.0179095
765.418	0.0177953
765.496	0.0179250
765.574	0.0179752
765.652	0.0179984
765.730	0.0180984
765.808	0.0181210
765.887	0.0180219
765.965	0.0180602
766.043	0.0179914
766.121	0.0180542
766.199	0.0181154
766.277	0.0180096
766.355	0.0180585
766.433	0.0180926
766.512	0.0180051
766.590	0.0180566
766.668	0.0179279
766.746	0.0177161
766.824	0.0178758
766.902	0.0178304
766.980	0.0179321
767.058	0.0180308
767.137	0.0179539
767.215	0.0178783
767.293	0.0179247
767.371	0.0177782
767.449	0.0179886
767.527	0.0178874
767.605	0.0179408
767.683	0.0178577
767.762	0.0178603
767.840	0.0178854
767.918	0.0179818
767.996	0.0178795
768.074	0.0179098
768.152	0.0178425
768.230	0.0177379
768.308	0.0177328
768.387	0.0176780
768.465	0.0177837
768.543	0.0177698
768.621	0.0176665
768.699	0.0177467
768.777	0.0177271
768.855	0.0176163
768.933	0.0176521
769.012	0.0176421
769.090	0.0176555
769.168	0.0176587
769.246	0.0177193
769.324	0.0176605
769.402	0.0176308
769.480	0.0175327
769.558	0.0177059
769.637	0.0176723
769.715	0.0176960
769.793	0.0177331
769.871	0.0177436
769.949	0.0177154
770.027	0.0179197
770.105	0.0179183
770.183	0.0178830
770.262	0.0179792
770.340	0.0179196
770.418	0.0179620
770.496	0.0179764
770.574	0.0180050
770.652	0.0179475
770.730	0.0181698
770.808	0.0181505
770.887	0.0181350
770.965	0.0182665
771.043	0.0181815
771.121	0.0182008
771.199	0.0183138
771.277	0.0182359
771.355	0.0182089
771.433	0.0180479
771.512	0.0182064
771.590	0.0179830
771.668	0.0179931
771.746	0.0177989
771.824	0.0178294
771.902	0.0178925
771.980	0.0178188
772.058	0.0177360
772.137	0.0177073
772.215	0.0176776
772.293	0.0177704
772.371	0.0178613
772.449	0.0177783
772.527	0.0177500
772.605	0.0176921
772.683	0.0177456
772.762	0.0177756
772.840	0.0178767
772.918	0.0178808
772.996	0.0179574
773.074	0.0179761
773.152	0.0179384
773.230	0.0180018
773.308	0.0179767
773.387	0.0177529
773.465	0.0177116
773.543	0.0177827
773.621	0.0178036
773.699	0.0178767
773.777	0.0177541
773.855	0.0178931
773.933	0.0177808
774.012	0.0178091
774.090	0.0178720
774.168	0.0179447
774.246	0.0177976
774.324	0.0179372
774.402	0.0177844
774.480	0.0178423
774.558	0.0179398
774.637	0.0177959
774.715	0.0179150
774.793	0.0178207
774.871	0.0178645
774.949	0.0179539
775.027	0.0179957
775.105	0.0180288
775.183	0.0178130
775.262	0.0178071
775.340	0.0178600
775.418	0.0178464
775.496	0.0178457
775.574	0.0177672
775.652	0.0177744
775.730	0.0177413
775.808	0.0177265
775.887	0.0177020
775.965	0.0178326
776.043	0.0177172
776.121	0.0176714
776.199	0.0178738
776.277	0.0177885
776.355	0.0178727
776.433	0.0178405
776.512	0.0178483
776.590	0.0178695
776.668	0.0178492
776.746	0.0179166
776.824	0.0178764
776.902	0.0179814
776.980	0.0179128
777.058	0.0178983
777.137	0.0178038
777.215	0.0179171
777.293	0.0177251
777.371	0.0177398
777.449	0.0177735
777.527	0.0177932
777.605	0.0175712
777.683	0.0177553
777.762	0.0176366
777.840	0.0177248
777.918	0.0177246
777.996	0.0178400
778.074	0.0177070
778.152	0.0178048
778.230	0.0177781
778.308	0.0178072
778.387	0.0178200
778.465	0.0179309
778.543	0.0179024
778.621	0.0179782
778.699	0.0179409
778.777	0.0180751
778.855	0.0178921
778.933	0.0178397
779.012	0.0180708
779.090	0.0179401
779.168	0.0178707
779.246	0.0179678
779.324	0.0180169
779.402	0.0178703
779.480	0.0177663
779.558	0.0176728
779.637	0.0176639
779.715	0.0177234
779.793	0.0176496
779.871	0.0175127
779.949	0.0176085
780.027	0.0176526
780.105	0.0175854
780.183	0.0175463
780.262	0.0177055
780.340	0.0176409
780.418	0.0175897
780.496	0.0177644
780.574	0.0176719
780.652	0.0178638
780.730	0.0178217
780.808	0.0178629
780.887	0.0179462
780.965	0.0178478
781.043	0.0179344
781.121	0.0180003
781.199	0.0180998
781.277	0.0181271
781.355	0.0182215
781.433	0.0182121
781.512	0.0180837
781.590	0.0181828
781.668	0.0182379
781.746	0.0182298
781.824	0.0182468
781.902	0.0182341
781.980	0.0181949
782.058	0.0183235
782.137	0.0182361
782.215	0.0180767
782.293	0.0180264
782.371	0.0180070
782.449	0.0179735
782.527	0.0179074
782.605	0.0179101
782.683	0.0178085
782.762	0.0178177
782.840	0.0176621
782.918	0.0178189
782.996	0.0175556
783.074	0.0176577
783.152	0.0175404
783.230	0.0175593
783.308	0.0175615
783.387	0.0175213
783.465	0.0176038
783.543	0.0177346
783.621	0.0176439
783.699	0.0176643
783.777	0.0175242
783.855	0.0177254
783.933	0.0177019
784.012	0.0177648
784.090	0.0177551
784.168	0.0176923
784.246	0.0177560
784.324	0.0178593
784.402	0.0177109
784.480	0.0178163
784.558	0.0178056
784.637	0.0179126
784.715	0.0180076
784.793	0.0179745
784.871	0.0179553
784.949	0.0180429
785.027	0.0179174
785.105	0.0181328
785.183	0.0180142
785.262	0.0179865
785.340	0.0179924
785.418	0.0180955
785.496	0.0179861
785.574	0.0178557
785.652	0.0178448
785.730	0.0179626
785.808	0.0180670
785.887	0.0178315
785.965	0.0179921
786.043	0.0179093
786.121	0.0178522
786.199	0.0178840
786.277	0.0177744
786.355	0.0176925
786.433	0.0177880
786.512	0.0178281
786.590	0.0179021
786.668	0.0178986
786.746	0.0178831
786.824	0.0178214
786.902	0.0179819
786.980	0.0180045
787.058	0.0179438
787.137	0.0180066
787.215	0.0179701
787.293	0.0178826
787.371	0.0178119
787.449	0.0179171
787.527	0.0179974
787.605	0.0178677
787.683	0.0176579
787.762	0.0178332
787.840	0.0177961
787.918	0.0176270
787.996	0.0177641
788.074	0.0176647
788.152	0.0176561
788.230	0.0176952
788.308	0.0177148
788.387	0.0175831
788.465	0.0176304
788.543	0.0175998
788.621	0.0177812
788.699	0.0177306
788.777	0.0177998
788.855	0.0177563
788.933	0.0178021
789.012	0.0177856
789.090	0.0177322
789.168	0.0177196
789.246	0.0176725
789.324	0.0177978
789.402	0.0178084
789.480	0.0176196
789.558	0.0178371
789.637	0.0177151
789.715	0.0177421
789.793	0.0176187
789.871	0.0177037
789.949	0.0178809
790.027	0.0179194
790.105	0.0177431
790.183	0.0176716
790.262	0.0178298
790.340	0.0178532
790.418	0.0178311
790.496	0.0179580
790.574	0.0178267
790.652	0.0178671
790.730	0.0180750
790.808	0.0180318
790.887	0.0179662
790.965	0.0179424
791.043	0.0178374
791.121	0.0178695
791.199	0.0178538
791.277	0.0179586
791.355	0.0178320
791.433	0.0178233
791.512	0.0178893
791.590	0.0177892
791.668	0.0178110
791.746	0.0179056
791.824	0.0177579
791.902	0.0179578
791.980	0.0178357
792.058	0.0178196
792.137	0.0178923
792.215	0.0178152
792.293	0.0177195
792.371	0.0178274
792.449	0.0179048
792.527	0.0178565
792.605	0.0176634
792.683	0.0178280
792.762	0.0178050
792.840	0.0177767
792.918	0.0178169
792.996	0.0178053
793.074	0.0177579
793.152	0.0178731
793.230	0.0178674
793.308	0.0177963
793.387	0.0178481
793.465	0.0178796
793.543	0.0177711
793.621	0.0179303
793.699	0.0178663
793.777	0.0177388
793.855	0.0177707
793.933	0.0178419
794.012	0.0178047
794.090	0.0177790
794.168	0.0179046
794.246	0.0180045
794.324	0.0179083
794.402	0.0178632
794.480	0.0178811
794.558	0.0179144
794.637	0.0179709
794.715	0.0180101
794.793	0.0178561
794.871	0.0178636
794.949	0.0179388
795.027	0.0177724
795.105	0.0178812
795.183	0.0177627
795.262	0.0177730
795.340	0.0176800
795.418	0.0178362
795.496	0.0178331
795.574	0.0177784
795.652	0.0177872
795.730	0.0178168
795.808	0.0176542
795.887	0.0178160
795.965	0.0178280
796.043	0.0178436
796.121	0.0178470
796.199	0.0177757
796.277	0.0178288
796.355	0.0177204
796.433	0.0178504
796.512	0.0178187
796.590	0.0178219
796.668	0.0177798
796.746	0.0178096
796.824	0.0178514
796.902	0.0178857
796.980	0.0177506
797.058	0.0177682
797.137	0.0177657
797.215	0.0180237
797.293	0.0179441
797.371	0.0178679
797.449	0.0178603
797.527	0.0178382
797.605	0.0179100
797.683	0.0179033
797.762	0.0178880
797.840	0.0179334
797.918	0.0179311
797.996	0.0179539
798.074	0.0178595
798.152	0.0178069
798.230	0.0179948
798.308	0.0179436
798.387	0.0179217
798.465	0.0179766
798.543	0.0178438
798.621	0.0178242
798.699	0.0179072
798.777	0.0179719
798.855	0.0179581
798.933	0.0178682
799.012	0.0179547
799.090	0.0176516
799.168	0.0177709
799.246	0.0177769
799.324	0.0177119
799.402	0.0178629
799.480	0.0177707
799.558	0.0177409
799.637	0.0177254
799.715	0.0177007
799.793	0.0177439
799.871	0.0177013
799.949	0.0177508
800.027	0.0178073
800.105	0.0178568
800.183	0.0177197
800.262	0.0177858
800.340	0.0178849
800.418	0.0178226
800.496	0.0176167
800.574	0.0177668
800.652	0.0178403
800.730	0.0178532
800.808	0.0178185
800.887	0.0178544
800.965	0.0177969
801.043	0.0177410
801.121	0.0179031
801.199	0.0177882
801.277	0.0178008
801.355	0.0178016
801.433	0.0177161
801.512	0.0177540
801.590	0.0177228
801.668	0.0178266
801.746	0.0177993
801.824	0.0178032
801.902	0.0177623
801.980	0.0177209
802.058	0.0177301
802.137	0.0178684
802.215	0.0178485
802.293	0.0178677
802.371	0.0177782
802.449	0.0177792
802.527	0.0179895
802.605	0.0179213
802.683	0.0178896
802.762	0.0178411
802.840	0.0178833
802.918	0.0178990
802.996	0.0179018
803.074	0.0178300
803.152	0.0178060
803.230	0.0178120
803.308	0.0179621
803.387	0.0177529
803.465	0.0177109
803.543	0.0177721
803.621	0.0178446
803.699	0.0178464
803.777	0.0178302
803.855	0.0178313
803.933	0.0177634
804.012	0.0177862
804.090	0.0176858
804.168	0.0176638
804.246	0.0176770
804.324	0.0178651
804.402	0.0177213
804.480	0.0177303
804.558	0.0178036
804.637	0.0178748
804.715	0.0177206
804.793	0.0178957
804.871	0.0179674
804.949	0.0176765
805.027	0.0178757
805.105	0.0177174
805.183	0.0178011
805.262	0.0177573
805.340	0.0178075
805.418	0.0177615
805.496	0.0177299
805.574	0.0177242
805.652	0.0176831
805.730	0.0178575
805.808	0.0179238
805.887	0.0177203
805.965	0.0178782
806.043	0.0178853
806.121	0.0177929
806.199	0.0179015
806.277	0.0178460
806.355	0.0179228
806.433	0.0179195
806.512	0.0177979
806.590	0.0178655
806.668	0.0178476
806.746	0.0179305
806.824	0.0178305
806.902	0.0178263
806.980	0.0178135
807.058	0.0178043
807.137	0.0177790
807.215	0.0179114
807.293	0.0177482
807.371	0.0177717
807.449	0.0178236
807.527	0.0176862
807.605	0.0177029
807.683	0.0176384
807.762	0.0176679
807.840	0.0177155
807.918	0.0177636
807.996	0.0177193
808.074	0.0178223
808.152	0.0176052
808.230	0.0177546
808.308	0.0176366
808.387	0.0176891
808.465	0.0176374
808.543	0.0176672
808.621	0.0177560
808.699	0.0175550
808.777	0.0176632
808.855	0.0176938
808.933	0.0176071
809.012	0.0176820
809.090	0.0177108
809.168	0.0178535
809.246	0.0177374
809.324	0.0177442
809.402	0.0176926
809.480	0.0176791
809.558	0.0179005
809.637	0.0178714
809.715	0.0178837
809.793	0.0177757
809.871	0.0176529
809.949	0.0176517
810.027	0.0177082
810.105	0.0177522
810.183	0.0178254
810.262	0.0177040
810.340	0.0178139
810.418	0.0178804
810.496	0.0177202
810.574	0.0177927
810.652	0.0177019
810.730	0.0178180
810.808	0.0177914
810.887	0.0178358
810.965	0.0177464
811.043	0.0178277
811.121	0.0177341
811.199	0.0178468
811.277	0.0179192
811.355	0.0176838
811.433	0.0178513
811.512	0.0177375
811.590	0.0177666
811.668	0.0177741
811.746	0.0178373
811.824	0.0178674
811.902	0.0179185
811.980	0.0176122
812.058	0.0178311
812.137	0.0179053
812.215	0.0177727
812.293	0.0177165
812.371	0.0178035
812.449	0.0178368
812.527	0.0179087
812.605	0.0179551
812.683	0.0179452
812.762	0.0177829
812.840	0.0178842
812.918	0.0178956
812.996	0.0178014
813.074	0.0179013
813.152	0.0179741
813.230	0.0177065
813.308	0.0178066
813.387	0.0178728
813.465	0.0178901
813.543	0.0180489
813.621	0.0178847
813.699	0.0177751
813.777	0.0179121
813.855	0.0178871
813.933	0.0177860
814.012	0.0177622
814.090	0.0178813
814.168	0.0176720
814.246	0.0176769
814.324	0.0177070
814.402	0.0176680
814.480	0.0176122
814.558	0.0177804
814.637	0.0177140
814.715	0.0177007
814.793	0.0176732
814.871	0.0177332
814.949	0.0176413
815.027	0.0177198
815.105	0.0177010
815.183	0.0178228
815.262	0.0178468
815.340	0.0178260
815.418	0.0179527
815.496	0.0179018
815.574	0.0178147
815.652	0.0180392
815.730	0.0178851
815.808	0.0178632
815.887	0.0178718
815.965	0.0180103
816.043	0.0179356
816.121	0.0178447
816.199	0.0179106
816.277	0.0179679
816.355	0.0179839
816.433	0.0177378
816.512	0.0179347
816.590	0.0179688
816.668	0.0177452
816.746	0.0178020
816.824	0.0178676
816.902	0.0180260
816.980	0.0178691
817.058	0.0178350
817.137	0.0177629
817.215	0.0180471
817.293	0.0180664
817.371	0.0179258
817.449	0.0179186
817.527	0.0177157
817.605	0.0178364
817.683	0.0179351
817.762	0.0178815
817.840	0.0179029
817.918	0.0177935
817.996	0.0178425
818.074	0.0179348
818.152	0.0177895
818.230	0.0179230
818.308	0.0179198
818.387	0.0179504
818.465	0.0179143
818.543	0.0178664
818.621	0.0177644
818.699	0.0180214
818.777	0.0179608
818.855	0.0179135
818.933	0.0179929
819.012	0.0178507
819.090	0.0180612
819.168	0.0180540
819.246	0.0180262
819.324	0.0178344
819.402	0.0179978
819.480	0.0178683
819.558	0.0178404
819.637	0.0178984
819.715	0.0178443
819.793	0.0180569
819.871	0.0178631
819.949	0.0177879
820.027	0.0178724
820.105	0.0178230
820.183	0.0177774
820.262	0.0177361
820.340	0.0178526
820.418	0.0177027
820.496	0.0176927
820.574	0.0177045
820.652	0.0177463
820.730	0.0177657
820.808	0.0176569
820.887	0.0176958
820.965	0.0178062
821.043	0.0176987
821.121	0.0178333
821.199	0.0178914
821.277	0.0179716
821.355	0.0178957
821.433	0.0179312
821.512	0.0179388
821.590	0.0180032
821.668	0.0178940
821.746	0.0179205
821.824	0.0179540
821.902	0.0178958
821.980	0.0179866
822.058	0.0178983
822.137	0.0180285
822.215	0.0179382
822.293	0.0179622
822.371	0.0179868
822.449	0.0177902
822.527	0.0177389
822.605	0.0178783
822.683	0.0179117
822.762	0.0178622
822.840	0.0178751
822.918	0.0177689
822.996	0.0177021
823.074	0.0177172
823.152	0.0178937
823.230	0.0178903
823.308	0.0177260
823.387	0.0179111
823.465	0.0177512
823.543	0.0176684
823.621	0.0178227
823.699	0.0177618
823.777	0.0178093
823.855	0.0177619
823.933	0.0177363
824.012	0.0177473
824.090	0.0177486
824.168	0.0176791
824.246	0.0176402
824.324	0.0176360
824.402	0.0175994
824.480	0.0177959
824.558	0.0176329
824.637	0.0177061
824.715	0.0178288
824.793	0.0178207
824.871	0.0176627
824.949	0.0177576
825.027	0.0177657
825.105	0.0176556
825.183	0.0177057
825.262	0.0177858
825.340	0.0177537
825.418	0.0179302
825.496	0.0178352
825.574	0.0177432
825.652	0.0177329
825.730	0.0176939
825.808	0.0177485
825.887	0.0177267
825.965	0.0176432
826.043	0.0176595
826.121	0.0176936
826.199	0.0176420
826.277	0.0177590
826.355	0.0176382
826.433	0.0176649
826.512	0.0176835
826.590	0.0176795
826.668	0.0176836
826.746	0.0176496
826.824	0.0177731
826.902	0.0177889
826.980	0.0177261
827.058	0.0178331
827.137	0.0179289
827.215	0.0177360
827.293	0.0176823
827.371	0.0178394
827.449	0.0178654
827.527	0.0176953
827.605	0.0176970
827.683	0.0178303
827.762	0.0178073
827.840	0.0176218
827.918	0.0176727
827.996	0.0178304
828.074	0.0176633
828.152	0.0176596
828.230	0.0176679
828.308	0.0176450
828.387	0.0176804
828.465	0.0177361
828.543	0.0176487
828.621	0.0177193
828.699	0.0177257
828.777	0.0178145
828.855	0.0177187
828.933	0.0177586
829.012	0.0178448
829.090	0.0176990
829.168	0.0179599
829.246	0.0178189
829.324	0.0177917
829.402	0.0177467
829.480	0.0177054
829.558	0.0177766
829.637	0.0177740
829.715	0.0176577
829.793	0.0177135
829.871	0.0177891
829.949	0.0177560
830.027	0.0178384
830.105	0.0179666
830.183	0.0178506
830.262	0.0177785
830.340	0.0179121
830.418	0.0178976
830.496	0.0178028
830.574	0.0178733
830.652	0.0178944
830.730	0.0179366
830.808	0.0177756
830.887	0.0177378
830.965	0.0177189
831.043	0.0178368
831.121	0.0178313
831.199	0.0179344
831.277	0.0178196
831.355	0.0178773
831.433	0.0178448
831.512	0.0176908
831.590	0.0178519
831.668	0.0178196
831.746	0.0177618
831.824	0.0177212
831.902	0.0179030
831.980	0.0178355
832.058	0.0177922
832.137	0.0177616
832.215	0.0177238
832.293	0.0176476
832.371	0.0178080
832.449	0.0176984
832.527	0.0176793
832.605	0.0176292
832.683	0.0177719
832.762	0.0176777
832.840	0.0177517
832.918	0.0175870
832.996	0.0175835
833.074	0.0177090
833.152	0.0178338
833.230	0.0175967
833.308	0.0176552
833.387	0.0176752
833.465	0.0176017
833.543	0.0175876
833.621	0.0176311
833.699	0.0176985
833.777	0.0176569
833.855	0.0176894
833.933	0.0178885
834.012	0.0177943
834.090	0.0178519
834.168	0.0176955
834.246	0.0177396
834.324	0.0179225
834.402	0.0179691
834.480	0.0178275
834.558	0.0177647
834.637	0.0178889
834.715	0.0179899
834.793	0.0177753
834.871	0.0178815
834.949	0.0180885
835.027	0.0177895
835.105	0.0177761
835.183	0.0179530
835.262	0.0178911
835.340	0.0178596
835.418	0.0178349
835.496	0.0176851
835.574	0.0178030
835.652	0.0177652
835.730	0.0176929
835.808	0.0176464
835.887	0.0176508
835.965	0.0177429
836.043	0.0176603
836.121	0.0176036
836.199	0.0174973
836.277	0.0174931
836.355	0.0175990
836.433	0.0176255
836.512	0.0176212
836.590	0.0175748
836.668	0.0177232
836.746	0.0177412
836.824	0.0176010
836.902	0.0177206
836.980	0.0176600
837.058	0.0177636
837.137	0.0177370
837.215	0.0178407
837.293	0.0179306
837.371	0.0177809
837.449	0.0178379
837.527	0.0178321
837.605	0.0175951
837.683	0.0178004
837.762	0.0178669
837.840	0.0178741
837.918	0.0179128
837.996	0.0179055
838.074	0.0177937
838.152	0.0177802
838.230	0.0180644
838.308	0.0178469
838.387	0.0177159
838.465	0.0179362
838.543	0.0180005
838.621	0.0179173
838.699	0.0178500
838.777	0.0178558
838.855	0.0178229
838.933	0.0177870
839.012	0.0178838
839.090	0.0178018
839.168	0.0178236
839.246	0.0178257
839.324	0.0179073
839.402	0.0177861
839.480	0.0178573
839.558	0.0177603
839.637	0.0178027
839.715	0.0179482
839.793	0.0180280
839.871	0.0178734
839.949	0.0179002
840.027	0.0178931
840.105	0.0181418
840.183	0.0180571
840.262	0.0179723
840.340	0.0181515
840.418	0.0181619
840.496	0.0179726
840.574	0.0181490
840.652	0.0179290
840.730	0.0180487
840.808	0.0181163
840.887	0.0180017
840.965	0.0180199
841.043	0.0180723
841.121	0.0179679
841.199	0.0179872
841.277	0.0178783
841.355	0.0178648
841.433	0.0178847
841.512	0.0179175
841.590	0.0180164
841.668	0.0178690
841.746	0.0178139
841.824	0.0177453
841.902	0.0178564
841.980	0.0177096
842.058	0.0178439
842.137	0.0177085
842.215	0.0178111
842.293	0.0177483
842.371	0.0178032
842.449	0.0177536
842.527	0.0177852
842.605	0.0177025
842.683	0.0177071
842.762	0.0176781
842.840	0.0176655
842.918	0.0177051
842.996	0.0176923
843.074	0.0177528
843.152	0.0177842
843.230	0.0177551
843.308	0.0178972
843.387	0.0178242
843.465	0.0179794
843.543	0.0178140
843.621	0.0179652
843.699	0.0178345
843.777	0.0178246
843.855	0.0177238
843.933	0.0178374
844.012	0.0177048
844.090	0.0178127
844.168	0.0178333
844.246	0.0178233
844.324	0.0177750
844.402	0.0178418
844.480	0.0177197
844.558	0.0177702
844.637	0.0180396
844.715	0.0177776
844.793	0.0176958
844.871	0.0177866
844.949	0.0177950
845.027	0.0176757
845.105	0.0177302
845.183	0.0178506
845.262	0.0178600
845.340	0.0178272
845.418	0.0177828
845.496	0.0176537
845.574	0.0176994
845.652	0.0178004
845.730	0.0177214
845.808	0.0178226
845.887	0.0178126
845.965	0.0177525
846.043	0.0177343
846.121	0.0177357
846.199	0.0177900
846.277	0.0177939
846.355	0.0178571
846.433	0.0178368
846.512	0.0177848
846.590	0.0176810
846.668	0.0178738
846.746	0.0178006
846.824	0.0178159
846.902	0.0177579
846.980	0.0177435
847.058	0.0177660
847.137	0.0176664
847.215	0.0178656
847.293	0.0176912
847.371	0.0178735
847.449	0.0179188
847.527	0.0176759
847.605	0.0177251
847.683	0.0177271
847.762	0.0178127
847.840	0.0176741
847.918	0.0177386
847.996	0.0177530
848.074	0.0179042
848.152	0.0177785
848.230	0.0178537
848.308	0.0177200
848.387	0.0177838
848.465	0.0177798
848.543	0.0176933
848.621	0.0178687
848.699	0.0179689
848.777	0.0178946
848.855	0.0178476
848.933	0.0178815
849.012	0.0179144
849.090	0.0178828
849.168	0.0177682
849.246	0.0177938
849.324	0.0177196
849.402	0.0177127
849.480	0.0178943
849.558	0.0177576
849.637	0.0177451
849.715	0.0178106
849.793	0.0177928
849.871	0.0177627
849.949	0.0179269
850.027	0.0178230
850.105	0.0177242
850.183	0.0176311
850.262	0.0176982
850.340	0.0178391
850.418	0.0178207
850.496	0.0177704
850.574	0.0176885
850.652	0.0178639
850.730	0.0177426
850.808	0.0178068
850.887	0.0177246
850.965	0.0177495
851.043	0.0177298
851.121	0.0176495
851.199	0.0176310
851.277	0.0177283
851.355	0.0177611
851.433	0.0177166
851.512	0.0177386
851.590	0.0177674
851.668	0.0178374
851.746	0.0177181
851.824	0.0178054
851.902	0.0179196
851.980	0.0177726
852.058	0.0178155
852.137	0.0177843
852.215	0.0178732
852.293	0.0178620
852.371	0.0178672
852.449	0.0178680
852.527	0.0178516
852.605	0.0179591
852.683	0.0177836
852.762	0.0179266
852.840	0.0179408
852.918	0.0178383
852.996	0.0179743
853.074	0.0178410
853.152	0.0178973
853.230	0.0177402
853.308	0.0179599
853.387	0.0177739
853.465	0.0177045
853.543	0.0177425
853.621	0.0179099
853.699	0.0178691
853.777	0.0178008
853.855	0.0177448
853.933	0.0177914
854.012	0.0178302
854.090	0.0177717
854.168	0.0177956
854.246	0.0177473
854.324	0.0177725
854.402	0.0177371
854.480	0.0178315
854.558	0.0178656
854.637	0.0178907
854.715	0.0178567
854.793	0.0179455
854.871	0.0178900
854.949	0.0177106
855.027	0.0178004
855.105	0.0179041
855.183	0.0178473
855.262	0.0179501
855.340	0.0178356
855.418	0.0177011
855.496	0.0179448
855.574	0.0179310
855.652	0.0179897
855.730	0.0177831
855.808	0.0178428
855.887	0.0178027
855.965	0.0177446
856.043	0.0178425
856.121	0.0179330
856.199	0.0178451
856.277	0.0178090
856.355	0.0178103
856.433	0.0177707
856.512	0.0177375
856.590	0.0178627
856.668	0.0179945
856.746	0.0179526
856.824	0.0177586
856.902	0.0178035
856.980	0.0178133
857.058	0.0180285
857.137	0.0179758
857.215	0.0177528
857.293	0.0177908
857.371	0.0179655
857.449	0.0178742
857.527	0.0178697
857.605	0.0179670
857.683	0.0179414
857.762	0.0179174
857.840	0.0179021
857.918	0.0178084
857.996	0.0178255
858.074	0.0178752
858.152	0.0177924
858.230	0.0178835
858.308	0.0178737
858.387	0.0178181
858.465	0.0178257
858.543	0.0178027
858.621	0.0178280
858.699	0.0178889
858.777	0.0178751
858.855	0.0179512
858.933	0.0178190
859.012	0.0178484
859.090	0.0179964
859.168	0.0179717
859.246	0.0180431
859.324	0.0178159
859.402	0.0178944
859.480	0.0179843
859.558	0.0179651
859.637	0.0179456
859.715	0.0179488
859.793	0.0179655
859.871	0.0179303
859.949	0.0180389
860.027	0.0179127
860.105	0.0179851
860.183	0.0178428
860.262	0.0179945
860.340	0.0179056
860.418	0.0179963
860.496	0.0179138
860.574	0.0180450
860.652	0.0179955
860.730	0.0178296
860.808	0.0179070
860.887	0.0178596
860.965	0.0178870
861.043	0.0178884
861.121	0.0178608
861.199	0.0178590
861.277	0.0178223
861.355	0.0179216
861.433	0.0179375
861.512	0.0178465
861.590	0.0177560
861.668	0.0177829
861.746	0.0178710
861.824	0.0179506
861.902	0.0178551
861.980	0.0177760
862.058	0.0179095
862.137	0.0178521
862.215	0.0179107
862.293	0.0177888
862.371	0.0178414
862.449	0.0178669
862.527	0.0177798
862.605	0.0177232
862.683	0.0176855
862.762	0.0179317
862.840	0.0179185
862.918	0.0178648
862.996	0.0179450
863.074	0.0178610
863.152	0.0176852
863.230	0.0177865
863.308	0.0177903
863.387	0.0178169
863.465	0.0178067
863.543	0.0178827
863.621	0.0178207
863.699	0.0179346
863.777	0.0176714
863.855	0.0177174
863.933	0.0178595
864.012	0.0177235
864.090	0.0179060
864.168	0.0178403
864.246	0.0177634
864.324	0.0179377
864.402	0.0178828
864.480	0.0177766
864.558	0.0178584
864.637	0.0178578
864.715	0.0178713
864.793	0.0178220
864.871	0.0178594
864.949	0.0177670
865.027	0.0177544
865.105	0.0178391
865.183	0.0179557
865.262	0.0177817
865.340	0.0177966
865.418	0.0179406
865.496	0.0178632
865.574	0.0178760
865.652	0.0178669
865.730	0.0178053
865.808	0.0176302
865.887	0.0177802
865.965	0.0178525
866.043	0.0178062
866.121	0.0177113
866.199	0.0177166
866.277	0.0178452
866.355	0.0178593
866.433	0.0178344
866.512	0.0178121
866.590	0.0177036
866.668	0.0177724
866.746	0.0177042
866.824	0.0178479
866.902	0.0177486
866.980	0.0177797
867.058	0.0177505
867.137	0.0177188
867.215	0.0177178
867.293	0.0178467
867.371	0.0177516
867.449	0.0177699
867.527	0.0178481
867.605	0.0176531
867.683	0.0176264
867.762	0.0176776
867.840	0.0177328
867.918	0.0178339
867.996	0.0176628
868.074	0.0176326
868.152	0.0176252
868.230	0.0176298
868.308	0.0177258
868.387	0.0177412
868.465	0.0176347
868.543	0.0176590
868.621	0.0177473
868.699	0.0178493
868.777	0.0175813
868.855	0.0176291
868.933	0.0177233
869.012	0.0177235
869.090	0.0177499
869.168	0.0176604
869.246	0.0177006
869.324	0.0177209
869.402	0.0176983
869.480	0.0176286
869.558	0.0177216
869.637	0.0176329
869.715	0.0175922
869.793	0.0175713
869.871	0.0177491
869.949	0.0175646
