06/03/2022	18:32:34	Ver.	4.1	UNKNOWN
Optical Delay	550.027179	Delta X		0.078125	Sweeps	1	Scan Rate	0/0
Coordinates	Axis 1	NaN	Axis 2	NaN	Axis 3	NaN	Axis 4	NaN	Axis 5	NaN	Axis 6	0.000000
TX Power	0.000000	RX Power	0.000000

550.027	0.0177017
550.105	0.0174111
550.183	0.0176652
550.262	0.0176997
550.340	0.0176144
550.418	0.0175998
550.496	0.0176801
550.574	0.0177602
550.652	0.0177701
550.730	0.0176472
550.808	0.0176636
550.887	0.0176439
550.965	0.0175896
551.043	0.0176206
551.121	0.0176704
551.199	0.0176709
551.277	0.0177843
551.355	0.0177118
551.433	0.0176214
551.512	0.0176234
551.590	0.0175584
551.668	0.0177271
551.746	0.0175723
551.824	0.0175621
551.902	0.0177415
551.980	0.0175780
552.058	0.0175855
552.137	0.0175714
552.215	0.0176033
552.293	0.0177110
552.371	0.0175331
552.449	0.0176684
552.527	0.0175999
552.605	0.0175970
552.683	0.0176920
552.762	0.0175877
552.840	0.0174848
552.918	0.0176154
552.996	0.0176384
553.074	0.0177179
553.152	0.0177148
553.230	0.0175460
553.308	0.0175243
553.387	0.0176249
553.465	0.0175694
553.543	0.0176332
553.621	0.0176826
553.699	0.0176072
553.777	0.0175928
553.855	0.0176836
553.933	0.0175996
554.012	0.0175278
554.090	0.0175759
554.168	0.0175330
554.246	0.0176619
554.324	0.0175652
554.402	0.0176668
554.480	0.0177331
554.558	0.0176187
554.637	0.0175838
554.715	0.0175948
554.793	0.0177235
554.871	0.0177509
554.949	0.0176302
555.027	0.0177734
555.105	0.0177002
555.183	0.0176743
555.262	0.0176873
555.340	0.0176312
555.418	0.0176879
555.496	0.0176771
555.574	0.0177737
555.652	0.0178164
555.730	0.0177320
555.808	0.0177121
555.887	0.0177316
555.965	0.0176723
556.043	0.0176067
556.121	0.0177273
556.199	0.0178497
556.277	0.0176151
556.355	0.0177722
556.433	0.0176396
556.512	0.0176974
556.590	0.0177016
556.668	0.0177190
556.746	0.0177908
556.824	0.0178427
556.902	0.0178275
556.980	0.0177420
557.058	0.0177179
557.137	0.0177912
557.215	0.0178611
557.293	0.0178641
557.371	0.0178722
557.449	0.0178624
557.527	0.0177002
557.605	0.0178481
557.683	0.0176179
557.762	0.0177503
557.840	0.0179068
557.918	0.0178116
557.996	0.0176835
558.074	0.0178214
558.152	0.0176939
558.230	0.0178438
558.308	0.0179961
558.387	0.0179105
558.465	0.0178487
558.543	0.0180029
558.621	0.0180522
558.699	0.0178271
558.777	0.0176323
558.855	0.0177276
558.933	0.0179016
559.012	0.0178714
559.090	0.0177734
559.168	0.0178529
559.246	0.0179047
559.324	0.0178754
559.402	0.0178791
559.480	0.0178044
559.558	0.0178297
559.637	0.0179520
559.715	0.0177868
559.793	0.0177888
559.871	0.0177953
559.949	0.0178060
560.027	0.0176870
560.105	0.0177992
560.183	0.0178838
560.262	0.0177447
560.340	0.0178504
560.418	0.0178686
560.496	0.0176731
560.574	0.0177827
560.652	0.0177853
560.730	0.0177913
560.808	0.0177598
560.887	0.0178725
560.965	0.0178508
561.043	0.0177254
561.121	0.0177474
561.199	0.0177526
561.277	0.0177289
561.355	0.0177374
561.433	0.0177243
561.512	0.0178653
561.590	0.0177920
561.668	0.0177238
561.746	0.0177164
561.824	0.0177247
561.902	0.0179465
561.980	0.0177634
562.058	0.0177528
562.137	0.0177300
562.215	0.0177284
562.293	0.0177788
562.371	0.0177659
562.449	0.0177353
562.527	0.0176907
562.605	0.0176301
562.683	0.0176951
562.762	0.0176835
562.840	0.0177210
562.918	0.0177966
562.996	0.0176813
563.074	0.0177905
563.152	0.0177538
563.230	0.0175600
563.308	0.0175820
563.387	0.0176365
563.465	0.0177003
563.543	0.0177140
563.621	0.0175735
563.699	0.0177038
563.777	0.0175837
563.855	0.0175733
563.933	0.0177344
564.012	0.0177422
564.090	0.0175651
564.168	0.0175809
564.246	0.0177061
564.324	0.0176996
564.402	0.0176949
564.480	0.0176380
564.558	0.0177613
564.637	0.0177992
564.715	0.0176936
564.793	0.0177776
564.871	0.0175739
564.949	0.0176300
565.027	0.0177624
565.105	0.0177329
565.183	0.0176514
565.262	0.0177442
565.340	0.0175601
565.418	0.0175443
565.496	0.0176334
565.574	0.0177275
565.652	0.0176551
565.730	0.0177637
565.808	0.0176433
565.887	0.0176167
565.965	0.0175712
566.043	0.0175990
566.121	0.0177436
566.199	0.0177565
566.277	0.0176715
566.355	0.0176830
566.433	0.0176659
566.512	0.0176414
566.590	0.0177385
566.668	0.0176069
566.746	0.0175178
566.824	0.0176330
566.902	0.0176424
566.980	0.0175856
567.058	0.0175552
567.137	0.0175741
567.215	0.0176434
567.293	0.0176801
567.371	0.0176788
567.449	0.0176144
567.527	0.0176246
567.605	0.0176688
567.683	0.0177016
567.762	0.0177724
567.840	0.0176070
567.918	0.0176582
567.996	0.0177596
568.074	0.0178041
568.152	0.0175617
568.230	0.0177197
568.308	0.0176147
568.387	0.0175927
568.465	0.0177313
568.543	0.0176563
568.621	0.0176973
568.699	0.0177859
568.777	0.0177785
568.855	0.0175381
568.933	0.0177508
569.012	0.0177141
569.090	0.0177403
569.168	0.0177546
569.246	0.0176475
569.324	0.0176862
569.402	0.0177380
569.480	0.0177558
569.558	0.0176086
569.637	0.0177091
569.715	0.0177699
569.793	0.0177283
569.871	0.0176363
569.949	0.0176918
570.027	0.0176192
570.105	0.0178105
570.183	0.0177534
570.262	0.0177687
570.340	0.0178695
570.418	0.0176225
570.496	0.0176544
570.574	0.0177601
570.652	0.0176724
570.730	0.0177077
570.808	0.0177328
570.887	0.0176726
570.965	0.0177621
571.043	0.0176266
571.121	0.0177581
571.199	0.0176731
571.277	0.0175643
571.355	0.0176410
571.433	0.0176162
571.512	0.0176415
571.590	0.0176569
571.668	0.0176386
571.746	0.0177270
571.824	0.0176566
571.902	0.0176450
571.980	0.0176895
572.058	0.0176527
572.137	0.0176601
572.215	0.0177026
572.293	0.0176280
572.371	0.0175593
572.449	0.0175732
572.527	0.0175613
572.605	0.0176167
572.683	0.0176353
572.762	0.0174572
572.840	0.0176070
572.918	0.0177135
572.996	0.0176431
573.074	0.0175251
573.152	0.0176022
573.230	0.0175172
573.308	0.0175964
573.387	0.0175824
573.465	0.0175716
573.543	0.0174706
573.621	0.0175336
573.699	0.0175714
573.777	0.0175565
573.855	0.0176623
573.933	0.0176286
574.012	0.0175518
574.090	0.0175223
574.168	0.0175074
574.246	0.0176270
574.324	0.0174303
574.402	0.0175266
574.480	0.0176487
574.558	0.0175577
574.637	0.0174460
574.715	0.0176633
574.793	0.0176220
574.871	0.0175139
574.949	0.0175834
575.027	0.0175323
575.105	0.0175013
575.183	0.0176274
575.262	0.0175428
575.340	0.0175031
575.418	0.0176949
575.496	0.0176212
575.574	0.0174924
575.652	0.0175417
575.730	0.0177239
575.808	0.0176403
575.887	0.0175813
575.965	0.0176122
576.043	0.0176236
576.121	0.0177354
576.199	0.0175699
576.277	0.0175693
576.355	0.0176040
576.433	0.0175941
576.512	0.0177164
576.590	0.0177136
576.668	0.0176945
576.746	0.0175729
576.824	0.0177046
576.902	0.0175214
576.980	0.0177963
577.058	0.0176705
577.137	0.0176392
577.215	0.0175750
577.293	0.0177184
577.371	0.0178200
577.449	0.0177055
577.527	0.0177232
577.605	0.0178013
577.683	0.0177343
577.762	0.0177002
577.840	0.0177864
577.918	0.0176496
577.996	0.0176569
578.074	0.0177505
578.152	0.0177241
578.230	0.0176794
578.308	0.0177537
578.387	0.0178076
578.465	0.0178476
578.543	0.0176947
578.621	0.0177596
578.699	0.0177865
578.777	0.0177699
578.855	0.0178143
578.933	0.0177670
579.012	0.0176117
579.090	0.0178882
579.168	0.0179175
579.246	0.0179072
579.324	0.0179379
579.402	0.0177361
579.480	0.0178065
579.558	0.0177965
579.637	0.0179155
579.715	0.0179132
579.793	0.0179581
579.871	0.0179980
579.949	0.0179084
580.027	0.0178901
580.105	0.0177969
580.183	0.0179938
580.262	0.0180295
580.340	0.0178667
580.418	0.0179001
580.496	0.0178712
580.574	0.0177319
580.652	0.0178600
580.730	0.0178714
580.808	0.0178679
580.887	0.0178427
580.965	0.0178332
581.043	0.0179272
581.121	0.0177561
581.199	0.0177657
581.277	0.0178654
581.355	0.0177592
581.433	0.0178898
581.512	0.0177162
581.590	0.0178696
581.668	0.0177476
581.746	0.0178173
581.824	0.0177487
581.902	0.0177332
581.980	0.0177299
582.058	0.0177857
582.137	0.0178034
582.215	0.0177672
582.293	0.0177937
582.371	0.0176698
582.449	0.0178119
582.527	0.0178217
582.605	0.0176970
582.683	0.0178426
582.762	0.0178879
582.840	0.0176527
582.918	0.0178633
582.996	0.0177731
583.074	0.0177612
583.152	0.0178462
583.230	0.0178542
583.308	0.0178222
583.387	0.0178600
583.465	0.0177092
583.543	0.0177615
583.621	0.0175793
583.699	0.0178972
583.777	0.0177957
583.855	0.0176963
583.933	0.0176530
584.012	0.0177497
584.090	0.0176611
584.168	0.0177551
584.246	0.0179118
584.324	0.0177165
584.402	0.0177235
584.480	0.0176712
584.558	0.0178326
584.637	0.0177222
584.715	0.0176161
584.793	0.0176881
584.871	0.0177038
584.949	0.0177301
585.027	0.0177811
585.105	0.0177331
585.183	0.0176604
585.262	0.0179102
585.340	0.0177996
585.418	0.0177077
585.496	0.0175928
585.574	0.0178139
585.652	0.0177024
585.730	0.0178165
585.808	0.0176110
585.887	0.0178110
585.965	0.0176589
586.043	0.0176657
586.121	0.0177097
586.199	0.0176369
586.277	0.0177216
586.355	0.0176420
586.433	0.0178204
586.512	0.0177556
586.590	0.0177653
586.668	0.0178536
586.746	0.0176269
586.824	0.0175965
586.902	0.0177048
586.980	0.0177294
587.058	0.0176379
587.137	0.0177386
587.215	0.0178667
587.293	0.0177449
587.371	0.0178130
587.449	0.0177937
587.527	0.0176470
587.605	0.0177579
587.683	0.0177164
587.762	0.0178582
587.840	0.0178714
587.918	0.0178169
587.996	0.0177393
588.074	0.0177640
588.152	0.0177286
588.230	0.0178557
588.308	0.0176954
588.387	0.0177649
588.465	0.0177576
588.543	0.0177064
588.621	0.0178226
588.699	0.0178078
588.777	0.0179015
588.855	0.0177528
588.933	0.0178089
589.012	0.0178703
589.090	0.0178076
589.168	0.0178284
589.246	0.0178545
589.324	0.0177572
589.402	0.0177771
589.480	0.0178090
589.558	0.0178516
589.637	0.0177844
589.715	0.0178381
589.793	0.0179738
589.871	0.0179317
589.949	0.0178634
590.027	0.0177212
590.105	0.0179619
590.183	0.0179018
590.262	0.0179472
590.340	0.0179021
590.418	0.0178927
590.496	0.0178729
590.574	0.0177483
590.652	0.0177852
590.730	0.0178125
590.808	0.0177629
590.887	0.0177290
590.965	0.0178555
591.043	0.0177474
591.121	0.0177692
591.199	0.0178336
591.277	0.0178575
591.355	0.0179369
591.433	0.0177612
591.512	0.0177987
591.590	0.0178636
591.668	0.0176957
591.746	0.0176629
591.824	0.0177955
591.902	0.0177437
591.980	0.0177518
592.058	0.0177727
592.137	0.0177792
592.215	0.0176921
592.293	0.0177033
592.371	0.0177027
592.449	0.0177060
592.527	0.0177655
592.605	0.0177148
592.683	0.0176877
592.762	0.0176760
592.840	0.0177354
592.918	0.0176254
592.996	0.0177259
593.074	0.0176705
593.152	0.0176265
593.230	0.0177222
593.308	0.0177958
593.387	0.0176746
593.465	0.0177609
593.543	0.0177013
593.621	0.0176146
593.699	0.0176768
593.777	0.0177757
593.855	0.0176839
593.933	0.0176922
594.012	0.0176826
594.090	0.0177847
594.168	0.0178657
594.246	0.0176314
594.324	0.0176247
594.402	0.0177996
594.480	0.0176174
594.558	0.0175626
594.637	0.0176227
594.715	0.0177224
594.793	0.0178167
594.871	0.0177567
594.949	0.0177420
595.027	0.0176860
595.105	0.0177174
595.183	0.0177137
595.262	0.0177848
595.340	0.0177317
595.418	0.0178111
595.496	0.0177419
595.574	0.0178311
595.652	0.0179427
595.730	0.0177863
595.808	0.0178038
595.887	0.0177164
595.965	0.0176891
596.043	0.0177010
596.121	0.0178311
596.199	0.0177018
596.277	0.0177804
596.355	0.0176390
596.433	0.0177869
596.512	0.0177619
596.590	0.0178020
596.668	0.0177389
596.746	0.0177428
596.824	0.0176632
596.902	0.0178708
596.980	0.0177520
597.058	0.0176780
597.137	0.0176891
597.215	0.0176808
597.293	0.0177948
597.371	0.0178352
597.449	0.0178434
597.527	0.0178325
597.605	0.0177440
597.683	0.0177610
597.762	0.0176834
597.840	0.0179536
597.918	0.0178403
597.996	0.0177417
598.074	0.0177988
598.152	0.0177808
598.230	0.0178349
598.308	0.0178716
598.387	0.0176537
598.465	0.0177522
598.543	0.0177316
598.621	0.0176772
598.699	0.0178197
598.777	0.0178146
598.855	0.0177111
598.933	0.0177667
599.012	0.0177306
599.090	0.0177641
599.168	0.0179648
599.246	0.0179848
599.324	0.0177629
599.402	0.0178117
599.480	0.0178596
599.558	0.0178330
599.637	0.0177946
599.715	0.0177529
599.793	0.0178472
599.871	0.0177438
599.949	0.0179474
600.027	0.0177284
600.105	0.0177721
600.183	0.0178932
600.262	0.0177424
600.340	0.0177390
600.418	0.0177440
600.496	0.0178900
600.574	0.0178285
600.652	0.0178313
600.730	0.0177984
600.808	0.0179839
600.887	0.0176451
600.965	0.0177596
601.043	0.0178268
601.121	0.0176244
601.199	0.0177515
601.277	0.0177802
601.355	0.0176109
601.433	0.0177686
601.512	0.0177274
601.590	0.0177724
601.668	0.0177769
601.746	0.0178513
601.824	0.0177438
601.902	0.0177202
601.980	0.0177805
602.058	0.0177372
602.137	0.0177328
602.215	0.0179073
602.293	0.0177557
602.371	0.0178202
602.449	0.0177363
602.527	0.0178220
602.605	0.0177780
602.683	0.0177969
602.762	0.0177491
602.840	0.0178095
602.918	0.0177602
602.996	0.0178818
603.074	0.0177743
603.152	0.0178052
603.230	0.0177386
603.308	0.0177812
603.387	0.0177008
603.465	0.0177573
603.543	0.0178111
603.621	0.0177895
603.699	0.0177703
603.777	0.0177393
603.855	0.0177546
603.933	0.0177679
604.012	0.0177242
604.090	0.0178008
604.168	0.0178696
604.246	0.0177242
604.324	0.0178043
604.402	0.0178960
604.480	0.0177477
604.558	0.0177641
604.637	0.0177656
604.715	0.0176564
604.793	0.0177814
604.871	0.0177589
604.949	0.0180636
605.027	0.0177847
605.105	0.0177984
605.183	0.0178381
605.262	0.0177267
605.340	0.0178263
605.418	0.0177511
605.496	0.0177839
605.574	0.0178348
605.652	0.0177013
605.730	0.0177105
605.808	0.0177281
605.887	0.0177336
605.965	0.0178043
606.043	0.0177045
606.121	0.0178840
606.199	0.0177126
606.277	0.0176940
606.355	0.0178623
606.433	0.0177686
606.512	0.0176919
606.590	0.0177171
606.668	0.0177831
606.746	0.0177846
606.824	0.0177005
606.902	0.0178091
606.980	0.0177354
607.058	0.0177985
607.137	0.0177644
607.215	0.0176508
607.293	0.0177506
607.371	0.0177489
607.449	0.0177617
607.527	0.0177000
607.605	0.0178965
607.683	0.0177638
607.762	0.0178448
607.840	0.0177945
607.918	0.0178029
607.996	0.0177265
608.074	0.0177806
608.152	0.0178210
608.230	0.0178008
608.308	0.0177578
608.387	0.0178809
608.465	0.0177502
608.543	0.0177191
608.621	0.0178869
608.699	0.0178733
608.777	0.0177958
608.855	0.0178773
608.933	0.0178957
609.012	0.0177950
609.090	0.0179257
609.168	0.0180230
609.246	0.0178896
609.324	0.0180357
609.402	0.0179612
609.480	0.0179620
609.558	0.0177819
609.637	0.0178262
609.715	0.0179163
609.793	0.0179377
609.871	0.0178326
609.949	0.0179128
610.027	0.0179770
610.105	0.0178452
610.183	0.0177301
610.262	0.0178756
610.340	0.0178204
610.418	0.0178290
610.496	0.0179106
610.574	0.0179341
610.652	0.0179575
610.730	0.0179844
610.808	0.0179221
610.887	0.0178992
610.965	0.0179333
611.043	0.0177951
611.121	0.0178703
611.199	0.0179150
611.277	0.0178123
611.355	0.0178355
611.433	0.0180028
611.512	0.0180549
611.590	0.0179049
611.668	0.0178234
611.746	0.0178175
611.824	0.0179173
611.902	0.0179430
611.980	0.0179684
612.058	0.0178602
612.137	0.0177763
612.215	0.0178505
612.293	0.0178630
612.371	0.0177989
612.449	0.0179227
612.527	0.0178331
612.605	0.0178713
612.683	0.0178297
612.762	0.0179109
612.840	0.0177460
612.918	0.0176661
612.996	0.0178145
613.074	0.0178290
613.152	0.0178036
613.230	0.0177154
613.308	0.0177013
613.387	0.0178146
613.465	0.0178537
613.543	0.0177371
613.621	0.0178607
613.699	0.0177251
613.777	0.0177928
613.855	0.0179121
613.933	0.0176273
614.012	0.0177435
614.090	0.0177840
614.168	0.0177467
614.246	0.0177239
614.324	0.0178046
614.402	0.0179122
614.480	0.0177425
614.558	0.0176937
614.637	0.0177948
614.715	0.0177924
614.793	0.0178564
614.871	0.0178302
614.949	0.0177970
615.027	0.0177688
615.105	0.0177007
615.183	0.0177686
615.262	0.0179334
615.340	0.0178133
615.418	0.0176612
615.496	0.0178429
615.574	0.0177859
615.652	0.0177926
615.730	0.0177336
615.808	0.0177218
615.887	0.0179263
615.965	0.0178628
616.043	0.0177798
616.121	0.0178892
616.199	0.0179323
616.277	0.0179025
616.355	0.0178090
616.433	0.0177451
616.512	0.0178979
616.590	0.0177863
616.668	0.0178242
616.746	0.0177975
616.824	0.0176920
616.902	0.0179520
616.980	0.0178545
617.058	0.0179066
617.137	0.0178046
617.215	0.0177259
617.293	0.0178580
617.371	0.0178732
617.449	0.0178049
617.527	0.0177630
617.605	0.0177464
617.683	0.0177164
617.762	0.0177251
617.840	0.0178204
617.918	0.0178276
617.996	0.0178495
618.074	0.0176304
618.152	0.0177050
618.230	0.0177155
618.308	0.0178262
618.387	0.0177619
618.465	0.0178642
618.543	0.0177449
618.621	0.0177055
618.699	0.0178302
618.777	0.0177642
618.855	0.0178102
618.933	0.0176774
619.012	0.0177851
619.090	0.0179164
619.168	0.0177556
619.246	0.0178369
619.324	0.0177573
619.402	0.0177212
619.480	0.0177927
619.558	0.0177485
619.637	0.0177316
619.715	0.0176848
619.793	0.0177921
619.871	0.0177660
619.949	0.0177539
620.027	0.0176841
620.105	0.0177613
620.183	0.0177050
620.262	0.0177068
620.340	0.0177519
620.418	0.0175724
620.496	0.0176350
620.574	0.0177760
620.652	0.0176285
620.730	0.0176480
620.808	0.0177958
620.887	0.0176443
620.965	0.0175349
621.043	0.0177856
621.121	0.0177332
621.199	0.0177401
621.277	0.0178145
621.355	0.0176981
621.433	0.0176398
621.512	0.0177332
621.590	0.0178036
621.668	0.0176867
621.746	0.0176167
621.824	0.0176164
621.902	0.0176766
621.980	0.0177759
622.058	0.0176036
622.137	0.0176412
622.215	0.0177314
622.293	0.0176736
622.371	0.0177091
622.449	0.0176031
622.527	0.0176466
622.605	0.0177171
622.683	0.0177623
622.762	0.0176473
622.840	0.0176537
622.918	0.0176112
622.996	0.0176626
623.074	0.0176614
623.152	0.0177110
623.230	0.0176604
623.308	0.0177837
623.387	0.0175867
623.465	0.0176628
623.543	0.0177528
623.621	0.0177323
623.699	0.0176879
623.777	0.0176414
623.855	0.0176420
623.933	0.0176805
624.012	0.0178438
624.090	0.0176999
624.168	0.0175924
624.246	0.0176301
624.324	0.0177013
624.402	0.0176640
624.480	0.0176125
624.558	0.0176910
624.637	0.0177827
624.715	0.0176385
624.793	0.0176797
624.871	0.0176084
624.949	0.0176754
625.027	0.0178474
625.105	0.0176155
625.183	0.0177325
625.262	0.0175800
625.340	0.0177508
625.418	0.0177144
625.496	0.0176891
625.574	0.0176635
625.652	0.0177071
625.730	0.0175834
625.808	0.0177112
625.887	0.0176565
625.965	0.0177245
626.043	0.0176152
626.121	0.0175518
626.199	0.0177150
626.277	0.0176178
626.355	0.0177147
626.433	0.0176946
626.512	0.0178697
626.590	0.0176526
626.668	0.0175987
626.746	0.0176653
626.824	0.0178035
626.902	0.0177326
626.980	0.0176584
627.058	0.0177522
627.137	0.0176151
627.215	0.0176728
627.293	0.0176155
627.371	0.0175954
627.449	0.0176204
627.527	0.0176820
627.605	0.0175198
627.683	0.0175604
627.762	0.0176593
627.840	0.0176433
627.918	0.0176952
627.996	0.0175903
628.074	0.0175864
628.152	0.0176197
628.230	0.0176948
628.308	0.0176488
628.387	0.0176461
628.465	0.0175555
628.543	0.0175838
628.621	0.0174832
628.699	0.0176598
628.777	0.0176778
628.855	0.0176248
628.933	0.0176677
629.012	0.0176974
629.090	0.0176546
629.168	0.0176693
629.246	0.0176823
629.324	0.0175675
629.402	0.0175105
629.480	0.0175217
629.558	0.0176737
629.637	0.0175750
629.715	0.0175884
629.793	0.0176797
629.871	0.0176665
629.949	0.0176010
630.027	0.0175739
630.105	0.0177195
630.183	0.0176940
630.262	0.0176037
630.340	0.0177431
630.418	0.0176839
630.496	0.0176421
630.574	0.0177063
630.652	0.0176534
630.730	0.0177699
630.808	0.0178197
630.887	0.0176050
630.965	0.0177148
631.043	0.0177071
631.121	0.0177106
631.199	0.0176181
631.277	0.0176486
631.355	0.0176532
631.433	0.0178431
631.512	0.0176289
631.590	0.0177728
631.668	0.0176711
631.746	0.0178986
631.824	0.0177821
631.902	0.0178201
631.980	0.0178813
632.058	0.0176563
632.137	0.0176208
632.215	0.0177448
632.293	0.0177519
632.371	0.0177959
632.449	0.0176396
632.527	0.0177952
632.605	0.0177704
632.683	0.0178182
632.762	0.0175988
632.840	0.0177517
632.918	0.0176440
632.996	0.0178037
633.074	0.0177570
633.152	0.0176028
633.230	0.0178194
633.308	0.0177727
633.387	0.0178232
633.465	0.0178502
633.543	0.0178075
633.621	0.0177211
633.699	0.0177976
633.777	0.0177064
633.855	0.0178638
633.933	0.0178680
634.012	0.0177132
634.090	0.0177296
634.168	0.0178275
634.246	0.0178869
634.324	0.0177650
634.402	0.0176199
634.480	0.0178053
634.558	0.0178738
634.637	0.0177631
634.715	0.0178031
634.793	0.0178291
634.871	0.0178209
634.949	0.0178036
635.027	0.0177161
635.105	0.0178906
635.183	0.0177547
635.262	0.0177297
635.340	0.0178447
635.418	0.0178320
635.496	0.0177835
635.574	0.0176197
635.652	0.0177560
635.730	0.0176608
635.808	0.0177134
635.887	0.0177279
635.965	0.0178316
636.043	0.0177898
636.121	0.0177949
636.199	0.0178500
636.277	0.0177538
636.355	0.0178587
636.433	0.0178211
636.512	0.0176778
636.590	0.0178431
636.668	0.0178208
636.746	0.0178434
636.824	0.0177849
636.902	0.0178183
636.980	0.0177671
637.058	0.0177467
637.137	0.0178140
637.215	0.0177352
637.293	0.0178603
637.371	0.0177464
637.449	0.0177644
637.527	0.0176678
637.605	0.0176963
637.683	0.0177637
637.762	0.0178195
637.840	0.0177187
637.918	0.0177331
637.996	0.0176930
638.074	0.0176565
638.152	0.0176919
638.230	0.0177945
638.308	0.0177427
638.387	0.0177762
638.465	0.0175835
638.543	0.0176127
638.621	0.0177604
638.699	0.0175705
638.777	0.0177068
638.855	0.0177467
638.933	0.0176373
639.012	0.0176861
639.090	0.0178233
639.168	0.0177521
639.246	0.0176508
639.324	0.0178267
639.402	0.0177493
639.480	0.0177163
639.558	0.0178475
639.637	0.0176743
639.715	0.0176878
639.793	0.0175898
639.871	0.0176791
639.949	0.0177659
640.027	0.0177277
640.105	0.0177430
640.183	0.0178607
640.262	0.0178658
640.340	0.0178423
640.418	0.0178313
640.496	0.0178275
640.574	0.0177526
640.652	0.0178084
640.730	0.0178286
640.808	0.0177114
640.887	0.0176807
640.965	0.0176472
641.043	0.0177630
641.121	0.0176444
641.199	0.0177189
641.277	0.0176962
641.355	0.0178329
641.433	0.0175768
641.512	0.0175645
641.590	0.0176917
641.668	0.0177844
641.746	0.0177613
641.824	0.0177705
641.902	0.0176318
641.980	0.0176030
642.058	0.0176177
642.137	0.0175632
642.215	0.0177507
642.293	0.0178376
642.371	0.0176086
642.449	0.0176698
642.527	0.0176693
642.605	0.0176490
642.683	0.0177762
642.762	0.0177422
642.840	0.0177298
642.918	0.0177973
642.996	0.0176990
643.074	0.0175809
643.152	0.0177053
643.230	0.0174807
643.308	0.0175316
643.387	0.0177053
643.465	0.0174937
643.543	0.0176440
643.621	0.0176913
643.699	0.0175727
643.777	0.0176129
643.855	0.0176274
643.933	0.0176246
644.012	0.0176485
644.090	0.0176278
644.168	0.0174780
644.246	0.0176640
644.324	0.0176748
644.402	0.0177262
644.480	0.0177092
644.558	0.0176621
644.637	0.0176762
644.715	0.0177570
644.793	0.0175491
644.871	0.0176811
644.949	0.0176758
645.027	0.0176694
645.105	0.0176060
645.183	0.0176102
645.262	0.0176733
645.340	0.0176444
645.418	0.0175384
645.496	0.0176704
645.574	0.0176659
645.652	0.0176222
645.730	0.0176618
645.808	0.0177115
645.887	0.0176087
645.965	0.0175986
646.043	0.0177012
646.121	0.0175852
646.199	0.0176249
646.277	0.0176089
646.355	0.0176497
646.433	0.0176115
646.512	0.0176700
646.590	0.0177183
646.668	0.0176040
646.746	0.0176273
646.824	0.0176833
646.902	0.0178389
646.980	0.0177052
647.058	0.0175005
647.137	0.0175919
647.215	0.0177953
647.293	0.0176382
647.371	0.0175868
647.449	0.0175687
647.527	0.0176225
647.605	0.0176611
647.683	0.0175658
647.762	0.0176057
647.840	0.0175475
647.918	0.0175913
647.996	0.0177159
648.074	0.0175964
648.152	0.0174828
648.230	0.0176727
648.308	0.0175692
648.387	0.0174730
648.465	0.0175809
648.543	0.0176231
648.621	0.0175502
648.699	0.0175153
648.777	0.0176340
648.855	0.0175927
648.933	0.0176263
649.012	0.0175479
649.090	0.0175440
649.168	0.0174781
649.246	0.0175159
649.324	0.0176598
649.402	0.0174765
649.480	0.0176199
649.558	0.0176347
649.637	0.0176022
649.715	0.0175987
649.793	0.0175527
649.871	0.0174588
649.949	0.0175648
650.027	0.0175677
650.105	0.0175858
650.183	0.0174873
650.262	0.0174873
650.340	0.0175438
650.418	0.0176672
650.496	0.0175047
650.574	0.0176041
650.652	0.0176180
650.730	0.0175110
650.808	0.0174883
650.887	0.0174442
650.965	0.0175484
651.043	0.0173823
651.121	0.0174435
651.199	0.0175927
651.277	0.0176327
651.355	0.0175690
651.433	0.0174093
651.512	0.0175684
651.590	0.0175370
651.668	0.0174756
651.746	0.0175201
651.824	0.0174977
651.902	0.0175877
651.980	0.0175342
652.058	0.0175569
652.137	0.0176308
652.215	0.0176142
652.293	0.0176222
652.371	0.0175292
652.449	0.0175487
652.527	0.0175662
652.605	0.0174976
652.683	0.0176895
652.762	0.0176624
652.840	0.0175368
652.918	0.0176464
652.996	0.0176385
653.074	0.0175611
653.152	0.0176194
653.230	0.0176410
653.308	0.0176128
653.387	0.0176482
653.465	0.0174930
653.543	0.0176823
653.621	0.0174874
653.699	0.0175150
653.777	0.0175523
653.855	0.0175926
653.933	0.0175491
654.012	0.0176313
654.090	0.0175994
654.168	0.0176205
654.246	0.0176775
654.324	0.0177899
654.402	0.0177928
654.480	0.0177182
654.558	0.0175797
654.637	0.0176189
654.715	0.0176978
654.793	0.0176265
654.871	0.0176971
654.949	0.0178729
655.027	0.0177026
655.105	0.0177854
655.183	0.0177454
655.262	0.0176590
655.340	0.0178024
655.418	0.0176145
655.496	0.0177281
655.574	0.0176491
655.652	0.0176756
655.730	0.0177183
655.808	0.0176990
655.887	0.0177000
655.965	0.0177245
656.043	0.0176807
656.121	0.0178431
656.199	0.0177813
656.277	0.0177719
656.355	0.0178142
656.433	0.0178072
656.512	0.0176855
656.590	0.0178611
656.668	0.0178191
656.746	0.0178947
656.824	0.0178683
656.902	0.0177975
656.980	0.0177372
657.058	0.0178371
657.137	0.0179043
657.215	0.0177868
657.293	0.0177723
657.371	0.0177294
657.449	0.0178614
657.527	0.0178925
657.605	0.0177856
657.683	0.0177085
657.762	0.0178216
657.840	0.0178979
657.918	0.0178967
657.996	0.0177864
658.074	0.0177937
658.152	0.0178510
658.230	0.0178251
658.308	0.0177870
658.387	0.0177582
658.465	0.0177795
658.543	0.0178101
658.621	0.0178603
658.699	0.0177397
658.777	0.0177530
658.855	0.0178461
658.933	0.0178202
659.012	0.0177942
659.090	0.0178625
659.168	0.0177798
659.246	0.0178044
659.324	0.0178098
659.402	0.0177689
659.480	0.0176969
659.558	0.0176659
659.637	0.0176693
659.715	0.0178822
659.793	0.0178432
659.871	0.0178027
659.949	0.0178036
660.027	0.0177169
660.105	0.0179397
660.183	0.0177728
660.262	0.0177882
660.340	0.0178207
660.418	0.0175704
660.496	0.0177312
660.574	0.0177245
660.652	0.0177959
660.730	0.0177883
660.808	0.0177039
660.887	0.0177254
660.965	0.0177330
661.043	0.0177580
661.121	0.0176052
661.199	0.0177747
661.277	0.0176917
661.355	0.0177988
661.433	0.0177536
661.512	0.0177074
661.590	0.0177649
661.668	0.0178616
661.746	0.0176984
661.824	0.0177196
661.902	0.0177872
661.980	0.0179343
662.058	0.0178088
662.137	0.0177242
662.215	0.0178042
662.293	0.0178584
662.371	0.0177662
662.449	0.0177522
662.527	0.0176606
662.605	0.0176606
662.683	0.0177612
662.762	0.0177878
662.840	0.0176546
662.918	0.0177470
662.996	0.0177067
663.074	0.0177308
663.152	0.0177377
663.230	0.0177534
663.308	0.0178801
663.387	0.0176524
663.465	0.0177634
663.543	0.0177814
663.621	0.0177223
663.699	0.0176282
663.777	0.0178536
663.855	0.0178201
663.933	0.0176913
664.012	0.0175458
664.090	0.0177621
664.168	0.0177777
664.246	0.0177880
664.324	0.0178080
664.402	0.0176286
664.480	0.0177126
664.558	0.0177728
664.637	0.0178927
664.715	0.0177801
664.793	0.0177639
664.871	0.0177415
664.949	0.0178428
665.027	0.0179568
665.105	0.0177962
665.183	0.0177370
665.262	0.0176912
665.340	0.0177404
665.418	0.0177811
665.496	0.0176941
665.574	0.0177578
665.652	0.0177259
665.730	0.0178083
665.808	0.0177065
665.887	0.0176841
665.965	0.0177734
666.043	0.0178519
666.121	0.0177185
666.199	0.0177343
666.277	0.0177966
666.355	0.0177132
666.433	0.0177961
666.512	0.0178861
666.590	0.0179292
666.668	0.0176949
666.746	0.0176538
666.824	0.0176580
666.902	0.0177163
666.980	0.0177178
667.058	0.0177366
667.137	0.0177314
667.215	0.0176591
667.293	0.0177356
667.371	0.0176561
667.449	0.0176713
667.527	0.0175431
667.605	0.0177155
667.683	0.0177237
667.762	0.0176138
667.840	0.0176682
667.918	0.0176348
667.996	0.0175213
668.074	0.0176201
668.152	0.0176570
668.230	0.0177519
668.308	0.0176244
668.387	0.0176578
668.465	0.0176794
668.543	0.0176641
668.621	0.0176666
668.699	0.0176905
668.777	0.0176456
668.855	0.0177033
668.933	0.0177229
669.012	0.0176116
669.090	0.0176961
669.168	0.0176752
669.246	0.0176851
669.324	0.0175043
669.402	0.0177712
669.480	0.0177432
669.558	0.0175651
669.637	0.0176452
669.715	0.0177652
669.793	0.0177427
669.871	0.0176122
669.949	0.0176073
670.027	0.0176468
670.105	0.0176077
670.183	0.0176848
670.262	0.0176745
670.340	0.0176342
670.418	0.0176153
670.496	0.0176836
670.574	0.0175803
670.652	0.0175406
670.730	0.0175254
670.808	0.0176983
670.887	0.0178146
670.965	0.0175719
671.043	0.0176223
671.121	0.0176637
671.199	0.0176057
671.277	0.0176031
671.355	0.0176949
671.433	0.0178041
671.512	0.0176394
671.590	0.0176443
671.668	0.0178056
671.746	0.0178188
671.824	0.0179020
671.902	0.0178937
671.980	0.0179207
672.058	0.0178992
672.137	0.0179729
672.215	0.0179013
672.293	0.0179386
672.371	0.0179159
672.449	0.0179502
672.527	0.0178322
672.605	0.0178723
672.683	0.0177251
672.762	0.0177171
672.840	0.0177069
672.918	0.0174809
672.996	0.0176209
673.074	0.0175247
673.152	0.0174866
673.230	0.0175208
673.308	0.0175780
673.387	0.0173875
673.465	0.0173868
673.543	0.0175328
673.621	0.0173311
673.699	0.0174627
673.777	0.0174696
673.855	0.0174551
673.933	0.0174879
674.012	0.0176426
674.090	0.0176419
674.168	0.0175244
674.246	0.0175377
674.324	0.0175481
674.402	0.0174641
674.480	0.0176669
674.558	0.0176900
674.637	0.0176976
674.715	0.0176933
674.793	0.0176895
674.871	0.0176024
674.949	0.0177706
675.027	0.0178512
675.105	0.0177995
675.183	0.0179135
675.262	0.0178316
675.340	0.0179372
675.418	0.0178942
675.496	0.0179058
675.574	0.0179803
675.652	0.0180340
675.730	0.0180261
675.808	0.0180499
675.887	0.0180112
675.965	0.0180280
676.043	0.0180013
676.121	0.0180174
676.199	0.0181920
676.277	0.0180271
676.355	0.0179955
676.433	0.0179638
676.512	0.0179464
676.590	0.0179797
676.668	0.0178935
676.746	0.0179419
676.824	0.0178386
676.902	0.0177312
676.980	0.0178396
677.058	0.0176834
677.137	0.0176995
677.215	0.0176616
677.293	0.0175927
677.371	0.0176731
677.449	0.0176085
677.527	0.0175389
677.605	0.0175800
677.683	0.0176381
677.762	0.0174815
677.840	0.0177023
677.918	0.0177283
677.996	0.0176315
678.074	0.0177243
678.152	0.0175962
678.230	0.0177426
678.308	0.0177662
678.387	0.0177429
678.465	0.0176982
678.543	0.0178232
678.621	0.0176431
678.699	0.0177641
678.777	0.0178180
678.855	0.0177216
678.933	0.0177044
679.012	0.0175826
679.090	0.0177242
679.168	0.0177616
679.246	0.0178250
679.324	0.0177216
679.402	0.0177057
679.480	0.0177865
679.558	0.0178339
679.637	0.0177239
679.715	0.0177924
679.793	0.0178510
679.871	0.0177985
679.949	0.0176904
680.027	0.0179596
680.105	0.0179858
680.183	0.0180345
680.262	0.0180371
680.340	0.0180312
680.418	0.0178183
680.496	0.0181463
680.574	0.0181215
680.652	0.0180460
680.730	0.0180866
680.808	0.0179679
680.887	0.0180824
680.965	0.0182549
681.043	0.0182061
681.121	0.0183050
681.199	0.0181789
681.277	0.0183153
681.355	0.0182426
681.433	0.0182648
681.512	0.0181779
681.590	0.0182619
681.668	0.0181264
681.746	0.0181094
681.824	0.0181970
681.902	0.0180551
681.980	0.0181652
682.058	0.0179298
682.137	0.0179198
682.215	0.0179829
682.293	0.0179326
682.371	0.0178674
682.449	0.0177515
682.527	0.0176466
682.605	0.0176067
682.683	0.0176588
682.762	0.0176138
682.840	0.0176528
682.918	0.0177090
682.996	0.0176913
683.074	0.0174735
683.152	0.0176102
683.230	0.0175511
683.308	0.0176228
683.387	0.0174445
683.465	0.0174844
683.543	0.0176997
683.621	0.0176143
683.699	0.0176414
683.777	0.0176883
683.855	0.0177264
683.933	0.0176369
684.012	0.0178761
684.090	0.0180237
684.168	0.0178654
684.246	0.0179771
684.324	0.0179857
684.402	0.0179874
684.480	0.0181061
684.558	0.0181194
684.637	0.0178646
684.715	0.0180897
684.793	0.0180775
684.871	0.0180508
684.949	0.0180888
685.027	0.0180022
685.105	0.0180092
685.183	0.0180643
685.262	0.0179897
685.340	0.0180011
685.418	0.0180610
685.496	0.0180419
685.574	0.0180370
685.652	0.0179285
685.730	0.0180608
685.808	0.0179151
685.887	0.0178380
685.965	0.0178812
686.043	0.0178011
686.121	0.0178056
686.199	0.0178955
686.277	0.0179066
686.355	0.0177344
686.433	0.0177211
686.512	0.0178459
686.590	0.0176901
686.668	0.0176076
686.746	0.0177939
686.824	0.0177637
686.902	0.0176010
686.980	0.0177770
687.058	0.0177290
687.137	0.0178338
687.215	0.0177612
687.293	0.0177131
687.371	0.0177576
687.449	0.0177447
687.527	0.0178003
687.605	0.0178374
687.683	0.0177888
687.762	0.0178474
687.840	0.0177971
687.918	0.0178452
687.996	0.0179278
688.074	0.0177720
688.152	0.0178065
688.230	0.0178094
688.308	0.0178633
688.387	0.0178318
688.465	0.0177848
688.543	0.0177481
688.621	0.0176920
688.699	0.0176276
688.777	0.0177490
688.855	0.0177056
688.933	0.0177541
689.012	0.0176772
689.090	0.0177145
689.168	0.0177232
689.246	0.0176870
689.324	0.0176982
689.402	0.0178516
689.480	0.0177934
689.558	0.0178276
689.637	0.0178626
689.715	0.0176831
689.793	0.0177898
689.871	0.0178427
689.949	0.0178329
690.027	0.0177585
690.105	0.0177597
690.183	0.0178050
690.262	0.0176977
690.340	0.0178427
690.418	0.0178094
690.496	0.0177692
690.574	0.0178300
690.652	0.0177631
690.730	0.0177296
690.808	0.0178114
690.887	0.0177911
690.965	0.0179355
691.043	0.0179043
691.121	0.0179477
691.199	0.0180876
691.277	0.0180163
691.355	0.0180906
691.433	0.0181229
691.512	0.0178970
691.590	0.0179864
691.668	0.0180273
691.746	0.0180576
691.824	0.0179749
691.902	0.0180920
691.980	0.0179288
692.058	0.0179457
692.137	0.0178088
692.215	0.0177425
692.293	0.0178523
692.371	0.0179013
692.449	0.0178294
692.527	0.0175618
692.605	0.0176457
692.683	0.0177386
692.762	0.0175853
692.840	0.0177245
692.918	0.0176037
692.996	0.0175223
693.074	0.0176683
693.152	0.0174287
693.230	0.0176101
693.308	0.0175345
693.387	0.0174294
693.465	0.0176128
693.543	0.0174644
693.621	0.0175977
693.699	0.0176332
693.777	0.0174805
693.855	0.0175558
693.933	0.0175254
694.012	0.0176965
694.090	0.0176646
694.168	0.0176408
694.246	0.0176087
694.324	0.0176663
694.402	0.0176638
694.480	0.0177393
694.558	0.0177882
694.637	0.0177464
694.715	0.0177663
694.793	0.0178477
694.871	0.0178709
694.949	0.0177309
695.027	0.0178461
695.105	0.0178055
695.183	0.0179260
695.262	0.0178083
695.340	0.0177951
695.418	0.0178839
695.496	0.0177987
695.574	0.0179279
695.652	0.0177289
695.730	0.0177184
695.808	0.0177363
695.887	0.0177925
695.965	0.0175697
696.043	0.0175784
696.121	0.0177220
696.199	0.0175536
696.277	0.0175885
696.355	0.0176456
696.433	0.0175644
696.512	0.0175903
696.590	0.0175182
696.668	0.0176782
696.746	0.0176299
696.824	0.0174870
696.902	0.0176556
696.980	0.0177151
697.058	0.0175742
697.137	0.0177103
697.215	0.0177466
697.293	0.0177769
697.371	0.0178299
697.449	0.0177390
697.527	0.0178449
697.605	0.0176993
697.683	0.0178217
697.762	0.0178689
697.840	0.0178955
697.918	0.0178899
697.996	0.0177595
698.074	0.0180084
698.152	0.0179027
698.230	0.0179258
698.308	0.0177470
698.387	0.0178544
698.465	0.0179305
698.543	0.0179700
698.621	0.0179281
698.699	0.0178161
698.777	0.0178036
698.855	0.0179314
698.933	0.0178877
699.012	0.0178553
699.090	0.0178422
699.168	0.0178264
699.246	0.0178139
699.324	0.0177388
699.402	0.0177477
699.480	0.0177325
699.558	0.0176057
699.637	0.0174710
699.715	0.0175855
699.793	0.0174048
699.871	0.0174482
699.949	0.0173927
700.027	0.0173944
700.105	0.0174209
700.183	0.0172657
700.262	0.0172055
700.340	0.0172894
700.418	0.0174229
700.496	0.0173914
700.574	0.0175301
700.652	0.0174630
700.730	0.0174651
700.808	0.0176606
700.887	0.0176583
700.965	0.0175858
701.043	0.0176659
701.121	0.0178369
701.199	0.0177741
701.277	0.0180147
701.355	0.0178938
701.433	0.0179959
701.512	0.0178710
701.590	0.0179482
701.668	0.0179782
701.746	0.0179887
701.824	0.0181580
701.902	0.0182073
701.980	0.0180859
702.058	0.0182191
702.137	0.0181749
702.215	0.0179751
702.293	0.0181487
702.371	0.0181259
702.449	0.0181110
702.527	0.0180402
702.605	0.0179769
702.683	0.0178237
702.762	0.0180403
702.840	0.0179174
702.918	0.0179877
702.996	0.0179172
703.074	0.0177384
703.152	0.0178265
703.230	0.0180298
703.308	0.0178654
703.387	0.0179121
703.465	0.0178442
703.543	0.0177377
703.621	0.0178514
703.699	0.0178251
703.777	0.0178753
703.855	0.0177978
703.933	0.0177821
704.012	0.0178812
704.090	0.0176699
704.168	0.0176532
704.246	0.0177928
704.324	0.0176972
704.402	0.0177445
704.480	0.0175683
704.558	0.0176582
704.637	0.0176614
704.715	0.0177514
704.793	0.0176382
704.871	0.0176667
704.949	0.0177738
705.027	0.0177041
705.105	0.0177355
705.183	0.0178425
705.262	0.0177723
705.340	0.0177293
705.418	0.0176826
705.496	0.0177031
705.574	0.0177623
705.652	0.0175974
705.730	0.0179255
705.808	0.0179621
705.887	0.0177645
705.965	0.0177795
706.043	0.0177346
706.121	0.0176601
706.199	0.0177397
706.277	0.0175627
706.355	0.0174368
706.433	0.0174742
706.512	0.0175048
706.590	0.0174197
706.668	0.0175511
706.746	0.0173067
706.824	0.0173097
706.902	0.0173800
706.980	0.0175733
707.058	0.0175317
707.137	0.0175616
707.215	0.0177014
707.293	0.0178456
707.371	0.0178252
707.449	0.0178632
707.527	0.0179794
707.605	0.0180105
707.683	0.0180547
707.762	0.0181522
707.840	0.0181293
707.918	0.0182620
707.996	0.0182502
708.074	0.0181168
708.152	0.0180959
708.230	0.0181051
708.308	0.0181291
708.387	0.0181337
708.465	0.0179738
708.543	0.0178013
708.621	0.0177836
708.699	0.0176857
708.777	0.0176283
708.855	0.0176174
708.933	0.0173808
709.012	0.0174281
709.090	0.0174774
709.168	0.0173959
709.246	0.0173233
709.324	0.0171985
709.402	0.0173224
709.480	0.0172546
709.558	0.0173627
709.637	0.0175693
709.715	0.0174320
709.793	0.0174882
709.871	0.0175809
709.949	0.0176863
710.027	0.0177853
710.105	0.0177345
710.183	0.0178168
710.262	0.0178334
710.340	0.0179300
710.418	0.0179140
710.496	0.0180717
710.574	0.0181334
710.652	0.0179906
710.730	0.0181106
710.808	0.0182382
710.887	0.0182893
710.965	0.0181942
711.043	0.0182443
711.121	0.0181716
711.199	0.0181673
711.277	0.0181161
711.355	0.0180505
711.433	0.0178194
711.512	0.0180116
711.590	0.0177777
711.668	0.0176949
711.746	0.0176617
711.824	0.0173446
711.902	0.0172803
711.980	0.0172675
712.058	0.0172009
712.137	0.0172304
712.215	0.0170621
712.293	0.0171007
712.371	0.0171062
712.449	0.0170454
712.527	0.0172079
712.605	0.0172741
712.683	0.0173766
712.762	0.0173398
712.840	0.0174172
712.918	0.0176410
712.996	0.0175697
713.074	0.0176738
713.152	0.0178194
713.230	0.0176605
713.308	0.0178593
713.387	0.0179238
713.465	0.0178066
713.543	0.0177735
713.621	0.0179006
713.699	0.0178590
713.777	0.0177779
713.855	0.0178275
713.933	0.0177811
714.012	0.0177641
714.090	0.0174883
714.168	0.0176100
714.246	0.0176107
714.324	0.0176026
714.402	0.0176637
714.480	0.0175420
714.558	0.0174997
714.637	0.0176241
714.715	0.0177168
714.793	0.0177756
714.871	0.0177608
714.949	0.0175943
715.027	0.0177619
715.105	0.0179679
715.183	0.0179828
715.262	0.0180772
715.340	0.0179801
715.418	0.0181468
715.496	0.0181046
715.574	0.0180433
715.652	0.0180144
715.730	0.0180807
715.808	0.0181205
715.887	0.0181794
715.965	0.0182822
716.043	0.0181242
716.121	0.0180712
716.199	0.0179630
716.277	0.0179804
716.355	0.0179240
716.433	0.0179058
716.512	0.0178564
716.590	0.0178065
716.668	0.0176196
716.746	0.0175208
716.824	0.0175648
716.902	0.0174258
716.980	0.0174295
717.058	0.0174041
717.137	0.0172145
717.215	0.0172056
717.293	0.0170419
717.371	0.0171599
717.449	0.0170938
717.527	0.0170097
717.605	0.0170790
717.683	0.0172572
717.762	0.0171652
717.840	0.0171320
717.918	0.0171716
717.996	0.0171789
718.074	0.0172954
718.152	0.0173903
718.230	0.0172630
718.308	0.0174670
718.387	0.0173605
718.465	0.0173357
718.543	0.0175970
718.621	0.0175589
718.699	0.0176358
718.777	0.0176686
718.855	0.0177406
718.933	0.0177553
719.012	0.0178355
719.090	0.0179446
719.168	0.0178443
719.246	0.0180367
719.324	0.0180244
719.402	0.0180599
719.480	0.0179573
719.558	0.0179153
719.637	0.0181669
719.715	0.0182665
719.793	0.0181734
719.871	0.0179755
719.949	0.0180687
720.027	0.0180418
720.105	0.0178799
720.183	0.0177283
720.262	0.0176679
720.340	0.0177733
720.418	0.0176897
720.496	0.0175312
720.574	0.0173138
720.652	0.0174039
720.730	0.0173978
720.808	0.0173502
720.887	0.0173602
720.965	0.0171728
721.043	0.0173516
721.121	0.0173885
721.199	0.0173390
721.277	0.0173829
721.355	0.0173521
721.433	0.0174630
721.512	0.0174210
721.590	0.0175217
721.668	0.0175130
721.746	0.0174402
721.824	0.0175014
721.902	0.0176708
721.980	0.0177323
722.058	0.0177332
722.137	0.0178878
722.215	0.0179010
722.293	0.0179044
722.371	0.0180424
722.449	0.0179343
722.527	0.0181332
722.605	0.0181227
722.683	0.0181535
722.762	0.0182490
722.840	0.0182008
722.918	0.0181155
722.996	0.0180176
723.074	0.0178606
723.152	0.0180135
723.230	0.0178551
723.308	0.0177172
723.387	0.0177883
723.465	0.0177158
723.543	0.0175000
723.621	0.0175262
723.699	0.0174087
723.777	0.0172977
723.855	0.0172523
723.933	0.0171941
724.012	0.0172156
724.090	0.0172558
724.168	0.0170335
724.246	0.0171600
724.324	0.0171317
724.402	0.0171799
724.480	0.0171537
724.558	0.0170991
724.637	0.0172774
724.715	0.0171981
724.793	0.0173455
724.871	0.0173213
724.949	0.0175136
725.027	0.0174557
725.105	0.0177210
725.183	0.0176130
725.262	0.0176611
725.340	0.0178030
725.418	0.0175630
725.496	0.0177339
725.574	0.0178353
725.652	0.0178771
725.730	0.0179250
725.808	0.0179765
725.887	0.0179578
725.965	0.0178977
726.043	0.0179045
726.121	0.0179063
726.199	0.0180633
726.277	0.0181522
726.355	0.0179423
726.433	0.0180767
726.512	0.0180379
726.590	0.0178102
726.668	0.0177280
726.746	0.0177083
726.824	0.0176335
726.902	0.0176405
726.980	0.0176263
727.058	0.0174944
727.137	0.0174084
727.215	0.0173946
727.293	0.0173780
727.371	0.0172029
727.449	0.0171916
727.527	0.0172658
727.605	0.0172633
727.683	0.0171286
727.762	0.0172963
727.840	0.0174048
727.918	0.0174780
727.996	0.0174545
728.074	0.0173827
728.152	0.0174752
728.230	0.0176371
728.308	0.0176946
728.387	0.0175963
728.465	0.0176138
728.543	0.0177335
728.621	0.0179321
728.699	0.0177933
728.777	0.0179334
728.855	0.0179568
728.933	0.0180679
729.012	0.0179726
729.090	0.0181079
729.168	0.0181646
729.246	0.0181974
729.324	0.0180968
729.402	0.0179955
729.480	0.0180946
729.558	0.0179497
729.637	0.0179794
729.715	0.0177063
729.793	0.0177326
729.871	0.0176615
729.949	0.0176139
730.027	0.0175802
730.105	0.0174475
730.183	0.0175117
730.262	0.0173583
730.340	0.0174958
730.418	0.0173338
730.496	0.0173951
730.574	0.0175263
730.652	0.0175232
730.730	0.0174816
730.808	0.0176013
730.887	0.0175429
730.965	0.0175775
731.043	0.0174951
731.121	0.0174416
731.199	0.0175183
731.277	0.0173509
731.355	0.0175103
731.433	0.0174309
731.512	0.0174802
731.590	0.0175600
731.668	0.0175199
731.746	0.0174804
731.824	0.0174516
731.902	0.0174951
731.980	0.0174461
732.058	0.0175143
732.137	0.0176764
732.215	0.0173943
732.293	0.0174122
732.371	0.0175062
732.449	0.0175053
732.527	0.0174731
732.605	0.0174852
732.683	0.0173843
732.762	0.0174525
732.840	0.0174238
732.918	0.0176151
732.996	0.0176715
733.074	0.0175156
733.152	0.0175889
733.230	0.0177768
733.308	0.0178669
733.387	0.0178013
733.465	0.0178690
733.543	0.0180685
733.621	0.0181525
733.699	0.0182866
733.777	0.0182731
733.855	0.0183324
733.933	0.0185426
734.012	0.0184594
734.090	0.0185826
734.168	0.0186373
734.246	0.0186117
734.324	0.0185296
734.402	0.0185307
734.480	0.0185348
734.558	0.0184442
734.637	0.0184913
734.715	0.0184723
734.793	0.0183468
734.871	0.0181747
734.949	0.0181200
735.027	0.0178672
735.105	0.0178342
735.183	0.0177276
735.262	0.0175899
735.340	0.0175460
735.418	0.0173646
735.496	0.0173161
735.574	0.0171650
735.652	0.0170504
735.730	0.0170560
735.808	0.0169960
735.887	0.0168172
735.965	0.0168748
736.043	0.0168037
736.121	0.0168283
736.199	0.0169420
736.277	0.0169759
736.355	0.0171240
736.433	0.0171313
736.512	0.0172175
736.590	0.0172972
736.668	0.0173742
736.746	0.0175403
736.824	0.0177347
736.902	0.0177461
736.980	0.0177471
737.058	0.0179160
737.137	0.0179868
737.215	0.0180443
737.293	0.0182743
737.371	0.0181195
737.449	0.0183150
737.527	0.0183549
737.605	0.0183105
737.683	0.0182994
737.762	0.0183738
737.840	0.0183466
737.918	0.0184354
737.996	0.0182536
738.074	0.0181202
738.152	0.0181720
738.230	0.0182264
738.308	0.0180930
738.387	0.0180601
738.465	0.0179271
738.543	0.0178214
738.621	0.0176895
738.699	0.0179239
738.777	0.0179694
738.855	0.0178001
738.933	0.0176807
739.012	0.0177128
739.090	0.0177470
739.168	0.0178307
739.246	0.0177280
739.324	0.0177509
739.402	0.0177300
739.480	0.0177514
739.558	0.0177202
739.637	0.0175864
739.715	0.0176592
739.793	0.0175912
739.871	0.0175886
739.949	0.0174998
740.027	0.0175092
740.105	0.0174074
740.183	0.0174933
740.262	0.0174695
740.340	0.0174969
740.418	0.0175710
740.496	0.0174205
740.574	0.0175079
740.652	0.0175600
740.730	0.0174331
740.808	0.0173952
740.887	0.0174691
740.965	0.0174546
741.043	0.0174533
741.121	0.0173767
741.199	0.0174934
741.277	0.0174826
741.355	0.0173901
741.433	0.0174749
741.512	0.0176202
741.590	0.0175098
741.668	0.0175610
741.746	0.0176183
741.824	0.0176936
741.902	0.0177975
741.980	0.0177751
742.058	0.0176544
742.137	0.0179051
742.215	0.0179396
742.293	0.0178638
742.371	0.0178691
742.449	0.0178786
742.527	0.0178526
742.605	0.0179411
742.683	0.0178880
742.762	0.0178633
742.840	0.0179053
742.918	0.0178380
742.996	0.0178042
743.074	0.0179065
743.152	0.0178909
743.230	0.0177287
743.308	0.0177256
743.387	0.0176775
743.465	0.0175987
743.543	0.0175863
743.621	0.0174630
743.699	0.0174883
743.777	0.0175598
743.855	0.0175069
743.933	0.0176907
744.012	0.0175689
744.090	0.0176067
744.168	0.0176667
744.246	0.0175359
744.324	0.0176287
744.402	0.0176367
744.480	0.0176379
744.558	0.0177637
744.637	0.0175896
744.715	0.0176693
744.793	0.0178148
744.871	0.0177213
744.949	0.0177977
745.027	0.0177148
745.105	0.0176974
745.183	0.0177490
745.262	0.0177576
745.340	0.0177395
745.418	0.0177451
745.496	0.0177125
745.574	0.0176414
745.652	0.0176707
745.730	0.0176340
745.808	0.0176226
745.887	0.0176349
745.965	0.0175768
746.043	0.0176608
746.121	0.0176526
746.199	0.0176385
746.277	0.0175133
746.355	0.0176534
746.433	0.0176675
746.512	0.0174263
746.590	0.0174869
746.668	0.0175026
746.746	0.0174867
746.824	0.0175201
746.902	0.0176400
746.980	0.0174200
747.058	0.0175108
747.137	0.0176749
747.215	0.0175613
747.293	0.0175430
747.371	0.0176365
747.449	0.0177653
747.527	0.0176736
747.605	0.0177110
747.683	0.0178427
747.762	0.0179147
747.840	0.0177949
747.918	0.0177852
747.996	0.0179243
748.074	0.0177914
748.152	0.0179445
748.230	0.0178564
748.308	0.0179715
748.387	0.0179681
748.465	0.0180517
748.543	0.0179301
748.621	0.0180298
748.699	0.0179326
748.777	0.0178744
748.855	0.0179624
748.933	0.0179335
749.012	0.0180131
749.090	0.0177559
749.168	0.0179367
749.246	0.0178684
749.324	0.0177349
749.402	0.0178270
749.480	0.0178613
749.558	0.0177661
749.637	0.0176830
749.715	0.0176384
749.793	0.0176608
749.871	0.0177156
749.949	0.0177554
750.027	0.0176355
750.105	0.0176929
750.183	0.0175679
750.262	0.0176018
750.340	0.0175735
750.418	0.0175352
750.496	0.0175391
750.574	0.0176467
750.652	0.0177202
750.730	0.0175371
750.808	0.0175884
750.887	0.0176547
750.965	0.0174743
751.043	0.0173630
751.121	0.0174873
751.199	0.0174464
751.277	0.0174236
751.355	0.0176165
751.433	0.0175274
751.512	0.0176544
751.590	0.0177222
751.668	0.0175459
751.746	0.0177719
751.824	0.0177469
751.902	0.0178278
751.980	0.0179276
752.058	0.0177902
752.137	0.0177061
752.215	0.0178436
752.293	0.0179157
752.371	0.0178745
752.449	0.0177892
752.527	0.0178445
752.605	0.0178633
752.683	0.0179462
752.762	0.0177135
752.840	0.0176241
752.918	0.0178409
752.996	0.0177084
753.074	0.0176527
753.152	0.0176372
753.230	0.0177158
753.308	0.0176541
753.387	0.0176704
753.465	0.0175519
753.543	0.0174715
753.621	0.0175454
753.699	0.0175280
753.777	0.0173541
753.855	0.0175809
753.933	0.0176187
754.012	0.0175520
754.090	0.0176882
754.168	0.0177066
754.246	0.0177045
754.324	0.0177145
754.402	0.0175549
754.480	0.0177761
754.558	0.0177366
754.637	0.0177424
754.715	0.0179074
754.793	0.0178659
754.871	0.0177994
754.949	0.0177868
755.027	0.0177335
755.105	0.0178212
755.183	0.0177745
755.262	0.0175883
755.340	0.0177008
755.418	0.0178848
755.496	0.0178086
755.574	0.0177790
755.652	0.0179208
755.730	0.0179482
755.808	0.0179015
755.887	0.0179729
755.965	0.0178680
756.043	0.0179619
756.121	0.0180195
756.199	0.0180350
756.277	0.0180431
756.355	0.0179234
756.433	0.0178867
756.512	0.0178994
756.590	0.0178425
756.668	0.0178061
756.746	0.0178384
756.824	0.0178645
756.902	0.0178287
756.980	0.0176383
757.058	0.0177209
757.137	0.0176485
757.215	0.0178117
757.293	0.0177063
757.371	0.0176270
757.449	0.0177924
757.527	0.0177022
757.605	0.0176968
757.683	0.0178076
757.762	0.0178400
757.840	0.0177912
757.918	0.0179427
757.996	0.0178996
758.074	0.0177914
758.152	0.0178585
758.230	0.0177799
758.308	0.0179031
758.387	0.0178682
758.465	0.0178963
758.543	0.0178986
758.621	0.0178226
758.699	0.0177614
758.777	0.0178331
758.855	0.0177574
758.933	0.0177622
759.012	0.0177758
759.090	0.0176393
759.168	0.0177384
759.246	0.0177937
759.324	0.0176653
759.402	0.0177930
759.480	0.0176659
759.558	0.0177722
759.637	0.0178352
759.715	0.0177930
759.793	0.0177364
759.871	0.0177634
759.949	0.0176360
760.027	0.0179347
760.105	0.0178666
760.183	0.0177744
760.262	0.0178428
760.340	0.0177923
760.418	0.0178521
760.496	0.0179066
760.574	0.0177470
760.652	0.0177816
760.730	0.0179206
760.808	0.0177605
760.887	0.0177691
760.965	0.0178413
761.043	0.0176710
761.121	0.0178053
761.199	0.0178182
761.277	0.0179182
761.355	0.0178854
761.433	0.0176905
761.512	0.0177851
761.590	0.0178432
761.668	0.0178198
761.746	0.0178600
761.824	0.0178806
761.902	0.0177164
761.980	0.0180149
762.058	0.0177450
762.137	0.0177142
762.215	0.0178362
762.293	0.0176591
762.371	0.0178276
762.449	0.0176978
762.527	0.0176066
762.605	0.0177471
762.683	0.0179272
762.762	0.0177959
762.840	0.0178088
762.918	0.0178474
762.996	0.0178289
763.074	0.0177301
763.152	0.0177850
763.230	0.0178152
763.308	0.0177612
763.387	0.0177989
763.465	0.0178065
763.543	0.0177737
763.621	0.0175789
763.699	0.0177784
763.777	0.0176826
763.855	0.0176709
763.933	0.0175726
764.012	0.0174648
764.090	0.0175550
764.168	0.0176113
764.246	0.0175685
764.324	0.0175111
764.402	0.0174165
764.480	0.0174950
764.558	0.0174829
764.637	0.0174966
764.715	0.0174832
764.793	0.0173975
764.871	0.0173244
764.949	0.0175968
765.027	0.0174283
765.105	0.0175073
765.183	0.0174895
765.262	0.0175443
765.340	0.0177111
765.418	0.0176540
765.496	0.0176062
765.574	0.0177975
765.652	0.0178502
765.730	0.0177998
765.808	0.0177567
765.887	0.0178150
765.965	0.0178872
766.043	0.0179098
766.121	0.0178889
766.199	0.0179980
766.277	0.0179556
766.355	0.0179803
766.433	0.0179453
766.512	0.0180190
766.590	0.0177748
766.668	0.0178463
766.746	0.0179736
766.824	0.0179174
766.902	0.0179600
766.980	0.0179483
767.058	0.0176934
767.137	0.0179685
767.215	0.0178490
767.293	0.0178896
767.371	0.0177715
767.449	0.0179296
767.527	0.0178471
767.605	0.0178071
767.683	0.0178353
767.762	0.0179065
767.840	0.0179210
767.918	0.0178838
767.996	0.0177319
768.074	0.0177763
768.152	0.0177802
768.230	0.0176488
768.308	0.0176897
768.387	0.0177792
768.465	0.0177406
768.543	0.0176983
768.621	0.0176638
768.699	0.0175609
768.777	0.0176733
768.855	0.0176727
768.933	0.0177066
769.012	0.0176546
769.090	0.0176573
769.168	0.0175874
769.246	0.0175313
769.324	0.0175251
769.402	0.0175786
769.480	0.0174691
769.558	0.0175384
769.637	0.0175992
769.715	0.0175759
769.793	0.0175298
769.871	0.0175368
769.949	0.0175408
770.027	0.0175097
770.105	0.0176868
770.183	0.0177130
770.262	0.0177716
770.340	0.0177637
770.418	0.0178951
770.496	0.0178726
770.574	0.0178912
770.652	0.0180202
770.730	0.0180566
770.808	0.0180708
770.887	0.0180963
770.965	0.0182496
771.043	0.0181158
771.121	0.0182337
771.199	0.0181264
771.277	0.0180990
771.355	0.0180515
771.433	0.0179741
771.512	0.0178962
771.590	0.0178667
771.668	0.0178291
771.746	0.0177717
771.824	0.0178075
771.902	0.0176704
771.980	0.0176681
772.058	0.0176289
772.137	0.0174181
772.215	0.0174632
772.293	0.0175567
772.371	0.0174577
772.449	0.0174272
772.527	0.0174963
772.605	0.0177122
772.683	0.0176352
772.762	0.0176746
772.840	0.0176404
772.918	0.0175354
772.996	0.0177620
773.074	0.0176967
773.152	0.0176001
773.230	0.0178635
773.308	0.0176820
773.387	0.0177352
773.465	0.0177155
773.543	0.0177103
773.621	0.0177432
773.699	0.0176849
773.777	0.0177228
773.855	0.0177540
773.933	0.0178439
774.012	0.0177078
774.090	0.0176963
774.168	0.0177568
774.246	0.0178703
774.324	0.0178895
774.402	0.0177818
774.480	0.0177127
774.558	0.0178553
774.637	0.0179160
774.715	0.0177739
774.793	0.0175720
774.871	0.0176212
774.949	0.0176347
775.027	0.0176501
775.105	0.0177906
775.183	0.0177589
775.262	0.0177719
775.340	0.0176319
775.418	0.0176011
775.496	0.0176736
775.574	0.0174921
775.652	0.0175761
775.730	0.0175634
775.808	0.0175867
775.887	0.0176488
775.965	0.0176539
776.043	0.0176581
776.121	0.0176761
776.199	0.0176967
776.277	0.0177303
776.355	0.0177204
776.433	0.0177735
776.512	0.0177335
776.590	0.0177418
776.668	0.0178557
776.746	0.0178803
776.824	0.0176754
776.902	0.0177242
776.980	0.0178507
777.058	0.0179079
777.137	0.0177293
777.215	0.0178064
777.293	0.0176910
777.371	0.0177452
777.449	0.0178159
777.527	0.0177880
777.605	0.0176496
777.683	0.0176877
777.762	0.0176751
777.840	0.0176427
777.918	0.0177026
777.996	0.0177315
778.074	0.0177693
778.152	0.0176659
778.230	0.0178832
778.308	0.0180097
778.387	0.0178727
778.465	0.0178526
778.543	0.0180346
778.621	0.0179440
778.699	0.0178181
778.777	0.0179074
778.855	0.0179596
778.933	0.0179221
779.012	0.0178354
779.090	0.0179278
779.168	0.0178121
779.246	0.0178640
779.324	0.0177492
779.402	0.0178158
779.480	0.0177640
779.558	0.0176984
779.637	0.0176382
779.715	0.0176764
779.793	0.0177783
779.871	0.0176930
779.949	0.0176829
780.027	0.0176829
780.105	0.0175505
780.183	0.0176910
780.262	0.0175645
780.340	0.0175449
780.418	0.0176036
780.496	0.0175608
780.574	0.0176295
780.652	0.0175684
780.730	0.0177065
780.808	0.0178170
780.887	0.0176752
780.965	0.0178821
781.043	0.0179168
781.121	0.0178625
781.199	0.0179765
781.277	0.0180430
781.355	0.0180302
781.433	0.0180973
781.512	0.0178690
781.590	0.0179368
781.668	0.0179815
781.746	0.0181590
781.824	0.0179945
781.902	0.0179330
781.980	0.0181332
782.058	0.0178259
782.137	0.0178435
782.215	0.0179578
782.293	0.0178953
782.371	0.0178029
782.449	0.0178490
782.527	0.0176321
782.605	0.0176692
782.683	0.0177283
782.762	0.0175658
782.840	0.0176661
782.918	0.0176346
782.996	0.0176662
783.074	0.0175329
783.152	0.0175124
783.230	0.0174556
783.308	0.0173806
783.387	0.0174217
783.465	0.0174709
783.543	0.0174573
783.621	0.0174189
783.699	0.0174894
783.777	0.0174385
783.855	0.0175240
783.933	0.0174652
784.012	0.0175836
784.090	0.0175861
784.168	0.0174825
784.246	0.0175628
784.324	0.0176311
784.402	0.0177050
784.480	0.0176688
784.558	0.0178465
784.637	0.0177731
784.715	0.0176933
784.793	0.0177673
784.871	0.0176434
784.949	0.0178562
785.027	0.0177715
785.105	0.0175321
785.183	0.0177883
785.262	0.0178403
785.340	0.0177362
785.418	0.0176942
785.496	0.0176699
785.574	0.0177009
785.652	0.0176218
785.730	0.0175484
785.808	0.0176511
785.887	0.0177486
785.965	0.0176610
786.043	0.0176157
786.121	0.0176826
786.199	0.0177887
786.277	0.0176643
786.355	0.0177907
786.433	0.0178883
786.512	0.0177809
786.590	0.0177266
786.668	0.0177618
786.746	0.0178098
786.824	0.0178690
786.902	0.0177184
786.980	0.0178791
787.058	0.0178255
787.137	0.0178455
787.215	0.0178102
787.293	0.0178087
787.371	0.0178793
787.449	0.0180248
787.527	0.0178484
787.605	0.0178759
787.683	0.0178860
787.762	0.0177956
787.840	0.0178300
787.918	0.0177300
787.996	0.0177433
788.074	0.0176600
788.152	0.0176034
788.230	0.0175828
788.308	0.0176324
788.387	0.0175726
788.465	0.0176614
788.543	0.0175916
788.621	0.0176703
788.699	0.0175342
788.777	0.0176172
788.855	0.0175803
788.933	0.0175777
789.012	0.0175830
789.090	0.0176804
789.168	0.0178493
789.246	0.0177871
789.324	0.0177007
789.402	0.0178309
789.480	0.0178564
789.558	0.0177171
789.637	0.0178335
789.715	0.0178392
789.793	0.0177626
789.871	0.0178272
789.949	0.0177890
790.027	0.0178249
790.105	0.0178254
790.183	0.0178503
790.262	0.0177396
790.340	0.0177910
790.418	0.0178840
790.496	0.0178165
790.574	0.0178368
790.652	0.0177956
790.730	0.0180302
790.808	0.0180206
790.887	0.0179181
790.965	0.0178174
791.043	0.0179060
791.121	0.0177531
791.199	0.0179632
791.277	0.0179938
791.355	0.0177404
791.433	0.0176981
791.512	0.0178251
791.590	0.0178099
791.668	0.0178443
791.746	0.0178181
791.824	0.0177983
791.902	0.0177866
791.980	0.0177734
792.058	0.0177575
792.137	0.0177444
792.215	0.0178178
792.293	0.0177000
792.371	0.0176511
792.449	0.0177440
792.527	0.0176937
792.605	0.0176878
792.683	0.0178394
792.762	0.0178167
792.840	0.0177843
792.918	0.0175757
792.996	0.0176304
793.074	0.0176833
793.152	0.0174713
793.230	0.0176976
793.308	0.0178010
793.387	0.0177592
793.465	0.0176633
793.543	0.0176398
793.621	0.0177106
793.699	0.0177209
793.777	0.0177707
793.855	0.0177821
793.933	0.0178270
794.012	0.0176776
794.090	0.0178107
794.168	0.0177705
794.246	0.0177031
794.324	0.0178133
794.402	0.0176767
794.480	0.0176991
794.558	0.0177502
794.637	0.0177831
794.715	0.0176939
794.793	0.0177272
794.871	0.0176323
794.949	0.0175764
795.027	0.0176080
795.105	0.0177071
795.183	0.0175502
795.262	0.0176640
795.340	0.0176223
795.418	0.0176844
795.496	0.0176242
795.574	0.0176578
795.652	0.0176510
795.730	0.0176129
795.808	0.0176044
795.887	0.0175562
795.965	0.0177474
796.043	0.0176084
796.121	0.0176357
796.199	0.0177226
796.277	0.0176575
796.355	0.0176999
796.433	0.0178072
796.512	0.0176443
796.590	0.0177805
796.668	0.0177619
796.746	0.0177789
796.824	0.0177889
796.902	0.0177650
796.980	0.0177211
797.058	0.0177887
797.137	0.0177707
797.215	0.0179259
797.293	0.0177801
797.371	0.0178025
797.449	0.0177428
797.527	0.0178082
797.605	0.0178554
797.683	0.0178560
797.762	0.0177637
797.840	0.0177332
797.918	0.0177962
797.996	0.0177806
798.074	0.0179018
798.152	0.0177396
798.230	0.0178123
798.308	0.0179531
798.387	0.0179138
798.465	0.0178185
798.543	0.0177591
798.621	0.0177467
798.699	0.0178639
798.777	0.0178629
798.855	0.0176705
798.933	0.0177345
799.012	0.0177334
799.090	0.0177747
799.168	0.0177355
799.246	0.0176173
799.324	0.0175841
799.402	0.0177077
799.480	0.0176290
799.558	0.0175975
799.637	0.0175443
799.715	0.0176524
799.793	0.0176672
799.871	0.0176855
799.949	0.0175163
800.027	0.0176636
800.105	0.0175629
800.183	0.0176128
800.262	0.0176915
800.340	0.0177060
800.418	0.0175193
800.496	0.0177077
800.574	0.0177231
800.652	0.0175986
800.730	0.0176167
800.808	0.0176501
800.887	0.0176478
800.965	0.0175871
801.043	0.0175848
801.121	0.0176081
801.199	0.0175660
801.277	0.0175523
801.355	0.0176404
801.433	0.0175520
801.512	0.0176677
801.590	0.0176408
801.668	0.0175925
801.746	0.0175460
801.824	0.0177100
801.902	0.0176787
801.980	0.0176222
802.058	0.0176395
802.137	0.0176295
802.215	0.0177516
802.293	0.0177622
802.371	0.0177236
802.449	0.0178204
802.527	0.0176675
802.605	0.0178383
802.683	0.0177158
802.762	0.0177319
802.840	0.0177992
802.918	0.0176892
802.996	0.0177487
803.074	0.0176144
803.152	0.0176050
803.230	0.0175919
803.308	0.0176417
803.387	0.0176026
803.465	0.0177262
803.543	0.0175641
803.621	0.0176550
803.699	0.0176057
803.777	0.0176516
803.855	0.0175832
803.933	0.0174216
804.012	0.0174810
804.090	0.0175858
804.168	0.0175359
804.246	0.0176226
804.324	0.0174421
804.402	0.0174841
804.480	0.0175568
804.558	0.0175279
804.637	0.0175741
804.715	0.0176244
804.793	0.0175719
804.871	0.0174927
804.949	0.0176484
805.027	0.0174654
805.105	0.0174883
805.183	0.0177224
805.262	0.0177420
805.340	0.0176311
805.418	0.0176909
805.496	0.0177089
805.574	0.0174925
805.652	0.0175971
805.730	0.0177818
805.808	0.0177776
805.887	0.0177233
805.965	0.0177415
806.043	0.0176884
806.121	0.0178353
806.199	0.0176442
806.277	0.0178446
806.355	0.0178300
806.433	0.0177935
806.512	0.0178078
806.590	0.0178844
806.668	0.0177925
806.746	0.0177905
806.824	0.0177148
806.902	0.0177330
806.980	0.0178544
807.058	0.0177522
807.137	0.0176614
807.215	0.0178371
807.293	0.0175680
807.371	0.0176722
807.449	0.0176882
807.527	0.0176495
807.605	0.0176687
807.683	0.0176642
807.762	0.0176172
807.840	0.0176876
807.918	0.0177725
807.996	0.0176656
808.074	0.0177913
808.152	0.0177176
808.230	0.0176862
808.308	0.0176566
808.387	0.0177942
808.465	0.0177361
808.543	0.0178056
808.621	0.0178159
808.699	0.0177157
808.777	0.0179379
808.855	0.0177883
808.933	0.0177287
809.012	0.0178909
809.090	0.0178174
809.168	0.0176488
809.246	0.0176857
809.324	0.0177542
809.402	0.0177319
809.480	0.0176891
809.558	0.0177682
809.637	0.0174670
809.715	0.0177312
809.793	0.0176320
809.871	0.0176305
809.949	0.0177410
810.027	0.0176910
810.105	0.0176834
810.183	0.0175924
810.262	0.0175924
810.340	0.0176299
810.418	0.0177232
810.496	0.0176347
810.574	0.0176267
810.652	0.0175996
810.730	0.0176586
810.808	0.0176865
810.887	0.0177589
810.965	0.0177160
811.043	0.0177147
811.121	0.0177462
811.199	0.0176877
811.277	0.0176858
811.355	0.0176202
811.433	0.0177091
811.512	0.0176601
811.590	0.0177733
811.668	0.0177568
811.746	0.0177464
811.824	0.0178402
811.902	0.0176911
811.980	0.0178725
812.058	0.0178713
812.137	0.0178121
812.215	0.0177904
812.293	0.0177470
812.371	0.0179404
812.449	0.0178776
812.527	0.0179806
812.605	0.0177932
812.683	0.0177359
812.762	0.0177667
812.840	0.0178690
812.918	0.0178747
812.996	0.0179103
813.074	0.0178465
813.152	0.0178829
813.230	0.0179254
813.308	0.0178943
813.387	0.0177100
813.465	0.0179086
813.543	0.0177134
813.621	0.0178062
813.699	0.0178441
813.777	0.0177644
813.855	0.0177155
813.933	0.0177380
814.012	0.0177711
814.090	0.0177470
814.168	0.0176480
814.246	0.0176904
814.324	0.0175434
814.402	0.0176833
814.480	0.0176901
814.558	0.0177599
814.637	0.0175735
814.715	0.0175138
814.793	0.0176356
814.871	0.0176080
814.949	0.0175994
815.027	0.0176416
815.105	0.0176366
815.183	0.0177496
815.262	0.0177898
815.340	0.0176400
815.418	0.0176370
815.496	0.0178191
815.574	0.0177800
815.652	0.0177145
815.730	0.0177297
815.808	0.0177963
815.887	0.0178342
815.965	0.0176772
816.043	0.0177567
816.121	0.0178294
816.199	0.0178413
816.277	0.0178306
816.355	0.0179042
816.433	0.0179240
816.512	0.0176713
816.590	0.0177592
816.668	0.0178079
816.746	0.0177731
816.824	0.0177643
816.902	0.0179173
816.980	0.0178573
817.058	0.0177486
817.137	0.0177768
817.215	0.0176972
817.293	0.0177969
817.371	0.0177853
817.449	0.0177846
817.527	0.0176219
817.605	0.0176553
817.683	0.0178902
817.762	0.0178173
817.840	0.0177638
817.918	0.0177827
817.996	0.0178786
818.074	0.0177037
818.152	0.0178165
818.230	0.0178288
818.308	0.0176660
818.387	0.0179790
818.465	0.0178767
818.543	0.0178301
818.621	0.0178699
818.699	0.0177842
818.777	0.0177099
818.855	0.0178226
818.933	0.0177435
819.012	0.0178743
819.090	0.0176946
819.168	0.0177364
819.246	0.0178690
819.324	0.0177882
819.402	0.0178905
819.480	0.0176735
819.558	0.0176579
819.637	0.0177285
819.715	0.0177306
819.793	0.0176797
819.871	0.0174657
819.949	0.0176806
820.027	0.0177521
820.105	0.0176590
820.183	0.0175719
820.262	0.0173981
820.340	0.0175896
820.418	0.0174969
820.496	0.0176160
820.574	0.0173429
820.652	0.0174456
820.730	0.0175765
820.808	0.0176194
820.887	0.0175662
820.965	0.0174411
821.043	0.0175961
821.121	0.0177054
821.199	0.0175134
821.277	0.0175926
821.355	0.0176004
821.433	0.0175242
821.512	0.0177853
821.590	0.0177625
821.668	0.0176316
821.746	0.0177288
821.824	0.0176286
821.902	0.0176979
821.980	0.0176818
822.058	0.0176933
822.137	0.0177008
822.215	0.0177959
822.293	0.0176843
822.371	0.0175435
822.449	0.0176443
822.527	0.0177607
822.605	0.0175819
822.683	0.0175888
822.762	0.0176457
822.840	0.0176026
822.918	0.0176990
822.996	0.0176248
823.074	0.0176489
823.152	0.0174991
823.230	0.0175178
823.308	0.0176302
823.387	0.0176624
823.465	0.0176382
823.543	0.0174735
823.621	0.0176395
823.699	0.0176018
823.777	0.0175351
823.855	0.0175765
823.933	0.0175798
824.012	0.0174746
824.090	0.0176433
824.168	0.0176094
824.246	0.0178011
824.324	0.0176628
824.402	0.0175526
824.480	0.0176286
824.558	0.0174513
824.637	0.0174347
824.715	0.0177012
824.793	0.0176061
824.871	0.0175829
824.949	0.0177325
825.027	0.0177141
825.105	0.0176229
825.183	0.0175998
825.262	0.0176510
825.340	0.0177647
825.418	0.0176720
825.496	0.0177846
825.574	0.0177323
825.652	0.0176709
825.730	0.0177411
825.808	0.0177419
825.887	0.0175376
825.965	0.0176590
826.043	0.0177178
826.121	0.0176260
826.199	0.0175154
826.277	0.0174441
826.355	0.0175600
826.433	0.0176237
826.512	0.0176515
826.590	0.0176408
826.668	0.0173791
826.746	0.0176437
826.824	0.0175424
826.902	0.0176183
826.980	0.0177091
827.058	0.0177139
827.137	0.0175422
827.215	0.0176218
827.293	0.0175603
827.371	0.0176539
827.449	0.0176665
827.527	0.0176250
827.605	0.0177140
827.683	0.0177945
827.762	0.0176768
827.840	0.0177520
827.918	0.0175986
827.996	0.0176760
828.074	0.0178433
828.152	0.0176669
828.230	0.0175881
828.308	0.0175945
828.387	0.0176031
828.465	0.0175172
828.543	0.0176900
828.621	0.0176541
828.699	0.0176733
828.777	0.0174958
828.855	0.0176103
828.933	0.0176671
829.012	0.0175756
829.090	0.0176373
829.168	0.0176114
829.246	0.0176857
829.324	0.0177842
829.402	0.0175315
829.480	0.0177326
829.558	0.0176592
829.637	0.0176334
829.715	0.0176419
829.793	0.0177672
829.871	0.0176028
829.949	0.0174708
830.027	0.0175920
830.105	0.0176844
830.183	0.0176880
830.262	0.0178062
830.340	0.0177084
830.418	0.0176459
830.496	0.0176302
830.574	0.0177099
830.652	0.0177784
830.730	0.0177933
830.808	0.0175854
830.887	0.0176167
830.965	0.0177043
831.043	0.0177186
831.121	0.0177921
831.199	0.0177402
831.277	0.0177764
831.355	0.0177807
831.433	0.0178287
831.512	0.0176556
831.590	0.0177097
831.668	0.0176798
831.746	0.0177815
831.824	0.0177488
831.902	0.0176654
831.980	0.0176503
832.058	0.0176732
832.137	0.0176176
832.215	0.0177685
832.293	0.0175208
832.371	0.0174851
832.449	0.0176784
832.527	0.0174921
832.605	0.0176760
832.683	0.0177035
832.762	0.0175212
832.840	0.0175655
832.918	0.0175272
832.996	0.0176452
833.074	0.0175693
833.152	0.0176159
833.230	0.0177000
833.308	0.0175021
833.387	0.0177449
833.465	0.0178098
833.543	0.0178184
833.621	0.0176886
833.699	0.0177871
833.777	0.0177929
833.855	0.0178632
833.933	0.0177349
834.012	0.0177106
834.090	0.0177800
834.168	0.0178447
834.246	0.0179167
834.324	0.0179098
834.402	0.0178517
834.480	0.0178591
834.558	0.0179241
834.637	0.0179877
834.715	0.0178884
834.793	0.0178875
834.871	0.0178075
834.949	0.0180067
835.027	0.0178397
835.105	0.0178563
835.183	0.0178191
835.262	0.0177429
835.340	0.0178950
835.418	0.0180676
835.496	0.0180278
835.574	0.0178779
835.652	0.0180887
835.730	0.0178688
835.808	0.0178604
835.887	0.0177823
835.965	0.0178164
836.043	0.0179585
836.121	0.0176389
836.199	0.0178104
836.277	0.0177352
836.355	0.0177491
836.433	0.0177171
836.512	0.0178265
836.590	0.0177928
836.668	0.0176862
836.746	0.0176262
836.824	0.0178995
836.902	0.0178497
836.980	0.0178518
837.058	0.0177708
837.137	0.0176074
837.215	0.0177000
837.293	0.0176586
837.371	0.0177943
837.449	0.0178301
837.527	0.0177294
837.605	0.0178455
837.683	0.0178519
837.762	0.0178451
837.840	0.0177988
837.918	0.0177403
837.996	0.0177858
838.074	0.0178704
838.152	0.0177821
838.230	0.0176725
838.308	0.0177285
838.387	0.0178606
838.465	0.0178503
838.543	0.0177858
838.621	0.0177656
838.699	0.0177297
838.777	0.0177710
838.855	0.0178255
838.933	0.0177731
839.012	0.0177493
839.090	0.0177133
839.168	0.0177029
839.246	0.0175033
839.324	0.0176320
839.402	0.0176844
839.480	0.0177167
839.558	0.0177065
839.637	0.0177724
839.715	0.0177634
839.793	0.0179376
839.871	0.0177166
839.949	0.0177364
840.027	0.0177249
840.105	0.0179192
840.183	0.0179472
840.262	0.0177814
840.340	0.0178934
840.418	0.0178435
840.496	0.0180037
840.574	0.0180141
840.652	0.0179020
840.730	0.0178509
840.808	0.0178428
840.887	0.0179215
840.965	0.0177885
841.043	0.0177496
841.121	0.0178530
841.199	0.0178577
841.277	0.0178172
841.355	0.0177244
841.433	0.0175741
841.512	0.0177528
841.590	0.0176434
841.668	0.0176412
841.746	0.0176348
841.824	0.0176739
841.902	0.0175236
841.980	0.0176048
842.058	0.0175323
842.137	0.0175800
842.215	0.0175411
842.293	0.0174278
842.371	0.0175340
842.449	0.0174880
842.527	0.0174827
842.605	0.0175490
842.683	0.0176255
842.762	0.0173457
842.840	0.0174081
842.918	0.0175727
842.996	0.0176041
843.074	0.0175060
843.152	0.0175116
843.230	0.0176373
843.308	0.0176855
843.387	0.0176778
843.465	0.0176376
843.543	0.0176298
843.621	0.0176170
843.699	0.0176315
843.777	0.0176480
843.855	0.0177074
843.933	0.0178039
844.012	0.0176200
844.090	0.0178526
844.168	0.0178802
844.246	0.0176266
844.324	0.0177862
844.402	0.0176797
844.480	0.0178242
844.558	0.0177859
844.637	0.0177522
844.715	0.0176500
844.793	0.0177128
844.871	0.0176943
844.949	0.0175973
845.027	0.0177191
845.105	0.0177547
845.183	0.0175920
845.262	0.0177942
845.340	0.0177962
845.418	0.0178121
845.496	0.0177444
845.574	0.0177407
845.652	0.0177901
845.730	0.0177171
845.808	0.0176447
845.887	0.0176140
845.965	0.0176391
846.043	0.0178007
846.121	0.0176919
846.199	0.0176168
846.277	0.0175986
846.355	0.0177495
846.433	0.0177144
846.512	0.0175362
846.590	0.0176971
846.668	0.0176486
846.746	0.0176759
846.824	0.0176733
846.902	0.0176370
846.980	0.0177490
847.058	0.0177393
847.137	0.0177756
847.215	0.0175858
847.293	0.0176051
847.371	0.0176877
847.449	0.0177264
847.527	0.0176210
847.605	0.0176221
847.683	0.0176097
847.762	0.0177234
847.840	0.0176173
847.918	0.0175786
847.996	0.0175861
848.074	0.0176901
848.152	0.0177347
848.230	0.0178272
848.308	0.0177261
848.387	0.0177504
848.465	0.0176418
848.543	0.0177872
848.621	0.0177015
848.699	0.0177106
848.777	0.0177252
848.855	0.0177200
848.933	0.0177433
849.012	0.0177234
849.090	0.0178577
849.168	0.0178344
849.246	0.0177637
849.324	0.0176993
849.402	0.0177156
849.480	0.0177044
849.558	0.0178419
849.637	0.0177045
849.715	0.0177081
849.793	0.0178462
849.871	0.0176313
849.949	0.0177363
850.027	0.0175982
850.105	0.0176498
850.183	0.0178057
850.262	0.0177789
850.340	0.0176531
850.418	0.0176807
850.496	0.0176188
850.574	0.0176920
850.652	0.0178703
850.730	0.0175585
850.808	0.0175587
850.887	0.0175795
850.965	0.0177579
851.043	0.0177251
851.121	0.0175466
851.199	0.0175477
851.277	0.0178036
851.355	0.0177678
851.433	0.0176839
851.512	0.0176855
851.590	0.0176535
851.668	0.0176659
851.746	0.0177134
851.824	0.0177509
851.902	0.0178095
851.980	0.0177834
852.058	0.0177188
852.137	0.0176517
852.215	0.0177316
852.293	0.0177510
852.371	0.0177772
852.449	0.0178601
852.527	0.0178522
852.605	0.0177452
852.683	0.0178989
852.762	0.0178732
852.840	0.0177598
852.918	0.0179105
852.996	0.0179021
853.074	0.0179752
853.152	0.0179459
853.230	0.0179218
853.308	0.0178311
853.387	0.0178098
853.465	0.0177928
853.543	0.0179346
853.621	0.0180242
853.699	0.0177610
853.777	0.0177540
853.855	0.0177487
853.933	0.0179301
854.012	0.0177914
854.090	0.0176498
854.168	0.0178982
854.246	0.0175385
854.324	0.0176905
854.402	0.0176664
854.480	0.0178027
854.558	0.0177666
854.637	0.0178767
854.715	0.0177799
854.793	0.0178428
854.871	0.0176870
854.949	0.0178461
855.027	0.0178108
855.105	0.0176499
855.183	0.0177421
855.262	0.0178001
855.340	0.0178937
855.418	0.0178416
855.496	0.0178754
855.574	0.0178441
855.652	0.0178331
855.730	0.0177562
855.808	0.0176650
855.887	0.0177219
855.965	0.0178436
856.043	0.0177589
856.121	0.0177496
856.199	0.0177127
856.277	0.0177483
856.355	0.0178885
856.433	0.0176968
856.512	0.0177737
856.590	0.0177972
856.668	0.0178563
856.746	0.0177281
856.824	0.0176465
856.902	0.0176909
856.980	0.0177887
857.058	0.0177669
857.137	0.0176069
857.215	0.0176382
857.293	0.0178711
857.371	0.0178397
857.449	0.0177544
857.527	0.0178056
857.605	0.0177538
857.683	0.0176215
857.762	0.0178194
857.840	0.0177821
857.918	0.0178178
857.996	0.0177888
858.074	0.0179301
858.152	0.0177863
858.230	0.0177294
858.308	0.0177431
858.387	0.0178673
858.465	0.0177535
858.543	0.0176367
858.621	0.0178326
858.699	0.0178049
858.777	0.0178336
858.855	0.0178160
858.933	0.0177557
859.012	0.0177542
859.090	0.0176176
859.168	0.0177094
859.246	0.0178019
859.324	0.0177760
859.402	0.0177808
859.480	0.0178721
859.558	0.0177409
859.637	0.0175965
859.715	0.0177217
859.793	0.0177306
859.871	0.0177880
859.949	0.0177670
860.027	0.0177152
860.105	0.0179018
860.183	0.0177983
860.262	0.0177826
860.340	0.0176353
860.418	0.0177126
860.496	0.0178469
860.574	0.0177673
860.652	0.0176098
860.730	0.0176771
860.808	0.0178150
860.887	0.0178484
860.965	0.0177920
861.043	0.0176101
861.121	0.0176411
861.199	0.0177230
861.277	0.0176606
861.355	0.0176006
861.433	0.0175906
861.512	0.0175745
861.590	0.0176849
861.668	0.0176535
861.746	0.0175779
861.824	0.0174765
861.902	0.0176784
861.980	0.0177016
862.058	0.0176982
862.137	0.0175594
862.215	0.0175671
862.293	0.0176247
862.371	0.0176479
862.449	0.0177579
862.527	0.0176301
862.605	0.0176333
862.683	0.0175282
862.762	0.0175947
862.840	0.0176260
862.918	0.0176282
862.996	0.0176866
863.074	0.0175774
863.152	0.0176691
863.230	0.0177113
863.308	0.0176180
863.387	0.0175370
863.465	0.0174593
863.543	0.0176751
863.621	0.0175723
863.699	0.0175618
863.777	0.0176919
863.855	0.0175680
863.933	0.0177147
864.012	0.0176701
864.090	0.0176627
864.168	0.0178004
864.246	0.0175702
864.324	0.0176463
864.402	0.0176116
864.480	0.0177572
864.558	0.0176318
864.637	0.0176249
864.715	0.0177189
864.793	0.0176627
864.871	0.0175964
864.949	0.0176585
865.027	0.0178256
865.105	0.0177746
865.183	0.0176746
865.262	0.0176897
865.340	0.0176537
865.418	0.0174763
865.496	0.0176863
865.574	0.0177023
865.652	0.0176715
865.730	0.0177814
865.808	0.0177772
865.887	0.0176587
865.965	0.0175390
866.043	0.0178798
866.121	0.0176080
866.199	0.0175163
866.277	0.0177774
866.355	0.0176316
866.433	0.0176080
866.512	0.0177176
866.590	0.0177546
866.668	0.0176041
866.746	0.0175333
866.824	0.0176346
866.902	0.0178231
866.980	0.0176638
867.058	0.0176974
867.137	0.0176583
867.215	0.0176870
867.293	0.0175214
867.371	0.0177531
867.449	0.0177132
867.527	0.0176094
867.605	0.0176688
867.683	0.0177069
867.762	0.0177289
867.840	0.0177363
867.918	0.0178563
867.996	0.0175874
868.074	0.0176794
868.152	0.0176701
868.230	0.0178140
868.308	0.0176399
868.387	0.0178159
868.465	0.0177897
868.543	0.0177077
868.621	0.0177361
868.699	0.0178093
868.777	0.0177525
868.855	0.0177293
868.933	0.0178400
869.012	0.0177202
869.090	0.0177895
869.168	0.0178149
869.246	0.0177856
869.324	0.0177609
869.402	0.0178032
869.480	0.0177021
869.558	0.0176566
869.637	0.0177075
869.715	0.0176842
869.793	0.0176714
869.871	0.0176793
869.949	0.0177173
