06/03/2022	18:32:49	Ver.	4.1	UNKNOWN
Optical Delay	550.027179	Delta X		0.078125	Sweeps	1	Scan Rate	0/0
Coordinates	Axis 1	NaN	Axis 2	NaN	Axis 3	NaN	Axis 4	NaN	Axis 5	NaN	Axis 6	0.000000
TX Power	0.000000	RX Power	0.000000

550.027	0.0177756
550.105	0.0177692
550.183	0.0176660
550.262	0.0177625
550.340	0.0178832
550.418	0.0177594
550.496	0.0177616
550.574	0.0177139
550.652	0.0177137
550.730	0.0178266
550.808	0.0178585
550.887	0.0178324
550.965	0.0177328
551.043	0.0178272
551.121	0.0178281
551.199	0.0178893
551.277	0.0177997
551.355	0.0178926
551.433	0.0178779
551.512	0.0177995
551.590	0.0178326
551.668	0.0177155
551.746	0.0177428
551.824	0.0176633
551.902	0.0178720
551.980	0.0180070
552.058	0.0177944
552.137	0.0177279
552.215	0.0177988
552.293	0.0177464
552.371	0.0178509
552.449	0.0178596
552.527	0.0178607
552.605	0.0177924
552.683	0.0178788
552.762	0.0179018
552.840	0.0178009
552.918	0.0177694
552.996	0.0178548
553.074	0.0177060
553.152	0.0178633
553.230	0.0178231
553.308	0.0179717
553.387	0.0178677
553.465	0.0177705
553.543	0.0178994
553.621	0.0180460
553.699	0.0178499
553.777	0.0180304
553.855	0.0177745
553.933	0.0178668
554.012	0.0179517
554.090	0.0179694
554.168	0.0179849
554.246	0.0179401
554.324	0.0179301
554.402	0.0178445
554.480	0.0178100
554.558	0.0178748
554.637	0.0179558
554.715	0.0179826
554.793	0.0180808
554.871	0.0180310
554.949	0.0179921
555.027	0.0179313
555.105	0.0179481
555.183	0.0180588
555.262	0.0179794
555.340	0.0179345
555.418	0.0179932
555.496	0.0179041
555.574	0.0178235
555.652	0.0179559
555.730	0.0181479
555.808	0.0180312
555.887	0.0179803
555.965	0.0179449
556.043	0.0179834
556.121	0.0179704
556.199	0.0180168
556.277	0.0178739
556.355	0.0179541
556.433	0.0178986
556.512	0.0179280
556.590	0.0180135
556.668	0.0178701
556.746	0.0179776
556.824	0.0178852
556.902	0.0178993
556.980	0.0179962
557.058	0.0180031
557.137	0.0179916
557.215	0.0177799
557.293	0.0178403
557.371	0.0179418
557.449	0.0179095
557.527	0.0177834
557.605	0.0179867
557.683	0.0178791
557.762	0.0177576
557.840	0.0179770
557.918	0.0179543
557.996	0.0178083
558.074	0.0178620
558.152	0.0178820
558.230	0.0179418
558.308	0.0178663
558.387	0.0177563
558.465	0.0177351
558.543	0.0178850
558.621	0.0179630
558.699	0.0178424
558.777	0.0177681
558.855	0.0178376
558.933	0.0178091
559.012	0.0178502
559.090	0.0178844
559.168	0.0178870
559.246	0.0180052
559.324	0.0178720
559.402	0.0178294
559.480	0.0177439
559.558	0.0178637
559.637	0.0178459
559.715	0.0177549
559.793	0.0179450
559.871	0.0178900
559.949	0.0177743
560.027	0.0178497
560.105	0.0176686
560.183	0.0177393
560.262	0.0177296
560.340	0.0177170
560.418	0.0177126
560.496	0.0178097
560.574	0.0178565
560.652	0.0178143
560.730	0.0178017
560.808	0.0176334
560.887	0.0177869
560.965	0.0177258
561.043	0.0179839
561.121	0.0177708
561.199	0.0176513
561.277	0.0177960
561.355	0.0178013
561.433	0.0178049
561.512	0.0177635
561.590	0.0178076
561.668	0.0177805
561.746	0.0177837
561.824	0.0177595
561.902	0.0177985
561.980	0.0177975
562.058	0.0178375
562.137	0.0178600
562.215	0.0177534
562.293	0.0178984
562.371	0.0178631
562.449	0.0177297
562.527	0.0178340
562.605	0.0177823
562.683	0.0177481
562.762	0.0177809
562.840	0.0178714
562.918	0.0176758
562.996	0.0178288
563.074	0.0178741
563.152	0.0177616
563.230	0.0177434
563.308	0.0177180
563.387	0.0179137
563.465	0.0179108
563.543	0.0177355
563.621	0.0179193
563.699	0.0178621
563.777	0.0178876
563.855	0.0177435
563.933	0.0178035
564.012	0.0178474
564.090	0.0178415
564.168	0.0178748
564.246	0.0178754
564.324	0.0178126
564.402	0.0177818
564.480	0.0178558
564.558	0.0177831
564.637	0.0178199
564.715	0.0177724
564.793	0.0178347
564.871	0.0179273
564.949	0.0176881
565.027	0.0178098
565.105	0.0177193
565.183	0.0177577
565.262	0.0178773
565.340	0.0180035
565.418	0.0179430
565.496	0.0178414
565.574	0.0177457
565.652	0.0177320
565.730	0.0177530
565.808	0.0177966
565.887	0.0179150
565.965	0.0178343
566.043	0.0177235
566.121	0.0178216
566.199	0.0178144
566.277	0.0177803
566.355	0.0178290
566.433	0.0178716
566.512	0.0178474
566.590	0.0178143
566.668	0.0180310
566.746	0.0177270
566.824	0.0177568
566.902	0.0177993
566.980	0.0178555
567.058	0.0178210
567.137	0.0178374
567.215	0.0178698
567.293	0.0178719
567.371	0.0176678
567.449	0.0177068
567.527	0.0179462
567.605	0.0178401
567.683	0.0177954
567.762	0.0177722
567.840	0.0178238
567.918	0.0177937
567.996	0.0177842
568.074	0.0177132
568.152	0.0177366
568.230	0.0177922
568.308	0.0178876
568.387	0.0178094
568.465	0.0178996
568.543	0.0176465
568.621	0.0177648
568.699	0.0178718
568.777	0.0177577
568.855	0.0177483
568.933	0.0177081
569.012	0.0178160
569.090	0.0177276
569.168	0.0177003
569.246	0.0176552
569.324	0.0177695
569.402	0.0177673
569.480	0.0176498
569.558	0.0178541
569.637	0.0178860
569.715	0.0177602
569.793	0.0177421
569.871	0.0178727
569.949	0.0178793
570.027	0.0176247
570.105	0.0176987
570.183	0.0176575
570.262	0.0177754
570.340	0.0177061
570.418	0.0177529
570.496	0.0176888
570.574	0.0177703
570.652	0.0177556
570.730	0.0176535
570.808	0.0176624
570.887	0.0176812
570.965	0.0178402
571.043	0.0177588
571.121	0.0176163
571.199	0.0176665
571.277	0.0177243
571.355	0.0177274
571.433	0.0175298
571.512	0.0177053
571.590	0.0176563
571.668	0.0175574
571.746	0.0176592
571.824	0.0177331
571.902	0.0176476
571.980	0.0176631
572.058	0.0175390
572.137	0.0177545
572.215	0.0176979
572.293	0.0176545
572.371	0.0177164
572.449	0.0176017
572.527	0.0176647
572.605	0.0176174
572.683	0.0177406
572.762	0.0176604
572.840	0.0177693
572.918	0.0177287
572.996	0.0177840
573.074	0.0179176
573.152	0.0176044
573.230	0.0178287
573.308	0.0178937
573.387	0.0177352
573.465	0.0177843
573.543	0.0177937
573.621	0.0177645
573.699	0.0177686
573.777	0.0176755
573.855	0.0176648
573.933	0.0178246
574.012	0.0177377
574.090	0.0177343
574.168	0.0177253
574.246	0.0177682
574.324	0.0178519
574.402	0.0178410
574.480	0.0177692
574.558	0.0178699
574.637	0.0178386
574.715	0.0177525
574.793	0.0177954
574.871	0.0177802
574.949	0.0178983
575.027	0.0179040
575.105	0.0178963
575.183	0.0178518
575.262	0.0178644
575.340	0.0179872
575.418	0.0178281
575.496	0.0179105
575.574	0.0178564
575.652	0.0179228
575.730	0.0178953
575.808	0.0180159
575.887	0.0179189
575.965	0.0179381
576.043	0.0180476
576.121	0.0179288
576.199	0.0179369
576.277	0.0179662
576.355	0.0179836
576.433	0.0182005
576.512	0.0179402
576.590	0.0180451
576.668	0.0179578
576.746	0.0179995
576.824	0.0181047
576.902	0.0180505
576.980	0.0181208
577.058	0.0180281
577.137	0.0180250
577.215	0.0179707
577.293	0.0181572
577.371	0.0181288
577.449	0.0179910
577.527	0.0180583
577.605	0.0179642
577.683	0.0180803
577.762	0.0178529
577.840	0.0180283
577.918	0.0180282
577.996	0.0181178
578.074	0.0179350
578.152	0.0180218
578.230	0.0180065
578.308	0.0180562
578.387	0.0179556
578.465	0.0179187
578.543	0.0180437
578.621	0.0178804
578.699	0.0179196
578.777	0.0178471
578.855	0.0179336
578.933	0.0180425
579.012	0.0179826
579.090	0.0179607
579.168	0.0178612
579.246	0.0178879
579.324	0.0178805
579.402	0.0179350
579.480	0.0178853
579.558	0.0178588
579.637	0.0179836
579.715	0.0178638
579.793	0.0180490
579.871	0.0178937
579.949	0.0179984
580.027	0.0179176
580.105	0.0179152
580.183	0.0178668
580.262	0.0178352
580.340	0.0179683
580.418	0.0180669
580.496	0.0179227
580.574	0.0179301
580.652	0.0180376
580.730	0.0178516
580.808	0.0179535
580.887	0.0178717
580.965	0.0178886
581.043	0.0178268
581.121	0.0179529
581.199	0.0178748
581.277	0.0177975
581.355	0.0180392
581.433	0.0179618
581.512	0.0177963
581.590	0.0178002
581.668	0.0178708
581.746	0.0178916
581.824	0.0178796
581.902	0.0178732
581.980	0.0178036
582.058	0.0177557
582.137	0.0178101
582.215	0.0178329
582.293	0.0178632
582.371	0.0179198
582.449	0.0179156
582.527	0.0179146
582.605	0.0178439
582.683	0.0177235
582.762	0.0179485
582.840	0.0178773
582.918	0.0178351
582.996	0.0177805
583.074	0.0179287
583.152	0.0178127
583.230	0.0178875
583.308	0.0179190
583.387	0.0178713
583.465	0.0178442
583.543	0.0178738
583.621	0.0178398
583.699	0.0177256
583.777	0.0179296
583.855	0.0179146
583.933	0.0177520
584.012	0.0178310
584.090	0.0179335
584.168	0.0177794
584.246	0.0179369
584.324	0.0177972
584.402	0.0178388
584.480	0.0177635
584.558	0.0178422
584.637	0.0179243
584.715	0.0178582
584.793	0.0179529
584.871	0.0179123
584.949	0.0178419
585.027	0.0178709
585.105	0.0179550
585.183	0.0177882
585.262	0.0178098
585.340	0.0178220
585.418	0.0178400
585.496	0.0177579
585.574	0.0177908
585.652	0.0179502
585.730	0.0179853
585.808	0.0179551
585.887	0.0179144
585.965	0.0177824
586.043	0.0179115
586.121	0.0180974
586.199	0.0181506
586.277	0.0180052
586.355	0.0178945
586.433	0.0179926
586.512	0.0180634
586.590	0.0178931
586.668	0.0180605
586.746	0.0180825
586.824	0.0179397
586.902	0.0180647
586.980	0.0179671
587.058	0.0178625
587.137	0.0180256
587.215	0.0178525
587.293	0.0179435
587.371	0.0178696
587.449	0.0180199
587.527	0.0180199
587.605	0.0179816
587.683	0.0179356
587.762	0.0179820
587.840	0.0179189
587.918	0.0179084
587.996	0.0179099
588.074	0.0179722
588.152	0.0179720
588.230	0.0179847
588.308	0.0179030
588.387	0.0180013
588.465	0.0178409
588.543	0.0178948
588.621	0.0179050
588.699	0.0180091
588.777	0.0178662
588.855	0.0178676
588.933	0.0179108
589.012	0.0179679
589.090	0.0178690
589.168	0.0178924
589.246	0.0178790
589.324	0.0178857
589.402	0.0179018
589.480	0.0177735
589.558	0.0179881
589.637	0.0179785
589.715	0.0178495
589.793	0.0179590
589.871	0.0179884
589.949	0.0178670
590.027	0.0178085
590.105	0.0177477
590.183	0.0178745
590.262	0.0177268
590.340	0.0178065
590.418	0.0178410
590.496	0.0178199
590.574	0.0178675
590.652	0.0179352
590.730	0.0178863
590.808	0.0178057
590.887	0.0178532
590.965	0.0178822
591.043	0.0180173
591.121	0.0178766
591.199	0.0177258
591.277	0.0178891
591.355	0.0177703
591.433	0.0177576
591.512	0.0178419
591.590	0.0177183
591.668	0.0178570
591.746	0.0179798
591.824	0.0178339
591.902	0.0178356
591.980	0.0179932
592.058	0.0178606
592.137	0.0178468
592.215	0.0178814
592.293	0.0179245
592.371	0.0179032
592.449	0.0179461
592.527	0.0178664
592.605	0.0178941
592.683	0.0178447
592.762	0.0179538
592.840	0.0179030
592.918	0.0178909
592.996	0.0178250
593.074	0.0177582
593.152	0.0178129
593.230	0.0178697
593.308	0.0178647
593.387	0.0177200
593.465	0.0178078
593.543	0.0177135
593.621	0.0178439
593.699	0.0178583
593.777	0.0177231
593.855	0.0178528
593.933	0.0178280
594.012	0.0178867
594.090	0.0179385
594.168	0.0178371
594.246	0.0176919
594.324	0.0178497
594.402	0.0178426
594.480	0.0178310
594.558	0.0178440
594.637	0.0180421
594.715	0.0178777
594.793	0.0177267
594.871	0.0178716
594.949	0.0178661
595.027	0.0178623
595.105	0.0178304
595.183	0.0177663
595.262	0.0179586
595.340	0.0178498
595.418	0.0177769
595.496	0.0177585
595.574	0.0179871
595.652	0.0179988
595.730	0.0178777
595.808	0.0179560
595.887	0.0178463
595.965	0.0178050
596.043	0.0177839
596.121	0.0179943
596.199	0.0178803
596.277	0.0178964
596.355	0.0177827
596.433	0.0178634
596.512	0.0178719
596.590	0.0178727
596.668	0.0178382
596.746	0.0179321
596.824	0.0179758
596.902	0.0180392
596.980	0.0180419
597.058	0.0178940
597.137	0.0180092
597.215	0.0178703
597.293	0.0178008
597.371	0.0178105
597.449	0.0179182
597.527	0.0178419
597.605	0.0179285
597.683	0.0180232
597.762	0.0179544
597.840	0.0177956
597.918	0.0178773
597.996	0.0178338
598.074	0.0178642
598.152	0.0178005
598.230	0.0178573
598.308	0.0178898
598.387	0.0178314
598.465	0.0178275
598.543	0.0178936
598.621	0.0179884
598.699	0.0179288
598.777	0.0179043
598.855	0.0178526
598.933	0.0178540
599.012	0.0178326
599.090	0.0179904
599.168	0.0179226
599.246	0.0179482
599.324	0.0178358
599.402	0.0179102
599.480	0.0178691
599.558	0.0177824
599.637	0.0179047
599.715	0.0178082
599.793	0.0180117
599.871	0.0179029
599.949	0.0178252
600.027	0.0178236
600.105	0.0177634
600.183	0.0178286
600.262	0.0178365
600.340	0.0177913
600.418	0.0178331
600.496	0.0179038
600.574	0.0178791
600.652	0.0177593
600.730	0.0178735
600.808	0.0178222
600.887	0.0178320
600.965	0.0179361
601.043	0.0177959
601.121	0.0179335
601.199	0.0177788
601.277	0.0178160
601.355	0.0177481
601.433	0.0178867
601.512	0.0179575
601.590	0.0179158
601.668	0.0178838
601.746	0.0178400
601.824	0.0178706
601.902	0.0178465
601.980	0.0177518
602.058	0.0176944
602.137	0.0178959
602.215	0.0177999
602.293	0.0178259
602.371	0.0178455
602.449	0.0178505
602.527	0.0178347
602.605	0.0179762
602.683	0.0176662
602.762	0.0178133
602.840	0.0179588
602.918	0.0179336
602.996	0.0179006
603.074	0.0177988
603.152	0.0177798
603.230	0.0177784
603.308	0.0178693
603.387	0.0178496
603.465	0.0179398
603.543	0.0179168
603.621	0.0178683
603.699	0.0177908
603.777	0.0179133
603.855	0.0179331
603.933	0.0178281
604.012	0.0178738
604.090	0.0178582
604.168	0.0179400
604.246	0.0178290
604.324	0.0179987
604.402	0.0178708
604.480	0.0180139
604.558	0.0179666
604.637	0.0178608
604.715	0.0179256
604.793	0.0180639
604.871	0.0179806
604.949	0.0178466
605.027	0.0178230
605.105	0.0178320
605.183	0.0179920
605.262	0.0180222
605.340	0.0179635
605.418	0.0178928
605.496	0.0179466
605.574	0.0179318
605.652	0.0180340
605.730	0.0179523
605.808	0.0179198
605.887	0.0180140
605.965	0.0179861
606.043	0.0179910
606.121	0.0180051
606.199	0.0180276
606.277	0.0179967
606.355	0.0179893
606.433	0.0180170
606.512	0.0179022
606.590	0.0180625
606.668	0.0179762
606.746	0.0179866
606.824	0.0178561
606.902	0.0178998
606.980	0.0180732
607.058	0.0179122
607.137	0.0180082
607.215	0.0179752
607.293	0.0180537
607.371	0.0181355
607.449	0.0179675
607.527	0.0182118
607.605	0.0180956
607.683	0.0179628
607.762	0.0179972
607.840	0.0180658
607.918	0.0180314
607.996	0.0180425
608.074	0.0178387
608.152	0.0180117
608.230	0.0179853
608.308	0.0181315
608.387	0.0179915
608.465	0.0180067
608.543	0.0179742
608.621	0.0180308
608.699	0.0180515
608.777	0.0179860
608.855	0.0179903
608.933	0.0179960
609.012	0.0178922
609.090	0.0180083
609.168	0.0179956
609.246	0.0180367
609.324	0.0179980
609.402	0.0179335
609.480	0.0180125
609.558	0.0180857
609.637	0.0179253
609.715	0.0179353
609.793	0.0180077
609.871	0.0178342
609.949	0.0179971
610.027	0.0180231
610.105	0.0179296
610.183	0.0177616
610.262	0.0178622
610.340	0.0179765
610.418	0.0179504
610.496	0.0179838
610.574	0.0180125
610.652	0.0180056
610.730	0.0178565
610.808	0.0177644
610.887	0.0179604
610.965	0.0178269
611.043	0.0178794
611.121	0.0178654
611.199	0.0178806
611.277	0.0180009
611.355	0.0181600
611.433	0.0178991
611.512	0.0179528
611.590	0.0177728
611.668	0.0179385
611.746	0.0178518
611.824	0.0179334
611.902	0.0178491
611.980	0.0178217
612.058	0.0180537
612.137	0.0178960
612.215	0.0178220
612.293	0.0179053
612.371	0.0179934
612.449	0.0178107
612.527	0.0178566
612.605	0.0179666
612.683	0.0179350
612.762	0.0177521
612.840	0.0178318
612.918	0.0178405
612.996	0.0178854
613.074	0.0181198
613.152	0.0178292
613.230	0.0178557
613.308	0.0177989
613.387	0.0177493
613.465	0.0178064
613.543	0.0177539
613.621	0.0179032
613.699	0.0177431
613.777	0.0178372
613.855	0.0179595
613.933	0.0177991
614.012	0.0179412
614.090	0.0179379
614.168	0.0179565
614.246	0.0176302
614.324	0.0178793
614.402	0.0179298
614.480	0.0178937
614.558	0.0179370
614.637	0.0179501
614.715	0.0178959
614.793	0.0179033
614.871	0.0178577
614.949	0.0178749
615.027	0.0179920
615.105	0.0178828
615.183	0.0179075
615.262	0.0180351
615.340	0.0178046
615.418	0.0177758
615.496	0.0179506
615.574	0.0176724
615.652	0.0178679
615.730	0.0179562
615.808	0.0178515
615.887	0.0178558
615.965	0.0178849
616.043	0.0178599
616.121	0.0179003
616.199	0.0177812
616.277	0.0178521
616.355	0.0180016
616.433	0.0178762
616.512	0.0177876
616.590	0.0177666
616.668	0.0178977
616.746	0.0178179
616.824	0.0179018
616.902	0.0179498
616.980	0.0177975
617.058	0.0179411
617.137	0.0178329
617.215	0.0178609
617.293	0.0178035
617.371	0.0179297
617.449	0.0178289
617.527	0.0178190
617.605	0.0179168
617.683	0.0178262
617.762	0.0178379
617.840	0.0179085
617.918	0.0178753
617.996	0.0178155
618.074	0.0177355
618.152	0.0177719
618.230	0.0177457
618.308	0.0176725
618.387	0.0177522
618.465	0.0177619
618.543	0.0178296
618.621	0.0178573
618.699	0.0177922
618.777	0.0177500
618.855	0.0178819
618.933	0.0176963
619.012	0.0177629
619.090	0.0176466
619.168	0.0177042
619.246	0.0178052
619.324	0.0178129
619.402	0.0177596
619.480	0.0177974
619.558	0.0177424
619.637	0.0177599
619.715	0.0177999
619.793	0.0177000
619.871	0.0177818
619.949	0.0176336
620.027	0.0176960
620.105	0.0177573
620.183	0.0176884
620.262	0.0176695
620.340	0.0176582
620.418	0.0179181
620.496	0.0178146
620.574	0.0177214
620.652	0.0177147
620.730	0.0177608
620.808	0.0176373
620.887	0.0177393
620.965	0.0178456
621.043	0.0177773
621.121	0.0176559
621.199	0.0178631
621.277	0.0178210
621.355	0.0177173
621.433	0.0177126
621.512	0.0178667
621.590	0.0176823
621.668	0.0177221
621.746	0.0178923
621.824	0.0177412
621.902	0.0176612
621.980	0.0176974
622.058	0.0177579
622.137	0.0178522
622.215	0.0179364
622.293	0.0178356
622.371	0.0177859
622.449	0.0178257
622.527	0.0177732
622.605	0.0177888
622.683	0.0178468
622.762	0.0177612
622.840	0.0178400
622.918	0.0178225
622.996	0.0176711
623.074	0.0178539
623.152	0.0178463
623.230	0.0177855
623.308	0.0178529
623.387	0.0177800
623.465	0.0177808
623.543	0.0178600
623.621	0.0177636
623.699	0.0177351
623.777	0.0178565
623.855	0.0177889
623.933	0.0179185
624.012	0.0177781
624.090	0.0177370
624.168	0.0178113
624.246	0.0179599
624.324	0.0177443
624.402	0.0177022
624.480	0.0178270
624.558	0.0178367
624.637	0.0178783
624.715	0.0177466
624.793	0.0177700
624.871	0.0178587
624.949	0.0178569
625.027	0.0177219
625.105	0.0179241
625.183	0.0178255
625.262	0.0177654
625.340	0.0177635
625.418	0.0178838
625.496	0.0178610
625.574	0.0177171
625.652	0.0177852
625.730	0.0177190
625.808	0.0177779
625.887	0.0178036
625.965	0.0178525
626.043	0.0177114
626.121	0.0176936
626.199	0.0178699
626.277	0.0178521
626.355	0.0178813
626.433	0.0177618
626.512	0.0177075
626.590	0.0177849
626.668	0.0177751
626.746	0.0177428
626.824	0.0177194
626.902	0.0176590
626.980	0.0177339
627.058	0.0177917
627.137	0.0178187
627.215	0.0178291
627.293	0.0177341
627.371	0.0177708
627.449	0.0176965
627.527	0.0178403
627.605	0.0177934
627.683	0.0177467
627.762	0.0177857
627.840	0.0177730
627.918	0.0178539
627.996	0.0178226
628.074	0.0178481
628.152	0.0178956
628.230	0.0178905
628.308	0.0177901
628.387	0.0177422
628.465	0.0177789
628.543	0.0180535
628.621	0.0180410
628.699	0.0178155
628.777	0.0178615
628.855	0.0178906
628.933	0.0178043
629.012	0.0176208
629.090	0.0178938
629.168	0.0178450
629.246	0.0179189
629.324	0.0179043
629.402	0.0180321
629.480	0.0179237
629.558	0.0178338
629.637	0.0178517
629.715	0.0178387
629.793	0.0178304
629.871	0.0178299
629.949	0.0179750
630.027	0.0177930
630.105	0.0178141
630.183	0.0179460
630.262	0.0177982
630.340	0.0179180
630.418	0.0179128
630.496	0.0177663
630.574	0.0179591
630.652	0.0179005
630.730	0.0179433
630.808	0.0178471
630.887	0.0178962
630.965	0.0177647
631.043	0.0178155
631.121	0.0178233
631.199	0.0178646
631.277	0.0178996
631.355	0.0178692
631.433	0.0178515
631.512	0.0179352
631.590	0.0178800
631.668	0.0178359
631.746	0.0178921
631.824	0.0178693
631.902	0.0178996
631.980	0.0177514
632.058	0.0178054
632.137	0.0178530
632.215	0.0178967
632.293	0.0178951
632.371	0.0177881
632.449	0.0178334
632.527	0.0178580
632.605	0.0177843
632.683	0.0178842
632.762	0.0179041
632.840	0.0178043
632.918	0.0177869
632.996	0.0179247
633.074	0.0178260
633.152	0.0178690
633.230	0.0178412
633.308	0.0179230
633.387	0.0178368
633.465	0.0177735
633.543	0.0177620
633.621	0.0179008
633.699	0.0180238
633.777	0.0178043
633.855	0.0178545
633.933	0.0179039
634.012	0.0179298
634.090	0.0179208
634.168	0.0179814
634.246	0.0178168
634.324	0.0176929
634.402	0.0178832
634.480	0.0178690
634.558	0.0179117
634.637	0.0179488
634.715	0.0176094
634.793	0.0177799
634.871	0.0179419
634.949	0.0178199
635.027	0.0178049
635.105	0.0179160
635.183	0.0179057
635.262	0.0178812
635.340	0.0178871
635.418	0.0177588
635.496	0.0179406
635.574	0.0178522
635.652	0.0178741
635.730	0.0177953
635.808	0.0177814
635.887	0.0177892
635.965	0.0177876
636.043	0.0178202
636.121	0.0178574
636.199	0.0178754
636.277	0.0178615
636.355	0.0178078
636.433	0.0178203
636.512	0.0179406
636.590	0.0179767
636.668	0.0178970
636.746	0.0178407
636.824	0.0177757
636.902	0.0178918
636.980	0.0178529
637.058	0.0179037
637.137	0.0179395
637.215	0.0179398
637.293	0.0179089
637.371	0.0176939
637.449	0.0178215
637.527	0.0178698
637.605	0.0178574
637.683	0.0177612
637.762	0.0178674
637.840	0.0177524
637.918	0.0177069
637.996	0.0176693
638.074	0.0178852
638.152	0.0178548
638.230	0.0178205
638.308	0.0177599
638.387	0.0178236
638.465	0.0176759
638.543	0.0177032
638.621	0.0177908
638.699	0.0178536
638.777	0.0177965
638.855	0.0178436
638.933	0.0176817
639.012	0.0178268
639.090	0.0177677
639.168	0.0177021
639.246	0.0178377
639.324	0.0177482
639.402	0.0177419
639.480	0.0177757
639.558	0.0178181
639.637	0.0179028
639.715	0.0177021
639.793	0.0177711
639.871	0.0176550
639.949	0.0177145
640.027	0.0176694
640.105	0.0178387
640.183	0.0178139
640.262	0.0177467
640.340	0.0177901
640.418	0.0178259
640.496	0.0176770
640.574	0.0177743
640.652	0.0176700
640.730	0.0177910
640.808	0.0176507
640.887	0.0176690
640.965	0.0176408
641.043	0.0178501
641.121	0.0178134
641.199	0.0176504
641.277	0.0177542
641.355	0.0177405
641.433	0.0177430
641.512	0.0177085
641.590	0.0178270
641.668	0.0176649
641.746	0.0177824
641.824	0.0178651
641.902	0.0178674
641.980	0.0177444
642.058	0.0176564
642.137	0.0177905
642.215	0.0177345
642.293	0.0177879
642.371	0.0178909
642.449	0.0178997
642.527	0.0178333
642.605	0.0178983
642.683	0.0177814
642.762	0.0177936
642.840	0.0178936
642.918	0.0176978
642.996	0.0177270
643.074	0.0178577
643.152	0.0178461
643.230	0.0178410
643.308	0.0176423
643.387	0.0177558
643.465	0.0178365
643.543	0.0178577
643.621	0.0178462
643.699	0.0177796
643.777	0.0177374
643.855	0.0177765
643.933	0.0177152
644.012	0.0177406
644.090	0.0178176
644.168	0.0176545
644.246	0.0175951
644.324	0.0177094
644.402	0.0176766
644.480	0.0177356
644.558	0.0176732
644.637	0.0176165
644.715	0.0177773
644.793	0.0176661
644.871	0.0176586
644.949	0.0176647
645.027	0.0177418
645.105	0.0177212
645.183	0.0175930
645.262	0.0175241
645.340	0.0177266
645.418	0.0177222
645.496	0.0176660
645.574	0.0177467
645.652	0.0177404
645.730	0.0176415
645.808	0.0176831
645.887	0.0176257
645.965	0.0176711
646.043	0.0176649
646.121	0.0177970
646.199	0.0177460
646.277	0.0174615
646.355	0.0176775
646.433	0.0176405
646.512	0.0176356
646.590	0.0176376
646.668	0.0175743
646.746	0.0175814
646.824	0.0177274
646.902	0.0176071
646.980	0.0177122
647.058	0.0175647
647.137	0.0176542
647.215	0.0177123
647.293	0.0175932
647.371	0.0177444
647.449	0.0175927
647.527	0.0177085
647.605	0.0176717
647.683	0.0177179
647.762	0.0177442
647.840	0.0176569
647.918	0.0176304
647.996	0.0176093
648.074	0.0176926
648.152	0.0177769
648.230	0.0177191
648.308	0.0175785
648.387	0.0178220
648.465	0.0178083
648.543	0.0177255
648.621	0.0177672
648.699	0.0176456
648.777	0.0176585
648.855	0.0177672
648.933	0.0176208
649.012	0.0175702
649.090	0.0177539
649.168	0.0179041
649.246	0.0178123
649.324	0.0177659
649.402	0.0177114
649.480	0.0177509
649.558	0.0178769
649.637	0.0178819
649.715	0.0177682
649.793	0.0178052
649.871	0.0178838
649.949	0.0177374
650.027	0.0177589
650.105	0.0177817
650.183	0.0176988
650.262	0.0177534
650.340	0.0177752
650.418	0.0177995
650.496	0.0176887
650.574	0.0177681
650.652	0.0178781
650.730	0.0177760
650.808	0.0178863
650.887	0.0177661
650.965	0.0178497
651.043	0.0177908
651.121	0.0178154
651.199	0.0179205
651.277	0.0178319
651.355	0.0178548
651.433	0.0177677
651.512	0.0177764
651.590	0.0178764
651.668	0.0177893
651.746	0.0178453
651.824	0.0177849
651.902	0.0178561
651.980	0.0178024
652.058	0.0178367
652.137	0.0179186
652.215	0.0178588
652.293	0.0177998
652.371	0.0179427
652.449	0.0180253
652.527	0.0177396
652.605	0.0178909
652.683	0.0178732
652.762	0.0179365
652.840	0.0177740
652.918	0.0178817
652.996	0.0178493
653.074	0.0179658
653.152	0.0177969
653.230	0.0178323
653.308	0.0178348
653.387	0.0179030
653.465	0.0178949
653.543	0.0179643
653.621	0.0179263
653.699	0.0177711
653.777	0.0180074
653.855	0.0180087
653.933	0.0179041
654.012	0.0178442
654.090	0.0179951
654.168	0.0178919
654.246	0.0179120
654.324	0.0178741
654.402	0.0178645
654.480	0.0178186
654.558	0.0179669
654.637	0.0178961
654.715	0.0178339
654.793	0.0178637
654.871	0.0177781
654.949	0.0179234
655.027	0.0178585
655.105	0.0178829
655.183	0.0179344
655.262	0.0178513
655.340	0.0178860
655.418	0.0179877
655.496	0.0180076
655.574	0.0178838
655.652	0.0179002
655.730	0.0177561
655.808	0.0178594
655.887	0.0179639
655.965	0.0178194
656.043	0.0178394
656.121	0.0178654
656.199	0.0179519
656.277	0.0178415
656.355	0.0177232
656.433	0.0178011
656.512	0.0177855
656.590	0.0178335
656.668	0.0178751
656.746	0.0178091
656.824	0.0179385
656.902	0.0180819
656.980	0.0179897
657.058	0.0178239
657.137	0.0177811
657.215	0.0177709
657.293	0.0179561
657.371	0.0178771
657.449	0.0178539
657.527	0.0177399
657.605	0.0178481
657.683	0.0178313
657.762	0.0178825
657.840	0.0178651
657.918	0.0179250
657.996	0.0179595
658.074	0.0179345
658.152	0.0178584
658.230	0.0178588
658.308	0.0178230
658.387	0.0177904
658.465	0.0179013
658.543	0.0177982
658.621	0.0178224
658.699	0.0178179
658.777	0.0179011
658.855	0.0178340
658.933	0.0178484
659.012	0.0177362
659.090	0.0177962
659.168	0.0178404
659.246	0.0178436
659.324	0.0177993
659.402	0.0178959
659.480	0.0178359
659.558	0.0178495
659.637	0.0178410
659.715	0.0179517
659.793	0.0177513
659.871	0.0178205
659.949	0.0177475
660.027	0.0177754
660.105	0.0179225
660.183	0.0178587
660.262	0.0179037
660.340	0.0177809
660.418	0.0177098
660.496	0.0177105
660.574	0.0178281
660.652	0.0178703
660.730	0.0178873
660.808	0.0177355
660.887	0.0177206
660.965	0.0180053
661.043	0.0179865
661.121	0.0178243
661.199	0.0177018
661.277	0.0177631
661.355	0.0178677
661.433	0.0179329
661.512	0.0177538
661.590	0.0179838
661.668	0.0178323
661.746	0.0178899
661.824	0.0178925
661.902	0.0177583
661.980	0.0178783
662.058	0.0180069
662.137	0.0178068
662.215	0.0177293
662.293	0.0178807
662.371	0.0178333
662.449	0.0177462
662.527	0.0178439
662.605	0.0178667
662.683	0.0176903
662.762	0.0175773
662.840	0.0177473
662.918	0.0178036
662.996	0.0177943
663.074	0.0178056
663.152	0.0178349
663.230	0.0176674
663.308	0.0177694
663.387	0.0178436
663.465	0.0178712
663.543	0.0178938
663.621	0.0177323
663.699	0.0177386
663.777	0.0178648
663.855	0.0179005
663.933	0.0179306
664.012	0.0178753
664.090	0.0180000
664.168	0.0179604
664.246	0.0180247
664.324	0.0179496
664.402	0.0179034
664.480	0.0178821
664.558	0.0179527
664.637	0.0179272
664.715	0.0179668
664.793	0.0178371
664.871	0.0179046
664.949	0.0178303
665.027	0.0178362
665.105	0.0177688
665.183	0.0178748
665.262	0.0178790
665.340	0.0179032
665.418	0.0177897
665.496	0.0178180
665.574	0.0178257
665.652	0.0177853
665.730	0.0178632
665.808	0.0179963
665.887	0.0178289
665.965	0.0179047
666.043	0.0179132
666.121	0.0178031
666.199	0.0178264
666.277	0.0177544
666.355	0.0177016
666.433	0.0178050
666.512	0.0177110
666.590	0.0177983
666.668	0.0177097
666.746	0.0177421
666.824	0.0177550
666.902	0.0175916
666.980	0.0177469
667.058	0.0177770
667.137	0.0177059
667.215	0.0177953
667.293	0.0177454
667.371	0.0177052
667.449	0.0177606
667.527	0.0177665
667.605	0.0179414
667.683	0.0178479
667.762	0.0178857
667.840	0.0177449
667.918	0.0178783
667.996	0.0177377
668.074	0.0177962
668.152	0.0178230
668.230	0.0178967
668.308	0.0178347
668.387	0.0178281
668.465	0.0177367
668.543	0.0178612
668.621	0.0178877
668.699	0.0178682
668.777	0.0178079
668.855	0.0179733
668.933	0.0178844
669.012	0.0179958
669.090	0.0178573
669.168	0.0177833
669.246	0.0179469
669.324	0.0178954
669.402	0.0179972
669.480	0.0177634
669.558	0.0177261
669.637	0.0178684
669.715	0.0176913
669.793	0.0178091
669.871	0.0177094
669.949	0.0177980
670.027	0.0178808
670.105	0.0177526
670.183	0.0176991
670.262	0.0177165
670.340	0.0176818
670.418	0.0178350
670.496	0.0178095
670.574	0.0177151
670.652	0.0176744
670.730	0.0178214
670.808	0.0177451
670.887	0.0177425
670.965	0.0178735
671.043	0.0177922
671.121	0.0178692
671.199	0.0179299
671.277	0.0179533
671.355	0.0179214
671.433	0.0179848
671.512	0.0181363
671.590	0.0181468
671.668	0.0180813
671.746	0.0180871
671.824	0.0179443
671.902	0.0179455
671.980	0.0180536
672.058	0.0182182
672.137	0.0181035
672.215	0.0179582
672.293	0.0180060
672.371	0.0179188
672.449	0.0179964
672.527	0.0178623
672.605	0.0178082
672.683	0.0177643
672.762	0.0178379
672.840	0.0177069
672.918	0.0176054
672.996	0.0176453
673.074	0.0177136
673.152	0.0176392
673.230	0.0177069
673.308	0.0176346
673.387	0.0176978
673.465	0.0175935
673.543	0.0176253
673.621	0.0176289
673.699	0.0177634
673.777	0.0177532
673.855	0.0177099
673.933	0.0178112
674.012	0.0177939
674.090	0.0178638
674.168	0.0178329
674.246	0.0179338
674.324	0.0178895
674.402	0.0179430
674.480	0.0181025
674.558	0.0179545
674.637	0.0180144
674.715	0.0179057
674.793	0.0181052
674.871	0.0181414
674.949	0.0179800
675.027	0.0180384
675.105	0.0181888
675.183	0.0181803
675.262	0.0181821
675.340	0.0183628
675.418	0.0181274
675.496	0.0181476
675.574	0.0181693
675.652	0.0182161
675.730	0.0183527
675.808	0.0182919
675.887	0.0183652
675.965	0.0183185
676.043	0.0182745
676.121	0.0181369
676.199	0.0183482
676.277	0.0182322
676.355	0.0182850
676.433	0.0180770
676.512	0.0180062
676.590	0.0180096
676.668	0.0179103
676.746	0.0179790
676.824	0.0178880
676.902	0.0178608
676.980	0.0177190
677.058	0.0176880
677.137	0.0178034
677.215	0.0177114
677.293	0.0178651
677.371	0.0177700
677.449	0.0178261
677.527	0.0178036
677.605	0.0176836
677.683	0.0178638
677.762	0.0178362
677.840	0.0178815
677.918	0.0178219
677.996	0.0179017
678.074	0.0178661
678.152	0.0178438
678.230	0.0180834
678.308	0.0180450
678.387	0.0179771
678.465	0.0179774
678.543	0.0179088
678.621	0.0179015
678.699	0.0179487
678.777	0.0178987
678.855	0.0180096
678.933	0.0180499
679.012	0.0179535
679.090	0.0179921
679.168	0.0179955
679.246	0.0181026
679.324	0.0180131
679.402	0.0179023
679.480	0.0179788
679.558	0.0180258
679.637	0.0180237
679.715	0.0181330
679.793	0.0180392
679.871	0.0180350
679.949	0.0181750
680.027	0.0182294
680.105	0.0182025
680.183	0.0181176
680.262	0.0181264
680.340	0.0180487
680.418	0.0180531
680.496	0.0181424
680.574	0.0182549
680.652	0.0181769
680.730	0.0182786
680.808	0.0181471
680.887	0.0181084
680.965	0.0181457
681.043	0.0183513
681.121	0.0183287
681.199	0.0183647
681.277	0.0182938
681.355	0.0182625
681.433	0.0182505
681.512	0.0181596
681.590	0.0181113
681.668	0.0181955
681.746	0.0181635
681.824	0.0180122
681.902	0.0179838
681.980	0.0179340
682.058	0.0180452
682.137	0.0179493
682.215	0.0179147
682.293	0.0177344
682.371	0.0177635
682.449	0.0176309
682.527	0.0175996
682.605	0.0175819
682.683	0.0177271
682.762	0.0175925
682.840	0.0177011
682.918	0.0176156
682.996	0.0176006
683.074	0.0175725
683.152	0.0176701
683.230	0.0175597
683.308	0.0177354
683.387	0.0176299
683.465	0.0176725
683.543	0.0178179
683.621	0.0177644
683.699	0.0179108
683.777	0.0177740
683.855	0.0179005
683.933	0.0179654
684.012	0.0180958
684.090	0.0181160
684.168	0.0180160
684.246	0.0180576
684.324	0.0179942
684.402	0.0180547
684.480	0.0180777
684.558	0.0182297
684.637	0.0182507
684.715	0.0181464
684.793	0.0181796
684.871	0.0181313
684.949	0.0181783
685.027	0.0182169
685.105	0.0182161
685.183	0.0180572
685.262	0.0181065
685.340	0.0181821
685.418	0.0182464
685.496	0.0181506
685.574	0.0180569
685.652	0.0179790
685.730	0.0179488
685.808	0.0180538
685.887	0.0179562
685.965	0.0180300
686.043	0.0178862
686.121	0.0179958
686.199	0.0178803
686.277	0.0179855
686.355	0.0178578
686.433	0.0178982
686.512	0.0179273
686.590	0.0178029
686.668	0.0176939
686.746	0.0179816
686.824	0.0178519
686.902	0.0178189
686.980	0.0178838
687.058	0.0176878
687.137	0.0178210
687.215	0.0178217
687.293	0.0177112
687.371	0.0179473
687.449	0.0178496
687.527	0.0179282
687.605	0.0180058
687.683	0.0178977
687.762	0.0178405
687.840	0.0178178
687.918	0.0178462
687.996	0.0178880
688.074	0.0178302
688.152	0.0179557
688.230	0.0178934
688.308	0.0178384
688.387	0.0178058
688.465	0.0177370
688.543	0.0178430
688.621	0.0178539
688.699	0.0177511
688.777	0.0177940
688.855	0.0177332
688.933	0.0177582
689.012	0.0178095
689.090	0.0177871
689.168	0.0178368
689.246	0.0178764
689.324	0.0177249
689.402	0.0177254
689.480	0.0178734
689.558	0.0178667
689.637	0.0177153
689.715	0.0177275
689.793	0.0178728
689.871	0.0176782
689.949	0.0177521
690.027	0.0178489
690.105	0.0177978
690.183	0.0177316
690.262	0.0177236
690.340	0.0178812
690.418	0.0178459
690.496	0.0178804
690.574	0.0178573
690.652	0.0178711
690.730	0.0179126
690.808	0.0179365
690.887	0.0179280
690.965	0.0179176
691.043	0.0179742
691.121	0.0179499
691.199	0.0179070
691.277	0.0181335
691.355	0.0181390
691.433	0.0179877
691.512	0.0179964
691.590	0.0178201
691.668	0.0179395
691.746	0.0179900
691.824	0.0180978
691.902	0.0180641
691.980	0.0178554
692.058	0.0178664
692.137	0.0179610
692.215	0.0179128
692.293	0.0178069
692.371	0.0178751
692.449	0.0177991
692.527	0.0177374
692.605	0.0175512
692.683	0.0177873
692.762	0.0175967
692.840	0.0175988
692.918	0.0175904
692.996	0.0176636
693.074	0.0175537
693.152	0.0176213
693.230	0.0176799
693.308	0.0176130
693.387	0.0175300
693.465	0.0176485
693.543	0.0178345
693.621	0.0175742
693.699	0.0177284
693.777	0.0178062
693.855	0.0177846
693.933	0.0176787
694.012	0.0178255
694.090	0.0179623
694.168	0.0178809
694.246	0.0179700
694.324	0.0178742
694.402	0.0179648
694.480	0.0180687
694.558	0.0180157
694.637	0.0180544
694.715	0.0179649
694.793	0.0180363
694.871	0.0179965
694.949	0.0180641
695.027	0.0180641
695.105	0.0181004
695.183	0.0180410
695.262	0.0180855
695.340	0.0179028
695.418	0.0179737
695.496	0.0179044
695.574	0.0178770
695.652	0.0179175
695.730	0.0180097
695.808	0.0177741
695.887	0.0177732
695.965	0.0177698
696.043	0.0176506
696.121	0.0175791
696.199	0.0177010
696.277	0.0177534
696.355	0.0177733
696.433	0.0177103
696.512	0.0176405
696.590	0.0177953
696.668	0.0176919
696.746	0.0176442
696.824	0.0177794
696.902	0.0178671
696.980	0.0177862
697.058	0.0178074
697.137	0.0178230
697.215	0.0181207
697.293	0.0179531
697.371	0.0179084
697.449	0.0178950
697.527	0.0180087
697.605	0.0179372
697.683	0.0179124
697.762	0.0179723
697.840	0.0180521
697.918	0.0179829
697.996	0.0180415
698.074	0.0179317
698.152	0.0179012
698.230	0.0179913
698.308	0.0180105
698.387	0.0180944
698.465	0.0179144
698.543	0.0178193
698.621	0.0179727
698.699	0.0180717
698.777	0.0179430
698.855	0.0179208
698.933	0.0180831
699.012	0.0180503
699.090	0.0179175
699.168	0.0179190
699.246	0.0177672
699.324	0.0178139
699.402	0.0179418
699.480	0.0177821
699.558	0.0178266
699.637	0.0177542
699.715	0.0178111
699.793	0.0176078
699.871	0.0176329
699.949	0.0175975
700.027	0.0176060
700.105	0.0176015
700.183	0.0175866
700.262	0.0175814
700.340	0.0175479
700.418	0.0175178
700.496	0.0176335
700.574	0.0175744
700.652	0.0176662
700.730	0.0176728
700.808	0.0177942
700.887	0.0178364
700.965	0.0178606
701.043	0.0178551
701.121	0.0177898
701.199	0.0179159
701.277	0.0178932
701.355	0.0179463
701.433	0.0181644
701.512	0.0180389
701.590	0.0180085
701.668	0.0181945
701.746	0.0182626
701.824	0.0182130
701.902	0.0180563
701.980	0.0182277
702.058	0.0181282
702.137	0.0180565
702.215	0.0182026
702.293	0.0180947
702.371	0.0179702
702.449	0.0179928
702.527	0.0178695
702.605	0.0181069
702.683	0.0180037
702.762	0.0177848
702.840	0.0178349
702.918	0.0180016
702.996	0.0178117
703.074	0.0178918
703.152	0.0178845
703.230	0.0177384
703.308	0.0178769
703.387	0.0179248
703.465	0.0180009
703.543	0.0178458
703.621	0.0177510
703.699	0.0178087
703.777	0.0176825
703.855	0.0176977
703.933	0.0177772
704.012	0.0177998
704.090	0.0177367
704.168	0.0176445
704.246	0.0176884
704.324	0.0175645
704.402	0.0175861
704.480	0.0176710
704.558	0.0176118
704.637	0.0176228
704.715	0.0176065
704.793	0.0176639
704.871	0.0176147
704.949	0.0176041
705.027	0.0176820
705.105	0.0177184
705.183	0.0178135
705.262	0.0177106
705.340	0.0177121
705.418	0.0177338
705.496	0.0178249
705.574	0.0180086
705.652	0.0179667
705.730	0.0179138
705.808	0.0180955
705.887	0.0180190
705.965	0.0179273
706.043	0.0180468
706.121	0.0177657
706.199	0.0179185
706.277	0.0177531
706.355	0.0176643
706.433	0.0177126
706.512	0.0176891
706.590	0.0174126
706.668	0.0175844
706.746	0.0174816
706.824	0.0174756
706.902	0.0176310
706.980	0.0175417
707.058	0.0175848
707.137	0.0176664
707.215	0.0177823
707.293	0.0178413
707.371	0.0179247
707.449	0.0179560
707.527	0.0179798
707.605	0.0179435
707.683	0.0180677
707.762	0.0182271
707.840	0.0182083
707.918	0.0182926
707.996	0.0183295
708.074	0.0182184
708.152	0.0182988
708.230	0.0181033
708.308	0.0182537
708.387	0.0182401
708.465	0.0181461
708.543	0.0180193
708.621	0.0179949
708.699	0.0179924
708.777	0.0179458
708.855	0.0175864
708.933	0.0177252
709.012	0.0178756
709.090	0.0176894
709.168	0.0175377
709.246	0.0175511
709.324	0.0175530
709.402	0.0175182
709.480	0.0176121
709.558	0.0172929
709.637	0.0173321
709.715	0.0175420
709.793	0.0175021
709.871	0.0173895
709.949	0.0175611
710.027	0.0176317
710.105	0.0176945
710.183	0.0176646
710.262	0.0178952
710.340	0.0179120
710.418	0.0179604
710.496	0.0178614
710.574	0.0180302
710.652	0.0182300
710.730	0.0181097
710.808	0.0179794
710.887	0.0181467
710.965	0.0182398
711.043	0.0184261
711.121	0.0185127
711.199	0.0183675
711.277	0.0183079
711.355	0.0183133
711.433	0.0183420
711.512	0.0181006
711.590	0.0178732
711.668	0.0179070
711.746	0.0178104
711.824	0.0178126
711.902	0.0175275
711.980	0.0172765
712.058	0.0173600
712.137	0.0173312
712.215	0.0172225
712.293	0.0171279
712.371	0.0171935
712.449	0.0170300
712.527	0.0172414
712.605	0.0172269
712.683	0.0172322
712.762	0.0172328
712.840	0.0174509
712.918	0.0174667
712.996	0.0175427
713.074	0.0176274
713.152	0.0177301
713.230	0.0178059
713.308	0.0178170
713.387	0.0180183
713.465	0.0180198
713.543	0.0179204
713.621	0.0179652
713.699	0.0180083
713.777	0.0179642
713.855	0.0179731
713.933	0.0178608
714.012	0.0178458
714.090	0.0179024
714.168	0.0177480
714.246	0.0176205
714.324	0.0176923
714.402	0.0175920
714.480	0.0177229
714.558	0.0175975
714.637	0.0176884
714.715	0.0175542
714.793	0.0177758
714.871	0.0177282
714.949	0.0177010
715.027	0.0177780
715.105	0.0179681
715.183	0.0179047
715.262	0.0180425
715.340	0.0180859
715.418	0.0181343
715.496	0.0180920
715.574	0.0182383
715.652	0.0183231
715.730	0.0184315
715.808	0.0183063
715.887	0.0182310
715.965	0.0182132
716.043	0.0183452
716.121	0.0182613
716.199	0.0180995
716.277	0.0182267
716.355	0.0181663
716.433	0.0180947
716.512	0.0180518
716.590	0.0178874
716.668	0.0177544
716.746	0.0176620
716.824	0.0176741
716.902	0.0175323
716.980	0.0175874
717.058	0.0174352
717.137	0.0172830
717.215	0.0174378
717.293	0.0172998
717.371	0.0172662
717.449	0.0172382
717.527	0.0170612
717.605	0.0172698
717.683	0.0171978
717.762	0.0172990
717.840	0.0172664
717.918	0.0174265
717.996	0.0173727
718.074	0.0173889
718.152	0.0173273
718.230	0.0174856
718.308	0.0174217
718.387	0.0174905
718.465	0.0174097
718.543	0.0175873
718.621	0.0176973
718.699	0.0176165
718.777	0.0177345
718.855	0.0178136
718.933	0.0177575
719.012	0.0178335
719.090	0.0179079
719.168	0.0180382
719.246	0.0180125
719.324	0.0181626
719.402	0.0181863
719.480	0.0181620
719.558	0.0183325
719.637	0.0183566
719.715	0.0183373
719.793	0.0184422
719.871	0.0182995
719.949	0.0182656
720.027	0.0182249
720.105	0.0181330
720.183	0.0180439
720.262	0.0180456
720.340	0.0179387
720.418	0.0177563
720.496	0.0179231
720.574	0.0177052
720.652	0.0176358
720.730	0.0174660
720.808	0.0174802
720.887	0.0174521
720.965	0.0174132
721.043	0.0174315
721.121	0.0174453
721.199	0.0175137
721.277	0.0173559
721.355	0.0173264
721.433	0.0174694
721.512	0.0173550
721.590	0.0174176
721.668	0.0174123
721.746	0.0175090
721.824	0.0176181
721.902	0.0175677
721.980	0.0176164
722.058	0.0175906
722.137	0.0176932
722.215	0.0176545
722.293	0.0178072
722.371	0.0178740
722.449	0.0178551
722.527	0.0179848
722.605	0.0179038
722.683	0.0181744
722.762	0.0180960
722.840	0.0181915
722.918	0.0181636
722.996	0.0182024
723.074	0.0182296
723.152	0.0183001
723.230	0.0182035
723.308	0.0180151
723.387	0.0179149
723.465	0.0178848
723.543	0.0177621
723.621	0.0178770
723.699	0.0177608
723.777	0.0177693
723.855	0.0174809
723.933	0.0176267
724.012	0.0175388
724.090	0.0175402
724.168	0.0174731
724.246	0.0174619
724.324	0.0172906
724.402	0.0172887
724.480	0.0172805
724.558	0.0171625
724.637	0.0173224
724.715	0.0173541
724.793	0.0173089
724.871	0.0173969
724.949	0.0174932
725.027	0.0173832
725.105	0.0174218
725.183	0.0175638
725.262	0.0176311
725.340	0.0177046
725.418	0.0175962
725.496	0.0178568
725.574	0.0180317
725.652	0.0180268
725.730	0.0181331
725.808	0.0181588
725.887	0.0180793
725.965	0.0182550
726.043	0.0183203
726.121	0.0180825
726.199	0.0182109
726.277	0.0181631
726.355	0.0181425
726.433	0.0183761
726.512	0.0180370
726.590	0.0180515
726.668	0.0179367
726.746	0.0179938
726.824	0.0179228
726.902	0.0178399
726.980	0.0178029
727.058	0.0177048
727.137	0.0177079
727.215	0.0176598
727.293	0.0174509
727.371	0.0175517
727.449	0.0175631
727.527	0.0173608
727.605	0.0172523
727.683	0.0173833
727.762	0.0173508
727.840	0.0173276
727.918	0.0175511
727.996	0.0174705
728.074	0.0175165
728.152	0.0176666
728.230	0.0177766
728.308	0.0177529
728.387	0.0177934
728.465	0.0178026
728.543	0.0178611
728.621	0.0179343
728.699	0.0179675
728.777	0.0180142
728.855	0.0179902
728.933	0.0181709
729.012	0.0181231
729.090	0.0181738
729.168	0.0180719
729.246	0.0181322
729.324	0.0182001
729.402	0.0179981
729.480	0.0181528
729.558	0.0180792
729.637	0.0179067
729.715	0.0178974
729.793	0.0179166
729.871	0.0178735
729.949	0.0178300
730.027	0.0177319
730.105	0.0177531
730.183	0.0178070
730.262	0.0178055
730.340	0.0177086
730.418	0.0176534
730.496	0.0176881
730.574	0.0177193
730.652	0.0178831
730.730	0.0177155
730.808	0.0177404
730.887	0.0177627
730.965	0.0177364
731.043	0.0177314
731.121	0.0177213
731.199	0.0179340
731.277	0.0178415
731.355	0.0177603
731.433	0.0179070
731.512	0.0177829
731.590	0.0177828
731.668	0.0178740
731.746	0.0178706
731.824	0.0177200
731.902	0.0177717
731.980	0.0177650
732.058	0.0175952
732.137	0.0176965
732.215	0.0177196
732.293	0.0176868
732.371	0.0176976
732.449	0.0176620
732.527	0.0177290
732.605	0.0175730
732.683	0.0178100
732.762	0.0177811
732.840	0.0175469
732.918	0.0175363
732.996	0.0177156
733.074	0.0177216
733.152	0.0176919
733.230	0.0175620
733.308	0.0177036
733.387	0.0177135
733.465	0.0177716
733.543	0.0178967
733.621	0.0180029
733.699	0.0181286
733.777	0.0182271
733.855	0.0182781
733.933	0.0182589
734.012	0.0182379
734.090	0.0183399
734.168	0.0183092
734.246	0.0182479
734.324	0.0183715
734.402	0.0185803
734.480	0.0183035
734.558	0.0184335
734.637	0.0185942
734.715	0.0184122
734.793	0.0183347
734.871	0.0183888
734.949	0.0183269
735.027	0.0183708
735.105	0.0182530
735.183	0.0181091
735.262	0.0181358
735.340	0.0179912
735.418	0.0178732
735.496	0.0177226
735.574	0.0177563
735.652	0.0176740
735.730	0.0174697
735.808	0.0173231
735.887	0.0172854
735.965	0.0172649
736.043	0.0171297
736.121	0.0169709
736.199	0.0169473
736.277	0.0170927
736.355	0.0169814
736.433	0.0170158
736.512	0.0169489
736.590	0.0169730
736.668	0.0171041
736.746	0.0171997
736.824	0.0172797
736.902	0.0172723
736.980	0.0174640
737.058	0.0177238
737.137	0.0177673
737.215	0.0178607
737.293	0.0178881
737.371	0.0179671
737.449	0.0180889
737.527	0.0181673
737.605	0.0182331
737.683	0.0182861
737.762	0.0182444
737.840	0.0183945
737.918	0.0182574
737.996	0.0182436
738.074	0.0182106
738.152	0.0182832
738.230	0.0183576
738.308	0.0182298
738.387	0.0182169
738.465	0.0180987
738.543	0.0182017
738.621	0.0180317
738.699	0.0181574
738.777	0.0179378
738.855	0.0178036
738.933	0.0178868
739.012	0.0178884
739.090	0.0176902
739.168	0.0177621
739.246	0.0177734
739.324	0.0176066
739.402	0.0176781
739.480	0.0176855
739.558	0.0176677
739.637	0.0175363
739.715	0.0174963
739.793	0.0176678
739.871	0.0175751
739.949	0.0177402
740.027	0.0177092
740.105	0.0176068
740.183	0.0175856
740.262	0.0176482
740.340	0.0175553
740.418	0.0174408
740.496	0.0174873
740.574	0.0174609
740.652	0.0176569
740.730	0.0175587
740.808	0.0174308
740.887	0.0175066
740.965	0.0174837
741.043	0.0174620
741.121	0.0174670
741.199	0.0175705
741.277	0.0175045
741.355	0.0174317
741.433	0.0174742
741.512	0.0176309
741.590	0.0174503
741.668	0.0174286
741.746	0.0174807
741.824	0.0175599
741.902	0.0175915
741.980	0.0175581
742.058	0.0176189
742.137	0.0177554
742.215	0.0178085
742.293	0.0178985
742.371	0.0178561
742.449	0.0179581
742.527	0.0180967
742.605	0.0180547
742.683	0.0182943
742.762	0.0181953
742.840	0.0181869
742.918	0.0182033
742.996	0.0181464
743.074	0.0180916
743.152	0.0180434
743.230	0.0180011
743.308	0.0181187
743.387	0.0180721
743.465	0.0180231
743.543	0.0179031
743.621	0.0180024
743.699	0.0179658
743.777	0.0179510
743.855	0.0177941
743.933	0.0178171
744.012	0.0177731
744.090	0.0176707
744.168	0.0176765
744.246	0.0176833
744.324	0.0178703
744.402	0.0178013
744.480	0.0178739
744.558	0.0178193
744.637	0.0177988
744.715	0.0178255
744.793	0.0176849
744.871	0.0178531
744.949	0.0179344
745.027	0.0179416
745.105	0.0179148
745.183	0.0179702
745.262	0.0178859
745.340	0.0178651
745.418	0.0179026
745.496	0.0179926
745.574	0.0179112
745.652	0.0178233
745.730	0.0178137
745.808	0.0178587
745.887	0.0176571
745.965	0.0176748
746.043	0.0177162
746.121	0.0177252
746.199	0.0178050
746.277	0.0176991
746.355	0.0178761
746.433	0.0177426
746.512	0.0176753
746.590	0.0177870
746.668	0.0178519
746.746	0.0177786
746.824	0.0177100
746.902	0.0175938
746.980	0.0177857
747.058	0.0179541
747.137	0.0176787
747.215	0.0178487
747.293	0.0178400
747.371	0.0178793
747.449	0.0179692
747.527	0.0178754
747.605	0.0177940
747.683	0.0178800
747.762	0.0179236
747.840	0.0179227
747.918	0.0178342
747.996	0.0179507
748.074	0.0180704
748.152	0.0179694
748.230	0.0179011
748.308	0.0179868
748.387	0.0182105
748.465	0.0179268
748.543	0.0179014
748.621	0.0179929
748.699	0.0180316
748.777	0.0180527
748.855	0.0181007
748.933	0.0179914
749.012	0.0180362
749.090	0.0179159
749.168	0.0180444
749.246	0.0179684
749.324	0.0180705
749.402	0.0180022
749.480	0.0180106
749.558	0.0180721
749.637	0.0180419
749.715	0.0179652
749.793	0.0179554
749.871	0.0180472
749.949	0.0179086
750.027	0.0178354
750.105	0.0179586
750.183	0.0178842
750.262	0.0178512
750.340	0.0177543
750.418	0.0179646
750.496	0.0177209
750.574	0.0178934
750.652	0.0178489
750.730	0.0179617
750.808	0.0178590
750.887	0.0178708
750.965	0.0177392
751.043	0.0177908
751.121	0.0178024
751.199	0.0178140
751.277	0.0178322
751.355	0.0177226
751.433	0.0175633
751.512	0.0177260
751.590	0.0177508
751.668	0.0176483
751.746	0.0177905
751.824	0.0177412
751.902	0.0177854
751.980	0.0178080
752.058	0.0179435
752.137	0.0180518
752.215	0.0180336
752.293	0.0181486
752.371	0.0180692
752.449	0.0182337
752.527	0.0181843
752.605	0.0180354
752.683	0.0182586
752.762	0.0180665
752.840	0.0179468
752.918	0.0180621
752.996	0.0180756
753.074	0.0179908
753.152	0.0180589
753.230	0.0179268
753.308	0.0178468
753.387	0.0179081
753.465	0.0179005
753.543	0.0179472
753.621	0.0179602
753.699	0.0178208
753.777	0.0178271
753.855	0.0178831
753.933	0.0178529
754.012	0.0178669
754.090	0.0177737
754.168	0.0177027
754.246	0.0177224
754.324	0.0178387
754.402	0.0177832
754.480	0.0177679
754.558	0.0178558
754.637	0.0177305
754.715	0.0177133
754.793	0.0176591
754.871	0.0179130
754.949	0.0179406
755.027	0.0177705
755.105	0.0178841
755.183	0.0178751
755.262	0.0178377
755.340	0.0179884
755.418	0.0179406
755.496	0.0179904
755.574	0.0180280
755.652	0.0179182
755.730	0.0179915
755.808	0.0181187
755.887	0.0179911
755.965	0.0180780
756.043	0.0179811
756.121	0.0180000
756.199	0.0179922
756.277	0.0180338
756.355	0.0182096
756.433	0.0180311
756.512	0.0178441
756.590	0.0179449
756.668	0.0179998
756.746	0.0179649
756.824	0.0179844
756.902	0.0179039
756.980	0.0176920
757.058	0.0179145
757.137	0.0178378
757.215	0.0179743
757.293	0.0178738
757.371	0.0177332
757.449	0.0176717
757.527	0.0179336
757.605	0.0178843
757.683	0.0177930
757.762	0.0178636
757.840	0.0179008
757.918	0.0178621
757.996	0.0178252
758.074	0.0179216
758.152	0.0179519
758.230	0.0179353
758.308	0.0180293
758.387	0.0179998
758.465	0.0180106
758.543	0.0179219
758.621	0.0178586
758.699	0.0179954
758.777	0.0178371
758.855	0.0178903
758.933	0.0179480
759.012	0.0178563
759.090	0.0177681
759.168	0.0178651
759.246	0.0177798
759.324	0.0177335
759.402	0.0177959
759.480	0.0177120
759.558	0.0177844
759.637	0.0177445
759.715	0.0176519
759.793	0.0176996
759.871	0.0178357
759.949	0.0177653
760.027	0.0177473
760.105	0.0177454
760.183	0.0176531
760.262	0.0177029
760.340	0.0176685
760.418	0.0176991
760.496	0.0177791
760.574	0.0177984
760.652	0.0177885
760.730	0.0176942
760.808	0.0179502
760.887	0.0177959
760.965	0.0179742
761.043	0.0178490
761.121	0.0177772
761.199	0.0178934
761.277	0.0179280
761.355	0.0178182
761.433	0.0179143
761.512	0.0179519
761.590	0.0179476
761.668	0.0180129
761.746	0.0179321
761.824	0.0177514
761.902	0.0178328
761.980	0.0179415
762.058	0.0178407
762.137	0.0177554
762.215	0.0178465
762.293	0.0178291
762.371	0.0178760
762.449	0.0178244
762.527	0.0176894
762.605	0.0178707
762.683	0.0178847
762.762	0.0178408
762.840	0.0180539
762.918	0.0178353
762.996	0.0178590
763.074	0.0178998
763.152	0.0180379
763.230	0.0178660
763.308	0.0180667
763.387	0.0180323
763.465	0.0180001
763.543	0.0179713
763.621	0.0179845
763.699	0.0178570
763.777	0.0179668
763.855	0.0178343
763.933	0.0179266
764.012	0.0177903
764.090	0.0177565
764.168	0.0178023
764.246	0.0178059
764.324	0.0176636
764.402	0.0176667
764.480	0.0177636
764.558	0.0176070
764.637	0.0176883
764.715	0.0176547
764.793	0.0176547
764.871	0.0177457
764.949	0.0177071
765.027	0.0177538
765.105	0.0176327
765.183	0.0175607
765.262	0.0175800
765.340	0.0176080
765.418	0.0178025
765.496	0.0177171
765.574	0.0176570
765.652	0.0177402
765.730	0.0177341
765.808	0.0177996
765.887	0.0177902
765.965	0.0178758
766.043	0.0178202
766.121	0.0178611
766.199	0.0180241
766.277	0.0181481
766.355	0.0180888
766.433	0.0179449
766.512	0.0181387
766.590	0.0181702
766.668	0.0180784
766.746	0.0181770
766.824	0.0182814
766.902	0.0181699
766.980	0.0182488
767.058	0.0181635
767.137	0.0180634
767.215	0.0181962
767.293	0.0180858
767.371	0.0181641
767.449	0.0181143
767.527	0.0180920
767.605	0.0180492
767.683	0.0181013
767.762	0.0180647
767.840	0.0180325
767.918	0.0179443
767.996	0.0178992
768.074	0.0180177
768.152	0.0178047
768.230	0.0177871
768.308	0.0177869
768.387	0.0177538
768.465	0.0178445
768.543	0.0177637
768.621	0.0178142
768.699	0.0178583
768.777	0.0177463
768.855	0.0176798
768.933	0.0178690
769.012	0.0177725
769.090	0.0178218
769.168	0.0178534
769.246	0.0177332
769.324	0.0178405
769.402	0.0177535
769.480	0.0178165
769.558	0.0178531
769.637	0.0178240
769.715	0.0178622
769.793	0.0178065
769.871	0.0176936
769.949	0.0176988
770.027	0.0175423
770.105	0.0177008
770.183	0.0177851
770.262	0.0177676
770.340	0.0177512
770.418	0.0178112
770.496	0.0177374
770.574	0.0179021
770.652	0.0179280
770.730	0.0179088
770.808	0.0178826
770.887	0.0181071
770.965	0.0181467
771.043	0.0180507
771.121	0.0181371
771.199	0.0182729
771.277	0.0181754
771.355	0.0182893
771.433	0.0182795
771.512	0.0182791
771.590	0.0181531
771.668	0.0180356
771.746	0.0180970
771.824	0.0181335
771.902	0.0180379
771.980	0.0180322
772.058	0.0181075
772.137	0.0179135
772.215	0.0177067
772.293	0.0178358
772.371	0.0178073
772.449	0.0176798
772.527	0.0178426
772.605	0.0177231
772.683	0.0177040
772.762	0.0178372
772.840	0.0177589
772.918	0.0177502
772.996	0.0177652
773.074	0.0177508
773.152	0.0177301
773.230	0.0177856
773.308	0.0177682
773.387	0.0178348
773.465	0.0178281
773.543	0.0178181
773.621	0.0176247
773.699	0.0177842
773.777	0.0177988
773.855	0.0177586
773.933	0.0177869
774.012	0.0179536
774.090	0.0179957
774.168	0.0179405
774.246	0.0178931
774.324	0.0180083
774.402	0.0179876
774.480	0.0179691
774.558	0.0180444
774.637	0.0179066
774.715	0.0179518
774.793	0.0178397
774.871	0.0180237
774.949	0.0179950
775.027	0.0180559
775.105	0.0179668
775.183	0.0178880
775.262	0.0178239
775.340	0.0179295
775.418	0.0179944
775.496	0.0179075
775.574	0.0178087
775.652	0.0178538
775.730	0.0179144
775.808	0.0178572
775.887	0.0179302
775.965	0.0178823
776.043	0.0179074
776.121	0.0179063
776.199	0.0178084
776.277	0.0179044
776.355	0.0180041
776.433	0.0179157
776.512	0.0181025
776.590	0.0179397
776.668	0.0180238
776.746	0.0179926
776.824	0.0181465
776.902	0.0180468
776.980	0.0180873
777.058	0.0180024
777.137	0.0180215
777.215	0.0180769
777.293	0.0181219
777.371	0.0180482
777.449	0.0180391
777.527	0.0178856
777.605	0.0179466
777.683	0.0179930
777.762	0.0178751
777.840	0.0180008
777.918	0.0179631
777.996	0.0179523
778.074	0.0179298
778.152	0.0178711
778.230	0.0179520
778.308	0.0178447
778.387	0.0177235
778.465	0.0178546
778.543	0.0178446
778.621	0.0179626
778.699	0.0179318
778.777	0.0179806
778.855	0.0179751
778.933	0.0179688
779.012	0.0179903
779.090	0.0178436
779.168	0.0179495
779.246	0.0178853
779.324	0.0179218
779.402	0.0179878
779.480	0.0179248
779.558	0.0178056
779.637	0.0178803
779.715	0.0177740
779.793	0.0178471
779.871	0.0177852
779.949	0.0177011
780.027	0.0177782
780.105	0.0177541
780.183	0.0177737
780.262	0.0175793
780.340	0.0176413
780.418	0.0176602
780.496	0.0176544
780.574	0.0177428
780.652	0.0177481
780.730	0.0177884
780.808	0.0177740
780.887	0.0178639
780.965	0.0177409
781.043	0.0178898
781.121	0.0177785
781.199	0.0179397
781.277	0.0179533
781.355	0.0179070
781.433	0.0179073
781.512	0.0180743
781.590	0.0180465
781.668	0.0180089
781.746	0.0180698
781.824	0.0181481
781.902	0.0181341
781.980	0.0179714
782.058	0.0181109
782.137	0.0179868
782.215	0.0179831
782.293	0.0180096
782.371	0.0180344
782.449	0.0178505
782.527	0.0180537
782.605	0.0178669
782.683	0.0179356
782.762	0.0178411
782.840	0.0177971
782.918	0.0177917
782.996	0.0177855
783.074	0.0177075
783.152	0.0177631
783.230	0.0177056
783.308	0.0176571
783.387	0.0177831
783.465	0.0176894
783.543	0.0176559
783.621	0.0177589
783.699	0.0177035
783.777	0.0175682
783.855	0.0176672
783.933	0.0177506
784.012	0.0176138
784.090	0.0175433
784.168	0.0175706
784.246	0.0176443
784.324	0.0177329
784.402	0.0176608
784.480	0.0177612
784.558	0.0178385
784.637	0.0178616
784.715	0.0178038
784.793	0.0178265
784.871	0.0178940
784.949	0.0177836
785.027	0.0178543
785.105	0.0179530
785.183	0.0177846
785.262	0.0178882
785.340	0.0179608
785.418	0.0179800
785.496	0.0178259
785.574	0.0177825
785.652	0.0178090
785.730	0.0178820
785.808	0.0177983
785.887	0.0180004
785.965	0.0178694
786.043	0.0179230
786.121	0.0178401
786.199	0.0178999
786.277	0.0180057
786.355	0.0180503
786.433	0.0179845
786.512	0.0179977
786.590	0.0178482
786.668	0.0180203
786.746	0.0180862
786.824	0.0179672
786.902	0.0181115
786.980	0.0180207
787.058	0.0181627
787.137	0.0180785
787.215	0.0181670
787.293	0.0180911
787.371	0.0180009
787.449	0.0180303
787.527	0.0180293
787.605	0.0180979
787.683	0.0180377
787.762	0.0179101
787.840	0.0178589
787.918	0.0179525
787.996	0.0179966
788.074	0.0178969
788.152	0.0178366
788.230	0.0179131
788.308	0.0178049
788.387	0.0177715
788.465	0.0178523
788.543	0.0178021
788.621	0.0175737
788.699	0.0175729
788.777	0.0177167
788.855	0.0176962
788.933	0.0176347
789.012	0.0176290
789.090	0.0176064
789.168	0.0175919
789.246	0.0176491
789.324	0.0175597
789.402	0.0176910
789.480	0.0178335
789.558	0.0176637
789.637	0.0176163
789.715	0.0177683
789.793	0.0178380
789.871	0.0178740
789.949	0.0178795
790.027	0.0179025
790.105	0.0178373
790.183	0.0178368
790.262	0.0178399
790.340	0.0179623
790.418	0.0177876
790.496	0.0177489
790.574	0.0177687
790.652	0.0178912
790.730	0.0178075
790.808	0.0179375
790.887	0.0180354
790.965	0.0179479
791.043	0.0180275
791.121	0.0179327
791.199	0.0179829
791.277	0.0179655
791.355	0.0179910
791.433	0.0180625
791.512	0.0178980
791.590	0.0180842
791.668	0.0180556
791.746	0.0179001
791.824	0.0179855
791.902	0.0180630
791.980	0.0178533
792.058	0.0178606
792.137	0.0179472
792.215	0.0177389
792.293	0.0178306
792.371	0.0177808
792.449	0.0178189
792.527	0.0177888
792.605	0.0178303
792.683	0.0178277
792.762	0.0178436
792.840	0.0178444
792.918	0.0177698
792.996	0.0177873
793.074	0.0178198
793.152	0.0179095
793.230	0.0179467
793.308	0.0177952
793.387	0.0178465
793.465	0.0180220
793.543	0.0178172
793.621	0.0178594
793.699	0.0178436
793.777	0.0177402
793.855	0.0178900
793.933	0.0178876
794.012	0.0178384
794.090	0.0178562
794.168	0.0178886
794.246	0.0178410
794.324	0.0178481
794.402	0.0177664
794.480	0.0178269
794.558	0.0180235
794.637	0.0179700
794.715	0.0178857
794.793	0.0178985
794.871	0.0179171
794.949	0.0177077
795.027	0.0179160
795.105	0.0177972
795.183	0.0177679
795.262	0.0177353
795.340	0.0177013
795.418	0.0177531
795.496	0.0178059
795.574	0.0178604
795.652	0.0177174
795.730	0.0177053
795.808	0.0176093
795.887	0.0178649
795.965	0.0176513
796.043	0.0177087
796.121	0.0176704
796.199	0.0176631
796.277	0.0176571
796.355	0.0178275
796.433	0.0177955
796.512	0.0176981
796.590	0.0176330
796.668	0.0178970
796.746	0.0178740
796.824	0.0177716
796.902	0.0178265
796.980	0.0178242
797.058	0.0177842
797.137	0.0178741
797.215	0.0178035
797.293	0.0177266
797.371	0.0178374
797.449	0.0179813
797.527	0.0179515
797.605	0.0178413
797.683	0.0178098
797.762	0.0178575
797.840	0.0177402
797.918	0.0178085
797.996	0.0179839
798.074	0.0180379
798.152	0.0179276
798.230	0.0176687
798.308	0.0179710
798.387	0.0179398
798.465	0.0179027
798.543	0.0178007
798.621	0.0178442
798.699	0.0179517
798.777	0.0179312
798.855	0.0177393
798.933	0.0178485
799.012	0.0178324
799.090	0.0178481
799.168	0.0179136
799.246	0.0177737
799.324	0.0176267
799.402	0.0176847
799.480	0.0176788
799.558	0.0176632
799.637	0.0178084
799.715	0.0178574
799.793	0.0176160
799.871	0.0176341
799.949	0.0177579
800.027	0.0177793
800.105	0.0177629
800.183	0.0178375
800.262	0.0177022
800.340	0.0177650
800.418	0.0176788
800.496	0.0177391
800.574	0.0177073
800.652	0.0177744
800.730	0.0178323
800.808	0.0176089
800.887	0.0177386
800.965	0.0178596
801.043	0.0176263
801.121	0.0178351
801.199	0.0175725
801.277	0.0177036
801.355	0.0177129
801.433	0.0176678
801.512	0.0177298
801.590	0.0177458
801.668	0.0177759
801.746	0.0177285
801.824	0.0177160
801.902	0.0178492
801.980	0.0178313
802.058	0.0178279
802.137	0.0178175
802.215	0.0178577
802.293	0.0178829
802.371	0.0178957
802.449	0.0179308
802.527	0.0178258
802.605	0.0180708
802.683	0.0179633
802.762	0.0179877
802.840	0.0180019
802.918	0.0179900
802.996	0.0179205
803.074	0.0179554
803.152	0.0179955
803.230	0.0179958
803.308	0.0179697
803.387	0.0179650
803.465	0.0180495
803.543	0.0179066
803.621	0.0179414
803.699	0.0179961
803.777	0.0179543
803.855	0.0178426
803.933	0.0178643
804.012	0.0178421
804.090	0.0176646
804.168	0.0177871
804.246	0.0177457
804.324	0.0178468
804.402	0.0177468
804.480	0.0176549
804.558	0.0176541
804.637	0.0177592
804.715	0.0178425
804.793	0.0177643
804.871	0.0178657
804.949	0.0178753
805.027	0.0177293
805.105	0.0177126
805.183	0.0177510
805.262	0.0178527
805.340	0.0179828
805.418	0.0179297
805.496	0.0177835
805.574	0.0178365
805.652	0.0180294
805.730	0.0179584
805.808	0.0178108
805.887	0.0178939
805.965	0.0179520
806.043	0.0178473
806.121	0.0179585
806.199	0.0179535
806.277	0.0179984
806.355	0.0180331
806.433	0.0180582
806.512	0.0181058
806.590	0.0181376
806.668	0.0179474
806.746	0.0179860
806.824	0.0178912
806.902	0.0179613
806.980	0.0180055
807.058	0.0179742
807.137	0.0179114
807.215	0.0180613
807.293	0.0178310
807.371	0.0178825
807.449	0.0178598
807.527	0.0179259
807.605	0.0178956
807.683	0.0178004
807.762	0.0178463
807.840	0.0177473
807.918	0.0177591
807.996	0.0177410
808.074	0.0177245
808.152	0.0176897
808.230	0.0178214
808.308	0.0177197
808.387	0.0178278
808.465	0.0178957
808.543	0.0178316
808.621	0.0179692
808.699	0.0178167
808.777	0.0179333
808.855	0.0178983
808.933	0.0178461
809.012	0.0178769
809.090	0.0178643
809.168	0.0179128
809.246	0.0179326
809.324	0.0179782
809.402	0.0179878
809.480	0.0178365
809.558	0.0179008
809.637	0.0179308
809.715	0.0179535
809.793	0.0177248
809.871	0.0179546
809.949	0.0179079
810.027	0.0179269
810.105	0.0178756
810.183	0.0178286
810.262	0.0179684
810.340	0.0178326
810.418	0.0177916
810.496	0.0178339
810.574	0.0178214
810.652	0.0177480
810.730	0.0176969
810.808	0.0178639
810.887	0.0177932
810.965	0.0179871
811.043	0.0179266
811.121	0.0178560
811.199	0.0178125
811.277	0.0178975
811.355	0.0179650
811.433	0.0179658
811.512	0.0179056
811.590	0.0179346
811.668	0.0177988
811.746	0.0179742
811.824	0.0178668
811.902	0.0178432
811.980	0.0180150
812.058	0.0180143
812.137	0.0179162
812.215	0.0179655
812.293	0.0180169
812.371	0.0178878
812.449	0.0179335
812.527	0.0178900
812.605	0.0179818
812.683	0.0179718
812.762	0.0180344
812.840	0.0180527
812.918	0.0180010
812.996	0.0180543
813.074	0.0180203
813.152	0.0180430
813.230	0.0179319
813.308	0.0179613
813.387	0.0180995
813.465	0.0179343
813.543	0.0179388
813.621	0.0178661
813.699	0.0180266
813.777	0.0180238
813.855	0.0179057
813.933	0.0177256
814.012	0.0178517
814.090	0.0178645
814.168	0.0177765
814.246	0.0177985
814.324	0.0176870
814.402	0.0178266
814.480	0.0178505
814.558	0.0177512
814.637	0.0176384
814.715	0.0178027
814.793	0.0178376
814.871	0.0177675
814.949	0.0176875
815.027	0.0177700
815.105	0.0176483
815.183	0.0176396
815.262	0.0177468
815.340	0.0176900
815.418	0.0177473
815.496	0.0175915
815.574	0.0176640
815.652	0.0177732
815.730	0.0179120
815.808	0.0178358
815.887	0.0177477
815.965	0.0177805
816.043	0.0178014
816.121	0.0178542
816.199	0.0177556
816.277	0.0179879
816.355	0.0179730
816.433	0.0179572
816.512	0.0178629
816.590	0.0179692
816.668	0.0179555
816.746	0.0178957
816.824	0.0178499
816.902	0.0178940
816.980	0.0179634
817.058	0.0180067
817.137	0.0179870
817.215	0.0178708
817.293	0.0179144
817.371	0.0178481
817.449	0.0179184
817.527	0.0178113
817.605	0.0179913
817.683	0.0177921
817.762	0.0179214
817.840	0.0179095
817.918	0.0178813
817.996	0.0179260
818.074	0.0178402
818.152	0.0177048
818.230	0.0178070
818.308	0.0180104
818.387	0.0178111
818.465	0.0177718
818.543	0.0177963
818.621	0.0178136
818.699	0.0178197
818.777	0.0178683
818.855	0.0179103
818.933	0.0178822
819.012	0.0178474
819.090	0.0179753
819.168	0.0179624
819.246	0.0178603
819.324	0.0179070
819.402	0.0179258
819.480	0.0177911
819.558	0.0175892
819.637	0.0178938
819.715	0.0177120
819.793	0.0177328
819.871	0.0176879
819.949	0.0176383
820.027	0.0176168
820.105	0.0176315
820.183	0.0176488
820.262	0.0176263
820.340	0.0176091
820.418	0.0176994
820.496	0.0175873
820.574	0.0176908
820.652	0.0177327
820.730	0.0175037
820.808	0.0175301
820.887	0.0176865
820.965	0.0177190
821.043	0.0176582
821.121	0.0177314
821.199	0.0176589
821.277	0.0176510
821.355	0.0176595
821.433	0.0175549
821.512	0.0176863
821.590	0.0177393
821.668	0.0178063
821.746	0.0177888
821.824	0.0177654
821.902	0.0177188
821.980	0.0176043
822.058	0.0178039
822.137	0.0179316
822.215	0.0177084
822.293	0.0178493
822.371	0.0178080
822.449	0.0178950
822.527	0.0178860
822.605	0.0177762
822.683	0.0177313
822.762	0.0178776
822.840	0.0179507
822.918	0.0176981
822.996	0.0178164
823.074	0.0179107
823.152	0.0178036
823.230	0.0177850
823.308	0.0176389
823.387	0.0177554
823.465	0.0176660
823.543	0.0176563
823.621	0.0178139
823.699	0.0176407
823.777	0.0177451
823.855	0.0177155
823.933	0.0177512
824.012	0.0176042
824.090	0.0177171
824.168	0.0177173
824.246	0.0176313
824.324	0.0175542
824.402	0.0177163
824.480	0.0176838
824.558	0.0178194
824.637	0.0177617
824.715	0.0178314
824.793	0.0179176
824.871	0.0177382
824.949	0.0179321
825.027	0.0178103
825.105	0.0178665
825.183	0.0179182
825.262	0.0178889
825.340	0.0178778
825.418	0.0180410
825.496	0.0179128
825.574	0.0180337
825.652	0.0180083
825.730	0.0179472
825.808	0.0178893
825.887	0.0179243
825.965	0.0178944
826.043	0.0178328
826.121	0.0177897
826.199	0.0177376
826.277	0.0177347
826.355	0.0177370
826.433	0.0177019
826.512	0.0177176
826.590	0.0176836
826.668	0.0177209
826.746	0.0177296
826.824	0.0176920
826.902	0.0178064
826.980	0.0177782
827.058	0.0178619
827.137	0.0178194
827.215	0.0177995
827.293	0.0177139
827.371	0.0177589
827.449	0.0177765
827.527	0.0178489
827.605	0.0177901
827.683	0.0178978
827.762	0.0178519
827.840	0.0179191
827.918	0.0178769
827.996	0.0179504
828.074	0.0178519
828.152	0.0178745
828.230	0.0179339
828.308	0.0179458
828.387	0.0178347
828.465	0.0178122
828.543	0.0179691
828.621	0.0177737
828.699	0.0177882
828.777	0.0179427
828.855	0.0180926
828.933	0.0176877
829.012	0.0178272
829.090	0.0178706
829.168	0.0178423
829.246	0.0178822
829.324	0.0179037
829.402	0.0180063
829.480	0.0179810
829.558	0.0178960
829.637	0.0178501
829.715	0.0178591
829.793	0.0180301
829.871	0.0179749
829.949	0.0178917
830.027	0.0179919
830.105	0.0178768
830.183	0.0178639
830.262	0.0178346
830.340	0.0179533
830.418	0.0178889
830.496	0.0179480
830.574	0.0179580
830.652	0.0178824
830.730	0.0178322
830.808	0.0179226
830.887	0.0179156
830.965	0.0178984
831.043	0.0180145
831.121	0.0179710
831.199	0.0178550
831.277	0.0179330
831.355	0.0179457
831.433	0.0179831
831.512	0.0179235
831.590	0.0179344
831.668	0.0178651
831.746	0.0179273
831.824	0.0178409
831.902	0.0178279
831.980	0.0179698
832.058	0.0180029
832.137	0.0178133
832.215	0.0177644
832.293	0.0178973
832.371	0.0179144
832.449	0.0177901
832.527	0.0179339
832.605	0.0178690
832.683	0.0177947
832.762	0.0178733
832.840	0.0179047
832.918	0.0178158
832.996	0.0178849
833.074	0.0179781
833.152	0.0178876
833.230	0.0179127
833.308	0.0178773
833.387	0.0177837
833.465	0.0179414
833.543	0.0179385
833.621	0.0178540
833.699	0.0181454
833.777	0.0180587
833.855	0.0179808
833.933	0.0179313
834.012	0.0179966
834.090	0.0178962
834.168	0.0180495
834.246	0.0181119
834.324	0.0180087
834.402	0.0179060
834.480	0.0179893
834.558	0.0178951
834.637	0.0179794
834.715	0.0179215
834.793	0.0179411
834.871	0.0179856
834.949	0.0179128
835.027	0.0178339
835.105	0.0179033
835.183	0.0180556
835.262	0.0180286
835.340	0.0179365
835.418	0.0179475
835.496	0.0177435
835.574	0.0178754
835.652	0.0178968
835.730	0.0178805
835.808	0.0179914
835.887	0.0180029
835.965	0.0179719
836.043	0.0179240
836.121	0.0178364
836.199	0.0179614
836.277	0.0178737
836.355	0.0178951
836.433	0.0177879
836.512	0.0177539
836.590	0.0177611
836.668	0.0177913
836.746	0.0178784
836.824	0.0176645
836.902	0.0177055
836.980	0.0178197
837.058	0.0177921
837.137	0.0176758
837.215	0.0177126
837.293	0.0178673
837.371	0.0178490
837.449	0.0177547
837.527	0.0178168
837.605	0.0179704
837.683	0.0178653
837.762	0.0178032
837.840	0.0178940
837.918	0.0178748
837.996	0.0179700
838.074	0.0177263
838.152	0.0178572
838.230	0.0179298
838.308	0.0177928
838.387	0.0177843
838.465	0.0177959
838.543	0.0178239
838.621	0.0179238
838.699	0.0178281
838.777	0.0177424
838.855	0.0178397
838.933	0.0177897
839.012	0.0177502
839.090	0.0178476
839.168	0.0176560
839.246	0.0176627
839.324	0.0177596
839.402	0.0178521
839.480	0.0179005
839.558	0.0178101
839.637	0.0177994
839.715	0.0177624
839.793	0.0177897
839.871	0.0177943
839.949	0.0178288
840.027	0.0177863
840.105	0.0178215
840.183	0.0178397
840.262	0.0177811
840.340	0.0178198
840.418	0.0179538
840.496	0.0179781
840.574	0.0179923
840.652	0.0179926
840.730	0.0179848
840.808	0.0178436
840.887	0.0178939
840.965	0.0180462
841.043	0.0180067
841.121	0.0179265
841.199	0.0179439
841.277	0.0178088
841.355	0.0178838
841.433	0.0178265
841.512	0.0179681
841.590	0.0178031
841.668	0.0179688
841.746	0.0178583
841.824	0.0176683
841.902	0.0177956
841.980	0.0178396
842.058	0.0178180
842.137	0.0177702
842.215	0.0177963
842.293	0.0176250
842.371	0.0177185
842.449	0.0176602
842.527	0.0177214
842.605	0.0176962
842.683	0.0177261
842.762	0.0177313
842.840	0.0177201
842.918	0.0176604
842.996	0.0177399
843.074	0.0176428
843.152	0.0177205
843.230	0.0176809
843.308	0.0178340
843.387	0.0178745
843.465	0.0177683
843.543	0.0178208
843.621	0.0177532
843.699	0.0177167
843.777	0.0177863
843.855	0.0178024
843.933	0.0180264
844.012	0.0179436
844.090	0.0179235
844.168	0.0178030
844.246	0.0179043
844.324	0.0178284
844.402	0.0179367
844.480	0.0179266
844.558	0.0179703
844.637	0.0179286
844.715	0.0179004
844.793	0.0179449
844.871	0.0179053
844.949	0.0178490
845.027	0.0179623
845.105	0.0180113
845.183	0.0180465
845.262	0.0179974
845.340	0.0179354
845.418	0.0178938
845.496	0.0177811
845.574	0.0179123
845.652	0.0179401
845.730	0.0179652
845.808	0.0179224
845.887	0.0179113
845.965	0.0178741
846.043	0.0178827
846.121	0.0178660
846.199	0.0180233
846.277	0.0178310
846.355	0.0177932
846.433	0.0177495
846.512	0.0178239
846.590	0.0179021
846.668	0.0179439
846.746	0.0177593
846.824	0.0178165
846.902	0.0179628
846.980	0.0179195
847.058	0.0178172
847.137	0.0179395
847.215	0.0178367
847.293	0.0178397
847.371	0.0179462
847.449	0.0178797
847.527	0.0178944
847.605	0.0179284
847.683	0.0179356
847.762	0.0177957
847.840	0.0178902
847.918	0.0179396
847.996	0.0178320
848.074	0.0179072
848.152	0.0179833
848.230	0.0179356
848.308	0.0178407
848.387	0.0179902
848.465	0.0179492
848.543	0.0178988
848.621	0.0177302
848.699	0.0179681
848.777	0.0178761
848.855	0.0178770
848.933	0.0180155
849.012	0.0178761
849.090	0.0178497
849.168	0.0178275
849.246	0.0180274
849.324	0.0179194
849.402	0.0178571
849.480	0.0179360
849.558	0.0178905
849.637	0.0178718
849.715	0.0179240
849.793	0.0179422
849.871	0.0179372
849.949	0.0179197
850.027	0.0179905
850.105	0.0178774
850.183	0.0178846
850.262	0.0180316
850.340	0.0179601
850.418	0.0178458
850.496	0.0179761
850.574	0.0177984
850.652	0.0180029
850.730	0.0178720
850.808	0.0178576
850.887	0.0178947
850.965	0.0179063
851.043	0.0179430
851.121	0.0180379
851.199	0.0179015
851.277	0.0178682
851.355	0.0178634
851.433	0.0178642
851.512	0.0178432
851.590	0.0179111
851.668	0.0179305
851.746	0.0178334
851.824	0.0178686
851.902	0.0178789
851.980	0.0178368
852.058	0.0177981
852.137	0.0179611
852.215	0.0178873
852.293	0.0179687
852.371	0.0177734
852.449	0.0178932
852.527	0.0179323
852.605	0.0179964
852.683	0.0178008
852.762	0.0179665
852.840	0.0179818
852.918	0.0178821
852.996	0.0179638
853.074	0.0179620
853.152	0.0179797
853.230	0.0180228
853.308	0.0180293
853.387	0.0180090
853.465	0.0180777
853.543	0.0179572
853.621	0.0181316
853.699	0.0178629
853.777	0.0179886
853.855	0.0179285
853.933	0.0178162
854.012	0.0180334
854.090	0.0180539
854.168	0.0178848
854.246	0.0178062
854.324	0.0179465
854.402	0.0178297
854.480	0.0177842
854.558	0.0177635
854.637	0.0177209
854.715	0.0177166
854.793	0.0177642
854.871	0.0178131
854.949	0.0179028
855.027	0.0177980
855.105	0.0177903
855.183	0.0177696
855.262	0.0178731
855.340	0.0178549
855.418	0.0177283
855.496	0.0179272
855.574	0.0177082
855.652	0.0177526
855.730	0.0178854
855.808	0.0178522
855.887	0.0179048
855.965	0.0178741
856.043	0.0178560
856.121	0.0176642
856.199	0.0177760
856.277	0.0179887
856.355	0.0178046
856.433	0.0178857
856.512	0.0178310
856.590	0.0178071
856.668	0.0179446
856.746	0.0177934
856.824	0.0179470
856.902	0.0179097
856.980	0.0179483
857.058	0.0177596
857.137	0.0177970
857.215	0.0178713
857.293	0.0179031
857.371	0.0177695
857.449	0.0177346
857.527	0.0177011
857.605	0.0178027
857.683	0.0178355
857.762	0.0177796
857.840	0.0177270
857.918	0.0178586
857.996	0.0178241
858.074	0.0177393
858.152	0.0178066
858.230	0.0177940
858.308	0.0177225
858.387	0.0177586
858.465	0.0177715
858.543	0.0178510
858.621	0.0177448
858.699	0.0177586
858.777	0.0177934
858.855	0.0177575
858.933	0.0178542
859.012	0.0177877
859.090	0.0178822
859.168	0.0178022
859.246	0.0177705
859.324	0.0177733
859.402	0.0177321
859.480	0.0177376
859.558	0.0179372
859.637	0.0178811
859.715	0.0179037
859.793	0.0179462
859.871	0.0179075
859.949	0.0179420
860.027	0.0179933
860.105	0.0179060
860.183	0.0179247
860.262	0.0178358
860.340	0.0179537
860.418	0.0179829
860.496	0.0178688
860.574	0.0179017
860.652	0.0179790
860.730	0.0179272
860.808	0.0179314
860.887	0.0179154
860.965	0.0178085
861.043	0.0178913
861.121	0.0178267
861.199	0.0178688
861.277	0.0178585
861.355	0.0178329
861.433	0.0178675
861.512	0.0179529
861.590	0.0178656
861.668	0.0178175
861.746	0.0178045
861.824	0.0177979
861.902	0.0178880
861.980	0.0177315
862.058	0.0177740
862.137	0.0178776
862.215	0.0177979
862.293	0.0177319
862.371	0.0176717
862.449	0.0175999
862.527	0.0177496
862.605	0.0178994
862.683	0.0178923
862.762	0.0177565
862.840	0.0176995
862.918	0.0177583
862.996	0.0177437
863.074	0.0178889
863.152	0.0178075
863.230	0.0178166
863.308	0.0178840
863.387	0.0178229
863.465	0.0176894
863.543	0.0177883
863.621	0.0178471
863.699	0.0178849
863.777	0.0178909
863.855	0.0177646
863.933	0.0176826
864.012	0.0177923
864.090	0.0177766
864.168	0.0177741
864.246	0.0178031
864.324	0.0178399
864.402	0.0179461
864.480	0.0177463
864.558	0.0177745
864.637	0.0179915
864.715	0.0178676
864.793	0.0178273
864.871	0.0179283
864.949	0.0179662
865.027	0.0178456
865.105	0.0177818
865.183	0.0179544
865.262	0.0180065
865.340	0.0177810
865.418	0.0180108
865.496	0.0179679
865.574	0.0179305
865.652	0.0178602
865.730	0.0178977
865.808	0.0179083
865.887	0.0179516
865.965	0.0177657
866.043	0.0177608
866.121	0.0178760
866.199	0.0179681
866.277	0.0181110
866.355	0.0179145
866.433	0.0178492
866.512	0.0178457
866.590	0.0179011
866.668	0.0179661
866.746	0.0178903
866.824	0.0179157
866.902	0.0180106
866.980	0.0179728
867.058	0.0179070
867.137	0.0179993
867.215	0.0179988
867.293	0.0178471
867.371	0.0179823
867.449	0.0179546
867.527	0.0180805
867.605	0.0179794
867.683	0.0178731
867.762	0.0180338
867.840	0.0181082
867.918	0.0179440
867.996	0.0180290
868.074	0.0179625
868.152	0.0179401
868.230	0.0178525
868.308	0.0179887
868.387	0.0181104
868.465	0.0179747
868.543	0.0178166
868.621	0.0180325
868.699	0.0179618
868.777	0.0179625
868.855	0.0179653
868.933	0.0180078
869.012	0.0180817
869.090	0.0181074
869.168	0.0180000
869.246	0.0180149
869.324	0.0179763
869.402	0.0179855
869.480	0.0178687
869.558	0.0180009
869.637	0.0180187
869.715	0.0180231
869.793	0.0178278
869.871	0.0179505
869.949	0.0179116
