06/03/2022	18:33:29	Ver.	4.1	UNKNOWN
Optical Delay	550.027179	Delta X		0.078125	Sweeps	1	Scan Rate	0/0
Coordinates	Axis 1	NaN	Axis 2	NaN	Axis 3	NaN	Axis 4	NaN	Axis 5	NaN	Axis 6	0.000000
TX Power	0.000000	RX Power	0.000000

550.027	0.0178049
550.105	0.0176846
550.183	0.0177325
550.262	0.0177264
550.340	0.0179211
550.418	0.0176643
550.496	0.0177333
550.574	0.0179812
550.652	0.0177180
550.730	0.0176702
550.808	0.0178962
550.887	0.0177795
550.965	0.0177682
551.043	0.0177273
551.121	0.0178303
551.199	0.0177147
551.277	0.0178139
551.355	0.0178241
551.433	0.0178903
551.512	0.0176375
551.590	0.0177276
551.668	0.0178471
551.746	0.0178603
551.824	0.0178033
551.902	0.0178315
551.980	0.0178738
552.058	0.0178064
552.137	0.0178778
552.215	0.0176729
552.293	0.0177303
552.371	0.0177618
552.449	0.0177888
552.527	0.0177522
552.605	0.0178410
552.683	0.0178060
552.762	0.0177888
552.840	0.0177095
552.918	0.0177618
552.996	0.0178741
553.074	0.0176083
553.152	0.0177574
553.230	0.0178138
553.308	0.0177250
553.387	0.0177750
553.465	0.0177115
553.543	0.0176688
553.621	0.0178089
553.699	0.0179539
553.777	0.0176498
553.855	0.0176729
553.933	0.0177003
554.012	0.0178288
554.090	0.0177650
554.168	0.0178468
554.246	0.0178542
554.324	0.0178091
554.402	0.0177708
554.480	0.0178407
554.558	0.0178951
554.637	0.0178759
554.715	0.0178796
554.793	0.0178763
554.871	0.0177641
554.949	0.0176988
555.027	0.0179028
555.105	0.0178114
555.183	0.0179346
555.262	0.0178681
555.340	0.0178586
555.418	0.0177265
555.496	0.0176309
555.574	0.0178616
555.652	0.0177927
555.730	0.0177950
555.808	0.0176833
555.887	0.0176201
555.965	0.0177946
556.043	0.0177079
556.121	0.0177208
556.199	0.0177346
556.277	0.0176992
556.355	0.0178228
556.433	0.0178230
556.512	0.0176388
556.590	0.0177190
556.668	0.0177602
556.746	0.0178422
556.824	0.0178694
556.902	0.0177241
556.980	0.0178464
557.058	0.0177516
557.137	0.0177024
557.215	0.0177215
557.293	0.0177489
557.371	0.0177814
557.449	0.0177325
557.527	0.0177425
557.605	0.0177072
557.683	0.0178812
557.762	0.0177711
557.840	0.0177886
557.918	0.0178527
557.996	0.0177677
558.074	0.0178124
558.152	0.0177597
558.230	0.0177973
558.308	0.0177555
558.387	0.0177988
558.465	0.0178419
558.543	0.0178017
558.621	0.0178559
558.699	0.0177919
558.777	0.0177443
558.855	0.0177579
558.933	0.0177306
559.012	0.0178261
559.090	0.0178754
559.168	0.0177557
559.246	0.0177485
559.324	0.0177962
559.402	0.0177242
559.480	0.0176923
559.558	0.0179395
559.637	0.0178423
559.715	0.0176347
559.793	0.0177623
559.871	0.0177247
559.949	0.0177068
560.027	0.0178221
560.105	0.0178158
560.183	0.0177769
560.262	0.0175993
560.340	0.0177853
560.418	0.0176569
560.496	0.0177794
560.574	0.0177715
560.652	0.0176879
560.730	0.0177724
560.808	0.0176616
560.887	0.0177071
560.965	0.0177218
561.043	0.0177928
561.121	0.0177232
561.199	0.0177791
561.277	0.0177989
561.355	0.0178489
561.433	0.0176080
561.512	0.0178268
561.590	0.0177697
561.668	0.0176145
561.746	0.0177138
561.824	0.0178391
561.902	0.0178452
561.980	0.0176842
562.058	0.0176086
562.137	0.0176868
562.215	0.0178312
562.293	0.0177573
562.371	0.0176784
562.449	0.0176649
562.527	0.0177276
562.605	0.0177519
562.683	0.0178878
562.762	0.0176728
562.840	0.0176783
562.918	0.0177673
562.996	0.0177065
563.074	0.0177446
563.152	0.0177535
563.230	0.0177045
563.308	0.0176740
563.387	0.0176837
563.465	0.0178835
563.543	0.0177895
563.621	0.0175851
563.699	0.0175914
563.777	0.0178146
563.855	0.0177460
563.933	0.0177840
564.012	0.0177539
564.090	0.0176950
564.168	0.0177448
564.246	0.0177532
564.324	0.0177414
564.402	0.0178211
564.480	0.0176864
564.558	0.0176742
564.637	0.0176944
564.715	0.0177261
564.793	0.0177881
564.871	0.0175635
564.949	0.0177834
565.027	0.0176305
565.105	0.0176917
565.183	0.0177561
565.262	0.0176409
565.340	0.0177384
565.418	0.0177021
565.496	0.0176658
565.574	0.0176329
565.652	0.0177277
565.730	0.0178489
565.808	0.0176852
565.887	0.0177395
565.965	0.0177236
566.043	0.0175529
566.121	0.0177115
566.199	0.0177000
566.277	0.0177032
566.355	0.0178036
566.433	0.0177595
566.512	0.0178588
566.590	0.0177803
566.668	0.0178310
566.746	0.0177594
566.824	0.0177657
566.902	0.0178333
566.980	0.0176564
567.058	0.0178555
567.137	0.0177740
567.215	0.0177852
567.293	0.0178803
567.371	0.0177550
567.449	0.0178236
567.527	0.0178685
567.605	0.0177841
567.683	0.0179073
567.762	0.0178873
567.840	0.0178923
567.918	0.0178629
567.996	0.0178009
568.074	0.0178314
568.152	0.0177596
568.230	0.0179319
568.308	0.0179662
568.387	0.0179349
568.465	0.0179760
568.543	0.0180373
568.621	0.0179170
568.699	0.0178574
568.777	0.0179009
568.855	0.0178599
568.933	0.0180867
569.012	0.0179492
569.090	0.0180598
569.168	0.0180209
569.246	0.0179508
569.324	0.0180155
569.402	0.0180202
569.480	0.0179544
569.558	0.0180608
569.637	0.0180882
569.715	0.0179413
569.793	0.0179379
569.871	0.0180059
569.949	0.0180804
570.027	0.0179852
570.105	0.0177820
570.183	0.0180210
570.262	0.0178814
570.340	0.0178416
570.418	0.0177195
570.496	0.0179856
570.574	0.0179166
570.652	0.0178702
570.730	0.0178861
570.808	0.0178898
570.887	0.0180318
570.965	0.0178452
571.043	0.0179131
571.121	0.0178742
571.199	0.0178747
571.277	0.0179244
571.355	0.0179272
571.433	0.0178613
571.512	0.0178117
571.590	0.0178266
571.668	0.0178028
571.746	0.0179337
571.824	0.0178460
571.902	0.0178747
571.980	0.0178336
572.058	0.0177585
572.137	0.0178156
572.215	0.0179843
572.293	0.0178477
572.371	0.0177221
572.449	0.0178255
572.527	0.0179033
572.605	0.0177768
572.683	0.0178478
572.762	0.0177866
572.840	0.0178614
572.918	0.0177918
572.996	0.0177077
573.074	0.0177950
573.152	0.0177541
573.230	0.0177758
573.308	0.0178321
573.387	0.0178151
573.465	0.0177625
573.543	0.0176862
573.621	0.0178271
573.699	0.0176501
573.777	0.0178114
573.855	0.0178137
573.933	0.0177969
574.012	0.0177358
574.090	0.0177274
574.168	0.0177489
574.246	0.0176498
574.324	0.0177241
574.402	0.0176398
574.480	0.0176067
574.558	0.0176855
574.637	0.0177744
574.715	0.0177689
574.793	0.0178352
574.871	0.0177802
574.949	0.0177468
575.027	0.0177956
575.105	0.0176969
575.183	0.0177605
575.262	0.0176514
575.340	0.0176247
575.418	0.0177431
575.496	0.0178284
575.574	0.0177075
575.652	0.0177439
575.730	0.0176685
575.808	0.0177228
575.887	0.0178996
575.965	0.0178062
576.043	0.0176865
576.121	0.0178876
576.199	0.0178084
576.277	0.0177656
576.355	0.0178278
576.433	0.0177843
576.512	0.0178241
576.590	0.0178173
576.668	0.0177796
576.746	0.0177908
576.824	0.0180039
576.902	0.0178086
576.980	0.0176945
577.058	0.0177269
577.137	0.0178403
577.215	0.0179263
577.293	0.0179410
577.371	0.0179576
577.449	0.0178887
577.527	0.0179078
577.605	0.0178847
577.683	0.0179894
577.762	0.0179301
577.840	0.0180016
577.918	0.0180635
577.996	0.0179968
578.074	0.0178779
578.152	0.0178996
578.230	0.0179671
578.308	0.0180180
578.387	0.0179282
578.465	0.0180579
578.543	0.0178671
578.621	0.0178113
578.699	0.0180409
578.777	0.0181174
578.855	0.0180164
578.933	0.0180070
579.012	0.0179312
579.090	0.0180098
579.168	0.0180379
579.246	0.0178519
579.324	0.0178872
579.402	0.0180997
579.480	0.0180180
579.558	0.0177845
579.637	0.0178807
579.715	0.0179485
579.793	0.0180793
579.871	0.0180083
579.949	0.0179160
580.027	0.0179089
580.105	0.0178417
580.183	0.0179334
580.262	0.0179015
580.340	0.0179660
580.418	0.0178905
580.496	0.0178931
580.574	0.0179279
580.652	0.0177939
580.730	0.0178727
580.808	0.0179314
580.887	0.0178609
580.965	0.0179780
581.043	0.0180000
581.121	0.0179300
581.199	0.0178790
581.277	0.0178744
581.355	0.0178561
581.433	0.0177609
581.512	0.0179189
581.590	0.0176870
581.668	0.0178996
581.746	0.0177600
581.824	0.0177613
581.902	0.0179064
581.980	0.0177890
582.058	0.0177144
582.137	0.0178720
582.215	0.0178950
582.293	0.0179207
582.371	0.0178296
582.449	0.0177506
582.527	0.0177743
582.605	0.0178912
582.683	0.0178736
582.762	0.0179137
582.840	0.0177818
582.918	0.0176473
582.996	0.0177485
583.074	0.0177116
583.152	0.0178136
583.230	0.0179656
583.308	0.0178046
583.387	0.0178827
583.465	0.0177663
583.543	0.0176880
583.621	0.0179005
583.699	0.0177522
583.777	0.0178394
583.855	0.0178165
583.933	0.0177155
584.012	0.0177988
584.090	0.0178971
584.168	0.0176503
584.246	0.0177915
584.324	0.0178059
584.402	0.0178308
584.480	0.0179381
584.558	0.0177997
584.637	0.0178675
584.715	0.0179096
584.793	0.0179265
584.871	0.0179668
584.949	0.0178081
585.027	0.0177597
585.105	0.0178073
585.183	0.0177541
585.262	0.0178254
585.340	0.0178043
585.418	0.0178793
585.496	0.0179966
585.574	0.0178230
585.652	0.0178692
585.730	0.0178104
585.808	0.0177531
585.887	0.0179766
585.965	0.0178211
586.043	0.0179108
586.121	0.0177883
586.199	0.0177924
586.277	0.0178779
586.355	0.0178711
586.433	0.0178660
586.512	0.0179461
586.590	0.0178707
586.668	0.0178257
586.746	0.0179070
586.824	0.0177089
586.902	0.0178123
586.980	0.0178967
587.058	0.0177817
587.137	0.0178284
587.215	0.0178327
587.293	0.0179089
587.371	0.0178284
587.449	0.0178271
587.527	0.0179373
587.605	0.0179818
587.683	0.0178849
587.762	0.0177699
587.840	0.0178747
587.918	0.0177574
587.996	0.0178412
588.074	0.0178032
588.152	0.0178347
588.230	0.0179076
588.308	0.0179014
588.387	0.0178707
588.465	0.0178886
588.543	0.0179027
588.621	0.0179592
588.699	0.0178393
588.777	0.0178868
588.855	0.0179385
588.933	0.0179272
589.012	0.0178381
589.090	0.0179051
589.168	0.0178342
589.246	0.0178420
589.324	0.0178338
589.402	0.0178358
589.480	0.0178110
589.558	0.0178013
589.637	0.0179377
589.715	0.0177930
589.793	0.0178134
589.871	0.0177889
589.949	0.0178228
590.027	0.0178970
590.105	0.0179453
590.183	0.0177975
590.262	0.0178836
590.340	0.0178873
590.418	0.0179684
590.496	0.0179053
590.574	0.0178049
590.652	0.0178780
590.730	0.0177873
590.808	0.0178806
590.887	0.0178401
590.965	0.0177663
591.043	0.0178735
591.121	0.0179310
591.199	0.0178172
591.277	0.0178542
591.355	0.0179202
591.433	0.0177801
591.512	0.0178911
591.590	0.0179086
591.668	0.0178331
591.746	0.0178647
591.824	0.0178114
591.902	0.0179088
591.980	0.0180027
592.058	0.0178869
592.137	0.0177534
592.215	0.0177866
592.293	0.0178614
592.371	0.0178281
592.449	0.0177714
592.527	0.0177613
592.605	0.0178649
592.683	0.0177946
592.762	0.0178316
592.840	0.0178719
592.918	0.0178118
592.996	0.0177214
593.074	0.0179273
593.152	0.0179337
593.230	0.0178455
593.308	0.0179349
593.387	0.0179662
593.465	0.0177901
593.543	0.0177567
593.621	0.0179987
593.699	0.0179079
593.777	0.0178448
593.855	0.0179435
593.933	0.0179327
594.012	0.0177728
594.090	0.0177592
594.168	0.0179189
594.246	0.0178726
594.324	0.0177261
594.402	0.0178352
594.480	0.0178436
594.558	0.0179042
594.637	0.0179404
594.715	0.0177744
594.793	0.0178009
594.871	0.0179395
594.949	0.0178519
595.027	0.0179395
595.105	0.0179656
595.183	0.0177688
595.262	0.0178362
595.340	0.0178217
595.418	0.0178150
595.496	0.0178072
595.574	0.0178355
595.652	0.0178381
595.730	0.0178220
595.808	0.0179369
595.887	0.0176778
595.965	0.0178564
596.043	0.0178191
596.121	0.0179422
596.199	0.0178915
596.277	0.0179087
596.355	0.0178602
596.433	0.0178822
596.512	0.0178915
596.590	0.0178903
596.668	0.0178663
596.746	0.0178335
596.824	0.0179764
596.902	0.0179487
596.980	0.0178254
597.058	0.0178080
597.137	0.0180251
597.215	0.0179440
597.293	0.0179872
597.371	0.0177526
597.449	0.0179241
597.527	0.0179141
597.605	0.0178660
597.683	0.0179158
597.762	0.0179079
597.840	0.0178941
597.918	0.0178482
597.996	0.0178431
598.074	0.0177812
598.152	0.0177888
598.230	0.0179024
598.308	0.0179322
598.387	0.0179017
598.465	0.0179354
598.543	0.0178232
598.621	0.0180164
598.699	0.0179179
598.777	0.0178468
598.855	0.0179656
598.933	0.0179461
599.012	0.0179089
599.090	0.0178880
599.168	0.0179865
599.246	0.0178393
599.324	0.0179106
599.402	0.0180200
599.480	0.0177620
599.558	0.0180486
599.637	0.0178904
599.715	0.0180621
599.793	0.0180566
599.871	0.0180745
599.949	0.0179482
600.027	0.0178091
600.105	0.0178362
600.183	0.0179328
600.262	0.0177680
600.340	0.0179774
600.418	0.0177747
600.496	0.0177480
600.574	0.0179449
600.652	0.0178954
600.730	0.0178895
600.808	0.0179649
600.887	0.0179546
600.965	0.0179282
601.043	0.0179385
601.121	0.0179881
601.199	0.0179666
601.277	0.0179241
601.355	0.0180022
601.433	0.0179707
601.512	0.0177630
601.590	0.0178429
601.668	0.0178397
601.746	0.0179419
601.824	0.0178229
601.902	0.0178473
601.980	0.0179038
602.058	0.0179197
602.137	0.0179374
602.215	0.0179025
602.293	0.0179126
602.371	0.0177400
602.449	0.0178869
602.527	0.0178451
602.605	0.0179029
602.683	0.0178132
602.762	0.0179334
602.840	0.0178938
602.918	0.0178576
602.996	0.0179132
603.074	0.0178756
603.152	0.0179321
603.230	0.0177614
603.308	0.0178523
603.387	0.0179720
603.465	0.0178174
603.543	0.0179465
603.621	0.0178156
603.699	0.0178148
603.777	0.0179531
603.855	0.0178600
603.933	0.0179316
604.012	0.0178642
604.090	0.0177286
604.168	0.0177772
604.246	0.0178615
604.324	0.0179723
604.402	0.0178629
604.480	0.0176540
604.558	0.0178638
604.637	0.0178976
604.715	0.0178963
604.793	0.0179299
604.871	0.0179120
604.949	0.0178645
605.027	0.0179475
605.105	0.0178764
605.183	0.0178227
605.262	0.0178410
605.340	0.0177948
605.418	0.0178060
605.496	0.0177905
605.574	0.0178796
605.652	0.0178349
605.730	0.0177718
605.808	0.0178811
605.887	0.0179081
605.965	0.0177922
606.043	0.0177378
606.121	0.0178234
606.199	0.0178688
606.277	0.0178739
606.355	0.0178942
606.433	0.0176867
606.512	0.0178307
606.590	0.0179618
606.668	0.0178290
606.746	0.0178504
606.824	0.0177396
606.902	0.0179076
606.980	0.0178117
607.058	0.0178201
607.137	0.0178121
607.215	0.0178822
607.293	0.0179740
607.371	0.0178006
607.449	0.0178040
607.527	0.0178435
607.605	0.0178239
607.683	0.0178741
607.762	0.0178307
607.840	0.0178169
607.918	0.0178160
607.996	0.0178954
608.074	0.0177734
608.152	0.0178545
608.230	0.0178074
608.308	0.0178403
608.387	0.0177877
608.465	0.0178335
608.543	0.0178238
608.621	0.0177708
608.699	0.0178533
608.777	0.0177505
608.855	0.0178053
608.933	0.0177840
609.012	0.0177575
609.090	0.0177689
609.168	0.0178017
609.246	0.0178091
609.324	0.0178487
609.402	0.0177290
609.480	0.0178135
609.558	0.0176863
609.637	0.0176920
609.715	0.0177345
609.793	0.0177885
609.871	0.0178878
609.949	0.0177573
610.027	0.0177141
610.105	0.0177991
610.183	0.0178794
610.262	0.0177229
610.340	0.0176910
610.418	0.0178609
610.496	0.0177303
610.574	0.0176601
610.652	0.0178135
610.730	0.0177163
610.808	0.0177787
610.887	0.0177515
610.965	0.0177791
611.043	0.0178458
611.121	0.0178117
611.199	0.0177098
611.277	0.0176937
611.355	0.0177242
611.433	0.0177422
611.512	0.0176739
611.590	0.0177109
611.668	0.0177244
611.746	0.0178246
611.824	0.0177882
611.902	0.0178057
611.980	0.0178111
612.058	0.0177544
612.137	0.0177734
612.215	0.0177547
612.293	0.0176295
612.371	0.0176917
612.449	0.0176715
612.527	0.0177469
612.605	0.0176674
612.683	0.0176972
612.762	0.0175896
612.840	0.0176582
612.918	0.0177618
612.996	0.0177089
613.074	0.0176967
613.152	0.0175878
613.230	0.0177007
613.308	0.0177414
613.387	0.0178634
613.465	0.0178424
613.543	0.0176354
613.621	0.0176978
613.699	0.0178065
613.777	0.0177333
613.855	0.0178156
613.933	0.0175758
614.012	0.0177091
614.090	0.0178349
614.168	0.0176950
614.246	0.0177056
614.324	0.0177767
614.402	0.0177210
614.480	0.0176694
614.558	0.0177090
614.637	0.0176601
614.715	0.0177790
614.793	0.0177074
614.871	0.0177290
614.949	0.0177122
615.027	0.0177222
615.105	0.0177843
615.183	0.0177575
615.262	0.0176617
615.340	0.0177748
615.418	0.0177808
615.496	0.0177149
615.574	0.0175987
615.652	0.0177428
615.730	0.0177587
615.808	0.0178744
615.887	0.0177491
615.965	0.0176196
616.043	0.0177336
616.121	0.0177795
616.199	0.0177971
616.277	0.0178387
616.355	0.0176921
616.433	0.0178277
616.512	0.0177412
616.590	0.0176904
616.668	0.0178777
616.746	0.0176478
616.824	0.0178118
616.902	0.0178215
616.980	0.0178285
617.058	0.0178062
617.137	0.0177154
617.215	0.0177559
617.293	0.0178218
617.371	0.0177286
617.449	0.0178807
617.527	0.0177972
617.605	0.0177821
617.683	0.0177927
617.762	0.0176795
617.840	0.0177409
617.918	0.0177438
617.996	0.0177168
618.074	0.0176646
618.152	0.0178169
618.230	0.0178146
618.308	0.0177593
618.387	0.0178442
618.465	0.0178036
618.543	0.0177753
618.621	0.0177125
618.699	0.0177743
618.777	0.0177324
618.855	0.0176498
618.933	0.0176378
619.012	0.0177747
619.090	0.0177218
619.168	0.0177927
619.246	0.0176976
619.324	0.0178093
619.402	0.0176465
619.480	0.0176881
619.558	0.0178017
619.637	0.0177657
619.715	0.0176303
619.793	0.0178490
619.871	0.0176682
619.949	0.0178469
620.027	0.0179025
620.105	0.0177300
620.183	0.0177724
620.262	0.0177118
620.340	0.0177272
620.418	0.0178614
620.496	0.0177481
620.574	0.0177515
620.652	0.0177144
620.730	0.0177151
620.808	0.0176720
620.887	0.0177959
620.965	0.0177740
621.043	0.0177538
621.121	0.0178066
621.199	0.0176815
621.277	0.0177032
621.355	0.0176419
621.433	0.0177359
621.512	0.0176389
621.590	0.0176833
621.668	0.0176176
621.746	0.0178373
621.824	0.0177810
621.902	0.0176869
621.980	0.0178793
622.058	0.0178252
622.137	0.0177407
622.215	0.0176132
622.293	0.0176031
622.371	0.0177727
622.449	0.0177010
622.527	0.0177158
622.605	0.0177187
622.683	0.0177785
622.762	0.0177218
622.840	0.0177007
622.918	0.0177995
622.996	0.0177785
623.074	0.0177356
623.152	0.0177245
623.230	0.0178307
623.308	0.0177044
623.387	0.0176991
623.465	0.0177412
623.543	0.0176917
623.621	0.0177942
623.699	0.0177100
623.777	0.0178355
623.855	0.0177042
623.933	0.0176655
624.012	0.0178109
624.090	0.0178161
624.168	0.0177277
624.246	0.0176578
624.324	0.0177577
624.402	0.0177889
624.480	0.0177969
624.558	0.0176506
624.637	0.0175559
624.715	0.0177544
624.793	0.0177495
624.871	0.0178838
624.949	0.0176638
625.027	0.0177036
625.105	0.0177677
625.183	0.0178677
625.262	0.0177654
625.340	0.0176768
625.418	0.0177153
625.496	0.0178230
625.574	0.0177218
625.652	0.0177426
625.730	0.0178080
625.808	0.0176466
625.887	0.0178461
625.965	0.0177405
626.043	0.0178100
626.121	0.0177827
626.199	0.0177901
626.277	0.0177303
626.355	0.0177776
626.433	0.0178603
626.512	0.0177568
626.590	0.0177757
626.668	0.0177476
626.746	0.0179503
626.824	0.0178157
626.902	0.0177500
626.980	0.0178366
627.058	0.0177255
627.137	0.0177831
627.215	0.0178757
627.293	0.0179381
627.371	0.0177908
627.449	0.0178271
627.527	0.0177357
627.605	0.0176234
627.683	0.0176991
627.762	0.0177218
627.840	0.0177623
627.918	0.0177384
627.996	0.0176533
628.074	0.0178475
628.152	0.0177884
628.230	0.0177589
628.308	0.0177308
628.387	0.0177825
628.465	0.0177378
628.543	0.0177656
628.621	0.0179069
628.699	0.0176823
628.777	0.0179784
628.855	0.0177507
628.933	0.0177472
629.012	0.0178136
629.090	0.0178387
629.168	0.0177665
629.246	0.0177763
629.324	0.0177741
629.402	0.0177634
629.480	0.0178777
629.558	0.0177795
629.637	0.0178034
629.715	0.0178345
629.793	0.0178574
629.871	0.0177272
629.949	0.0178065
630.027	0.0178489
630.105	0.0177381
630.183	0.0178179
630.262	0.0177566
630.340	0.0177551
630.418	0.0177989
630.496	0.0177315
630.574	0.0177225
630.652	0.0177116
630.730	0.0178113
630.808	0.0178673
630.887	0.0176201
630.965	0.0176319
631.043	0.0178254
631.121	0.0177427
631.199	0.0177636
631.277	0.0177572
631.355	0.0177626
631.433	0.0178502
631.512	0.0176875
631.590	0.0178228
631.668	0.0177032
631.746	0.0177994
631.824	0.0177554
631.902	0.0176724
631.980	0.0177664
632.058	0.0179893
632.137	0.0177586
632.215	0.0177275
632.293	0.0175947
632.371	0.0177126
632.449	0.0177253
632.527	0.0177139
632.605	0.0177425
632.683	0.0178989
632.762	0.0177749
632.840	0.0175285
632.918	0.0176518
632.996	0.0176630
633.074	0.0175748
633.152	0.0176841
633.230	0.0178986
633.308	0.0176645
633.387	0.0177031
633.465	0.0176674
633.543	0.0176779
633.621	0.0178190
633.699	0.0176431
633.777	0.0177978
633.855	0.0177407
633.933	0.0176566
634.012	0.0177479
634.090	0.0177428
634.168	0.0177869
634.246	0.0176313
634.324	0.0175706
634.402	0.0177420
634.480	0.0177761
634.558	0.0177571
634.637	0.0177029
634.715	0.0176463
634.793	0.0178021
634.871	0.0176846
634.949	0.0177222
635.027	0.0177543
635.105	0.0178094
635.183	0.0176128
635.262	0.0176180
635.340	0.0176550
635.418	0.0177098
635.496	0.0177836
635.574	0.0177493
635.652	0.0176579
635.730	0.0175623
635.808	0.0177222
635.887	0.0177370
635.965	0.0175823
636.043	0.0177644
636.121	0.0177800
636.199	0.0178168
636.277	0.0177579
636.355	0.0178383
636.433	0.0178194
636.512	0.0178355
636.590	0.0177824
636.668	0.0176128
636.746	0.0177401
636.824	0.0178088
636.902	0.0176746
636.980	0.0177093
637.058	0.0177940
637.137	0.0178737
637.215	0.0177066
637.293	0.0176696
637.371	0.0178590
637.449	0.0177328
637.527	0.0177341
637.605	0.0176864
637.683	0.0176540
637.762	0.0177639
637.840	0.0177415
637.918	0.0177245
637.996	0.0176771
638.074	0.0178152
638.152	0.0177016
638.230	0.0177098
638.308	0.0178302
638.387	0.0178882
638.465	0.0177171
638.543	0.0177493
638.621	0.0177383
638.699	0.0177457
638.777	0.0178501
638.855	0.0177117
638.933	0.0178029
639.012	0.0177503
639.090	0.0176703
639.168	0.0177961
639.246	0.0177126
639.324	0.0177293
639.402	0.0177201
639.480	0.0178664
639.558	0.0178288
639.637	0.0178490
639.715	0.0177897
639.793	0.0176170
639.871	0.0177592
639.949	0.0179018
640.027	0.0177445
640.105	0.0176637
640.183	0.0177172
640.262	0.0178249
640.340	0.0178178
640.418	0.0177816
640.496	0.0178002
640.574	0.0177950
640.652	0.0177262
640.730	0.0177281
640.808	0.0177013
640.887	0.0177837
640.965	0.0178564
641.043	0.0177493
641.121	0.0177964
641.199	0.0177197
641.277	0.0176948
641.355	0.0177333
641.433	0.0176653
641.512	0.0178509
641.590	0.0177774
641.668	0.0176955
641.746	0.0177660
641.824	0.0177580
641.902	0.0179124
641.980	0.0178727
642.058	0.0178338
642.137	0.0178424
642.215	0.0177670
642.293	0.0178034
642.371	0.0177819
642.449	0.0178533
642.527	0.0176833
642.605	0.0176856
642.683	0.0178323
642.762	0.0177069
642.840	0.0177929
642.918	0.0178013
642.996	0.0179259
643.074	0.0177850
643.152	0.0178234
643.230	0.0178622
643.308	0.0177796
643.387	0.0177582
643.465	0.0178039
643.543	0.0178458
643.621	0.0177542
643.699	0.0177461
643.777	0.0179831
643.855	0.0177753
643.933	0.0177851
644.012	0.0178168
644.090	0.0178699
644.168	0.0177296
644.246	0.0178491
644.324	0.0177883
644.402	0.0178106
644.480	0.0178000
644.558	0.0176960
644.637	0.0177481
644.715	0.0177942
644.793	0.0178343
644.871	0.0178020
644.949	0.0177296
645.027	0.0178148
645.105	0.0178716
645.183	0.0177952
645.262	0.0176622
645.340	0.0176161
645.418	0.0178249
645.496	0.0177911
645.574	0.0177381
645.652	0.0177184
645.730	0.0178987
645.808	0.0178794
645.887	0.0177767
645.965	0.0177376
646.043	0.0178188
646.121	0.0178229
646.199	0.0177968
646.277	0.0178269
646.355	0.0179503
646.433	0.0178922
646.512	0.0178063
646.590	0.0176823
646.668	0.0177869
646.746	0.0178503
646.824	0.0177940
646.902	0.0179750
646.980	0.0177845
647.058	0.0178475
647.137	0.0177499
647.215	0.0177959
647.293	0.0180438
647.371	0.0178355
647.449	0.0178107
647.527	0.0177264
647.605	0.0175488
647.683	0.0179326
647.762	0.0177316
647.840	0.0178188
647.918	0.0177363
647.996	0.0176254
648.074	0.0178095
648.152	0.0178065
648.230	0.0177855
648.308	0.0178948
648.387	0.0177987
648.465	0.0178069
648.543	0.0177263
648.621	0.0177830
648.699	0.0178794
648.777	0.0178403
648.855	0.0177387
648.933	0.0175911
649.012	0.0177911
649.090	0.0178808
649.168	0.0177688
649.246	0.0177955
649.324	0.0177551
649.402	0.0178529
649.480	0.0179099
649.558	0.0178866
649.637	0.0177424
649.715	0.0178085
649.793	0.0178946
649.871	0.0177782
649.949	0.0177791
650.027	0.0177605
650.105	0.0176965
650.183	0.0178168
650.262	0.0177704
650.340	0.0176903
650.418	0.0177988
650.496	0.0178051
650.574	0.0178274
650.652	0.0176921
650.730	0.0178881
650.808	0.0177815
650.887	0.0177933
650.965	0.0177766
651.043	0.0177739
651.121	0.0178263
651.199	0.0178017
651.277	0.0178749
651.355	0.0177478
651.433	0.0177433
651.512	0.0179245
651.590	0.0177456
651.668	0.0178790
651.746	0.0178440
651.824	0.0178596
651.902	0.0177763
651.980	0.0177469
652.058	0.0178001
652.137	0.0178194
652.215	0.0178237
652.293	0.0178293
652.371	0.0178497
652.449	0.0178893
652.527	0.0179169
652.605	0.0177898
652.683	0.0177988
652.762	0.0180368
652.840	0.0178611
652.918	0.0177687
652.996	0.0178365
653.074	0.0178568
653.152	0.0178114
653.230	0.0179208
653.308	0.0178133
653.387	0.0178747
653.465	0.0178023
653.543	0.0178290
653.621	0.0177965
653.699	0.0177990
653.777	0.0178153
653.855	0.0177926
653.933	0.0178214
654.012	0.0178256
654.090	0.0178129
654.168	0.0178548
654.246	0.0178628
654.324	0.0177737
654.402	0.0177412
654.480	0.0177363
654.558	0.0178889
654.637	0.0180721
654.715	0.0178649
654.793	0.0178133
654.871	0.0178825
654.949	0.0178101
655.027	0.0179564
655.105	0.0178995
655.183	0.0179272
655.262	0.0178542
655.340	0.0178102
655.418	0.0177438
655.496	0.0178787
655.574	0.0179756
655.652	0.0178170
655.730	0.0178617
655.808	0.0179655
655.887	0.0178911
655.965	0.0179964
656.043	0.0179398
656.121	0.0179151
656.199	0.0178543
656.277	0.0178228
656.355	0.0179509
656.433	0.0179839
656.512	0.0178880
656.590	0.0178442
656.668	0.0178752
656.746	0.0178796
656.824	0.0177840
656.902	0.0177809
656.980	0.0177735
657.058	0.0177866
657.137	0.0179221
657.215	0.0177719
657.293	0.0177663
657.371	0.0178546
657.449	0.0178583
657.527	0.0178450
657.605	0.0177953
657.683	0.0177559
657.762	0.0177526
657.840	0.0178659
657.918	0.0177600
657.996	0.0177940
658.074	0.0177554
658.152	0.0177869
658.230	0.0177526
658.308	0.0178501
658.387	0.0177315
658.465	0.0177241
658.543	0.0177085
658.621	0.0179610
658.699	0.0177952
658.777	0.0179459
658.855	0.0178589
658.933	0.0177669
659.012	0.0177161
659.090	0.0177252
659.168	0.0179068
659.246	0.0177547
659.324	0.0178095
659.402	0.0177982
659.480	0.0178043
659.558	0.0178087
659.637	0.0179065
659.715	0.0176729
659.793	0.0178384
659.871	0.0178817
659.949	0.0176925
660.027	0.0177969
660.105	0.0180207
660.183	0.0177631
660.262	0.0178845
660.340	0.0179006
660.418	0.0179425
660.496	0.0177642
660.574	0.0177976
660.652	0.0178811
660.730	0.0177685
660.808	0.0177531
660.887	0.0178899
660.965	0.0178405
661.043	0.0176422
661.121	0.0177937
661.199	0.0177963
661.277	0.0176976
661.355	0.0176793
661.433	0.0178611
661.512	0.0178970
661.590	0.0178457
661.668	0.0178001
661.746	0.0177660
661.824	0.0178557
661.902	0.0179314
661.980	0.0178706
662.058	0.0178053
662.137	0.0178825
662.215	0.0177867
662.293	0.0179218
662.371	0.0177680
662.449	0.0178958
662.527	0.0180367
662.605	0.0179205
662.683	0.0180286
662.762	0.0179450
662.840	0.0177909
662.918	0.0178247
662.996	0.0179174
663.074	0.0179066
663.152	0.0179602
663.230	0.0179904
663.308	0.0178947
663.387	0.0179363
663.465	0.0180223
663.543	0.0180059
663.621	0.0178606
663.699	0.0178960
663.777	0.0178419
663.855	0.0179655
663.933	0.0179353
664.012	0.0178821
664.090	0.0180224
664.168	0.0179030
664.246	0.0179449
664.324	0.0177937
664.402	0.0180090
664.480	0.0180500
664.558	0.0178648
664.637	0.0179353
664.715	0.0179485
664.793	0.0179520
664.871	0.0179364
664.949	0.0179327
665.027	0.0179253
665.105	0.0179218
665.183	0.0179050
665.262	0.0178417
665.340	0.0179553
665.418	0.0178838
665.496	0.0178259
665.574	0.0180173
665.652	0.0177842
665.730	0.0178084
665.808	0.0178087
665.887	0.0178743
665.965	0.0179679
666.043	0.0177019
666.121	0.0177461
666.199	0.0178309
666.277	0.0180140
666.355	0.0179087
666.433	0.0177251
666.512	0.0178506
666.590	0.0178080
666.668	0.0179324
666.746	0.0178901
666.824	0.0178757
666.902	0.0179248
666.980	0.0176717
667.058	0.0177719
667.137	0.0179476
667.215	0.0177594
667.293	0.0178580
667.371	0.0178870
667.449	0.0179115
667.527	0.0178708
667.605	0.0178310
667.683	0.0181022
667.762	0.0179701
667.840	0.0179640
667.918	0.0180236
667.996	0.0178082
668.074	0.0178520
668.152	0.0179469
668.230	0.0178304
668.308	0.0178487
668.387	0.0177463
668.465	0.0180035
668.543	0.0179018
668.621	0.0178535
668.699	0.0177666
668.777	0.0178711
668.855	0.0178017
668.933	0.0178330
669.012	0.0177080
669.090	0.0176303
669.168	0.0178017
669.246	0.0177562
669.324	0.0178253
669.402	0.0177782
669.480	0.0177076
669.558	0.0178359
669.637	0.0178322
669.715	0.0177969
669.793	0.0177860
669.871	0.0178605
669.949	0.0180043
670.027	0.0180033
670.105	0.0180394
670.183	0.0179472
670.262	0.0180131
670.340	0.0180713
670.418	0.0180099
670.496	0.0181436
670.574	0.0181311
670.652	0.0179968
670.730	0.0180662
670.808	0.0181557
670.887	0.0180666
670.965	0.0180628
671.043	0.0181451
671.121	0.0180058
671.199	0.0179535
671.277	0.0179498
671.355	0.0179339
671.433	0.0179824
671.512	0.0178374
671.590	0.0177332
671.668	0.0177183
671.746	0.0177229
671.824	0.0177953
671.902	0.0177526
671.980	0.0176833
672.058	0.0176519
672.137	0.0177647
672.215	0.0175703
672.293	0.0177081
672.371	0.0175972
672.449	0.0176514
672.527	0.0177480
672.605	0.0177293
672.683	0.0178563
672.762	0.0177928
672.840	0.0177930
672.918	0.0178838
672.996	0.0179591
673.074	0.0180494
673.152	0.0179125
673.230	0.0179750
673.308	0.0179581
673.387	0.0179970
673.465	0.0180788
673.543	0.0179776
673.621	0.0180029
673.699	0.0180648
673.777	0.0181574
673.855	0.0180547
673.933	0.0181254
674.012	0.0182252
674.090	0.0181989
674.168	0.0180235
674.246	0.0181906
674.324	0.0181357
674.402	0.0181839
674.480	0.0181693
674.558	0.0179892
674.637	0.0181152
674.715	0.0183010
674.793	0.0182166
674.871	0.0181672
674.949	0.0180776
675.027	0.0181007
675.105	0.0180418
675.183	0.0180055
675.262	0.0179182
675.340	0.0179700
675.418	0.0178902
675.496	0.0177097
675.574	0.0177152
675.652	0.0177966
675.730	0.0176775
675.808	0.0176842
675.887	0.0175826
675.965	0.0176889
676.043	0.0177149
676.121	0.0175496
676.199	0.0175517
676.277	0.0176165
676.355	0.0175373
676.433	0.0175317
676.512	0.0177834
676.590	0.0177562
676.668	0.0176450
676.746	0.0176920
676.824	0.0175840
676.902	0.0176608
676.980	0.0177497
677.058	0.0177804
677.137	0.0179105
677.215	0.0178515
677.293	0.0177939
677.371	0.0177995
677.449	0.0178545
677.527	0.0179229
677.605	0.0178790
677.683	0.0179360
677.762	0.0180134
677.840	0.0179677
677.918	0.0179154
677.996	0.0179514
678.074	0.0178341
678.152	0.0180501
678.230	0.0179771
678.308	0.0180743
678.387	0.0178633
678.465	0.0180119
678.543	0.0179958
678.621	0.0178717
678.699	0.0178357
678.777	0.0180183
678.855	0.0178897
678.933	0.0179332
679.012	0.0179004
679.090	0.0179110
679.168	0.0178979
679.246	0.0177986
679.324	0.0178078
679.402	0.0179450
679.480	0.0178223
679.558	0.0177504
679.637	0.0180734
679.715	0.0179014
679.793	0.0180571
679.871	0.0179340
679.949	0.0179086
680.027	0.0180099
680.105	0.0179788
680.183	0.0179339
680.262	0.0180770
680.340	0.0181037
680.418	0.0179576
680.496	0.0179594
680.574	0.0179443
680.652	0.0178970
680.730	0.0178598
680.808	0.0178098
680.887	0.0177267
680.965	0.0177161
681.043	0.0175807
681.121	0.0178150
681.199	0.0175912
681.277	0.0174739
681.355	0.0175531
681.433	0.0175579
681.512	0.0174848
681.590	0.0174291
681.668	0.0175467
681.746	0.0175044
681.824	0.0174051
681.902	0.0174368
681.980	0.0175310
682.058	0.0174760
682.137	0.0175961
682.215	0.0176138
682.293	0.0177155
682.371	0.0176604
682.449	0.0176947
682.527	0.0178440
682.605	0.0176818
682.683	0.0177045
682.762	0.0178002
682.840	0.0177802
682.918	0.0178503
682.996	0.0178959
683.074	0.0177734
683.152	0.0179159
683.230	0.0180397
683.308	0.0180114
683.387	0.0179276
683.465	0.0179208
683.543	0.0180295
683.621	0.0180093
683.699	0.0180214
683.777	0.0178773
683.855	0.0180966
683.933	0.0180247
684.012	0.0179295
684.090	0.0180278
684.168	0.0180920
684.246	0.0179845
684.324	0.0180351
684.402	0.0179874
684.480	0.0179763
684.558	0.0179871
684.637	0.0179018
684.715	0.0180196
684.793	0.0180676
684.871	0.0179779
684.949	0.0178836
685.027	0.0180093
685.105	0.0179226
685.183	0.0177673
685.262	0.0179397
685.340	0.0178424
685.418	0.0179213
685.496	0.0177778
685.574	0.0176450
685.652	0.0177445
685.730	0.0177629
685.808	0.0175938
685.887	0.0175043
685.965	0.0177242
686.043	0.0177070
686.121	0.0176851
686.199	0.0176347
686.277	0.0175077
686.355	0.0175580
686.433	0.0177783
686.512	0.0176900
686.590	0.0176653
686.668	0.0177051
686.746	0.0176270
686.824	0.0177054
686.902	0.0177214
686.980	0.0176610
687.058	0.0177277
687.137	0.0177251
687.215	0.0177039
687.293	0.0177793
687.371	0.0177328
687.449	0.0175964
687.527	0.0176713
687.605	0.0177846
687.683	0.0175900
687.762	0.0177348
687.840	0.0177502
687.918	0.0177208
687.996	0.0177721
688.074	0.0177415
688.152	0.0178240
688.230	0.0178318
688.308	0.0177162
688.387	0.0177782
688.465	0.0178215
688.543	0.0178344
688.621	0.0177071
688.699	0.0179093
688.777	0.0178838
688.855	0.0178243
688.933	0.0178152
689.012	0.0176987
689.090	0.0176591
689.168	0.0177766
689.246	0.0176868
689.324	0.0177287
689.402	0.0177202
689.480	0.0177548
689.558	0.0177319
689.637	0.0178054
689.715	0.0175943
689.793	0.0174929
689.871	0.0177122
689.949	0.0176248
690.027	0.0175371
690.105	0.0175928
690.183	0.0176850
690.262	0.0178360
690.340	0.0176364
690.418	0.0178550
690.496	0.0178766
690.574	0.0179432
690.652	0.0177631
690.730	0.0178181
690.808	0.0179403
690.887	0.0179513
690.965	0.0179993
691.043	0.0179652
691.121	0.0179149
691.199	0.0179458
691.277	0.0179921
691.355	0.0179675
691.433	0.0179903
691.512	0.0179285
691.590	0.0177901
691.668	0.0178288
691.746	0.0176582
691.824	0.0178768
691.902	0.0176205
691.980	0.0176385
692.058	0.0176791
692.137	0.0176236
692.215	0.0175909
692.293	0.0173595
692.371	0.0175080
692.449	0.0176446
692.527	0.0175976
692.605	0.0174927
692.683	0.0174600
692.762	0.0175957
692.840	0.0175328
692.918	0.0175981
692.996	0.0176543
693.074	0.0177464
693.152	0.0178663
693.230	0.0178030
693.308	0.0177354
693.387	0.0179232
693.465	0.0178774
693.543	0.0178638
693.621	0.0178776
693.699	0.0179460
693.777	0.0179691
693.855	0.0180035
693.933	0.0181146
694.012	0.0179827
694.090	0.0180084
694.168	0.0181174
694.246	0.0180793
694.324	0.0180675
694.402	0.0180245
694.480	0.0180377
694.558	0.0179634
694.637	0.0179015
694.715	0.0179362
694.793	0.0178334
694.871	0.0179827
694.949	0.0177674
695.027	0.0177301
695.105	0.0177820
695.183	0.0177512
695.262	0.0179009
695.340	0.0179453
695.418	0.0178128
695.496	0.0177206
695.574	0.0176340
695.652	0.0177824
695.730	0.0176482
695.808	0.0178503
695.887	0.0177019
695.965	0.0176469
696.043	0.0177222
696.121	0.0177306
696.199	0.0176960
696.277	0.0176394
696.355	0.0177795
696.433	0.0178516
696.512	0.0179211
696.590	0.0176648
696.668	0.0176646
696.746	0.0179085
696.824	0.0178186
696.902	0.0178050
696.980	0.0179013
697.058	0.0177868
697.137	0.0178386
697.215	0.0179214
697.293	0.0178282
697.371	0.0179501
697.449	0.0179185
697.527	0.0177871
697.605	0.0176202
697.683	0.0177274
697.762	0.0178091
697.840	0.0177466
697.918	0.0177785
697.996	0.0177397
698.074	0.0178300
698.152	0.0180238
698.230	0.0177385
698.308	0.0177194
698.387	0.0178591
698.465	0.0178124
698.543	0.0177978
698.621	0.0179993
698.699	0.0179269
698.777	0.0179514
698.855	0.0179447
698.933	0.0179507
699.012	0.0178838
699.090	0.0178497
699.168	0.0179461
699.246	0.0176229
699.324	0.0176941
699.402	0.0177626
699.480	0.0176965
699.558	0.0176129
699.637	0.0175109
699.715	0.0174310
699.793	0.0175268
699.871	0.0175211
699.949	0.0176231
700.027	0.0176040
700.105	0.0177161
700.183	0.0174983
700.262	0.0175044
700.340	0.0175578
700.418	0.0176516
700.496	0.0177372
700.574	0.0177870
700.652	0.0177907
700.730	0.0176940
700.808	0.0178312
700.887	0.0178830
700.965	0.0177554
701.043	0.0178024
701.121	0.0179883
701.199	0.0181187
701.277	0.0181285
701.355	0.0179702
701.433	0.0181793
701.512	0.0180745
701.590	0.0180419
701.668	0.0180247
701.746	0.0181093
701.824	0.0180455
701.902	0.0181998
701.980	0.0179919
702.058	0.0180538
702.137	0.0179702
702.215	0.0179829
702.293	0.0181068
702.371	0.0180041
702.449	0.0178519
702.527	0.0179595
702.605	0.0178169
702.683	0.0177370
702.762	0.0177422
702.840	0.0178239
702.918	0.0178029
702.996	0.0177339
703.074	0.0177357
703.152	0.0176798
703.230	0.0176900
703.308	0.0176449
703.387	0.0175571
703.465	0.0174423
703.543	0.0175290
703.621	0.0174675
703.699	0.0174091
703.777	0.0175584
703.855	0.0175677
703.933	0.0173589
704.012	0.0173070
704.090	0.0173145
704.168	0.0175784
704.246	0.0175198
704.324	0.0174636
704.402	0.0175318
704.480	0.0174554
704.558	0.0174538
704.637	0.0175545
704.715	0.0177070
704.793	0.0177136
704.871	0.0175503
704.949	0.0176763
705.027	0.0177007
705.105	0.0178259
705.183	0.0178439
705.262	0.0179461
705.340	0.0178930
705.418	0.0177867
705.496	0.0179373
705.574	0.0179206
705.652	0.0179330
705.730	0.0180199
705.808	0.0179839
705.887	0.0178886
705.965	0.0178829
706.043	0.0179930
706.121	0.0180527
706.199	0.0178903
706.277	0.0178910
706.355	0.0177339
706.433	0.0176381
706.512	0.0178494
706.590	0.0177823
706.668	0.0175994
706.746	0.0175296
706.824	0.0175552
706.902	0.0175184
706.980	0.0175247
707.058	0.0174775
707.137	0.0176109
707.215	0.0174871
707.293	0.0176860
707.371	0.0177516
707.449	0.0175938
707.527	0.0176710
707.605	0.0176979
707.683	0.0176656
707.762	0.0177476
707.840	0.0178044
707.918	0.0178101
707.996	0.0178302
708.074	0.0178558
708.152	0.0178925
708.230	0.0179118
708.308	0.0179136
708.387	0.0178745
708.465	0.0179170
708.543	0.0178419
708.621	0.0178088
708.699	0.0178230
708.777	0.0178214
708.855	0.0178158
708.933	0.0175819
709.012	0.0176260
709.090	0.0176044
709.168	0.0176514
709.246	0.0174567
709.324	0.0173547
709.402	0.0174223
709.480	0.0175243
709.558	0.0173049
709.637	0.0172116
709.715	0.0173468
709.793	0.0172122
709.871	0.0172135
709.949	0.0173132
710.027	0.0173238
710.105	0.0172014
710.183	0.0172420
710.262	0.0173032
710.340	0.0174051
710.418	0.0174870
710.496	0.0174503
710.574	0.0176350
710.652	0.0175967
710.730	0.0179234
710.808	0.0180164
710.887	0.0181498
710.965	0.0178850
711.043	0.0181219
711.121	0.0180739
711.199	0.0180582
711.277	0.0181064
711.355	0.0182211
711.433	0.0183282
711.512	0.0181461
711.590	0.0179649
711.668	0.0178721
711.746	0.0178090
711.824	0.0177589
711.902	0.0177327
711.980	0.0175473
712.058	0.0175062
712.137	0.0173230
712.215	0.0172595
712.293	0.0172304
712.371	0.0170734
712.449	0.0172240
712.527	0.0172856
712.605	0.0173120
712.683	0.0174115
712.762	0.0173860
712.840	0.0173479
712.918	0.0173471
712.996	0.0176474
713.074	0.0175903
713.152	0.0176096
713.230	0.0177078
713.308	0.0177625
713.387	0.0179054
713.465	0.0179934
713.543	0.0180361
713.621	0.0179970
713.699	0.0179700
713.777	0.0178421
713.855	0.0180150
713.933	0.0180183
714.012	0.0178967
714.090	0.0178096
714.168	0.0178614
714.246	0.0179161
714.324	0.0177245
714.402	0.0177512
714.480	0.0177457
714.558	0.0177068
714.637	0.0176387
714.715	0.0177437
714.793	0.0177303
714.871	0.0178662
714.949	0.0180004
715.027	0.0179374
715.105	0.0179132
715.183	0.0181148
715.262	0.0179727
715.340	0.0180429
715.418	0.0181209
715.496	0.0182280
715.574	0.0183842
715.652	0.0181023
715.730	0.0182075
715.808	0.0182568
715.887	0.0181390
715.965	0.0181898
716.043	0.0181665
716.121	0.0181510
716.199	0.0180505
716.277	0.0179977
716.355	0.0178966
716.433	0.0177624
716.512	0.0178513
716.590	0.0177399
716.668	0.0177020
716.746	0.0175772
716.824	0.0175513
716.902	0.0174977
716.980	0.0174066
717.058	0.0175091
717.137	0.0172930
717.215	0.0172581
717.293	0.0172021
717.371	0.0172777
717.449	0.0171368
717.527	0.0172019
717.605	0.0171141
717.683	0.0172955
717.762	0.0172483
717.840	0.0172625
717.918	0.0173216
717.996	0.0173641
718.074	0.0173396
718.152	0.0174559
718.230	0.0174094
718.308	0.0175481
718.387	0.0174998
718.465	0.0175960
718.543	0.0177863
718.621	0.0177481
718.699	0.0177503
718.777	0.0178117
718.855	0.0178212
718.933	0.0180126
719.012	0.0179194
719.090	0.0179762
719.168	0.0182262
719.246	0.0183679
719.324	0.0182589
719.402	0.0183123
719.480	0.0184262
719.558	0.0182784
719.637	0.0183530
719.715	0.0183624
719.793	0.0183544
719.871	0.0183097
719.949	0.0181635
720.027	0.0182475
720.105	0.0182122
720.183	0.0181362
720.262	0.0179013
720.340	0.0178873
720.418	0.0179487
720.496	0.0177175
720.574	0.0178833
720.652	0.0176566
720.730	0.0175896
720.808	0.0177198
720.887	0.0175938
720.965	0.0175084
721.043	0.0175811
721.121	0.0173816
721.199	0.0174404
721.277	0.0173794
721.355	0.0174506
721.433	0.0175029
721.512	0.0176885
721.590	0.0176729
721.668	0.0176140
721.746	0.0176572
721.824	0.0177658
721.902	0.0178432
721.980	0.0177611
722.058	0.0177231
722.137	0.0178167
722.215	0.0178617
722.293	0.0176110
722.371	0.0177074
722.449	0.0177657
722.527	0.0177464
722.605	0.0177366
722.683	0.0177356
722.762	0.0177988
722.840	0.0178075
722.918	0.0178152
722.996	0.0179513
723.074	0.0179455
723.152	0.0179915
723.230	0.0178886
723.308	0.0179144
723.387	0.0179636
723.465	0.0180135
723.543	0.0180321
723.621	0.0177560
723.699	0.0176096
723.777	0.0178441
723.855	0.0176994
723.933	0.0176978
724.012	0.0176892
724.090	0.0176105
724.168	0.0175695
724.246	0.0175390
724.324	0.0175816
724.402	0.0176584
724.480	0.0176733
724.558	0.0177928
724.637	0.0175748
724.715	0.0176424
724.793	0.0177651
724.871	0.0177316
724.949	0.0177013
725.027	0.0177544
725.105	0.0177879
725.183	0.0177276
725.262	0.0176135
725.340	0.0176844
725.418	0.0176767
725.496	0.0177879
725.574	0.0178098
725.652	0.0177683
725.730	0.0176686
725.808	0.0178597
725.887	0.0179644
725.965	0.0178049
726.043	0.0180203
726.121	0.0180482
726.199	0.0180934
726.277	0.0182539
726.355	0.0181506
726.433	0.0181141
726.512	0.0183577
726.590	0.0183063
726.668	0.0181977
726.746	0.0182811
726.824	0.0183122
726.902	0.0182159
726.980	0.0182331
727.058	0.0182396
727.137	0.0181424
727.215	0.0181103
727.293	0.0179221
727.371	0.0179248
727.449	0.0179695
727.527	0.0180570
727.605	0.0179664
727.683	0.0176917
727.762	0.0176113
727.840	0.0174632
727.918	0.0175556
727.996	0.0174762
728.074	0.0174616
728.152	0.0173904
728.230	0.0174930
728.308	0.0173451
728.387	0.0174552
728.465	0.0174367
728.543	0.0176754
728.621	0.0176517
728.699	0.0177181
728.777	0.0176650
728.855	0.0176201
728.933	0.0178429
729.012	0.0178892
729.090	0.0177465
729.168	0.0177457
729.246	0.0177631
729.324	0.0176843
729.402	0.0177579
729.480	0.0178232
729.558	0.0177155
729.637	0.0178468
729.715	0.0176037
729.793	0.0178764
729.871	0.0178929
729.949	0.0176986
730.027	0.0179282
730.105	0.0178965
730.183	0.0177165
730.262	0.0178053
730.340	0.0178264
730.418	0.0176157
730.496	0.0178075
730.574	0.0177075
730.652	0.0178082
730.730	0.0178291
730.808	0.0178707
730.887	0.0178992
730.965	0.0178742
731.043	0.0179750
731.121	0.0180816
731.199	0.0179434
731.277	0.0179979
731.355	0.0179924
731.433	0.0180450
731.512	0.0180269
731.590	0.0179329
731.668	0.0178134
731.746	0.0177377
731.824	0.0177087
731.902	0.0176423
731.980	0.0176842
732.058	0.0175688
732.137	0.0174449
732.215	0.0173930
732.293	0.0174168
732.371	0.0174623
732.449	0.0173202
732.527	0.0173657
732.605	0.0175002
732.683	0.0174885
732.762	0.0175580
732.840	0.0174187
732.918	0.0174159
732.996	0.0176530
733.074	0.0176829
733.152	0.0176871
733.230	0.0176515
733.308	0.0178514
733.387	0.0177271
733.465	0.0180093
733.543	0.0179613
733.621	0.0180720
733.699	0.0182255
733.777	0.0182856
733.855	0.0181842
733.933	0.0182372
734.012	0.0184358
734.090	0.0184423
734.168	0.0182638
734.246	0.0183307
734.324	0.0183302
734.402	0.0181475
734.480	0.0180686
734.558	0.0182402
734.637	0.0180363
734.715	0.0179088
734.793	0.0180517
734.871	0.0179475
734.949	0.0178835
735.027	0.0179137
735.105	0.0178098
735.183	0.0179062
735.262	0.0178355
735.340	0.0178297
735.418	0.0178937
735.496	0.0177482
735.574	0.0177198
735.652	0.0176173
735.730	0.0177802
735.808	0.0179470
735.887	0.0176642
735.965	0.0177525
736.043	0.0175243
736.121	0.0175304
736.199	0.0176673
736.277	0.0176830
736.355	0.0175291
736.433	0.0174988
736.512	0.0175522
736.590	0.0174834
736.668	0.0175532
736.746	0.0174538
736.824	0.0174660
736.902	0.0173785
736.980	0.0176515
737.058	0.0175742
737.137	0.0175410
737.215	0.0174586
737.293	0.0175268
737.371	0.0176441
737.449	0.0176115
737.527	0.0176754
737.605	0.0177322
737.683	0.0177878
737.762	0.0177413
737.840	0.0179217
737.918	0.0178753
737.996	0.0181065
738.074	0.0182325
738.152	0.0182366
738.230	0.0180885
738.308	0.0183292
738.387	0.0182494
738.465	0.0184002
738.543	0.0183852
738.621	0.0182562
738.699	0.0182256
738.777	0.0184280
738.855	0.0184172
738.933	0.0182481
739.012	0.0183826
739.090	0.0183736
739.168	0.0183586
739.246	0.0182479
739.324	0.0183630
739.402	0.0182722
739.480	0.0183206
739.558	0.0181472
739.637	0.0180535
739.715	0.0179010
739.793	0.0180619
739.871	0.0179986
739.949	0.0178551
740.027	0.0178192
740.105	0.0178015
740.183	0.0177702
740.262	0.0176956
740.340	0.0176581
740.418	0.0176691
740.496	0.0176792
740.574	0.0176975
740.652	0.0176939
740.730	0.0176800
740.808	0.0177699
740.887	0.0177523
740.965	0.0176976
741.043	0.0176067
741.121	0.0177493
741.199	0.0174892
741.277	0.0175198
741.355	0.0175591
741.433	0.0174193
741.512	0.0174813
741.590	0.0175797
741.668	0.0176364
741.746	0.0176454
741.824	0.0174693
741.902	0.0176016
741.980	0.0176244
742.058	0.0176020
742.137	0.0177731
742.215	0.0177685
742.293	0.0177218
742.371	0.0178340
742.449	0.0178365
742.527	0.0179312
742.605	0.0180054
742.683	0.0181536
742.762	0.0181071
742.840	0.0180692
742.918	0.0178690
742.996	0.0181062
743.074	0.0181740
743.152	0.0181523
743.230	0.0182835
743.308	0.0179972
743.387	0.0181688
743.465	0.0181992
743.543	0.0182057
743.621	0.0180327
743.699	0.0180903
743.777	0.0180316
743.855	0.0179041
743.933	0.0181439
744.012	0.0181742
744.090	0.0179070
744.168	0.0179280
744.246	0.0178463
744.324	0.0178269
744.402	0.0178792
744.480	0.0177843
744.558	0.0176781
744.637	0.0178233
744.715	0.0177700
744.793	0.0178522
744.871	0.0176575
744.949	0.0176659
745.027	0.0177986
745.105	0.0177584
745.183	0.0176076
745.262	0.0176409
745.340	0.0176263
745.418	0.0176331
745.496	0.0176501
745.574	0.0177074
745.652	0.0176588
745.730	0.0177974
745.808	0.0176439
745.887	0.0176425
745.965	0.0176115
746.043	0.0176759
746.121	0.0176415
746.199	0.0175850
746.277	0.0174841
746.355	0.0175685
746.433	0.0176793
746.512	0.0177951
746.590	0.0176286
746.668	0.0177842
746.746	0.0176525
746.824	0.0177972
746.902	0.0178065
746.980	0.0179340
747.058	0.0178957
747.137	0.0176611
747.215	0.0179391
747.293	0.0179145
747.371	0.0180564
747.449	0.0180665
747.527	0.0180521
747.605	0.0181641
747.683	0.0180008
747.762	0.0179448
747.840	0.0180465
747.918	0.0180462
747.996	0.0180193
748.074	0.0180666
748.152	0.0179778
748.230	0.0178637
748.308	0.0177825
748.387	0.0177594
748.465	0.0177780
748.543	0.0176353
748.621	0.0177556
748.699	0.0176249
748.777	0.0175914
748.855	0.0176566
748.933	0.0176584
749.012	0.0177496
749.090	0.0176964
749.168	0.0177532
749.246	0.0177577
749.324	0.0178336
749.402	0.0177228
749.480	0.0177929
749.558	0.0178111
749.637	0.0178970
749.715	0.0178725
749.793	0.0178220
749.871	0.0179003
749.949	0.0180130
750.027	0.0178295
750.105	0.0179800
750.183	0.0180108
750.262	0.0180212
750.340	0.0179840
750.418	0.0179872
750.496	0.0179639
750.574	0.0181589
750.652	0.0179275
750.730	0.0179512
750.808	0.0180798
750.887	0.0179280
750.965	0.0178367
751.043	0.0178795
751.121	0.0179063
751.199	0.0176811
751.277	0.0176540
751.355	0.0175964
751.433	0.0176289
751.512	0.0178006
751.590	0.0176254
751.668	0.0175774
751.746	0.0174780
751.824	0.0174723
751.902	0.0175900
751.980	0.0173960
752.058	0.0174056
752.137	0.0174939
752.215	0.0174791
752.293	0.0177061
752.371	0.0176086
752.449	0.0176502
752.527	0.0177567
752.605	0.0177528
752.683	0.0176955
752.762	0.0177878
752.840	0.0178351
752.918	0.0179131
752.996	0.0178369
753.074	0.0180770
753.152	0.0178401
753.230	0.0180780
753.308	0.0181347
753.387	0.0180357
753.465	0.0179044
753.543	0.0179224
753.621	0.0178865
753.699	0.0178999
753.777	0.0180315
753.855	0.0179945
753.933	0.0178896
754.012	0.0178899
754.090	0.0179105
754.168	0.0177489
754.246	0.0176970
754.324	0.0176492
754.402	0.0178349
754.480	0.0178568
754.558	0.0178075
754.637	0.0177118
754.715	0.0177037
754.793	0.0178133
754.871	0.0176324
754.949	0.0178397
755.027	0.0177856
755.105	0.0175686
755.183	0.0176981
755.262	0.0177808
755.340	0.0177605
755.418	0.0178604
755.496	0.0176987
755.574	0.0177779
755.652	0.0178863
755.730	0.0178593
755.808	0.0180196
755.887	0.0179460
755.965	0.0179384
756.043	0.0180185
756.121	0.0178143
756.199	0.0179045
756.277	0.0179812
756.355	0.0179386
756.433	0.0179085
756.512	0.0178249
756.590	0.0179642
756.668	0.0179374
756.746	0.0179758
756.824	0.0178968
756.902	0.0178395
756.980	0.0176422
757.058	0.0178101
757.137	0.0178711
757.215	0.0176907
757.293	0.0176093
757.371	0.0177214
757.449	0.0178275
757.527	0.0176976
757.605	0.0177995
757.683	0.0177603
757.762	0.0178555
757.840	0.0178023
757.918	0.0177919
757.996	0.0177013
758.074	0.0178395
758.152	0.0178271
758.230	0.0178609
758.308	0.0178004
758.387	0.0179396
758.465	0.0179449
758.543	0.0178806
758.621	0.0177499
758.699	0.0178828
758.777	0.0179130
758.855	0.0178265
758.933	0.0179111
759.012	0.0178896
759.090	0.0179217
759.168	0.0179862
759.246	0.0178971
759.324	0.0179884
759.402	0.0181059
759.480	0.0178127
759.558	0.0179459
759.637	0.0178485
759.715	0.0178275
759.793	0.0179598
759.871	0.0177707
759.949	0.0178896
760.027	0.0179833
760.105	0.0178518
760.183	0.0178215
760.262	0.0179631
760.340	0.0177685
760.418	0.0177816
760.496	0.0177474
760.574	0.0176888
760.652	0.0177814
760.730	0.0178349
760.808	0.0176739
760.887	0.0177714
760.965	0.0178517
761.043	0.0177928
761.121	0.0178902
761.199	0.0177986
761.277	0.0180167
761.355	0.0180204
761.433	0.0178875
761.512	0.0180776
761.590	0.0181714
761.668	0.0178957
761.746	0.0179955
761.824	0.0180272
761.902	0.0179008
761.980	0.0180798
762.058	0.0181433
762.137	0.0180901
762.215	0.0179438
762.293	0.0179750
762.371	0.0180104
762.449	0.0180301
762.527	0.0179436
762.605	0.0178443
762.683	0.0178261
762.762	0.0179021
762.840	0.0178081
762.918	0.0178331
762.996	0.0178010
763.074	0.0177667
763.152	0.0177445
763.230	0.0177345
763.308	0.0177858
763.387	0.0177954
763.465	0.0178244
763.543	0.0178861
763.621	0.0178571
763.699	0.0179720
763.777	0.0178658
763.855	0.0179326
763.933	0.0180373
764.012	0.0179724
764.090	0.0179540
764.168	0.0178269
764.246	0.0177831
764.324	0.0179776
764.402	0.0177968
764.480	0.0179025
764.558	0.0178352
764.637	0.0178428
764.715	0.0178100
764.793	0.0178286
764.871	0.0178310
764.949	0.0178932
765.027	0.0178490
765.105	0.0178018
765.183	0.0177891
765.262	0.0177789
765.340	0.0178282
765.418	0.0178998
765.496	0.0177817
765.574	0.0178643
765.652	0.0178046
765.730	0.0177264
765.808	0.0177406
765.887	0.0176662
765.965	0.0178154
766.043	0.0176391
766.121	0.0177182
766.199	0.0176868
766.277	0.0178820
766.355	0.0176865
766.433	0.0177956
766.512	0.0178097
766.590	0.0179919
766.668	0.0177751
766.746	0.0179224
766.824	0.0178673
766.902	0.0179995
766.980	0.0180246
767.058	0.0180794
767.137	0.0180074
767.215	0.0180807
767.293	0.0179971
767.371	0.0180701
767.449	0.0181261
767.527	0.0180739
767.605	0.0180046
767.683	0.0178959
767.762	0.0178683
767.840	0.0180049
767.918	0.0178349
767.996	0.0179543
768.074	0.0178510
768.152	0.0176765
768.230	0.0178266
768.308	0.0176819
768.387	0.0176967
768.465	0.0177391
768.543	0.0177180
768.621	0.0178127
768.699	0.0177664
768.777	0.0177869
768.855	0.0178639
768.933	0.0179442
769.012	0.0177743
769.090	0.0179369
769.168	0.0179131
769.246	0.0180145
769.324	0.0178178
769.402	0.0178479
769.480	0.0181075
769.558	0.0179574
769.637	0.0179277
769.715	0.0178690
769.793	0.0179440
769.871	0.0179533
769.949	0.0179058
770.027	0.0178983
770.105	0.0177630
770.183	0.0176961
770.262	0.0178020
770.340	0.0179076
770.418	0.0178738
770.496	0.0178016
770.574	0.0177695
770.652	0.0178272
770.730	0.0177731
770.808	0.0177692
770.887	0.0178751
770.965	0.0177368
771.043	0.0178055
771.121	0.0179010
771.199	0.0178052
771.277	0.0178299
771.355	0.0178639
771.433	0.0178737
771.512	0.0177262
771.590	0.0178779
771.668	0.0178971
771.746	0.0177699
771.824	0.0177045
771.902	0.0178669
771.980	0.0177771
772.058	0.0178503
772.137	0.0177621
772.215	0.0177158
772.293	0.0177948
772.371	0.0177414
772.449	0.0178458
772.527	0.0179826
772.605	0.0177956
772.683	0.0178069
772.762	0.0177055
772.840	0.0178956
772.918	0.0176917
772.996	0.0177893
773.074	0.0178539
773.152	0.0177978
773.230	0.0177422
773.308	0.0177060
773.387	0.0177316
773.465	0.0176985
773.543	0.0176173
773.621	0.0175965
773.699	0.0176326
773.777	0.0176948
773.855	0.0176511
773.933	0.0174900
774.012	0.0175636
774.090	0.0175491
774.168	0.0175503
774.246	0.0176161
774.324	0.0175949
774.402	0.0176526
774.480	0.0176286
774.558	0.0176549
774.637	0.0178364
774.715	0.0175140
774.793	0.0175486
774.871	0.0175852
774.949	0.0176743
775.027	0.0176064
775.105	0.0176943
775.183	0.0175394
775.262	0.0175371
775.340	0.0178227
775.418	0.0176902
775.496	0.0177158
775.574	0.0178142
775.652	0.0176934
775.730	0.0176273
775.808	0.0175725
775.887	0.0177553
775.965	0.0178594
776.043	0.0177778
776.121	0.0178461
776.199	0.0177982
776.277	0.0177363
776.355	0.0177505
776.433	0.0178596
776.512	0.0178516
776.590	0.0178500
776.668	0.0178603
776.746	0.0177213
776.824	0.0178156
776.902	0.0178143
776.980	0.0177607
777.058	0.0176769
777.137	0.0177625
777.215	0.0178481
777.293	0.0177754
777.371	0.0177195
777.449	0.0177869
777.527	0.0176736
777.605	0.0177251
777.683	0.0177443
777.762	0.0176980
777.840	0.0177125
777.918	0.0176875
777.996	0.0174933
778.074	0.0174645
778.152	0.0174519
778.230	0.0176318
778.308	0.0176749
778.387	0.0176927
778.465	0.0177518
778.543	0.0176612
778.621	0.0178325
778.699	0.0177631
778.777	0.0178082
778.855	0.0176916
778.933	0.0178565
779.012	0.0178149
779.090	0.0177919
779.168	0.0178915
779.246	0.0179669
779.324	0.0176956
779.402	0.0178698
779.480	0.0178762
779.558	0.0179343
779.637	0.0178474
779.715	0.0179881
779.793	0.0179031
779.871	0.0177389
779.949	0.0178292
780.027	0.0177410
780.105	0.0178564
780.183	0.0179495
780.262	0.0178100
780.340	0.0178249
780.418	0.0178050
780.496	0.0178291
780.574	0.0178777
780.652	0.0175852
780.730	0.0177941
780.808	0.0178050
780.887	0.0178592
780.965	0.0177620
781.043	0.0178546
781.121	0.0176427
781.199	0.0178541
781.277	0.0177182
781.355	0.0177476
781.433	0.0178781
781.512	0.0177975
781.590	0.0178909
781.668	0.0179108
781.746	0.0179306
781.824	0.0178541
781.902	0.0179357
781.980	0.0178916
782.058	0.0179209
782.137	0.0179366
782.215	0.0179214
782.293	0.0179009
782.371	0.0179488
782.449	0.0180350
782.527	0.0178067
782.605	0.0178741
782.683	0.0178770
782.762	0.0179326
782.840	0.0178734
782.918	0.0178246
782.996	0.0178252
783.074	0.0178706
783.152	0.0177557
783.230	0.0178249
783.308	0.0177673
783.387	0.0177955
783.465	0.0178750
783.543	0.0177814
783.621	0.0177046
783.699	0.0177559
783.777	0.0179382
783.855	0.0178009
783.933	0.0178496
784.012	0.0178510
784.090	0.0176631
784.168	0.0177361
784.246	0.0177345
784.324	0.0177361
784.402	0.0177634
784.480	0.0177196
784.558	0.0177472
784.637	0.0176743
784.715	0.0177651
784.793	0.0176961
784.871	0.0176277
784.949	0.0177270
785.027	0.0176552
785.105	0.0176527
785.183	0.0177615
785.262	0.0176689
785.340	0.0176229
785.418	0.0176452
785.496	0.0176061
785.574	0.0176832
785.652	0.0176299
785.730	0.0175302
785.808	0.0176490
785.887	0.0176422
785.965	0.0177471
786.043	0.0178046
786.121	0.0178018
786.199	0.0176083
786.277	0.0177921
786.355	0.0177353
786.433	0.0178709
786.512	0.0177003
786.590	0.0177775
786.668	0.0176879
786.746	0.0177213
786.824	0.0178725
786.902	0.0179408
786.980	0.0177293
787.058	0.0178291
787.137	0.0178879
787.215	0.0179024
787.293	0.0179230
787.371	0.0179313
787.449	0.0178005
787.527	0.0178848
787.605	0.0179304
787.683	0.0178266
787.762	0.0179679
787.840	0.0178093
787.918	0.0178339
787.996	0.0179012
788.074	0.0178940
788.152	0.0178887
788.230	0.0178857
788.308	0.0178196
788.387	0.0177513
788.465	0.0177418
788.543	0.0177912
788.621	0.0177158
788.699	0.0177288
788.777	0.0177373
788.855	0.0176820
788.933	0.0176154
789.012	0.0177711
789.090	0.0176138
789.168	0.0174982
789.246	0.0175027
789.324	0.0176563
789.402	0.0175747
789.480	0.0175977
789.558	0.0176285
789.637	0.0174060
789.715	0.0176225
789.793	0.0176167
789.871	0.0176215
789.949	0.0176678
790.027	0.0176144
790.105	0.0177686
790.183	0.0176275
790.262	0.0177785
790.340	0.0176955
790.418	0.0177182
790.496	0.0177190
790.574	0.0179259
790.652	0.0177996
790.730	0.0177269
790.808	0.0176560
790.887	0.0178558
790.965	0.0177461
791.043	0.0177864
791.121	0.0178473
791.199	0.0177211
791.277	0.0177879
791.355	0.0177792
791.433	0.0178588
791.512	0.0178874
791.590	0.0177120
791.668	0.0177555
791.746	0.0179491
791.824	0.0179353
791.902	0.0178671
791.980	0.0177949
792.058	0.0177800
792.137	0.0177525
792.215	0.0177728
792.293	0.0177396
792.371	0.0178502
792.449	0.0178108
792.527	0.0178676
792.605	0.0178304
792.683	0.0178928
792.762	0.0177778
792.840	0.0176692
792.918	0.0177741
792.996	0.0177370
793.074	0.0177229
793.152	0.0177355
793.230	0.0177988
793.308	0.0177218
793.387	0.0178125
793.465	0.0177715
793.543	0.0177708
793.621	0.0177153
793.699	0.0177586
793.777	0.0178033
793.855	0.0178664
793.933	0.0178189
794.012	0.0178864
794.090	0.0177515
794.168	0.0177650
794.246	0.0179056
794.324	0.0178526
794.402	0.0178872
794.480	0.0177921
794.558	0.0178930
794.637	0.0179076
794.715	0.0179646
794.793	0.0177654
794.871	0.0178727
794.949	0.0177849
795.027	0.0178454
795.105	0.0179248
795.183	0.0178848
795.262	0.0178571
795.340	0.0178049
795.418	0.0176704
795.496	0.0177164
795.574	0.0177633
795.652	0.0177116
795.730	0.0177207
795.808	0.0176361
795.887	0.0177141
795.965	0.0177502
796.043	0.0176820
796.121	0.0176553
796.199	0.0176884
796.277	0.0178133
796.355	0.0176374
796.433	0.0178352
796.512	0.0176003
796.590	0.0176106
796.668	0.0175284
796.746	0.0176523
796.824	0.0177814
796.902	0.0177808
796.980	0.0178172
797.058	0.0177509
797.137	0.0177400
797.215	0.0178584
797.293	0.0178381
797.371	0.0178611
797.449	0.0178108
797.527	0.0177838
797.605	0.0179422
797.683	0.0178749
797.762	0.0179610
797.840	0.0178726
797.918	0.0178281
797.996	0.0178943
798.074	0.0179373
798.152	0.0179273
798.230	0.0178564
798.308	0.0178313
798.387	0.0178448
798.465	0.0178978
798.543	0.0178540
798.621	0.0178201
798.699	0.0179071
798.777	0.0178382
798.855	0.0177506
798.933	0.0178180
799.012	0.0178568
799.090	0.0177450
799.168	0.0178110
799.246	0.0176553
799.324	0.0176788
799.402	0.0177531
799.480	0.0178072
799.558	0.0177785
799.637	0.0177293
799.715	0.0177078
799.793	0.0176876
799.871	0.0177056
799.949	0.0176369
800.027	0.0178091
800.105	0.0177102
800.183	0.0177440
800.262	0.0176160
800.340	0.0177781
800.418	0.0177023
800.496	0.0177927
800.574	0.0177632
800.652	0.0176518
800.730	0.0177509
800.808	0.0178010
800.887	0.0176532
800.965	0.0177583
801.043	0.0178178
801.121	0.0177280
801.199	0.0177040
801.277	0.0177816
801.355	0.0178211
801.433	0.0177551
801.512	0.0176080
801.590	0.0176078
801.668	0.0175597
801.746	0.0177437
801.824	0.0178788
801.902	0.0177953
801.980	0.0177840
802.058	0.0176815
802.137	0.0177955
802.215	0.0178191
802.293	0.0178972
802.371	0.0177316
802.449	0.0176534
802.527	0.0177546
802.605	0.0177231
802.683	0.0178391
802.762	0.0177396
802.840	0.0178326
802.918	0.0178960
802.996	0.0177947
803.074	0.0179964
803.152	0.0177445
803.230	0.0179776
803.308	0.0178892
803.387	0.0179911
803.465	0.0179688
803.543	0.0178333
803.621	0.0179745
803.699	0.0178983
803.777	0.0179995
803.855	0.0180050
803.933	0.0178985
804.012	0.0179764
804.090	0.0179723
804.168	0.0179841
804.246	0.0179607
804.324	0.0178855
804.402	0.0179401
804.480	0.0179781
804.558	0.0178324
804.637	0.0178758
804.715	0.0178539
804.793	0.0179694
804.871	0.0177699
804.949	0.0177693
805.027	0.0178522
805.105	0.0178073
805.183	0.0179047
805.262	0.0177885
805.340	0.0178396
805.418	0.0177522
805.496	0.0177209
805.574	0.0178231
805.652	0.0177843
805.730	0.0177251
805.808	0.0179028
805.887	0.0178321
805.965	0.0176237
806.043	0.0178028
806.121	0.0177666
806.199	0.0179085
806.277	0.0177657
806.355	0.0178892
806.433	0.0178521
806.512	0.0177866
806.590	0.0177993
806.668	0.0179270
806.746	0.0178554
806.824	0.0179333
806.902	0.0177349
806.980	0.0177732
807.058	0.0178445
807.137	0.0178120
807.215	0.0178415
807.293	0.0178851
807.371	0.0178266
807.449	0.0180164
807.527	0.0178846
807.605	0.0176626
807.683	0.0177990
807.762	0.0178697
807.840	0.0178607
807.918	0.0178337
807.996	0.0178159
808.074	0.0178655
808.152	0.0177840
808.230	0.0178733
808.308	0.0177209
808.387	0.0177797
808.465	0.0176651
808.543	0.0177229
808.621	0.0176802
808.699	0.0178678
808.777	0.0177838
808.855	0.0178410
808.933	0.0179040
809.012	0.0178712
809.090	0.0177564
809.168	0.0177742
809.246	0.0179371
809.324	0.0179580
809.402	0.0177964
809.480	0.0177957
809.558	0.0177450
809.637	0.0176195
809.715	0.0177670
809.793	0.0178793
809.871	0.0177946
809.949	0.0177639
810.027	0.0178146
810.105	0.0177122
810.183	0.0176814
810.262	0.0176790
810.340	0.0176820
810.418	0.0176866
810.496	0.0176671
810.574	0.0175646
810.652	0.0175910
810.730	0.0175434
810.808	0.0176794
810.887	0.0176589
810.965	0.0176884
811.043	0.0176801
811.121	0.0176585
811.199	0.0177353
811.277	0.0176529
811.355	0.0177197
811.433	0.0178261
811.512	0.0178577
811.590	0.0177724
811.668	0.0177145
811.746	0.0177203
811.824	0.0179278
811.902	0.0179619
811.980	0.0177690
812.058	0.0177251
812.137	0.0177299
812.215	0.0177444
812.293	0.0178455
812.371	0.0178168
812.449	0.0177002
812.527	0.0177679
812.605	0.0178529
812.683	0.0177734
812.762	0.0176177
812.840	0.0177241
812.918	0.0176615
812.996	0.0178028
813.074	0.0176379
813.152	0.0176071
813.230	0.0176219
813.308	0.0177577
813.387	0.0176245
813.465	0.0176598
813.543	0.0176247
813.621	0.0175372
813.699	0.0175142
813.777	0.0175058
813.855	0.0175909
813.933	0.0176360
814.012	0.0177195
814.090	0.0176408
814.168	0.0176671
814.246	0.0176655
814.324	0.0176821
814.402	0.0176934
814.480	0.0178362
814.558	0.0178719
814.637	0.0177522
814.715	0.0177990
814.793	0.0178653
814.871	0.0177464
814.949	0.0177587
815.027	0.0177852
815.105	0.0178236
815.183	0.0177473
815.262	0.0176007
815.340	0.0177002
815.418	0.0177324
815.496	0.0177728
815.574	0.0178778
815.652	0.0176631
815.730	0.0179238
815.808	0.0177414
815.887	0.0177409
815.965	0.0177233
816.043	0.0178745
816.121	0.0178564
816.199	0.0176772
816.277	0.0178194
816.355	0.0177489
816.433	0.0179021
816.512	0.0178627
816.590	0.0179395
816.668	0.0179289
816.746	0.0178590
816.824	0.0176463
816.902	0.0179806
816.980	0.0179348
817.058	0.0179474
817.137	0.0179431
817.215	0.0178940
817.293	0.0178303
817.371	0.0178310
817.449	0.0179201
817.527	0.0178403
817.605	0.0177839
817.683	0.0177981
817.762	0.0179422
817.840	0.0178925
817.918	0.0178217
817.996	0.0178172
818.074	0.0177866
818.152	0.0178258
818.230	0.0177190
818.308	0.0176964
818.387	0.0178532
818.465	0.0177677
818.543	0.0178905
818.621	0.0177757
818.699	0.0177964
818.777	0.0177576
818.855	0.0176743
818.933	0.0178878
819.012	0.0177340
819.090	0.0178039
819.168	0.0178345
819.246	0.0178259
819.324	0.0176915
819.402	0.0177225
819.480	0.0177019
819.558	0.0177475
819.637	0.0177271
819.715	0.0176829
819.793	0.0177044
819.871	0.0177106
819.949	0.0176791
820.027	0.0178153
820.105	0.0177720
820.183	0.0177027
820.262	0.0176683
820.340	0.0177421
820.418	0.0176776
820.496	0.0176672
820.574	0.0177621
820.652	0.0177860
820.730	0.0177958
820.808	0.0177399
820.887	0.0177107
820.965	0.0177653
821.043	0.0178396
821.121	0.0178499
821.199	0.0177294
821.277	0.0178238
821.355	0.0177797
821.433	0.0177734
821.512	0.0178195
821.590	0.0177470
821.668	0.0177084
821.746	0.0176858
821.824	0.0177145
821.902	0.0177340
821.980	0.0178290
822.058	0.0177816
822.137	0.0177068
822.215	0.0177902
822.293	0.0177447
822.371	0.0177676
822.449	0.0178301
822.527	0.0178027
822.605	0.0178436
822.683	0.0178031
822.762	0.0179459
822.840	0.0177966
822.918	0.0178521
822.996	0.0179592
823.074	0.0178783
823.152	0.0178486
823.230	0.0179282
823.308	0.0179134
823.387	0.0176992
823.465	0.0176355
823.543	0.0177248
823.621	0.0177866
823.699	0.0178614
823.777	0.0178397
823.855	0.0176746
823.933	0.0176293
824.012	0.0177261
824.090	0.0177858
824.168	0.0177355
824.246	0.0176585
824.324	0.0177629
824.402	0.0177637
824.480	0.0177308
824.558	0.0178024
824.637	0.0175703
824.715	0.0177223
824.793	0.0177894
824.871	0.0178011
824.949	0.0176736
825.027	0.0176007
825.105	0.0178530
825.183	0.0178179
825.262	0.0178848
825.340	0.0178293
825.418	0.0178083
825.496	0.0178235
825.574	0.0178274
825.652	0.0179253
825.730	0.0178864
825.808	0.0180408
825.887	0.0178838
825.965	0.0178222
826.043	0.0178946
826.121	0.0179399
826.199	0.0177454
826.277	0.0178811
826.355	0.0179287
826.433	0.0178100
826.512	0.0179565
826.590	0.0179635
826.668	0.0178025
826.746	0.0177283
826.824	0.0177360
826.902	0.0178215
826.980	0.0178118
827.058	0.0179007
827.137	0.0178535
827.215	0.0178136
827.293	0.0178794
827.371	0.0178412
827.449	0.0179145
827.527	0.0178821
827.605	0.0178679
827.683	0.0177792
827.762	0.0178654
827.840	0.0178902
827.918	0.0178317
827.996	0.0178859
828.074	0.0179380
828.152	0.0178573
828.230	0.0178606
828.308	0.0179060
828.387	0.0177645
828.465	0.0178410
828.543	0.0179395
828.621	0.0179661
828.699	0.0179924
828.777	0.0180251
828.855	0.0178983
828.933	0.0179118
829.012	0.0179876
829.090	0.0180026
829.168	0.0179706
829.246	0.0179881
829.324	0.0180224
829.402	0.0180098
829.480	0.0178860
829.558	0.0179354
829.637	0.0179700
829.715	0.0178486
829.793	0.0178213
829.871	0.0178545
829.949	0.0179704
830.027	0.0179680
830.105	0.0178536
830.183	0.0178763
830.262	0.0179028
830.340	0.0177976
830.418	0.0178373
830.496	0.0177307
830.574	0.0179352
830.652	0.0177466
830.730	0.0178806
830.808	0.0176892
830.887	0.0177432
830.965	0.0177048
831.043	0.0177706
831.121	0.0177982
831.199	0.0179260
831.277	0.0177531
831.355	0.0177921
831.433	0.0179194
831.512	0.0178895
831.590	0.0178583
831.668	0.0177734
831.746	0.0177956
831.824	0.0179404
831.902	0.0179371
831.980	0.0179060
832.058	0.0179070
832.137	0.0177248
832.215	0.0178651
832.293	0.0178539
832.371	0.0178024
832.449	0.0177090
832.527	0.0177779
832.605	0.0178363
832.683	0.0177823
832.762	0.0177137
832.840	0.0176868
832.918	0.0176971
832.996	0.0177042
833.074	0.0176727
833.152	0.0176724
833.230	0.0176670
833.308	0.0177039
833.387	0.0176698
833.465	0.0177922
833.543	0.0177776
833.621	0.0177518
833.699	0.0177341
833.777	0.0178690
833.855	0.0179137
833.933	0.0178222
834.012	0.0180054
834.090	0.0178359
834.168	0.0176633
834.246	0.0177899
834.324	0.0179273
834.402	0.0179046
834.480	0.0177580
834.558	0.0178304
834.637	0.0177331
834.715	0.0177711
834.793	0.0177701
834.871	0.0177337
834.949	0.0178009
835.027	0.0176921
835.105	0.0177299
835.183	0.0177780
835.262	0.0177350
835.340	0.0176152
835.418	0.0176926
835.496	0.0177698
835.574	0.0177054
835.652	0.0177996
835.730	0.0177471
835.808	0.0178026
835.887	0.0177401
835.965	0.0178144
836.043	0.0178506
836.121	0.0178370
836.199	0.0178054
836.277	0.0178731
836.355	0.0179235
836.433	0.0178611
836.512	0.0178758
836.590	0.0179945
836.668	0.0179185
836.746	0.0178288
836.824	0.0179331
836.902	0.0179302
836.980	0.0180565
837.058	0.0178720
837.137	0.0179965
837.215	0.0179462
837.293	0.0178008
837.371	0.0177723
837.449	0.0179637
837.527	0.0179630
837.605	0.0178465
837.683	0.0178074
837.762	0.0177959
837.840	0.0179146
837.918	0.0177111
837.996	0.0177489
838.074	0.0178171
838.152	0.0176883
838.230	0.0177869
838.308	0.0175648
838.387	0.0178571
838.465	0.0177959
838.543	0.0178320
838.621	0.0177222
838.699	0.0177200
838.777	0.0178521
838.855	0.0177506
838.933	0.0177208
839.012	0.0177084
839.090	0.0177053
839.168	0.0177548
839.246	0.0177502
839.324	0.0177819
839.402	0.0178816
839.480	0.0178099
839.558	0.0178535
839.637	0.0178624
839.715	0.0179261
839.793	0.0178277
839.871	0.0176698
839.949	0.0178709
840.027	0.0178902
840.105	0.0178952
840.183	0.0178960
840.262	0.0178943
840.340	0.0177877
840.418	0.0178291
840.496	0.0178649
840.574	0.0178683
840.652	0.0179029
840.730	0.0179368
840.808	0.0178754
840.887	0.0178588
840.965	0.0178368
841.043	0.0178983
841.121	0.0177979
841.199	0.0177918
841.277	0.0178716
841.355	0.0178741
841.433	0.0178399
841.512	0.0178678
841.590	0.0177281
841.668	0.0178318
841.746	0.0178022
841.824	0.0176363
841.902	0.0178573
841.980	0.0177969
842.058	0.0178359
842.137	0.0177474
842.215	0.0178587
842.293	0.0178496
842.371	0.0177271
842.449	0.0177072
842.527	0.0177627
842.605	0.0177496
842.683	0.0178373
842.762	0.0177102
842.840	0.0176911
842.918	0.0176965
842.996	0.0177191
843.074	0.0177940
843.152	0.0176745
843.230	0.0177209
843.308	0.0177957
843.387	0.0178325
843.465	0.0176020
843.543	0.0176949
843.621	0.0177499
843.699	0.0177670
843.777	0.0178120
843.855	0.0177983
843.933	0.0178564
844.012	0.0176221
844.090	0.0176098
844.168	0.0176459
844.246	0.0176613
844.324	0.0179124
844.402	0.0177297
844.480	0.0177542
844.558	0.0178561
844.637	0.0178412
844.715	0.0178046
844.793	0.0177299
844.871	0.0177758
844.949	0.0178235
845.027	0.0179493
845.105	0.0178009
845.183	0.0179693
845.262	0.0179953
845.340	0.0177479
845.418	0.0178925
845.496	0.0179036
845.574	0.0179613
845.652	0.0179221
845.730	0.0180077
845.808	0.0178848
845.887	0.0177916
845.965	0.0179531
846.043	0.0179704
846.121	0.0178080
846.199	0.0178319
846.277	0.0177946
846.355	0.0179487
846.433	0.0179366
846.512	0.0177303
846.590	0.0177796
846.668	0.0178304
846.746	0.0178001
846.824	0.0177412
846.902	0.0176795
846.980	0.0177300
847.058	0.0176445
847.137	0.0176498
847.215	0.0177219
847.293	0.0177290
847.371	0.0176630
847.449	0.0176939
847.527	0.0176199
847.605	0.0176610
847.683	0.0177923
847.762	0.0177573
847.840	0.0177020
847.918	0.0177557
847.996	0.0178397
848.074	0.0178158
848.152	0.0178135
848.230	0.0177502
848.308	0.0178072
848.387	0.0178394
848.465	0.0177839
848.543	0.0179170
848.621	0.0178413
848.699	0.0179022
848.777	0.0179084
848.855	0.0178650
848.933	0.0177214
849.012	0.0178066
849.090	0.0177333
849.168	0.0179420
849.246	0.0177149
849.324	0.0177694
849.402	0.0180003
849.480	0.0178337
849.558	0.0178036
849.637	0.0179111
849.715	0.0178818
849.793	0.0177853
849.871	0.0177862
849.949	0.0177735
850.027	0.0178267
850.105	0.0177940
850.183	0.0177520
850.262	0.0178423
850.340	0.0178317
850.418	0.0177786
850.496	0.0178712
850.574	0.0177791
850.652	0.0178084
850.730	0.0177464
850.808	0.0177536
850.887	0.0178152
850.965	0.0177965
851.043	0.0177229
851.121	0.0178424
851.199	0.0176353
851.277	0.0177924
851.355	0.0176276
851.433	0.0177361
851.512	0.0178282
851.590	0.0179174
851.668	0.0178143
851.746	0.0177568
851.824	0.0177870
851.902	0.0178333
851.980	0.0178097
852.058	0.0177628
852.137	0.0175925
852.215	0.0179063
852.293	0.0177726
852.371	0.0177353
852.449	0.0178204
852.527	0.0178608
852.605	0.0177997
852.683	0.0177409
852.762	0.0177287
852.840	0.0177904
852.918	0.0179105
852.996	0.0178228
853.074	0.0178529
853.152	0.0178165
853.230	0.0177354
853.308	0.0177396
853.387	0.0177654
853.465	0.0179541
853.543	0.0176021
853.621	0.0177889
853.699	0.0177879
853.777	0.0178248
853.855	0.0177925
853.933	0.0177962
854.012	0.0178844
854.090	0.0178829
854.168	0.0178383
854.246	0.0177998
854.324	0.0178823
854.402	0.0178342
854.480	0.0177682
854.558	0.0178106
854.637	0.0178836
854.715	0.0179272
854.793	0.0177380
854.871	0.0178228
854.949	0.0178801
855.027	0.0178696
855.105	0.0177610
855.183	0.0177547
855.262	0.0178793
855.340	0.0177824
855.418	0.0177809
855.496	0.0178383
855.574	0.0177280
855.652	0.0177254
855.730	0.0175773
855.808	0.0177389
855.887	0.0178078
855.965	0.0177069
856.043	0.0177144
856.121	0.0178060
856.199	0.0176796
856.277	0.0178355
856.355	0.0177883
856.433	0.0176557
856.512	0.0177343
856.590	0.0179362
856.668	0.0178863
856.746	0.0176307
856.824	0.0177723
856.902	0.0177682
856.980	0.0177751
857.058	0.0178967
857.137	0.0177465
857.215	0.0177428
857.293	0.0177651
857.371	0.0178115
857.449	0.0178636
857.527	0.0178363
857.605	0.0177935
857.683	0.0177477
857.762	0.0176653
857.840	0.0177249
857.918	0.0179858
857.996	0.0178614
858.074	0.0177441
858.152	0.0177506
858.230	0.0178995
858.308	0.0179295
858.387	0.0178457
858.465	0.0175732
858.543	0.0177795
858.621	0.0177196
858.699	0.0178109
858.777	0.0178861
858.855	0.0177869
858.933	0.0177360
859.012	0.0178501
859.090	0.0178162
859.168	0.0178702
859.246	0.0178696
859.324	0.0177872
859.402	0.0178108
859.480	0.0178965
859.558	0.0178221
859.637	0.0178465
859.715	0.0177934
859.793	0.0177712
859.871	0.0177911
859.949	0.0179027
860.027	0.0179055
860.105	0.0177489
860.183	0.0179255
860.262	0.0178171
860.340	0.0179366
860.418	0.0177771
860.496	0.0179974
860.574	0.0178440
860.652	0.0177352
860.730	0.0178940
860.808	0.0179602
860.887	0.0178614
860.965	0.0177835
861.043	0.0179298
861.121	0.0179144
861.199	0.0180260
861.277	0.0179093
861.355	0.0179745
861.433	0.0179610
861.512	0.0179964
861.590	0.0179145
861.668	0.0180387
861.746	0.0180344
861.824	0.0179094
861.902	0.0180605
861.980	0.0179647
862.058	0.0179929
862.137	0.0179262
862.215	0.0178845
862.293	0.0178625
862.371	0.0178918
862.449	0.0178514
862.527	0.0177879
862.605	0.0178414
862.683	0.0178028
862.762	0.0177168
862.840	0.0177554
862.918	0.0177363
862.996	0.0179121
863.074	0.0178888
863.152	0.0178597
863.230	0.0177725
863.308	0.0177136
863.387	0.0177562
863.465	0.0177569
863.543	0.0177066
863.621	0.0178525
863.699	0.0177619
863.777	0.0177746
863.855	0.0178584
863.933	0.0178440
864.012	0.0177152
864.090	0.0179265
864.168	0.0178555
864.246	0.0177908
864.324	0.0177238
864.402	0.0179253
864.480	0.0179175
864.558	0.0178548
864.637	0.0180141
864.715	0.0178770
864.793	0.0177134
864.871	0.0178580
864.949	0.0178444
865.027	0.0179102
865.105	0.0179156
865.183	0.0179603
865.262	0.0178343
865.340	0.0177423
865.418	0.0178934
865.496	0.0178073
865.574	0.0178822
865.652	0.0178393
865.730	0.0176882
865.808	0.0177644
865.887	0.0179214
865.965	0.0178043
866.043	0.0176880
866.121	0.0177670
866.199	0.0178203
866.277	0.0178424
866.355	0.0178194
866.433	0.0177639
866.512	0.0179163
866.590	0.0177751
866.668	0.0178661
866.746	0.0177605
866.824	0.0179006
866.902	0.0177174
866.980	0.0178038
867.058	0.0177932
867.137	0.0177154
867.215	0.0177964
867.293	0.0178476
867.371	0.0178338
867.449	0.0178221
867.527	0.0177183
867.605	0.0178356
867.683	0.0177371
867.762	0.0177393
867.840	0.0177847
867.918	0.0177557
867.996	0.0177786
868.074	0.0177793
868.152	0.0179564
868.230	0.0178304
868.308	0.0177567
868.387	0.0178379
868.465	0.0178997
868.543	0.0177237
868.621	0.0176974
868.699	0.0178182
868.777	0.0177732
868.855	0.0177655
868.933	0.0178487
869.012	0.0176821
869.090	0.0177559
869.168	0.0177406
869.246	0.0176752
869.324	0.0177814
869.402	0.0177911
869.480	0.0178379
869.558	0.0178200
869.637	0.0177398
869.715	0.0175394
869.793	0.0177917
869.871	0.0177188
869.949	0.0177483
