06/03/2022	18:33:44	Ver.	4.1	UNKNOWN
Optical Delay	550.027179	Delta X		0.078125	Sweeps	1	Scan Rate	0/0
Coordinates	Axis 1	NaN	Axis 2	NaN	Axis 3	NaN	Axis 4	NaN	Axis 5	NaN	Axis 6	0.000000
TX Power	0.000000	RX Power	0.000000

550.027	0.0178247
550.105	0.0179136
550.183	0.0179357
550.262	0.0177598
550.340	0.0178385
550.418	0.0178771
550.496	0.0178183
550.574	0.0178151
550.652	0.0178123
550.730	0.0179078
550.808	0.0178421
550.887	0.0177464
550.965	0.0178036
551.043	0.0178153
551.121	0.0179050
551.199	0.0177660
551.277	0.0179577
551.355	0.0178262
551.433	0.0178698
551.512	0.0177914
551.590	0.0178221
551.668	0.0179961
551.746	0.0179259
551.824	0.0179003
551.902	0.0179090
551.980	0.0178802
552.058	0.0179653
552.137	0.0178857
552.215	0.0178809
552.293	0.0178018
552.371	0.0179873
552.449	0.0179145
552.527	0.0178531
552.605	0.0178361
552.683	0.0179095
552.762	0.0179393
552.840	0.0177000
552.918	0.0178399
552.996	0.0179039
553.074	0.0178454
553.152	0.0177784
553.230	0.0178753
553.308	0.0178623
553.387	0.0178141
553.465	0.0178698
553.543	0.0177251
553.621	0.0178639
553.699	0.0177744
553.777	0.0177586
553.855	0.0178117
553.933	0.0179189
554.012	0.0178916
554.090	0.0177689
554.168	0.0177303
554.246	0.0178524
554.324	0.0179049
554.402	0.0178366
554.480	0.0177507
554.558	0.0177703
554.637	0.0177867
554.715	0.0178012
554.793	0.0178302
554.871	0.0178201
554.949	0.0177531
555.027	0.0176965
555.105	0.0178019
555.183	0.0179246
555.262	0.0177681
555.340	0.0178527
555.418	0.0179060
555.496	0.0177442
555.574	0.0178809
555.652	0.0178805
555.730	0.0179156
555.808	0.0178336
555.887	0.0177553
555.965	0.0179668
556.043	0.0177821
556.121	0.0178886
556.199	0.0179003
556.277	0.0178605
556.355	0.0179279
556.433	0.0178519
556.512	0.0176965
556.590	0.0178107
556.668	0.0177386
556.746	0.0177991
556.824	0.0177205
556.902	0.0180154
556.980	0.0178802
557.058	0.0179049
557.137	0.0179201
557.215	0.0179242
557.293	0.0177586
557.371	0.0179013
557.449	0.0178933
557.527	0.0178559
557.605	0.0177481
557.683	0.0177519
557.762	0.0177543
557.840	0.0177663
557.918	0.0177754
557.996	0.0178252
558.074	0.0178049
558.152	0.0178351
558.230	0.0178381
558.308	0.0177517
558.387	0.0177609
558.465	0.0178431
558.543	0.0178863
558.621	0.0177429
558.699	0.0177487
558.777	0.0177105
558.855	0.0177866
558.933	0.0177607
559.012	0.0177247
559.090	0.0176640
559.168	0.0178383
559.246	0.0178403
559.324	0.0176825
559.402	0.0178520
559.480	0.0177913
559.558	0.0177177
559.637	0.0177673
559.715	0.0178876
559.793	0.0177957
559.871	0.0177255
559.949	0.0176273
560.027	0.0179334
560.105	0.0178591
560.183	0.0178186
560.262	0.0178088
560.340	0.0178673
560.418	0.0177397
560.496	0.0176781
560.574	0.0177858
560.652	0.0177246
560.730	0.0178064
560.808	0.0177114
560.887	0.0177747
560.965	0.0177541
561.043	0.0176463
561.121	0.0178045
561.199	0.0179075
561.277	0.0177221
561.355	0.0178236
561.433	0.0177549
561.512	0.0177635
561.590	0.0178320
561.668	0.0178156
561.746	0.0177936
561.824	0.0179182
561.902	0.0176914
561.980	0.0177109
562.058	0.0178214
562.137	0.0178596
562.215	0.0177816
562.293	0.0178356
562.371	0.0176955
562.449	0.0177815
562.527	0.0180785
562.605	0.0177695
562.683	0.0178191
562.762	0.0179069
562.840	0.0178878
562.918	0.0176644
562.996	0.0179067
563.074	0.0179269
563.152	0.0178140
563.230	0.0177886
563.308	0.0177850
563.387	0.0178246
563.465	0.0180553
563.543	0.0177449
563.621	0.0178432
563.699	0.0178516
563.777	0.0179346
563.855	0.0178906
563.933	0.0179344
564.012	0.0178076
564.090	0.0179270
564.168	0.0178926
564.246	0.0177738
564.324	0.0180006
564.402	0.0179345
564.480	0.0179406
564.558	0.0177352
564.637	0.0178081
564.715	0.0179955
564.793	0.0179393
564.871	0.0178889
564.949	0.0179267
565.027	0.0180659
565.105	0.0178891
565.183	0.0180804
565.262	0.0180085
565.340	0.0179877
565.418	0.0179447
565.496	0.0180528
565.574	0.0180653
565.652	0.0179506
565.730	0.0180185
565.808	0.0180099
565.887	0.0181352
565.965	0.0180135
566.043	0.0180681
566.121	0.0179771
566.199	0.0180205
566.277	0.0180448
566.355	0.0180721
566.433	0.0180698
566.512	0.0180646
566.590	0.0180165
566.668	0.0181004
566.746	0.0180884
566.824	0.0180853
566.902	0.0179543
566.980	0.0180311
567.058	0.0182101
567.137	0.0180338
567.215	0.0179563
567.293	0.0180524
567.371	0.0178847
567.449	0.0179285
567.527	0.0179016
567.605	0.0179693
567.683	0.0178622
567.762	0.0178313
567.840	0.0178910
567.918	0.0180154
567.996	0.0179659
568.074	0.0180757
568.152	0.0179688
568.230	0.0178675
568.308	0.0178749
568.387	0.0179085
568.465	0.0178983
568.543	0.0178478
568.621	0.0178663
568.699	0.0179824
568.777	0.0178336
568.855	0.0178327
568.933	0.0178866
569.012	0.0178123
569.090	0.0178426
569.168	0.0176976
569.246	0.0178527
569.324	0.0180379
569.402	0.0178949
569.480	0.0178394
569.558	0.0178754
569.637	0.0178477
569.715	0.0178050
569.793	0.0178741
569.871	0.0179263
569.949	0.0179134
570.027	0.0179014
570.105	0.0178320
570.183	0.0178574
570.262	0.0179281
570.340	0.0178594
570.418	0.0177580
570.496	0.0179430
570.574	0.0178415
570.652	0.0176493
570.730	0.0177652
570.808	0.0177541
570.887	0.0176137
570.965	0.0178538
571.043	0.0176965
571.121	0.0177660
571.199	0.0177570
571.277	0.0178916
571.355	0.0178864
571.433	0.0178421
571.512	0.0178213
571.590	0.0177978
571.668	0.0178678
571.746	0.0177898
571.824	0.0178036
571.902	0.0177635
571.980	0.0179127
572.058	0.0177047
572.137	0.0178194
572.215	0.0178588
572.293	0.0178268
572.371	0.0177943
572.449	0.0178210
572.527	0.0178480
572.605	0.0178021
572.683	0.0178075
572.762	0.0177789
572.840	0.0179909
572.918	0.0178999
572.996	0.0178235
573.074	0.0177917
573.152	0.0179482
573.230	0.0178209
573.308	0.0178728
573.387	0.0178233
573.465	0.0179149
573.543	0.0178480
573.621	0.0178549
573.699	0.0180330
573.777	0.0179122
573.855	0.0179002
573.933	0.0179056
574.012	0.0178403
574.090	0.0179932
574.168	0.0179243
574.246	0.0179468
574.324	0.0179681
574.402	0.0180682
574.480	0.0179004
574.558	0.0178858
574.637	0.0179488
574.715	0.0179778
574.793	0.0178976
574.871	0.0180529
574.949	0.0180745
575.027	0.0180173
575.105	0.0180602
575.183	0.0180603
575.262	0.0180914
575.340	0.0181226
575.418	0.0180390
575.496	0.0180389
575.574	0.0181113
575.652	0.0181394
575.730	0.0180114
575.808	0.0180273
575.887	0.0181450
575.965	0.0180801
576.043	0.0180850
576.121	0.0179648
576.199	0.0180463
576.277	0.0180510
576.355	0.0180985
576.433	0.0179531
576.512	0.0179631
576.590	0.0179652
576.668	0.0180627
576.746	0.0179013
576.824	0.0180243
576.902	0.0180766
576.980	0.0180354
577.058	0.0179347
577.137	0.0178551
577.215	0.0177953
577.293	0.0178359
577.371	0.0179892
577.449	0.0179583
577.527	0.0180296
577.605	0.0179368
577.683	0.0179936
577.762	0.0179540
577.840	0.0178979
577.918	0.0178538
577.996	0.0179418
578.074	0.0178798
578.152	0.0178510
578.230	0.0178663
578.308	0.0178854
578.387	0.0178241
578.465	0.0178630
578.543	0.0179863
578.621	0.0178175
578.699	0.0179211
578.777	0.0179896
578.855	0.0180116
578.933	0.0179114
579.012	0.0178238
579.090	0.0177837
579.168	0.0177881
579.246	0.0178264
579.324	0.0178807
579.402	0.0177569
579.480	0.0179250
579.558	0.0177930
579.637	0.0180179
579.715	0.0179339
579.793	0.0178466
579.871	0.0179205
579.949	0.0177902
580.027	0.0178997
580.105	0.0179472
580.183	0.0177985
580.262	0.0179008
580.340	0.0179506
580.418	0.0178411
580.496	0.0179136
580.574	0.0178747
580.652	0.0179115
580.730	0.0179064
580.808	0.0178397
580.887	0.0178860
580.965	0.0178941
581.043	0.0178895
581.121	0.0179774
581.199	0.0177971
581.277	0.0177258
581.355	0.0178613
581.433	0.0179497
581.512	0.0178233
581.590	0.0178806
581.668	0.0178724
581.746	0.0177395
581.824	0.0178011
581.902	0.0177599
581.980	0.0177486
582.058	0.0177360
582.137	0.0178321
582.215	0.0178057
582.293	0.0178768
582.371	0.0179189
582.449	0.0179238
582.527	0.0178192
582.605	0.0178228
582.683	0.0178378
582.762	0.0178521
582.840	0.0179651
582.918	0.0179842
582.996	0.0178528
583.074	0.0179243
583.152	0.0177802
583.230	0.0179561
583.308	0.0179035
583.387	0.0179004
583.465	0.0178283
583.543	0.0178403
583.621	0.0179087
583.699	0.0178611
583.777	0.0178040
583.855	0.0178045
583.933	0.0178686
584.012	0.0180038
584.090	0.0177922
584.168	0.0177845
584.246	0.0180238
584.324	0.0179790
584.402	0.0177639
584.480	0.0178947
584.558	0.0178363
584.637	0.0179228
584.715	0.0178522
584.793	0.0179256
584.871	0.0179565
584.949	0.0178703
585.027	0.0179810
585.105	0.0180978
585.183	0.0179407
585.262	0.0178345
585.340	0.0180135
585.418	0.0178286
585.496	0.0178605
585.574	0.0178296
585.652	0.0179476
585.730	0.0179981
585.808	0.0178208
585.887	0.0179001
585.965	0.0178793
586.043	0.0179525
586.121	0.0178753
586.199	0.0178891
586.277	0.0179679
586.355	0.0180191
586.433	0.0179965
586.512	0.0178133
586.590	0.0178334
586.668	0.0179221
586.746	0.0179408
586.824	0.0179478
586.902	0.0179065
586.980	0.0179802
587.058	0.0178278
587.137	0.0178100
587.215	0.0180207
587.293	0.0178650
587.371	0.0179073
587.449	0.0178700
587.527	0.0177362
587.605	0.0179016
587.683	0.0177672
587.762	0.0178522
587.840	0.0179350
587.918	0.0178288
587.996	0.0178076
588.074	0.0179385
588.152	0.0178584
588.230	0.0178978
588.308	0.0178600
588.387	0.0179159
588.465	0.0178404
588.543	0.0179705
588.621	0.0178751
588.699	0.0178216
588.777	0.0178679
588.855	0.0178719
588.933	0.0179430
589.012	0.0178192
589.090	0.0177250
589.168	0.0178352
589.246	0.0179651
589.324	0.0178889
589.402	0.0179407
589.480	0.0178059
589.558	0.0178638
589.637	0.0178033
589.715	0.0179131
589.793	0.0179338
589.871	0.0180296
589.949	0.0179129
590.027	0.0177769
590.105	0.0178981
590.183	0.0179474
590.262	0.0180167
590.340	0.0177865
590.418	0.0179837
590.496	0.0178927
590.574	0.0179832
590.652	0.0179391
590.730	0.0179420
590.808	0.0179227
590.887	0.0179078
590.965	0.0177975
591.043	0.0178572
591.121	0.0179499
591.199	0.0178876
591.277	0.0178085
591.355	0.0178401
591.433	0.0179209
591.512	0.0179570
591.590	0.0177815
591.668	0.0177875
591.746	0.0178178
591.824	0.0178712
591.902	0.0178813
591.980	0.0179218
592.058	0.0179003
592.137	0.0179165
592.215	0.0178745
592.293	0.0179332
592.371	0.0179089
592.449	0.0180185
592.527	0.0180235
592.605	0.0177790
592.683	0.0179172
592.762	0.0178988
592.840	0.0178127
592.918	0.0179630
592.996	0.0179530
593.074	0.0178169
593.152	0.0178009
593.230	0.0179972
593.308	0.0178226
593.387	0.0179386
593.465	0.0177412
593.543	0.0179257
593.621	0.0179004
593.699	0.0178683
593.777	0.0179661
593.855	0.0179069
593.933	0.0178971
594.012	0.0179261
594.090	0.0178255
594.168	0.0178865
594.246	0.0180116
594.324	0.0179086
594.402	0.0179053
594.480	0.0180063
594.558	0.0178372
594.637	0.0179106
594.715	0.0179277
594.793	0.0179307
594.871	0.0178960
594.949	0.0179745
595.027	0.0180305
595.105	0.0178703
595.183	0.0179746
595.262	0.0179572
595.340	0.0181469
595.418	0.0179349
595.496	0.0178413
595.574	0.0179813
595.652	0.0179868
595.730	0.0180022
595.808	0.0178562
595.887	0.0177313
595.965	0.0180566
596.043	0.0178401
596.121	0.0179394
596.199	0.0179649
596.277	0.0180226
596.355	0.0178700
596.433	0.0179356
596.512	0.0180158
596.590	0.0180165
596.668	0.0180279
596.746	0.0180888
596.824	0.0180368
596.902	0.0179134
596.980	0.0179778
597.058	0.0180074
597.137	0.0179996
597.215	0.0179009
597.293	0.0179496
597.371	0.0179469
597.449	0.0180542
597.527	0.0178323
597.605	0.0178434
597.683	0.0180064
597.762	0.0180862
597.840	0.0180253
597.918	0.0178997
597.996	0.0179740
598.074	0.0180338
598.152	0.0179700
598.230	0.0180170
598.308	0.0180122
598.387	0.0180122
598.465	0.0179965
598.543	0.0180399
598.621	0.0180828
598.699	0.0179862
598.777	0.0179450
598.855	0.0179742
598.933	0.0180485
599.012	0.0178723
599.090	0.0180688
599.168	0.0180402
599.246	0.0179958
599.324	0.0179529
599.402	0.0178556
599.480	0.0178541
599.558	0.0180336
599.637	0.0179981
599.715	0.0179272
599.793	0.0180036
599.871	0.0180149
599.949	0.0179561
600.027	0.0179688
600.105	0.0179684
600.183	0.0180094
600.262	0.0179218
600.340	0.0180056
600.418	0.0179030
600.496	0.0179374
600.574	0.0180212
600.652	0.0179794
600.730	0.0180234
600.808	0.0179343
600.887	0.0178873
600.965	0.0180917
601.043	0.0179847
601.121	0.0178336
601.199	0.0179234
601.277	0.0179609
601.355	0.0179983
601.433	0.0178683
601.512	0.0178290
601.590	0.0179041
601.668	0.0180659
601.746	0.0179772
601.824	0.0179059
601.902	0.0178817
601.980	0.0178388
602.058	0.0180738
602.137	0.0179174
602.215	0.0180460
602.293	0.0180899
602.371	0.0178905
602.449	0.0179022
602.527	0.0180035
602.605	0.0180095
602.683	0.0178564
602.762	0.0179443
602.840	0.0179018
602.918	0.0179114
602.996	0.0179376
603.074	0.0180241
603.152	0.0179772
603.230	0.0178698
603.308	0.0178830
603.387	0.0177884
603.465	0.0179501
603.543	0.0179815
603.621	0.0179504
603.699	0.0180266
603.777	0.0179637
603.855	0.0178983
603.933	0.0178456
604.012	0.0178599
604.090	0.0178880
604.168	0.0179549
604.246	0.0179073
604.324	0.0178986
604.402	0.0180680
604.480	0.0180305
604.558	0.0180125
604.637	0.0178170
604.715	0.0180003
604.793	0.0179140
604.871	0.0179542
604.949	0.0179022
605.027	0.0180134
605.105	0.0180865
605.183	0.0178926
605.262	0.0181927
605.340	0.0178571
605.418	0.0179331
605.496	0.0180145
605.574	0.0179195
605.652	0.0179697
605.730	0.0179874
605.808	0.0178891
605.887	0.0179359
605.965	0.0178441
606.043	0.0178730
606.121	0.0179813
606.199	0.0179399
606.277	0.0179379
606.355	0.0179549
606.433	0.0179921
606.512	0.0178986
606.590	0.0179106
606.668	0.0178522
606.746	0.0178550
606.824	0.0178842
606.902	0.0179433
606.980	0.0179243
607.058	0.0178465
607.137	0.0177919
607.215	0.0178767
607.293	0.0180078
607.371	0.0178381
607.449	0.0177935
607.527	0.0177982
607.605	0.0179059
607.683	0.0178452
607.762	0.0177426
607.840	0.0178582
607.918	0.0178596
607.996	0.0178990
608.074	0.0178732
608.152	0.0179151
608.230	0.0178096
608.308	0.0177728
608.387	0.0177573
608.465	0.0178368
608.543	0.0178551
608.621	0.0177296
608.699	0.0178903
608.777	0.0179371
608.855	0.0179435
608.933	0.0178324
609.012	0.0178023
609.090	0.0178746
609.168	0.0178600
609.246	0.0176431
609.324	0.0177904
609.402	0.0177473
609.480	0.0178387
609.558	0.0178577
609.637	0.0176450
609.715	0.0177129
609.793	0.0176692
609.871	0.0178219
609.949	0.0177280
610.027	0.0178261
610.105	0.0178036
610.183	0.0177987
610.262	0.0177831
610.340	0.0178400
610.418	0.0176830
610.496	0.0177158
610.574	0.0177492
610.652	0.0177294
610.730	0.0176794
610.808	0.0178970
610.887	0.0178460
610.965	0.0178781
611.043	0.0177914
611.121	0.0178536
611.199	0.0178682
611.277	0.0179240
611.355	0.0178256
611.433	0.0178536
611.512	0.0178862
611.590	0.0178947
611.668	0.0178674
611.746	0.0177621
611.824	0.0178288
611.902	0.0179563
611.980	0.0178790
612.058	0.0179660
612.137	0.0178650
612.215	0.0178438
612.293	0.0176251
612.371	0.0178748
612.449	0.0180148
612.527	0.0178317
612.605	0.0178191
612.683	0.0179597
612.762	0.0178912
612.840	0.0177850
612.918	0.0178422
612.996	0.0179987
613.074	0.0179285
613.152	0.0178553
613.230	0.0178186
613.308	0.0178854
613.387	0.0178796
613.465	0.0179630
613.543	0.0178426
613.621	0.0179094
613.699	0.0179271
613.777	0.0178787
613.855	0.0177763
613.933	0.0177589
614.012	0.0179862
614.090	0.0178517
614.168	0.0178198
614.246	0.0179074
614.324	0.0179231
614.402	0.0178785
614.480	0.0179157
614.558	0.0179001
614.637	0.0179031
614.715	0.0179263
614.793	0.0180878
614.871	0.0178610
614.949	0.0177556
615.027	0.0178023
615.105	0.0178231
615.183	0.0177554
615.262	0.0177755
615.340	0.0179160
615.418	0.0178552
615.496	0.0179367
615.574	0.0178625
615.652	0.0178917
615.730	0.0177958
615.808	0.0178455
615.887	0.0178513
615.965	0.0179232
616.043	0.0178329
616.121	0.0179208
616.199	0.0179733
616.277	0.0177837
616.355	0.0178257
616.433	0.0177513
616.512	0.0178429
616.590	0.0178606
616.668	0.0178771
616.746	0.0178505
616.824	0.0177061
616.902	0.0177655
616.980	0.0178380
617.058	0.0178062
617.137	0.0177577
617.215	0.0177783
617.293	0.0178278
617.371	0.0177885
617.449	0.0178729
617.527	0.0178365
617.605	0.0176936
617.683	0.0177316
617.762	0.0178100
617.840	0.0178249
617.918	0.0177557
617.996	0.0177185
618.074	0.0178728
618.152	0.0177556
618.230	0.0178104
618.308	0.0178653
618.387	0.0176754
618.465	0.0179291
618.543	0.0178865
618.621	0.0179171
618.699	0.0177744
618.777	0.0178319
618.855	0.0179526
618.933	0.0178092
619.012	0.0178517
619.090	0.0178300
619.168	0.0177959
619.246	0.0178712
619.324	0.0178797
619.402	0.0177954
619.480	0.0178991
619.558	0.0178176
619.637	0.0177084
619.715	0.0178441
619.793	0.0179044
619.871	0.0177795
619.949	0.0177316
620.027	0.0177110
620.105	0.0177285
620.183	0.0177927
620.262	0.0179216
620.340	0.0179173
620.418	0.0178610
620.496	0.0177889
620.574	0.0177895
620.652	0.0179429
620.730	0.0178202
620.808	0.0178298
620.887	0.0178090
620.965	0.0178806
621.043	0.0178930
621.121	0.0177823
621.199	0.0177859
621.277	0.0177425
621.355	0.0178872
621.433	0.0178190
621.512	0.0178069
621.590	0.0178780
621.668	0.0179063
621.746	0.0177966
621.824	0.0179743
621.902	0.0180205
621.980	0.0179858
622.058	0.0178078
622.137	0.0178513
622.215	0.0179794
622.293	0.0178642
622.371	0.0178623
622.449	0.0177869
622.527	0.0179035
622.605	0.0177980
622.683	0.0179130
622.762	0.0179556
622.840	0.0176824
622.918	0.0179565
622.996	0.0179526
623.074	0.0178806
623.152	0.0178670
623.230	0.0178605
623.308	0.0178760
623.387	0.0178788
623.465	0.0177923
623.543	0.0177900
623.621	0.0179510
623.699	0.0178574
623.777	0.0178602
623.855	0.0179678
623.933	0.0180360
624.012	0.0178618
624.090	0.0177391
624.168	0.0178300
624.246	0.0179498
624.324	0.0179762
624.402	0.0178423
624.480	0.0179398
624.558	0.0178215
624.637	0.0179311
624.715	0.0178603
624.793	0.0179327
624.871	0.0179842
624.949	0.0178527
625.027	0.0179209
625.105	0.0178649
625.183	0.0179398
625.262	0.0180784
625.340	0.0178978
625.418	0.0178189
625.496	0.0178093
625.574	0.0180081
625.652	0.0180965
625.730	0.0179949
625.808	0.0180119
625.887	0.0179367
625.965	0.0178650
626.043	0.0177642
626.121	0.0179147
626.199	0.0178650
626.277	0.0179037
626.355	0.0178781
626.433	0.0177227
626.512	0.0178569
626.590	0.0178259
626.668	0.0179364
626.746	0.0179053
626.824	0.0178703
626.902	0.0178297
626.980	0.0179279
627.058	0.0178952
627.137	0.0177904
627.215	0.0177530
627.293	0.0178832
627.371	0.0179124
627.449	0.0179443
627.527	0.0179090
627.605	0.0178918
627.683	0.0176669
627.762	0.0179211
627.840	0.0179469
627.918	0.0176848
627.996	0.0178325
628.074	0.0178280
628.152	0.0177337
628.230	0.0177959
628.308	0.0178368
628.387	0.0179886
628.465	0.0177644
628.543	0.0176616
628.621	0.0178786
628.699	0.0178431
628.777	0.0177074
628.855	0.0177168
628.933	0.0178532
629.012	0.0178284
629.090	0.0177537
629.168	0.0177335
629.246	0.0179002
629.324	0.0178513
629.402	0.0178422
629.480	0.0178388
629.558	0.0178479
629.637	0.0176965
629.715	0.0178273
629.793	0.0178569
629.871	0.0178423
629.949	0.0178919
630.027	0.0180011
630.105	0.0178049
630.183	0.0178781
630.262	0.0177600
630.340	0.0178345
630.418	0.0179068
630.496	0.0178820
630.574	0.0177990
630.652	0.0178633
630.730	0.0179585
630.808	0.0177547
630.887	0.0177599
630.965	0.0179674
631.043	0.0178806
631.121	0.0178856
631.199	0.0178841
631.277	0.0178510
631.355	0.0178191
631.433	0.0178284
631.512	0.0177412
631.590	0.0178790
631.668	0.0180486
631.746	0.0177991
631.824	0.0177560
631.902	0.0178861
631.980	0.0179416
632.058	0.0178632
632.137	0.0180280
632.215	0.0177788
632.293	0.0178942
632.371	0.0180112
632.449	0.0179708
632.527	0.0178812
632.605	0.0178826
632.683	0.0179502
632.762	0.0180090
632.840	0.0178532
632.918	0.0179012
632.996	0.0178457
633.074	0.0179073
633.152	0.0178575
633.230	0.0178727
633.308	0.0180265
633.387	0.0179134
633.465	0.0177435
633.543	0.0178712
633.621	0.0179105
633.699	0.0178545
633.777	0.0180096
633.855	0.0180349
633.933	0.0179186
634.012	0.0178453
634.090	0.0178014
634.168	0.0178864
634.246	0.0178249
634.324	0.0178753
634.402	0.0178278
634.480	0.0179446
634.558	0.0178608
634.637	0.0177969
634.715	0.0178359
634.793	0.0179310
634.871	0.0178184
634.949	0.0178304
635.027	0.0178168
635.105	0.0178246
635.183	0.0178613
635.262	0.0178035
635.340	0.0178268
635.418	0.0178548
635.496	0.0179251
635.574	0.0178761
635.652	0.0178876
635.730	0.0179472
635.808	0.0178683
635.887	0.0178837
635.965	0.0178209
636.043	0.0177972
636.121	0.0179941
636.199	0.0179208
636.277	0.0176632
636.355	0.0177032
636.433	0.0178702
636.512	0.0177619
636.590	0.0178376
636.668	0.0177000
636.746	0.0177313
636.824	0.0178510
636.902	0.0179058
636.980	0.0178298
637.058	0.0178909
637.137	0.0178040
637.215	0.0178046
637.293	0.0179221
637.371	0.0178703
637.449	0.0178680
637.527	0.0177572
637.605	0.0178555
637.683	0.0178764
637.762	0.0178388
637.840	0.0179694
637.918	0.0178278
637.996	0.0178981
638.074	0.0178696
638.152	0.0177525
638.230	0.0178675
638.308	0.0179188
638.387	0.0177996
638.465	0.0177055
638.543	0.0178004
638.621	0.0177259
638.699	0.0178936
638.777	0.0179147
638.855	0.0178324
638.933	0.0176887
639.012	0.0178165
639.090	0.0179046
639.168	0.0179862
639.246	0.0177557
639.324	0.0177676
639.402	0.0178049
639.480	0.0179254
639.558	0.0177874
639.637	0.0178189
639.715	0.0178815
639.793	0.0178883
639.871	0.0177509
639.949	0.0178028
640.027	0.0178724
640.105	0.0177775
640.183	0.0177040
640.262	0.0179176
640.340	0.0177692
640.418	0.0176901
640.496	0.0177903
640.574	0.0177767
640.652	0.0178014
640.730	0.0178485
640.808	0.0179909
640.887	0.0179176
640.965	0.0178365
641.043	0.0178199
641.121	0.0177948
641.199	0.0180216
641.277	0.0177863
641.355	0.0178001
641.433	0.0178580
641.512	0.0178006
641.590	0.0179011
641.668	0.0178470
641.746	0.0178145
641.824	0.0177099
641.902	0.0178681
641.980	0.0179230
642.058	0.0178475
642.137	0.0177265
642.215	0.0179069
642.293	0.0179363
642.371	0.0178397
642.449	0.0178865
642.527	0.0178912
642.605	0.0178097
642.683	0.0179474
642.762	0.0179539
642.840	0.0178995
642.918	0.0179262
642.996	0.0178716
643.074	0.0179081
643.152	0.0178753
643.230	0.0178049
643.308	0.0178476
643.387	0.0178368
643.465	0.0179030
643.543	0.0179288
643.621	0.0179667
643.699	0.0178697
643.777	0.0178856
643.855	0.0179502
643.933	0.0179092
644.012	0.0179404
644.090	0.0180016
644.168	0.0179104
644.246	0.0179310
644.324	0.0178251
644.402	0.0177631
644.480	0.0177994
644.558	0.0178849
644.637	0.0180061
644.715	0.0178796
644.793	0.0177735
644.871	0.0178572
644.949	0.0178544
645.027	0.0179140
645.105	0.0179456
645.183	0.0180035
645.262	0.0179466
645.340	0.0180315
645.418	0.0179766
645.496	0.0179311
645.574	0.0178835
645.652	0.0179578
645.730	0.0179444
645.808	0.0178751
645.887	0.0179082
645.965	0.0178853
646.043	0.0180280
646.121	0.0180694
646.199	0.0178690
646.277	0.0178968
646.355	0.0178372
646.433	0.0178453
646.512	0.0179027
646.590	0.0178548
646.668	0.0178177
646.746	0.0178977
646.824	0.0179705
646.902	0.0179836
646.980	0.0178828
647.058	0.0179127
647.137	0.0180694
647.215	0.0178535
647.293	0.0178180
647.371	0.0180141
647.449	0.0178416
647.527	0.0178022
647.605	0.0178613
647.683	0.0179141
647.762	0.0178130
647.840	0.0177946
647.918	0.0179107
647.996	0.0179080
648.074	0.0179660
648.152	0.0179256
648.230	0.0179181
648.308	0.0178786
648.387	0.0178499
648.465	0.0179533
648.543	0.0179002
648.621	0.0178770
648.699	0.0177779
648.777	0.0178670
648.855	0.0178787
648.933	0.0179907
649.012	0.0178752
649.090	0.0179859
649.168	0.0179379
649.246	0.0179617
649.324	0.0178018
649.402	0.0180257
649.480	0.0179495
649.558	0.0179347
649.637	0.0178933
649.715	0.0179924
649.793	0.0179115
649.871	0.0180150
649.949	0.0178192
650.027	0.0179160
650.105	0.0179619
650.183	0.0179279
650.262	0.0178011
650.340	0.0179093
650.418	0.0179125
650.496	0.0179471
650.574	0.0179571
650.652	0.0179636
650.730	0.0179387
650.808	0.0179348
650.887	0.0179548
650.965	0.0179697
651.043	0.0179971
651.121	0.0179189
651.199	0.0179763
651.277	0.0179298
651.355	0.0179908
651.433	0.0179198
651.512	0.0178953
651.590	0.0179740
651.668	0.0180790
651.746	0.0178963
651.824	0.0180193
651.902	0.0179591
651.980	0.0179076
652.058	0.0179708
652.137	0.0179063
652.215	0.0179016
652.293	0.0180004
652.371	0.0180132
652.449	0.0179047
652.527	0.0180251
652.605	0.0180139
652.683	0.0179214
652.762	0.0180752
652.840	0.0177518
652.918	0.0178551
652.996	0.0179413
653.074	0.0179504
653.152	0.0180249
653.230	0.0179516
653.308	0.0178526
653.387	0.0179070
653.465	0.0180984
653.543	0.0178613
653.621	0.0179534
653.699	0.0179898
653.777	0.0179868
653.855	0.0179865
653.933	0.0178962
654.012	0.0178867
654.090	0.0179713
654.168	0.0179610
654.246	0.0179949
654.324	0.0179279
654.402	0.0180333
654.480	0.0180122
654.558	0.0179430
654.637	0.0179308
654.715	0.0179790
654.793	0.0180595
654.871	0.0180441
654.949	0.0179161
655.027	0.0179018
655.105	0.0180053
655.183	0.0180041
655.262	0.0178786
655.340	0.0179987
655.418	0.0180101
655.496	0.0179264
655.574	0.0179176
655.652	0.0179896
655.730	0.0179895
655.808	0.0179074
655.887	0.0179719
655.965	0.0179368
656.043	0.0178458
656.121	0.0178922
656.199	0.0180840
656.277	0.0178636
656.355	0.0180686
656.433	0.0179747
656.512	0.0180240
656.590	0.0178867
656.668	0.0179287
656.746	0.0178753
656.824	0.0179417
656.902	0.0179327
656.980	0.0180125
657.058	0.0180869
657.137	0.0179800
657.215	0.0180059
657.293	0.0178551
657.371	0.0179797
657.449	0.0179334
657.527	0.0180296
657.605	0.0180402
657.683	0.0180064
657.762	0.0179279
657.840	0.0179749
657.918	0.0179315
657.996	0.0179188
658.074	0.0179170
658.152	0.0180026
658.230	0.0180460
658.308	0.0180743
658.387	0.0178638
658.465	0.0180851
658.543	0.0180831
658.621	0.0178741
658.699	0.0178825
658.777	0.0179427
658.855	0.0180399
658.933	0.0181628
659.012	0.0180701
659.090	0.0179582
659.168	0.0179806
659.246	0.0179621
659.324	0.0180357
659.402	0.0179720
659.480	0.0180237
659.558	0.0180848
659.637	0.0179530
659.715	0.0179476
659.793	0.0180476
659.871	0.0180529
659.949	0.0181626
660.027	0.0181290
660.105	0.0180259
660.183	0.0178216
660.262	0.0180135
660.340	0.0179992
660.418	0.0180549
660.496	0.0179743
660.574	0.0178273
660.652	0.0180142
660.730	0.0181422
660.808	0.0179837
660.887	0.0179562
660.965	0.0180659
661.043	0.0179013
661.121	0.0178811
661.199	0.0178693
661.277	0.0178443
661.355	0.0180721
661.433	0.0179478
661.512	0.0179494
661.590	0.0179926
661.668	0.0181003
661.746	0.0180171
661.824	0.0180132
661.902	0.0180098
661.980	0.0180294
662.058	0.0180167
662.137	0.0179421
662.215	0.0180099
662.293	0.0180774
662.371	0.0179787
662.449	0.0181050
662.527	0.0180536
662.605	0.0180565
662.683	0.0180452
662.762	0.0179621
662.840	0.0181853
662.918	0.0179591
662.996	0.0179113
663.074	0.0178856
663.152	0.0179502
663.230	0.0178673
663.308	0.0179240
663.387	0.0181045
663.465	0.0179557
663.543	0.0179115
663.621	0.0178333
663.699	0.0180513
663.777	0.0179274
663.855	0.0179465
663.933	0.0178786
664.012	0.0178722
664.090	0.0179867
664.168	0.0179507
664.246	0.0179855
664.324	0.0179086
664.402	0.0179321
664.480	0.0179148
664.558	0.0179036
664.637	0.0178584
664.715	0.0178881
664.793	0.0178757
664.871	0.0178830
664.949	0.0179314
665.027	0.0178964
665.105	0.0180127
665.183	0.0178552
665.262	0.0178724
665.340	0.0179205
665.418	0.0178485
665.496	0.0178684
665.574	0.0179707
665.652	0.0179003
665.730	0.0179546
665.808	0.0179154
665.887	0.0178431
665.965	0.0179249
666.043	0.0178370
666.121	0.0180711
666.199	0.0179282
666.277	0.0180143
666.355	0.0179195
666.433	0.0180202
666.512	0.0179481
666.590	0.0179037
666.668	0.0180598
666.746	0.0179653
666.824	0.0180708
666.902	0.0180731
666.980	0.0180536
667.058	0.0179364
667.137	0.0180646
667.215	0.0180605
667.293	0.0180754
667.371	0.0180354
667.449	0.0181348
667.527	0.0181382
667.605	0.0180364
667.683	0.0179752
667.762	0.0181383
667.840	0.0180713
667.918	0.0180405
667.996	0.0180245
668.074	0.0180782
668.152	0.0178940
668.230	0.0178513
668.308	0.0178439
668.387	0.0180989
668.465	0.0179855
668.543	0.0178653
668.621	0.0178809
668.699	0.0179497
668.777	0.0178245
668.855	0.0179760
668.933	0.0179198
669.012	0.0179727
669.090	0.0179881
669.168	0.0179875
669.246	0.0180694
669.324	0.0180981
669.402	0.0180965
669.480	0.0180527
669.558	0.0182528
669.637	0.0183022
669.715	0.0182899
669.793	0.0182220
669.871	0.0182795
669.949	0.0181371
670.027	0.0182354
670.105	0.0183715
670.183	0.0182874
670.262	0.0182175
670.340	0.0182174
670.418	0.0182329
670.496	0.0181737
670.574	0.0180924
670.652	0.0180750
670.730	0.0181538
670.808	0.0180890
670.887	0.0178594
670.965	0.0179471
671.043	0.0178702
671.121	0.0177045
671.199	0.0178896
671.277	0.0177486
671.355	0.0177629
671.433	0.0179175
671.512	0.0179152
671.590	0.0177898
671.668	0.0178129
671.746	0.0178973
671.824	0.0178604
671.902	0.0178017
671.980	0.0177865
672.058	0.0178426
672.137	0.0178548
672.215	0.0178723
672.293	0.0181006
672.371	0.0179649
672.449	0.0180856
672.527	0.0180882
672.605	0.0179875
672.683	0.0181451
672.762	0.0180894
672.840	0.0180698
672.918	0.0180775
672.996	0.0182005
673.074	0.0181144
673.152	0.0181771
673.230	0.0180788
673.308	0.0181989
673.387	0.0180999
673.465	0.0180525
673.543	0.0181045
673.621	0.0183532
673.699	0.0180737
673.777	0.0182125
673.855	0.0182686
673.933	0.0182980
674.012	0.0183103
674.090	0.0182619
674.168	0.0185098
674.246	0.0181041
674.324	0.0181691
674.402	0.0182586
674.480	0.0181982
674.558	0.0181052
674.637	0.0180824
674.715	0.0181187
674.793	0.0179820
674.871	0.0178136
674.949	0.0179539
675.027	0.0176200
675.105	0.0176762
675.183	0.0177831
675.262	0.0176455
675.340	0.0176231
675.418	0.0177008
675.496	0.0176729
675.574	0.0176017
675.652	0.0177847
675.730	0.0176947
675.808	0.0177112
675.887	0.0176730
675.965	0.0177276
676.043	0.0178756
676.121	0.0178136
676.199	0.0177796
676.277	0.0178388
676.355	0.0178712
676.433	0.0178397
676.512	0.0178195
676.590	0.0178979
676.668	0.0179835
676.746	0.0178208
676.824	0.0179979
676.902	0.0181094
676.980	0.0180004
677.058	0.0180380
677.137	0.0180436
677.215	0.0179890
677.293	0.0181420
677.371	0.0182299
677.449	0.0181382
677.527	0.0180855
677.605	0.0181351
677.683	0.0181164
677.762	0.0182321
677.840	0.0179729
677.918	0.0181091
677.996	0.0180695
678.074	0.0180856
678.152	0.0180472
678.230	0.0180511
678.308	0.0181754
678.387	0.0179236
678.465	0.0180554
678.543	0.0180339
678.621	0.0180614
678.699	0.0180508
678.777	0.0179222
678.855	0.0179839
678.933	0.0180730
679.012	0.0180440
679.090	0.0180276
679.168	0.0180482
679.246	0.0179564
679.324	0.0179980
679.402	0.0180422
679.480	0.0180180
679.558	0.0181874
679.637	0.0179955
679.715	0.0180390
679.793	0.0181949
679.871	0.0182347
679.949	0.0180128
680.027	0.0181471
680.105	0.0180344
680.183	0.0180894
680.262	0.0179036
680.340	0.0178542
680.418	0.0179801
680.496	0.0178987
680.574	0.0176752
680.652	0.0178838
680.730	0.0178095
680.808	0.0176193
680.887	0.0175811
680.965	0.0176066
681.043	0.0176644
681.121	0.0175731
681.199	0.0174918
681.277	0.0175009
681.355	0.0175475
681.433	0.0175878
681.512	0.0175432
681.590	0.0176730
681.668	0.0176891
681.746	0.0178126
681.824	0.0176329
681.902	0.0178442
681.980	0.0176999
682.058	0.0178526
682.137	0.0178549
682.215	0.0178195
682.293	0.0178223
682.371	0.0178087
682.449	0.0179060
682.527	0.0179449
682.605	0.0179095
682.683	0.0179851
682.762	0.0179275
682.840	0.0179932
682.918	0.0180444
682.996	0.0180540
683.074	0.0180402
683.152	0.0180428
683.230	0.0180806
683.308	0.0179011
683.387	0.0181290
683.465	0.0181461
683.543	0.0180582
683.621	0.0179179
683.699	0.0180757
683.777	0.0179998
683.855	0.0178779
683.933	0.0181169
684.012	0.0180663
684.090	0.0180122
684.168	0.0181180
684.246	0.0181170
684.324	0.0179879
684.402	0.0179404
684.480	0.0178979
684.558	0.0179650
684.637	0.0176630
684.715	0.0177622
684.793	0.0178404
684.871	0.0177706
684.949	0.0177339
685.027	0.0176376
685.105	0.0176706
685.183	0.0176188
685.262	0.0174418
685.340	0.0175184
685.418	0.0176150
685.496	0.0177190
685.574	0.0176407
685.652	0.0176904
685.730	0.0176821
685.808	0.0176183
685.887	0.0177225
685.965	0.0177045
686.043	0.0177010
686.121	0.0176336
686.199	0.0176340
686.277	0.0177218
686.355	0.0176584
686.433	0.0177420
686.512	0.0176028
686.590	0.0177842
686.668	0.0178705
686.746	0.0178254
686.824	0.0176990
686.902	0.0178391
686.980	0.0177380
687.058	0.0178020
687.137	0.0179881
687.215	0.0179183
687.293	0.0178260
687.371	0.0178758
687.449	0.0178724
687.527	0.0179035
687.605	0.0179598
687.683	0.0179247
687.762	0.0178625
687.840	0.0178787
687.918	0.0178832
687.996	0.0179822
688.074	0.0179070
688.152	0.0180625
688.230	0.0179682
688.308	0.0178324
688.387	0.0179172
688.465	0.0180722
688.543	0.0180769
688.621	0.0178767
688.699	0.0179217
688.777	0.0178529
688.855	0.0178926
688.933	0.0178393
689.012	0.0178210
689.090	0.0178561
689.168	0.0177259
689.246	0.0178223
689.324	0.0179552
689.402	0.0179612
689.480	0.0179131
689.558	0.0178150
689.637	0.0179313
689.715	0.0180048
689.793	0.0179840
689.871	0.0178522
689.949	0.0179227
690.027	0.0179721
690.105	0.0180638
690.183	0.0180642
690.262	0.0180412
690.340	0.0180172
690.418	0.0182241
690.496	0.0182301
690.574	0.0181786
690.652	0.0181330
690.730	0.0181813
690.808	0.0181778
690.887	0.0180579
690.965	0.0181721
691.043	0.0181068
691.121	0.0180304
691.199	0.0180849
691.277	0.0179757
691.355	0.0178866
691.433	0.0177793
691.512	0.0178141
691.590	0.0177965
691.668	0.0176648
691.746	0.0176022
691.824	0.0177686
691.902	0.0177109
691.980	0.0175928
692.058	0.0175574
692.137	0.0176605
692.215	0.0178104
692.293	0.0177268
692.371	0.0176490
692.449	0.0176247
692.527	0.0178249
692.605	0.0178101
692.683	0.0177137
692.762	0.0177539
692.840	0.0178071
692.918	0.0178855
692.996	0.0179799
693.074	0.0179314
693.152	0.0180602
693.230	0.0181192
693.308	0.0180737
693.387	0.0180538
693.465	0.0181860
693.543	0.0181679
693.621	0.0181982
693.699	0.0181684
693.777	0.0180590
693.855	0.0181418
693.933	0.0180220
694.012	0.0180092
694.090	0.0181668
694.168	0.0181200
694.246	0.0179505
694.324	0.0179529
694.402	0.0178485
694.480	0.0178282
694.558	0.0179802
694.637	0.0178126
694.715	0.0177936
694.793	0.0178046
694.871	0.0179357
694.949	0.0180073
695.027	0.0178127
695.105	0.0178701
695.183	0.0178893
695.262	0.0178397
695.340	0.0177966
695.418	0.0177715
695.496	0.0177100
695.574	0.0178230
695.652	0.0178870
695.730	0.0177740
695.808	0.0177110
695.887	0.0178212
695.965	0.0178294
696.043	0.0178335
696.121	0.0178528
696.199	0.0179052
696.277	0.0179160
696.355	0.0178899
696.433	0.0179211
696.512	0.0179295
696.590	0.0179304
696.668	0.0179434
696.746	0.0179254
696.824	0.0179041
696.902	0.0179745
696.980	0.0178985
697.058	0.0178818
697.137	0.0180176
697.215	0.0178727
697.293	0.0178692
697.371	0.0178357
697.449	0.0179205
697.527	0.0178678
697.605	0.0179109
697.683	0.0179099
697.762	0.0179489
697.840	0.0179549
697.918	0.0180611
697.996	0.0180325
698.074	0.0180176
698.152	0.0179553
698.230	0.0180999
698.308	0.0180421
698.387	0.0181970
698.465	0.0180795
698.543	0.0180800
698.621	0.0180946
698.699	0.0180038
698.777	0.0179022
698.855	0.0180399
698.933	0.0178847
699.012	0.0179062
699.090	0.0178220
699.168	0.0177976
699.246	0.0176368
699.324	0.0177920
699.402	0.0176156
699.480	0.0176183
699.558	0.0177319
699.637	0.0177044
699.715	0.0176087
699.793	0.0177055
699.871	0.0176066
699.949	0.0177609
700.027	0.0176814
700.105	0.0176780
700.183	0.0176448
700.262	0.0177526
700.340	0.0176932
700.418	0.0178769
700.496	0.0178971
700.574	0.0179359
700.652	0.0177287
700.730	0.0178311
700.808	0.0179342
700.887	0.0179318
700.965	0.0180547
701.043	0.0178680
701.121	0.0179874
701.199	0.0181744
701.277	0.0182433
701.355	0.0181312
701.433	0.0181841
701.512	0.0181116
701.590	0.0180457
701.668	0.0180924
701.746	0.0181300
701.824	0.0180287
701.902	0.0181381
701.980	0.0181322
702.058	0.0180194
702.137	0.0179653
702.215	0.0179707
702.293	0.0180316
702.371	0.0178783
702.449	0.0177714
702.527	0.0176490
702.605	0.0177158
702.683	0.0176238
702.762	0.0175686
702.840	0.0176273
702.918	0.0175085
702.996	0.0175252
703.074	0.0176464
703.152	0.0176215
703.230	0.0174703
703.308	0.0175665
703.387	0.0176284
703.465	0.0174682
703.543	0.0175056
703.621	0.0174857
703.699	0.0174568
703.777	0.0175005
703.855	0.0173389
703.933	0.0175703
704.012	0.0175748
704.090	0.0176467
704.168	0.0176611
704.246	0.0175770
704.324	0.0177348
704.402	0.0174944
704.480	0.0176336
704.558	0.0177728
704.637	0.0176424
704.715	0.0177772
704.793	0.0177638
704.871	0.0179432
704.949	0.0178201
705.027	0.0178598
705.105	0.0180079
705.183	0.0178880
705.262	0.0179894
705.340	0.0180869
705.418	0.0180006
705.496	0.0180334
705.574	0.0180708
705.652	0.0181148
705.730	0.0181229
705.808	0.0181427
705.887	0.0181356
705.965	0.0181004
706.043	0.0179571
706.121	0.0179317
706.199	0.0179799
706.277	0.0179111
706.355	0.0179738
706.433	0.0176768
706.512	0.0176888
706.590	0.0175661
706.668	0.0176546
706.746	0.0175217
706.824	0.0174527
706.902	0.0175904
706.980	0.0175546
707.058	0.0176596
707.137	0.0176062
707.215	0.0176984
707.293	0.0176534
707.371	0.0177419
707.449	0.0177453
707.527	0.0177088
707.605	0.0178173
707.683	0.0179721
707.762	0.0177172
707.840	0.0178273
707.918	0.0178745
707.996	0.0179740
708.074	0.0179453
708.152	0.0179581
708.230	0.0179882
708.308	0.0180486
708.387	0.0180783
708.465	0.0181524
708.543	0.0181075
708.621	0.0181827
708.699	0.0180428
708.777	0.0180889
708.855	0.0179813
708.933	0.0179646
709.012	0.0179224
709.090	0.0178259
709.168	0.0177421
709.246	0.0177142
709.324	0.0176896
709.402	0.0175111
709.480	0.0174904
709.558	0.0173983
709.637	0.0174760
709.715	0.0173209
709.793	0.0173040
709.871	0.0172762
709.949	0.0173842
710.027	0.0174555
710.105	0.0174918
710.183	0.0174875
710.262	0.0175774
710.340	0.0176427
710.418	0.0178657
710.496	0.0180157
710.574	0.0180579
710.652	0.0182021
710.730	0.0182825
710.808	0.0184615
710.887	0.0184642
710.965	0.0184306
711.043	0.0183963
711.121	0.0184489
711.199	0.0185046
711.277	0.0184904
711.355	0.0184901
711.433	0.0183848
711.512	0.0182174
711.590	0.0182892
711.668	0.0181022
711.746	0.0179237
711.824	0.0177592
711.902	0.0177830
711.980	0.0176849
712.058	0.0177278
712.137	0.0174792
712.215	0.0174596
712.293	0.0175676
712.371	0.0174875
712.449	0.0172829
712.527	0.0173515
712.605	0.0175273
712.683	0.0176268
712.762	0.0175616
712.840	0.0175217
712.918	0.0176719
712.996	0.0177775
713.074	0.0177081
713.152	0.0178586
713.230	0.0179926
713.308	0.0179400
713.387	0.0181551
713.465	0.0180933
713.543	0.0180869
713.621	0.0181015
713.699	0.0181173
713.777	0.0180494
713.855	0.0179963
713.933	0.0180672
714.012	0.0179814
714.090	0.0179261
714.168	0.0179349
714.246	0.0179337
714.324	0.0179144
714.402	0.0178748
714.480	0.0179520
714.558	0.0179263
714.637	0.0178516
714.715	0.0178201
714.793	0.0179113
714.871	0.0177978
714.949	0.0178880
715.027	0.0179569
715.105	0.0179815
715.183	0.0178416
715.262	0.0179933
715.340	0.0181116
715.418	0.0180794
715.496	0.0180963
715.574	0.0179812
715.652	0.0180914
715.730	0.0181329
715.808	0.0180280
715.887	0.0181203
715.965	0.0179694
716.043	0.0180035
716.121	0.0178154
716.199	0.0179311
716.277	0.0178486
716.355	0.0177532
716.433	0.0178171
716.512	0.0176971
716.590	0.0176438
716.668	0.0175638
716.746	0.0174535
716.824	0.0175413
716.902	0.0174361
716.980	0.0175367
717.058	0.0173673
717.137	0.0173462
717.215	0.0171571
717.293	0.0172895
717.371	0.0171912
717.449	0.0173000
717.527	0.0173347
717.605	0.0174718
717.683	0.0174856
717.762	0.0174553
717.840	0.0173981
717.918	0.0175956
717.996	0.0176378
718.074	0.0176881
718.152	0.0177979
718.230	0.0177547
718.308	0.0178378
718.387	0.0178219
718.465	0.0178417
718.543	0.0181045
718.621	0.0179868
718.699	0.0182276
718.777	0.0183243
718.855	0.0183940
718.933	0.0183200
719.012	0.0182989
719.090	0.0183626
719.168	0.0185292
719.246	0.0186031
719.324	0.0183978
719.402	0.0185081
719.480	0.0184856
719.558	0.0183915
719.637	0.0183173
719.715	0.0184583
719.793	0.0182080
719.871	0.0182143
719.949	0.0181998
720.027	0.0180665
720.105	0.0179434
720.183	0.0179716
720.262	0.0178872
720.340	0.0178704
720.418	0.0178039
720.496	0.0178348
720.574	0.0177992
720.652	0.0176656
720.730	0.0176824
720.808	0.0176101
720.887	0.0176185
720.965	0.0177138
721.043	0.0178397
721.121	0.0177609
721.199	0.0175980
721.277	0.0178521
721.355	0.0177935
721.433	0.0177519
721.512	0.0177512
721.590	0.0178508
721.668	0.0178922
721.746	0.0179324
721.824	0.0178137
721.902	0.0177877
721.980	0.0179037
722.058	0.0178976
722.137	0.0177916
722.215	0.0177722
722.293	0.0179367
722.371	0.0179593
722.449	0.0179137
722.527	0.0179206
722.605	0.0178622
722.683	0.0179615
722.762	0.0180730
722.840	0.0179188
722.918	0.0179656
722.996	0.0179037
723.074	0.0179857
723.152	0.0179578
723.230	0.0178835
723.308	0.0180137
723.387	0.0179546
723.465	0.0178742
723.543	0.0178933
723.621	0.0179104
723.699	0.0179074
723.777	0.0179243
723.855	0.0178123
723.933	0.0179623
724.012	0.0178512
724.090	0.0178614
724.168	0.0180282
724.246	0.0179145
724.324	0.0180003
724.402	0.0179660
724.480	0.0180487
724.558	0.0180370
724.637	0.0179462
724.715	0.0181001
724.793	0.0181858
724.871	0.0179955
724.949	0.0179504
725.027	0.0179159
725.105	0.0178535
725.183	0.0178619
725.262	0.0178016
725.340	0.0178403
725.418	0.0177651
725.496	0.0177394
725.574	0.0176630
725.652	0.0176581
725.730	0.0177686
725.808	0.0177680
725.887	0.0178851
725.965	0.0178977
726.043	0.0178388
726.121	0.0179736
726.199	0.0181069
726.277	0.0181330
726.355	0.0181807
726.433	0.0181933
726.512	0.0181946
726.590	0.0182600
726.668	0.0184253
726.746	0.0183899
726.824	0.0183521
726.902	0.0184407
726.980	0.0183456
727.058	0.0183282
727.137	0.0182759
727.215	0.0180569
727.293	0.0179972
727.371	0.0179362
727.449	0.0179722
727.527	0.0178719
727.605	0.0178194
727.683	0.0177164
727.762	0.0176552
727.840	0.0173690
727.918	0.0172467
727.996	0.0174942
728.074	0.0172366
728.152	0.0173808
728.230	0.0172186
728.308	0.0172903
728.387	0.0172968
728.465	0.0174092
728.543	0.0175336
728.621	0.0174805
728.699	0.0174989
728.777	0.0176033
728.855	0.0176841
728.933	0.0178148
729.012	0.0178319
729.090	0.0177854
729.168	0.0178352
729.246	0.0178797
729.324	0.0178688
729.402	0.0178799
729.480	0.0178362
729.558	0.0178716
729.637	0.0178560
729.715	0.0178111
729.793	0.0178711
729.871	0.0179517
729.949	0.0178316
730.027	0.0178288
730.105	0.0179739
730.183	0.0180076
730.262	0.0178839
730.340	0.0179332
730.418	0.0180271
730.496	0.0178867
730.574	0.0181428
730.652	0.0180589
730.730	0.0180408
730.808	0.0178829
730.887	0.0181983
730.965	0.0180414
731.043	0.0180220
731.121	0.0180205
731.199	0.0181081
731.277	0.0180422
731.355	0.0179916
731.433	0.0180453
731.512	0.0180093
731.590	0.0178613
731.668	0.0178253
731.746	0.0179337
731.824	0.0178741
731.902	0.0178989
731.980	0.0176463
732.058	0.0176118
732.137	0.0176245
732.215	0.0175935
732.293	0.0176261
732.371	0.0176007
732.449	0.0175713
732.527	0.0174960
732.605	0.0178075
732.683	0.0177386
732.762	0.0177692
732.840	0.0177126
732.918	0.0177470
732.996	0.0178201
733.074	0.0178998
733.152	0.0178739
733.230	0.0180806
733.308	0.0180260
733.387	0.0181038
733.465	0.0181366
733.543	0.0180975
733.621	0.0181879
733.699	0.0182277
733.777	0.0185023
733.855	0.0184206
733.933	0.0183730
734.012	0.0184518
734.090	0.0185598
734.168	0.0186697
734.246	0.0184473
734.324	0.0184224
734.402	0.0182838
734.480	0.0183185
734.558	0.0182539
734.637	0.0180603
734.715	0.0180411
734.793	0.0180984
734.871	0.0178498
734.949	0.0178002
735.027	0.0177462
735.105	0.0178347
735.183	0.0178105
735.262	0.0176437
735.340	0.0178106
735.418	0.0178075
735.496	0.0177466
735.574	0.0178879
735.652	0.0179241
735.730	0.0177838
735.808	0.0177049
735.887	0.0178857
735.965	0.0177219
736.043	0.0177398
736.121	0.0177796
736.199	0.0178601
736.277	0.0178757
736.355	0.0178646
736.433	0.0178210
736.512	0.0179556
736.590	0.0178727
736.668	0.0179959
736.746	0.0180651
736.824	0.0179400
736.902	0.0179195
736.980	0.0178870
737.058	0.0178893
737.137	0.0180527
737.215	0.0178733
737.293	0.0178818
737.371	0.0178068
737.449	0.0178381
737.527	0.0177772
737.605	0.0177545
737.683	0.0178198
737.762	0.0178636
737.840	0.0178601
737.918	0.0179160
737.996	0.0179962
738.074	0.0181494
738.152	0.0181008
738.230	0.0182762
738.308	0.0180791
738.387	0.0181475
738.465	0.0183244
738.543	0.0182567
738.621	0.0182893
738.699	0.0185222
738.777	0.0184547
738.855	0.0183585
738.933	0.0184081
739.012	0.0183201
739.090	0.0183193
739.168	0.0183124
739.246	0.0183594
739.324	0.0184351
739.402	0.0182491
739.480	0.0182238
739.558	0.0182140
739.637	0.0181919
739.715	0.0181110
739.793	0.0180125
739.871	0.0179623
739.949	0.0180338
740.027	0.0179613
740.105	0.0180230
740.183	0.0177805
740.262	0.0177766
740.340	0.0177042
740.418	0.0177729
740.496	0.0177093
740.574	0.0176572
740.652	0.0176128
740.730	0.0176937
740.808	0.0176888
740.887	0.0176371
740.965	0.0176497
741.043	0.0176549
741.121	0.0176466
741.199	0.0176392
741.277	0.0174643
741.355	0.0175665
741.433	0.0175068
741.512	0.0175336
741.590	0.0175366
741.668	0.0175940
741.746	0.0175346
741.824	0.0176518
741.902	0.0177469
741.980	0.0178059
742.058	0.0176927
742.137	0.0177401
742.215	0.0178699
742.293	0.0178234
742.371	0.0180006
742.449	0.0180997
742.527	0.0179735
742.605	0.0181985
742.683	0.0180470
742.762	0.0181203
742.840	0.0180064
742.918	0.0181047
742.996	0.0181148
743.074	0.0181249
743.152	0.0181636
743.230	0.0182919
743.308	0.0182757
743.387	0.0181800
743.465	0.0182273
743.543	0.0181831
743.621	0.0182095
743.699	0.0182275
743.777	0.0181483
743.855	0.0182374
743.933	0.0182028
744.012	0.0178496
744.090	0.0180123
744.168	0.0180567
744.246	0.0179041
744.324	0.0179902
744.402	0.0180421
744.480	0.0178596
744.558	0.0178617
744.637	0.0179530
744.715	0.0178445
744.793	0.0177509
744.871	0.0177059
744.949	0.0178696
745.027	0.0177535
745.105	0.0178732
745.183	0.0179091
745.262	0.0178257
745.340	0.0176633
745.418	0.0179005
745.496	0.0180223
745.574	0.0179235
745.652	0.0178665
745.730	0.0178513
745.808	0.0177995
745.887	0.0180904
745.965	0.0178631
746.043	0.0176942
746.121	0.0177340
746.199	0.0177729
746.277	0.0177378
746.355	0.0177782
746.433	0.0178958
746.512	0.0176654
746.590	0.0177181
746.668	0.0179592
746.746	0.0178797
746.824	0.0178825
746.902	0.0179715
746.980	0.0179841
747.058	0.0179906
747.137	0.0180647
747.215	0.0179968
747.293	0.0180669
747.371	0.0180395
747.449	0.0181693
747.527	0.0182571
747.605	0.0182964
747.683	0.0181503
747.762	0.0181564
747.840	0.0181094
747.918	0.0180401
747.996	0.0181085
748.074	0.0181385
748.152	0.0181187
748.230	0.0179925
748.308	0.0179480
748.387	0.0179097
748.465	0.0179726
748.543	0.0178522
748.621	0.0179681
748.699	0.0178667
748.777	0.0177689
748.855	0.0177509
748.933	0.0176965
749.012	0.0177762
749.090	0.0176760
749.168	0.0178582
749.246	0.0177593
749.324	0.0178255
749.402	0.0178738
749.480	0.0176985
749.558	0.0177962
749.637	0.0178861
749.715	0.0178614
749.793	0.0178285
749.871	0.0180656
749.949	0.0179139
750.027	0.0179377
750.105	0.0179901
750.183	0.0179557
750.262	0.0179278
750.340	0.0179500
750.418	0.0179819
750.496	0.0179448
750.574	0.0178887
750.652	0.0180845
750.730	0.0179383
750.808	0.0179678
750.887	0.0180544
750.965	0.0179621
751.043	0.0178321
751.121	0.0178719
751.199	0.0178971
751.277	0.0179243
751.355	0.0179167
751.433	0.0177320
751.512	0.0176475
751.590	0.0176843
751.668	0.0177977
751.746	0.0177227
751.824	0.0176916
751.902	0.0176978
751.980	0.0177189
752.058	0.0175813
752.137	0.0177138
752.215	0.0176794
752.293	0.0178195
752.371	0.0178145
752.449	0.0178422
752.527	0.0179012
752.605	0.0179349
752.683	0.0179416
752.762	0.0180797
752.840	0.0179167
752.918	0.0180605
752.996	0.0180792
753.074	0.0181902
753.152	0.0181634
753.230	0.0181322
753.308	0.0180955
753.387	0.0180412
753.465	0.0181472
753.543	0.0179429
753.621	0.0181114
753.699	0.0180078
753.777	0.0179145
753.855	0.0180161
753.933	0.0180859
754.012	0.0179205
754.090	0.0178682
754.168	0.0180293
754.246	0.0180543
754.324	0.0180145
754.402	0.0180311
754.480	0.0179399
754.558	0.0179326
754.637	0.0178988
754.715	0.0178994
754.793	0.0178677
754.871	0.0179625
754.949	0.0178522
755.027	0.0178825
755.105	0.0180612
755.183	0.0178720
755.262	0.0180428
755.340	0.0181334
755.418	0.0180861
755.496	0.0181920
755.574	0.0182668
755.652	0.0181274
755.730	0.0181648
755.808	0.0181821
755.887	0.0181625
755.965	0.0181612
756.043	0.0180151
756.121	0.0179741
756.199	0.0179442
756.277	0.0179404
756.355	0.0181042
756.433	0.0181403
756.512	0.0178381
756.590	0.0179583
756.668	0.0180614
756.746	0.0181457
756.824	0.0179307
756.902	0.0179966
756.980	0.0180347
757.058	0.0179211
757.137	0.0179543
757.215	0.0180017
757.293	0.0179603
757.371	0.0179060
757.449	0.0178683
757.527	0.0180449
757.605	0.0179868
757.683	0.0179442
757.762	0.0179010
757.840	0.0178151
757.918	0.0178964
757.996	0.0178807
758.074	0.0179672
758.152	0.0180318
758.230	0.0179711
758.308	0.0178915
758.387	0.0178683
758.465	0.0178546
758.543	0.0179875
758.621	0.0180035
758.699	0.0179910
758.777	0.0181167
758.855	0.0180120
758.933	0.0179408
759.012	0.0180399
759.090	0.0179616
759.168	0.0181789
759.246	0.0179310
759.324	0.0179761
759.402	0.0181345
759.480	0.0181699
759.558	0.0182843
759.637	0.0180799
759.715	0.0180196
759.793	0.0180009
759.871	0.0181714
759.949	0.0180243
760.027	0.0179972
760.105	0.0181219
760.183	0.0180109
760.262	0.0178853
760.340	0.0178552
760.418	0.0177248
760.496	0.0176987
760.574	0.0176012
760.652	0.0177682
760.730	0.0175569
760.808	0.0176111
760.887	0.0177674
760.965	0.0179444
761.043	0.0177782
761.121	0.0176733
761.199	0.0179679
761.277	0.0180219
761.355	0.0179545
761.433	0.0180013
761.512	0.0180460
761.590	0.0181161
761.668	0.0180091
761.746	0.0181248
761.824	0.0179629
761.902	0.0179697
761.980	0.0179981
762.058	0.0179871
762.137	0.0180210
762.215	0.0179248
762.293	0.0179108
762.371	0.0180107
762.449	0.0180149
762.527	0.0179337
762.605	0.0178840
762.683	0.0179250
762.762	0.0179025
762.840	0.0179575
762.918	0.0179781
762.996	0.0179033
763.074	0.0178874
763.152	0.0179208
763.230	0.0178507
763.308	0.0178670
763.387	0.0179125
763.465	0.0179600
763.543	0.0178464
763.621	0.0178362
763.699	0.0178112
763.777	0.0178618
763.855	0.0178673
763.933	0.0177864
764.012	0.0180405
764.090	0.0179309
764.168	0.0178668
764.246	0.0179544
764.324	0.0178780
764.402	0.0179024
764.480	0.0179615
764.558	0.0178938
764.637	0.0178162
764.715	0.0178851
764.793	0.0179075
764.871	0.0179442
764.949	0.0178592
765.027	0.0178389
765.105	0.0179073
765.183	0.0178677
765.262	0.0180717
765.340	0.0179833
765.418	0.0179756
765.496	0.0179598
765.574	0.0179206
765.652	0.0177950
765.730	0.0178146
765.808	0.0180175
765.887	0.0179823
765.965	0.0178863
766.043	0.0180104
766.121	0.0179134
766.199	0.0178613
766.277	0.0180441
766.355	0.0180858
766.433	0.0178720
766.512	0.0178874
766.590	0.0180232
766.668	0.0180106
766.746	0.0178828
766.824	0.0179272
766.902	0.0181030
766.980	0.0180875
767.058	0.0179662
767.137	0.0179116
767.215	0.0179367
767.293	0.0179992
767.371	0.0179941
767.449	0.0178369
767.527	0.0178842
767.605	0.0178660
767.683	0.0180578
767.762	0.0179462
767.840	0.0178910
767.918	0.0178235
767.996	0.0178143
768.074	0.0177647
768.152	0.0177758
768.230	0.0178432
768.308	0.0178104
768.387	0.0176823
768.465	0.0178032
768.543	0.0177740
768.621	0.0177383
768.699	0.0176699
768.777	0.0178145
768.855	0.0177362
768.933	0.0176615
769.012	0.0177919
769.090	0.0177207
769.168	0.0177914
769.246	0.0179179
769.324	0.0179263
769.402	0.0178497
769.480	0.0178352
769.558	0.0178940
769.637	0.0178809
769.715	0.0179124
769.793	0.0178867
769.871	0.0179373
769.949	0.0177650
770.027	0.0179295
770.105	0.0177637
770.183	0.0178026
770.262	0.0178442
770.340	0.0178075
770.418	0.0177747
770.496	0.0178124
770.574	0.0177422
770.652	0.0178061
770.730	0.0177496
770.808	0.0179053
770.887	0.0178677
770.965	0.0178835
771.043	0.0176933
771.121	0.0177283
771.199	0.0177821
771.277	0.0177776
771.355	0.0177454
771.433	0.0177265
771.512	0.0177423
771.590	0.0176957
771.668	0.0176841
771.746	0.0176618
771.824	0.0175886
771.902	0.0176580
771.980	0.0177938
772.058	0.0179575
772.137	0.0177352
772.215	0.0178223
772.293	0.0177516
772.371	0.0178089
772.449	0.0177938
772.527	0.0177766
772.605	0.0178403
772.683	0.0178850
772.762	0.0178313
772.840	0.0178291
772.918	0.0177702
772.996	0.0177761
773.074	0.0176727
773.152	0.0176711
773.230	0.0177556
773.308	0.0177382
773.387	0.0177147
773.465	0.0176344
773.543	0.0175591
773.621	0.0175811
773.699	0.0175661
773.777	0.0175707
773.855	0.0175562
773.933	0.0176413
774.012	0.0175658
774.090	0.0176965
774.168	0.0177242
774.246	0.0176798
774.324	0.0179396
774.402	0.0178238
774.480	0.0176811
774.558	0.0177293
774.637	0.0177728
774.715	0.0178767
774.793	0.0180797
774.871	0.0179553
774.949	0.0179757
775.027	0.0180312
775.105	0.0181096
775.183	0.0180676
775.262	0.0180756
775.340	0.0180338
775.418	0.0179389
775.496	0.0178475
775.574	0.0178355
775.652	0.0178847
775.730	0.0178999
775.808	0.0178007
775.887	0.0179532
775.965	0.0180637
776.043	0.0178938
776.121	0.0179224
776.199	0.0178672
776.277	0.0178969
776.355	0.0179477
776.433	0.0178817
776.512	0.0179857
776.590	0.0178860
776.668	0.0178371
776.746	0.0180019
776.824	0.0179703
776.902	0.0179713
776.980	0.0178786
777.058	0.0179812
777.137	0.0178799
777.215	0.0178271
777.293	0.0179884
777.371	0.0179474
777.449	0.0178997
777.527	0.0180817
777.605	0.0179900
777.683	0.0178157
777.762	0.0178468
777.840	0.0178329
777.918	0.0179572
777.996	0.0178577
778.074	0.0177818
778.152	0.0177893
778.230	0.0177667
778.308	0.0178088
778.387	0.0178734
778.465	0.0178150
778.543	0.0177850
778.621	0.0178796
778.699	0.0178374
778.777	0.0177573
778.855	0.0178208
778.933	0.0178062
779.012	0.0179533
779.090	0.0178719
779.168	0.0178251
779.246	0.0179396
779.324	0.0179388
779.402	0.0178178
779.480	0.0179208
779.558	0.0180443
779.637	0.0178584
779.715	0.0179414
779.793	0.0179598
779.871	0.0179951
779.949	0.0180024
780.027	0.0179465
780.105	0.0179453
780.183	0.0179933
780.262	0.0181506
780.340	0.0179399
780.418	0.0178382
780.496	0.0179410
780.574	0.0179369
780.652	0.0179601
780.730	0.0179163
780.808	0.0177321
780.887	0.0178284
780.965	0.0179105
781.043	0.0179287
781.121	0.0177704
781.199	0.0178363
781.277	0.0180134
781.355	0.0177205
781.433	0.0176634
781.512	0.0177544
781.590	0.0177320
781.668	0.0177943
781.746	0.0178148
781.824	0.0178860
781.902	0.0177384
781.980	0.0178970
782.058	0.0178719
782.137	0.0178693
782.215	0.0178657
782.293	0.0178342
782.371	0.0178363
782.449	0.0178506
782.527	0.0179356
782.605	0.0179362
782.683	0.0178130
782.762	0.0179308
782.840	0.0178986
782.918	0.0179336
782.996	0.0178456
783.074	0.0178855
783.152	0.0178621
783.230	0.0179868
783.308	0.0178282
783.387	0.0178728
783.465	0.0178516
783.543	0.0179679
783.621	0.0180519
783.699	0.0179314
783.777	0.0179244
783.855	0.0179188
783.933	0.0180684
784.012	0.0179521
784.090	0.0179753
784.168	0.0179250
784.246	0.0178535
784.324	0.0178776
784.402	0.0178461
784.480	0.0178654
784.558	0.0177718
784.637	0.0179350
784.715	0.0178702
784.793	0.0178467
784.871	0.0177898
784.949	0.0177772
785.027	0.0177480
785.105	0.0178597
785.183	0.0177533
785.262	0.0176698
785.340	0.0176853
785.418	0.0177039
785.496	0.0175728
785.574	0.0177706
785.652	0.0177267
785.730	0.0175757
785.808	0.0177364
785.887	0.0177319
785.965	0.0175790
786.043	0.0176380
786.121	0.0178410
786.199	0.0178415
786.277	0.0178127
786.355	0.0177748
786.433	0.0178095
786.512	0.0178671
786.590	0.0178899
786.668	0.0179201
786.746	0.0180048
786.824	0.0180270
786.902	0.0179915
786.980	0.0179752
787.058	0.0180780
787.137	0.0180929
787.215	0.0179814
787.293	0.0180546
787.371	0.0180525
787.449	0.0179521
787.527	0.0180906
787.605	0.0179046
787.683	0.0179220
787.762	0.0179498
787.840	0.0179152
787.918	0.0179140
787.996	0.0177739
788.074	0.0179078
788.152	0.0178578
788.230	0.0179069
788.308	0.0179251
788.387	0.0177145
788.465	0.0177346
788.543	0.0177943
788.621	0.0177241
788.699	0.0177467
788.777	0.0177126
788.855	0.0177627
788.933	0.0177782
789.012	0.0176948
789.090	0.0176151
789.168	0.0176887
789.246	0.0176630
789.324	0.0176467
789.402	0.0176539
789.480	0.0177090
789.558	0.0176334
789.637	0.0176311
789.715	0.0176806
789.793	0.0177230
789.871	0.0177577
789.949	0.0175821
790.027	0.0177311
790.105	0.0176686
790.183	0.0177641
790.262	0.0177201
790.340	0.0177650
790.418	0.0178271
790.496	0.0177238
790.574	0.0178025
790.652	0.0178799
790.730	0.0176812
790.808	0.0178166
790.887	0.0179424
790.965	0.0179369
791.043	0.0177440
791.121	0.0179246
791.199	0.0178467
791.277	0.0177358
791.355	0.0177871
791.433	0.0179491
791.512	0.0178454
791.590	0.0179597
791.668	0.0178850
791.746	0.0179253
791.824	0.0180031
791.902	0.0179752
791.980	0.0178368
792.058	0.0180198
792.137	0.0180001
792.215	0.0178373
792.293	0.0180162
792.371	0.0180546
792.449	0.0178989
792.527	0.0178683
792.605	0.0178954
792.683	0.0179414
792.762	0.0179679
792.840	0.0180759
792.918	0.0179550
792.996	0.0180022
793.074	0.0179472
793.152	0.0178755
793.230	0.0178400
793.308	0.0179049
793.387	0.0180585
793.465	0.0179164
793.543	0.0177632
793.621	0.0179656
793.699	0.0178725
793.777	0.0179416
793.855	0.0179206
793.933	0.0178435
794.012	0.0180479
794.090	0.0178636
794.168	0.0178680
794.246	0.0178501
794.324	0.0179941
794.402	0.0180064
794.480	0.0180010
794.558	0.0179400
794.637	0.0180150
794.715	0.0179819
794.793	0.0178783
794.871	0.0178436
794.949	0.0179778
795.027	0.0178770
795.105	0.0179349
795.183	0.0178575
795.262	0.0179756
795.340	0.0179783
795.418	0.0177529
795.496	0.0177957
795.574	0.0178439
795.652	0.0178561
795.730	0.0178215
795.808	0.0177839
795.887	0.0178119
795.965	0.0178662
796.043	0.0176357
796.121	0.0176616
796.199	0.0177959
796.277	0.0175940
796.355	0.0177665
796.433	0.0177173
796.512	0.0177153
796.590	0.0176035
796.668	0.0175209
796.746	0.0178068
796.824	0.0177683
796.902	0.0176089
796.980	0.0177512
797.058	0.0177314
797.137	0.0177689
797.215	0.0176723
797.293	0.0177027
797.371	0.0177306
797.449	0.0178245
797.527	0.0178678
797.605	0.0178321
797.683	0.0179924
797.762	0.0179238
797.840	0.0178059
797.918	0.0179675
797.996	0.0178782
798.074	0.0180347
798.152	0.0180799
798.230	0.0180237
798.308	0.0179244
798.387	0.0180753
798.465	0.0180251
798.543	0.0180367
798.621	0.0179666
798.699	0.0180099
798.777	0.0180833
798.855	0.0180831
798.933	0.0180408
799.012	0.0178054
799.090	0.0178896
799.168	0.0178832
799.246	0.0179092
799.324	0.0178029
799.402	0.0179080
799.480	0.0178268
799.558	0.0178641
799.637	0.0179208
799.715	0.0180103
799.793	0.0178312
799.871	0.0179617
799.949	0.0178493
800.027	0.0177540
800.105	0.0178475
800.183	0.0179642
800.262	0.0178553
800.340	0.0179456
800.418	0.0179369
800.496	0.0178958
800.574	0.0178421
800.652	0.0178971
800.730	0.0179025
800.808	0.0179364
800.887	0.0177799
800.965	0.0177706
801.043	0.0179681
801.121	0.0179667
801.199	0.0179266
801.277	0.0178963
801.355	0.0179810
801.433	0.0178178
801.512	0.0180036
801.590	0.0176722
801.668	0.0178658
801.746	0.0179160
801.824	0.0178633
801.902	0.0177998
801.980	0.0178294
802.058	0.0177647
802.137	0.0177344
802.215	0.0178994
802.293	0.0177346
802.371	0.0179496
802.449	0.0178616
802.527	0.0178683
802.605	0.0177824
802.683	0.0178687
802.762	0.0179905
802.840	0.0179344
802.918	0.0179180
802.996	0.0180294
803.074	0.0179254
803.152	0.0178963
803.230	0.0179652
803.308	0.0180604
803.387	0.0180428
803.465	0.0180358
803.543	0.0181478
803.621	0.0179454
803.699	0.0180059
803.777	0.0180328
803.855	0.0180486
803.933	0.0181227
804.012	0.0180347
804.090	0.0180194
804.168	0.0180917
804.246	0.0180315
804.324	0.0180051
804.402	0.0180923
804.480	0.0180473
804.558	0.0179900
804.637	0.0178948
804.715	0.0181042
804.793	0.0181204
804.871	0.0180428
804.949	0.0180031
805.027	0.0179166
805.105	0.0179998
805.183	0.0179560
805.262	0.0178983
805.340	0.0178944
805.418	0.0179197
805.496	0.0179084
805.574	0.0177756
805.652	0.0177724
805.730	0.0177998
805.808	0.0179526
805.887	0.0178385
805.965	0.0178484
806.043	0.0177549
806.121	0.0178027
806.199	0.0179429
806.277	0.0177792
806.355	0.0178684
806.433	0.0178870
806.512	0.0180094
806.590	0.0179121
806.668	0.0177422
806.746	0.0180344
806.824	0.0180308
806.902	0.0179233
806.980	0.0179095
807.058	0.0179681
807.137	0.0180231
807.215	0.0178976
807.293	0.0178190
807.371	0.0178525
807.449	0.0179028
807.527	0.0179301
807.605	0.0178340
807.683	0.0178355
807.762	0.0178819
807.840	0.0177191
807.918	0.0178347
807.996	0.0178471
808.074	0.0178504
808.152	0.0179253
808.230	0.0176225
808.308	0.0176067
808.387	0.0177792
808.465	0.0177252
808.543	0.0178017
808.621	0.0178861
808.699	0.0178543
808.777	0.0178671
808.855	0.0177982
808.933	0.0179365
809.012	0.0178921
809.090	0.0179311
809.168	0.0177679
809.246	0.0178939
809.324	0.0178887
809.402	0.0179092
809.480	0.0178287
809.558	0.0178561
809.637	0.0179398
809.715	0.0178534
809.793	0.0178720
809.871	0.0177701
809.949	0.0178368
810.027	0.0177423
810.105	0.0177582
810.183	0.0178372
810.262	0.0178005
810.340	0.0178518
810.418	0.0177765
810.496	0.0177105
810.574	0.0177679
810.652	0.0176510
810.730	0.0177036
810.808	0.0177705
810.887	0.0177148
810.965	0.0179533
811.043	0.0177882
811.121	0.0178849
811.199	0.0179786
811.277	0.0178020
811.355	0.0177654
811.433	0.0178764
811.512	0.0180177
811.590	0.0179264
811.668	0.0180170
811.746	0.0179979
811.824	0.0177798
811.902	0.0180878
811.980	0.0180040
812.058	0.0180090
812.137	0.0178569
812.215	0.0178902
812.293	0.0179556
812.371	0.0180075
812.449	0.0180234
812.527	0.0179156
812.605	0.0178802
812.683	0.0178514
812.762	0.0178072
812.840	0.0178768
812.918	0.0178684
812.996	0.0178014
813.074	0.0178307
813.152	0.0179310
813.230	0.0179063
813.308	0.0178136
813.387	0.0177814
813.465	0.0178031
813.543	0.0177041
813.621	0.0177351
813.699	0.0177278
813.777	0.0177878
813.855	0.0177900
813.933	0.0176837
814.012	0.0177564
814.090	0.0179214
814.168	0.0178723
814.246	0.0179215
814.324	0.0178783
814.402	0.0178059
814.480	0.0177110
814.558	0.0179461
814.637	0.0179736
814.715	0.0180180
814.793	0.0180148
814.871	0.0179312
814.949	0.0178754
815.027	0.0179135
815.105	0.0180695
815.183	0.0180383
815.262	0.0179770
815.340	0.0179476
815.418	0.0179135
815.496	0.0179079
815.574	0.0179513
815.652	0.0179100
815.730	0.0180193
815.808	0.0180566
815.887	0.0179272
815.965	0.0179823
816.043	0.0179699
816.121	0.0179192
816.199	0.0178825
816.277	0.0180677
816.355	0.0178218
816.433	0.0178720
816.512	0.0178993
816.590	0.0178229
816.668	0.0177991
816.746	0.0179516
816.824	0.0180213
816.902	0.0179235
816.980	0.0177625
817.058	0.0180052
817.137	0.0179256
817.215	0.0178942
817.293	0.0179890
817.371	0.0179084
817.449	0.0177920
817.527	0.0180164
817.605	0.0179336
817.683	0.0178144
817.762	0.0178561
817.840	0.0178568
817.918	0.0177912
817.996	0.0177639
818.074	0.0178114
818.152	0.0178558
818.230	0.0177584
818.308	0.0178296
818.387	0.0177969
818.465	0.0179726
818.543	0.0177338
818.621	0.0177451
818.699	0.0178790
818.777	0.0178222
818.855	0.0178564
818.933	0.0177522
819.012	0.0178323
819.090	0.0178008
819.168	0.0178370
819.246	0.0177407
819.324	0.0179083
819.402	0.0178909
819.480	0.0179453
819.558	0.0179091
819.637	0.0179353
819.715	0.0178409
819.793	0.0177622
819.871	0.0177673
819.949	0.0178668
820.027	0.0177252
820.105	0.0179430
820.183	0.0178825
820.262	0.0178274
820.340	0.0177922
820.418	0.0179028
820.496	0.0178932
820.574	0.0180363
820.652	0.0181364
820.730	0.0180432
820.808	0.0180502
820.887	0.0181546
820.965	0.0180518
821.043	0.0178779
821.121	0.0180122
821.199	0.0180994
821.277	0.0179582
821.355	0.0179973
821.433	0.0180663
821.512	0.0179254
821.590	0.0179524
821.668	0.0178986
821.746	0.0178400
821.824	0.0178780
821.902	0.0179816
821.980	0.0179255
822.058	0.0179784
822.137	0.0179099
822.215	0.0180358
822.293	0.0179768
822.371	0.0180457
822.449	0.0180557
822.527	0.0179775
822.605	0.0180397
822.683	0.0180102
822.762	0.0180695
822.840	0.0180556
822.918	0.0180977
822.996	0.0181232
823.074	0.0181667
823.152	0.0180843
823.230	0.0179998
823.308	0.0180293
823.387	0.0181217
823.465	0.0181245
823.543	0.0179932
823.621	0.0180022
823.699	0.0180617
823.777	0.0180166
823.855	0.0180225
823.933	0.0180431
824.012	0.0178770
824.090	0.0179610
824.168	0.0179285
824.246	0.0179573
824.324	0.0178346
824.402	0.0178446
824.480	0.0177951
824.558	0.0179366
824.637	0.0178736
824.715	0.0177842
824.793	0.0179590
824.871	0.0179103
824.949	0.0179372
825.027	0.0180326
825.105	0.0181202
825.183	0.0179713
825.262	0.0180181
825.340	0.0180691
825.418	0.0179115
825.496	0.0180487
825.574	0.0180695
825.652	0.0179081
825.730	0.0178909
825.808	0.0179439
825.887	0.0181375
825.965	0.0178885
826.043	0.0178518
826.121	0.0179639
826.199	0.0179306
826.277	0.0180720
826.355	0.0179784
826.433	0.0178980
826.512	0.0179494
826.590	0.0178362
826.668	0.0179173
826.746	0.0178558
826.824	0.0179634
826.902	0.0178926
826.980	0.0180177
827.058	0.0178336
827.137	0.0178824
827.215	0.0178789
827.293	0.0179883
827.371	0.0178867
827.449	0.0179470
827.527	0.0178661
827.605	0.0179686
827.683	0.0177448
827.762	0.0177876
827.840	0.0178589
827.918	0.0179532
827.996	0.0178864
828.074	0.0179996
828.152	0.0178252
828.230	0.0179583
828.308	0.0177962
828.387	0.0179063
828.465	0.0179455
828.543	0.0180455
828.621	0.0177925
828.699	0.0179345
828.777	0.0179581
828.855	0.0178366
828.933	0.0179015
829.012	0.0178960
829.090	0.0178974
829.168	0.0178903
829.246	0.0179495
829.324	0.0179504
829.402	0.0178281
829.480	0.0178694
829.558	0.0178740
829.637	0.0178129
829.715	0.0178526
829.793	0.0177792
829.871	0.0178972
829.949	0.0178267
830.027	0.0179089
830.105	0.0178676
830.183	0.0178421
830.262	0.0176980
830.340	0.0177007
830.418	0.0177355
830.496	0.0179445
830.574	0.0177787
830.652	0.0177373
830.730	0.0176778
830.808	0.0177832
830.887	0.0178076
830.965	0.0177354
831.043	0.0179226
831.121	0.0178367
831.199	0.0177791
831.277	0.0179652
831.355	0.0179671
831.433	0.0178797
831.512	0.0179453
831.590	0.0179585
831.668	0.0179154
831.746	0.0180907
831.824	0.0179183
831.902	0.0179961
831.980	0.0179023
832.058	0.0178738
832.137	0.0178616
832.215	0.0178732
832.293	0.0180497
832.371	0.0179221
832.449	0.0178601
832.527	0.0177805
832.605	0.0177992
832.683	0.0177877
832.762	0.0179355
832.840	0.0177881
832.918	0.0178629
832.996	0.0177773
833.074	0.0177943
833.152	0.0178209
833.230	0.0179785
833.308	0.0179256
833.387	0.0178539
833.465	0.0178365
833.543	0.0180679
833.621	0.0180249
833.699	0.0179463
833.777	0.0180045
833.855	0.0177928
833.933	0.0179427
834.012	0.0181229
834.090	0.0181494
834.168	0.0180602
834.246	0.0180672
834.324	0.0180681
834.402	0.0178407
834.480	0.0179945
834.558	0.0180061
834.637	0.0179324
834.715	0.0179807
834.793	0.0179736
834.871	0.0179644
834.949	0.0178294
835.027	0.0178328
835.105	0.0178945
835.183	0.0178796
835.262	0.0178838
835.340	0.0178516
835.418	0.0178384
835.496	0.0178735
835.574	0.0179170
835.652	0.0178680
835.730	0.0178616
835.808	0.0178527
835.887	0.0178918
835.965	0.0179245
836.043	0.0177878
836.121	0.0178285
836.199	0.0180173
836.277	0.0178615
836.355	0.0178541
836.433	0.0177903
836.512	0.0179871
836.590	0.0179424
836.668	0.0179341
836.746	0.0179427
836.824	0.0179404
836.902	0.0179560
836.980	0.0180013
837.058	0.0179052
837.137	0.0179991
837.215	0.0180806
837.293	0.0181881
837.371	0.0180267
837.449	0.0179530
837.527	0.0178288
837.605	0.0179187
837.683	0.0178819
837.762	0.0178554
837.840	0.0178630
837.918	0.0178914
837.996	0.0178410
838.074	0.0178104
838.152	0.0180074
838.230	0.0180293
838.308	0.0177728
838.387	0.0177943
838.465	0.0177819
838.543	0.0178329
838.621	0.0177173
838.699	0.0177289
838.777	0.0178679
838.855	0.0178602
838.933	0.0178638
839.012	0.0178875
839.090	0.0180150
839.168	0.0178735
839.246	0.0178822
839.324	0.0178135
839.402	0.0178585
839.480	0.0178796
839.558	0.0179984
839.637	0.0180624
839.715	0.0180041
839.793	0.0181165
839.871	0.0179817
839.949	0.0181020
840.027	0.0180509
840.105	0.0181326
840.183	0.0181940
840.262	0.0180827
840.340	0.0180019
840.418	0.0179049
840.496	0.0180462
840.574	0.0180645
840.652	0.0180100
840.730	0.0180023
840.808	0.0179761
840.887	0.0179006
840.965	0.0179549
841.043	0.0179121
841.121	0.0179221
841.199	0.0179745
841.277	0.0179232
841.355	0.0179022
841.433	0.0178195
841.512	0.0179752
841.590	0.0179222
841.668	0.0176907
841.746	0.0177542
841.824	0.0179078
841.902	0.0177724
841.980	0.0178374
842.058	0.0179048
842.137	0.0178763
842.215	0.0178874
842.293	0.0176270
842.371	0.0177122
842.449	0.0177951
842.527	0.0177280
842.605	0.0178260
842.683	0.0178524
842.762	0.0178677
842.840	0.0178094
842.918	0.0178663
842.996	0.0178332
843.074	0.0178772
843.152	0.0177275
843.230	0.0177083
843.308	0.0178934
843.387	0.0178716
843.465	0.0177528
843.543	0.0178486
843.621	0.0178402
843.699	0.0178239
843.777	0.0179227
843.855	0.0179500
843.933	0.0178735
844.012	0.0178808
844.090	0.0178539
844.168	0.0177604
844.246	0.0178127
844.324	0.0178868
844.402	0.0179436
844.480	0.0178339
844.558	0.0179057
844.637	0.0179784
844.715	0.0178599
844.793	0.0178615
844.871	0.0179375
844.949	0.0178634
845.027	0.0178857
845.105	0.0178693
845.183	0.0179264
845.262	0.0178328
845.340	0.0178207
845.418	0.0179550
845.496	0.0180124
845.574	0.0179664
845.652	0.0179922
845.730	0.0180289
845.808	0.0180991
845.887	0.0179779
845.965	0.0181204
846.043	0.0181343
846.121	0.0181148
846.199	0.0178818
846.277	0.0178986
846.355	0.0179122
846.433	0.0179274
846.512	0.0179767
846.590	0.0179081
846.668	0.0179472
846.746	0.0179065
846.824	0.0178931
846.902	0.0179301
846.980	0.0178973
847.058	0.0178844
847.137	0.0178442
847.215	0.0177536
847.293	0.0178912
847.371	0.0177846
847.449	0.0177103
847.527	0.0177544
847.605	0.0176920
847.683	0.0177554
847.762	0.0178109
847.840	0.0178322
847.918	0.0177664
847.996	0.0178600
848.074	0.0179551
848.152	0.0178053
848.230	0.0177677
848.308	0.0179003
848.387	0.0178824
848.465	0.0177472
848.543	0.0177256
848.621	0.0177809
848.699	0.0178500
848.777	0.0178486
848.855	0.0178864
848.933	0.0179327
849.012	0.0179821
849.090	0.0180278
849.168	0.0178457
849.246	0.0179402
849.324	0.0180907
849.402	0.0179179
849.480	0.0178773
849.558	0.0178941
849.637	0.0178348
849.715	0.0179755
849.793	0.0180044
849.871	0.0179577
849.949	0.0179907
850.027	0.0178779
850.105	0.0178453
850.183	0.0177122
850.262	0.0177788
850.340	0.0179520
850.418	0.0179390
850.496	0.0179060
850.574	0.0178835
850.652	0.0178432
850.730	0.0178542
850.808	0.0176577
850.887	0.0176953
850.965	0.0178203
851.043	0.0178380
851.121	0.0177625
851.199	0.0177746
851.277	0.0177995
851.355	0.0178786
851.433	0.0177705
851.512	0.0178415
851.590	0.0177365
851.668	0.0178031
851.746	0.0178512
851.824	0.0179597
851.902	0.0177972
851.980	0.0179449
852.058	0.0179497
852.137	0.0178616
852.215	0.0178632
852.293	0.0178595
852.371	0.0179298
852.449	0.0177691
852.527	0.0179164
852.605	0.0178817
852.683	0.0177635
852.762	0.0178857
852.840	0.0180271
852.918	0.0178176
852.996	0.0177377
853.074	0.0178140
853.152	0.0178222
853.230	0.0177250
853.308	0.0178826
853.387	0.0179346
853.465	0.0178924
853.543	0.0179887
853.621	0.0179842
853.699	0.0178844
853.777	0.0178924
853.855	0.0178733
853.933	0.0178111
854.012	0.0178926
854.090	0.0177889
854.168	0.0179062
854.246	0.0180769
854.324	0.0179774
854.402	0.0178856
854.480	0.0178616
854.558	0.0179836
854.637	0.0178532
854.715	0.0179145
854.793	0.0178993
854.871	0.0179454
854.949	0.0178625
855.027	0.0179541
855.105	0.0178097
855.183	0.0179037
855.262	0.0178095
855.340	0.0179258
855.418	0.0178564
855.496	0.0179346
855.574	0.0179961
855.652	0.0178954
855.730	0.0179466
855.808	0.0178658
855.887	0.0179484
855.965	0.0178650
856.043	0.0179342
856.121	0.0181174
856.199	0.0179092
856.277	0.0179585
856.355	0.0180701
856.433	0.0179362
856.512	0.0181323
856.590	0.0180450
856.668	0.0180164
856.746	0.0181741
856.824	0.0181498
856.902	0.0180776
856.980	0.0180582
857.058	0.0180782
857.137	0.0181516
857.215	0.0180228
857.293	0.0180974
857.371	0.0180435
857.449	0.0180843
857.527	0.0181615
857.605	0.0179832
857.683	0.0180725
857.762	0.0178921
857.840	0.0180005
857.918	0.0179070
857.996	0.0179570
858.074	0.0180030
858.152	0.0179968
858.230	0.0179778
858.308	0.0178930
858.387	0.0179432
858.465	0.0179700
858.543	0.0179566
858.621	0.0180189
858.699	0.0178633
858.777	0.0178790
858.855	0.0179671
858.933	0.0179643
859.012	0.0179671
859.090	0.0179539
859.168	0.0179745
859.246	0.0180495
859.324	0.0178830
859.402	0.0179051
859.480	0.0179077
859.558	0.0179277
859.637	0.0179321
859.715	0.0179965
859.793	0.0177948
859.871	0.0179510
859.949	0.0179464
860.027	0.0179094
860.105	0.0179268
860.183	0.0179520
860.262	0.0178254
860.340	0.0178442
860.418	0.0179062
860.496	0.0177888
860.574	0.0179259
860.652	0.0180342
860.730	0.0179909
860.808	0.0180123
860.887	0.0179890
860.965	0.0180751
861.043	0.0179071
861.121	0.0177897
861.199	0.0178523
861.277	0.0180478
861.355	0.0180566
861.433	0.0180009
861.512	0.0179809
861.590	0.0180643
861.668	0.0179871
861.746	0.0179430
861.824	0.0179981
861.902	0.0179109
861.980	0.0179173
862.058	0.0179746
862.137	0.0179398
862.215	0.0180387
862.293	0.0178516
862.371	0.0180182
862.449	0.0178789
862.527	0.0178750
862.605	0.0178693
862.683	0.0179114
862.762	0.0179008
862.840	0.0178732
862.918	0.0177777
862.996	0.0178134
863.074	0.0178884
863.152	0.0178973
863.230	0.0177421
863.308	0.0178541
863.387	0.0178484
863.465	0.0179582
863.543	0.0179330
863.621	0.0177660
863.699	0.0178381
863.777	0.0178625
863.855	0.0179014
863.933	0.0178915
864.012	0.0178168
864.090	0.0179307
864.168	0.0178777
864.246	0.0179277
864.324	0.0177505
864.402	0.0177951
864.480	0.0177666
864.558	0.0179332
864.637	0.0179676
864.715	0.0178951
864.793	0.0177936
864.871	0.0180154
864.949	0.0180086
865.027	0.0179122
865.105	0.0179494
865.183	0.0180350
865.262	0.0179871
865.340	0.0179906
865.418	0.0179231
865.496	0.0180329
865.574	0.0179198
865.652	0.0179561
865.730	0.0179605
865.808	0.0178439
865.887	0.0177959
865.965	0.0177976
866.043	0.0178589
866.121	0.0179305
866.199	0.0178378
866.277	0.0178162
866.355	0.0177686
866.433	0.0177700
866.512	0.0178722
866.590	0.0176593
866.668	0.0178288
866.746	0.0177638
866.824	0.0177150
866.902	0.0177257
866.980	0.0177313
867.058	0.0179237
867.137	0.0177782
867.215	0.0177531
867.293	0.0178754
867.371	0.0177398
867.449	0.0177248
867.527	0.0177615
867.605	0.0177351
867.683	0.0178558
867.762	0.0178416
867.840	0.0177409
867.918	0.0178634
867.996	0.0178343
868.074	0.0177919
868.152	0.0177944
868.230	0.0178769
868.308	0.0178175
868.387	0.0179288
868.465	0.0177499
868.543	0.0177394
868.621	0.0178967
868.699	0.0179529
868.777	0.0178501
868.855	0.0176942
868.933	0.0178190
869.012	0.0178877
869.090	0.0179128
869.168	0.0177872
869.246	0.0178559
869.324	0.0178745
869.402	0.0177912
869.480	0.0178230
869.558	0.0178012
869.637	0.0178104
869.715	0.0176880
869.793	0.0178171
869.871	0.0177452
869.949	0.0177795
