06/03/2022	18:34:19	Ver.	4.1	UNKNOWN
Optical Delay	550.027179	Delta X		0.078125	Sweeps	1	Scan Rate	0/0
Coordinates	Axis 1	NaN	Axis 2	NaN	Axis 3	NaN	Axis 4	NaN	Axis 5	NaN	Axis 6	0.000000
TX Power	0.000000	RX Power	0.000000

550.027	0.0174437
550.105	0.0174364
550.183	0.0173813
550.262	0.0174821
550.340	0.0176361
550.418	0.0174712
550.496	0.0174682
550.574	0.0174908
550.652	0.0176315
550.730	0.0174468
550.808	0.0174425
550.887	0.0175530
550.965	0.0174658
551.043	0.0175413
551.121	0.0175874
551.199	0.0174968
551.277	0.0175043
551.355	0.0174461
551.433	0.0174982
551.512	0.0175089
551.590	0.0174271
551.668	0.0174821
551.746	0.0175332
551.824	0.0174335
551.902	0.0175125
551.980	0.0175825
552.058	0.0174995
552.137	0.0175101
552.215	0.0174142
552.293	0.0175106
552.371	0.0173982
552.449	0.0172717
552.527	0.0175367
552.605	0.0174836
552.683	0.0175108
552.762	0.0174441
552.840	0.0174833
552.918	0.0173416
552.996	0.0173112
553.074	0.0175346
553.152	0.0175098
553.230	0.0173541
553.308	0.0175122
553.387	0.0173931
553.465	0.0174025
553.543	0.0173053
553.621	0.0174971
553.699	0.0173478
553.777	0.0172955
553.855	0.0173396
553.933	0.0173904
554.012	0.0173646
554.090	0.0172545
554.168	0.0174416
554.246	0.0173735
554.324	0.0172904
554.402	0.0174205
554.480	0.0174062
554.558	0.0172002
554.637	0.0173469
554.715	0.0172861
554.793	0.0172457
554.871	0.0172977
554.949	0.0173254
555.027	0.0173820
555.105	0.0173856
555.183	0.0172469
555.262	0.0172351
555.340	0.0173277
555.418	0.0173667
555.496	0.0174050
555.574	0.0172990
555.652	0.0173275
555.730	0.0173018
555.808	0.0173867
555.887	0.0172633
555.965	0.0173228
556.043	0.0173141
556.121	0.0173061
556.199	0.0173653
556.277	0.0173341
556.355	0.0172878
556.433	0.0173801
556.512	0.0171430
556.590	0.0172861
556.668	0.0173664
556.746	0.0173702
556.824	0.0173358
556.902	0.0174242
556.980	0.0174758
557.058	0.0173500
557.137	0.0172834
557.215	0.0173427
557.293	0.0173022
557.371	0.0173734
557.449	0.0173178
557.527	0.0173614
557.605	0.0174693
557.683	0.0174873
557.762	0.0172879
557.840	0.0173436
557.918	0.0175037
557.996	0.0171828
558.074	0.0173968
558.152	0.0173719
558.230	0.0173346
558.308	0.0174141
558.387	0.0173357
558.465	0.0174194
558.543	0.0174686
558.621	0.0173029
558.699	0.0173785
558.777	0.0174427
558.855	0.0173967
558.933	0.0174189
559.012	0.0175466
559.090	0.0173759
559.168	0.0174516
559.246	0.0173782
559.324	0.0174994
559.402	0.0174792
559.480	0.0174925
559.558	0.0175560
559.637	0.0173878
559.715	0.0175043
559.793	0.0175453
559.871	0.0173632
559.949	0.0175680
560.027	0.0175341
560.105	0.0175401
560.183	0.0176920
560.262	0.0177850
560.340	0.0176004
560.418	0.0175761
560.496	0.0176888
560.574	0.0175949
560.652	0.0176737
560.730	0.0176553
560.808	0.0176920
560.887	0.0176898
560.965	0.0176755
561.043	0.0176254
561.121	0.0176450
561.199	0.0176480
561.277	0.0176257
561.355	0.0176698
561.433	0.0176115
561.512	0.0175744
561.590	0.0175623
561.668	0.0175790
561.746	0.0175368
561.824	0.0175375
561.902	0.0175559
561.980	0.0176153
562.058	0.0175180
562.137	0.0176185
562.215	0.0176053
562.293	0.0173978
562.371	0.0175216
562.449	0.0175610
562.527	0.0175543
562.605	0.0174731
562.683	0.0175364
562.762	0.0174335
562.840	0.0174730
562.918	0.0174217
562.996	0.0175507
563.074	0.0175014
563.152	0.0173681
563.230	0.0174976
563.308	0.0174954
563.387	0.0175092
563.465	0.0175115
563.543	0.0174855
563.621	0.0175165
563.699	0.0174624
563.777	0.0176272
563.855	0.0175699
563.933	0.0175005
564.012	0.0175680
564.090	0.0176147
564.168	0.0174261
564.246	0.0176047
564.324	0.0176019
564.402	0.0175504
564.480	0.0175087
564.558	0.0174908
564.637	0.0174395
564.715	0.0175072
564.793	0.0175407
564.871	0.0173873
564.949	0.0174497
565.027	0.0174773
565.105	0.0176016
565.183	0.0174979
565.262	0.0176022
565.340	0.0175315
565.418	0.0175862
565.496	0.0174786
565.574	0.0175047
565.652	0.0175134
565.730	0.0175410
565.808	0.0174362
565.887	0.0175228
565.965	0.0175074
566.043	0.0175461
566.121	0.0174296
566.199	0.0174180
566.277	0.0174947
566.355	0.0175491
566.433	0.0175169
566.512	0.0174059
566.590	0.0174129
566.668	0.0173779
566.746	0.0174200
566.824	0.0174339
566.902	0.0173710
566.980	0.0175958
567.058	0.0175458
567.137	0.0174255
567.215	0.0173922
567.293	0.0175413
567.371	0.0174486
567.449	0.0174152
567.527	0.0174806
567.605	0.0174835
567.683	0.0174635
567.762	0.0174579
567.840	0.0174753
567.918	0.0174467
567.996	0.0174122
568.074	0.0175270
568.152	0.0174527
568.230	0.0174680
568.308	0.0175278
568.387	0.0173921
568.465	0.0174754
568.543	0.0175677
568.621	0.0175473
568.699	0.0175318
568.777	0.0175217
568.855	0.0176256
568.933	0.0176398
569.012	0.0174811
569.090	0.0175130
569.168	0.0174985
569.246	0.0175211
569.324	0.0177172
569.402	0.0176640
569.480	0.0176691
569.558	0.0175080
569.637	0.0176555
569.715	0.0177340
569.793	0.0176339
569.871	0.0176316
569.949	0.0177251
570.027	0.0177341
570.105	0.0177853
570.183	0.0177369
570.262	0.0176691
570.340	0.0176401
570.418	0.0176818
570.496	0.0177248
570.574	0.0178045
570.652	0.0177025
570.730	0.0177679
570.808	0.0178491
570.887	0.0177218
570.965	0.0177013
571.043	0.0177271
571.121	0.0176315
571.199	0.0177340
571.277	0.0176378
571.355	0.0176825
571.433	0.0176675
571.512	0.0176981
571.590	0.0175446
571.668	0.0176149
571.746	0.0176652
571.824	0.0176558
571.902	0.0176365
571.980	0.0176176
572.058	0.0176436
572.137	0.0175098
572.215	0.0174645
572.293	0.0174918
572.371	0.0176205
572.449	0.0175123
572.527	0.0175595
572.605	0.0174690
572.683	0.0173579
572.762	0.0175274
572.840	0.0175707
572.918	0.0174564
572.996	0.0174723
573.074	0.0174795
573.152	0.0174455
573.230	0.0174215
573.308	0.0174883
573.387	0.0172754
573.465	0.0173998
573.543	0.0175713
573.621	0.0173376
573.699	0.0174413
573.777	0.0173319
573.855	0.0173100
573.933	0.0174992
574.012	0.0174329
574.090	0.0174637
574.168	0.0172379
574.246	0.0173393
574.324	0.0173620
574.402	0.0173602
574.480	0.0173407
574.558	0.0173273
574.637	0.0173684
574.715	0.0173390
574.793	0.0173513
574.871	0.0172030
574.949	0.0174823
575.027	0.0173669
575.105	0.0174100
575.183	0.0173861
575.262	0.0173482
575.340	0.0174216
575.418	0.0174647
575.496	0.0172569
575.574	0.0171924
575.652	0.0173023
575.730	0.0173956
575.808	0.0174169
575.887	0.0173695
575.965	0.0174318
576.043	0.0172414
576.121	0.0172939
576.199	0.0172166
576.277	0.0174021
576.355	0.0175197
576.433	0.0173722
576.512	0.0173519
576.590	0.0174047
576.668	0.0174197
576.746	0.0174360
576.824	0.0173467
576.902	0.0174067
576.980	0.0173683
577.058	0.0173972
577.137	0.0174163
577.215	0.0173053
577.293	0.0171127
577.371	0.0173414
577.449	0.0174934
577.527	0.0173937
577.605	0.0172111
577.683	0.0173668
577.762	0.0173096
577.840	0.0172543
577.918	0.0174433
577.996	0.0173367
578.074	0.0175450
578.152	0.0174083
578.230	0.0173553
578.308	0.0173591
578.387	0.0173937
578.465	0.0173988
578.543	0.0173497
578.621	0.0174705
578.699	0.0173995
578.777	0.0173841
578.855	0.0175197
578.933	0.0175798
579.012	0.0174374
579.090	0.0174223
579.168	0.0175027
579.246	0.0174485
579.324	0.0174353
579.402	0.0174253
579.480	0.0175748
579.558	0.0175096
579.637	0.0173831
579.715	0.0175028
579.793	0.0174761
579.871	0.0173095
579.949	0.0175637
580.027	0.0173943
580.105	0.0174313
580.183	0.0175600
580.262	0.0176167
580.340	0.0175128
580.418	0.0175830
580.496	0.0175696
580.574	0.0173634
580.652	0.0175444
580.730	0.0176916
580.808	0.0175308
580.887	0.0175109
580.965	0.0175060
581.043	0.0175175
581.121	0.0172907
581.199	0.0175782
581.277	0.0175630
581.355	0.0174645
581.433	0.0175233
581.512	0.0174963
581.590	0.0174425
581.668	0.0173999
581.746	0.0173829
581.824	0.0176777
581.902	0.0175251
581.980	0.0174855
582.058	0.0174890
582.137	0.0175019
582.215	0.0173590
582.293	0.0175597
582.371	0.0174166
582.449	0.0174725
582.527	0.0173527
582.605	0.0174330
582.683	0.0175424
582.762	0.0173867
582.840	0.0173573
582.918	0.0175453
582.996	0.0173357
583.074	0.0174043
583.152	0.0174245
583.230	0.0174947
583.308	0.0175024
583.387	0.0174928
583.465	0.0174319
583.543	0.0175334
583.621	0.0173069
583.699	0.0174294
583.777	0.0173907
583.855	0.0174510
583.933	0.0173881
584.012	0.0175535
584.090	0.0175366
584.168	0.0172783
584.246	0.0173357
584.324	0.0174226
584.402	0.0175196
584.480	0.0174638
584.558	0.0174560
584.637	0.0175398
584.715	0.0174923
584.793	0.0174616
584.871	0.0174866
584.949	0.0175150
585.027	0.0173923
585.105	0.0174579
585.183	0.0174329
585.262	0.0174339
585.340	0.0172665
585.418	0.0175133
585.496	0.0174332
585.574	0.0174646
585.652	0.0174506
585.730	0.0174098
585.808	0.0174619
585.887	0.0175166
585.965	0.0175329
586.043	0.0175959
586.121	0.0173855
586.199	0.0175043
586.277	0.0173796
586.355	0.0174847
586.433	0.0176051
586.512	0.0174774
586.590	0.0173988
586.668	0.0175982
586.746	0.0175207
586.824	0.0175935
586.902	0.0175186
586.980	0.0174414
587.058	0.0174348
587.137	0.0175543
587.215	0.0173525
587.293	0.0174954
587.371	0.0174540
587.449	0.0175121
587.527	0.0175419
587.605	0.0175537
587.683	0.0175188
587.762	0.0175552
587.840	0.0174226
587.918	0.0173636
587.996	0.0175387
588.074	0.0176268
588.152	0.0176376
588.230	0.0175281
588.308	0.0176016
588.387	0.0175009
588.465	0.0175708
588.543	0.0174288
588.621	0.0175285
588.699	0.0175134
588.777	0.0174870
588.855	0.0175040
588.933	0.0175447
589.012	0.0176289
589.090	0.0174986
589.168	0.0174007
589.246	0.0175407
589.324	0.0177255
589.402	0.0174059
589.480	0.0176229
589.558	0.0176304
589.637	0.0175680
589.715	0.0176014
589.793	0.0175317
589.871	0.0174625
589.949	0.0175494
590.027	0.0175397
590.105	0.0176743
590.183	0.0175455
590.262	0.0175636
590.340	0.0175899
590.418	0.0175493
590.496	0.0175828
590.574	0.0176009
590.652	0.0175100
590.730	0.0177343
590.808	0.0174670
590.887	0.0173816
590.965	0.0175761
591.043	0.0176171
591.121	0.0175169
591.199	0.0175056
591.277	0.0176370
591.355	0.0175722
591.433	0.0175136
591.512	0.0175649
591.590	0.0175313
591.668	0.0175462
591.746	0.0175728
591.824	0.0175507
591.902	0.0175853
591.980	0.0176313
592.058	0.0176618
592.137	0.0175546
592.215	0.0175403
592.293	0.0177129
592.371	0.0175096
592.449	0.0175267
592.527	0.0176007
592.605	0.0177000
592.683	0.0174834
592.762	0.0177245
592.840	0.0175088
592.918	0.0174909
592.996	0.0174991
593.074	0.0175223
593.152	0.0176629
593.230	0.0174579
593.308	0.0175414
593.387	0.0175531
593.465	0.0174857
593.543	0.0176208
593.621	0.0175325
593.699	0.0175871
593.777	0.0175288
593.855	0.0173578
593.933	0.0175253
594.012	0.0174159
594.090	0.0176756
594.168	0.0175627
594.246	0.0174493
594.324	0.0175743
594.402	0.0174184
594.480	0.0176101
594.558	0.0175365
594.637	0.0173918
594.715	0.0174938
594.793	0.0176086
594.871	0.0174516
594.949	0.0175126
595.027	0.0175429
595.105	0.0174618
595.183	0.0175440
595.262	0.0175403
595.340	0.0173873
595.418	0.0172831
595.496	0.0174400
595.574	0.0175574
595.652	0.0175521
595.730	0.0174212
595.808	0.0174692
595.887	0.0174464
595.965	0.0172686
596.043	0.0173778
596.121	0.0174727
596.199	0.0173947
596.277	0.0173515
596.355	0.0174556
596.433	0.0176079
596.512	0.0174059
596.590	0.0174345
596.668	0.0175833
596.746	0.0174917
596.824	0.0175917
596.902	0.0175038
596.980	0.0175310
597.058	0.0173753
597.137	0.0175958
597.215	0.0174696
597.293	0.0174177
597.371	0.0175079
597.449	0.0175310
597.527	0.0174538
597.605	0.0176018
597.683	0.0175058
597.762	0.0174216
597.840	0.0174535
597.918	0.0174586
597.996	0.0174539
598.074	0.0175308
598.152	0.0175716
598.230	0.0174010
598.308	0.0174300
598.387	0.0174263
598.465	0.0175642
598.543	0.0174647
598.621	0.0175419
598.699	0.0174049
598.777	0.0174522
598.855	0.0175100
598.933	0.0175148
599.012	0.0175389
599.090	0.0175101
599.168	0.0175115
599.246	0.0174288
599.324	0.0174706
599.402	0.0175714
599.480	0.0174776
599.558	0.0174164
599.637	0.0175056
599.715	0.0173592
599.793	0.0173960
599.871	0.0175249
599.949	0.0175090
600.027	0.0173804
600.105	0.0174338
600.183	0.0174674
600.262	0.0174587
600.340	0.0173941
600.418	0.0175092
600.496	0.0174091
600.574	0.0174589
600.652	0.0173924
600.730	0.0175321
600.808	0.0175106
600.887	0.0174790
600.965	0.0173631
601.043	0.0174834
601.121	0.0174635
601.199	0.0174273
601.277	0.0174806
601.355	0.0173838
601.433	0.0174557
601.512	0.0174838
601.590	0.0175383
601.668	0.0173210
601.746	0.0173928
601.824	0.0173084
601.902	0.0174486
601.980	0.0173824
602.058	0.0172115
602.137	0.0173615
602.215	0.0175197
602.293	0.0172871
602.371	0.0173429
602.449	0.0172968
602.527	0.0174866
602.605	0.0173816
602.683	0.0172826
602.762	0.0172053
602.840	0.0174098
602.918	0.0172890
602.996	0.0173511
603.074	0.0173742
603.152	0.0172633
603.230	0.0173018
603.308	0.0173005
603.387	0.0173904
603.465	0.0171965
603.543	0.0172054
603.621	0.0173509
603.699	0.0174418
603.777	0.0172496
603.855	0.0173097
603.933	0.0174648
604.012	0.0173312
604.090	0.0172777
604.168	0.0173043
604.246	0.0173383
604.324	0.0172879
604.402	0.0173302
604.480	0.0172446
604.558	0.0171877
604.637	0.0174520
604.715	0.0171928
604.793	0.0173817
604.871	0.0172665
604.949	0.0172727
605.027	0.0172449
605.105	0.0173959
605.183	0.0173934
605.262	0.0172536
605.340	0.0173723
605.418	0.0173728
605.496	0.0172236
605.574	0.0171954
605.652	0.0174599
605.730	0.0174771
605.808	0.0174280
605.887	0.0173037
605.965	0.0171839
606.043	0.0173830
606.121	0.0173703
606.199	0.0173956
606.277	0.0173439
606.355	0.0172292
606.433	0.0172879
606.512	0.0173280
606.590	0.0174224
606.668	0.0173647
606.746	0.0174448
606.824	0.0174480
606.902	0.0173583
606.980	0.0174960
607.058	0.0173029
607.137	0.0173729
607.215	0.0174046
607.293	0.0173112
607.371	0.0173219
607.449	0.0173643
607.527	0.0173622
607.605	0.0173045
607.683	0.0175712
607.762	0.0173568
607.840	0.0173911
607.918	0.0175050
607.996	0.0175096
608.074	0.0173894
608.152	0.0175265
608.230	0.0173826
608.308	0.0173555
608.387	0.0174060
608.465	0.0174283
608.543	0.0173898
608.621	0.0175233
608.699	0.0172575
608.777	0.0174554
608.855	0.0174926
608.933	0.0175033
609.012	0.0174339
609.090	0.0173558
609.168	0.0175062
609.246	0.0175095
609.324	0.0175355
609.402	0.0174990
609.480	0.0174699
609.558	0.0175860
609.637	0.0174442
609.715	0.0173862
609.793	0.0175025
609.871	0.0173940
609.949	0.0173888
610.027	0.0173629
610.105	0.0173788
610.183	0.0172942
610.262	0.0172124
610.340	0.0174574
610.418	0.0173573
610.496	0.0172933
610.574	0.0174221
610.652	0.0174622
610.730	0.0175092
610.808	0.0173792
610.887	0.0172736
610.965	0.0174513
611.043	0.0174674
611.121	0.0174018
611.199	0.0173130
611.277	0.0173923
611.355	0.0172932
611.433	0.0175185
611.512	0.0173327
611.590	0.0175175
611.668	0.0174498
611.746	0.0172710
611.824	0.0174027
611.902	0.0173196
611.980	0.0174250
612.058	0.0174551
612.137	0.0173982
612.215	0.0173615
612.293	0.0173292
612.371	0.0174361
612.449	0.0173966
612.527	0.0173692
612.605	0.0173972
612.683	0.0174346
612.762	0.0173656
612.840	0.0172970
612.918	0.0173585
612.996	0.0173308
613.074	0.0175191
613.152	0.0174107
613.230	0.0174213
613.308	0.0174519
613.387	0.0173064
613.465	0.0174611
613.543	0.0173933
613.621	0.0174550
613.699	0.0174093
613.777	0.0173257
613.855	0.0174735
613.933	0.0174541
614.012	0.0173572
614.090	0.0174287
614.168	0.0173338
614.246	0.0174478
614.324	0.0173663
614.402	0.0173831
614.480	0.0174723
614.558	0.0174397
614.637	0.0173744
614.715	0.0173795
614.793	0.0174959
614.871	0.0174139
614.949	0.0173384
615.027	0.0173445
615.105	0.0174092
615.183	0.0174798
615.262	0.0174556
615.340	0.0174908
615.418	0.0173203
615.496	0.0173577
615.574	0.0173190
615.652	0.0175343
615.730	0.0175072
615.808	0.0174160
615.887	0.0172978
615.965	0.0174925
616.043	0.0174346
616.121	0.0174561
616.199	0.0173482
616.277	0.0173690
616.355	0.0174596
616.433	0.0173483
616.512	0.0174739
616.590	0.0174721
616.668	0.0174361
616.746	0.0174679
616.824	0.0175150
616.902	0.0173216
616.980	0.0175290
617.058	0.0175259
617.137	0.0173977
617.215	0.0175301
617.293	0.0175350
617.371	0.0175087
617.449	0.0175441
617.527	0.0174288
617.605	0.0174204
617.683	0.0174570
617.762	0.0174504
617.840	0.0174589
617.918	0.0174266
617.996	0.0175130
618.074	0.0173965
618.152	0.0173594
618.230	0.0176183
618.308	0.0174329
618.387	0.0174208
618.465	0.0174504
618.543	0.0174512
618.621	0.0175053
618.699	0.0173959
618.777	0.0174802
618.855	0.0173308
618.933	0.0173483
619.012	0.0172900
619.090	0.0174570
619.168	0.0174223
619.246	0.0174492
619.324	0.0174131
619.402	0.0173799
619.480	0.0174578
619.558	0.0173495
619.637	0.0174607
619.715	0.0174171
619.793	0.0173152
619.871	0.0174883
619.949	0.0174185
620.027	0.0173508
620.105	0.0173297
620.183	0.0174194
620.262	0.0174186
620.340	0.0174786
620.418	0.0174507
620.496	0.0173624
620.574	0.0172533
620.652	0.0174041
620.730	0.0174892
620.808	0.0174947
620.887	0.0173417
620.965	0.0174554
621.043	0.0173536
621.121	0.0173289
621.199	0.0174046
621.277	0.0173107
621.355	0.0174752
621.433	0.0173575
621.512	0.0172949
621.590	0.0174666
621.668	0.0174933
621.746	0.0174538
621.824	0.0174564
621.902	0.0174400
621.980	0.0173692
622.058	0.0175488
622.137	0.0174452
622.215	0.0174348
622.293	0.0173558
622.371	0.0173695
622.449	0.0174652
622.527	0.0174749
622.605	0.0174045
622.683	0.0173766
622.762	0.0173676
622.840	0.0174839
622.918	0.0174249
622.996	0.0173738
623.074	0.0173733
623.152	0.0173817
623.230	0.0173394
623.308	0.0174329
623.387	0.0174017
623.465	0.0174493
623.543	0.0175076
623.621	0.0172467
623.699	0.0173401
623.777	0.0173676
623.855	0.0174725
623.933	0.0173746
624.012	0.0172663
624.090	0.0173087
624.168	0.0175098
624.246	0.0175140
624.324	0.0173417
624.402	0.0173588
624.480	0.0173933
624.558	0.0173483
624.637	0.0173318
624.715	0.0173933
624.793	0.0174588
624.871	0.0174246
624.949	0.0173173
625.027	0.0175008
625.105	0.0175421
625.183	0.0173335
625.262	0.0174777
625.340	0.0174755
625.418	0.0174646
625.496	0.0174057
625.574	0.0174780
625.652	0.0174788
625.730	0.0175057
625.808	0.0175354
625.887	0.0176290
625.965	0.0174952
626.043	0.0173603
626.121	0.0174480
626.199	0.0174800
626.277	0.0174178
626.355	0.0174153
626.433	0.0173708
626.512	0.0173779
626.590	0.0174673
626.668	0.0175074
626.746	0.0174710
626.824	0.0175397
626.902	0.0174410
626.980	0.0173927
627.058	0.0176176
627.137	0.0174573
627.215	0.0176229
627.293	0.0174707
627.371	0.0175075
627.449	0.0176498
627.527	0.0175207
627.605	0.0174535
627.683	0.0173098
627.762	0.0174924
627.840	0.0174844
627.918	0.0174918
627.996	0.0175195
628.074	0.0173363
628.152	0.0173584
628.230	0.0174158
628.308	0.0174232
628.387	0.0173950
628.465	0.0174706
628.543	0.0174138
628.621	0.0172419
628.699	0.0173613
628.777	0.0173653
628.855	0.0174002
628.933	0.0174597
629.012	0.0174414
629.090	0.0174332
629.168	0.0173879
629.246	0.0175073
629.324	0.0173578
629.402	0.0174363
629.480	0.0174158
629.558	0.0173412
629.637	0.0173046
629.715	0.0174754
629.793	0.0174258
629.871	0.0173526
629.949	0.0171583
630.027	0.0172781
630.105	0.0171831
630.183	0.0174876
630.262	0.0173590
630.340	0.0172793
630.418	0.0173992
630.496	0.0173940
630.574	0.0174613
630.652	0.0172282
630.730	0.0172421
630.808	0.0173116
630.887	0.0174123
630.965	0.0173045
631.043	0.0174504
631.121	0.0175289
631.199	0.0173113
631.277	0.0171951
631.355	0.0171632
631.433	0.0172880
631.512	0.0173756
631.590	0.0173919
631.668	0.0173887
631.746	0.0173928
631.824	0.0173849
631.902	0.0173855
631.980	0.0172095
632.058	0.0172314
632.137	0.0174030
632.215	0.0174126
632.293	0.0173090
632.371	0.0173774
632.449	0.0173086
632.527	0.0172679
632.605	0.0174354
632.683	0.0175599
632.762	0.0173685
632.840	0.0172615
632.918	0.0173341
632.996	0.0173457
633.074	0.0174671
633.152	0.0172616
633.230	0.0173136
633.308	0.0174085
633.387	0.0174718
633.465	0.0173145
633.543	0.0173875
633.621	0.0173090
633.699	0.0173352
633.777	0.0174881
633.855	0.0173654
633.933	0.0173194
634.012	0.0175227
634.090	0.0172897
634.168	0.0172382
634.246	0.0173941
634.324	0.0173750
634.402	0.0171864
634.480	0.0173307
634.558	0.0174339
634.637	0.0173937
634.715	0.0175256
634.793	0.0173234
634.871	0.0171893
634.949	0.0172824
635.027	0.0173073
635.105	0.0173650
635.183	0.0173291
635.262	0.0172934
635.340	0.0174258
635.418	0.0173792
635.496	0.0172998
635.574	0.0173283
635.652	0.0173357
635.730	0.0173896
635.808	0.0173222
635.887	0.0172163
635.965	0.0173329
636.043	0.0174400
636.121	0.0173098
636.199	0.0172508
636.277	0.0173424
636.355	0.0173303
636.433	0.0174059
636.512	0.0173608
636.590	0.0174438
636.668	0.0173067
636.746	0.0173903
636.824	0.0173736
636.902	0.0174072
636.980	0.0174272
637.058	0.0173400
637.137	0.0174271
637.215	0.0174296
637.293	0.0173784
637.371	0.0174210
637.449	0.0173726
637.527	0.0172887
637.605	0.0173900
637.683	0.0173717
637.762	0.0173988
637.840	0.0173972
637.918	0.0173957
637.996	0.0174039
638.074	0.0174586
638.152	0.0174314
638.230	0.0173273
638.308	0.0173121
638.387	0.0174297
638.465	0.0174662
638.543	0.0173660
638.621	0.0173182
638.699	0.0174169
638.777	0.0176309
638.855	0.0173238
638.933	0.0174065
639.012	0.0174692
639.090	0.0174659
639.168	0.0174967
639.246	0.0173343
639.324	0.0175197
639.402	0.0174721
639.480	0.0174755
639.558	0.0174929
639.637	0.0174233
639.715	0.0174732
639.793	0.0173722
639.871	0.0175561
639.949	0.0174902
640.027	0.0173888
640.105	0.0173558
640.183	0.0174109
640.262	0.0174057
640.340	0.0173571
640.418	0.0175511
640.496	0.0175603
640.574	0.0174142
640.652	0.0174960
640.730	0.0174859
640.808	0.0174960
640.887	0.0174723
640.965	0.0173624
641.043	0.0174946
641.121	0.0175053
641.199	0.0175459
641.277	0.0175214
641.355	0.0175227
641.433	0.0174569
641.512	0.0174713
641.590	0.0175668
641.668	0.0175180
641.746	0.0175555
641.824	0.0176041
641.902	0.0175813
641.980	0.0175312
642.058	0.0175288
642.137	0.0175020
642.215	0.0173914
642.293	0.0175113
642.371	0.0176395
642.449	0.0176266
642.527	0.0173827
642.605	0.0173984
642.683	0.0175282
642.762	0.0175833
642.840	0.0176537
642.918	0.0176020
642.996	0.0174763
643.074	0.0173873
643.152	0.0176273
643.230	0.0175835
643.308	0.0175725
643.387	0.0176204
643.465	0.0175385
643.543	0.0174998
643.621	0.0176246
643.699	0.0174946
643.777	0.0174487
643.855	0.0174969
643.933	0.0175630
644.012	0.0175013
644.090	0.0175665
644.168	0.0176448
644.246	0.0176263
644.324	0.0176289
644.402	0.0175063
644.480	0.0176131
644.558	0.0175751
644.637	0.0175528
644.715	0.0173948
644.793	0.0175299
644.871	0.0175191
644.949	0.0175249
645.027	0.0176206
645.105	0.0176882
645.183	0.0174131
645.262	0.0174748
645.340	0.0176321
645.418	0.0175948
645.496	0.0176163
645.574	0.0175690
645.652	0.0175224
645.730	0.0174992
645.808	0.0174918
645.887	0.0173428
645.965	0.0173793
646.043	0.0176361
646.121	0.0175918
646.199	0.0174643
646.277	0.0175446
646.355	0.0174810
646.433	0.0174630
646.512	0.0174549
646.590	0.0175185
646.668	0.0175242
646.746	0.0176211
646.824	0.0174933
646.902	0.0173968
646.980	0.0174088
647.058	0.0174155
647.137	0.0175768
647.215	0.0174632
647.293	0.0175672
647.371	0.0175578
647.449	0.0175060
647.527	0.0175282
647.605	0.0174321
647.683	0.0174884
647.762	0.0175484
647.840	0.0175549
647.918	0.0176482
647.996	0.0175674
648.074	0.0175330
648.152	0.0177022
648.230	0.0175143
648.308	0.0174970
648.387	0.0175367
648.465	0.0174767
648.543	0.0174647
648.621	0.0176791
648.699	0.0176435
648.777	0.0175124
648.855	0.0174984
648.933	0.0175631
649.012	0.0174484
649.090	0.0175109
649.168	0.0174237
649.246	0.0173412
649.324	0.0175365
649.402	0.0176080
649.480	0.0174769
649.558	0.0174689
649.637	0.0175347
649.715	0.0174242
649.793	0.0174853
649.871	0.0173698
649.949	0.0174476
650.027	0.0174361
650.105	0.0175096
650.183	0.0175747
650.262	0.0175852
650.340	0.0174498
650.418	0.0173997
650.496	0.0175232
650.574	0.0173911
650.652	0.0174080
650.730	0.0174683
650.808	0.0173622
650.887	0.0175444
650.965	0.0174834
651.043	0.0174510
651.121	0.0175275
651.199	0.0173616
651.277	0.0174051
651.355	0.0174780
651.433	0.0175760
651.512	0.0174749
651.590	0.0175886
651.668	0.0174761
651.746	0.0175378
651.824	0.0175482
651.902	0.0173915
651.980	0.0174226
652.058	0.0175526
652.137	0.0174752
652.215	0.0175674
652.293	0.0174416
652.371	0.0175511
652.449	0.0174016
652.527	0.0175090
652.605	0.0174739
652.683	0.0175316
652.762	0.0175188
652.840	0.0174998
652.918	0.0175393
652.996	0.0174098
653.074	0.0175883
653.152	0.0174636
653.230	0.0173685
653.308	0.0174393
653.387	0.0174957
653.465	0.0174147
653.543	0.0175131
653.621	0.0175589
653.699	0.0175898
653.777	0.0175597
653.855	0.0173603
653.933	0.0174925
654.012	0.0175746
654.090	0.0175121
654.168	0.0174686
654.246	0.0175010
654.324	0.0174805
654.402	0.0176687
654.480	0.0175108
654.558	0.0174420
654.637	0.0173573
654.715	0.0173363
654.793	0.0175157
654.871	0.0174907
654.949	0.0173850
655.027	0.0173750
655.105	0.0175592
655.183	0.0174534
655.262	0.0174472
655.340	0.0173751
655.418	0.0175227
655.496	0.0174168
655.574	0.0173190
655.652	0.0174564
655.730	0.0174467
655.808	0.0174936
655.887	0.0174485
655.965	0.0175973
656.043	0.0176324
656.121	0.0175610
656.199	0.0176063
656.277	0.0173278
656.355	0.0174059
656.433	0.0175453
656.512	0.0175041
656.590	0.0174449
656.668	0.0174664
656.746	0.0174555
656.824	0.0174466
656.902	0.0175931
656.980	0.0174137
657.058	0.0173048
657.137	0.0173727
657.215	0.0173452
657.293	0.0173760
657.371	0.0174868
657.449	0.0174035
657.527	0.0175274
657.605	0.0174256
657.683	0.0174317
657.762	0.0174129
657.840	0.0173963
657.918	0.0174649
657.996	0.0173179
658.074	0.0175057
658.152	0.0176292
658.230	0.0173458
658.308	0.0174570
658.387	0.0174530
658.465	0.0175056
658.543	0.0175247
658.621	0.0174599
658.699	0.0173903
658.777	0.0174324
658.855	0.0174863
658.933	0.0175579
659.012	0.0172343
659.090	0.0174400
659.168	0.0174763
659.246	0.0173705
659.324	0.0172491
659.402	0.0173635
659.480	0.0173325
659.558	0.0173617
659.637	0.0173240
659.715	0.0175095
659.793	0.0175236
659.871	0.0173606
659.949	0.0173202
660.027	0.0174213
660.105	0.0173540
660.183	0.0173332
660.262	0.0173626
660.340	0.0174861
660.418	0.0173076
660.496	0.0173869
660.574	0.0172558
660.652	0.0174551
660.730	0.0174378
660.808	0.0175059
660.887	0.0174878
660.965	0.0173087
661.043	0.0175246
661.121	0.0173363
661.199	0.0173978
661.277	0.0174511
661.355	0.0174638
661.433	0.0175018
661.512	0.0174908
661.590	0.0175285
661.668	0.0176208
661.746	0.0175501
661.824	0.0175610
661.902	0.0176304
661.980	0.0174914
662.058	0.0174932
662.137	0.0175352
662.215	0.0175193
662.293	0.0174978
662.371	0.0175753
662.449	0.0175145
662.527	0.0175211
662.605	0.0175396
662.683	0.0175896
662.762	0.0173810
662.840	0.0176033
662.918	0.0175618
662.996	0.0175702
663.074	0.0174610
663.152	0.0175156
663.230	0.0175012
663.308	0.0174731
663.387	0.0174397
663.465	0.0175776
663.543	0.0175084
663.621	0.0176746
663.699	0.0174947
663.777	0.0175693
663.855	0.0175426
663.933	0.0175271
664.012	0.0172964
664.090	0.0175313
664.168	0.0175942
664.246	0.0174422
664.324	0.0175380
664.402	0.0175716
664.480	0.0175620
664.558	0.0175916
664.637	0.0175225
664.715	0.0174318
664.793	0.0175044
664.871	0.0174628
664.949	0.0173902
665.027	0.0176162
665.105	0.0174750
665.183	0.0175560
665.262	0.0175620
665.340	0.0175099
665.418	0.0173861
665.496	0.0175713
665.574	0.0176557
665.652	0.0175258
665.730	0.0176526
665.808	0.0176247
665.887	0.0176640
665.965	0.0176781
666.043	0.0176620
666.121	0.0175513
666.199	0.0176579
666.277	0.0178092
666.355	0.0178028
666.433	0.0175919
666.512	0.0176125
666.590	0.0176897
666.668	0.0175697
666.746	0.0176147
666.824	0.0176491
666.902	0.0175648
666.980	0.0175003
667.058	0.0175834
667.137	0.0176223
667.215	0.0175983
667.293	0.0175374
667.371	0.0176316
667.449	0.0174050
667.527	0.0174936
667.605	0.0173958
667.683	0.0173280
667.762	0.0174399
667.840	0.0174684
667.918	0.0175268
667.996	0.0173602
668.074	0.0174649
668.152	0.0174933
668.230	0.0175079
668.308	0.0175416
668.387	0.0175043
668.465	0.0176240
668.543	0.0176373
668.621	0.0175626
668.699	0.0175346
668.777	0.0176985
668.855	0.0176217
668.933	0.0176942
669.012	0.0177345
669.090	0.0176981
669.168	0.0178060
669.246	0.0177162
669.324	0.0176649
669.402	0.0175977
669.480	0.0175400
669.558	0.0176894
669.637	0.0175446
669.715	0.0173564
669.793	0.0174944
669.871	0.0175270
669.949	0.0173551
670.027	0.0173490
670.105	0.0174950
670.183	0.0173356
670.262	0.0175085
670.340	0.0173575
670.418	0.0173300
670.496	0.0171940
670.574	0.0172295
670.652	0.0172869
670.730	0.0173003
670.808	0.0173026
670.887	0.0172342
670.965	0.0172319
671.043	0.0172577
671.121	0.0173750
671.199	0.0172163
671.277	0.0173405
671.355	0.0173415
671.433	0.0173031
671.512	0.0175096
671.590	0.0174389
671.668	0.0173759
671.746	0.0174297
671.824	0.0175651
671.902	0.0175252
671.980	0.0175063
672.058	0.0175772
672.137	0.0175039
672.215	0.0176564
672.293	0.0175970
672.371	0.0176257
672.449	0.0175991
672.527	0.0176016
672.605	0.0176424
672.683	0.0176920
672.762	0.0177602
672.840	0.0175812
672.918	0.0177390
672.996	0.0177437
673.074	0.0176151
673.152	0.0177518
673.230	0.0176682
673.308	0.0177308
673.387	0.0176420
673.465	0.0176006
673.543	0.0175687
673.621	0.0175731
673.699	0.0174919
673.777	0.0174594
673.855	0.0174815
673.933	0.0174764
674.012	0.0173297
674.090	0.0170687
674.168	0.0172307
674.246	0.0172406
674.324	0.0171426
674.402	0.0170690
674.480	0.0168739
674.558	0.0170409
674.637	0.0171941
674.715	0.0171725
674.793	0.0169688
674.871	0.0170304
674.949	0.0169749
675.027	0.0170708
675.105	0.0170757
675.183	0.0170465
675.262	0.0170189
675.340	0.0171115
675.418	0.0171141
675.496	0.0170256
675.574	0.0171337
675.652	0.0172272
675.730	0.0172810
675.808	0.0172849
675.887	0.0171346
675.965	0.0174658
676.043	0.0172221
676.121	0.0174289
676.199	0.0174426
676.277	0.0174332
676.355	0.0174532
676.433	0.0173254
676.512	0.0174553
676.590	0.0175561
676.668	0.0175157
676.746	0.0176509
676.824	0.0175513
676.902	0.0175848
676.980	0.0176202
677.058	0.0176462
677.137	0.0177473
677.215	0.0175768
677.293	0.0175378
677.371	0.0175007
677.449	0.0175854
677.527	0.0174453
677.605	0.0174555
677.683	0.0175099
677.762	0.0173944
677.840	0.0172702
677.918	0.0174213
677.996	0.0172859
678.074	0.0174473
678.152	0.0174091
678.230	0.0172655
678.308	0.0172105
678.387	0.0173986
678.465	0.0173297
678.543	0.0173030
678.621	0.0173293
678.699	0.0174454
678.777	0.0173251
678.855	0.0175518
678.933	0.0174516
679.012	0.0174609
679.090	0.0174056
679.168	0.0174084
679.246	0.0173692
679.324	0.0174267
679.402	0.0173940
679.480	0.0174491
679.558	0.0173847
679.637	0.0171817
679.715	0.0171976
679.793	0.0172267
679.871	0.0172266
679.949	0.0171242
680.027	0.0170631
680.105	0.0171482
680.183	0.0172067
680.262	0.0170626
680.340	0.0170345
680.418	0.0170622
680.496	0.0171474
680.574	0.0170843
680.652	0.0170213
680.730	0.0169843
680.808	0.0171414
680.887	0.0171530
680.965	0.0172226
681.043	0.0172657
681.121	0.0171412
681.199	0.0172654
681.277	0.0172808
681.355	0.0172669
681.433	0.0173283
681.512	0.0174727
681.590	0.0172574
681.668	0.0174406
681.746	0.0174383
681.824	0.0173545
681.902	0.0173462
681.980	0.0175301
682.058	0.0175320
682.137	0.0173976
682.215	0.0174403
682.293	0.0174797
682.371	0.0175444
682.449	0.0175256
682.527	0.0176594
682.605	0.0175366
682.683	0.0175337
682.762	0.0175774
682.840	0.0176749
682.918	0.0177276
682.996	0.0176492
683.074	0.0175407
683.152	0.0176732
683.230	0.0176130
683.308	0.0177345
683.387	0.0177950
683.465	0.0177258
683.543	0.0175803
683.621	0.0177299
683.699	0.0177374
683.777	0.0175394
683.855	0.0176302
683.933	0.0176273
684.012	0.0176623
684.090	0.0174888
684.168	0.0175388
684.246	0.0175484
684.324	0.0175360
684.402	0.0175598
684.480	0.0174489
684.558	0.0173580
684.637	0.0174483
684.715	0.0173309
684.793	0.0174554
684.871	0.0173856
684.949	0.0173875
685.027	0.0174210
685.105	0.0171795
685.183	0.0172664
685.262	0.0173982
685.340	0.0172202
685.418	0.0173545
685.496	0.0173515
685.574	0.0172340
685.652	0.0173473
685.730	0.0174767
685.808	0.0173064
685.887	0.0173790
685.965	0.0173516
686.043	0.0172585
686.121	0.0173480
686.199	0.0175090
686.277	0.0174213
686.355	0.0174132
686.433	0.0175634
686.512	0.0175243
686.590	0.0175542
686.668	0.0173701
686.746	0.0175027
686.824	0.0175866
686.902	0.0175647
686.980	0.0175133
687.058	0.0175913
687.137	0.0175766
687.215	0.0175174
687.293	0.0176691
687.371	0.0175442
687.449	0.0173975
687.527	0.0175494
687.605	0.0175819
687.683	0.0176299
687.762	0.0175831
687.840	0.0175270
687.918	0.0176724
687.996	0.0175489
688.074	0.0176140
688.152	0.0174487
688.230	0.0175176
688.308	0.0174063
688.387	0.0174590
688.465	0.0173550
688.543	0.0174576
688.621	0.0173425
688.699	0.0172755
688.777	0.0173107
688.855	0.0172846
688.933	0.0173401
689.012	0.0174371
689.090	0.0172873
689.168	0.0173172
689.246	0.0173683
689.324	0.0173334
689.402	0.0173411
689.480	0.0173352
689.558	0.0173448
689.637	0.0174863
689.715	0.0175205
689.793	0.0175372
689.871	0.0174754
689.949	0.0174178
690.027	0.0175173
690.105	0.0177280
690.183	0.0175893
690.262	0.0176032
690.340	0.0175787
690.418	0.0176437
690.496	0.0175637
690.574	0.0174954
690.652	0.0175840
690.730	0.0175723
690.808	0.0173626
690.887	0.0174480
690.965	0.0173969
691.043	0.0173418
691.121	0.0172836
691.199	0.0172486
691.277	0.0172872
691.355	0.0171731
691.433	0.0171837
691.512	0.0171469
691.590	0.0172056
691.668	0.0171023
691.746	0.0171691
691.824	0.0171648
691.902	0.0170206
691.980	0.0171035
692.058	0.0172788
692.137	0.0172057
692.215	0.0172656
692.293	0.0173183
692.371	0.0174219
692.449	0.0173578
692.527	0.0174143
692.605	0.0175999
692.683	0.0174976
692.762	0.0174199
692.840	0.0174686
692.918	0.0177068
692.996	0.0177470
693.074	0.0177070
693.152	0.0178297
693.230	0.0177203
693.308	0.0176507
693.387	0.0176073
693.465	0.0176331
693.543	0.0176183
693.621	0.0175374
693.699	0.0175139
693.777	0.0174323
693.855	0.0174611
693.933	0.0173844
694.012	0.0173706
694.090	0.0174220
694.168	0.0172607
694.246	0.0173162
694.324	0.0172674
694.402	0.0172433
694.480	0.0172827
694.558	0.0172862
694.637	0.0173177
694.715	0.0173421
694.793	0.0172829
694.871	0.0172975
694.949	0.0174680
695.027	0.0173318
695.105	0.0173596
695.183	0.0172604
695.262	0.0174270
695.340	0.0172097
695.418	0.0173251
695.496	0.0172260
695.574	0.0172545
695.652	0.0173758
695.730	0.0172388
695.808	0.0172571
695.887	0.0173801
695.965	0.0172141
696.043	0.0172570
696.121	0.0171934
696.199	0.0171552
696.277	0.0172504
696.355	0.0172550
696.433	0.0172196
696.512	0.0172730
696.590	0.0172690
696.668	0.0172527
696.746	0.0173547
696.824	0.0172086
696.902	0.0173685
696.980	0.0173891
697.058	0.0173416
697.137	0.0173378
697.215	0.0174159
697.293	0.0173814
697.371	0.0173068
697.449	0.0173478
697.527	0.0174266
697.605	0.0172866
697.683	0.0173717
697.762	0.0175601
697.840	0.0174387
697.918	0.0174140
697.996	0.0173013
698.074	0.0174240
698.152	0.0173513
698.230	0.0171881
698.308	0.0173141
698.387	0.0174126
698.465	0.0173846
698.543	0.0172719
698.621	0.0172353
698.699	0.0173031
698.777	0.0171699
698.855	0.0171871
698.933	0.0172502
699.012	0.0171558
699.090	0.0171572
699.168	0.0172794
699.246	0.0171438
699.324	0.0171809
699.402	0.0170597
699.480	0.0171768
699.558	0.0171963
699.637	0.0172636
699.715	0.0172427
699.793	0.0172619
699.871	0.0171822
699.949	0.0172730
700.027	0.0173360
700.105	0.0172921
700.183	0.0173080
700.262	0.0171058
700.340	0.0172153
700.418	0.0173819
700.496	0.0174390
700.574	0.0176118
700.652	0.0174834
700.730	0.0174406
700.808	0.0176086
700.887	0.0176399
700.965	0.0176726
701.043	0.0176303
701.121	0.0176840
701.199	0.0175956
701.277	0.0177236
701.355	0.0176881
701.433	0.0175647
701.512	0.0175374
701.590	0.0173679
701.668	0.0174271
701.746	0.0176313
701.824	0.0175094
701.902	0.0174978
701.980	0.0173587
702.058	0.0173629
702.137	0.0172554
702.215	0.0172202
702.293	0.0173193
702.371	0.0170963
702.449	0.0172779
702.527	0.0171608
702.605	0.0170969
702.683	0.0171065
702.762	0.0170943
702.840	0.0171126
702.918	0.0170067
702.996	0.0171439
703.074	0.0169711
703.152	0.0169534
703.230	0.0170592
703.308	0.0169733
703.387	0.0171648
703.465	0.0170679
703.543	0.0171028
703.621	0.0171570
703.699	0.0171326
703.777	0.0171645
703.855	0.0172449
703.933	0.0171558
704.012	0.0172761
704.090	0.0172942
704.168	0.0171601
704.246	0.0171487
704.324	0.0173336
704.402	0.0173097
704.480	0.0174422
704.558	0.0174761
704.637	0.0174734
704.715	0.0174947
704.793	0.0175378
704.871	0.0174967
704.949	0.0175559
705.027	0.0175528
705.105	0.0175217
705.183	0.0175584
705.262	0.0177789
705.340	0.0177350
705.418	0.0176548
705.496	0.0176775
705.574	0.0175591
705.652	0.0177652
705.730	0.0177081
705.808	0.0177322
705.887	0.0178081
705.965	0.0176377
706.043	0.0175005
706.121	0.0175848
706.199	0.0175381
706.277	0.0174151
706.355	0.0172224
706.433	0.0171320
706.512	0.0172527
706.590	0.0170313
706.668	0.0171661
706.746	0.0171770
706.824	0.0169787
706.902	0.0169657
706.980	0.0170539
707.058	0.0170787
707.137	0.0172025
707.215	0.0172540
707.293	0.0172376
707.371	0.0173424
707.449	0.0172688
707.527	0.0173306
707.605	0.0173551
707.683	0.0172680
707.762	0.0174675
707.840	0.0175269
707.918	0.0175356
707.996	0.0174081
708.074	0.0174878
708.152	0.0176968
708.230	0.0176785
708.308	0.0177834
708.387	0.0178088
708.465	0.0177435
708.543	0.0177558
708.621	0.0178739
708.699	0.0178990
708.777	0.0176260
708.855	0.0176696
708.933	0.0177103
709.012	0.0175368
709.090	0.0175309
709.168	0.0174088
709.246	0.0171482
709.324	0.0171429
709.402	0.0171572
709.480	0.0170139
709.558	0.0169074
709.637	0.0167622
709.715	0.0169264
709.793	0.0169161
709.871	0.0168196
709.949	0.0168274
710.027	0.0169364
710.105	0.0169730
710.183	0.0169733
710.262	0.0170797
710.340	0.0172348
710.418	0.0171437
710.496	0.0174133
710.574	0.0173896
710.652	0.0176090
710.730	0.0176997
710.808	0.0177977
710.887	0.0179382
710.965	0.0178775
711.043	0.0178957
711.121	0.0180281
711.199	0.0181618
711.277	0.0180253
711.355	0.0179805
711.433	0.0179718
711.512	0.0178735
711.590	0.0177972
711.668	0.0176647
711.746	0.0175294
711.824	0.0173438
711.902	0.0172415
711.980	0.0172411
712.058	0.0172161
712.137	0.0170026
712.215	0.0171243
712.293	0.0170185
712.371	0.0169776
712.449	0.0169589
712.527	0.0170289
712.605	0.0170141
712.683	0.0170665
712.762	0.0169549
712.840	0.0171362
712.918	0.0172878
712.996	0.0172107
713.074	0.0173052
713.152	0.0174873
713.230	0.0174046
713.308	0.0173990
713.387	0.0175216
713.465	0.0175464
713.543	0.0175677
713.621	0.0176570
713.699	0.0175977
713.777	0.0175605
713.855	0.0175545
713.933	0.0175797
714.012	0.0175836
714.090	0.0176643
714.168	0.0176558
714.246	0.0176239
714.324	0.0176123
714.402	0.0174997
714.480	0.0173318
714.558	0.0175640
714.637	0.0174374
714.715	0.0172517
714.793	0.0176131
714.871	0.0175747
714.949	0.0174400
715.027	0.0174211
715.105	0.0173524
715.183	0.0172681
715.262	0.0174731
715.340	0.0175032
715.418	0.0175056
715.496	0.0175081
715.574	0.0175529
715.652	0.0175727
715.730	0.0175564
715.808	0.0175694
715.887	0.0175565
715.965	0.0176120
716.043	0.0175864
716.121	0.0175463
716.199	0.0175959
716.277	0.0175381
716.355	0.0176294
716.433	0.0175290
716.512	0.0173972
716.590	0.0175456
716.668	0.0173544
716.746	0.0173445
716.824	0.0172487
716.902	0.0170287
716.980	0.0170350
717.058	0.0170587
717.137	0.0170412
717.215	0.0169337
717.293	0.0168571
717.371	0.0169243
717.449	0.0169767
717.527	0.0169540
717.605	0.0169410
717.683	0.0169930
717.762	0.0168993
717.840	0.0169855
717.918	0.0172951
717.996	0.0171353
718.074	0.0171316
718.152	0.0174683
718.230	0.0176246
718.308	0.0175492
718.387	0.0175336
718.465	0.0175398
718.543	0.0177815
718.621	0.0178308
718.699	0.0177602
718.777	0.0179344
718.855	0.0177738
718.933	0.0178389
719.012	0.0179704
719.090	0.0179082
719.168	0.0180149
719.246	0.0179804
719.324	0.0179572
719.402	0.0179926
719.480	0.0178756
719.558	0.0179460
719.637	0.0178321
719.715	0.0176963
719.793	0.0176756
719.871	0.0176994
719.949	0.0176811
720.027	0.0175578
720.105	0.0173695
720.183	0.0174004
720.262	0.0175160
720.340	0.0173739
720.418	0.0172836
720.496	0.0172117
720.574	0.0172775
720.652	0.0173073
720.730	0.0172456
720.808	0.0173132
720.887	0.0172616
720.965	0.0172484
721.043	0.0173066
721.121	0.0173572
721.199	0.0173122
721.277	0.0171751
721.355	0.0172713
721.433	0.0172530
721.512	0.0172105
721.590	0.0173065
721.668	0.0172598
721.746	0.0172917
721.824	0.0172810
721.902	0.0173151
721.980	0.0172739
722.058	0.0173283
722.137	0.0172739
722.215	0.0173040
722.293	0.0173634
722.371	0.0173685
722.449	0.0173493
722.527	0.0171922
722.605	0.0174057
722.683	0.0172239
722.762	0.0171907
722.840	0.0173309
722.918	0.0173067
722.996	0.0171386
723.074	0.0172881
723.152	0.0173362
723.230	0.0172955
723.308	0.0172533
723.387	0.0173491
723.465	0.0173540
723.543	0.0172809
723.621	0.0174366
723.699	0.0173830
723.777	0.0173073
723.855	0.0174258
723.933	0.0176662
724.012	0.0175335
724.090	0.0177092
724.168	0.0176196
724.246	0.0175650
724.324	0.0176456
724.402	0.0176071
724.480	0.0178513
724.558	0.0176737
724.637	0.0175115
724.715	0.0175721
724.793	0.0176705
724.871	0.0176229
724.949	0.0176705
725.027	0.0175578
725.105	0.0175198
725.183	0.0175256
725.262	0.0173997
725.340	0.0175458
725.418	0.0175101
725.496	0.0173366
725.574	0.0173013
725.652	0.0173094
725.730	0.0172370
725.808	0.0172665
725.887	0.0171229
725.965	0.0173130
726.043	0.0173418
726.121	0.0173248
726.199	0.0173926
726.277	0.0175165
726.355	0.0176077
726.433	0.0176279
726.512	0.0176069
726.590	0.0177711
726.668	0.0176917
726.746	0.0177462
726.824	0.0178910
726.902	0.0179641
726.980	0.0178610
727.058	0.0179024
727.137	0.0179867
727.215	0.0178590
727.293	0.0178016
727.371	0.0177555
727.449	0.0176241
727.527	0.0176688
727.605	0.0176868
727.683	0.0175609
727.762	0.0174240
727.840	0.0172049
727.918	0.0172342
727.996	0.0173703
728.074	0.0170918
728.152	0.0170811
728.230	0.0172227
728.308	0.0171132
728.387	0.0170936
728.465	0.0171628
728.543	0.0170853
728.621	0.0172614
728.699	0.0173551
728.777	0.0172282
728.855	0.0174484
728.933	0.0173260
729.012	0.0174027
729.090	0.0174339
729.168	0.0174855
729.246	0.0176356
729.324	0.0177134
729.402	0.0175291
729.480	0.0175946
729.558	0.0176299
729.637	0.0177627
729.715	0.0178336
729.793	0.0176120
729.871	0.0176112
729.949	0.0178176
730.027	0.0177398
730.105	0.0177234
730.183	0.0176633
730.262	0.0176649
730.340	0.0177765
730.418	0.0177772
730.496	0.0175912
730.574	0.0177058
730.652	0.0177263
730.730	0.0176794
730.808	0.0176482
730.887	0.0176371
730.965	0.0175434
731.043	0.0175011
731.121	0.0176134
731.199	0.0176788
731.277	0.0175947
731.355	0.0175874
731.433	0.0175420
731.512	0.0173744
731.590	0.0176232
731.668	0.0174453
731.746	0.0175348
731.824	0.0175788
731.902	0.0174720
731.980	0.0175232
732.058	0.0174128
732.137	0.0175363
732.215	0.0173295
732.293	0.0173485
732.371	0.0174007
732.449	0.0173211
732.527	0.0173765
732.605	0.0171349
732.683	0.0170233
732.762	0.0172930
732.840	0.0171246
732.918	0.0171044
732.996	0.0171252
733.074	0.0172736
733.152	0.0173086
733.230	0.0172855
733.308	0.0173133
733.387	0.0173708
733.465	0.0174936
733.543	0.0174466
733.621	0.0175252
733.699	0.0176115
733.777	0.0175627
733.855	0.0176620
733.933	0.0176808
734.012	0.0176897
734.090	0.0176820
734.168	0.0176904
734.246	0.0176817
734.324	0.0178241
734.402	0.0178316
734.480	0.0178960
734.558	0.0178770
734.637	0.0176435
734.715	0.0176270
734.793	0.0176257
734.871	0.0175084
734.949	0.0174398
735.027	0.0174149
735.105	0.0174446
735.183	0.0172453
735.262	0.0172482
735.340	0.0171011
735.418	0.0170587
735.496	0.0169516
735.574	0.0169238
735.652	0.0169624
735.730	0.0169639
735.808	0.0169870
735.887	0.0169525
735.965	0.0170068
736.043	0.0168772
736.121	0.0170010
736.199	0.0171847
736.277	0.0173209
736.355	0.0171988
736.433	0.0173269
736.512	0.0174156
736.590	0.0175342
736.668	0.0175378
736.746	0.0177979
736.824	0.0177147
736.902	0.0178020
736.980	0.0178772
737.058	0.0178210
737.137	0.0176823
737.215	0.0178034
737.293	0.0177375
737.371	0.0177110
737.449	0.0176866
737.527	0.0176257
737.605	0.0175757
737.683	0.0175108
737.762	0.0174915
737.840	0.0174889
737.918	0.0173299
737.996	0.0171541
738.074	0.0172546
738.152	0.0172731
738.230	0.0172664
738.308	0.0173529
738.387	0.0171912
738.465	0.0171866
738.543	0.0173794
738.621	0.0173183
738.699	0.0174509
738.777	0.0174010
738.855	0.0175401
738.933	0.0176376
739.012	0.0175375
739.090	0.0175328
739.168	0.0176424
739.246	0.0175124
739.324	0.0175845
739.402	0.0175517
739.480	0.0176740
739.558	0.0176386
739.637	0.0176106
739.715	0.0176354
739.793	0.0177499
739.871	0.0177608
739.949	0.0176299
740.027	0.0177678
740.105	0.0177397
740.183	0.0176367
740.262	0.0176870
740.340	0.0176108
740.418	0.0175793
740.496	0.0175373
740.574	0.0175444
740.652	0.0175346
740.730	0.0173091
740.808	0.0173215
740.887	0.0172886
740.965	0.0173084
741.043	0.0170930
741.121	0.0171793
741.199	0.0171449
741.277	0.0172060
741.355	0.0170839
741.433	0.0171259
741.512	0.0171794
741.590	0.0170818
741.668	0.0170338
741.746	0.0171262
741.824	0.0170720
741.902	0.0172523
741.980	0.0172433
742.058	0.0173190
742.137	0.0173016
742.215	0.0173380
742.293	0.0174844
742.371	0.0174934
742.449	0.0175492
742.527	0.0174325
742.605	0.0175440
742.683	0.0176724
742.762	0.0176114
742.840	0.0176865
742.918	0.0175386
742.996	0.0177900
743.074	0.0176662
743.152	0.0177515
743.230	0.0177227
743.308	0.0177774
743.387	0.0176869
743.465	0.0176392
743.543	0.0178259
743.621	0.0177197
743.699	0.0175454
743.777	0.0176305
743.855	0.0176708
743.933	0.0176485
744.012	0.0176182
744.090	0.0176235
744.168	0.0176398
744.246	0.0176798
744.324	0.0177237
744.402	0.0176971
744.480	0.0177427
744.558	0.0175925
744.637	0.0175484
744.715	0.0175317
744.793	0.0175555
744.871	0.0175037
744.949	0.0174586
745.027	0.0173281
745.105	0.0174013
745.183	0.0174164
745.262	0.0172590
745.340	0.0171941
745.418	0.0174107
745.496	0.0174884
745.574	0.0174111
745.652	0.0174379
745.730	0.0175755
745.808	0.0174399
745.887	0.0173969
745.965	0.0174290
746.043	0.0174754
746.121	0.0174265
746.199	0.0174046
746.277	0.0173911
746.355	0.0173782
746.433	0.0174607
746.512	0.0174567
746.590	0.0173592
746.668	0.0173919
746.746	0.0172306
746.824	0.0173621
746.902	0.0173273
746.980	0.0172709
747.058	0.0173450
747.137	0.0175565
747.215	0.0173531
747.293	0.0172330
747.371	0.0174120
747.449	0.0173102
747.527	0.0174245
747.605	0.0173788
747.683	0.0174178
747.762	0.0175491
747.840	0.0176044
747.918	0.0176335
747.996	0.0175314
748.074	0.0176910
748.152	0.0176871
748.230	0.0177117
748.308	0.0177486
748.387	0.0176767
748.465	0.0177351
748.543	0.0177573
748.621	0.0176173
748.699	0.0175758
748.777	0.0176701
748.855	0.0175806
748.933	0.0177287
749.012	0.0176776
749.090	0.0176408
749.168	0.0175888
749.246	0.0176320
749.324	0.0175379
749.402	0.0174635
749.480	0.0175407
749.558	0.0174818
749.637	0.0174250
749.715	0.0173812
749.793	0.0173335
749.871	0.0174826
749.949	0.0173965
750.027	0.0172892
750.105	0.0174216
750.183	0.0174585
750.262	0.0175314
750.340	0.0174313
750.418	0.0176602
750.496	0.0176447
750.574	0.0176031
750.652	0.0176917
750.730	0.0176410
750.808	0.0176554
750.887	0.0176407
750.965	0.0176254
751.043	0.0175979
751.121	0.0174849
751.199	0.0177479
751.277	0.0177281
751.355	0.0174456
751.433	0.0174176
751.512	0.0176837
751.590	0.0174120
751.668	0.0173697
751.746	0.0173073
751.824	0.0173722
751.902	0.0173923
751.980	0.0175081
752.058	0.0173432
752.137	0.0173591
752.215	0.0173655
752.293	0.0173965
752.371	0.0175198
752.449	0.0175159
752.527	0.0174009
752.605	0.0173645
752.683	0.0174063
752.762	0.0174867
752.840	0.0174208
752.918	0.0174861
752.996	0.0175590
753.074	0.0174924
753.152	0.0175617
753.230	0.0175993
753.308	0.0175168
753.387	0.0175974
753.465	0.0174730
753.543	0.0175201
753.621	0.0176428
753.699	0.0175338
753.777	0.0176546
753.855	0.0174608
753.933	0.0174990
754.012	0.0175584
754.090	0.0173832
754.168	0.0173747
754.246	0.0173636
754.324	0.0173835
754.402	0.0172878
754.480	0.0174118
754.558	0.0175037
754.637	0.0174764
754.715	0.0173619
754.793	0.0175043
754.871	0.0175832
754.949	0.0177146
755.027	0.0176683
755.105	0.0175637
755.183	0.0176693
755.262	0.0176743
755.340	0.0175885
755.418	0.0175945
755.496	0.0176306
755.574	0.0175672
755.652	0.0176698
755.730	0.0176376
755.808	0.0176062
755.887	0.0174751
755.965	0.0173791
756.043	0.0173519
756.121	0.0173306
756.199	0.0174637
756.277	0.0175453
756.355	0.0175617
756.433	0.0175200
756.512	0.0174542
756.590	0.0173267
756.668	0.0173795
756.746	0.0173096
756.824	0.0173889
756.902	0.0174222
756.980	0.0173911
757.058	0.0173629
757.137	0.0174879
757.215	0.0174366
757.293	0.0174910
757.371	0.0174735
757.449	0.0173791
757.527	0.0175021
757.605	0.0175041
757.683	0.0175192
757.762	0.0175800
757.840	0.0175272
757.918	0.0174339
757.996	0.0175363
758.074	0.0174390
758.152	0.0173345
758.230	0.0174802
758.308	0.0174475
758.387	0.0173652
758.465	0.0174538
758.543	0.0172540
758.621	0.0173717
758.699	0.0172664
758.777	0.0172797
758.855	0.0172822
758.933	0.0172945
759.012	0.0173705
759.090	0.0174141
759.168	0.0172565
759.246	0.0175041
759.324	0.0175652
759.402	0.0175621
759.480	0.0176102
759.558	0.0176841
759.637	0.0175000
759.715	0.0175117
759.793	0.0175029
759.871	0.0176688
759.949	0.0175668
760.027	0.0175479
760.105	0.0175473
760.183	0.0176624
760.262	0.0175992
760.340	0.0175084
760.418	0.0174123
760.496	0.0174722
760.574	0.0174494
760.652	0.0173922
760.730	0.0173346
760.808	0.0173587
760.887	0.0173172
760.965	0.0174807
761.043	0.0174393
761.121	0.0175735
761.199	0.0174559
761.277	0.0174607
761.355	0.0174139
761.433	0.0174876
761.512	0.0173876
761.590	0.0173479
761.668	0.0174944
761.746	0.0175436
761.824	0.0173529
761.902	0.0174934
761.980	0.0174037
762.058	0.0173360
762.137	0.0172293
762.215	0.0172065
762.293	0.0172699
762.371	0.0172975
762.449	0.0173653
762.527	0.0173056
762.605	0.0171159
762.683	0.0172800
762.762	0.0173831
762.840	0.0174658
762.918	0.0173553
762.996	0.0174126
763.074	0.0175677
763.152	0.0174683
763.230	0.0175638
763.308	0.0174670
763.387	0.0174258
763.465	0.0176284
763.543	0.0175526
763.621	0.0174706
763.699	0.0176032
763.777	0.0175428
763.855	0.0173599
763.933	0.0174355
764.012	0.0173856
764.090	0.0172359
764.168	0.0174250
764.246	0.0172627
764.324	0.0171342
764.402	0.0171490
764.480	0.0172047
764.558	0.0172050
764.637	0.0173117
764.715	0.0171838
764.793	0.0172085
764.871	0.0171674
764.949	0.0172897
765.027	0.0172491
765.105	0.0173153
765.183	0.0173895
765.262	0.0172115
765.340	0.0172752
765.418	0.0171254
765.496	0.0171933
765.574	0.0172876
765.652	0.0172532
765.730	0.0172391
765.808	0.0173457
765.887	0.0172613
765.965	0.0172187
766.043	0.0172327
766.121	0.0171813
766.199	0.0171550
766.277	0.0172424
766.355	0.0173159
766.433	0.0174123
766.512	0.0174007
766.590	0.0172742
766.668	0.0173064
766.746	0.0174330
766.824	0.0174286
766.902	0.0174747
766.980	0.0173572
767.058	0.0175417
767.137	0.0173662
767.215	0.0174532
767.293	0.0174751
767.371	0.0175823
767.449	0.0173830
767.527	0.0174610
767.605	0.0173842
767.683	0.0173363
767.762	0.0173479
767.840	0.0173914
767.918	0.0172009
767.996	0.0172646
768.074	0.0173208
768.152	0.0173350
768.230	0.0173789
768.308	0.0172604
768.387	0.0172682
768.465	0.0174036
768.543	0.0173503
768.621	0.0174277
768.699	0.0174001
768.777	0.0174027
768.855	0.0175352
768.933	0.0176007
769.012	0.0174583
769.090	0.0173831
769.168	0.0173778
769.246	0.0174483
769.324	0.0174268
769.402	0.0173716
769.480	0.0174509
769.558	0.0173418
769.637	0.0173682
769.715	0.0173553
769.793	0.0173804
769.871	0.0173833
769.949	0.0174187
770.027	0.0173923
770.105	0.0173049
770.183	0.0173590
770.262	0.0175527
770.340	0.0174931
770.418	0.0174771
770.496	0.0174897
770.574	0.0175179
770.652	0.0175617
770.730	0.0176461
770.808	0.0177605
770.887	0.0175607
770.965	0.0176640
771.043	0.0175523
771.121	0.0176850
771.199	0.0177428
771.277	0.0176666
771.355	0.0176984
771.433	0.0177371
771.512	0.0176923
771.590	0.0173981
771.668	0.0174189
771.746	0.0174068
771.824	0.0173866
771.902	0.0175710
771.980	0.0173937
772.058	0.0172459
772.137	0.0173103
772.215	0.0173783
772.293	0.0171999
772.371	0.0172076
772.449	0.0173425
772.527	0.0173660
772.605	0.0173698
772.683	0.0172995
772.762	0.0173728
772.840	0.0174080
772.918	0.0174338
772.996	0.0173832
773.074	0.0174199
773.152	0.0174239
773.230	0.0175024
773.308	0.0174583
773.387	0.0174072
773.465	0.0173600
773.543	0.0175491
773.621	0.0173708
773.699	0.0175740
773.777	0.0174488
773.855	0.0173312
773.933	0.0173194
774.012	0.0174545
774.090	0.0172656
774.168	0.0174670
774.246	0.0175672
774.324	0.0174384
774.402	0.0173602
774.480	0.0175537
774.558	0.0176067
774.637	0.0173511
774.715	0.0174737
774.793	0.0175544
774.871	0.0174390
774.949	0.0175455
775.027	0.0174286
775.105	0.0174370
775.183	0.0173866
775.262	0.0174167
775.340	0.0174445
775.418	0.0175905
775.496	0.0175242
775.574	0.0175312
775.652	0.0175166
775.730	0.0174907
775.808	0.0174179
775.887	0.0175602
775.965	0.0175927
776.043	0.0175294
776.121	0.0175909
776.199	0.0176143
776.277	0.0174142
776.355	0.0176022
776.433	0.0175931
776.512	0.0174159
776.590	0.0174580
776.668	0.0173746
776.746	0.0176271
776.824	0.0173855
776.902	0.0173235
776.980	0.0173340
777.058	0.0174643
777.137	0.0173573
777.215	0.0173708
777.293	0.0172747
777.371	0.0171410
777.449	0.0171711
777.527	0.0171938
777.605	0.0171024
777.683	0.0170631
777.762	0.0170596
777.840	0.0170031
777.918	0.0170601
777.996	0.0171896
778.074	0.0171404
778.152	0.0171444
778.230	0.0171650
778.308	0.0172720
778.387	0.0174001
778.465	0.0173334
778.543	0.0173218
778.621	0.0173736
778.699	0.0175183
778.777	0.0175363
778.855	0.0174793
778.933	0.0175469
779.012	0.0175114
779.090	0.0175209
779.168	0.0174290
779.246	0.0175388
779.324	0.0175354
779.402	0.0173879
779.480	0.0173771
779.558	0.0174059
779.637	0.0172630
779.715	0.0172723
779.793	0.0173019
779.871	0.0171625
779.949	0.0173117
780.027	0.0172673
780.105	0.0173281
780.183	0.0173086
780.262	0.0173826
780.340	0.0173189
780.418	0.0174036
780.496	0.0173450
780.574	0.0172759
780.652	0.0174508
780.730	0.0174834
780.808	0.0174687
780.887	0.0172940
780.965	0.0174020
781.043	0.0173981
781.121	0.0175085
781.199	0.0174442
781.277	0.0173163
781.355	0.0172872
781.433	0.0174591
781.512	0.0171583
781.590	0.0172289
781.668	0.0172341
781.746	0.0172368
781.824	0.0171669
781.902	0.0173131
781.980	0.0173516
782.058	0.0173611
782.137	0.0174552
782.215	0.0173650
782.293	0.0172377
782.371	0.0173624
782.449	0.0173634
782.527	0.0173753
782.605	0.0174522
782.683	0.0174963
782.762	0.0172662
782.840	0.0173559
782.918	0.0174760
782.996	0.0175031
783.074	0.0175980
783.152	0.0176029
783.230	0.0175734
783.308	0.0175379
783.387	0.0176360
783.465	0.0176490
783.543	0.0175382
783.621	0.0176752
783.699	0.0176059
783.777	0.0175330
783.855	0.0175006
783.933	0.0175505
784.012	0.0175407
784.090	0.0175740
784.168	0.0174742
784.246	0.0174606
784.324	0.0174916
784.402	0.0172340
784.480	0.0174746
784.558	0.0174408
784.637	0.0173733
784.715	0.0172025
784.793	0.0172609
784.871	0.0172668
784.949	0.0173501
785.027	0.0172709
785.105	0.0173264
785.183	0.0172980
785.262	0.0171811
785.340	0.0172054
785.418	0.0173173
785.496	0.0171486
785.574	0.0172034
785.652	0.0173000
785.730	0.0172268
785.808	0.0171960
785.887	0.0172398
785.965	0.0172885
786.043	0.0172788
786.121	0.0171628
786.199	0.0173378
786.277	0.0171835
786.355	0.0173980
786.433	0.0173721
786.512	0.0172792
786.590	0.0175541
786.668	0.0174614
786.746	0.0175312
786.824	0.0175655
786.902	0.0174588
786.980	0.0176087
787.058	0.0175208
787.137	0.0176424
787.215	0.0176061
787.293	0.0174738
787.371	0.0176486
787.449	0.0176463
787.527	0.0174546
787.605	0.0175385
787.683	0.0174738
787.762	0.0175239
787.840	0.0174841
787.918	0.0175352
787.996	0.0173740
788.074	0.0176017
788.152	0.0175550
788.230	0.0175035
788.308	0.0175672
788.387	0.0175626
788.465	0.0175653
788.543	0.0175016
788.621	0.0173802
788.699	0.0175101
788.777	0.0175301
788.855	0.0174740
788.933	0.0174220
789.012	0.0175689
789.090	0.0174761
789.168	0.0173424
789.246	0.0173865
789.324	0.0174426
789.402	0.0174027
789.480	0.0173849
789.558	0.0173030
789.637	0.0173453
789.715	0.0175004
789.793	0.0175089
789.871	0.0175463
789.949	0.0173254
790.027	0.0175599
790.105	0.0175193
790.183	0.0175181
790.262	0.0174261
790.340	0.0174135
790.418	0.0174100
790.496	0.0173658
790.574	0.0174718
790.652	0.0173641
790.730	0.0174426
790.808	0.0174348
790.887	0.0173734
790.965	0.0173285
791.043	0.0173522
791.121	0.0173643
791.199	0.0172687
791.277	0.0173495
791.355	0.0173039
791.433	0.0173962
791.512	0.0174508
791.590	0.0173846
791.668	0.0173658
791.746	0.0173695
791.824	0.0172494
791.902	0.0174646
791.980	0.0174915
792.058	0.0174468
792.137	0.0175668
792.215	0.0175018
792.293	0.0174608
792.371	0.0174708
792.449	0.0175501
792.527	0.0175335
792.605	0.0174656
792.683	0.0175308
792.762	0.0174954
792.840	0.0173772
792.918	0.0175957
792.996	0.0175043
793.074	0.0174100
793.152	0.0174020
793.230	0.0174060
793.308	0.0174835
793.387	0.0175282
793.465	0.0173641
793.543	0.0173139
793.621	0.0173762
793.699	0.0174632
793.777	0.0174741
793.855	0.0172488
793.933	0.0171921
794.012	0.0172758
794.090	0.0174243
794.168	0.0174021
794.246	0.0173091
794.324	0.0173633
794.402	0.0174380
794.480	0.0173661
794.558	0.0173767
794.637	0.0173341
794.715	0.0172740
794.793	0.0173641
794.871	0.0174722
794.949	0.0174467
795.027	0.0173628
795.105	0.0174622
795.183	0.0174390
795.262	0.0173909
795.340	0.0174499
795.418	0.0174142
795.496	0.0174630
795.574	0.0174679
795.652	0.0174868
795.730	0.0174364
795.808	0.0174760
795.887	0.0175239
795.965	0.0175856
796.043	0.0176072
796.121	0.0174776
796.199	0.0173266
796.277	0.0173901
796.355	0.0174019
796.433	0.0172872
796.512	0.0174705
796.590	0.0174512
796.668	0.0174394
796.746	0.0173214
796.824	0.0172474
796.902	0.0173441
796.980	0.0172898
797.058	0.0174056
797.137	0.0173385
797.215	0.0173769
797.293	0.0174148
797.371	0.0173186
797.449	0.0174166
797.527	0.0174068
797.605	0.0173660
797.683	0.0174353
797.762	0.0175541
797.840	0.0174274
797.918	0.0173460
797.996	0.0173435
798.074	0.0173698
798.152	0.0175693
798.230	0.0174478
798.308	0.0175079
798.387	0.0175627
798.465	0.0175182
798.543	0.0176298
798.621	0.0175134
798.699	0.0175092
798.777	0.0175981
798.855	0.0175434
798.933	0.0176012
799.012	0.0176611
799.090	0.0176884
799.168	0.0176168
799.246	0.0175654
799.324	0.0175152
799.402	0.0174648
799.480	0.0175548
799.558	0.0174374
799.637	0.0175510
799.715	0.0175027
799.793	0.0175033
799.871	0.0175031
799.949	0.0173856
800.027	0.0175877
800.105	0.0174375
800.183	0.0173228
800.262	0.0175699
800.340	0.0174790
800.418	0.0174912
800.496	0.0174970
800.574	0.0174158
800.652	0.0174203
800.730	0.0173929
800.808	0.0173930
800.887	0.0173711
800.965	0.0173849
801.043	0.0173852
801.121	0.0173247
801.199	0.0172001
801.277	0.0172134
801.355	0.0172824
801.433	0.0173454
801.512	0.0173050
801.590	0.0173087
801.668	0.0173563
801.746	0.0173576
801.824	0.0172750
801.902	0.0172062
801.980	0.0173166
802.058	0.0173544
802.137	0.0172160
802.215	0.0172923
802.293	0.0173582
802.371	0.0171575
802.449	0.0170915
802.527	0.0173687
802.605	0.0173808
802.683	0.0174560
802.762	0.0174056
802.840	0.0172983
802.918	0.0172979
802.996	0.0172194
803.074	0.0173004
803.152	0.0173153
803.230	0.0172607
803.308	0.0172795
803.387	0.0173775
803.465	0.0174471
803.543	0.0172887
803.621	0.0174636
803.699	0.0173994
803.777	0.0172948
803.855	0.0173254
803.933	0.0175243
804.012	0.0175236
804.090	0.0173643
804.168	0.0174303
804.246	0.0173273
804.324	0.0174377
804.402	0.0174567
804.480	0.0174756
804.558	0.0172926
804.637	0.0173980
804.715	0.0175088
804.793	0.0175932
804.871	0.0174638
804.949	0.0175240
805.027	0.0175036
805.105	0.0172952
805.183	0.0174645
805.262	0.0175028
805.340	0.0172843
805.418	0.0173988
805.496	0.0173205
805.574	0.0172850
805.652	0.0172565
805.730	0.0172808
805.808	0.0173206
805.887	0.0173101
805.965	0.0171511
806.043	0.0172152
806.121	0.0172159
806.199	0.0174136
806.277	0.0173603
806.355	0.0173330
806.433	0.0171478
806.512	0.0173784
806.590	0.0175178
806.668	0.0174474
806.746	0.0174252
806.824	0.0174807
806.902	0.0174961
806.980	0.0173534
807.058	0.0174719
807.137	0.0175494
807.215	0.0174498
807.293	0.0173720
807.371	0.0174315
807.449	0.0175125
807.527	0.0174129
807.605	0.0175378
807.683	0.0174580
807.762	0.0174827
807.840	0.0175677
807.918	0.0175258
807.996	0.0174459
808.074	0.0175010
808.152	0.0176223
808.230	0.0176306
808.308	0.0175348
808.387	0.0175698
808.465	0.0175508
808.543	0.0174385
808.621	0.0174861
808.699	0.0175383
808.777	0.0175465
808.855	0.0174165
808.933	0.0174331
809.012	0.0175156
809.090	0.0174647
809.168	0.0174375
809.246	0.0175186
809.324	0.0174757
809.402	0.0174605
809.480	0.0175623
809.558	0.0175710
809.637	0.0174673
809.715	0.0174162
809.793	0.0174079
809.871	0.0175938
809.949	0.0176579
810.027	0.0174219
810.105	0.0176762
810.183	0.0176058
810.262	0.0176501
810.340	0.0175992
810.418	0.0176363
810.496	0.0175117
810.574	0.0174336
810.652	0.0174913
810.730	0.0175646
810.808	0.0175150
810.887	0.0176009
810.965	0.0175347
811.043	0.0176407
811.121	0.0176161
811.199	0.0174722
811.277	0.0176523
811.355	0.0175807
811.433	0.0176138
811.512	0.0176373
811.590	0.0176109
811.668	0.0175520
811.746	0.0176865
811.824	0.0176760
811.902	0.0176868
811.980	0.0175558
812.058	0.0174564
812.137	0.0175285
812.215	0.0175773
812.293	0.0175515
812.371	0.0174488
812.449	0.0175439
812.527	0.0175182
812.605	0.0173792
812.683	0.0176515
812.762	0.0175278
812.840	0.0175806
812.918	0.0175564
812.996	0.0175537
813.074	0.0175286
813.152	0.0175888
813.230	0.0175168
813.308	0.0174483
813.387	0.0175372
813.465	0.0173982
813.543	0.0174332
813.621	0.0174432
813.699	0.0174646
813.777	0.0173241
813.855	0.0173920
813.933	0.0173990
814.012	0.0173473
814.090	0.0173429
814.168	0.0174490
814.246	0.0175037
814.324	0.0175127
814.402	0.0173769
814.480	0.0175682
814.558	0.0174863
814.637	0.0173216
814.715	0.0176170
814.793	0.0174959
814.871	0.0174715
814.949	0.0175214
815.027	0.0175880
815.105	0.0175376
815.183	0.0176535
815.262	0.0175748
815.340	0.0175095
815.418	0.0175117
815.496	0.0176175
815.574	0.0177016
815.652	0.0175563
815.730	0.0175725
815.808	0.0175945
815.887	0.0176381
815.965	0.0174713
816.043	0.0174694
816.121	0.0175450
816.199	0.0174966
816.277	0.0175136
816.355	0.0174682
816.433	0.0175369
816.512	0.0174341
816.590	0.0173959
816.668	0.0173454
816.746	0.0175258
816.824	0.0173271
816.902	0.0173138
816.980	0.0173905
817.058	0.0174220
817.137	0.0173615
817.215	0.0173915
817.293	0.0174432
817.371	0.0173787
817.449	0.0174728
817.527	0.0174500
817.605	0.0175443
817.683	0.0174581
817.762	0.0174894
817.840	0.0175891
817.918	0.0175931
817.996	0.0174860
818.074	0.0174229
818.152	0.0174426
818.230	0.0173831
818.308	0.0173746
818.387	0.0174323
818.465	0.0174386
818.543	0.0173484
818.621	0.0174432
818.699	0.0174087
818.777	0.0173423
818.855	0.0174883
818.933	0.0174426
819.012	0.0172835
819.090	0.0173066
819.168	0.0173794
819.246	0.0173733
819.324	0.0173257
819.402	0.0174583
819.480	0.0174545
819.558	0.0174135
819.637	0.0173704
819.715	0.0174552
819.793	0.0174342
819.871	0.0174243
819.949	0.0174091
820.027	0.0174648
820.105	0.0174016
820.183	0.0173183
820.262	0.0173260
820.340	0.0173743
820.418	0.0174828
820.496	0.0175237
820.574	0.0175290
820.652	0.0174689
820.730	0.0175384
820.808	0.0176665
820.887	0.0174681
820.965	0.0175253
821.043	0.0174895
821.121	0.0175270
821.199	0.0176338
821.277	0.0176083
821.355	0.0175900
821.433	0.0175988
821.512	0.0176079
821.590	0.0175167
821.668	0.0174903
821.746	0.0176161
821.824	0.0176477
821.902	0.0174670
821.980	0.0173643
822.058	0.0175446
822.137	0.0175241
822.215	0.0174779
822.293	0.0174664
822.371	0.0174703
822.449	0.0173832
822.527	0.0174432
822.605	0.0174789
822.683	0.0176226
822.762	0.0176129
822.840	0.0175215
822.918	0.0174920
822.996	0.0175107
823.074	0.0176453
823.152	0.0175925
823.230	0.0175645
823.308	0.0175117
823.387	0.0176485
823.465	0.0176329
823.543	0.0176579
823.621	0.0175193
823.699	0.0175903
823.777	0.0175587
823.855	0.0175555
823.933	0.0174357
824.012	0.0174190
824.090	0.0174206
824.168	0.0173425
824.246	0.0174221
824.324	0.0173105
824.402	0.0173296
824.480	0.0173685
824.558	0.0172855
824.637	0.0171555
824.715	0.0174200
824.793	0.0173220
824.871	0.0172989
824.949	0.0172739
825.027	0.0173173
825.105	0.0172852
825.183	0.0171906
825.262	0.0172086
825.340	0.0172477
825.418	0.0173401
825.496	0.0173262
825.574	0.0173725
825.652	0.0173045
825.730	0.0172549
825.808	0.0173769
825.887	0.0173674
825.965	0.0173352
826.043	0.0173047
826.121	0.0174503
826.199	0.0173747
826.277	0.0174109
826.355	0.0174796
826.433	0.0174279
826.512	0.0174586
826.590	0.0175166
826.668	0.0175602
826.746	0.0174614
826.824	0.0174140
826.902	0.0174448
826.980	0.0176237
827.058	0.0175172
827.137	0.0175739
827.215	0.0174992
827.293	0.0176049
827.371	0.0175784
827.449	0.0174563
827.527	0.0176168
827.605	0.0173445
827.683	0.0174880
827.762	0.0175369
827.840	0.0174834
827.918	0.0175678
827.996	0.0174848
828.074	0.0175121
828.152	0.0175141
828.230	0.0174330
828.308	0.0173789
828.387	0.0174752
828.465	0.0174355
828.543	0.0174084
828.621	0.0175655
828.699	0.0173622
828.777	0.0173648
828.855	0.0174268
828.933	0.0175471
829.012	0.0174890
829.090	0.0173799
829.168	0.0176598
829.246	0.0174869
829.324	0.0175194
829.402	0.0174945
829.480	0.0175856
829.558	0.0176152
829.637	0.0175462
829.715	0.0174985
829.793	0.0176152
829.871	0.0174732
829.949	0.0174681
830.027	0.0175793
830.105	0.0174920
830.183	0.0176505
830.262	0.0175394
830.340	0.0174517
830.418	0.0175172
830.496	0.0175035
830.574	0.0172900
830.652	0.0175673
830.730	0.0174133
830.808	0.0174689
830.887	0.0174524
830.965	0.0175729
831.043	0.0175652
831.121	0.0175508
831.199	0.0175043
831.277	0.0176773
831.355	0.0174859
831.433	0.0174709
831.512	0.0176683
831.590	0.0175584
831.668	0.0175933
831.746	0.0174226
831.824	0.0175026
831.902	0.0175179
831.980	0.0174914
832.058	0.0174078
832.137	0.0174427
832.215	0.0174631
832.293	0.0175381
832.371	0.0173905
832.449	0.0173989
832.527	0.0173097
832.605	0.0173769
832.683	0.0172392
832.762	0.0172907
832.840	0.0174400
832.918	0.0175085
832.996	0.0172291
833.074	0.0173904
833.152	0.0172225
833.230	0.0172837
833.308	0.0175153
833.387	0.0173240
833.465	0.0175481
833.543	0.0176908
833.621	0.0173607
833.699	0.0175005
833.777	0.0175157
833.855	0.0175495
833.933	0.0174222
834.012	0.0174477
834.090	0.0175452
834.168	0.0176327
834.246	0.0175140
834.324	0.0176290
834.402	0.0175510
834.480	0.0175349
834.558	0.0174290
834.637	0.0175815
834.715	0.0176469
834.793	0.0176107
834.871	0.0175455
834.949	0.0175175
835.027	0.0175311
835.105	0.0175307
835.183	0.0175273
835.262	0.0176266
835.340	0.0173760
835.418	0.0176912
835.496	0.0175854
835.574	0.0175394
835.652	0.0174098
835.730	0.0175123
835.808	0.0175346
835.887	0.0175025
835.965	0.0173962
836.043	0.0174597
836.121	0.0174607
836.199	0.0175125
836.277	0.0174130
836.355	0.0173998
836.433	0.0173991
836.512	0.0174636
836.590	0.0174831
836.668	0.0173695
836.746	0.0174924
836.824	0.0172638
836.902	0.0173734
836.980	0.0174852
837.058	0.0174030
837.137	0.0173048
837.215	0.0173876
837.293	0.0173855
837.371	0.0174133
837.449	0.0174531
837.527	0.0173796
837.605	0.0172994
837.683	0.0175184
837.762	0.0173874
837.840	0.0171171
837.918	0.0172163
837.996	0.0174458
838.074	0.0173385
838.152	0.0173569
838.230	0.0173289
838.308	0.0174289
838.387	0.0173655
838.465	0.0173016
838.543	0.0173622
838.621	0.0173798
838.699	0.0173103
838.777	0.0174268
838.855	0.0172214
838.933	0.0173166
839.012	0.0172857
839.090	0.0172543
839.168	0.0172890
839.246	0.0172989
839.324	0.0174072
839.402	0.0173369
839.480	0.0173537
839.558	0.0174370
839.637	0.0174407
839.715	0.0174564
839.793	0.0174980
839.871	0.0174953
839.949	0.0175025
840.027	0.0174068
840.105	0.0175688
840.183	0.0175463
840.262	0.0175102
840.340	0.0174783
840.418	0.0174385
840.496	0.0175822
840.574	0.0175105
840.652	0.0173930
840.730	0.0175770
840.808	0.0175404
840.887	0.0175013
840.965	0.0175284
841.043	0.0174519
841.121	0.0175162
841.199	0.0174397
841.277	0.0175467
841.355	0.0174947
841.433	0.0173331
841.512	0.0175051
841.590	0.0174588
841.668	0.0174606
841.746	0.0174319
841.824	0.0173885
841.902	0.0174829
841.980	0.0174275
842.058	0.0174847
842.137	0.0173476
842.215	0.0173711
842.293	0.0173674
842.371	0.0173302
842.449	0.0173047
842.527	0.0174364
842.605	0.0174161
842.683	0.0173592
842.762	0.0173674
842.840	0.0171986
842.918	0.0172455
842.996	0.0172571
843.074	0.0173730
843.152	0.0173753
843.230	0.0172865
843.308	0.0173598
843.387	0.0173215
843.465	0.0173011
843.543	0.0174094
843.621	0.0173360
843.699	0.0173414
843.777	0.0173947
843.855	0.0173937
843.933	0.0173340
844.012	0.0174671
844.090	0.0174239
844.168	0.0174168
844.246	0.0173675
844.324	0.0174079
844.402	0.0175550
844.480	0.0174549
844.558	0.0173928
844.637	0.0173800
844.715	0.0175011
844.793	0.0174413
844.871	0.0175027
844.949	0.0174371
845.027	0.0173985
845.105	0.0174496
845.183	0.0174749
845.262	0.0174625
845.340	0.0173803
845.418	0.0175021
845.496	0.0175321
845.574	0.0174961
845.652	0.0173952
845.730	0.0173161
845.808	0.0174406
845.887	0.0175653
845.965	0.0174400
846.043	0.0175146
846.121	0.0174408
846.199	0.0173469
846.277	0.0175549
846.355	0.0174820
846.433	0.0174323
846.512	0.0176241
846.590	0.0175790
846.668	0.0175336
846.746	0.0176274
846.824	0.0174961
846.902	0.0175224
846.980	0.0173077
847.058	0.0174936
847.137	0.0174798
847.215	0.0174521
847.293	0.0172289
847.371	0.0173513
847.449	0.0174139
847.527	0.0172668
847.605	0.0173360
847.683	0.0172225
847.762	0.0172206
847.840	0.0172133
847.918	0.0172630
847.996	0.0171730
848.074	0.0172154
848.152	0.0171304
848.230	0.0173752
848.308	0.0173637
848.387	0.0173118
848.465	0.0173937
848.543	0.0173076
848.621	0.0173413
848.699	0.0175237
848.777	0.0174004
848.855	0.0174323
848.933	0.0175166
849.012	0.0173337
849.090	0.0175188
849.168	0.0175874
849.246	0.0174232
849.324	0.0174007
849.402	0.0173221
849.480	0.0175027
849.558	0.0176682
849.637	0.0175363
849.715	0.0175955
849.793	0.0175324
849.871	0.0176362
849.949	0.0176653
850.027	0.0175129
850.105	0.0174728
850.183	0.0175071
850.262	0.0175444
850.340	0.0174109
850.418	0.0175735
850.496	0.0174349
850.574	0.0174168
850.652	0.0174436
850.730	0.0174437
850.808	0.0175370
850.887	0.0174583
850.965	0.0174540
851.043	0.0172827
851.121	0.0175304
851.199	0.0175593
851.277	0.0172425
851.355	0.0173624
851.433	0.0174937
851.512	0.0175236
851.590	0.0174387
851.668	0.0173476
851.746	0.0174339
851.824	0.0173756
851.902	0.0173740
851.980	0.0174812
852.058	0.0175099
852.137	0.0174400
852.215	0.0175330
852.293	0.0174551
852.371	0.0175246
852.449	0.0175625
852.527	0.0175692
852.605	0.0177611
852.683	0.0175433
852.762	0.0174857
852.840	0.0174982
852.918	0.0175525
852.996	0.0174969
853.074	0.0175420
853.152	0.0176731
853.230	0.0176183
853.308	0.0175545
853.387	0.0177206
853.465	0.0175993
853.543	0.0176634
853.621	0.0176205
853.699	0.0176303
853.777	0.0174422
853.855	0.0175036
853.933	0.0176003
854.012	0.0175609
854.090	0.0174505
854.168	0.0174825
854.246	0.0175440
854.324	0.0174648
854.402	0.0175786
854.480	0.0175655
854.558	0.0174382
854.637	0.0174533
854.715	0.0174299
854.793	0.0174127
854.871	0.0174686
854.949	0.0175827
855.027	0.0174109
855.105	0.0174789
855.183	0.0175117
855.262	0.0175458
855.340	0.0174007
855.418	0.0176291
855.496	0.0174791
855.574	0.0173898
855.652	0.0173916
855.730	0.0173537
855.808	0.0174584
855.887	0.0173814
855.965	0.0173827
856.043	0.0174558
856.121	0.0173573
856.199	0.0174168
856.277	0.0174842
856.355	0.0174871
856.433	0.0174918
856.512	0.0174540
856.590	0.0174161
856.668	0.0174818
856.746	0.0176127
856.824	0.0175912
856.902	0.0174674
856.980	0.0172388
857.058	0.0175374
857.137	0.0177107
857.215	0.0176197
857.293	0.0175341
857.371	0.0173772
857.449	0.0174680
857.527	0.0175364
857.605	0.0175243
857.683	0.0176044
857.762	0.0175357
857.840	0.0174879
857.918	0.0175259
857.996	0.0174760
858.074	0.0175420
858.152	0.0173636
858.230	0.0175167
858.308	0.0175864
858.387	0.0174765
858.465	0.0172365
858.543	0.0173114
858.621	0.0174869
858.699	0.0173446
858.777	0.0174159
858.855	0.0173595
858.933	0.0172827
859.012	0.0172842
859.090	0.0173965
859.168	0.0173489
859.246	0.0172710
859.324	0.0173043
859.402	0.0174411
859.480	0.0174306
859.558	0.0172929
859.637	0.0173421
859.715	0.0173553
859.793	0.0173510
859.871	0.0174730
859.949	0.0174582
860.027	0.0174552
860.105	0.0173933
860.183	0.0174372
860.262	0.0174429
860.340	0.0171616
860.418	0.0173754
860.496	0.0175050
860.574	0.0174490
860.652	0.0172878
860.730	0.0174103
860.808	0.0172971
860.887	0.0172207
860.965	0.0172892
861.043	0.0172554
861.121	0.0173457
861.199	0.0173586
861.277	0.0174653
861.355	0.0173476
861.433	0.0174406
861.512	0.0172681
861.590	0.0173471
861.668	0.0172929
861.746	0.0173756
861.824	0.0174701
861.902	0.0174422
861.980	0.0173408
862.058	0.0173681
862.137	0.0176118
862.215	0.0172271
862.293	0.0174116
862.371	0.0174238
862.449	0.0173689
862.527	0.0174704
862.605	0.0174949
862.683	0.0173327
862.762	0.0173849
862.840	0.0172573
862.918	0.0173019
862.996	0.0173279
863.074	0.0173224
863.152	0.0173306
863.230	0.0171228
863.308	0.0171613
863.387	0.0173433
863.465	0.0173361
863.543	0.0172858
863.621	0.0173495
863.699	0.0173930
863.777	0.0173000
863.855	0.0171970
863.933	0.0173936
864.012	0.0174435
864.090	0.0172517
864.168	0.0173481
864.246	0.0174065
864.324	0.0172456
864.402	0.0173676
864.480	0.0173508
864.558	0.0173112
864.637	0.0172587
864.715	0.0173483
864.793	0.0174335
864.871	0.0175404
864.949	0.0174421
865.027	0.0173948
865.105	0.0175167
865.183	0.0172555
865.262	0.0174648
865.340	0.0175093
865.418	0.0174445
865.496	0.0174319
865.574	0.0173198
865.652	0.0173728
865.730	0.0175272
865.808	0.0174745
865.887	0.0174684
865.965	0.0175372
866.043	0.0174212
866.121	0.0173773
866.199	0.0174663
866.277	0.0174471
866.355	0.0175347
866.433	0.0172481
866.512	0.0173818
866.590	0.0173381
866.668	0.0174134
866.746	0.0173180
866.824	0.0173245
866.902	0.0172887
866.980	0.0172653
867.058	0.0173047
867.137	0.0171780
867.215	0.0172792
867.293	0.0174759
867.371	0.0173403
867.449	0.0173849
867.527	0.0173745
867.605	0.0172399
867.683	0.0173328
867.762	0.0172198
867.840	0.0172568
867.918	0.0173067
867.996	0.0172820
868.074	0.0173873
868.152	0.0173610
868.230	0.0173408
868.308	0.0173611
868.387	0.0173842
868.465	0.0174662
868.543	0.0174820
868.621	0.0174058
868.699	0.0174776
868.777	0.0173351
868.855	0.0173682
868.933	0.0174339
869.012	0.0173685
869.090	0.0175004
869.168	0.0174900
869.246	0.0174084
869.324	0.0173460
869.402	0.0174127
869.480	0.0174646
869.558	0.0174140
869.637	0.0173865
869.715	0.0173528
869.793	0.0174108
869.871	0.0172808
869.949	0.0174651
