06/03/2022	18:41:09	Ver.	4.1	UNKNOWN
Optical Delay	499.972551	Delta X		0.078125	Sweeps	1	Scan Rate	0/0
Coordinates	Axis 1	NaN	Axis 2	NaN	Axis 3	NaN	Axis 4	NaN	Axis 5	NaN	Axis 6	0.000000
TX Power	0.000000	RX Power	0.000000

499.973	0.0179704
500.051	0.0178174
500.129	0.0179836
500.207	0.0179671
500.285	0.0179497
500.363	0.0180280
500.441	0.0178877
500.519	0.0178520
500.598	0.0180295
500.676	0.0178997
500.754	0.0179729
500.832	0.0178941
500.910	0.0178492
500.988	0.0179509
501.066	0.0179677
501.144	0.0180260
501.223	0.0180022
501.301	0.0179191
501.379	0.0180930
501.457	0.0179152
501.535	0.0180742
501.613	0.0179367
501.691	0.0178992
501.769	0.0180285
501.848	0.0180846
501.926	0.0179300
502.004	0.0179619
502.082	0.0179517
502.160	0.0178991
502.238	0.0179592
502.316	0.0179698
502.394	0.0178848
502.473	0.0179140
502.551	0.0180518
502.629	0.0181292
502.707	0.0180788
502.785	0.0179014
502.863	0.0179819
502.941	0.0180460
503.019	0.0179684
503.098	0.0181027
503.176	0.0180019
503.254	0.0180734
503.332	0.0179729
503.410	0.0181296
503.488	0.0181508
503.566	0.0179288
503.644	0.0179434
503.723	0.0180400
503.801	0.0179871
503.879	0.0180272
503.957	0.0181134
504.035	0.0179909
504.113	0.0179018
504.191	0.0178844
504.269	0.0179497
504.348	0.0180429
504.426	0.0180031
504.504	0.0180640
504.582	0.0179790
504.660	0.0179405
504.738	0.0180954
504.816	0.0179775
504.894	0.0180058
504.973	0.0179861
505.051	0.0179690
505.129	0.0181452
505.207	0.0180911
505.285	0.0178522
505.363	0.0179883
505.441	0.0179557
505.519	0.0180624
505.598	0.0179820
505.676	0.0180092
505.754	0.0179816
505.832	0.0178980
505.910	0.0180659
505.988	0.0179287
506.066	0.0180339
506.144	0.0181477
506.223	0.0179546
506.301	0.0178594
506.379	0.0178293
506.457	0.0180508
506.535	0.0181670
506.613	0.0181223
506.691	0.0179873
506.769	0.0179214
506.848	0.0180299
506.926	0.0179627
507.004	0.0180421
507.082	0.0181266
507.160	0.0180637
507.238	0.0180090
507.316	0.0180353
507.394	0.0179019
507.473	0.0180392
507.551	0.0179736
507.629	0.0180721
507.707	0.0180683
507.785	0.0179181
507.863	0.0181023
507.941	0.0179359
508.019	0.0178601
508.098	0.0181784
508.176	0.0179328
508.254	0.0179337
508.332	0.0180514
508.410	0.0179680
508.488	0.0180221
508.566	0.0179602
508.644	0.0181217
508.723	0.0180636
508.801	0.0179312
508.879	0.0178632
508.957	0.0179485
509.035	0.0180293
509.113	0.0180631
509.191	0.0180366
509.269	0.0181125
509.348	0.0180625
509.426	0.0181076
509.504	0.0180254
509.582	0.0180445
509.660	0.0180704
509.738	0.0180341
509.816	0.0180705
509.894	0.0182302
509.973	0.0182411
510.051	0.0181091
510.129	0.0181136
510.207	0.0180576
510.285	0.0179301
510.363	0.0180320
510.441	0.0179194
510.519	0.0180658
510.598	0.0181996
510.676	0.0182493
510.754	0.0181349
510.832	0.0181065
510.910	0.0182375
510.988	0.0180360
511.066	0.0181446
511.144	0.0181832
511.223	0.0181927
511.301	0.0181062
511.379	0.0179764
511.457	0.0181329
511.535	0.0181744
511.613	0.0180156
511.691	0.0182304
511.769	0.0180696
511.848	0.0181414
511.926	0.0181268
512.004	0.0180711
512.082	0.0181068
512.160	0.0180499
512.238	0.0180473
512.316	0.0180618
512.394	0.0180942
512.473	0.0182722
512.551	0.0179712
512.629	0.0180925
512.707	0.0181369
512.785	0.0181403
512.863	0.0181727
512.941	0.0181765
513.019	0.0181996
513.098	0.0180628
513.176	0.0181567
513.254	0.0181676
513.332	0.0180911
513.410	0.0180316
513.488	0.0180653
513.566	0.0181367
513.644	0.0180970
513.723	0.0180208
513.801	0.0179831
513.879	0.0179854
513.957	0.0180103
514.035	0.0180347
514.113	0.0180469
514.191	0.0180722
514.269	0.0179992
514.348	0.0179317
514.426	0.0179848
514.504	0.0180703
514.582	0.0180368
514.660	0.0179506
514.738	0.0179880
514.816	0.0179388
514.894	0.0179605
514.973	0.0180334
515.051	0.0180559
515.129	0.0179720
515.207	0.0178621
515.285	0.0180006
515.363	0.0180347
515.441	0.0179210
515.519	0.0178985
515.598	0.0179677
515.676	0.0180156
515.754	0.0180160
515.832	0.0179490
515.910	0.0178814
515.988	0.0179565
516.066	0.0179918
516.144	0.0180587
516.223	0.0179673
516.301	0.0180473
516.379	0.0178722
516.457	0.0178664
516.535	0.0179324
516.613	0.0179582
516.691	0.0179055
516.769	0.0179818
516.848	0.0181860
516.926	0.0178281
517.004	0.0178378
517.082	0.0179305
517.160	0.0179406
517.238	0.0180042
517.316	0.0179694
517.394	0.0180479
517.473	0.0179052
517.551	0.0179241
517.629	0.0177914
517.707	0.0179166
517.785	0.0178173
517.863	0.0180109
517.941	0.0179295
518.019	0.0178795
518.098	0.0179163
518.176	0.0181208
518.254	0.0179306
518.332	0.0179190
518.410	0.0180476
518.488	0.0180598
518.566	0.0179844
518.644	0.0180556
518.723	0.0179688
518.801	0.0179086
518.879	0.0179243
518.957	0.0179459
519.035	0.0180630
519.113	0.0179259
519.191	0.0179456
519.269	0.0178590
519.348	0.0179097
519.426	0.0179448
519.504	0.0180127
519.582	0.0180176
519.660	0.0180096
519.738	0.0179414
519.816	0.0177908
519.894	0.0179270
519.973	0.0178248
520.051	0.0179871
520.129	0.0180633
520.207	0.0178207
520.285	0.0178455
520.363	0.0179911
520.441	0.0180229
520.519	0.0179757
520.598	0.0179327
520.676	0.0178008
520.754	0.0180341
520.832	0.0179691
520.910	0.0178168
520.988	0.0180350
521.066	0.0179420
521.144	0.0179869
521.223	0.0178972
521.301	0.0177988
521.379	0.0179339
521.457	0.0178954
521.535	0.0179337
521.613	0.0180003
521.691	0.0179002
521.769	0.0179246
521.848	0.0178838
521.926	0.0180309
522.004	0.0180887
522.082	0.0178951
522.160	0.0178505
522.238	0.0178747
522.316	0.0177517
522.394	0.0179887
522.473	0.0180479
522.551	0.0180636
522.629	0.0179660
522.707	0.0179400
522.785	0.0179558
522.863	0.0178672
522.941	0.0178451
523.019	0.0178625
523.098	0.0180029
523.176	0.0180544
523.254	0.0179440
523.332	0.0177949
523.410	0.0179003
523.488	0.0179919
523.566	0.0179060
523.644	0.0180004
523.723	0.0179408
523.801	0.0178683
523.879	0.0178792
523.957	0.0178630
524.035	0.0180503
524.113	0.0178316
524.191	0.0179196
524.269	0.0180917
524.348	0.0179500
524.426	0.0178571
524.504	0.0178381
524.582	0.0177986
524.660	0.0178833
524.738	0.0179835
524.816	0.0179176
524.894	0.0178957
524.973	0.0180290
525.051	0.0178955
525.129	0.0179683
525.207	0.0178759
525.285	0.0177560
525.363	0.0179902
525.441	0.0179391
525.519	0.0179420
525.598	0.0180006
525.676	0.0180791
525.754	0.0180025
525.832	0.0179512
525.910	0.0179908
525.988	0.0179456
526.066	0.0178789
526.144	0.0180465
526.223	0.0180363
526.301	0.0178453
526.379	0.0180537
526.457	0.0179839
526.535	0.0180338
526.613	0.0179476
526.691	0.0180632
526.769	0.0181367
526.848	0.0180112
526.926	0.0179663
527.004	0.0180490
527.082	0.0181196
527.160	0.0179463
527.238	0.0180118
527.316	0.0180692
527.394	0.0179587
527.473	0.0180452
527.551	0.0181313
527.629	0.0181529
527.707	0.0180657
527.785	0.0180173
527.863	0.0180849
527.941	0.0181255
528.019	0.0179485
528.098	0.0178449
528.176	0.0181678
528.254	0.0180795
528.332	0.0179622
528.410	0.0180054
528.488	0.0179314
528.566	0.0179729
528.644	0.0180637
528.723	0.0181011
528.801	0.0181764
528.879	0.0179919
528.957	0.0180881
529.035	0.0179939
529.113	0.0179695
529.191	0.0181403
529.269	0.0180600
529.348	0.0180366
529.426	0.0181138
529.504	0.0180316
529.582	0.0181306
529.660	0.0181409
529.738	0.0179926
529.816	0.0179573
529.894	0.0180179
529.973	0.0180267
530.051	0.0180618
530.129	0.0182199
530.207	0.0179605
530.285	0.0179005
530.363	0.0181141
530.441	0.0182823
530.519	0.0181302
530.598	0.0179523
530.676	0.0180367
530.754	0.0181512
530.832	0.0181044
530.910	0.0181020
530.988	0.0181373
531.066	0.0180884
531.144	0.0181851
531.223	0.0181079
531.301	0.0181470
531.379	0.0181493
531.457	0.0180310
531.535	0.0182145
531.613	0.0180599
531.691	0.0181091
531.769	0.0180060
531.848	0.0181955
531.926	0.0179388
532.004	0.0181442
532.082	0.0181293
532.160	0.0181401
532.238	0.0180953
532.316	0.0180608
532.394	0.0180831
532.473	0.0180086
532.551	0.0180077
532.629	0.0179619
532.707	0.0180571
532.785	0.0180323
532.863	0.0179395
532.941	0.0181435
533.019	0.0180656
533.098	0.0178541
533.176	0.0181221
533.254	0.0180788
533.332	0.0179870
533.410	0.0181233
533.488	0.0179961
533.566	0.0180668
533.644	0.0180146
533.723	0.0180617
533.801	0.0180045
533.879	0.0180264
533.957	0.0181170
534.035	0.0179739
534.113	0.0180061
534.191	0.0179488
534.269	0.0180614
534.348	0.0180388
534.426	0.0181508
534.504	0.0179523
534.582	0.0180738
534.660	0.0179555
534.738	0.0180914
534.816	0.0178659
534.894	0.0180524
534.973	0.0181042
535.051	0.0180187
535.129	0.0180508
535.207	0.0179706
535.285	0.0179884
535.363	0.0179849
535.441	0.0179461
535.519	0.0180278
535.598	0.0180715
535.676	0.0181358
535.754	0.0180741
535.832	0.0179421
535.910	0.0179829
535.988	0.0181705
536.066	0.0182181
536.144	0.0180103
536.223	0.0179574
536.301	0.0181665
536.379	0.0181704
536.457	0.0180228
536.535	0.0179137
536.613	0.0179349
536.691	0.0181476
536.769	0.0180098
536.848	0.0179755
536.926	0.0180163
537.004	0.0182044
537.082	0.0181535
537.160	0.0181423
537.238	0.0180604
537.316	0.0180303
537.394	0.0182114
537.473	0.0180420
537.551	0.0179851
537.629	0.0180386
537.707	0.0180759
537.785	0.0181459
537.863	0.0181455
537.941	0.0181041
538.019	0.0180302
538.098	0.0181930
538.176	0.0180081
538.254	0.0180120
538.332	0.0180781
538.410	0.0179884
538.488	0.0180393
538.566	0.0181136
538.644	0.0180263
538.723	0.0180640
538.801	0.0181176
538.879	0.0179035
538.957	0.0180148
539.035	0.0181094
539.113	0.0179574
539.191	0.0180053
539.269	0.0180417
539.348	0.0179840
539.426	0.0179346
539.504	0.0178410
539.582	0.0179267
539.660	0.0180367
539.738	0.0181136
539.816	0.0178377
539.894	0.0180542
539.973	0.0179557
540.051	0.0179215
540.129	0.0179961
540.207	0.0179242
540.285	0.0179529
540.363	0.0178249
540.441	0.0179687
540.519	0.0178871
540.598	0.0179393
540.676	0.0180637
540.754	0.0180470
540.832	0.0179572
540.910	0.0179403
540.988	0.0178743
541.066	0.0179510
541.144	0.0178158
541.223	0.0179623
541.301	0.0179558
541.379	0.0179680
541.457	0.0178727
541.535	0.0179734
541.613	0.0179200
541.691	0.0180206
541.769	0.0180164
541.848	0.0180284
541.926	0.0180019
542.004	0.0178658
542.082	0.0180907
542.160	0.0180114
542.238	0.0179187
542.316	0.0177763
542.394	0.0178277
542.473	0.0178999
542.551	0.0180312
542.629	0.0179183
542.707	0.0180717
542.785	0.0179284
542.863	0.0178819
542.941	0.0180026
543.019	0.0178904
543.098	0.0179108
543.176	0.0179363
543.254	0.0179174
543.332	0.0178598
543.410	0.0178651
543.488	0.0180407
543.566	0.0179132
543.644	0.0178223
543.723	0.0178777
543.801	0.0180113
543.879	0.0179258
543.957	0.0179138
544.035	0.0179360
544.113	0.0179816
544.191	0.0180199
544.269	0.0178303
544.348	0.0178624
544.426	0.0177436
544.504	0.0179015
544.582	0.0178979
544.660	0.0178055
544.738	0.0179082
544.816	0.0179091
544.894	0.0177695
544.973	0.0177223
545.051	0.0178812
545.129	0.0178188
545.207	0.0176543
545.285	0.0178178
545.363	0.0179279
545.441	0.0177479
545.519	0.0178114
545.598	0.0178127
545.676	0.0178594
545.754	0.0177631
545.832	0.0177724
545.910	0.0178497
545.988	0.0177276
546.066	0.0178226
546.144	0.0178104
546.223	0.0177386
546.301	0.0177750
546.379	0.0178728
546.457	0.0179147
546.535	0.0178024
546.613	0.0178887
546.691	0.0178072
546.769	0.0177486
546.848	0.0177840
546.926	0.0177418
547.004	0.0177499
547.082	0.0177541
547.160	0.0178519
547.238	0.0178271
547.316	0.0178467
547.394	0.0177773
547.473	0.0178930
547.551	0.0178593
547.629	0.0179855
547.707	0.0179610
547.785	0.0179295
547.863	0.0179845
547.941	0.0180098
548.019	0.0180042
548.098	0.0180363
548.176	0.0179724
548.254	0.0179857
548.332	0.0180747
548.410	0.0180212
548.488	0.0179755
548.566	0.0179271
548.644	0.0179542
548.723	0.0179646
548.801	0.0180228
548.879	0.0179734
548.957	0.0179836
549.035	0.0179209
549.113	0.0179584
549.191	0.0180187
549.269	0.0179900
549.348	0.0179658
549.426	0.0179724
549.504	0.0180524
549.582	0.0180785
549.660	0.0180383
549.738	0.0179441
549.816	0.0179831
549.894	0.0180176
549.973	0.0181831
550.051	0.0180843
550.129	0.0181551
550.207	0.0181902
550.285	0.0181903
550.363	0.0182338
550.441	0.0182796
550.519	0.0181970
550.598	0.0180402
550.676	0.0182056
550.754	0.0182054
550.832	0.0183646
550.910	0.0183598
550.988	0.0183307
551.066	0.0183360
551.144	0.0182714
551.223	0.0182704
551.301	0.0184140
551.379	0.0183220
551.457	0.0182473
551.535	0.0184642
551.613	0.0184458
551.691	0.0183738
551.769	0.0183235
551.848	0.0183124
551.926	0.0183761
552.004	0.0182125
552.082	0.0182659
552.160	0.0184128
552.238	0.0183886
552.316	0.0181683
552.394	0.0182117
552.473	0.0181788
552.551	0.0182112
552.629	0.0182480
552.707	0.0181552
552.785	0.0181931
552.863	0.0181522
552.941	0.0182338
553.019	0.0181734
553.098	0.0180822
553.176	0.0181329
553.254	0.0179563
553.332	0.0179707
553.410	0.0179454
553.488	0.0180284
553.566	0.0180956
553.644	0.0180571
553.723	0.0179469
553.801	0.0180502
553.879	0.0179214
553.957	0.0179014
554.035	0.0178358
554.113	0.0179003
554.191	0.0181232
554.269	0.0180990
554.348	0.0179527
554.426	0.0180145
554.504	0.0179614
554.582	0.0180251
554.660	0.0180755
554.738	0.0180293
554.816	0.0180790
554.894	0.0179653
554.973	0.0180108
555.051	0.0179956
555.129	0.0180309
555.207	0.0180846
555.285	0.0180192
555.363	0.0180429
555.441	0.0179893
555.519	0.0180322
555.598	0.0181041
555.676	0.0180829
555.754	0.0179957
555.832	0.0180667
555.910	0.0179533
555.988	0.0180557
556.066	0.0180353
556.144	0.0178705
556.223	0.0179625
556.301	0.0180198
556.379	0.0179942
556.457	0.0180316
556.535	0.0178850
556.613	0.0179218
556.691	0.0179628
556.769	0.0179459
556.848	0.0177999
556.926	0.0179092
557.004	0.0180739
557.082	0.0180868
557.160	0.0179954
557.238	0.0179517
557.316	0.0180237
557.394	0.0179052
557.473	0.0179530
557.551	0.0179325
557.629	0.0180643
557.707	0.0179790
557.785	0.0179984
557.863	0.0179629
557.941	0.0179189
558.019	0.0179094
558.098	0.0178547
558.176	0.0179962
558.254	0.0180833
558.332	0.0180350
558.410	0.0179195
558.488	0.0180836
558.566	0.0180480
558.644	0.0179814
558.723	0.0180391
558.801	0.0181284
558.879	0.0179762
558.957	0.0180916
559.035	0.0179663
559.113	0.0179026
559.191	0.0180312
559.269	0.0181263
559.348	0.0180483
559.426	0.0179885
559.504	0.0181081
559.582	0.0181402
559.660	0.0179818
559.738	0.0181078
559.816	0.0180050
559.894	0.0180965
559.973	0.0181721
560.051	0.0182196
560.129	0.0181439
560.207	0.0180576
560.285	0.0181882
560.363	0.0183424
560.441	0.0182866
560.519	0.0181553
560.598	0.0182339
560.676	0.0181442
560.754	0.0181095
560.832	0.0184370
560.910	0.0183134
560.988	0.0181261
561.066	0.0182915
561.144	0.0181598
561.223	0.0181687
561.301	0.0182060
561.379	0.0182472
561.457	0.0181352
561.535	0.0181771
561.613	0.0181166
561.691	0.0181980
561.769	0.0182840
561.848	0.0182087
561.926	0.0182181
562.004	0.0181269
562.082	0.0181687
562.160	0.0181277
562.238	0.0179138
562.316	0.0181397
562.394	0.0180757
562.473	0.0180045
562.551	0.0179600
562.629	0.0180346
562.707	0.0180098
562.785	0.0179990
562.863	0.0180164
562.941	0.0180192
563.019	0.0179231
563.098	0.0178384
563.176	0.0179869
563.254	0.0179307
563.332	0.0180651
563.410	0.0181445
563.488	0.0180376
563.566	0.0181264
563.644	0.0179027
563.723	0.0180824
563.801	0.0179966
563.879	0.0177750
563.957	0.0178606
564.035	0.0179872
564.113	0.0179385
564.191	0.0178813
564.269	0.0180343
564.348	0.0178674
564.426	0.0178514
564.504	0.0178372
564.582	0.0178378
564.660	0.0178714
564.738	0.0178261
564.816	0.0176362
564.894	0.0178704
564.973	0.0179752
565.051	0.0178428
565.129	0.0177956
565.207	0.0178359
565.285	0.0179427
565.363	0.0178691
565.441	0.0178802
565.519	0.0177647
565.598	0.0177650
565.676	0.0179296
565.754	0.0179898
565.832	0.0178757
565.910	0.0179729
565.988	0.0180246
566.066	0.0179146
566.144	0.0177963
566.223	0.0178889
566.301	0.0179477
566.379	0.0179212
566.457	0.0178995
566.535	0.0178732
566.613	0.0178093
566.691	0.0179529
566.769	0.0177885
566.848	0.0178888
566.926	0.0179521
567.004	0.0179993
567.082	0.0179031
567.160	0.0178565
567.238	0.0180654
567.316	0.0179005
567.394	0.0181237
567.473	0.0179448
567.551	0.0178677
567.629	0.0178992
567.707	0.0180019
567.785	0.0180077
567.863	0.0179774
567.941	0.0179370
568.019	0.0179719
568.098	0.0180739
568.176	0.0179848
568.254	0.0179716
568.332	0.0180061
568.410	0.0181628
568.488	0.0179116
568.566	0.0180116
568.644	0.0181213
568.723	0.0180558
568.801	0.0180583
568.879	0.0179739
568.957	0.0179530
569.035	0.0179964
569.113	0.0182083
569.191	0.0180150
569.269	0.0180231
569.348	0.0180814
569.426	0.0180064
569.504	0.0180403
569.582	0.0180560
569.660	0.0179182
569.738	0.0180712
569.816	0.0180838
569.894	0.0180698
569.973	0.0180279
570.051	0.0180798
570.129	0.0181455
570.207	0.0181480
570.285	0.0181574
570.363	0.0180984
570.441	0.0180727
570.519	0.0180083
570.598	0.0179201
570.676	0.0181431
570.754	0.0181974
570.832	0.0179760
570.910	0.0181281
570.988	0.0182011
571.066	0.0180611
571.144	0.0180618
571.223	0.0180882
571.301	0.0182873
571.379	0.0181972
571.457	0.0180832
571.535	0.0181452
571.613	0.0181330
571.691	0.0181603
571.769	0.0182189
571.848	0.0181112
571.926	0.0179601
572.004	0.0180302
572.082	0.0181223
572.160	0.0181245
572.238	0.0181159
572.316	0.0181817
572.394	0.0181253
572.473	0.0180837
572.551	0.0180700
572.629	0.0181579
572.707	0.0181460
572.785	0.0180889
572.863	0.0179500
572.941	0.0180359
573.019	0.0180183
573.098	0.0179442
573.176	0.0178391
573.254	0.0179615
573.332	0.0179907
573.410	0.0181442
573.488	0.0181242
573.566	0.0179276
573.644	0.0178940
573.723	0.0178984
573.801	0.0179886
573.879	0.0180570
573.957	0.0181532
574.035	0.0180719
574.113	0.0180070
574.191	0.0180565
574.269	0.0180252
574.348	0.0179717
574.426	0.0179329
574.504	0.0180289
574.582	0.0178692
574.660	0.0179790
574.738	0.0180617
574.816	0.0181398
574.894	0.0181852
574.973	0.0180842
575.051	0.0180453
575.129	0.0180851
575.207	0.0180014
575.285	0.0179942
575.363	0.0180657
575.441	0.0180152
575.519	0.0180647
575.598	0.0179700
575.676	0.0180280
575.754	0.0182008
575.832	0.0180747
575.910	0.0179282
575.988	0.0180207
576.066	0.0180260
576.144	0.0179589
576.223	0.0179059
576.301	0.0179987
576.379	0.0181966
576.457	0.0179894
576.535	0.0179967
576.613	0.0180036
576.691	0.0178709
576.769	0.0180920
576.848	0.0180810
576.926	0.0179560
577.004	0.0179790
577.082	0.0179527
577.160	0.0181023
577.238	0.0181948
577.316	0.0180301
577.394	0.0179795
577.473	0.0179288
577.551	0.0179807
577.629	0.0180017
577.707	0.0178576
577.785	0.0180015
577.863	0.0180169
577.941	0.0179988
578.019	0.0180582
578.098	0.0179613
578.176	0.0178062
578.254	0.0178929
578.332	0.0179914
578.410	0.0181068
578.488	0.0178414
578.566	0.0180276
578.644	0.0180603
578.723	0.0179990
578.801	0.0180440
578.879	0.0179984
578.957	0.0181066
579.035	0.0179912
579.113	0.0181734
579.191	0.0182014
579.269	0.0179882
579.348	0.0180657
579.426	0.0181573
579.504	0.0181254
579.582	0.0180914
579.660	0.0180714
579.738	0.0180926
579.816	0.0181384
579.894	0.0180978
579.973	0.0180583
580.051	0.0180439
580.129	0.0181670
580.207	0.0181954
580.285	0.0180860
580.363	0.0181346
580.441	0.0182054
580.519	0.0181165
580.598	0.0180616
580.676	0.0181018
580.754	0.0181557
580.832	0.0180983
580.910	0.0181506
580.988	0.0180920
581.066	0.0182067
581.144	0.0181496
581.223	0.0180238
581.301	0.0180878
581.379	0.0180220
581.457	0.0182659
581.535	0.0181406
581.613	0.0181499
581.691	0.0182385
581.769	0.0181686
581.848	0.0181985
581.926	0.0182917
582.004	0.0182137
582.082	0.0183198
582.160	0.0182758
582.238	0.0181205
582.316	0.0181979
582.394	0.0182166
582.473	0.0182407
582.551	0.0181564
582.629	0.0183026
582.707	0.0182381
582.785	0.0182145
582.863	0.0182745
582.941	0.0181580
583.019	0.0182680
583.098	0.0182893
583.176	0.0181943
583.254	0.0181553
583.332	0.0181416
583.410	0.0181173
583.488	0.0181537
583.566	0.0181236
583.644	0.0180978
583.723	0.0181388
583.801	0.0181288
583.879	0.0180356
583.957	0.0181205
584.035	0.0181532
584.113	0.0181490
584.191	0.0181321
584.269	0.0182493
584.348	0.0182097
584.426	0.0179894
584.504	0.0181129
584.582	0.0181361
584.660	0.0181100
584.738	0.0180743
584.816	0.0180810
584.894	0.0179247
584.973	0.0180804
585.051	0.0179919
585.129	0.0180165
585.207	0.0180284
585.285	0.0180920
585.363	0.0180322
585.441	0.0180455
585.519	0.0179572
585.598	0.0180749
585.676	0.0179852
585.754	0.0179916
585.832	0.0181106
585.910	0.0179140
585.988	0.0180446
586.066	0.0180591
586.144	0.0179700
586.223	0.0180306
586.301	0.0181430
586.379	0.0180824
586.457	0.0179441
586.535	0.0178674
586.613	0.0178928
586.691	0.0180125
586.769	0.0179781
586.848	0.0179530
586.926	0.0180562
587.004	0.0179050
587.082	0.0179758
587.160	0.0180664
587.238	0.0179136
587.316	0.0178773
587.394	0.0178132
587.473	0.0179524
587.551	0.0179155
587.629	0.0178082
587.707	0.0178265
587.785	0.0179650
587.863	0.0179999
587.941	0.0178629
588.019	0.0179012
588.098	0.0179393
588.176	0.0179428
588.254	0.0179816
588.332	0.0179237
588.410	0.0180259
588.488	0.0179662
588.566	0.0179974
588.644	0.0178123
588.723	0.0180038
588.801	0.0180312
588.879	0.0179412
588.957	0.0180571
589.035	0.0180222
589.113	0.0179549
589.191	0.0179606
589.269	0.0180099
589.348	0.0179878
589.426	0.0181102
589.504	0.0180087
589.582	0.0181143
589.660	0.0180076
589.738	0.0180813
589.816	0.0179191
589.894	0.0180205
589.973	0.0179829
590.051	0.0179815
590.129	0.0179547
590.207	0.0181036
590.285	0.0180656
590.363	0.0179389
590.441	0.0180068
590.519	0.0179506
590.598	0.0180195
590.676	0.0180374
590.754	0.0179608
590.832	0.0179265
590.910	0.0179534
590.988	0.0180737
591.066	0.0179803
591.144	0.0179954
591.223	0.0180163
591.301	0.0179255
591.379	0.0179560
591.457	0.0180783
591.535	0.0180386
591.613	0.0180759
591.691	0.0180409
591.769	0.0179823
591.848	0.0179343
591.926	0.0180488
592.004	0.0179958
592.082	0.0179759
592.160	0.0178853
592.238	0.0181615
592.316	0.0180787
592.394	0.0179690
592.473	0.0181791
592.551	0.0181604
592.629	0.0179776
592.707	0.0180562
592.785	0.0179835
592.863	0.0180016
592.941	0.0180021
593.019	0.0180064
593.098	0.0181076
593.176	0.0180083
593.254	0.0179908
593.332	0.0179070
593.410	0.0179671
593.488	0.0179450
593.566	0.0180369
593.644	0.0179898
593.723	0.0179024
593.801	0.0180646
593.879	0.0178590
593.957	0.0179668
594.035	0.0178730
594.113	0.0178305
594.191	0.0178818
594.269	0.0179037
594.348	0.0178767
594.426	0.0178782
594.504	0.0178193
594.582	0.0177374
594.660	0.0178344
594.738	0.0178997
594.816	0.0177873
594.894	0.0178355
594.973	0.0178413
595.051	0.0177635
595.129	0.0177525
595.207	0.0178967
595.285	0.0179336
595.363	0.0178481
595.441	0.0176957
595.519	0.0178576
595.598	0.0179932
595.676	0.0177949
595.754	0.0179432
595.832	0.0178078
595.910	0.0178487
595.988	0.0179195
596.066	0.0179961
596.144	0.0178567
596.223	0.0177377
596.301	0.0178122
596.379	0.0178528
596.457	0.0178522
596.535	0.0177457
596.613	0.0179895
596.691	0.0179227
596.769	0.0178062
596.848	0.0178083
596.926	0.0179369
597.004	0.0179256
597.082	0.0180453
597.160	0.0179779
597.238	0.0179787
597.316	0.0178989
597.394	0.0180000
597.473	0.0177911
597.551	0.0179467
597.629	0.0179256
597.707	0.0179450
597.785	0.0180299
597.863	0.0179559
597.941	0.0179111
598.019	0.0177975
598.098	0.0178325
598.176	0.0179760
598.254	0.0179195
598.332	0.0179172
598.410	0.0179944
598.488	0.0179715
598.566	0.0179765
598.644	0.0178961
598.723	0.0179791
598.801	0.0179369
598.879	0.0178458
598.957	0.0179617
599.035	0.0179490
599.113	0.0180477
599.191	0.0179256
599.269	0.0180247
599.348	0.0178898
599.426	0.0180923
599.504	0.0179637
599.582	0.0180500
599.660	0.0180376
599.738	0.0180462
599.816	0.0181048
599.894	0.0180135
599.973	0.0180302
600.051	0.0180590
600.129	0.0179893
600.207	0.0180337
600.285	0.0181583
600.363	0.0182323
600.441	0.0180325
600.519	0.0181200
600.598	0.0180066
600.676	0.0179883
600.754	0.0181168
600.832	0.0180991
600.910	0.0179655
600.988	0.0180022
601.066	0.0181117
601.144	0.0181488
601.223	0.0180737
601.301	0.0180084
601.379	0.0180045
601.457	0.0179109
601.535	0.0178513
601.613	0.0179931
601.691	0.0180574
601.769	0.0179597
601.848	0.0180856
601.926	0.0180187
602.004	0.0179989
602.082	0.0179728
602.160	0.0180475
602.238	0.0180817
602.316	0.0180107
602.394	0.0180859
602.473	0.0178593
602.551	0.0178824
602.629	0.0179593
602.707	0.0180623
602.785	0.0180547
602.863	0.0179910
602.941	0.0179060
603.019	0.0180894
603.098	0.0179204
603.176	0.0180020
603.254	0.0180322
603.332	0.0179839
603.410	0.0179841
603.488	0.0179433
603.566	0.0180624
603.644	0.0178865
603.723	0.0180093
603.801	0.0180286
603.879	0.0180622
603.957	0.0180482
604.035	0.0179760
604.113	0.0179031
604.191	0.0179123
604.269	0.0179807
604.348	0.0179740
604.426	0.0179739
604.504	0.0180141
604.582	0.0179483
604.660	0.0179338
604.738	0.0179879
604.816	0.0180856
604.894	0.0178966
604.973	0.0178294
605.051	0.0178128
605.129	0.0180730
605.207	0.0179419
605.285	0.0180315
605.363	0.0179685
605.441	0.0180764
605.519	0.0180540
605.598	0.0179578
605.676	0.0178866
605.754	0.0179039
605.832	0.0179676
605.910	0.0179535
605.988	0.0178271
606.066	0.0179794
606.144	0.0180258
606.223	0.0181169
606.301	0.0180838
606.379	0.0178618
606.457	0.0179929
606.535	0.0179226
606.613	0.0180156
606.691	0.0179791
606.769	0.0179191
606.848	0.0179893
606.926	0.0180455
607.004	0.0179728
607.082	0.0180238
607.160	0.0179182
607.238	0.0180042
607.316	0.0181078
607.394	0.0180103
607.473	0.0178928
607.551	0.0179848
607.629	0.0179666
607.707	0.0181148
607.785	0.0178571
607.863	0.0179453
607.941	0.0180141
608.019	0.0180995
608.098	0.0181516
608.176	0.0179610
608.254	0.0181406
608.332	0.0179945
608.410	0.0179367
608.488	0.0181175
608.566	0.0179315
608.644	0.0180870
608.723	0.0180609
608.801	0.0180529
608.879	0.0180761
608.957	0.0180480
609.035	0.0180720
609.113	0.0180019
609.191	0.0180713
609.269	0.0179253
609.348	0.0179963
609.426	0.0181671
609.504	0.0180821
609.582	0.0180526
609.660	0.0180547
609.738	0.0180232
609.816	0.0180799
609.894	0.0181219
609.973	0.0180737
610.051	0.0180805
610.129	0.0181309
610.207	0.0180376
610.285	0.0179691
610.363	0.0178913
610.441	0.0180022
610.519	0.0180649
610.598	0.0180092
610.676	0.0181037
610.754	0.0180976
610.832	0.0180712
610.910	0.0179673
610.988	0.0180032
611.066	0.0180161
611.144	0.0180211
611.223	0.0179705
611.301	0.0180261
611.379	0.0181271
611.457	0.0180869
611.535	0.0180772
611.613	0.0179256
611.691	0.0181709
611.769	0.0181727
611.848	0.0180779
611.926	0.0180498
612.004	0.0179221
612.082	0.0179704
612.160	0.0181001
612.238	0.0182493
612.316	0.0181348
612.394	0.0180746
612.473	0.0180151
612.551	0.0179687
612.629	0.0179761
612.707	0.0179753
612.785	0.0181720
612.863	0.0180123
612.941	0.0179723
613.019	0.0179913
613.098	0.0179854
613.176	0.0179224
613.254	0.0178876
613.332	0.0180589
613.410	0.0179956
613.488	0.0181600
613.566	0.0180383
613.644	0.0178446
613.723	0.0179176
613.801	0.0180594
613.879	0.0181543
613.957	0.0179899
614.035	0.0179747
614.113	0.0179814
614.191	0.0179467
614.269	0.0179934
614.348	0.0179802
614.426	0.0179433
614.504	0.0179433
614.582	0.0178932
614.660	0.0179781
614.738	0.0180149
614.816	0.0178088
614.894	0.0180062
614.973	0.0179094
615.051	0.0180115
615.129	0.0178512
615.207	0.0177647
615.285	0.0179566
615.363	0.0178142
615.441	0.0179253
615.519	0.0180466
615.598	0.0180895
615.676	0.0179711
615.754	0.0178020
615.832	0.0179031
615.910	0.0180466
615.988	0.0180021
616.066	0.0179903
616.144	0.0179861
616.223	0.0177849
616.301	0.0177972
616.379	0.0179285
616.457	0.0179505
616.535	0.0178466
616.613	0.0180013
616.691	0.0180442
616.769	0.0179042
616.848	0.0179515
616.926	0.0179780
617.004	0.0179234
617.082	0.0180257
617.160	0.0179291
617.238	0.0180325
617.316	0.0180385
617.394	0.0179778
617.473	0.0180637
617.551	0.0179125
617.629	0.0179938
617.707	0.0179751
617.785	0.0180045
617.863	0.0180284
617.941	0.0179780
618.019	0.0180579
618.098	0.0180412
618.176	0.0180154
618.254	0.0180962
618.332	0.0179789
618.410	0.0180974
618.488	0.0180483
618.566	0.0180273
618.644	0.0178931
618.723	0.0179588
618.801	0.0181167
618.879	0.0180546
618.957	0.0179883
619.035	0.0180634
619.113	0.0181226
619.191	0.0181407
619.269	0.0181432
619.348	0.0181234
619.426	0.0180704
619.504	0.0180904
619.582	0.0181437
619.660	0.0181422
619.738	0.0179723
619.816	0.0179467
619.894	0.0179695
619.973	0.0180312
620.051	0.0179450
620.129	0.0179681
620.207	0.0181691
620.285	0.0182146
620.363	0.0179729
620.441	0.0180344
620.519	0.0179636
620.598	0.0179872
620.676	0.0179921
620.754	0.0180181
620.832	0.0180050
620.910	0.0179494
620.988	0.0180235
621.066	0.0181502
621.144	0.0180367
621.223	0.0180280
621.301	0.0181179
621.379	0.0180338
621.457	0.0180215
621.535	0.0179941
621.613	0.0179973
621.691	0.0179987
621.769	0.0178968
621.848	0.0181083
621.926	0.0181285
622.004	0.0180332
622.082	0.0181521
622.160	0.0179873
622.238	0.0180795
622.316	0.0180138
622.394	0.0180756
622.473	0.0179768
622.551	0.0178924
622.629	0.0179679
622.707	0.0179713
622.785	0.0180132
622.863	0.0179732
622.941	0.0180536
623.019	0.0180071
623.098	0.0180454
623.176	0.0179737
623.254	0.0180487
623.332	0.0180556
623.410	0.0178825
623.488	0.0179797
623.566	0.0180448
623.644	0.0179443
623.723	0.0180199
623.801	0.0179832
623.879	0.0180890
623.957	0.0179296
624.035	0.0179859
624.113	0.0180520
624.191	0.0179980
624.269	0.0178764
624.348	0.0179988
624.426	0.0180381
624.504	0.0178622
624.582	0.0178826
624.660	0.0180128
624.738	0.0179723
624.816	0.0181242
624.894	0.0181311
624.973	0.0179390
625.051	0.0179264
625.129	0.0179940
625.207	0.0180271
625.285	0.0181104
625.363	0.0179977
625.441	0.0180099
625.519	0.0179351
625.598	0.0180149
625.676	0.0180070
625.754	0.0181290
625.832	0.0179294
625.910	0.0180776
625.988	0.0179331
626.066	0.0179113
626.144	0.0179523
626.223	0.0180116
626.301	0.0178773
626.379	0.0179058
626.457	0.0180786
626.535	0.0179155
626.613	0.0178976
626.691	0.0180338
626.769	0.0180418
626.848	0.0180069
626.926	0.0180774
627.004	0.0179085
627.082	0.0179266
627.160	0.0179214
627.238	0.0179659
627.316	0.0180249
627.394	0.0179568
627.473	0.0179202
627.551	0.0178040
627.629	0.0180290
627.707	0.0179523
627.785	0.0179391
627.863	0.0179433
627.941	0.0179590
628.019	0.0179238
628.098	0.0180540
628.176	0.0179745
628.254	0.0180225
628.332	0.0179613
628.410	0.0180425
628.488	0.0180549
628.566	0.0179597
628.644	0.0180623
628.723	0.0180069
628.801	0.0180171
628.879	0.0178970
628.957	0.0181456
629.035	0.0180547
629.113	0.0181717
629.191	0.0180698
629.269	0.0180999
629.348	0.0180587
629.426	0.0180543
629.504	0.0181654
629.582	0.0180627
629.660	0.0181405
629.738	0.0180703
629.816	0.0180567
629.894	0.0180618
629.973	0.0180688
630.051	0.0181146
630.129	0.0180242
630.207	0.0181272
630.285	0.0180389
630.363	0.0180501
630.441	0.0181261
630.519	0.0179096
630.598	0.0179947
630.676	0.0181712
630.754	0.0180283
630.832	0.0180187
630.910	0.0181521
630.988	0.0180577
631.066	0.0180611
631.144	0.0180702
631.223	0.0179668
631.301	0.0179673
631.379	0.0180067
631.457	0.0180345
631.535	0.0181886
631.613	0.0180502
631.691	0.0180132
631.769	0.0180558
631.848	0.0181332
631.926	0.0180782
632.004	0.0180510
632.082	0.0180820
632.160	0.0179940
632.238	0.0181152
632.316	0.0181629
632.394	0.0180859
632.473	0.0181225
632.551	0.0181426
632.629	0.0180877
632.707	0.0180746
632.785	0.0180927
632.863	0.0179932
632.941	0.0181901
633.019	0.0181918
633.098	0.0179594
633.176	0.0181171
633.254	0.0180956
633.332	0.0180538
633.410	0.0179873
633.488	0.0180673
633.566	0.0181258
633.644	0.0180009
633.723	0.0180088
633.801	0.0180771
633.879	0.0181585
633.957	0.0181123
634.035	0.0180480
634.113	0.0180473
634.191	0.0180515
634.269	0.0181356
634.348	0.0180854
634.426	0.0181817
634.504	0.0180071
634.582	0.0180426
634.660	0.0181001
634.738	0.0181383
634.816	0.0180273
634.894	0.0180939
634.973	0.0179915
635.051	0.0180534
635.129	0.0181918
635.207	0.0180919
635.285	0.0180325
635.363	0.0180448
635.441	0.0180900
635.519	0.0181955
635.598	0.0179848
635.676	0.0180879
635.754	0.0181091
635.832	0.0180629
635.910	0.0180417
635.988	0.0181403
636.066	0.0182936
636.144	0.0179201
636.223	0.0179719
636.301	0.0180991
636.379	0.0180830
636.457	0.0180911
636.535	0.0180902
636.613	0.0179473
636.691	0.0178902
636.769	0.0180653
636.848	0.0180240
636.926	0.0179507
637.004	0.0181367
637.082	0.0179850
637.160	0.0180331
637.238	0.0181077
637.316	0.0180499
637.394	0.0179960
637.473	0.0180501
637.551	0.0180168
637.629	0.0179807
637.707	0.0180333
637.785	0.0180213
637.863	0.0181059
637.941	0.0179684
638.019	0.0180951
638.098	0.0179936
638.176	0.0179275
638.254	0.0180633
638.332	0.0179564
638.410	0.0179517
638.488	0.0180632
638.566	0.0179025
638.644	0.0179428
638.723	0.0180458
638.801	0.0180557
638.879	0.0179942
638.957	0.0178822
639.035	0.0179693
639.113	0.0182033
639.191	0.0178786
639.269	0.0179160
639.348	0.0180170
639.426	0.0179955
639.504	0.0179135
639.582	0.0179861
639.660	0.0180441
639.738	0.0180833
639.816	0.0179363
639.894	0.0179858
639.973	0.0179893
640.051	0.0179940
640.129	0.0179646
640.207	0.0179968
640.285	0.0178228
640.363	0.0181104
640.441	0.0180098
640.519	0.0179281
640.598	0.0179462
640.676	0.0179629
640.754	0.0179179
640.832	0.0180429
640.910	0.0179450
640.988	0.0179600
641.066	0.0179973
641.144	0.0179514
641.223	0.0180235
641.301	0.0179025
641.379	0.0179652
641.457	0.0179959
641.535	0.0178111
641.613	0.0178773
641.691	0.0180571
641.769	0.0179066
641.848	0.0180656
641.926	0.0178430
642.004	0.0179931
642.082	0.0179066
642.160	0.0179040
642.238	0.0180016
642.316	0.0179697
642.394	0.0178888
642.473	0.0179086
642.551	0.0179957
642.629	0.0180503
642.707	0.0179992
642.785	0.0178609
642.863	0.0179076
642.941	0.0179350
643.019	0.0178880
643.098	0.0180971
643.176	0.0179887
643.254	0.0178735
643.332	0.0178891
643.410	0.0178941
643.488	0.0180254
643.566	0.0180368
643.644	0.0178605
643.723	0.0179380
643.801	0.0179358
643.879	0.0179131
643.957	0.0180373
644.035	0.0179771
644.113	0.0178930
644.191	0.0178564
644.269	0.0180444
644.348	0.0179853
644.426	0.0179899
644.504	0.0178939
644.582	0.0180296
644.660	0.0180666
644.738	0.0180473
644.816	0.0179547
644.894	0.0179501
644.973	0.0179991
645.051	0.0181082
645.129	0.0180286
645.207	0.0180385
645.285	0.0181241
645.363	0.0179574
645.441	0.0180957
645.519	0.0180139
645.598	0.0179131
645.676	0.0181095
645.754	0.0180686
645.832	0.0179573
645.910	0.0181253
645.988	0.0180966
646.066	0.0180396
646.144	0.0180121
646.223	0.0180350
646.301	0.0181140
646.379	0.0180417
646.457	0.0180367
646.535	0.0180640
646.613	0.0180214
646.691	0.0180231
646.769	0.0180438
646.848	0.0181739
646.926	0.0180792
647.004	0.0179020
647.082	0.0180958
647.160	0.0180177
647.238	0.0180701
647.316	0.0179184
647.394	0.0181474
647.473	0.0180193
647.551	0.0180473
647.629	0.0180293
647.707	0.0179922
647.785	0.0180420
647.863	0.0181398
647.941	0.0180171
648.019	0.0180527
648.098	0.0180225
648.176	0.0181718
648.254	0.0181181
648.332	0.0180408
648.410	0.0181287
648.488	0.0180118
648.566	0.0179922
648.644	0.0180692
648.723	0.0180439
648.801	0.0181007
648.879	0.0180931
648.957	0.0179564
649.035	0.0180619
649.113	0.0180764
649.191	0.0180901
649.269	0.0180411
649.348	0.0180505
649.426	0.0181512
649.504	0.0180273
649.582	0.0180069
649.660	0.0181363
649.738	0.0180567
649.816	0.0182797
649.894	0.0182143
649.973	0.0180937
650.051	0.0181268
650.129	0.0181139
650.207	0.0181105
650.285	0.0179864
650.363	0.0180740
650.441	0.0181898
650.519	0.0180371
650.598	0.0181255
650.676	0.0182121
650.754	0.0181463
650.832	0.0181606
650.910	0.0181693
650.988	0.0181529
651.066	0.0182185
651.144	0.0181165
651.223	0.0181413
651.301	0.0181917
651.379	0.0180557
651.457	0.0181436
651.535	0.0181255
651.613	0.0179787
651.691	0.0180663
651.769	0.0180822
651.848	0.0182252
651.926	0.0180548
652.004	0.0179254
652.082	0.0180580
652.160	0.0180872
652.238	0.0181122
652.316	0.0180214
652.394	0.0180640
652.473	0.0181629
652.551	0.0181352
652.629	0.0180746
652.707	0.0180493
652.785	0.0180274
652.863	0.0180868
652.941	0.0182684
653.019	0.0182066
653.098	0.0180893
653.176	0.0181881
653.254	0.0181561
653.332	0.0181255
653.410	0.0181653
653.488	0.0181980
653.566	0.0181055
653.644	0.0181049
653.723	0.0180864
653.801	0.0180999
653.879	0.0181214
653.957	0.0182132
654.035	0.0181502
654.113	0.0179021
654.191	0.0181071
654.269	0.0181520
654.348	0.0181114
654.426	0.0181971
654.504	0.0180085
654.582	0.0180733
654.660	0.0180746
654.738	0.0181568
654.816	0.0181504
654.894	0.0179752
654.973	0.0181242
655.051	0.0180447
655.129	0.0180396
655.207	0.0180756
655.285	0.0179615
655.363	0.0181393
655.441	0.0181241
655.519	0.0180862
655.598	0.0180853
655.676	0.0179660
655.754	0.0180307
655.832	0.0180258
655.910	0.0180292
655.988	0.0180282
656.066	0.0179840
656.144	0.0181359
656.223	0.0180850
656.301	0.0179924
656.379	0.0179716
656.457	0.0179950
656.535	0.0180658
656.613	0.0181030
656.691	0.0180891
656.769	0.0180002
656.848	0.0179980
656.926	0.0179742
657.004	0.0178601
657.082	0.0180045
657.160	0.0179312
657.238	0.0178699
657.316	0.0180470
657.394	0.0179767
657.473	0.0179393
657.551	0.0179271
657.629	0.0179460
657.707	0.0180598
657.785	0.0179846
657.863	0.0179515
657.941	0.0178303
658.019	0.0179176
658.098	0.0180296
658.176	0.0179105
658.254	0.0178414
658.332	0.0179483
658.410	0.0180200
658.488	0.0178809
658.566	0.0180943
658.644	0.0178867
658.723	0.0179480
658.801	0.0178093
658.879	0.0178873
658.957	0.0179259
659.035	0.0179416
659.113	0.0179320
659.191	0.0178222
659.269	0.0180527
659.348	0.0178776
659.426	0.0179008
659.504	0.0179337
659.582	0.0178514
659.660	0.0179111
659.738	0.0179741
659.816	0.0179202
659.894	0.0179338
659.973	0.0179003
660.051	0.0179118
660.129	0.0180307
660.207	0.0180705
660.285	0.0180289
660.363	0.0179767
660.441	0.0180658
660.519	0.0180224
660.598	0.0179997
660.676	0.0180642
660.754	0.0181271
660.832	0.0180050
660.910	0.0180463
660.988	0.0180540
661.066	0.0180995
661.144	0.0181120
661.223	0.0179736
661.301	0.0179269
661.379	0.0180090
661.457	0.0180688
661.535	0.0180885
661.613	0.0178781
661.691	0.0180827
661.769	0.0180577
661.848	0.0179900
661.926	0.0179343
662.004	0.0178587
662.082	0.0180200
662.160	0.0179768
662.238	0.0180598
662.316	0.0178842
662.394	0.0179018
662.473	0.0179215
662.551	0.0178553
662.629	0.0178823
662.707	0.0179512
662.785	0.0179913
662.863	0.0179431
662.941	0.0179665
663.019	0.0180206
663.098	0.0179809
663.176	0.0179796
663.254	0.0178426
663.332	0.0179699
663.410	0.0178658
663.488	0.0178985
663.566	0.0179058
663.644	0.0178722
663.723	0.0178809
663.801	0.0180376
663.879	0.0179694
663.957	0.0179800
664.035	0.0179867
664.113	0.0178553
664.191	0.0179023
664.269	0.0179214
664.348	0.0177991
664.426	0.0180637
664.504	0.0178519
664.582	0.0178534
664.660	0.0178414
664.738	0.0179931
664.816	0.0178965
664.894	0.0179123
664.973	0.0178969
665.051	0.0180290
665.129	0.0181482
665.207	0.0181317
665.285	0.0181016
665.363	0.0178855
665.441	0.0179290
665.519	0.0179315
665.598	0.0179702
665.676	0.0180285
665.754	0.0179818
665.832	0.0178171
665.910	0.0179148
665.988	0.0179025
666.066	0.0178574
666.144	0.0179302
666.223	0.0179191
666.301	0.0179264
666.379	0.0178079
666.457	0.0178993
666.535	0.0178408
666.613	0.0177943
666.691	0.0178247
666.769	0.0177138
666.848	0.0178139
666.926	0.0176393
667.004	0.0177763
667.082	0.0178275
667.160	0.0177093
667.238	0.0177493
667.316	0.0178769
667.394	0.0178379
667.473	0.0178995
667.551	0.0179639
667.629	0.0178144
667.707	0.0178863
667.785	0.0179240
667.863	0.0179364
667.941	0.0180825
668.019	0.0180537
668.098	0.0180946
668.176	0.0181438
668.254	0.0182073
668.332	0.0182404
668.410	0.0181321
668.488	0.0183996
668.566	0.0181324
668.644	0.0180803
668.723	0.0181748
668.801	0.0179157
668.879	0.0181664
668.957	0.0182314
669.035	0.0180111
669.113	0.0181104
669.191	0.0178631
669.269	0.0179288
669.348	0.0179419
669.426	0.0178558
669.504	0.0178976
669.582	0.0178397
669.660	0.0178404
669.738	0.0177185
669.816	0.0177537
669.894	0.0177923
669.973	0.0177126
670.051	0.0177805
670.129	0.0176757
670.207	0.0177221
670.285	0.0177572
670.363	0.0178764
670.441	0.0178445
670.519	0.0178335
670.598	0.0177620
670.676	0.0179624
670.754	0.0179431
670.832	0.0178440
670.910	0.0178416
670.988	0.0177986
671.066	0.0180260
671.144	0.0180758
671.223	0.0180259
671.301	0.0179477
671.379	0.0179890
671.457	0.0181146
671.535	0.0180575
671.613	0.0182233
671.691	0.0180210
671.769	0.0180235
671.848	0.0181063
671.926	0.0182790
672.004	0.0181703
672.082	0.0181271
672.160	0.0183323
672.238	0.0183060
672.316	0.0182155
672.394	0.0182269
672.473	0.0182375
672.551	0.0182022
672.629	0.0181429
672.707	0.0181551
672.785	0.0181265
672.863	0.0180628
672.941	0.0180866
673.019	0.0180560
673.098	0.0179945
673.176	0.0179567
673.254	0.0180334
673.332	0.0179630
673.410	0.0178505
673.488	0.0179143
673.566	0.0178879
673.644	0.0177732
673.723	0.0177422
673.801	0.0177948
673.879	0.0176555
673.957	0.0176254
674.035	0.0177042
674.113	0.0177296
674.191	0.0177095
674.269	0.0178201
674.348	0.0176342
674.426	0.0177878
674.504	0.0178033
674.582	0.0176389
674.660	0.0177650
674.738	0.0179067
674.816	0.0178185
674.894	0.0177497
674.973	0.0178941
675.051	0.0180150
675.129	0.0180361
675.207	0.0180056
675.285	0.0179401
675.363	0.0180775
675.441	0.0181806
675.519	0.0181369
675.598	0.0182394
675.676	0.0181774
675.754	0.0182163
675.832	0.0182903
675.910	0.0182990
675.988	0.0183250
676.066	0.0182311
676.144	0.0183474
676.223	0.0183270
676.301	0.0183770
676.379	0.0182084
676.457	0.0182215
676.535	0.0183806
676.613	0.0183868
676.691	0.0182520
676.769	0.0183151
676.848	0.0180983
676.926	0.0181264
677.004	0.0181337
677.082	0.0179890
677.160	0.0180627
677.238	0.0180708
677.316	0.0179852
677.394	0.0180881
677.473	0.0180351
677.551	0.0178678
677.629	0.0178577
677.707	0.0179523
677.785	0.0179074
677.863	0.0177670
677.941	0.0178996
678.019	0.0178625
678.098	0.0178606
678.176	0.0180003
678.254	0.0178510
678.332	0.0177750
678.410	0.0178681
678.488	0.0179210
678.566	0.0178598
678.644	0.0180165
678.723	0.0178753
678.801	0.0179047
678.879	0.0179458
678.957	0.0179669
679.035	0.0181092
679.113	0.0179587
679.191	0.0179422
679.269	0.0180280
679.348	0.0179309
679.426	0.0177069
679.504	0.0178230
679.582	0.0179298
679.660	0.0178471
679.738	0.0178827
679.816	0.0177983
679.894	0.0178809
679.973	0.0178470
680.051	0.0177694
680.129	0.0177603
680.207	0.0177315
680.285	0.0179160
680.363	0.0177820
680.441	0.0178133
680.519	0.0178416
680.598	0.0178749
680.676	0.0178033
680.754	0.0179323
680.832	0.0179336
680.910	0.0179121
680.988	0.0178320
681.066	0.0178956
681.144	0.0178208
681.223	0.0178040
681.301	0.0177397
681.379	0.0178498
681.457	0.0179848
681.535	0.0179874
681.613	0.0179603
681.691	0.0180826
681.769	0.0179929
681.848	0.0180349
681.926	0.0181956
682.004	0.0180289
682.082	0.0181463
682.160	0.0181933
682.238	0.0181866
682.316	0.0181316
682.394	0.0181552
682.473	0.0181450
682.551	0.0181752
682.629	0.0182192
682.707	0.0180730
682.785	0.0179607
682.863	0.0179546
682.941	0.0179255
683.019	0.0182639
683.098	0.0181264
683.176	0.0179426
683.254	0.0181522
683.332	0.0181242
683.410	0.0179768
683.488	0.0180283
683.566	0.0182254
683.644	0.0181748
683.723	0.0180079
683.801	0.0181137
683.879	0.0180051
683.957	0.0179312
684.035	0.0179869
684.113	0.0178937
684.191	0.0179745
684.269	0.0179976
684.348	0.0178434
684.426	0.0178462
684.504	0.0178936
684.582	0.0178839
684.660	0.0177911
684.738	0.0177716
684.816	0.0177985
684.894	0.0178407
684.973	0.0179259
685.051	0.0178533
685.129	0.0178464
685.207	0.0178439
685.285	0.0178819
685.363	0.0177666
685.441	0.0179306
685.519	0.0179478
685.598	0.0179835
685.676	0.0180405
685.754	0.0179852
685.832	0.0179434
685.910	0.0179250
685.988	0.0178588
686.066	0.0179653
686.144	0.0179697
686.223	0.0180779
686.301	0.0179596
686.379	0.0181203
686.457	0.0180952
686.535	0.0180969
686.613	0.0181211
686.691	0.0182397
686.769	0.0183002
686.848	0.0182098
686.926	0.0181316
687.004	0.0182601
687.082	0.0181189
687.160	0.0181185
687.238	0.0181673
687.316	0.0180418
687.394	0.0180547
687.473	0.0180322
687.551	0.0180180
687.629	0.0179066
687.707	0.0177740
687.785	0.0177882
687.863	0.0177671
687.941	0.0179651
688.019	0.0177665
688.098	0.0178611
688.176	0.0178059
688.254	0.0177922
688.332	0.0177290
688.410	0.0176454
688.488	0.0176251
688.566	0.0176666
688.644	0.0177885
688.723	0.0177969
688.801	0.0176950
688.879	0.0176137
688.957	0.0176115
689.035	0.0177502
689.113	0.0178103
689.191	0.0178046
689.269	0.0177415
689.348	0.0177542
689.426	0.0177596
689.504	0.0179226
689.582	0.0179008
689.660	0.0178738
689.738	0.0179028
689.816	0.0179547
689.894	0.0180074
689.973	0.0177882
690.051	0.0179398
690.129	0.0177823
690.207	0.0178597
690.285	0.0178342
690.363	0.0178716
690.441	0.0178337
690.519	0.0178690
690.598	0.0179082
690.676	0.0177774
690.754	0.0178278
690.832	0.0179498
690.910	0.0178473
690.988	0.0177593
691.066	0.0178917
691.144	0.0177859
691.223	0.0177737
691.301	0.0178154
691.379	0.0176557
691.457	0.0178006
691.535	0.0175220
691.613	0.0178109
691.691	0.0176955
691.769	0.0177122
691.848	0.0176716
691.926	0.0177132
692.004	0.0177995
692.082	0.0177608
692.160	0.0178922
692.238	0.0179599
692.316	0.0178780
692.394	0.0178736
692.473	0.0178578
692.551	0.0179174
692.629	0.0179597
692.707	0.0180540
692.785	0.0180695
692.863	0.0180471
692.941	0.0179976
693.019	0.0180418
693.098	0.0179039
693.176	0.0181116
693.254	0.0182452
693.332	0.0180219
693.410	0.0179700
693.488	0.0180932
693.566	0.0181394
693.644	0.0179943
693.723	0.0180642
693.801	0.0179723
693.879	0.0179074
693.957	0.0180077
694.035	0.0179225
694.113	0.0178612
694.191	0.0179867
694.269	0.0179867
694.348	0.0180404
694.426	0.0179206
694.504	0.0179726
694.582	0.0180656
694.660	0.0178405
694.738	0.0177514
694.816	0.0178876
694.894	0.0180237
694.973	0.0179656
695.051	0.0178786
695.129	0.0180245
695.207	0.0178524
695.285	0.0178263
695.363	0.0178246
695.441	0.0177821
695.519	0.0178745
695.598	0.0178796
695.676	0.0179342
695.754	0.0177459
695.832	0.0179663
695.910	0.0178014
695.988	0.0178767
696.066	0.0179590
696.144	0.0178600
696.223	0.0177659
696.301	0.0178661
696.379	0.0180096
696.457	0.0180692
696.535	0.0178419
696.613	0.0179072
696.691	0.0180289
696.769	0.0179671
696.848	0.0181733
696.926	0.0181659
697.004	0.0180373
697.082	0.0181143
697.160	0.0180852
697.238	0.0181191
697.316	0.0180800
697.394	0.0181957
697.473	0.0181580
697.551	0.0182372
697.629	0.0183048
697.707	0.0182842
697.785	0.0182066
697.863	0.0182574
697.941	0.0182510
698.019	0.0180837
698.098	0.0181105
698.176	0.0180895
698.254	0.0179737
698.332	0.0180629
698.410	0.0180529
698.488	0.0179233
698.566	0.0179733
698.644	0.0178735
698.723	0.0178217
698.801	0.0178047
698.879	0.0177463
698.957	0.0177790
699.035	0.0178198
699.113	0.0178674
699.191	0.0178663
699.269	0.0178817
699.348	0.0179137
699.426	0.0179695
699.504	0.0179716
699.582	0.0179403
699.660	0.0178605
699.738	0.0178749
699.816	0.0179031
699.894	0.0180096
699.973	0.0179051
700.051	0.0181010
700.129	0.0179562
700.207	0.0179693
700.285	0.0178521
700.363	0.0178063
700.441	0.0179596
700.519	0.0178509
700.598	0.0178124
700.676	0.0180119
700.754	0.0178313
700.832	0.0178656
700.910	0.0178819
700.988	0.0179553
701.066	0.0178055
701.144	0.0177700
701.223	0.0178893
701.301	0.0180041
701.379	0.0179910
701.457	0.0179206
701.535	0.0178880
701.613	0.0180434
701.691	0.0181255
701.769	0.0180707
701.848	0.0181198
701.926	0.0181136
702.004	0.0180465
702.082	0.0179626
702.160	0.0179483
702.238	0.0179274
702.316	0.0180405
702.394	0.0178134
702.473	0.0179770
702.551	0.0179749
702.629	0.0178690
702.707	0.0177502
702.785	0.0178931
702.863	0.0177185
702.941	0.0178167
703.019	0.0176863
703.098	0.0177439
703.176	0.0177482
703.254	0.0177885
703.332	0.0177306
703.410	0.0176659
703.488	0.0177661
703.566	0.0178221
703.644	0.0177863
703.723	0.0177577
703.801	0.0179478
703.879	0.0179565
703.957	0.0178092
704.035	0.0177456
704.113	0.0179156
704.191	0.0179826
704.269	0.0180546
704.348	0.0181310
704.426	0.0180832
704.504	0.0181751
704.582	0.0181197
704.660	0.0181579
704.738	0.0181654
704.816	0.0180325
704.894	0.0181245
704.973	0.0182278
705.051	0.0181742
705.129	0.0182295
705.207	0.0181292
705.285	0.0179926
705.363	0.0181241
705.441	0.0181421
705.519	0.0182608
705.598	0.0180472
705.676	0.0180947
705.754	0.0181339
705.832	0.0181585
705.910	0.0181913
705.988	0.0180457
706.066	0.0181089
706.144	0.0182037
706.223	0.0182578
706.301	0.0180556
706.379	0.0180833
706.457	0.0181834
706.535	0.0180772
706.613	0.0181276
706.691	0.0180004
706.769	0.0180506
706.848	0.0179621
706.926	0.0180238
707.004	0.0180729
707.082	0.0180159
707.160	0.0178288
707.238	0.0176452
707.316	0.0176581
707.394	0.0178333
707.473	0.0177058
707.551	0.0178125
707.629	0.0177273
707.707	0.0176235
707.785	0.0176635
707.863	0.0176752
707.941	0.0176561
708.019	0.0176754
708.098	0.0177332
708.176	0.0177759
708.254	0.0178325
708.332	0.0179281
708.410	0.0179272
708.488	0.0180051
708.566	0.0179496
708.644	0.0179559
708.723	0.0179702
708.801	0.0182741
708.879	0.0183522
708.957	0.0182613
709.035	0.0182999
709.113	0.0183463
709.191	0.0184210
709.269	0.0184744
709.348	0.0185670
709.426	0.0186440
709.504	0.0185882
709.582	0.0186684
709.660	0.0184889
709.738	0.0184728
709.816	0.0184793
709.894	0.0183968
709.973	0.0182973
710.051	0.0181384
710.129	0.0180585
710.207	0.0178808
710.285	0.0177973
710.363	0.0178252
710.441	0.0176521
710.519	0.0176754
710.598	0.0175864
710.676	0.0175261
710.754	0.0175742
710.832	0.0175992
710.910	0.0176529
710.988	0.0177193
711.066	0.0177798
711.144	0.0179214
711.223	0.0179575
711.301	0.0179798
711.379	0.0181218
711.457	0.0182931
711.535	0.0184812
711.613	0.0184728
711.691	0.0185750
711.769	0.0186630
711.848	0.0187280
711.926	0.0186296
712.004	0.0188412
712.082	0.0188776
712.160	0.0186159
712.238	0.0186903
712.316	0.0187061
712.394	0.0185861
712.473	0.0182802
712.551	0.0183092
712.629	0.0182062
712.707	0.0180276
712.785	0.0179955
712.863	0.0179288
712.941	0.0178242
713.019	0.0176904
713.098	0.0175885
713.176	0.0177702
713.254	0.0178297
713.332	0.0178058
713.410	0.0176254
713.488	0.0177994
713.566	0.0177277
713.644	0.0177889
713.723	0.0178658
713.801	0.0178309
713.879	0.0176833
713.957	0.0177806
714.035	0.0179393
714.113	0.0176991
714.191	0.0178065
714.269	0.0178014
714.348	0.0178910
714.426	0.0178316
714.504	0.0179197
714.582	0.0178626
714.660	0.0178849
714.738	0.0179594
714.816	0.0181288
714.894	0.0179639
714.973	0.0179601
715.051	0.0178739
715.129	0.0180238
715.207	0.0180762
715.285	0.0179625
715.363	0.0179526
715.441	0.0180862
715.519	0.0181303
715.598	0.0181403
715.676	0.0180543
715.754	0.0182758
715.832	0.0182329
715.910	0.0181208
715.988	0.0181938
716.066	0.0181671
716.144	0.0182407
716.223	0.0182762
716.301	0.0180667
716.379	0.0181624
716.457	0.0180993
716.535	0.0182931
716.613	0.0182333
716.691	0.0180711
716.769	0.0180566
716.848	0.0181488
716.926	0.0182180
717.004	0.0180841
717.082	0.0181815
717.160	0.0181084
717.238	0.0179485
717.316	0.0181496
717.394	0.0179955
717.473	0.0181248
717.551	0.0178996
717.629	0.0179536
717.707	0.0180466
717.785	0.0179762
717.863	0.0178402
717.941	0.0178783
718.019	0.0178866
718.098	0.0178709
718.176	0.0177223
718.254	0.0178758
718.332	0.0177856
718.410	0.0178384
718.488	0.0179408
718.566	0.0178970
718.644	0.0179518
718.723	0.0180495
718.801	0.0179968
718.879	0.0180520
718.957	0.0180608
719.035	0.0181825
719.113	0.0181570
719.191	0.0182598
719.269	0.0183569
719.348	0.0183475
719.426	0.0182803
719.504	0.0184393
719.582	0.0183741
719.660	0.0185645
719.738	0.0184729
719.816	0.0184577
719.894	0.0184479
719.973	0.0185572
720.051	0.0185389
720.129	0.0183908
720.207	0.0183850
720.285	0.0184019
720.363	0.0182578
720.441	0.0183400
720.519	0.0183299
720.598	0.0181393
720.676	0.0181417
720.754	0.0179899
720.832	0.0180370
720.910	0.0179969
720.988	0.0179258
721.066	0.0179259
721.144	0.0179778
721.223	0.0178245
721.301	0.0177895
721.379	0.0177660
721.457	0.0176296
721.535	0.0176929
721.613	0.0176699
721.691	0.0176231
721.769	0.0176243
721.848	0.0177181
721.926	0.0176891
722.004	0.0177448
722.082	0.0177975
722.160	0.0179038
722.238	0.0179234
722.316	0.0177239
722.394	0.0179043
722.473	0.0179459
722.551	0.0178638
722.629	0.0178977
722.707	0.0178397
722.785	0.0180076
722.863	0.0178872
722.941	0.0178619
723.019	0.0181601
723.098	0.0181485
723.176	0.0180232
723.254	0.0180265
723.332	0.0180367
723.410	0.0179667
723.488	0.0180216
723.566	0.0181026
723.644	0.0180783
723.723	0.0180065
723.801	0.0179668
723.879	0.0179391
723.957	0.0180099
724.035	0.0179595
724.113	0.0179008
724.191	0.0180012
724.269	0.0179814
724.348	0.0181049
724.426	0.0181374
724.504	0.0182229
724.582	0.0182822
724.660	0.0180743
724.738	0.0181200
724.816	0.0182563
724.894	0.0182522
724.973	0.0182941
725.051	0.0183034
725.129	0.0183403
725.207	0.0182337
725.285	0.0180333
725.363	0.0180676
725.441	0.0180879
725.519	0.0181047
725.598	0.0181970
725.676	0.0180862
725.754	0.0181876
725.832	0.0180982
725.910	0.0180700
725.988	0.0181297
726.066	0.0180972
726.144	0.0181099
726.223	0.0180981
726.301	0.0181364
726.379	0.0181350
726.457	0.0182117
726.535	0.0180630
726.613	0.0179462
726.691	0.0180129
726.769	0.0180843
726.848	0.0178850
726.926	0.0180510
727.004	0.0178488
727.082	0.0177931
727.160	0.0177423
727.238	0.0177464
727.316	0.0177475
727.394	0.0176420
727.473	0.0177501
727.551	0.0177271
727.629	0.0175286
727.707	0.0176817
727.785	0.0177967
727.863	0.0178869
727.941	0.0177356
728.019	0.0177799
728.098	0.0179957
728.176	0.0180418
728.254	0.0179736
728.332	0.0179417
728.410	0.0180906
728.488	0.0179923
728.566	0.0180724
728.644	0.0181400
728.723	0.0181228
728.801	0.0180043
728.879	0.0177961
728.957	0.0180200
729.035	0.0179599
729.113	0.0179810
729.191	0.0179086
729.269	0.0179595
729.348	0.0180083
729.426	0.0180508
729.504	0.0179326
729.582	0.0180000
729.660	0.0179757
729.738	0.0180005
729.816	0.0178406
729.894	0.0179409
729.973	0.0180074
730.051	0.0179546
730.129	0.0178995
730.207	0.0179016
730.285	0.0179256
730.363	0.0179554
730.441	0.0179277
730.519	0.0177914
730.598	0.0178067
730.676	0.0178674
730.754	0.0180694
730.832	0.0181510
730.910	0.0179459
730.988	0.0179278
731.066	0.0180610
731.144	0.0180821
731.223	0.0182162
731.301	0.0183488
731.379	0.0182270
731.457	0.0181478
731.535	0.0181890
731.613	0.0182288
731.691	0.0182999
731.769	0.0182524
731.848	0.0184096
731.926	0.0183582
732.004	0.0181689
732.082	0.0183264
732.160	0.0184888
732.238	0.0183242
732.316	0.0182769
732.394	0.0182228
732.473	0.0181717
732.551	0.0183347
732.629	0.0180769
732.707	0.0181664
732.785	0.0182303
732.863	0.0182270
732.941	0.0180428
733.019	0.0180276
733.098	0.0179707
733.176	0.0180243
733.254	0.0179536
733.332	0.0180687
733.410	0.0179172
733.488	0.0178714
733.566	0.0179276
733.644	0.0178949
733.723	0.0178888
733.801	0.0178509
733.879	0.0179798
733.957	0.0178793
734.035	0.0179930
734.113	0.0177001
734.191	0.0178521
734.269	0.0179038
734.348	0.0177448
734.426	0.0177879
734.504	0.0179297
734.582	0.0179321
734.660	0.0180086
734.738	0.0178124
734.816	0.0179708
734.894	0.0180573
734.973	0.0180356
735.051	0.0181242
735.129	0.0180636
735.207	0.0181097
735.285	0.0180760
735.363	0.0181434
735.441	0.0181441
735.519	0.0182320
735.598	0.0180406
735.676	0.0181663
735.754	0.0181358
735.832	0.0180042
735.910	0.0180467
735.988	0.0180976
736.066	0.0181979
736.144	0.0181794
736.223	0.0182793
736.301	0.0180126
736.379	0.0181272
736.457	0.0181319
736.535	0.0181540
736.613	0.0181871
736.691	0.0181252
736.769	0.0181122
736.848	0.0179517
736.926	0.0179227
737.004	0.0178472
737.082	0.0180923
737.160	0.0178764
737.238	0.0178851
737.316	0.0178568
737.394	0.0178834
737.473	0.0178541
737.551	0.0178907
737.629	0.0178348
737.707	0.0179745
737.785	0.0180871
737.863	0.0180035
737.941	0.0180908
738.019	0.0182215
738.098	0.0182651
738.176	0.0184927
738.254	0.0185403
738.332	0.0184517
738.410	0.0183829
738.488	0.0184715
738.566	0.0184235
738.644	0.0183966
738.723	0.0184350
738.801	0.0184363
738.879	0.0183658
738.957	0.0182549
739.035	0.0181193
739.113	0.0182036
739.191	0.0182898
739.269	0.0182039
739.348	0.0180775
739.426	0.0180444
739.504	0.0181554
739.582	0.0180868
739.660	0.0180994
739.738	0.0180246
739.816	0.0178870
739.894	0.0178579
739.973	0.0178867
740.051	0.0178698
740.129	0.0178460
740.207	0.0177802
740.285	0.0178646
740.363	0.0178680
740.441	0.0178459
740.519	0.0179166
740.598	0.0180333
740.676	0.0180603
740.754	0.0181513
740.832	0.0180559
740.910	0.0180114
740.988	0.0181945
741.066	0.0182500
741.144	0.0182066
741.223	0.0180491
741.301	0.0182710
741.379	0.0182508
741.457	0.0182625
741.535	0.0181377
741.613	0.0182699
741.691	0.0182071
741.769	0.0181023
741.848	0.0182487
741.926	0.0181302
742.004	0.0181321
742.082	0.0181510
742.160	0.0180870
742.238	0.0181065
742.316	0.0180605
742.394	0.0179637
742.473	0.0180928
742.551	0.0180106
742.629	0.0181944
742.707	0.0180624
742.785	0.0178031
742.863	0.0178976
742.941	0.0180001
743.019	0.0180100
743.098	0.0179380
743.176	0.0179438
743.254	0.0180688
743.332	0.0180052
743.410	0.0180909
743.488	0.0180982
743.566	0.0178416
743.644	0.0178791
743.723	0.0180212
743.801	0.0179024
743.879	0.0179186
743.957	0.0180042
744.035	0.0177998
744.113	0.0177922
744.191	0.0179205
744.269	0.0179683
744.348	0.0178711
744.426	0.0179127
744.504	0.0178550
744.582	0.0179566
744.660	0.0180357
744.738	0.0181255
744.816	0.0180281
744.894	0.0181227
744.973	0.0181863
745.051	0.0183452
745.129	0.0183171
745.207	0.0183772
745.285	0.0184259
745.363	0.0185658
745.441	0.0186040
745.519	0.0185747
745.598	0.0187179
745.676	0.0185625
745.754	0.0186434
745.832	0.0186111
745.910	0.0185540
745.988	0.0185506
746.066	0.0185002
746.144	0.0184226
746.223	0.0184261
746.301	0.0184391
746.379	0.0182488
746.457	0.0182188
746.535	0.0182235
746.613	0.0179950
746.691	0.0178744
746.769	0.0180163
746.848	0.0178929
746.926	0.0177169
747.004	0.0177978
747.082	0.0176855
747.160	0.0176503
747.238	0.0175954
747.316	0.0175280
747.394	0.0174296
747.473	0.0175987
747.551	0.0174632
747.629	0.0173032
747.707	0.0173468
747.785	0.0174980
747.863	0.0173463
747.941	0.0174724
748.019	0.0174915
748.098	0.0176633
748.176	0.0177305
748.254	0.0177780
748.332	0.0179500
748.410	0.0180167
748.488	0.0182212
748.566	0.0182435
748.644	0.0182931
748.723	0.0183710
748.801	0.0182417
748.879	0.0183942
748.957	0.0185102
749.035	0.0184469
749.113	0.0184413
749.191	0.0184358
749.269	0.0184135
749.348	0.0183884
749.426	0.0182845
749.504	0.0182071
749.582	0.0183025
749.660	0.0181335
749.738	0.0182919
749.816	0.0180996
749.894	0.0180595
749.973	0.0180790
750.051	0.0180652
750.129	0.0180668
750.207	0.0181433
750.285	0.0180700
750.363	0.0181531
750.441	0.0181409
750.519	0.0180995
750.598	0.0180005
750.676	0.0180063
750.754	0.0179716
750.832	0.0180425
750.910	0.0180415
750.988	0.0181041
751.066	0.0179932
751.144	0.0179858
751.223	0.0179539
751.301	0.0180305
751.379	0.0179842
751.457	0.0181452
751.535	0.0181009
751.613	0.0183255
751.691	0.0183325
751.769	0.0182092
751.848	0.0183416
751.926	0.0183376
752.004	0.0182836
752.082	0.0183784
752.160	0.0181594
752.238	0.0181213
752.316	0.0180707
752.394	0.0180460
752.473	0.0179450
752.551	0.0178681
752.629	0.0180762
752.707	0.0179006
752.785	0.0177789
752.863	0.0177480
752.941	0.0178061
753.019	0.0178772
753.098	0.0177531
753.176	0.0176421
753.254	0.0177401
753.332	0.0175677
753.410	0.0176123
753.488	0.0176352
753.566	0.0177643
753.644	0.0177516
753.723	0.0176510
753.801	0.0178180
753.879	0.0176902
753.957	0.0177586
754.035	0.0177363
754.113	0.0177719
754.191	0.0178481
754.269	0.0177841
754.348	0.0179128
754.426	0.0180112
754.504	0.0179159
754.582	0.0180000
754.660	0.0180980
754.738	0.0181174
754.816	0.0181167
754.894	0.0180693
754.973	0.0180586
755.051	0.0181776
755.129	0.0182043
755.207	0.0182088
755.285	0.0180946
755.363	0.0180260
755.441	0.0178545
755.519	0.0179597
755.598	0.0180145
755.676	0.0180511
755.754	0.0179984
755.832	0.0179939
755.910	0.0180581
755.988	0.0179223
756.066	0.0178471
756.144	0.0179040
756.223	0.0180704
756.301	0.0177866
756.379	0.0178053
756.457	0.0178091
756.535	0.0177996
756.613	0.0177727
756.691	0.0177246
756.769	0.0178153
756.848	0.0177221
756.926	0.0177258
757.004	0.0177568
757.082	0.0176555
757.160	0.0175827
757.238	0.0176531
757.316	0.0175997
757.394	0.0176941
757.473	0.0175639
757.551	0.0176222
757.629	0.0178479
757.707	0.0177603
757.785	0.0178149
757.863	0.0177744
757.941	0.0177396
758.019	0.0177535
758.098	0.0177688
758.176	0.0178902
758.254	0.0178041
758.332	0.0178783
758.410	0.0179305
758.488	0.0178115
758.566	0.0179320
758.644	0.0179556
758.723	0.0178841
758.801	0.0179507
758.879	0.0178610
758.957	0.0179057
759.035	0.0179401
759.113	0.0179832
759.191	0.0179172
759.269	0.0178797
759.348	0.0180201
759.426	0.0179717
759.504	0.0178373
759.582	0.0177771
759.660	0.0176790
759.738	0.0177499
759.816	0.0178221
759.894	0.0178059
759.973	0.0177907
760.051	0.0178672
760.129	0.0178069
760.207	0.0178131
760.285	0.0177191
760.363	0.0178719
760.441	0.0178027
760.519	0.0179047
760.598	0.0178384
760.676	0.0177975
760.754	0.0178812
760.832	0.0179494
760.910	0.0179967
760.988	0.0178371
761.066	0.0177919
761.144	0.0178523
761.223	0.0178678
761.301	0.0179736
761.379	0.0181157
761.457	0.0178666
761.535	0.0180104
761.613	0.0181390
761.691	0.0182552
761.769	0.0183945
761.848	0.0181381
761.926	0.0183044
762.004	0.0183899
762.082	0.0183127
762.160	0.0183147
762.238	0.0182712
762.316	0.0180827
762.394	0.0183784
762.473	0.0182354
762.551	0.0181253
762.629	0.0181106
762.707	0.0180391
762.785	0.0180326
762.863	0.0180862
762.941	0.0180228
763.019	0.0179495
763.098	0.0178468
763.176	0.0178515
763.254	0.0179183
763.332	0.0178213
763.410	0.0178075
763.488	0.0178017
763.566	0.0178426
763.644	0.0180185
763.723	0.0178979
763.801	0.0178828
763.879	0.0178044
763.957	0.0180145
764.035	0.0181124
764.113	0.0179738
764.191	0.0180573
764.269	0.0181812
764.348	0.0179591
764.426	0.0181889
764.504	0.0183104
764.582	0.0180595
764.660	0.0182148
764.738	0.0182614
764.816	0.0180398
764.894	0.0182559
764.973	0.0183105
765.051	0.0181266
765.129	0.0181764
765.207	0.0182262
765.285	0.0181453
765.363	0.0179288
765.441	0.0181895
765.519	0.0181325
765.598	0.0181140
765.676	0.0181282
765.754	0.0181457
765.832	0.0180884
765.910	0.0180672
765.988	0.0181821
766.066	0.0181953
766.144	0.0178796
766.223	0.0180750
766.301	0.0180491
766.379	0.0180412
766.457	0.0180569
766.535	0.0178478
766.613	0.0179575
766.691	0.0179835
766.769	0.0179383
766.848	0.0178202
766.926	0.0177772
767.004	0.0179037
767.082	0.0178232
767.160	0.0177918
767.238	0.0179968
767.316	0.0179189
767.394	0.0179320
767.473	0.0179406
767.551	0.0178429
767.629	0.0181079
767.707	0.0181082
767.785	0.0182249
767.863	0.0181023
767.941	0.0181245
768.019	0.0181905
768.098	0.0180686
768.176	0.0181554
768.254	0.0182494
768.332	0.0180764
768.410	0.0181498
768.488	0.0180521
768.566	0.0179464
768.644	0.0180531
768.723	0.0179110
768.801	0.0179119
768.879	0.0180483
768.957	0.0180497
769.035	0.0181407
769.113	0.0181240
769.191	0.0180167
769.269	0.0181879
769.348	0.0180733
769.426	0.0179687
769.504	0.0181453
769.582	0.0181062
769.660	0.0180592
769.738	0.0180222
769.816	0.0181306
769.894	0.0180402
769.973	0.0180573
770.051	0.0179723
770.129	0.0180703
770.207	0.0179008
770.285	0.0179272
770.363	0.0179092
770.441	0.0178336
770.519	0.0178934
770.598	0.0178383
770.676	0.0177333
770.754	0.0177399
770.832	0.0176795
770.910	0.0176883
770.988	0.0176624
771.066	0.0177161
771.144	0.0176723
771.223	0.0177392
771.301	0.0177299
771.379	0.0176471
771.457	0.0179826
771.535	0.0178474
771.613	0.0177712
771.691	0.0179330
771.769	0.0179729
771.848	0.0180353
771.926	0.0179876
772.004	0.0180695
772.082	0.0180992
772.160	0.0180452
772.238	0.0180464
772.316	0.0182439
772.394	0.0182326
772.473	0.0180918
772.551	0.0181246
772.629	0.0182063
772.707	0.0182533
772.785	0.0181441
772.863	0.0180904
772.941	0.0181750
773.019	0.0182754
773.098	0.0182395
773.176	0.0181574
773.254	0.0181163
773.332	0.0182349
773.410	0.0180999
773.488	0.0180474
773.566	0.0180373
773.644	0.0180674
773.723	0.0179555
773.801	0.0179199
773.879	0.0178551
773.957	0.0179908
774.035	0.0179276
774.113	0.0178988
774.191	0.0178910
774.269	0.0179553
774.348	0.0178351
774.426	0.0179111
774.504	0.0179060
774.582	0.0177351
774.660	0.0179517
774.738	0.0178778
774.816	0.0179337
774.894	0.0178429
774.973	0.0178669
775.051	0.0178700
775.129	0.0179682
775.207	0.0178249
775.285	0.0177702
775.363	0.0179381
775.441	0.0178845
775.519	0.0180212
775.598	0.0178799
775.676	0.0178222
775.754	0.0178614
775.832	0.0178819
775.910	0.0180211
775.988	0.0179546
776.066	0.0178400
776.144	0.0180724
776.223	0.0178881
776.301	0.0179366
776.379	0.0178723
776.457	0.0179362
776.535	0.0179073
776.613	0.0179025
776.691	0.0181553
776.769	0.0180771
776.848	0.0181111
776.926	0.0180173
777.004	0.0180219
777.082	0.0181489
777.160	0.0180619
777.238	0.0181381
777.316	0.0182543
777.394	0.0182863
777.473	0.0181637
777.551	0.0181329
777.629	0.0181371
777.707	0.0181972
777.785	0.0181570
777.863	0.0180791
777.941	0.0180515
778.019	0.0181956
778.098	0.0179522
778.176	0.0179262
778.254	0.0178423
778.332	0.0178601
778.410	0.0178110
778.488	0.0177542
778.566	0.0178539
778.644	0.0179469
778.723	0.0178326
778.801	0.0177452
778.879	0.0177456
778.957	0.0178492
779.035	0.0178349
779.113	0.0178592
779.191	0.0177993
779.269	0.0178062
779.348	0.0178234
779.426	0.0178773
779.504	0.0177768
779.582	0.0179693
779.660	0.0178982
779.738	0.0180724
779.816	0.0182923
779.894	0.0180405
779.973	0.0180158
780.051	0.0181779
780.129	0.0182038
780.207	0.0181337
780.285	0.0181546
780.363	0.0181929
780.441	0.0182272
780.519	0.0180977
780.598	0.0181081
780.676	0.0182011
780.754	0.0181423
780.832	0.0179411
780.910	0.0180149
780.988	0.0180873
781.066	0.0180251
781.144	0.0179769
781.223	0.0179643
781.301	0.0180042
781.379	0.0178751
781.457	0.0178757
781.535	0.0179822
781.613	0.0177749
781.691	0.0179409
781.769	0.0179788
781.848	0.0179578
781.926	0.0178556
782.004	0.0178910
782.082	0.0178071
782.160	0.0180531
782.238	0.0180699
782.316	0.0180078
782.394	0.0180680
782.473	0.0180531
782.551	0.0180595
782.629	0.0182552
782.707	0.0182095
782.785	0.0180664
782.863	0.0181346
782.941	0.0181758
783.019	0.0181992
783.098	0.0181900
783.176	0.0180505
783.254	0.0180353
783.332	0.0180414
783.410	0.0179504
783.488	0.0178415
783.566	0.0178484
783.644	0.0180074
783.723	0.0179105
783.801	0.0178309
783.879	0.0178391
783.957	0.0177857
784.035	0.0176391
784.113	0.0177893
784.191	0.0177370
784.269	0.0178269
784.348	0.0178940
784.426	0.0178862
784.504	0.0176912
784.582	0.0178362
784.660	0.0178816
784.738	0.0177669
784.816	0.0178178
784.894	0.0179473
784.973	0.0178675
785.051	0.0178820
785.129	0.0178841
785.207	0.0179472
785.285	0.0179049
785.363	0.0182611
785.441	0.0179016
785.519	0.0178679
785.598	0.0179195
785.676	0.0179876
785.754	0.0180846
785.832	0.0181071
785.910	0.0180862
785.988	0.0180567
786.066	0.0181454
786.144	0.0180462
786.223	0.0180690
786.301	0.0180872
786.379	0.0180937
786.457	0.0182297
786.535	0.0182084
786.613	0.0181729
786.691	0.0180918
786.769	0.0180849
786.848	0.0180729
786.926	0.0180144
787.004	0.0180429
787.082	0.0182069
787.160	0.0181531
787.238	0.0179755
787.316	0.0180454
787.394	0.0179924
787.473	0.0180433
787.551	0.0181608
787.629	0.0180887
787.707	0.0180376
787.785	0.0181296
787.863	0.0182101
787.941	0.0181065
788.019	0.0180365
788.098	0.0181143
788.176	0.0181820
788.254	0.0181940
788.332	0.0183049
788.410	0.0181817
788.488	0.0181419
788.566	0.0181859
788.644	0.0181174
788.723	0.0182384
788.801	0.0181138
788.879	0.0180696
788.957	0.0180320
789.035	0.0180972
789.113	0.0179635
789.191	0.0179547
789.269	0.0180018
789.348	0.0179929
789.426	0.0180634
789.504	0.0180663
789.582	0.0180723
789.660	0.0180211
789.738	0.0181517
789.816	0.0181096
789.894	0.0180831
789.973	0.0180315
790.051	0.0180728
790.129	0.0181996
790.207	0.0182056
790.285	0.0181893
790.363	0.0181970
790.441	0.0183059
790.519	0.0183514
790.598	0.0183340
790.676	0.0183009
790.754	0.0185131
790.832	0.0182635
790.910	0.0182305
790.988	0.0183458
791.066	0.0182711
791.144	0.0181886
791.223	0.0180806
791.301	0.0181516
791.379	0.0180885
791.457	0.0179549
791.535	0.0181824
791.613	0.0180299
791.691	0.0179220
791.769	0.0179167
791.848	0.0179891
791.926	0.0180329
792.004	0.0178932
792.082	0.0179595
792.160	0.0179568
792.238	0.0178273
792.316	0.0179829
792.394	0.0179021
792.473	0.0177547
792.551	0.0179520
792.629	0.0179449
792.707	0.0178937
792.785	0.0180359
792.863	0.0178495
792.941	0.0177148
793.019	0.0179234
793.098	0.0178793
793.176	0.0179117
793.254	0.0178743
793.332	0.0179003
793.410	0.0179110
793.488	0.0178738
793.566	0.0178831
793.644	0.0177276
793.723	0.0179272
793.801	0.0179352
793.879	0.0180913
793.957	0.0180459
794.035	0.0179008
794.113	0.0179852
794.191	0.0180062
794.269	0.0180555
794.348	0.0180601
794.426	0.0180257
794.504	0.0181853
794.582	0.0179221
794.660	0.0180616
794.738	0.0181847
794.816	0.0180201
794.894	0.0179757
794.973	0.0179203
795.051	0.0179181
795.129	0.0177964
795.207	0.0180163
795.285	0.0178092
795.363	0.0178723
795.441	0.0179739
795.519	0.0178245
795.598	0.0177793
795.676	0.0179803
795.754	0.0179395
795.832	0.0178470
795.910	0.0178647
795.988	0.0179886
796.066	0.0179631
796.144	0.0180392
796.223	0.0179068
796.301	0.0178681
796.379	0.0180356
796.457	0.0179243
796.535	0.0180173
796.613	0.0179800
796.691	0.0179368
796.769	0.0181313
796.848	0.0180552
796.926	0.0179719
797.004	0.0179330
797.082	0.0180304
797.160	0.0180113
797.238	0.0180074
797.316	0.0179735
797.394	0.0179019
797.473	0.0180654
797.551	0.0180672
797.629	0.0179136
797.707	0.0179696
797.785	0.0180103
797.863	0.0179720
797.941	0.0180451
798.019	0.0181557
798.098	0.0179951
798.176	0.0180781
798.254	0.0179926
798.332	0.0180926
798.410	0.0179899
798.488	0.0181141
798.566	0.0180779
798.644	0.0180804
798.723	0.0181636
798.801	0.0181833
798.879	0.0183328
798.957	0.0182376
799.035	0.0181912
799.113	0.0182598
799.191	0.0181087
799.269	0.0182307
799.348	0.0183303
799.426	0.0183781
799.504	0.0180802
799.582	0.0181422
799.660	0.0181464
799.738	0.0181205
799.816	0.0181422
799.894	0.0180273
799.973	0.0180268
800.051	0.0181055
800.129	0.0179743
800.207	0.0180457
800.285	0.0180402
800.363	0.0180072
800.441	0.0179716
800.519	0.0178928
800.598	0.0179961
800.676	0.0178412
800.754	0.0179127
800.832	0.0179409
800.910	0.0181165
800.988	0.0180641
801.066	0.0178408
801.144	0.0180993
801.223	0.0179819
801.301	0.0180313
801.379	0.0181034
801.457	0.0180969
801.535	0.0180618
801.613	0.0181911
801.691	0.0180315
801.769	0.0180728
801.848	0.0180887
801.926	0.0182887
802.004	0.0182864
802.082	0.0181268
802.160	0.0181398
802.238	0.0182037
802.316	0.0182778
802.394	0.0182300
802.473	0.0180768
802.551	0.0180965
802.629	0.0180687
802.707	0.0178995
802.785	0.0179552
802.863	0.0181421
802.941	0.0180792
803.019	0.0179645
803.098	0.0179730
803.176	0.0179237
803.254	0.0179294
803.332	0.0179675
803.410	0.0179494
803.488	0.0180228
803.566	0.0177543
803.644	0.0178751
803.723	0.0177624
803.801	0.0179001
803.879	0.0178223
803.957	0.0178648
804.035	0.0179993
804.113	0.0178626
804.191	0.0178731
804.269	0.0180681
804.348	0.0180389
804.426	0.0180039
804.504	0.0179850
804.582	0.0180533
804.660	0.0181639
804.738	0.0181707
804.816	0.0180721
804.894	0.0179636
804.973	0.0179852
805.051	0.0181302
805.129	0.0180234
805.207	0.0180353
805.285	0.0180668
805.363	0.0181295
805.441	0.0180069
805.519	0.0180464
805.598	0.0180891
805.676	0.0180096
805.754	0.0181696
805.832	0.0181091
805.910	0.0180846
805.988	0.0181872
806.066	0.0181514
806.144	0.0180347
806.223	0.0180434
806.301	0.0180174
806.379	0.0180344
806.457	0.0179972
806.535	0.0179111
806.613	0.0180638
806.691	0.0181905
806.769	0.0180527
806.848	0.0180850
806.926	0.0180313
807.004	0.0180466
807.082	0.0180219
807.160	0.0180808
807.238	0.0180952
807.316	0.0180730
807.394	0.0181919
807.473	0.0182352
807.551	0.0181217
807.629	0.0181097
807.707	0.0180999
807.785	0.0181771
807.863	0.0182281
807.941	0.0180128
808.019	0.0181975
808.098	0.0180579
808.176	0.0181087
808.254	0.0180744
808.332	0.0179754
808.410	0.0180347
808.488	0.0180254
808.566	0.0180407
808.644	0.0180135
808.723	0.0180173
808.801	0.0180175
808.879	0.0182126
808.957	0.0180088
809.035	0.0180399
809.113	0.0181895
809.191	0.0180186
809.269	0.0182310
809.348	0.0181653
809.426	0.0181380
809.504	0.0182008
809.582	0.0181391
809.660	0.0180930
809.738	0.0180814
809.816	0.0182178
809.894	0.0182288
809.973	0.0181549
810.051	0.0182093
810.129	0.0182843
810.207	0.0182247
810.285	0.0181638
810.363	0.0181876
810.441	0.0182164
810.519	0.0181498
810.598	0.0182356
810.676	0.0182390
810.754	0.0181869
810.832	0.0181120
810.910	0.0181349
810.988	0.0181117
811.066	0.0181932
811.144	0.0181210
811.223	0.0179916
811.301	0.0179516
811.379	0.0179466
811.457	0.0181041
811.535	0.0179800
811.613	0.0179239
811.691	0.0179424
811.769	0.0179640
811.848	0.0179156
811.926	0.0180889
812.004	0.0180511
812.082	0.0179367
812.160	0.0181873
812.238	0.0181287
812.316	0.0180321
812.394	0.0180046
812.473	0.0180624
812.551	0.0180232
812.629	0.0180384
812.707	0.0179321
812.785	0.0181527
812.863	0.0179907
812.941	0.0180135
813.019	0.0181286
813.098	0.0180807
813.176	0.0180267
813.254	0.0180381
813.332	0.0180619
813.410	0.0180395
813.488	0.0180568
813.566	0.0181522
813.644	0.0181899
813.723	0.0182018
813.801	0.0182702
813.879	0.0181169
813.957	0.0183072
814.035	0.0182211
814.113	0.0180782
814.191	0.0181313
814.269	0.0181425
814.348	0.0182857
814.426	0.0180962
814.504	0.0180789
814.582	0.0180098
814.660	0.0180501
814.738	0.0181087
814.816	0.0180419
814.894	0.0180258
814.973	0.0179080
815.051	0.0178864
815.129	0.0179417
815.207	0.0180349
815.285	0.0179704
815.363	0.0179049
815.441	0.0178798
815.519	0.0178829
815.598	0.0179423
815.676	0.0180066
815.754	0.0178598
815.832	0.0179716
815.910	0.0179280
815.988	0.0178877
816.066	0.0179808
816.144	0.0177676
816.223	0.0178552
816.301	0.0180853
816.379	0.0180236
816.457	0.0180146
816.535	0.0179733
816.613	0.0180124
816.691	0.0180539
816.769	0.0179166
816.848	0.0180403
816.926	0.0180170
817.004	0.0179321
817.082	0.0179240
817.160	0.0180227
817.238	0.0181771
817.316	0.0179426
817.394	0.0180709
817.473	0.0181654
817.551	0.0180247
817.629	0.0180267
817.707	0.0180515
817.785	0.0179681
817.863	0.0179219
817.941	0.0180241
818.019	0.0179758
818.098	0.0180635
818.176	0.0179884
818.254	0.0180431
818.332	0.0180158
818.410	0.0178776
818.488	0.0180002
818.566	0.0180789
818.644	0.0179312
818.723	0.0180711
818.801	0.0181280
818.879	0.0180778
818.957	0.0180594
819.035	0.0181004
819.113	0.0179906
819.191	0.0180038
819.269	0.0180801
819.348	0.0180710
819.426	0.0180344
819.504	0.0180687
819.582	0.0180272
819.660	0.0180746
819.738	0.0179969
819.816	0.0180686
819.894	0.0181284
