06/03/2022	18:41:59	Ver.	4.1	UNKNOWN
Optical Delay	499.972551	Delta X		0.078125	Sweeps	1	Scan Rate	0/0
Coordinates	Axis 1	NaN	Axis 2	NaN	Axis 3	NaN	Axis 4	NaN	Axis 5	NaN	Axis 6	0.000000
TX Power	0.000000	RX Power	0.000000

499.973	0.0183141
500.051	0.0184599
500.129	0.0182893
500.207	0.0183953
500.285	0.0182669
500.363	0.0183195
500.441	0.0184217
500.519	0.0183266
500.598	0.0184489
500.676	0.0183688
500.754	0.0184103
500.832	0.0184637
500.910	0.0183804
500.988	0.0182905
501.066	0.0184164
501.144	0.0185448
501.223	0.0183949
501.301	0.0183523
501.379	0.0183637
501.457	0.0184105
501.535	0.0185414
501.613	0.0183513
501.691	0.0183522
501.769	0.0184576
501.848	0.0184514
501.926	0.0183169
502.004	0.0183826
502.082	0.0183047
502.160	0.0184193
502.238	0.0183891
502.316	0.0183876
502.394	0.0184503
502.473	0.0182620
502.551	0.0183878
502.629	0.0184878
502.707	0.0184722
502.785	0.0183392
502.863	0.0183279
502.941	0.0183561
503.019	0.0184260
503.098	0.0183815
503.176	0.0184625
503.254	0.0184491
503.332	0.0182873
503.410	0.0182481
503.488	0.0183096
503.566	0.0184029
503.644	0.0183612
503.723	0.0184100
503.801	0.0184118
503.879	0.0183968
503.957	0.0183457
504.035	0.0183242
504.113	0.0183243
504.191	0.0183955
504.269	0.0183590
504.348	0.0183900
504.426	0.0182603
504.504	0.0184991
504.582	0.0183149
504.660	0.0182540
504.738	0.0184420
504.816	0.0183334
504.894	0.0182081
504.973	0.0184238
505.051	0.0184145
505.129	0.0183898
505.207	0.0183055
505.285	0.0183204
505.363	0.0182821
505.441	0.0183897
505.519	0.0183694
505.598	0.0183081
505.676	0.0183120
505.754	0.0183011
505.832	0.0184055
505.910	0.0183405
505.988	0.0182415
506.066	0.0183644
506.144	0.0183229
506.223	0.0183796
506.301	0.0183914
506.379	0.0184357
506.457	0.0182575
506.535	0.0183726
506.613	0.0182964
506.691	0.0183941
506.769	0.0183680
506.848	0.0183859
506.926	0.0183775
507.004	0.0182366
507.082	0.0182359
507.160	0.0184068
507.238	0.0182577
507.316	0.0182763
507.394	0.0183115
507.473	0.0181235
507.551	0.0182302
507.629	0.0181900
507.707	0.0182360
507.785	0.0183259
507.863	0.0183833
507.941	0.0182927
508.019	0.0182069
508.098	0.0181460
508.176	0.0182306
508.254	0.0183012
508.332	0.0181956
508.410	0.0182996
508.488	0.0182944
508.566	0.0182490
508.644	0.0182282
508.723	0.0183062
508.801	0.0181921
508.879	0.0182310
508.957	0.0182414
509.035	0.0181538
509.113	0.0181520
509.191	0.0182455
509.269	0.0182681
509.348	0.0181583
509.426	0.0181184
509.504	0.0182550
509.582	0.0182214
509.660	0.0182317
509.738	0.0181247
509.816	0.0182258
509.894	0.0181709
509.973	0.0181834
510.051	0.0182498
510.129	0.0181603
510.207	0.0182980
510.285	0.0181691
510.363	0.0181853
510.441	0.0183019
510.519	0.0181229
510.598	0.0183147
510.676	0.0182771
510.754	0.0182063
510.832	0.0181985
510.910	0.0182096
510.988	0.0183406
511.066	0.0181728
511.144	0.0182029
511.223	0.0182125
511.301	0.0181637
511.379	0.0182269
511.457	0.0182664
511.535	0.0182088
511.613	0.0182607
511.691	0.0182974
511.769	0.0182059
511.848	0.0183498
511.926	0.0182842
512.004	0.0182035
512.082	0.0182156
512.160	0.0182454
512.238	0.0182791
512.316	0.0183256
512.394	0.0182584
512.473	0.0182464
512.551	0.0182775
512.629	0.0182191
512.707	0.0183984
512.785	0.0182427
512.863	0.0182070
512.941	0.0181815
513.019	0.0182017
513.098	0.0182814
513.176	0.0182876
513.254	0.0182746
513.332	0.0182400
513.410	0.0182843
513.488	0.0181294
513.566	0.0181701
513.644	0.0182817
513.723	0.0182953
513.801	0.0181627
513.879	0.0182349
513.957	0.0182571
514.035	0.0181333
514.113	0.0182996
514.191	0.0182652
514.269	0.0182172
514.348	0.0182058
514.426	0.0182320
514.504	0.0180988
514.582	0.0182340
514.660	0.0181944
514.738	0.0181852
514.816	0.0181497
514.894	0.0181994
514.973	0.0180509
515.051	0.0182540
515.129	0.0181991
515.207	0.0181865
515.285	0.0181480
515.363	0.0181259
515.441	0.0182178
515.519	0.0182591
515.598	0.0181055
515.676	0.0181248
515.754	0.0182701
515.832	0.0181907
515.910	0.0180826
515.988	0.0179732
516.066	0.0181800
516.144	0.0182839
516.223	0.0181122
516.301	0.0181186
516.379	0.0181890
516.457	0.0181117
516.535	0.0181403
516.613	0.0181935
516.691	0.0181874
516.769	0.0180509
516.848	0.0182108
516.926	0.0180858
517.004	0.0182349
517.082	0.0182196
517.160	0.0182013
517.238	0.0180588
517.316	0.0182143
517.394	0.0182356
517.473	0.0181890
517.551	0.0183234
517.629	0.0182371
517.707	0.0181110
517.785	0.0182706
517.863	0.0182259
517.941	0.0182488
518.019	0.0182952
518.098	0.0181252
518.176	0.0182174
518.254	0.0181206
518.332	0.0181856
518.410	0.0182545
518.488	0.0182448
518.566	0.0182909
518.644	0.0181690
518.723	0.0182774
518.801	0.0182528
518.879	0.0182404
518.957	0.0180910
519.035	0.0182972
519.113	0.0181550
519.191	0.0183000
519.269	0.0182339
519.348	0.0182920
519.426	0.0183202
519.504	0.0182518
519.582	0.0182065
519.660	0.0182075
519.738	0.0182405
519.816	0.0184452
519.894	0.0182909
519.973	0.0183464
520.051	0.0183792
520.129	0.0182988
520.207	0.0182492
520.285	0.0183342
520.363	0.0183579
520.441	0.0182658
520.519	0.0182468
520.598	0.0183298
520.676	0.0181852
520.754	0.0183078
520.832	0.0183505
520.910	0.0183828
520.988	0.0183861
521.066	0.0183086
521.144	0.0182881
521.223	0.0183627
521.301	0.0183080
521.379	0.0183962
521.457	0.0185055
521.535	0.0183624
521.613	0.0182926
521.691	0.0183508
521.769	0.0185786
521.848	0.0184660
521.926	0.0183865
522.004	0.0183685
522.082	0.0183524
522.160	0.0185026
522.238	0.0183115
522.316	0.0185023
522.394	0.0184337
522.473	0.0184853
522.551	0.0183643
522.629	0.0184711
522.707	0.0184898
522.785	0.0184689
522.863	0.0183984
522.941	0.0183792
523.019	0.0183916
523.098	0.0184138
523.176	0.0185029
523.254	0.0184051
523.332	0.0183044
523.410	0.0184333
523.488	0.0183817
523.566	0.0185536
523.644	0.0184705
523.723	0.0184202
523.801	0.0184852
523.879	0.0183631
523.957	0.0183945
524.035	0.0183884
524.113	0.0183915
524.191	0.0184361
524.269	0.0183077
524.348	0.0183230
524.426	0.0182964
524.504	0.0183134
524.582	0.0184069
524.660	0.0182903
524.738	0.0183099
524.816	0.0183364
524.894	0.0184057
524.973	0.0181449
525.051	0.0183361
525.129	0.0182482
525.207	0.0182867
525.285	0.0183304
525.363	0.0183376
525.441	0.0182639
525.519	0.0183566
525.598	0.0183604
525.676	0.0182607
525.754	0.0182823
525.832	0.0182070
525.910	0.0182438
525.988	0.0184204
526.066	0.0183036
526.144	0.0183999
526.223	0.0184429
526.301	0.0182657
526.379	0.0182066
526.457	0.0182900
526.535	0.0182439
526.613	0.0183429
526.691	0.0182164
526.769	0.0182468
526.848	0.0184019
526.926	0.0184737
527.004	0.0182970
527.082	0.0183021
527.160	0.0182254
527.238	0.0182549
527.316	0.0182744
527.394	0.0185165
527.473	0.0183458
527.551	0.0183807
527.629	0.0182650
527.707	0.0183366
527.785	0.0183044
527.863	0.0184005
527.941	0.0182883
528.019	0.0181738
528.098	0.0181807
528.176	0.0183355
528.254	0.0183153
528.332	0.0184103
528.410	0.0183516
528.488	0.0184360
528.566	0.0182306
528.644	0.0182341
528.723	0.0183363
528.801	0.0183454
528.879	0.0183202
528.957	0.0183562
529.035	0.0183072
529.113	0.0181641
529.191	0.0183442
529.269	0.0183506
529.348	0.0183152
529.426	0.0182960
529.504	0.0181715
529.582	0.0182745
529.660	0.0183852
529.738	0.0182698
529.816	0.0181950
529.894	0.0181667
529.973	0.0182294
530.051	0.0183446
530.129	0.0182006
530.207	0.0182092
530.285	0.0182433
530.363	0.0181808
530.441	0.0181355
530.519	0.0181435
530.598	0.0182344
530.676	0.0182072
530.754	0.0182650
530.832	0.0182675
530.910	0.0181156
530.988	0.0182719
531.066	0.0182062
531.144	0.0181796
531.223	0.0182667
531.301	0.0181638
531.379	0.0181859
531.457	0.0182617
531.535	0.0182848
531.613	0.0181921
531.691	0.0182547
531.769	0.0181836
531.848	0.0182013
531.926	0.0181132
532.004	0.0182204
532.082	0.0182411
532.160	0.0183343
532.238	0.0182736
532.316	0.0181517
532.394	0.0181073
532.473	0.0183591
532.551	0.0182174
532.629	0.0182882
532.707	0.0183601
532.785	0.0182375
532.863	0.0183525
532.941	0.0182926
533.019	0.0182570
533.098	0.0182310
533.176	0.0182565
533.254	0.0181867
533.332	0.0182453
533.410	0.0182701
533.488	0.0182268
533.566	0.0182645
533.644	0.0181704
533.723	0.0182581
533.801	0.0180999
533.879	0.0181046
533.957	0.0182053
534.035	0.0182611
534.113	0.0183434
534.191	0.0182026
534.269	0.0181276
534.348	0.0182279
534.426	0.0181329
534.504	0.0181831
534.582	0.0181747
534.660	0.0181402
534.738	0.0181992
534.816	0.0182281
534.894	0.0182809
534.973	0.0180660
535.051	0.0180390
535.129	0.0182150
535.207	0.0182013
535.285	0.0183011
535.363	0.0181506
535.441	0.0181321
535.519	0.0182788
535.598	0.0183126
535.676	0.0181729
535.754	0.0181935
535.832	0.0181994
535.910	0.0181615
535.988	0.0180280
536.066	0.0182291
536.144	0.0182372
536.223	0.0179229
536.301	0.0180223
536.379	0.0181191
536.457	0.0181847
536.535	0.0180228
536.613	0.0181905
536.691	0.0181792
536.769	0.0179485
536.848	0.0181066
536.926	0.0181126
537.004	0.0180978
537.082	0.0179542
537.160	0.0180380
537.238	0.0181608
537.316	0.0179457
537.394	0.0180107
537.473	0.0180287
537.551	0.0179909
537.629	0.0179955
537.707	0.0181860
537.785	0.0180106
537.863	0.0180859
537.941	0.0179087
538.019	0.0179754
538.098	0.0180593
538.176	0.0180479
538.254	0.0181767
538.332	0.0180722
538.410	0.0180737
538.488	0.0182003
538.566	0.0181593
538.644	0.0180389
538.723	0.0180449
538.801	0.0182070
538.879	0.0181675
538.957	0.0182513
539.035	0.0181182
539.113	0.0181084
539.191	0.0181556
539.269	0.0181618
539.348	0.0182356
539.426	0.0183138
539.504	0.0183000
539.582	0.0183096
539.660	0.0183321
539.738	0.0181185
539.816	0.0181622
539.894	0.0182438
539.973	0.0181972
540.051	0.0182761
540.129	0.0183018
540.207	0.0182838
540.285	0.0183147
540.363	0.0183078
540.441	0.0182631
540.519	0.0183229
540.598	0.0181647
540.676	0.0183044
540.754	0.0183414
540.832	0.0183578
540.910	0.0184552
540.988	0.0183514
541.066	0.0185087
541.144	0.0184188
541.223	0.0184667
541.301	0.0183988
541.379	0.0184451
541.457	0.0186647
541.535	0.0184402
541.613	0.0185825
541.691	0.0186320
541.769	0.0185342
541.848	0.0184641
541.926	0.0185838
542.004	0.0186780
542.082	0.0188228
542.160	0.0186324
542.238	0.0188039
542.316	0.0186244
542.394	0.0187585
542.473	0.0186073
542.551	0.0187397
542.629	0.0186729
542.707	0.0187045
542.785	0.0187981
542.863	0.0185443
542.941	0.0186815
543.019	0.0186668
543.098	0.0186760
543.176	0.0186202
543.254	0.0185463
543.332	0.0186009
543.410	0.0186136
543.488	0.0184921
543.566	0.0185007
543.644	0.0184814
543.723	0.0184212
543.801	0.0183037
543.879	0.0184189
543.957	0.0182655
544.035	0.0182978
544.113	0.0184520
544.191	0.0182479
544.269	0.0182281
544.348	0.0181561
544.426	0.0181994
544.504	0.0182842
544.582	0.0181881
544.660	0.0182946
544.738	0.0181846
544.816	0.0182107
544.894	0.0181383
544.973	0.0180540
545.051	0.0182995
545.129	0.0182549
545.207	0.0182847
545.285	0.0183500
545.363	0.0182528
545.441	0.0184058
545.519	0.0181915
545.598	0.0181899
545.676	0.0184698
545.754	0.0182903
545.832	0.0184231
545.910	0.0183022
545.988	0.0182639
546.066	0.0183475
546.144	0.0183160
546.223	0.0183768
546.301	0.0183206
546.379	0.0183636
546.457	0.0182691
546.535	0.0182887
546.613	0.0182252
546.691	0.0182603
546.769	0.0182844
546.848	0.0182671
546.926	0.0182013
547.004	0.0182217
547.082	0.0181308
547.160	0.0182682
547.238	0.0181451
547.316	0.0182375
547.394	0.0181902
547.473	0.0180898
547.551	0.0182506
547.629	0.0181868
547.707	0.0183201
547.785	0.0182407
547.863	0.0181482
547.941	0.0182660
548.019	0.0180548
548.098	0.0182980
548.176	0.0182116
548.254	0.0181027
548.332	0.0181596
548.410	0.0181003
548.488	0.0181289
548.566	0.0181513
548.644	0.0182713
548.723	0.0181474
548.801	0.0180183
548.879	0.0181304
548.957	0.0180344
549.035	0.0182285
549.113	0.0181832
549.191	0.0181964
549.269	0.0181438
549.348	0.0181210
549.426	0.0182731
549.504	0.0182583
549.582	0.0183502
549.660	0.0180968
549.738	0.0183887
549.816	0.0182703
549.894	0.0182383
549.973	0.0183707
550.051	0.0184103
550.129	0.0183289
550.207	0.0183119
550.285	0.0182451
550.363	0.0183808
550.441	0.0184824
550.519	0.0183862
550.598	0.0184269
550.676	0.0184203
550.754	0.0183636
550.832	0.0183414
550.910	0.0184354
550.988	0.0184657
551.066	0.0184625
551.144	0.0183273
551.223	0.0184894
551.301	0.0185125
551.379	0.0186015
551.457	0.0184611
551.535	0.0184738
551.613	0.0185767
551.691	0.0184663
551.769	0.0186296
551.848	0.0184920
551.926	0.0186202
552.004	0.0185977
552.082	0.0187188
552.160	0.0187498
552.238	0.0185549
552.316	0.0185448
552.394	0.0185437
552.473	0.0186791
552.551	0.0185799
552.629	0.0186179
552.707	0.0184834
552.785	0.0185755
552.863	0.0184938
552.941	0.0185830
553.019	0.0185517
553.098	0.0184916
553.176	0.0185260
553.254	0.0184383
553.332	0.0184096
553.410	0.0184541
553.488	0.0185008
553.566	0.0183248
553.644	0.0182596
553.723	0.0183246
553.801	0.0182712
553.879	0.0181841
553.957	0.0182626
554.035	0.0181999
554.113	0.0183060
554.191	0.0182171
554.269	0.0182892
554.348	0.0184284
554.426	0.0183418
554.504	0.0182063
554.582	0.0182946
554.660	0.0183354
554.738	0.0183113
554.816	0.0182957
554.894	0.0182846
554.973	0.0183205
555.051	0.0181687
555.129	0.0183339
555.207	0.0181377
555.285	0.0180720
555.363	0.0182308
555.441	0.0181306
555.519	0.0182607
555.598	0.0180506
555.676	0.0181104
555.754	0.0182532
555.832	0.0180710
555.910	0.0180065
555.988	0.0181078
556.066	0.0181029
556.144	0.0181408
556.223	0.0180762
556.301	0.0181946
556.379	0.0181994
556.457	0.0182446
556.535	0.0181121
556.613	0.0181523
556.691	0.0181629
556.769	0.0181196
556.848	0.0183051
556.926	0.0181846
557.004	0.0181612
557.082	0.0181668
557.160	0.0182276
557.238	0.0181924
557.316	0.0181567
557.394	0.0181553
557.473	0.0181503
557.551	0.0181269
557.629	0.0181445
557.707	0.0181660
557.785	0.0182582
557.863	0.0180428
557.941	0.0182177
558.019	0.0181776
558.098	0.0182419
558.176	0.0181510
558.254	0.0182716
558.332	0.0180943
558.410	0.0181731
558.488	0.0182370
558.566	0.0183419
558.644	0.0181523
558.723	0.0181177
558.801	0.0182564
558.879	0.0181181
558.957	0.0181241
559.035	0.0180985
559.113	0.0181361
559.191	0.0181102
559.269	0.0180679
559.348	0.0181596
559.426	0.0181714
559.504	0.0181450
559.582	0.0182925
559.660	0.0183061
559.738	0.0182438
559.816	0.0181599
559.894	0.0181377
559.973	0.0182471
560.051	0.0182045
560.129	0.0183389
560.207	0.0182500
560.285	0.0183878
560.363	0.0182851
560.441	0.0182122
560.519	0.0182090
560.598	0.0183650
560.676	0.0182967
560.754	0.0183180
560.832	0.0181995
560.910	0.0182419
560.988	0.0183395
561.066	0.0183292
561.144	0.0183455
561.223	0.0183707
561.301	0.0183230
561.379	0.0183043
561.457	0.0183879
561.535	0.0184673
561.613	0.0184097
561.691	0.0183710
561.769	0.0183947
561.848	0.0184285
561.926	0.0183795
562.004	0.0183836
562.082	0.0184058
562.160	0.0183595
562.238	0.0184176
562.316	0.0183707
562.394	0.0185893
562.473	0.0182619
562.551	0.0183857
562.629	0.0184319
562.707	0.0185175
562.785	0.0183520
562.863	0.0184720
562.941	0.0183958
563.019	0.0183817
563.098	0.0185082
563.176	0.0183118
563.254	0.0183903
563.332	0.0184437
563.410	0.0184540
563.488	0.0184952
563.566	0.0184664
563.644	0.0184264
563.723	0.0183804
563.801	0.0183945
563.879	0.0184358
563.957	0.0184933
564.035	0.0184123
564.113	0.0183292
564.191	0.0185277
564.269	0.0183504
564.348	0.0183566
564.426	0.0183837
564.504	0.0183747
564.582	0.0184541
564.660	0.0185590
564.738	0.0183672
564.816	0.0183412
564.894	0.0186136
564.973	0.0184431
565.051	0.0184278
565.129	0.0182687
565.207	0.0184288
565.285	0.0183739
565.363	0.0182304
565.441	0.0183062
565.519	0.0183567
565.598	0.0183716
565.676	0.0184022
565.754	0.0183463
565.832	0.0183205
565.910	0.0182774
565.988	0.0182923
566.066	0.0183470
566.144	0.0183928
566.223	0.0184058
566.301	0.0182444
566.379	0.0182197
566.457	0.0183015
566.535	0.0182957
566.613	0.0183514
566.691	0.0182261
566.769	0.0182911
566.848	0.0182327
566.926	0.0182593
567.004	0.0182362
567.082	0.0183226
567.160	0.0183389
567.238	0.0183349
567.316	0.0183341
567.394	0.0181512
567.473	0.0181708
567.551	0.0183018
567.629	0.0184565
567.707	0.0183394
567.785	0.0181973
567.863	0.0182362
567.941	0.0182531
568.019	0.0183216
568.098	0.0182445
568.176	0.0181784
568.254	0.0182021
568.332	0.0182841
568.410	0.0182640
568.488	0.0183144
568.566	0.0181829
568.644	0.0182591
568.723	0.0183138
568.801	0.0181425
568.879	0.0181917
568.957	0.0183185
569.035	0.0182104
569.113	0.0182960
569.191	0.0182592
569.269	0.0181822
569.348	0.0183313
569.426	0.0181708
569.504	0.0181667
569.582	0.0182613
569.660	0.0184195
569.738	0.0182872
569.816	0.0181673
569.894	0.0183209
569.973	0.0182319
570.051	0.0182985
570.129	0.0183501
570.207	0.0184201
570.285	0.0183003
570.363	0.0182551
570.441	0.0183554
570.519	0.0183907
570.598	0.0183727
570.676	0.0183770
570.754	0.0184384
570.832	0.0183858
570.910	0.0182248
570.988	0.0183765
571.066	0.0183681
571.144	0.0183434
571.223	0.0184324
571.301	0.0183336
571.379	0.0184660
571.457	0.0184016
571.535	0.0183771
571.613	0.0183968
571.691	0.0183791
571.769	0.0185421
571.848	0.0183734
571.926	0.0183882
572.004	0.0182629
572.082	0.0184467
572.160	0.0183961
572.238	0.0184003
572.316	0.0183874
572.394	0.0183734
572.473	0.0184122
572.551	0.0184491
572.629	0.0183763
572.707	0.0183706
572.785	0.0185548
572.863	0.0186376
572.941	0.0185022
573.019	0.0184166
573.098	0.0185409
573.176	0.0183990
573.254	0.0185452
573.332	0.0186320
573.410	0.0184758
573.488	0.0183640
573.566	0.0185054
573.644	0.0184924
573.723	0.0184147
573.801	0.0185362
573.879	0.0185044
573.957	0.0185317
574.035	0.0184409
574.113	0.0185238
574.191	0.0185184
574.269	0.0183543
574.348	0.0185475
574.426	0.0184059
574.504	0.0184230
574.582	0.0184528
574.660	0.0185148
574.738	0.0183649
574.816	0.0183496
574.894	0.0184607
574.973	0.0182906
575.051	0.0183163
575.129	0.0182903
575.207	0.0183900
575.285	0.0183955
575.363	0.0184370
575.441	0.0183929
575.519	0.0184138
575.598	0.0183279
575.676	0.0184087
575.754	0.0183517
575.832	0.0183644
575.910	0.0183624
575.988	0.0184194
576.066	0.0184113
576.144	0.0183340
576.223	0.0182920
576.301	0.0182578
576.379	0.0184097
576.457	0.0182352
576.535	0.0182687
576.613	0.0182902
576.691	0.0182797
576.769	0.0184087
576.848	0.0182375
576.926	0.0183739
577.004	0.0182680
577.082	0.0182276
577.160	0.0182037
577.238	0.0183217
577.316	0.0181243
577.394	0.0182400
577.473	0.0183508
577.551	0.0183006
577.629	0.0184093
577.707	0.0183784
577.785	0.0182848
577.863	0.0184145
577.941	0.0184677
578.019	0.0183347
578.098	0.0182047
578.176	0.0182706
578.254	0.0182610
578.332	0.0183983
578.410	0.0182898
578.488	0.0182505
578.566	0.0182001
578.644	0.0181483
578.723	0.0181733
578.801	0.0181612
578.879	0.0182378
578.957	0.0182815
579.035	0.0183070
579.113	0.0181400
579.191	0.0181567
579.269	0.0183649
579.348	0.0181651
579.426	0.0181568
579.504	0.0182786
579.582	0.0183833
579.660	0.0182990
579.738	0.0181721
579.816	0.0183033
579.894	0.0182975
579.973	0.0183150
580.051	0.0182352
580.129	0.0185050
580.207	0.0183627
580.285	0.0181988
580.363	0.0182238
580.441	0.0182245
580.519	0.0183512
580.598	0.0183488
580.676	0.0183037
580.754	0.0183842
580.832	0.0182945
580.910	0.0182946
580.988	0.0183416
581.066	0.0183234
581.144	0.0183491
581.223	0.0183132
581.301	0.0183455
581.379	0.0183614
581.457	0.0183888
581.535	0.0182956
581.613	0.0183209
581.691	0.0184872
581.769	0.0183884
581.848	0.0182278
581.926	0.0182884
582.004	0.0183933
582.082	0.0182658
582.160	0.0183711
582.238	0.0182460
582.316	0.0181028
582.394	0.0182822
582.473	0.0184675
582.551	0.0184533
582.629	0.0182843
582.707	0.0183034
582.785	0.0183681
582.863	0.0183871
582.941	0.0182997
583.019	0.0182841
583.098	0.0183437
583.176	0.0183019
583.254	0.0182238
583.332	0.0183841
583.410	0.0183623
583.488	0.0183543
583.566	0.0181371
583.644	0.0183631
583.723	0.0183887
583.801	0.0183691
583.879	0.0182701
583.957	0.0181690
584.035	0.0183122
584.113	0.0182550
584.191	0.0183098
584.269	0.0184531
584.348	0.0182143
584.426	0.0182574
584.504	0.0181733
584.582	0.0182964
584.660	0.0182877
584.738	0.0181763
584.816	0.0182471
584.894	0.0181302
584.973	0.0182331
585.051	0.0181409
585.129	0.0182263
585.207	0.0182394
585.285	0.0181104
585.363	0.0181031
585.441	0.0180565
585.519	0.0181709
585.598	0.0181858
585.676	0.0182051
585.754	0.0181083
585.832	0.0181624
585.910	0.0180881
585.988	0.0180867
586.066	0.0180387
586.144	0.0181358
586.223	0.0181379
586.301	0.0180084
586.379	0.0180139
586.457	0.0179919
586.535	0.0179900
586.613	0.0181577
586.691	0.0180455
586.769	0.0179859
586.848	0.0180200
586.926	0.0179772
587.004	0.0180007
587.082	0.0179383
587.160	0.0180673
587.238	0.0180965
587.316	0.0180299
587.394	0.0180605
587.473	0.0182382
587.551	0.0181192
587.629	0.0182027
587.707	0.0182182
587.785	0.0180466
587.863	0.0180420
587.941	0.0181599
588.019	0.0182063
588.098	0.0182997
588.176	0.0181079
588.254	0.0180352
588.332	0.0181953
588.410	0.0181894
588.488	0.0182102
588.566	0.0181529
588.644	0.0181458
588.723	0.0180566
588.801	0.0181303
588.879	0.0181437
588.957	0.0181819
589.035	0.0183127
589.113	0.0180927
589.191	0.0181100
589.269	0.0182990
589.348	0.0180676
589.426	0.0182200
589.504	0.0182365
589.582	0.0183721
589.660	0.0183260
589.738	0.0181595
589.816	0.0181549
589.894	0.0182292
589.973	0.0183254
590.051	0.0181172
590.129	0.0181679
590.207	0.0182731
590.285	0.0181289
590.363	0.0181219
590.441	0.0181413
590.519	0.0181747
590.598	0.0181327
590.676	0.0182588
590.754	0.0184049
590.832	0.0181933
590.910	0.0182420
590.988	0.0183620
591.066	0.0184735
591.144	0.0183813
591.223	0.0183773
591.301	0.0183535
591.379	0.0183257
591.457	0.0183689
591.535	0.0184360
591.613	0.0183467
591.691	0.0184096
591.769	0.0184669
591.848	0.0185530
591.926	0.0184372
592.004	0.0183002
592.082	0.0185361
592.160	0.0185254
592.238	0.0183289
592.316	0.0184969
592.394	0.0184965
592.473	0.0183994
592.551	0.0184315
592.629	0.0184782
592.707	0.0183633
592.785	0.0184229
592.863	0.0183787
592.941	0.0183665
593.019	0.0185754
593.098	0.0183121
593.176	0.0182811
593.254	0.0184046
593.332	0.0184447
593.410	0.0185257
593.488	0.0184115
593.566	0.0183492
593.644	0.0183459
593.723	0.0183638
593.801	0.0183718
593.879	0.0183164
593.957	0.0183844
594.035	0.0184369
594.113	0.0182818
594.191	0.0183335
594.269	0.0183577
594.348	0.0182964
594.426	0.0183195
594.504	0.0184527
594.582	0.0184773
594.660	0.0183270
594.738	0.0183245
594.816	0.0183603
594.894	0.0182670
594.973	0.0182608
595.051	0.0180698
595.129	0.0181879
595.207	0.0183814
595.285	0.0182928
595.363	0.0182187
595.441	0.0182797
595.519	0.0182034
595.598	0.0182397
595.676	0.0183723
595.754	0.0183659
595.832	0.0181683
595.910	0.0183185
595.988	0.0182200
596.066	0.0182168
596.144	0.0182482
596.223	0.0182836
596.301	0.0182883
596.379	0.0182758
596.457	0.0181928
596.535	0.0182688
596.613	0.0182648
596.691	0.0183727
596.769	0.0182577
596.848	0.0184998
596.926	0.0182525
597.004	0.0182167
597.082	0.0182537
597.160	0.0182977
597.238	0.0183046
597.316	0.0183292
597.394	0.0182698
597.473	0.0183475
597.551	0.0182439
597.629	0.0183031
597.707	0.0182277
597.785	0.0184790
597.863	0.0181911
597.941	0.0182489
598.019	0.0182834
598.098	0.0182227
598.176	0.0183782
598.254	0.0183905
598.332	0.0183729
598.410	0.0183740
598.488	0.0183938
598.566	0.0183626
598.644	0.0184298
598.723	0.0184321
598.801	0.0183875
598.879	0.0182969
598.957	0.0184189
599.035	0.0183586
599.113	0.0184519
599.191	0.0182983
599.269	0.0182883
599.348	0.0183807
599.426	0.0182520
599.504	0.0183753
599.582	0.0182721
599.660	0.0184620
599.738	0.0183184
599.816	0.0183624
599.894	0.0183771
599.973	0.0182922
600.051	0.0184264
600.129	0.0183637
600.207	0.0183646
600.285	0.0184328
600.363	0.0183224
600.441	0.0183298
600.519	0.0183359
600.598	0.0183295
600.676	0.0184164
600.754	0.0183250
600.832	0.0183651
600.910	0.0182997
600.988	0.0183128
601.066	0.0183197
601.144	0.0183389
601.223	0.0184185
601.301	0.0182723
601.379	0.0183454
601.457	0.0182722
601.535	0.0182842
601.613	0.0184038
601.691	0.0182867
601.769	0.0182450
601.848	0.0182102
601.926	0.0182308
602.004	0.0182719
602.082	0.0183984
602.160	0.0183679
602.238	0.0183336
602.316	0.0182236
602.394	0.0183039
602.473	0.0182935
602.551	0.0182402
602.629	0.0182828
602.707	0.0181425
602.785	0.0182852
602.863	0.0183153
602.941	0.0182514
603.019	0.0183002
603.098	0.0181653
603.176	0.0182494
603.254	0.0182560
603.332	0.0183050
603.410	0.0183886
603.488	0.0181789
603.566	0.0182021
603.644	0.0183166
603.723	0.0183745
603.801	0.0181572
603.879	0.0183519
603.957	0.0183002
604.035	0.0182634
604.113	0.0184084
604.191	0.0181895
604.269	0.0181911
604.348	0.0182188
604.426	0.0182859
604.504	0.0182420
604.582	0.0180961
604.660	0.0181971
604.738	0.0181595
604.816	0.0181135
604.894	0.0181023
604.973	0.0182334
605.051	0.0180965
605.129	0.0181417
605.207	0.0180603
605.285	0.0181425
605.363	0.0182626
605.441	0.0180943
605.519	0.0180772
605.598	0.0181484
605.676	0.0181496
605.754	0.0181607
605.832	0.0180482
605.910	0.0180751
605.988	0.0182439
606.066	0.0181043
606.144	0.0182713
606.223	0.0181540
606.301	0.0181092
606.379	0.0180844
606.457	0.0180592
606.535	0.0182691
606.613	0.0180814
606.691	0.0180895
606.769	0.0180825
606.848	0.0180468
606.926	0.0182439
607.004	0.0180153
607.082	0.0180850
607.160	0.0181789
607.238	0.0181143
607.316	0.0181133
607.394	0.0180965
607.473	0.0181757
607.551	0.0181877
607.629	0.0181545
607.707	0.0182547
607.785	0.0182375
607.863	0.0181472
607.941	0.0181357
608.019	0.0181586
608.098	0.0182428
608.176	0.0181208
608.254	0.0181480
608.332	0.0182280
608.410	0.0181076
608.488	0.0182978
608.566	0.0183301
608.644	0.0181622
608.723	0.0182836
608.801	0.0182763
608.879	0.0182046
608.957	0.0181398
609.035	0.0182862
609.113	0.0181004
609.191	0.0182130
609.269	0.0183203
609.348	0.0180721
609.426	0.0182321
609.504	0.0182978
609.582	0.0181543
609.660	0.0182239
609.738	0.0181785
609.816	0.0181676
609.894	0.0181847
609.973	0.0183255
610.051	0.0182631
610.129	0.0182395
610.207	0.0182458
610.285	0.0182552
610.363	0.0182331
610.441	0.0182134
610.519	0.0183282
610.598	0.0182637
610.676	0.0180740
610.754	0.0182368
610.832	0.0183163
610.910	0.0182115
610.988	0.0183997
611.066	0.0183432
611.144	0.0182242
611.223	0.0182348
611.301	0.0183733
611.379	0.0182597
611.457	0.0181985
611.535	0.0182284
611.613	0.0181956
611.691	0.0182403
611.769	0.0182891
611.848	0.0181622
611.926	0.0182171
612.004	0.0181849
612.082	0.0183694
612.160	0.0181649
612.238	0.0181437
612.316	0.0181905
612.394	0.0182661
612.473	0.0181864
612.551	0.0183336
612.629	0.0182944
612.707	0.0183038
612.785	0.0182552
612.863	0.0182198
612.941	0.0182525
613.019	0.0181448
613.098	0.0183364
613.176	0.0183363
613.254	0.0183281
613.332	0.0182973
613.410	0.0181770
613.488	0.0183952
613.566	0.0181623
613.644	0.0182108
613.723	0.0182657
613.801	0.0182707
613.879	0.0182037
613.957	0.0182438
614.035	0.0181624
614.113	0.0183207
614.191	0.0183279
614.269	0.0181866
614.348	0.0182806
614.426	0.0182911
614.504	0.0183495
614.582	0.0182630
614.660	0.0182058
614.738	0.0182934
614.816	0.0183440
614.894	0.0183284
614.973	0.0183307
615.051	0.0183877
615.129	0.0183093
615.207	0.0183678
615.285	0.0182540
615.363	0.0183969
615.441	0.0183009
615.519	0.0182668
615.598	0.0182605
615.676	0.0182510
615.754	0.0183592
615.832	0.0184389
615.910	0.0182511
615.988	0.0182498
616.066	0.0182580
616.144	0.0182290
616.223	0.0183286
616.301	0.0183619
616.379	0.0183613
616.457	0.0182767
616.535	0.0181077
616.613	0.0182739
616.691	0.0182259
616.769	0.0182404
616.848	0.0182737
616.926	0.0181817
617.004	0.0181831
617.082	0.0181979
617.160	0.0183081
617.238	0.0183399
617.316	0.0181960
617.394	0.0182425
617.473	0.0182360
617.551	0.0182745
617.629	0.0180784
617.707	0.0184303
617.785	0.0183325
617.863	0.0182851
617.941	0.0182519
618.019	0.0182286
618.098	0.0183128
618.176	0.0181912
618.254	0.0182472
618.332	0.0182726
618.410	0.0181979
618.488	0.0183154
618.566	0.0182838
618.644	0.0183089
618.723	0.0183061
618.801	0.0183048
618.879	0.0181985
618.957	0.0183849
619.035	0.0182207
619.113	0.0181812
619.191	0.0184158
619.269	0.0182088
619.348	0.0181383
619.426	0.0182191
619.504	0.0182870
619.582	0.0182639
619.660	0.0182413
619.738	0.0181906
619.816	0.0183487
619.894	0.0183080
619.973	0.0182456
620.051	0.0182926
620.129	0.0182304
620.207	0.0182518
620.285	0.0182591
620.363	0.0182331
620.441	0.0182530
620.519	0.0183260
620.598	0.0182526
620.676	0.0181331
620.754	0.0182456
620.832	0.0182732
620.910	0.0182586
620.988	0.0182809
621.066	0.0184151
621.144	0.0184080
621.223	0.0182255
621.301	0.0182727
621.379	0.0183217
621.457	0.0183888
621.535	0.0182561
621.613	0.0182136
621.691	0.0184693
621.769	0.0183964
621.848	0.0182589
621.926	0.0183754
622.004	0.0183383
622.082	0.0182580
622.160	0.0182975
622.238	0.0182967
622.316	0.0182110
622.394	0.0183069
622.473	0.0182759
622.551	0.0183698
622.629	0.0183444
622.707	0.0182497
622.785	0.0184611
622.863	0.0184165
622.941	0.0183578
623.019	0.0183705
623.098	0.0183248
623.176	0.0182433
623.254	0.0183374
623.332	0.0182306
623.410	0.0182858
623.488	0.0184203
623.566	0.0183990
623.644	0.0182938
623.723	0.0182815
623.801	0.0184485
623.879	0.0184382
623.957	0.0183047
624.035	0.0184794
624.113	0.0184222
624.191	0.0183305
624.269	0.0183878
624.348	0.0182362
624.426	0.0183314
624.504	0.0182556
624.582	0.0184232
624.660	0.0183604
624.738	0.0182487
624.816	0.0182631
624.894	0.0182821
624.973	0.0183517
625.051	0.0183250
625.129	0.0182037
625.207	0.0183588
625.285	0.0183128
625.363	0.0183060
625.441	0.0184135
625.519	0.0183854
625.598	0.0183154
625.676	0.0182687
625.754	0.0183690
625.832	0.0183879
625.910	0.0182815
625.988	0.0182619
626.066	0.0182508
626.144	0.0181512
626.223	0.0183499
626.301	0.0183249
626.379	0.0182881
626.457	0.0182554
626.535	0.0183543
626.613	0.0183932
626.691	0.0183337
626.769	0.0181941
626.848	0.0181545
626.926	0.0183249
627.004	0.0184083
627.082	0.0182139
627.160	0.0183128
627.238	0.0182729
627.316	0.0182661
627.394	0.0183613
627.473	0.0182787
627.551	0.0182539
627.629	0.0183064
627.707	0.0182207
627.785	0.0181396
627.863	0.0182898
627.941	0.0183440
628.019	0.0181705
628.098	0.0182122
628.176	0.0181889
628.254	0.0182653
628.332	0.0181094
628.410	0.0181488
628.488	0.0183015
628.566	0.0182102
628.644	0.0182512
628.723	0.0182780
628.801	0.0183290
628.879	0.0183396
628.957	0.0181535
629.035	0.0181989
629.113	0.0182522
629.191	0.0180545
629.269	0.0181550
629.348	0.0182169
629.426	0.0181670
629.504	0.0182518
629.582	0.0180793
629.660	0.0180985
629.738	0.0182867
629.816	0.0181188
629.894	0.0182285
629.973	0.0182053
630.051	0.0180671
630.129	0.0182652
630.207	0.0183427
630.285	0.0182640
630.363	0.0183300
630.441	0.0181493
630.519	0.0181831
630.598	0.0182677
630.676	0.0182706
630.754	0.0182462
630.832	0.0182405
630.910	0.0181401
630.988	0.0182017
631.066	0.0182011
631.144	0.0183144
631.223	0.0181610
631.301	0.0181644
631.379	0.0181908
631.457	0.0182758
631.535	0.0182941
631.613	0.0181431
631.691	0.0181937
631.769	0.0182707
631.848	0.0181988
631.926	0.0181124
632.004	0.0181234
632.082	0.0181901
632.160	0.0182585
632.238	0.0182573
632.316	0.0181856
632.394	0.0182944
632.473	0.0182920
632.551	0.0182088
632.629	0.0182325
632.707	0.0181338
632.785	0.0183269
632.863	0.0182457
632.941	0.0182403
633.019	0.0183401
633.098	0.0182599
633.176	0.0183620
633.254	0.0182907
633.332	0.0183612
633.410	0.0183364
633.488	0.0183305
633.566	0.0183267
633.644	0.0182829
633.723	0.0184197
633.801	0.0182669
633.879	0.0181036
633.957	0.0182539
634.035	0.0183520
634.113	0.0182777
634.191	0.0183975
634.269	0.0181771
634.348	0.0183222
634.426	0.0183605
634.504	0.0184216
634.582	0.0182573
634.660	0.0184374
634.738	0.0183636
634.816	0.0183042
634.894	0.0183005
634.973	0.0183336
635.051	0.0182459
635.129	0.0183527
635.207	0.0182895
635.285	0.0184064
635.363	0.0183136
635.441	0.0183443
635.519	0.0182130
635.598	0.0183150
635.676	0.0183385
635.754	0.0183804
635.832	0.0183681
635.910	0.0183749
635.988	0.0182408
636.066	0.0182536
636.144	0.0183346
636.223	0.0183863
636.301	0.0184470
636.379	0.0184484
636.457	0.0182755
636.535	0.0183190
636.613	0.0183875
636.691	0.0183366
636.769	0.0183648
636.848	0.0184042
636.926	0.0183998
637.004	0.0183171
637.082	0.0182937
637.160	0.0182289
637.238	0.0185558
637.316	0.0184416
637.394	0.0183775
637.473	0.0183989
637.551	0.0184525
637.629	0.0183698
637.707	0.0182919
637.785	0.0183726
637.863	0.0184447
637.941	0.0183611
638.019	0.0183993
638.098	0.0184078
638.176	0.0183119
638.254	0.0183285
638.332	0.0184071
638.410	0.0184151
638.488	0.0183230
638.566	0.0183749
638.644	0.0184084
638.723	0.0184557
638.801	0.0183227
638.879	0.0183235
638.957	0.0182291
639.035	0.0184484
639.113	0.0184501
639.191	0.0184762
639.269	0.0184090
639.348	0.0184137
639.426	0.0183409
639.504	0.0183880
639.582	0.0182830
639.660	0.0183122
639.738	0.0184111
639.816	0.0183930
639.894	0.0182502
639.973	0.0183404
640.051	0.0183856
640.129	0.0182861
640.207	0.0184753
640.285	0.0182827
640.363	0.0181519
640.441	0.0184438
640.519	0.0182851
640.598	0.0182745
640.676	0.0182003
640.754	0.0183459
640.832	0.0182853
640.910	0.0181906
640.988	0.0182431
641.066	0.0183358
641.144	0.0182886
641.223	0.0183478
641.301	0.0182613
641.379	0.0181268
641.457	0.0182561
641.535	0.0182182
641.613	0.0182471
641.691	0.0183301
641.769	0.0183276
641.848	0.0182803
641.926	0.0182165
642.004	0.0182443
642.082	0.0181974
642.160	0.0183395
642.238	0.0182777
642.316	0.0181860
642.394	0.0182281
642.473	0.0182162
642.551	0.0182170
642.629	0.0182865
642.707	0.0182755
642.785	0.0182124
642.863	0.0183438
642.941	0.0182992
643.019	0.0182301
643.098	0.0183051
643.176	0.0183053
643.254	0.0184882
643.332	0.0181161
643.410	0.0182358
643.488	0.0183413
643.566	0.0184068
643.644	0.0183308
643.723	0.0182493
643.801	0.0182205
643.879	0.0183615
643.957	0.0184525
644.035	0.0182976
644.113	0.0183006
644.191	0.0184046
644.269	0.0183853
644.348	0.0184093
644.426	0.0184182
644.504	0.0184396
644.582	0.0183691
644.660	0.0183418
644.738	0.0182965
644.816	0.0183078
644.894	0.0184248
644.973	0.0184085
645.051	0.0184109
645.129	0.0182994
645.207	0.0182655
645.285	0.0183746
645.363	0.0182542
645.441	0.0183881
645.519	0.0183478
645.598	0.0183472
645.676	0.0183524
645.754	0.0184828
645.832	0.0183706
645.910	0.0182766
645.988	0.0183546
646.066	0.0184611
646.144	0.0184541
646.223	0.0183545
646.301	0.0183074
646.379	0.0185503
646.457	0.0185434
646.535	0.0183224
646.613	0.0183093
646.691	0.0183202
646.769	0.0183405
646.848	0.0182973
646.926	0.0184035
647.004	0.0184345
647.082	0.0183924
647.160	0.0183311
647.238	0.0183340
647.316	0.0184422
647.394	0.0183966
647.473	0.0184138
647.551	0.0183891
647.629	0.0182670
647.707	0.0183194
647.785	0.0185180
647.863	0.0183990
647.941	0.0185320
648.019	0.0183298
648.098	0.0183961
648.176	0.0183815
648.254	0.0182345
648.332	0.0182929
648.410	0.0183900
648.488	0.0183373
648.566	0.0182357
648.644	0.0182564
648.723	0.0182470
648.801	0.0182847
648.879	0.0181949
648.957	0.0182863
649.035	0.0183371
649.113	0.0182373
649.191	0.0182731
649.269	0.0182857
649.348	0.0181894
649.426	0.0182371
649.504	0.0181419
649.582	0.0182034
649.660	0.0183189
649.738	0.0183894
649.816	0.0181211
649.894	0.0183216
649.973	0.0182217
650.051	0.0182947
650.129	0.0182898
650.207	0.0183743
650.285	0.0182278
650.363	0.0182864
650.441	0.0181868
650.519	0.0183238
650.598	0.0182420
650.676	0.0183752
650.754	0.0181888
650.832	0.0182153
650.910	0.0183015
650.988	0.0182648
651.066	0.0181717
651.144	0.0182007
651.223	0.0182780
651.301	0.0181916
651.379	0.0183102
651.457	0.0182787
651.535	0.0183091
651.613	0.0182838
651.691	0.0182938
651.769	0.0182007
651.848	0.0181664
651.926	0.0183091
652.004	0.0182848
652.082	0.0182777
652.160	0.0181331
652.238	0.0182954
652.316	0.0182799
652.394	0.0182180
652.473	0.0183613
652.551	0.0182182
652.629	0.0181570
652.707	0.0181903
652.785	0.0181271
652.863	0.0182710
652.941	0.0182597
653.019	0.0182317
653.098	0.0181548
653.176	0.0181734
653.254	0.0183017
653.332	0.0182528
653.410	0.0183432
653.488	0.0181673
653.566	0.0182169
653.644	0.0181741
653.723	0.0182384
653.801	0.0181277
653.879	0.0181947
653.957	0.0182433
654.035	0.0181764
654.113	0.0183353
654.191	0.0182916
654.269	0.0182067
654.348	0.0182315
654.426	0.0182725
654.504	0.0182948
654.582	0.0182346
654.660	0.0183508
654.738	0.0182381
654.816	0.0181435
654.894	0.0183286
654.973	0.0183770
655.051	0.0182795
655.129	0.0181390
655.207	0.0182681
655.285	0.0183235
655.363	0.0182907
655.441	0.0182998
655.519	0.0183913
655.598	0.0181436
655.676	0.0181960
655.754	0.0182397
655.832	0.0182895
655.910	0.0181435
655.988	0.0182932
656.066	0.0182317
656.144	0.0183250
656.223	0.0183530
656.301	0.0182837
656.379	0.0182205
656.457	0.0182684
656.535	0.0184355
656.613	0.0183318
656.691	0.0180843
656.769	0.0180922
656.848	0.0183860
656.926	0.0181082
657.004	0.0182876
657.082	0.0181672
657.160	0.0181875
657.238	0.0182207
657.316	0.0183438
657.394	0.0181478
657.473	0.0182643
657.551	0.0181590
657.629	0.0182787
657.707	0.0182463
657.785	0.0182099
657.863	0.0181853
657.941	0.0181982
658.019	0.0182088
658.098	0.0181509
658.176	0.0182577
658.254	0.0182731
658.332	0.0183121
658.410	0.0182120
658.488	0.0182558
658.566	0.0183633
658.644	0.0181924
658.723	0.0183057
658.801	0.0183389
658.879	0.0182361
658.957	0.0182394
659.035	0.0183198
659.113	0.0182015
659.191	0.0183028
659.269	0.0182349
659.348	0.0182892
659.426	0.0183552
659.504	0.0182134
659.582	0.0182767
659.660	0.0183105
659.738	0.0183369
659.816	0.0183235
659.894	0.0183939
659.973	0.0182890
660.051	0.0182793
660.129	0.0182593
660.207	0.0182861
660.285	0.0182092
660.363	0.0184586
660.441	0.0182076
660.519	0.0181438
660.598	0.0182116
660.676	0.0181313
660.754	0.0182494
660.832	0.0184027
660.910	0.0183735
660.988	0.0182033
661.066	0.0182483
661.144	0.0182470
661.223	0.0182299
661.301	0.0183013
661.379	0.0181812
661.457	0.0182662
661.535	0.0183158
661.613	0.0180814
661.691	0.0182489
661.769	0.0182610
661.848	0.0183685
661.926	0.0182800
662.004	0.0183550
662.082	0.0183469
662.160	0.0182621
662.238	0.0182925
662.316	0.0183087
662.394	0.0182567
662.473	0.0182644
662.551	0.0182748
662.629	0.0183228
662.707	0.0182981
662.785	0.0181909
662.863	0.0182951
662.941	0.0181923
663.019	0.0182001
663.098	0.0181537
663.176	0.0180445
663.254	0.0182153
663.332	0.0182437
663.410	0.0183022
663.488	0.0181765
663.566	0.0181559
663.644	0.0181960
663.723	0.0183125
663.801	0.0182561
663.879	0.0181783
663.957	0.0181137
664.035	0.0181964
664.113	0.0181725
664.191	0.0183141
664.269	0.0182058
664.348	0.0183263
664.426	0.0181647
664.504	0.0182446
664.582	0.0182331
664.660	0.0182660
664.738	0.0182878
664.816	0.0183164
664.894	0.0183176
664.973	0.0181615
665.051	0.0183353
665.129	0.0182401
665.207	0.0183111
665.285	0.0181393
665.363	0.0181976
665.441	0.0182473
665.519	0.0181239
665.598	0.0181143
665.676	0.0182366
665.754	0.0182397
665.832	0.0182658
665.910	0.0181713
665.988	0.0181211
666.066	0.0181493
666.144	0.0181734
666.223	0.0180552
666.301	0.0181760
666.379	0.0182677
666.457	0.0181122
666.535	0.0182278
666.613	0.0182276
666.691	0.0182036
666.769	0.0182928
666.848	0.0184452
666.926	0.0183548
667.004	0.0183588
667.082	0.0183666
667.160	0.0183958
667.238	0.0184649
667.316	0.0183686
667.394	0.0186050
667.473	0.0184213
667.551	0.0186813
667.629	0.0185605
667.707	0.0183834
667.785	0.0184586
667.863	0.0184459
667.941	0.0183108
668.019	0.0185060
668.098	0.0183527
668.176	0.0183406
668.254	0.0182383
668.332	0.0182204
668.410	0.0182183
668.488	0.0182565
668.566	0.0181565
668.644	0.0181445
668.723	0.0182635
668.801	0.0182294
668.879	0.0181370
668.957	0.0182359
669.035	0.0181871
669.113	0.0184189
669.191	0.0182355
669.269	0.0181753
669.348	0.0182420
669.426	0.0181557
669.504	0.0182185
669.582	0.0184034
669.660	0.0183708
669.738	0.0181716
669.816	0.0183706
669.894	0.0182339
669.973	0.0183051
670.051	0.0182475
670.129	0.0182800
670.207	0.0184492
670.285	0.0182920
670.363	0.0182546
670.441	0.0183112
670.519	0.0183689
670.598	0.0183667
670.676	0.0184325
670.754	0.0185950
670.832	0.0183540
670.910	0.0186005
670.988	0.0183977
671.066	0.0185593
671.144	0.0185163
671.223	0.0184122
671.301	0.0184619
671.379	0.0186127
671.457	0.0185155
671.535	0.0184301
671.613	0.0185238
671.691	0.0184614
671.769	0.0184771
671.848	0.0183603
671.926	0.0183117
672.004	0.0182806
672.082	0.0182640
672.160	0.0182528
672.238	0.0181685
672.316	0.0181712
672.394	0.0181210
672.473	0.0180038
672.551	0.0181226
672.629	0.0179972
672.707	0.0179455
672.785	0.0179594
672.863	0.0178338
672.941	0.0178457
673.019	0.0180386
673.098	0.0179844
673.176	0.0177722
673.254	0.0178530
673.332	0.0179775
673.410	0.0179240
673.488	0.0180016
673.566	0.0180364
673.644	0.0179920
673.723	0.0180045
673.801	0.0179774
673.879	0.0180331
673.957	0.0181531
674.035	0.0181844
674.113	0.0182231
674.191	0.0183768
674.269	0.0182287
674.348	0.0181973
674.426	0.0184460
674.504	0.0185532
674.582	0.0185452
674.660	0.0186417
674.738	0.0185277
674.816	0.0186085
674.894	0.0186240
674.973	0.0185289
675.051	0.0186520
675.129	0.0186253
675.207	0.0186794
675.285	0.0187459
675.363	0.0186456
675.441	0.0186342
675.519	0.0186401
675.598	0.0187114
675.676	0.0185515
675.754	0.0185302
675.832	0.0185509
675.910	0.0184026
675.988	0.0184872
676.066	0.0184234
676.144	0.0184077
676.223	0.0183258
676.301	0.0182863
676.379	0.0183737
676.457	0.0182924
676.535	0.0181760
676.613	0.0182990
676.691	0.0182253
676.769	0.0182226
676.848	0.0182033
676.926	0.0181477
677.004	0.0181441
677.082	0.0180402
677.160	0.0179936
677.238	0.0182606
677.316	0.0181266
677.394	0.0180592
677.473	0.0181735
677.551	0.0181017
677.629	0.0181783
677.707	0.0181352
677.785	0.0181616
677.863	0.0180824
677.941	0.0183109
678.019	0.0184058
678.098	0.0182930
678.176	0.0184940
678.254	0.0184241
678.332	0.0182105
678.410	0.0183376
678.488	0.0184295
678.566	0.0183563
678.644	0.0184755
678.723	0.0183875
678.801	0.0184109
678.879	0.0182979
678.957	0.0182519
679.035	0.0183472
679.113	0.0182229
679.191	0.0183712
679.269	0.0182716
679.348	0.0181840
679.426	0.0183270
679.504	0.0183030
679.582	0.0183219
679.660	0.0182597
679.738	0.0183038
679.816	0.0182912
679.894	0.0182327
679.973	0.0181797
680.051	0.0182020
680.129	0.0181505
680.207	0.0181185
680.285	0.0181563
680.363	0.0180386
680.441	0.0181338
680.519	0.0181406
680.598	0.0181672
680.676	0.0182195
680.754	0.0182167
680.832	0.0182775
680.910	0.0183356
680.988	0.0183456
681.066	0.0183859
681.144	0.0184007
681.223	0.0183447
681.301	0.0184081
681.379	0.0183215
681.457	0.0184077
681.535	0.0183698
681.613	0.0184192
681.691	0.0182790
681.769	0.0182555
681.848	0.0183566
681.926	0.0182732
682.004	0.0182323
682.082	0.0182124
682.160	0.0181789
682.238	0.0182574
682.316	0.0181856
682.394	0.0182761
682.473	0.0181539
682.551	0.0182375
682.629	0.0182334
682.707	0.0180545
682.785	0.0182504
682.863	0.0183053
682.941	0.0182098
683.019	0.0180817
683.098	0.0181858
683.176	0.0181839
683.254	0.0180543
683.332	0.0181683
683.410	0.0181068
683.488	0.0179948
683.566	0.0181432
683.644	0.0181316
683.723	0.0180045
683.801	0.0180017
683.879	0.0179951
683.957	0.0179478
684.035	0.0181339
684.113	0.0181142
684.191	0.0180177
684.269	0.0180522
684.348	0.0181339
684.426	0.0180548
684.504	0.0180390
684.582	0.0181482
684.660	0.0181705
684.738	0.0183067
684.816	0.0181525
684.894	0.0180598
684.973	0.0181290
685.051	0.0181458
685.129	0.0181267
685.207	0.0182312
685.285	0.0183641
685.363	0.0182149
685.441	0.0183360
685.519	0.0182338
685.598	0.0181985
685.676	0.0183127
685.754	0.0183798
685.832	0.0183852
685.910	0.0186490
685.988	0.0185600
686.066	0.0185233
686.144	0.0184905
686.223	0.0184781
686.301	0.0185443
686.379	0.0184158
686.457	0.0184702
686.535	0.0185286
686.613	0.0183891
686.691	0.0182616
686.769	0.0182828
686.848	0.0182697
686.926	0.0182291
687.004	0.0182256
687.082	0.0184075
687.160	0.0183082
687.238	0.0184145
687.316	0.0182685
687.394	0.0182055
687.473	0.0182166
687.551	0.0182042
687.629	0.0181727
687.707	0.0181934
687.785	0.0182579
687.863	0.0181135
687.941	0.0181763
688.019	0.0182495
688.098	0.0180900
688.176	0.0181911
688.254	0.0181002
688.332	0.0180822
688.410	0.0182047
688.488	0.0183128
688.566	0.0182887
688.644	0.0182640
688.723	0.0182658
688.801	0.0182150
688.879	0.0183335
688.957	0.0184488
689.035	0.0184686
689.113	0.0184312
689.191	0.0183989
689.269	0.0184007
689.348	0.0183088
689.426	0.0183875
689.504	0.0182854
689.582	0.0182383
689.660	0.0183665
689.738	0.0182022
689.816	0.0183866
689.894	0.0182713
689.973	0.0182492
690.051	0.0182001
690.129	0.0182327
690.207	0.0181734
690.285	0.0183783
690.363	0.0183183
690.441	0.0181325
690.519	0.0183364
690.598	0.0185304
690.676	0.0184042
690.754	0.0183039
690.832	0.0182780
690.910	0.0183768
690.988	0.0183495
691.066	0.0183155
691.144	0.0183157
691.223	0.0183502
691.301	0.0182997
691.379	0.0182858
691.457	0.0181844
691.535	0.0181403
691.613	0.0183471
691.691	0.0181583
691.769	0.0180905
691.848	0.0182962
691.926	0.0182415
692.004	0.0182386
692.082	0.0180321
692.160	0.0180926
692.238	0.0181716
692.316	0.0182238
692.394	0.0182112
692.473	0.0181655
692.551	0.0182401
692.629	0.0182833
692.707	0.0183130
692.785	0.0182763
692.863	0.0182949
692.941	0.0183566
693.019	0.0183780
693.098	0.0183472
693.176	0.0183521
693.254	0.0184678
693.332	0.0184020
693.410	0.0184579
693.488	0.0185427
693.566	0.0186332
693.644	0.0185571
693.723	0.0183852
693.801	0.0184296
693.879	0.0183553
693.957	0.0183060
694.035	0.0183617
694.113	0.0183153
694.191	0.0183780
694.269	0.0181707
694.348	0.0181947
694.426	0.0181615
694.504	0.0181539
694.582	0.0181361
694.660	0.0181744
694.738	0.0180128
694.816	0.0180750
694.894	0.0182452
694.973	0.0180554
695.051	0.0180893
695.129	0.0181464
695.207	0.0181764
695.285	0.0182079
695.363	0.0180746
695.441	0.0181779
695.519	0.0180670
695.598	0.0182007
695.676	0.0183772
695.754	0.0182751
695.832	0.0184175
695.910	0.0184946
695.988	0.0183797
696.066	0.0183701
696.144	0.0183298
696.223	0.0183819
696.301	0.0184273
696.379	0.0183763
696.457	0.0184171
696.535	0.0186819
696.613	0.0184985
696.691	0.0183034
696.769	0.0183967
696.848	0.0184675
696.926	0.0184161
697.004	0.0185748
697.082	0.0185480
697.160	0.0185838
697.238	0.0184684
697.316	0.0184472
697.394	0.0186040
697.473	0.0183798
697.551	0.0184020
697.629	0.0184899
697.707	0.0184439
697.785	0.0184068
697.863	0.0184364
697.941	0.0183921
698.019	0.0183750
698.098	0.0183845
698.176	0.0182904
698.254	0.0182446
698.332	0.0183206
698.410	0.0183409
698.488	0.0182736
698.566	0.0181766
698.644	0.0182496
698.723	0.0184237
698.801	0.0182145
698.879	0.0180770
698.957	0.0181653
699.035	0.0181597
699.113	0.0182349
699.191	0.0181702
699.269	0.0182597
699.348	0.0182084
699.426	0.0183764
699.504	0.0184251
699.582	0.0183723
699.660	0.0183699
699.738	0.0185162
699.816	0.0184284
699.894	0.0184971
699.973	0.0183781
700.051	0.0184341
700.129	0.0185132
700.207	0.0183549
700.285	0.0184418
700.363	0.0183889
700.441	0.0183046
700.519	0.0182436
700.598	0.0184152
700.676	0.0184096
700.754	0.0183956
700.832	0.0184518
700.910	0.0182320
700.988	0.0182919
701.066	0.0184218
701.144	0.0183625
701.223	0.0182523
701.301	0.0184099
701.379	0.0184362
701.457	0.0183837
701.535	0.0184824
701.613	0.0185146
701.691	0.0184792
701.769	0.0184702
701.848	0.0183817
701.926	0.0185696
702.004	0.0184167
702.082	0.0183573
702.160	0.0185009
702.238	0.0185422
702.316	0.0183752
702.394	0.0184618
702.473	0.0185106
702.551	0.0182767
702.629	0.0182703
702.707	0.0183224
702.785	0.0182339
702.863	0.0182719
702.941	0.0181525
703.019	0.0182343
703.098	0.0181475
703.176	0.0181165
703.254	0.0181219
703.332	0.0180122
703.410	0.0181305
703.488	0.0181975
703.566	0.0180244
703.644	0.0182881
703.723	0.0182602
703.801	0.0181594
703.879	0.0180733
703.957	0.0182269
704.035	0.0183100
704.113	0.0182185
704.191	0.0184206
704.269	0.0183300
704.348	0.0183968
704.426	0.0182257
704.504	0.0184316
704.582	0.0185040
704.660	0.0185332
704.738	0.0183611
704.816	0.0182727
704.894	0.0184264
704.973	0.0184093
705.051	0.0184657
705.129	0.0183409
705.207	0.0183465
705.285	0.0182401
705.363	0.0182475
705.441	0.0182000
705.519	0.0180953
705.598	0.0180747
705.676	0.0181607
705.754	0.0181883
705.832	0.0181378
705.910	0.0181656
705.988	0.0181699
706.066	0.0181889
706.144	0.0182267
706.223	0.0182534
706.301	0.0183421
706.379	0.0182527
706.457	0.0182238
706.535	0.0182786
706.613	0.0183163
706.691	0.0183893
706.769	0.0183588
706.848	0.0184436
706.926	0.0184060
707.004	0.0183617
707.082	0.0182600
707.160	0.0182976
707.238	0.0182343
707.316	0.0182232
707.394	0.0181986
707.473	0.0180847
707.551	0.0180517
707.629	0.0180685
707.707	0.0180045
707.785	0.0181097
707.863	0.0180762
707.941	0.0179362
708.019	0.0180068
708.098	0.0179954
708.176	0.0179874
708.254	0.0180591
708.332	0.0180155
708.410	0.0180341
708.488	0.0180383
708.566	0.0182162
708.644	0.0181734
708.723	0.0182897
708.801	0.0184252
708.879	0.0183006
708.957	0.0184613
709.035	0.0184095
709.113	0.0184631
709.191	0.0184119
709.269	0.0187025
709.348	0.0186489
709.426	0.0187270
709.504	0.0188077
709.582	0.0188348
709.660	0.0187532
709.738	0.0189511
709.816	0.0188461
709.894	0.0187094
709.973	0.0188064
710.051	0.0187508
710.129	0.0186975
710.207	0.0185095
710.285	0.0183952
710.363	0.0184389
710.441	0.0183971
710.519	0.0182704
710.598	0.0180843
710.676	0.0180247
710.754	0.0179227
710.832	0.0179880
710.910	0.0180060
710.988	0.0178297
711.066	0.0178249
711.144	0.0179710
711.223	0.0180083
711.301	0.0182399
711.379	0.0181080
711.457	0.0182027
711.535	0.0182142
711.613	0.0182626
711.691	0.0184038
711.769	0.0184866
711.848	0.0185009
711.926	0.0186324
712.004	0.0187845
712.082	0.0188411
712.160	0.0188515
712.238	0.0188164
712.316	0.0190237
712.394	0.0189206
712.473	0.0188211
712.551	0.0189684
712.629	0.0188211
712.707	0.0186414
712.785	0.0187038
712.863	0.0186335
712.941	0.0184576
713.019	0.0184394
713.098	0.0183450
713.176	0.0183172
713.254	0.0183057
713.332	0.0182118
713.410	0.0180044
713.488	0.0181221
713.566	0.0181306
713.644	0.0180200
713.723	0.0180655
713.801	0.0180311
713.879	0.0181848
713.957	0.0181225
714.035	0.0179871
714.113	0.0179360
714.191	0.0180007
714.269	0.0179886
714.348	0.0179513
714.426	0.0179018
714.504	0.0179575
714.582	0.0180241
714.660	0.0179383
714.738	0.0181539
714.816	0.0182847
714.894	0.0182278
714.973	0.0183842
715.051	0.0184515
715.129	0.0184158
715.207	0.0185015
715.285	0.0184607
715.363	0.0185504
715.441	0.0184615
715.519	0.0184284
715.598	0.0187611
715.676	0.0186430
715.754	0.0186582
715.832	0.0186802
715.910	0.0184905
715.988	0.0185376
716.066	0.0185058
716.144	0.0185400
716.223	0.0183821
716.301	0.0184921
716.379	0.0185651
716.457	0.0184761
716.535	0.0184819
716.613	0.0184564
716.691	0.0184220
716.769	0.0184006
716.848	0.0183322
716.926	0.0182018
717.004	0.0181821
717.082	0.0181914
717.160	0.0181385
717.238	0.0182713
717.316	0.0180391
717.394	0.0181038
717.473	0.0180705
717.551	0.0181670
717.629	0.0180920
717.707	0.0181833
717.785	0.0181600
717.863	0.0182069
717.941	0.0181379
718.019	0.0182111
718.098	0.0182323
718.176	0.0182018
718.254	0.0181570
718.332	0.0182283
718.410	0.0182964
718.488	0.0182995
718.566	0.0182410
718.644	0.0183044
718.723	0.0182526
718.801	0.0181365
718.879	0.0183279
718.957	0.0183519
719.035	0.0183567
719.113	0.0182729
719.191	0.0183466
719.269	0.0183929
719.348	0.0183958
719.426	0.0185093
719.504	0.0183424
719.582	0.0184004
719.660	0.0183475
719.738	0.0184232
719.816	0.0184521
719.894	0.0185772
719.973	0.0185967
720.051	0.0183715
720.129	0.0183318
720.207	0.0185900
720.285	0.0183959
720.363	0.0184152
720.441	0.0184199
720.519	0.0184425
720.598	0.0183632
720.676	0.0183045
720.754	0.0183357
720.832	0.0183038
720.910	0.0183103
720.988	0.0183432
721.066	0.0182853
721.144	0.0182422
721.223	0.0181561
721.301	0.0182680
721.379	0.0181676
721.457	0.0180638
721.535	0.0182330
721.613	0.0181987
721.691	0.0181099
721.769	0.0180228
721.848	0.0181243
721.926	0.0181006
722.004	0.0179982
722.082	0.0180764
722.160	0.0180573
722.238	0.0180019
722.316	0.0180354
722.394	0.0179199
722.473	0.0180054
722.551	0.0179711
722.629	0.0179838
722.707	0.0178909
722.785	0.0179909
722.863	0.0181266
722.941	0.0182908
723.019	0.0183495
723.098	0.0181814
723.176	0.0183729
723.254	0.0184203
723.332	0.0184109
723.410	0.0183922
723.488	0.0184930
723.566	0.0184814
723.644	0.0185735
723.723	0.0186005
723.801	0.0184422
723.879	0.0184564
723.957	0.0185547
724.035	0.0184701
724.113	0.0183855
724.191	0.0184261
724.269	0.0184241
724.348	0.0183759
724.426	0.0184509
724.504	0.0184267
724.582	0.0183283
724.660	0.0182523
724.738	0.0182094
724.816	0.0183973
724.894	0.0183475
724.973	0.0184918
725.051	0.0183785
725.129	0.0182863
725.207	0.0183412
725.285	0.0183602
725.363	0.0183218
725.441	0.0183727
725.519	0.0185368
725.598	0.0183556
725.676	0.0183848
725.754	0.0182630
725.832	0.0183186
725.910	0.0182288
725.988	0.0180920
726.066	0.0182539
726.144	0.0180594
726.223	0.0180675
726.301	0.0180868
726.379	0.0181632
726.457	0.0182042
726.535	0.0181213
726.613	0.0180551
726.691	0.0180961
726.769	0.0181886
726.848	0.0180966
726.926	0.0179792
727.004	0.0181347
727.082	0.0182874
727.160	0.0181441
727.238	0.0180679
727.316	0.0183664
727.394	0.0181170
727.473	0.0181514
727.551	0.0182013
727.629	0.0181475
727.707	0.0180310
727.785	0.0181255
727.863	0.0182932
727.941	0.0181957
728.019	0.0180427
728.098	0.0179750
728.176	0.0179774
728.254	0.0179855
728.332	0.0179872
728.410	0.0181645
728.488	0.0179007
728.566	0.0180084
728.644	0.0180421
728.723	0.0179966
728.801	0.0181289
728.879	0.0181783
728.957	0.0180280
729.035	0.0180283
729.113	0.0180972
729.191	0.0181200
729.269	0.0181684
729.348	0.0181641
729.426	0.0183480
729.504	0.0182028
729.582	0.0183414
729.660	0.0184937
729.738	0.0183592
729.816	0.0184727
729.894	0.0185545
729.973	0.0184898
730.051	0.0185423
730.129	0.0186912
730.207	0.0187598
730.285	0.0186397
730.363	0.0185901
730.441	0.0187228
730.519	0.0187412
730.598	0.0187969
730.676	0.0187299
730.754	0.0185677
730.832	0.0185746
730.910	0.0185285
730.988	0.0183422
731.066	0.0181811
731.144	0.0182161
731.223	0.0182745
731.301	0.0182455
731.379	0.0181692
731.457	0.0180785
731.535	0.0180485
731.613	0.0180630
731.691	0.0179957
731.769	0.0179926
731.848	0.0180738
731.926	0.0182505
732.004	0.0182937
732.082	0.0181661
732.160	0.0182985
732.238	0.0183160
732.316	0.0183978
732.394	0.0184386
732.473	0.0184622
732.551	0.0185522
732.629	0.0186195
732.707	0.0186296
732.785	0.0186169
732.863	0.0186349
732.941	0.0184821
733.019	0.0186222
733.098	0.0184172
733.176	0.0183710
733.254	0.0184312
733.332	0.0184057
733.410	0.0183677
733.488	0.0185620
733.566	0.0182275
733.644	0.0182775
733.723	0.0182838
733.801	0.0183051
733.879	0.0180676
733.957	0.0181310
734.035	0.0181705
734.113	0.0180779
734.191	0.0180906
734.269	0.0182822
734.348	0.0181694
734.426	0.0180706
734.504	0.0181678
734.582	0.0181851
734.660	0.0183218
734.738	0.0183097
734.816	0.0182313
734.894	0.0183144
734.973	0.0181777
735.051	0.0181790
735.129	0.0181940
735.207	0.0183183
735.285	0.0182616
735.363	0.0183515
735.441	0.0182568
735.519	0.0184180
735.598	0.0183394
735.676	0.0183817
735.754	0.0183701
735.832	0.0181966
735.910	0.0184485
735.988	0.0183620
736.066	0.0184808
736.144	0.0184465
736.223	0.0185891
736.301	0.0185281
736.379	0.0185598
736.457	0.0185833
736.535	0.0186466
736.613	0.0187318
736.691	0.0186576
736.769	0.0185004
736.848	0.0186197
736.926	0.0185372
737.004	0.0186126
737.082	0.0185139
737.160	0.0184407
737.238	0.0183149
737.316	0.0184031
737.394	0.0183170
737.473	0.0183640
737.551	0.0182720
737.629	0.0180737
737.707	0.0180129
737.785	0.0180803
737.863	0.0179662
737.941	0.0180878
738.019	0.0181381
738.098	0.0179305
738.176	0.0181287
738.254	0.0179752
738.332	0.0180126
738.410	0.0180988
738.488	0.0181253
738.566	0.0181644
738.644	0.0179931
738.723	0.0180612
738.801	0.0182064
738.879	0.0182547
738.957	0.0182437
739.035	0.0182619
739.113	0.0183379
739.191	0.0183062
739.269	0.0182089
739.348	0.0183124
739.426	0.0182669
739.504	0.0184329
739.582	0.0183691
739.660	0.0184441
739.738	0.0181979
739.816	0.0182515
739.894	0.0183425
739.973	0.0182523
740.051	0.0183073
740.129	0.0182652
740.207	0.0182285
740.285	0.0181657
740.363	0.0181210
740.441	0.0182135
740.519	0.0182858
740.598	0.0181496
740.676	0.0183286
740.754	0.0182829
740.832	0.0182390
740.910	0.0183130
740.988	0.0182887
741.066	0.0184389
741.144	0.0182127
741.223	0.0182402
741.301	0.0182209
741.379	0.0182442
741.457	0.0183443
741.535	0.0182871
741.613	0.0183292
741.691	0.0181989
741.769	0.0183466
741.848	0.0182363
741.926	0.0181709
742.004	0.0183431
742.082	0.0182643
742.160	0.0183171
742.238	0.0184725
742.316	0.0184319
742.394	0.0183242
742.473	0.0184476
742.551	0.0184554
742.629	0.0185065
742.707	0.0185403
742.785	0.0185056
742.863	0.0185880
742.941	0.0185782
743.019	0.0184315
743.098	0.0184351
743.176	0.0185114
743.254	0.0185701
743.332	0.0184761
743.410	0.0185517
743.488	0.0185134
743.566	0.0186182
743.644	0.0185235
743.723	0.0185017
743.801	0.0184792
743.879	0.0184896
743.957	0.0183250
744.035	0.0181241
744.113	0.0182339
744.191	0.0182130
744.269	0.0180536
744.348	0.0180332
744.426	0.0179915
744.504	0.0179399
744.582	0.0178384
744.660	0.0178709
744.738	0.0179154
744.816	0.0179529
744.894	0.0179295
744.973	0.0179813
745.051	0.0180472
745.129	0.0179758
745.207	0.0181158
745.285	0.0179850
745.363	0.0181348
745.441	0.0181772
745.519	0.0181514
745.598	0.0179753
745.676	0.0181310
745.754	0.0180449
745.832	0.0181166
745.910	0.0180537
745.988	0.0181483
746.066	0.0180875
746.144	0.0180540
746.223	0.0182082
746.301	0.0183678
746.379	0.0181450
746.457	0.0184259
746.535	0.0183889
746.613	0.0183387
746.691	0.0182946
746.769	0.0184705
746.848	0.0184294
746.926	0.0185455
747.004	0.0184884
747.082	0.0184729
747.160	0.0184683
747.238	0.0182352
747.316	0.0183576
747.394	0.0181222
747.473	0.0179906
747.551	0.0181422
747.629	0.0180129
747.707	0.0179073
747.785	0.0178301
747.863	0.0178042
747.941	0.0177352
748.019	0.0177803
748.098	0.0176807
748.176	0.0175201
748.254	0.0176012
748.332	0.0174716
748.410	0.0176688
748.488	0.0177700
748.566	0.0177831
748.644	0.0177667
748.723	0.0179764
748.801	0.0179883
748.879	0.0179688
748.957	0.0179352
749.035	0.0181118
749.113	0.0180701
749.191	0.0183177
749.269	0.0183773
749.348	0.0183891
749.426	0.0183673
749.504	0.0183578
749.582	0.0185001
749.660	0.0184608
749.738	0.0184995
749.816	0.0185686
749.894	0.0184730
749.973	0.0185293
750.051	0.0184612
750.129	0.0184236
750.207	0.0185776
750.285	0.0184371
750.363	0.0184323
750.441	0.0183112
750.519	0.0182533
750.598	0.0182781
750.676	0.0182812
750.754	0.0181468
750.832	0.0180206
750.910	0.0181026
750.988	0.0181836
751.066	0.0181785
751.144	0.0183022
751.223	0.0183135
751.301	0.0182792
751.379	0.0182676
751.457	0.0182260
751.535	0.0181992
751.613	0.0182724
751.691	0.0184058
751.769	0.0183053
751.848	0.0182018
751.926	0.0182665
752.004	0.0181925
752.082	0.0182229
752.160	0.0180347
752.238	0.0180553
752.316	0.0182253
752.394	0.0182224
752.473	0.0180918
752.551	0.0182288
752.629	0.0183474
752.707	0.0182960
752.785	0.0183391
752.863	0.0182311
752.941	0.0183271
753.019	0.0183195
753.098	0.0183208
753.176	0.0183620
753.254	0.0183817
753.332	0.0184277
753.410	0.0183218
753.488	0.0183466
753.566	0.0183559
753.644	0.0185211
753.723	0.0184306
753.801	0.0183103
753.879	0.0183791
753.957	0.0183733
754.035	0.0183320
754.113	0.0183895
754.191	0.0183036
754.269	0.0183336
754.348	0.0182417
754.426	0.0184314
754.504	0.0182991
754.582	0.0183554
754.660	0.0181950
754.738	0.0181293
754.816	0.0181366
754.894	0.0181088
754.973	0.0181686
755.051	0.0182240
755.129	0.0182861
755.207	0.0183524
755.285	0.0183095
755.363	0.0181942
755.441	0.0182244
755.519	0.0183659
755.598	0.0184672
755.676	0.0184326
755.754	0.0185033
755.832	0.0185989
755.910	0.0185179
755.988	0.0184583
756.066	0.0185918
756.144	0.0186607
756.223	0.0186042
756.301	0.0186252
756.379	0.0186868
756.457	0.0186207
756.535	0.0185667
756.613	0.0186804
756.691	0.0186507
756.769	0.0185658
756.848	0.0184213
756.926	0.0185897
757.004	0.0184035
757.082	0.0184254
757.160	0.0182645
757.238	0.0181078
757.316	0.0181888
757.394	0.0183585
757.473	0.0181365
757.551	0.0179483
757.629	0.0179733
757.707	0.0180118
757.785	0.0180714
757.863	0.0180447
757.941	0.0179958
758.019	0.0179788
758.098	0.0180492
758.176	0.0179958
758.254	0.0180672
758.332	0.0180055
758.410	0.0180038
758.488	0.0182034
758.566	0.0179880
758.644	0.0180825
758.723	0.0181306
758.801	0.0181291
758.879	0.0181729
758.957	0.0181519
759.035	0.0181540
759.113	0.0182020
759.191	0.0181710
759.269	0.0182193
759.348	0.0181950
759.426	0.0183403
759.504	0.0183897
759.582	0.0184056
759.660	0.0182203
759.738	0.0183668
759.816	0.0183782
759.894	0.0184180
759.973	0.0183454
760.051	0.0184409
760.129	0.0183903
760.207	0.0184636
760.285	0.0183643
760.363	0.0182625
760.441	0.0183575
760.519	0.0182755
760.598	0.0183418
760.676	0.0183762
760.754	0.0183199
760.832	0.0183313
760.910	0.0183570
760.988	0.0182166
761.066	0.0183598
761.144	0.0182959
761.223	0.0183382
761.301	0.0180552
761.379	0.0182063
761.457	0.0181804
761.535	0.0181607
761.613	0.0181642
761.691	0.0181110
761.769	0.0180743
761.848	0.0181738
761.926	0.0181261
762.004	0.0181109
762.082	0.0181448
762.160	0.0180840
762.238	0.0182595
762.316	0.0180987
762.394	0.0180814
762.473	0.0182294
762.551	0.0182790
762.629	0.0181940
762.707	0.0182663
762.785	0.0182732
762.863	0.0182783
762.941	0.0183172
763.019	0.0184283
763.098	0.0181641
763.176	0.0181780
763.254	0.0182401
763.332	0.0182365
763.410	0.0182405
763.488	0.0182016
763.566	0.0182565
763.644	0.0184359
763.723	0.0183858
763.801	0.0184518
763.879	0.0183763
763.957	0.0184939
764.035	0.0183688
764.113	0.0183279
764.191	0.0183965
764.269	0.0183487
764.348	0.0182618
764.426	0.0183403
764.504	0.0183622
764.582	0.0181725
764.660	0.0181402
764.738	0.0181675
764.816	0.0182549
764.894	0.0183881
764.973	0.0181757
765.051	0.0180357
765.129	0.0180960
765.207	0.0180787
765.285	0.0181168
765.363	0.0182121
765.441	0.0180671
765.519	0.0180573
765.598	0.0180815
765.676	0.0181723
765.754	0.0181853
765.832	0.0182198
765.910	0.0182677
765.988	0.0181794
766.066	0.0182194
766.144	0.0181783
766.223	0.0182207
766.301	0.0182581
766.379	0.0183181
766.457	0.0182970
766.535	0.0182075
766.613	0.0183230
766.691	0.0182570
766.769	0.0181849
766.848	0.0181598
766.926	0.0182669
767.004	0.0182431
767.082	0.0183537
767.160	0.0181947
767.238	0.0181662
767.316	0.0182498
767.394	0.0182252
767.473	0.0181946
767.551	0.0183574
767.629	0.0184494
767.707	0.0184613
767.785	0.0184464
767.863	0.0183569
767.941	0.0184002
768.019	0.0183611
768.098	0.0184305
768.176	0.0183760
768.254	0.0184116
768.332	0.0184494
768.410	0.0184190
768.488	0.0183994
768.566	0.0184048
768.644	0.0183295
768.723	0.0182421
768.801	0.0181750
768.879	0.0182265
768.957	0.0182510
769.035	0.0182397
769.113	0.0182058
769.191	0.0182938
769.269	0.0182335
769.348	0.0182301
769.426	0.0183647
769.504	0.0182781
769.582	0.0181656
769.660	0.0183190
769.738	0.0183159
769.816	0.0182786
769.894	0.0182253
769.973	0.0183050
770.051	0.0184578
770.129	0.0183414
770.207	0.0183810
770.285	0.0183415
770.363	0.0183614
770.441	0.0184589
770.519	0.0184550
770.598	0.0183876
770.676	0.0183842
770.754	0.0183923
770.832	0.0183250
770.910	0.0183270
770.988	0.0183218
771.066	0.0183035
771.144	0.0182928
771.223	0.0183091
771.301	0.0183696
771.379	0.0182130
771.457	0.0183117
771.535	0.0183263
771.613	0.0183359
771.691	0.0183624
771.769	0.0183148
771.848	0.0184757
771.926	0.0184574
772.004	0.0185181
772.082	0.0183565
772.160	0.0184185
772.238	0.0184151
772.316	0.0183650
772.394	0.0184883
772.473	0.0183899
772.551	0.0182720
772.629	0.0184116
772.707	0.0184251
772.785	0.0182096
772.863	0.0183075
772.941	0.0182520
773.019	0.0184261
773.098	0.0183413
773.176	0.0181384
773.254	0.0181459
773.332	0.0182358
773.410	0.0182276
773.488	0.0181207
773.566	0.0181548
773.644	0.0181645
773.723	0.0182716
773.801	0.0182652
773.879	0.0183472
773.957	0.0182423
774.035	0.0184145
774.113	0.0183891
774.191	0.0183955
774.269	0.0183808
774.348	0.0183981
774.426	0.0184880
774.504	0.0186312
774.582	0.0184534
774.660	0.0184948
774.738	0.0186099
774.816	0.0184635
774.894	0.0186337
774.973	0.0184246
775.051	0.0184708
775.129	0.0184127
775.207	0.0184466
775.285	0.0183723
775.363	0.0184724
775.441	0.0183422
775.519	0.0182912
775.598	0.0183235
775.676	0.0182909
775.754	0.0183940
775.832	0.0182835
775.910	0.0183866
775.988	0.0182014
776.066	0.0180814
776.144	0.0182688
776.223	0.0182580
776.301	0.0183100
776.379	0.0182099
776.457	0.0182288
776.535	0.0182277
776.613	0.0182497
776.691	0.0181976
776.769	0.0182241
776.848	0.0183453
776.926	0.0183411
777.004	0.0183360
777.082	0.0184227
777.160	0.0182005
777.238	0.0183309
777.316	0.0184830
777.394	0.0185371
777.473	0.0184453
777.551	0.0184623
777.629	0.0183940
777.707	0.0182822
777.785	0.0185683
777.863	0.0184449
777.941	0.0183974
778.019	0.0183186
778.098	0.0186253
778.176	0.0182915
778.254	0.0184572
778.332	0.0184557
778.410	0.0184876
778.488	0.0185727
778.566	0.0186060
778.644	0.0184393
778.723	0.0183597
778.801	0.0184124
778.879	0.0185728
778.957	0.0185429
779.035	0.0185273
779.113	0.0184007
779.191	0.0185045
779.269	0.0185602
779.348	0.0185423
779.426	0.0183406
779.504	0.0185043
779.582	0.0183302
779.660	0.0183504
779.738	0.0184924
779.816	0.0183301
779.894	0.0183182
779.973	0.0184376
780.051	0.0184019
780.129	0.0183771
780.207	0.0184209
780.285	0.0184196
780.363	0.0181318
780.441	0.0182356
780.519	0.0183635
780.598	0.0182160
780.676	0.0182555
780.754	0.0183529
780.832	0.0183751
780.910	0.0182650
780.988	0.0182200
781.066	0.0182583
781.144	0.0183511
781.223	0.0182751
781.301	0.0182496
781.379	0.0182623
781.457	0.0184551
781.535	0.0182720
781.613	0.0183670
781.691	0.0184740
781.769	0.0184943
781.848	0.0184457
781.926	0.0184653
782.004	0.0184332
782.082	0.0183661
782.160	0.0184187
782.238	0.0185336
782.316	0.0185779
782.394	0.0185502
782.473	0.0183469
782.551	0.0185655
782.629	0.0185336
782.707	0.0184287
782.785	0.0183512
782.863	0.0185765
782.941	0.0184631
783.019	0.0183766
783.098	0.0184570
783.176	0.0184608
783.254	0.0183325
783.332	0.0182810
783.410	0.0182526
783.488	0.0182456
783.566	0.0182233
783.644	0.0183031
783.723	0.0182914
783.801	0.0181538
783.879	0.0181760
783.957	0.0182240
784.035	0.0182022
784.113	0.0182087
784.191	0.0180886
784.269	0.0182011
784.348	0.0182063
784.426	0.0182510
784.504	0.0181136
784.582	0.0182251
784.660	0.0181912
784.738	0.0182720
784.816	0.0181384
784.894	0.0181519
784.973	0.0182479
785.051	0.0182836
785.129	0.0183555
785.207	0.0181375
785.285	0.0181358
785.363	0.0181712
785.441	0.0179961
785.519	0.0181576
785.598	0.0183340
785.676	0.0180102
785.754	0.0181137
785.832	0.0181442
785.910	0.0181598
785.988	0.0179929
786.066	0.0180802
786.144	0.0182077
786.223	0.0182012
786.301	0.0181091
786.379	0.0183091
786.457	0.0181715
786.535	0.0181778
786.613	0.0182315
786.691	0.0183876
786.769	0.0184202
786.848	0.0183534
786.926	0.0183078
787.004	0.0183795
787.082	0.0183363
787.160	0.0183040
787.238	0.0184566
787.316	0.0183869
787.394	0.0182558
787.473	0.0184343
787.551	0.0185048
787.629	0.0184563
787.707	0.0183942
787.785	0.0183338
787.863	0.0183875
787.941	0.0183459
788.019	0.0184142
788.098	0.0183465
788.176	0.0184558
788.254	0.0184180
788.332	0.0183033
788.410	0.0182957
788.488	0.0183241
788.566	0.0184171
788.644	0.0183697
788.723	0.0183545
788.801	0.0184059
788.879	0.0184866
788.957	0.0184132
789.035	0.0183110
789.113	0.0183308
789.191	0.0182873
789.269	0.0183557
789.348	0.0183640
789.426	0.0182168
789.504	0.0183238
789.582	0.0182680
789.660	0.0182602
789.738	0.0181465
789.816	0.0182016
789.894	0.0182823
789.973	0.0179450
790.051	0.0181667
790.129	0.0181779
790.207	0.0183886
790.285	0.0182644
790.363	0.0182008
790.441	0.0182640
790.519	0.0182685
790.598	0.0184370
790.676	0.0184005
790.754	0.0185291
790.832	0.0183797
790.910	0.0184202
790.988	0.0183953
791.066	0.0184016
791.144	0.0184321
791.223	0.0184378
791.301	0.0184762
791.379	0.0184414
791.457	0.0184209
791.535	0.0183578
791.613	0.0183372
791.691	0.0184344
791.769	0.0185925
791.848	0.0182548
791.926	0.0184571
792.004	0.0181992
792.082	0.0184262
792.160	0.0183107
792.238	0.0184994
792.316	0.0184039
792.394	0.0185302
792.473	0.0185687
792.551	0.0184022
792.629	0.0185047
792.707	0.0184122
792.785	0.0184643
792.863	0.0184019
792.941	0.0183947
793.019	0.0184213
793.098	0.0184515
793.176	0.0183556
793.254	0.0183263
793.332	0.0184660
793.410	0.0182996
793.488	0.0184045
793.566	0.0183308
793.644	0.0182271
793.723	0.0182802
793.801	0.0181684
793.879	0.0182799
793.957	0.0181783
794.035	0.0182199
794.113	0.0182085
794.191	0.0181638
794.269	0.0181242
794.348	0.0181042
794.426	0.0181155
794.504	0.0181979
794.582	0.0181123
794.660	0.0181327
794.738	0.0181936
794.816	0.0182447
794.894	0.0182501
794.973	0.0183141
795.051	0.0182823
795.129	0.0183066
795.207	0.0183846
795.285	0.0184257
795.363	0.0183079
795.441	0.0183506
795.519	0.0183468
795.598	0.0184187
795.676	0.0184853
795.754	0.0185010
795.832	0.0184425
795.910	0.0184259
795.988	0.0183904
796.066	0.0183346
796.144	0.0183537
796.223	0.0183408
796.301	0.0184739
796.379	0.0182993
796.457	0.0183272
796.535	0.0183307
796.613	0.0181326
796.691	0.0183112
796.769	0.0182674
796.848	0.0182822
796.926	0.0182179
797.004	0.0182289
797.082	0.0182087
797.160	0.0183030
797.238	0.0182300
797.316	0.0182478
797.394	0.0182474
797.473	0.0183566
797.551	0.0183322
797.629	0.0183186
797.707	0.0183858
797.785	0.0183571
797.863	0.0183888
797.941	0.0182632
798.019	0.0183257
798.098	0.0184129
798.176	0.0184287
798.254	0.0183429
798.332	0.0183566
798.410	0.0183416
798.488	0.0184683
798.566	0.0184425
798.644	0.0183067
798.723	0.0183128
798.801	0.0183533
798.879	0.0184052
798.957	0.0184789
799.035	0.0183912
799.113	0.0183881
799.191	0.0183372
799.269	0.0184648
799.348	0.0182623
799.426	0.0184080
799.504	0.0184458
799.582	0.0184182
799.660	0.0183807
799.738	0.0183813
799.816	0.0183915
799.894	0.0183337
799.973	0.0183813
800.051	0.0183238
800.129	0.0182020
800.207	0.0182494
800.285	0.0183662
800.363	0.0182047
800.441	0.0181590
800.519	0.0182525
800.598	0.0182380
800.676	0.0183127
800.754	0.0180825
800.832	0.0181754
800.910	0.0182358
800.988	0.0182780
801.066	0.0181793
801.144	0.0181534
801.223	0.0182903
801.301	0.0181739
801.379	0.0182518
801.457	0.0181626
801.535	0.0181705
801.613	0.0182560
801.691	0.0182178
801.769	0.0183804
801.848	0.0183238
801.926	0.0183625
802.004	0.0182583
802.082	0.0183121
802.160	0.0183049
802.238	0.0183908
802.316	0.0183112
802.394	0.0183816
802.473	0.0184147
802.551	0.0184676
802.629	0.0183988
802.707	0.0184058
802.785	0.0185517
802.863	0.0185442
802.941	0.0183943
803.019	0.0184542
803.098	0.0185397
803.176	0.0185613
803.254	0.0184871
803.332	0.0182987
803.410	0.0185876
803.488	0.0184549
803.566	0.0183511
803.644	0.0182851
803.723	0.0183424
803.801	0.0183434
803.879	0.0182461
803.957	0.0181914
804.035	0.0181490
804.113	0.0182239
804.191	0.0181567
804.269	0.0180980
804.348	0.0180975
804.426	0.0182056
804.504	0.0182000
804.582	0.0180450
804.660	0.0180929
804.738	0.0183054
804.816	0.0182741
804.894	0.0182224
804.973	0.0183015
805.051	0.0182634
805.129	0.0181236
805.207	0.0182279
805.285	0.0182029
805.363	0.0182516
805.441	0.0183492
805.519	0.0183537
805.598	0.0183862
805.676	0.0183115
805.754	0.0184144
805.832	0.0183792
805.910	0.0182684
805.988	0.0183556
806.066	0.0183680
806.144	0.0183572
806.223	0.0185136
806.301	0.0183546
806.379	0.0181567
806.457	0.0181287
806.535	0.0181749
806.613	0.0182571
806.691	0.0181399
806.769	0.0182094
806.848	0.0180677
806.926	0.0182652
807.004	0.0181799
807.082	0.0181329
807.160	0.0181846
807.238	0.0181702
807.316	0.0181055
807.394	0.0182159
807.473	0.0183264
807.551	0.0182533
807.629	0.0182860
807.707	0.0181831
807.785	0.0183276
807.863	0.0183672
807.941	0.0182522
808.019	0.0185004
808.098	0.0185400
808.176	0.0184560
808.254	0.0183138
808.332	0.0183241
808.410	0.0183131
808.488	0.0184077
808.566	0.0183418
808.644	0.0182356
808.723	0.0184019
808.801	0.0182471
808.879	0.0182767
808.957	0.0182695
809.035	0.0181750
809.113	0.0182452
809.191	0.0182371
809.269	0.0183840
809.348	0.0183129
809.426	0.0182385
809.504	0.0182425
809.582	0.0181651
809.660	0.0182441
809.738	0.0182819
809.816	0.0183479
809.894	0.0181680
809.973	0.0181889
810.051	0.0182327
810.129	0.0181919
810.207	0.0183130
810.285	0.0181584
810.363	0.0181398
810.441	0.0183495
810.519	0.0182732
810.598	0.0182570
810.676	0.0182657
810.754	0.0183699
810.832	0.0184371
810.910	0.0183349
810.988	0.0184825
811.066	0.0185441
811.144	0.0183949
811.223	0.0184438
811.301	0.0183755
811.379	0.0184466
811.457	0.0186532
811.535	0.0183659
811.613	0.0183742
811.691	0.0183829
811.769	0.0183664
811.848	0.0186231
811.926	0.0183802
812.004	0.0182661
812.082	0.0183656
812.160	0.0183321
812.238	0.0182925
812.316	0.0182828
812.394	0.0182916
812.473	0.0181293
812.551	0.0183188
812.629	0.0181356
812.707	0.0181261
812.785	0.0182149
812.863	0.0180920
812.941	0.0182217
813.019	0.0181768
813.098	0.0181271
813.176	0.0182088
813.254	0.0182243
813.332	0.0183313
813.410	0.0181769
813.488	0.0182281
813.566	0.0183320
813.644	0.0184003
813.723	0.0182933
813.801	0.0183589
813.879	0.0183956
813.957	0.0183234
814.035	0.0183926
814.113	0.0183931
814.191	0.0184435
814.269	0.0184362
814.348	0.0184927
814.426	0.0185147
814.504	0.0185258
814.582	0.0184043
814.660	0.0184576
814.738	0.0183572
814.816	0.0184646
814.894	0.0184051
814.973	0.0183654
815.051	0.0182967
815.129	0.0183802
815.207	0.0183516
815.285	0.0184133
815.363	0.0182578
815.441	0.0182375
815.519	0.0182574
815.598	0.0182136
815.676	0.0181992
815.754	0.0182191
815.832	0.0182090
815.910	0.0183492
815.988	0.0183948
816.066	0.0183840
816.144	0.0183319
816.223	0.0181987
816.301	0.0183108
816.379	0.0183627
816.457	0.0181734
816.535	0.0182702
816.613	0.0182877
816.691	0.0182250
816.769	0.0182380
816.848	0.0182065
816.926	0.0181855
817.004	0.0181840
817.082	0.0181464
817.160	0.0182519
817.238	0.0182269
817.316	0.0182471
817.394	0.0181841
817.473	0.0181430
817.551	0.0182300
817.629	0.0181694
817.707	0.0180830
817.785	0.0181684
817.863	0.0181065
817.941	0.0181113
818.019	0.0182783
818.098	0.0182160
818.176	0.0180881
818.254	0.0181102
818.332	0.0181194
818.410	0.0180978
818.488	0.0180744
818.566	0.0181299
818.644	0.0182392
818.723	0.0182577
818.801	0.0181946
818.879	0.0183140
818.957	0.0184496
819.035	0.0183685
819.113	0.0183021
819.191	0.0183312
819.269	0.0183210
819.348	0.0183760
819.426	0.0183795
819.504	0.0183556
819.582	0.0183735
819.660	0.0183179
819.738	0.0181606
819.816	0.0182072
819.894	0.0182331
