06/03/2022	18:45:25	Ver.	4.1	UNKNOWN
Optical Delay	499.972551	Delta X		0.078125	Sweeps	1	Scan Rate	0/0
Coordinates	Axis 1	NaN	Axis 2	NaN	Axis 3	NaN	Axis 4	NaN	Axis 5	NaN	Axis 6	0.000000
TX Power	0.000000	RX Power	0.000000

499.973	0.0182460
500.051	0.0184599
500.129	0.0183807
500.207	0.0182912
500.285	0.0181619
500.363	0.0183588
500.441	0.0182780
500.519	0.0183301
500.598	0.0184358
500.676	0.0183527
500.754	0.0182843
500.832	0.0182946
500.910	0.0182673
500.988	0.0182195
501.066	0.0183028
501.144	0.0182511
501.223	0.0182867
501.301	0.0182232
501.379	0.0182360
501.457	0.0182354
501.535	0.0183923
501.613	0.0181990
501.691	0.0181993
501.769	0.0183559
501.848	0.0182063
501.926	0.0182102
502.004	0.0181832
502.082	0.0182664
502.160	0.0182040
502.238	0.0181509
502.316	0.0181534
502.394	0.0180831
502.473	0.0182143
502.551	0.0181166
502.629	0.0181628
502.707	0.0182011
502.785	0.0180635
502.863	0.0180415
502.941	0.0181522
503.019	0.0181804
503.098	0.0179552
503.176	0.0179728
503.254	0.0181257
503.332	0.0181165
503.410	0.0181436
503.488	0.0181391
503.566	0.0181759
503.644	0.0180162
503.723	0.0181064
503.801	0.0180201
503.879	0.0180682
503.957	0.0179771
504.035	0.0180727
504.113	0.0180190
504.191	0.0181200
504.269	0.0179747
504.348	0.0179372
504.426	0.0180161
504.504	0.0179617
504.582	0.0180328
504.660	0.0179308
504.738	0.0180307
504.816	0.0180556
504.894	0.0180093
504.973	0.0179773
505.051	0.0179578
505.129	0.0178493
505.207	0.0178187
505.285	0.0178924
505.363	0.0180187
505.441	0.0180154
505.519	0.0178794
505.598	0.0179108
505.676	0.0179087
505.754	0.0179160
505.832	0.0179266
505.910	0.0179049
505.988	0.0179424
506.066	0.0178860
506.144	0.0179530
506.223	0.0178341
506.301	0.0179811
506.379	0.0178304
506.457	0.0179076
506.535	0.0178793
506.613	0.0177193
506.691	0.0178879
506.769	0.0177000
506.848	0.0177418
506.926	0.0178802
507.004	0.0177151
507.082	0.0176767
507.160	0.0178618
507.238	0.0178770
507.316	0.0177766
507.394	0.0177880
507.473	0.0177899
507.551	0.0177420
507.629	0.0177625
507.707	0.0176583
507.785	0.0176546
507.863	0.0177850
507.941	0.0178590
508.019	0.0178291
508.098	0.0177178
508.176	0.0177577
508.254	0.0177548
508.332	0.0176447
508.410	0.0176855
508.488	0.0176406
508.566	0.0176884
508.644	0.0177647
508.723	0.0177895
508.801	0.0176637
508.879	0.0177927
508.957	0.0176344
509.035	0.0177164
509.113	0.0177777
509.191	0.0177348
509.269	0.0177103
509.348	0.0176743
509.426	0.0176842
509.504	0.0176827
509.582	0.0176717
509.660	0.0177107
509.738	0.0177278
509.816	0.0177573
509.894	0.0177543
509.973	0.0176940
510.051	0.0178049
510.129	0.0178206
510.207	0.0178593
510.285	0.0178506
510.363	0.0177978
510.441	0.0177896
510.519	0.0178126
510.598	0.0179962
510.676	0.0179485
510.754	0.0178035
510.832	0.0178954
510.910	0.0179332
510.988	0.0178703
511.066	0.0179619
511.144	0.0178917
511.223	0.0178680
511.301	0.0179733
511.379	0.0179545
511.457	0.0180390
511.535	0.0179375
511.613	0.0178954
511.691	0.0181236
511.769	0.0180519
511.848	0.0180887
511.926	0.0180483
512.004	0.0180991
512.082	0.0181555
512.160	0.0181386
512.238	0.0181995
512.316	0.0181805
512.394	0.0181380
512.473	0.0183674
512.551	0.0183304
512.629	0.0181961
512.707	0.0183263
512.785	0.0183124
512.863	0.0184206
512.941	0.0182673
513.019	0.0182729
513.098	0.0184351
513.176	0.0184617
513.254	0.0185675
513.332	0.0184301
513.410	0.0185740
513.488	0.0185189
513.566	0.0186715
513.644	0.0186327
513.723	0.0185852
513.801	0.0185367
513.879	0.0186446
513.957	0.0186127
514.035	0.0185445
514.113	0.0185175
514.191	0.0186059
514.269	0.0186410
514.348	0.0184959
514.426	0.0186076
514.504	0.0185991
514.582	0.0187036
514.660	0.0185109
514.738	0.0186287
514.816	0.0184891
514.894	0.0185078
514.973	0.0185920
515.051	0.0185427
515.129	0.0184904
515.207	0.0184717
515.285	0.0182570
515.363	0.0181852
515.441	0.0183250
515.519	0.0183935
515.598	0.0183875
515.676	0.0182494
515.754	0.0182550
515.832	0.0184041
515.910	0.0183765
515.988	0.0182703
516.066	0.0183263
516.144	0.0181645
516.223	0.0183207
516.301	0.0183824
516.379	0.0182728
516.457	0.0183199
516.535	0.0182069
516.613	0.0184251
516.691	0.0182887
516.769	0.0183968
516.848	0.0183943
516.926	0.0182494
517.004	0.0182438
517.082	0.0183099
517.160	0.0183543
517.238	0.0182175
517.316	0.0182111
517.394	0.0181205
517.473	0.0181789
517.551	0.0182697
517.629	0.0181060
517.707	0.0181480
517.785	0.0181349
517.863	0.0180943
517.941	0.0181724
518.019	0.0182228
518.098	0.0179808
518.176	0.0180218
518.254	0.0179250
518.332	0.0181371
518.410	0.0179766
518.488	0.0179379
518.566	0.0178979
518.644	0.0181077
518.723	0.0180079
518.801	0.0180219
518.879	0.0180523
518.957	0.0179131
519.035	0.0179816
519.113	0.0179821
519.191	0.0180727
519.269	0.0180312
519.348	0.0179124
519.426	0.0178886
519.504	0.0179433
519.582	0.0179814
519.660	0.0179408
519.738	0.0179977
519.816	0.0179807
519.894	0.0178993
519.973	0.0179534
520.051	0.0178256
520.129	0.0180261
520.207	0.0179400
520.285	0.0180734
520.363	0.0182053
520.441	0.0179549
520.519	0.0179944
520.598	0.0180145
520.676	0.0179736
520.754	0.0180750
520.832	0.0180290
520.910	0.0180791
520.988	0.0181101
521.066	0.0179968
521.144	0.0180231
521.223	0.0180862
521.301	0.0181419
521.379	0.0181396
521.457	0.0180011
521.535	0.0181071
521.613	0.0181482
521.691	0.0180266
521.769	0.0182739
521.848	0.0182780
521.926	0.0180951
522.004	0.0181126
522.082	0.0182987
522.160	0.0181747
522.238	0.0181839
522.316	0.0182740
522.394	0.0183810
522.473	0.0181774
522.551	0.0183020
522.629	0.0183200
522.707	0.0183234
522.785	0.0183179
522.863	0.0184919
522.941	0.0182458
523.019	0.0183541
523.098	0.0184355
523.176	0.0184072
523.254	0.0184386
523.332	0.0185246
523.410	0.0184774
523.488	0.0184174
523.566	0.0184808
523.644	0.0184242
523.723	0.0184208
523.801	0.0184853
523.879	0.0185432
523.957	0.0185596
524.035	0.0185017
524.113	0.0183234
524.191	0.0184091
524.269	0.0185493
524.348	0.0183977
524.426	0.0185184
524.504	0.0184074
524.582	0.0182223
524.660	0.0184252
524.738	0.0182417
524.816	0.0182732
524.894	0.0184061
524.973	0.0182806
525.051	0.0181149
525.129	0.0181477
525.207	0.0180694
525.285	0.0181905
525.363	0.0181090
525.441	0.0180949
525.519	0.0181541
525.598	0.0182476
525.676	0.0181863
525.754	0.0181300
525.832	0.0180724
525.910	0.0181340
525.988	0.0180961
526.066	0.0180219
526.144	0.0180171
526.223	0.0180152
526.301	0.0179233
526.379	0.0179744
526.457	0.0179142
526.535	0.0178844
526.613	0.0180299
526.691	0.0178344
526.769	0.0178548
526.848	0.0178333
526.926	0.0179308
527.004	0.0178718
527.082	0.0178187
527.160	0.0177663
527.238	0.0176936
527.316	0.0177086
527.394	0.0177988
527.473	0.0178620
527.551	0.0177628
527.629	0.0176488
527.707	0.0178024
527.785	0.0178123
527.863	0.0177509
527.941	0.0177700
528.019	0.0178281
528.098	0.0177324
528.176	0.0176244
528.254	0.0178173
528.332	0.0178565
528.410	0.0178262
528.488	0.0177963
528.566	0.0176857
528.644	0.0177611
528.723	0.0178476
528.801	0.0177916
528.879	0.0177828
528.957	0.0179413
529.035	0.0178716
529.113	0.0179742
529.191	0.0180292
529.269	0.0178909
529.348	0.0178737
529.426	0.0179588
529.504	0.0180359
529.582	0.0180958
529.660	0.0180197
529.738	0.0180210
529.816	0.0180556
529.894	0.0181580
529.973	0.0179449
530.051	0.0180420
530.129	0.0181119
530.207	0.0182139
530.285	0.0180774
530.363	0.0181310
530.441	0.0181255
530.519	0.0182504
530.598	0.0182518
530.676	0.0181825
530.754	0.0182664
530.832	0.0182986
530.910	0.0182938
530.988	0.0184745
531.066	0.0183652
531.144	0.0181273
531.223	0.0182542
531.301	0.0183164
531.379	0.0183367
531.457	0.0182793
531.535	0.0181918
531.613	0.0182515
531.691	0.0181892
531.769	0.0182304
531.848	0.0182697
531.926	0.0182233
532.004	0.0182351
532.082	0.0181517
532.160	0.0182238
532.238	0.0182402
532.316	0.0181057
532.394	0.0182413
532.473	0.0181213
532.551	0.0181928
532.629	0.0182201
532.707	0.0182787
532.785	0.0182848
532.863	0.0182477
532.941	0.0182798
533.019	0.0182831
533.098	0.0181983
533.176	0.0183499
533.254	0.0182130
533.332	0.0184682
533.410	0.0184583
533.488	0.0183540
533.566	0.0183218
533.644	0.0181960
533.723	0.0183119
533.801	0.0183002
533.879	0.0182848
533.957	0.0182484
534.035	0.0182278
534.113	0.0183222
534.191	0.0181128
534.269	0.0182067
534.348	0.0181831
534.426	0.0182152
534.504	0.0182355
534.582	0.0183275
534.660	0.0181480
534.738	0.0181245
534.816	0.0182134
534.894	0.0181666
534.973	0.0180750
535.051	0.0181248
535.129	0.0180251
535.207	0.0181275
535.285	0.0179502
535.363	0.0180698
535.441	0.0179578
535.519	0.0179079
535.598	0.0178845
535.676	0.0179144
535.754	0.0178954
535.832	0.0179632
535.910	0.0180522
535.988	0.0179474
536.066	0.0178619
536.144	0.0178437
536.223	0.0178749
536.301	0.0179092
536.379	0.0178343
536.457	0.0178815
536.535	0.0178312
536.613	0.0178286
536.691	0.0178646
536.769	0.0179781
536.848	0.0179587
536.926	0.0179269
537.004	0.0181091
537.082	0.0178635
537.160	0.0179449
537.238	0.0179742
537.316	0.0179680
537.394	0.0180341
537.473	0.0180981
537.551	0.0180599
537.629	0.0179746
537.707	0.0180170
537.785	0.0179612
537.863	0.0180580
537.941	0.0181262
538.019	0.0180244
538.098	0.0180330
538.176	0.0181242
538.254	0.0180753
538.332	0.0181956
538.410	0.0181750
538.488	0.0182129
538.566	0.0181534
538.644	0.0182257
538.723	0.0182859
538.801	0.0182480
538.879	0.0182446
538.957	0.0182389
539.035	0.0183923
539.113	0.0183885
539.191	0.0183109
539.269	0.0182299
539.348	0.0182057
539.426	0.0182699
539.504	0.0183495
539.582	0.0182213
539.660	0.0182098
539.738	0.0181917
539.816	0.0183095
539.894	0.0181998
539.973	0.0183196
540.051	0.0181493
540.129	0.0182043
540.207	0.0181777
540.285	0.0182631
540.363	0.0183065
540.441	0.0181658
540.519	0.0182449
540.598	0.0181847
540.676	0.0182404
540.754	0.0182827
540.832	0.0181549
540.910	0.0183914
540.988	0.0183498
541.066	0.0182516
541.144	0.0183770
541.223	0.0183947
541.301	0.0182339
541.379	0.0182542
541.457	0.0183073
541.535	0.0184129
541.613	0.0182912
541.691	0.0182279
541.769	0.0182802
541.848	0.0182304
541.926	0.0183146
542.004	0.0182440
542.082	0.0182683
542.160	0.0181847
542.238	0.0182435
542.316	0.0181962
542.394	0.0182399
542.473	0.0181292
542.551	0.0182402
542.629	0.0183105
542.707	0.0181894
542.785	0.0181583
542.863	0.0182817
542.941	0.0183472
543.019	0.0181088
543.098	0.0181734
543.176	0.0181913
543.254	0.0181873
543.332	0.0183354
543.410	0.0181328
543.488	0.0181217
543.566	0.0180932
543.644	0.0183572
543.723	0.0183048
543.801	0.0182224
543.879	0.0179884
543.957	0.0181932
544.035	0.0183103
544.113	0.0182066
544.191	0.0180869
544.269	0.0180300
544.348	0.0182206
544.426	0.0182513
544.504	0.0181182
544.582	0.0181487
544.660	0.0182012
544.738	0.0181612
544.816	0.0180582
544.894	0.0180601
544.973	0.0182276
545.051	0.0181210
545.129	0.0182745
545.207	0.0181450
545.285	0.0179723
545.363	0.0181094
545.441	0.0182297
545.519	0.0181867
545.598	0.0180591
545.676	0.0180841
545.754	0.0183349
545.832	0.0182155
545.910	0.0180434
545.988	0.0182249
546.066	0.0181873
546.144	0.0181096
546.223	0.0180883
546.301	0.0181300
546.379	0.0182896
546.457	0.0180442
546.535	0.0181397
546.613	0.0181676
546.691	0.0181377
546.769	0.0182565
546.848	0.0181028
546.926	0.0180312
547.004	0.0181213
547.082	0.0181248
547.160	0.0181110
547.238	0.0181721
547.316	0.0182121
547.394	0.0180694
547.473	0.0181155
547.551	0.0181248
547.629	0.0181991
547.707	0.0181242
547.785	0.0181618
547.863	0.0182497
547.941	0.0181541
548.019	0.0180278
548.098	0.0181039
548.176	0.0180124
548.254	0.0181754
548.332	0.0182064
548.410	0.0181612
548.488	0.0182117
548.566	0.0182264
548.644	0.0181418
548.723	0.0180157
548.801	0.0180615
548.879	0.0181852
548.957	0.0182124
549.035	0.0181219
549.113	0.0180041
549.191	0.0181052
549.269	0.0181252
549.348	0.0181416
549.426	0.0181699
549.504	0.0181298
549.582	0.0180924
549.660	0.0182442
549.738	0.0180914
549.816	0.0180838
549.894	0.0181744
549.973	0.0181649
550.051	0.0179903
550.129	0.0179921
550.207	0.0181602
550.285	0.0180820
550.363	0.0180887
550.441	0.0180598
550.519	0.0180311
550.598	0.0180762
550.676	0.0181685
550.754	0.0181308
550.832	0.0178987
550.910	0.0180820
550.988	0.0179885
551.066	0.0180595
551.144	0.0180408
551.223	0.0180073
551.301	0.0179164
551.379	0.0180575
551.457	0.0177939
551.535	0.0179165
551.613	0.0180798
551.691	0.0181043
551.769	0.0180318
551.848	0.0181284
551.926	0.0180690
552.004	0.0181109
552.082	0.0181013
552.160	0.0182001
552.238	0.0180672
552.316	0.0180831
552.394	0.0181017
552.473	0.0179652
552.551	0.0180634
552.629	0.0181681
552.707	0.0181679
552.785	0.0182484
552.863	0.0182716
552.941	0.0180986
553.019	0.0182801
553.098	0.0182330
553.176	0.0181158
553.254	0.0182510
553.332	0.0183169
553.410	0.0182101
553.488	0.0182561
553.566	0.0181864
553.644	0.0182817
553.723	0.0182342
553.801	0.0182145
553.879	0.0183087
553.957	0.0182475
554.035	0.0183020
554.113	0.0182810
554.191	0.0183302
554.269	0.0183469
554.348	0.0184042
554.426	0.0183169
554.504	0.0182107
554.582	0.0181889
554.660	0.0183074
554.738	0.0182531
554.816	0.0182253
554.894	0.0182211
554.973	0.0183037
555.051	0.0182408
555.129	0.0181528
555.207	0.0182257
555.285	0.0182452
555.363	0.0182185
555.441	0.0180809
555.519	0.0181523
555.598	0.0182803
555.676	0.0182520
555.754	0.0181889
555.832	0.0182717
555.910	0.0180077
555.988	0.0180069
556.066	0.0179456
556.144	0.0181742
556.223	0.0181745
556.301	0.0181994
556.379	0.0181176
556.457	0.0179467
556.535	0.0181102
556.613	0.0179523
556.691	0.0180582
556.769	0.0181319
556.848	0.0180265
556.926	0.0178887
557.004	0.0180116
557.082	0.0178040
557.160	0.0178088
557.238	0.0178714
557.316	0.0178032
557.394	0.0178893
557.473	0.0177009
557.551	0.0176875
557.629	0.0178809
557.707	0.0178045
557.785	0.0177076
557.863	0.0178114
557.941	0.0176157
558.019	0.0176633
558.098	0.0177156
558.176	0.0177019
558.254	0.0177273
558.332	0.0176268
558.410	0.0177510
558.488	0.0177130
558.566	0.0177821
558.644	0.0176022
558.723	0.0177014
558.801	0.0176935
558.879	0.0176864
558.957	0.0176374
559.035	0.0175949
559.113	0.0178426
559.191	0.0177744
559.269	0.0178667
559.348	0.0176704
559.426	0.0177100
559.504	0.0177110
559.582	0.0178970
559.660	0.0178143
559.738	0.0178729
559.816	0.0178845
559.894	0.0178828
559.973	0.0178017
560.051	0.0179005
560.129	0.0179152
560.207	0.0179404
560.285	0.0178773
560.363	0.0179807
560.441	0.0179203
560.519	0.0180186
560.598	0.0178938
560.676	0.0178860
560.754	0.0179622
560.832	0.0179635
560.910	0.0179471
560.988	0.0179694
561.066	0.0181493
561.144	0.0180301
561.223	0.0179952
561.301	0.0181495
561.379	0.0181335
561.457	0.0181763
561.535	0.0181659
561.613	0.0181582
561.691	0.0182604
561.769	0.0181586
561.848	0.0180772
561.926	0.0181977
562.004	0.0183664
562.082	0.0182160
562.160	0.0180979
562.238	0.0182851
562.316	0.0181319
562.394	0.0181579
562.473	0.0182874
562.551	0.0182796
562.629	0.0182333
562.707	0.0183469
562.785	0.0183606
562.863	0.0183686
562.941	0.0182788
563.019	0.0183738
563.098	0.0183974
563.176	0.0183312
563.254	0.0184051
563.332	0.0183792
563.410	0.0181756
563.488	0.0182130
563.566	0.0184086
563.644	0.0182278
563.723	0.0182727
563.801	0.0183188
563.879	0.0183180
563.957	0.0182446
564.035	0.0183305
564.113	0.0183575
564.191	0.0182390
564.269	0.0180843
564.348	0.0182489
564.426	0.0181419
564.504	0.0182211
564.582	0.0181738
564.660	0.0183229
564.738	0.0182475
564.816	0.0182365
564.894	0.0183470
564.973	0.0181705
565.051	0.0181895
565.129	0.0182461
565.207	0.0182660
565.285	0.0182198
565.363	0.0183863
565.441	0.0183045
565.519	0.0182554
565.598	0.0183246
565.676	0.0181765
565.754	0.0183062
565.832	0.0182751
565.910	0.0183514
565.988	0.0183845
566.066	0.0182208
566.144	0.0182388
566.223	0.0181509
566.301	0.0180984
566.379	0.0182207
566.457	0.0181806
566.535	0.0182861
566.613	0.0181867
566.691	0.0182167
566.769	0.0181758
566.848	0.0181718
566.926	0.0181558
567.004	0.0181424
567.082	0.0182457
567.160	0.0181102
567.238	0.0182342
567.316	0.0180729
567.394	0.0180767
567.473	0.0181273
567.551	0.0181423
567.629	0.0180235
567.707	0.0180785
567.785	0.0181744
567.863	0.0180018
567.941	0.0180515
568.019	0.0179977
568.098	0.0180873
568.176	0.0180363
568.254	0.0181549
568.332	0.0180283
568.410	0.0182071
568.488	0.0179871
568.566	0.0180071
568.644	0.0181778
568.723	0.0181675
568.801	0.0179434
568.879	0.0181379
568.957	0.0180849
569.035	0.0180528
569.113	0.0180104
569.191	0.0180900
569.269	0.0179710
569.348	0.0181178
569.426	0.0181488
569.504	0.0180869
569.582	0.0178880
569.660	0.0179702
569.738	0.0181430
569.816	0.0180297
569.894	0.0180715
569.973	0.0179654
570.051	0.0180566
570.129	0.0179739
570.207	0.0181419
570.285	0.0179941
570.363	0.0180820
570.441	0.0180318
570.519	0.0180739
570.598	0.0180719
570.676	0.0180419
570.754	0.0181160
570.832	0.0179473
570.910	0.0180032
570.988	0.0179660
571.066	0.0181041
571.144	0.0180633
571.223	0.0180609
571.301	0.0180484
571.379	0.0180605
571.457	0.0180061
571.535	0.0181807
571.613	0.0180233
571.691	0.0179723
571.769	0.0179957
571.848	0.0180730
571.926	0.0179906
572.004	0.0180421
572.082	0.0180381
572.160	0.0179312
572.238	0.0181416
572.316	0.0180945
572.394	0.0180562
572.473	0.0180524
572.551	0.0180147
572.629	0.0179871
572.707	0.0181783
572.785	0.0180511
572.863	0.0181548
572.941	0.0179997
573.019	0.0181190
573.098	0.0180244
573.176	0.0182372
573.254	0.0181633
573.332	0.0181803
573.410	0.0180758
573.488	0.0180939
573.566	0.0181757
573.644	0.0180706
573.723	0.0182240
573.801	0.0180693
573.879	0.0180905
573.957	0.0181722
574.035	0.0180694
574.113	0.0181828
574.191	0.0183390
574.269	0.0180713
574.348	0.0182687
574.426	0.0182047
574.504	0.0181285
574.582	0.0181503
574.660	0.0182976
574.738	0.0181633
574.816	0.0180726
574.894	0.0183222
574.973	0.0182858
575.051	0.0181473
575.129	0.0180956
575.207	0.0181551
575.285	0.0182593
575.363	0.0181953
575.441	0.0181402
575.519	0.0181606
575.598	0.0181575
575.676	0.0182156
575.754	0.0181868
575.832	0.0182314
575.910	0.0181826
575.988	0.0181815
576.066	0.0182230
576.144	0.0181779
576.223	0.0182086
576.301	0.0181303
576.379	0.0181908
576.457	0.0182904
576.535	0.0182471
576.613	0.0181745
576.691	0.0181966
576.769	0.0182373
576.848	0.0181696
576.926	0.0181046
577.004	0.0181556
577.082	0.0181969
577.160	0.0183410
577.238	0.0182087
577.316	0.0181703
577.394	0.0182336
577.473	0.0181259
577.551	0.0182436
577.629	0.0182491
577.707	0.0182394
577.785	0.0180789
577.863	0.0180543
577.941	0.0181147
578.019	0.0182439
578.098	0.0181808
578.176	0.0180972
578.254	0.0181811
578.332	0.0181277
578.410	0.0181454
578.488	0.0180914
578.566	0.0181796
578.644	0.0178716
578.723	0.0180007
578.801	0.0179642
578.879	0.0178376
578.957	0.0180126
579.035	0.0179327
579.113	0.0178387
579.191	0.0178602
579.269	0.0179964
579.348	0.0178950
579.426	0.0179581
579.504	0.0179651
579.582	0.0178726
579.660	0.0179060
579.738	0.0178384
579.816	0.0178326
579.894	0.0179499
579.973	0.0178334
580.051	0.0178980
580.129	0.0179805
580.207	0.0179154
580.285	0.0178820
580.363	0.0178047
580.441	0.0178835
580.519	0.0178212
580.598	0.0178124
580.676	0.0178717
580.754	0.0178661
580.832	0.0177464
580.910	0.0178309
580.988	0.0176371
581.066	0.0177009
581.144	0.0178173
581.223	0.0177403
581.301	0.0177290
581.379	0.0176761
581.457	0.0177940
581.535	0.0177710
581.613	0.0177044
581.691	0.0178164
581.769	0.0177811
581.848	0.0177193
581.926	0.0178004
582.004	0.0176542
582.082	0.0177789
582.160	0.0177412
582.238	0.0178249
582.316	0.0178318
582.394	0.0177261
582.473	0.0179134
582.551	0.0178458
582.629	0.0177840
582.707	0.0178538
582.785	0.0178563
582.863	0.0177681
582.941	0.0178530
583.019	0.0177411
583.098	0.0178032
583.176	0.0178445
583.254	0.0178735
583.332	0.0178448
583.410	0.0179329
583.488	0.0179507
583.566	0.0180009
583.644	0.0180215
583.723	0.0179491
583.801	0.0177612
583.879	0.0179513
583.957	0.0180853
584.035	0.0180312
584.113	0.0180260
584.191	0.0179964
584.269	0.0180413
584.348	0.0179257
584.426	0.0180140
584.504	0.0179671
584.582	0.0180809
584.660	0.0180490
584.738	0.0181761
584.816	0.0180174
584.894	0.0180244
584.973	0.0182148
585.051	0.0181809
585.129	0.0180286
585.207	0.0181619
585.285	0.0182852
585.363	0.0182199
585.441	0.0180698
585.519	0.0180781
585.598	0.0182503
585.676	0.0181877
585.754	0.0182009
585.832	0.0180777
585.910	0.0181828
585.988	0.0181950
586.066	0.0182063
586.144	0.0181169
586.223	0.0182375
586.301	0.0182183
586.379	0.0180360
586.457	0.0180142
586.535	0.0180550
586.613	0.0182246
586.691	0.0181526
586.769	0.0180824
586.848	0.0179708
586.926	0.0180895
587.004	0.0181054
587.082	0.0182510
587.160	0.0179816
587.238	0.0181332
587.316	0.0181219
587.394	0.0181440
587.473	0.0182915
587.551	0.0181251
587.629	0.0181767
587.707	0.0180821
587.785	0.0182417
587.863	0.0183010
587.941	0.0181026
588.019	0.0181076
588.098	0.0181548
588.176	0.0181749
588.254	0.0183221
588.332	0.0182542
588.410	0.0182101
588.488	0.0182104
588.566	0.0183411
588.644	0.0182160
588.723	0.0180638
588.801	0.0183668
588.879	0.0182471
588.957	0.0182159
589.035	0.0182714
589.113	0.0183382
589.191	0.0182030
589.269	0.0182095
589.348	0.0183700
589.426	0.0182419
589.504	0.0183104
589.582	0.0184303
589.660	0.0182835
589.738	0.0182790
589.816	0.0184266
589.894	0.0182217
589.973	0.0183695
590.051	0.0183679
590.129	0.0184104
590.207	0.0183595
590.285	0.0182943
590.363	0.0183872
590.441	0.0183055
590.519	0.0182412
590.598	0.0184669
590.676	0.0183148
590.754	0.0182951
590.832	0.0183093
590.910	0.0184962
590.988	0.0183547
591.066	0.0181972
591.144	0.0181512
591.223	0.0182481
591.301	0.0181874
591.379	0.0181396
591.457	0.0182322
591.535	0.0181410
591.613	0.0180993
591.691	0.0181020
591.769	0.0181992
591.848	0.0181494
591.926	0.0182059
592.004	0.0181273
592.082	0.0180952
592.160	0.0180562
592.238	0.0181451
592.316	0.0182658
592.394	0.0180959
592.473	0.0181091
592.551	0.0181737
592.629	0.0180245
592.707	0.0180769
592.785	0.0181332
592.863	0.0181539
592.941	0.0181560
593.019	0.0181556
593.098	0.0181541
593.176	0.0180882
593.254	0.0180601
593.332	0.0181127
593.410	0.0180507
593.488	0.0181976
593.566	0.0181451
593.644	0.0181326
593.723	0.0181596
593.801	0.0180553
593.879	0.0180956
593.957	0.0181402
594.035	0.0179936
594.113	0.0181210
594.191	0.0179597
594.269	0.0179703
594.348	0.0181013
594.426	0.0180394
594.504	0.0180913
594.582	0.0181275
594.660	0.0180114
594.738	0.0180646
594.816	0.0180539
594.894	0.0182201
594.973	0.0180834
595.051	0.0181326
595.129	0.0180607
595.207	0.0180757
595.285	0.0179951
595.363	0.0181240
595.441	0.0181496
595.519	0.0180077
595.598	0.0180496
595.676	0.0181489
595.754	0.0180559
595.832	0.0180165
595.910	0.0179253
595.988	0.0180071
596.066	0.0180251
596.144	0.0180685
596.223	0.0180686
596.301	0.0180243
596.379	0.0179176
596.457	0.0178898
596.535	0.0181637
596.613	0.0179973
596.691	0.0179424
596.769	0.0179382
596.848	0.0179233
596.926	0.0181091
597.004	0.0179330
597.082	0.0179764
597.160	0.0181787
597.238	0.0180531
597.316	0.0179468
597.394	0.0180098
597.473	0.0180743
597.551	0.0181627
597.629	0.0180137
597.707	0.0179046
597.785	0.0180208
597.863	0.0180170
597.941	0.0178854
598.019	0.0181022
598.098	0.0180659
598.176	0.0180859
598.254	0.0179934
598.332	0.0180074
598.410	0.0180459
598.488	0.0179099
598.566	0.0180200
598.644	0.0180406
598.723	0.0180035
598.801	0.0180625
598.879	0.0180075
598.957	0.0179742
599.035	0.0180010
599.113	0.0180595
599.191	0.0180563
599.269	0.0180111
599.348	0.0181319
599.426	0.0180743
599.504	0.0179073
599.582	0.0180775
599.660	0.0179470
599.738	0.0180298
599.816	0.0180699
599.894	0.0181494
599.973	0.0180182
600.051	0.0182749
600.129	0.0181528
600.207	0.0181892
600.285	0.0182349
600.363	0.0181963
600.441	0.0181726
600.519	0.0181184
600.598	0.0181936
600.676	0.0181415
600.754	0.0181738
600.832	0.0181622
600.910	0.0181624
600.988	0.0182236
601.066	0.0181417
601.144	0.0181480
601.223	0.0181142
601.301	0.0181592
601.379	0.0181359
601.457	0.0181969
601.535	0.0181594
601.613	0.0180960
601.691	0.0180428
601.769	0.0181537
601.848	0.0181233
601.926	0.0181767
602.004	0.0180942
602.082	0.0180140
602.160	0.0180573
602.238	0.0180738
602.316	0.0180352
602.394	0.0181163
602.473	0.0182256
602.551	0.0180540
602.629	0.0180626
602.707	0.0181258
602.785	0.0181167
602.863	0.0180817
602.941	0.0180356
603.019	0.0179581
603.098	0.0179485
603.176	0.0181129
603.254	0.0179973
603.332	0.0179539
603.410	0.0180986
603.488	0.0180126
603.566	0.0180272
603.644	0.0180743
603.723	0.0179158
603.801	0.0180943
603.879	0.0179280
603.957	0.0180430
604.035	0.0180634
604.113	0.0179784
604.191	0.0177943
604.269	0.0178603
604.348	0.0178823
604.426	0.0180114
604.504	0.0179788
604.582	0.0179613
604.660	0.0179967
604.738	0.0179430
604.816	0.0178871
604.894	0.0179890
604.973	0.0179883
605.051	0.0179813
605.129	0.0178721
605.207	0.0178833
605.285	0.0178752
605.363	0.0179337
605.441	0.0179044
605.519	0.0179644
605.598	0.0180242
605.676	0.0179460
605.754	0.0179002
605.832	0.0181340
605.910	0.0180825
605.988	0.0181026
606.066	0.0179642
606.144	0.0179778
606.223	0.0180954
606.301	0.0180052
606.379	0.0180621
606.457	0.0179742
606.535	0.0178904
606.613	0.0179968
606.691	0.0180135
606.769	0.0179633
606.848	0.0180944
606.926	0.0180517
607.004	0.0180658
607.082	0.0179546
607.160	0.0180715
607.238	0.0180650
607.316	0.0181046
607.394	0.0180788
607.473	0.0181586
607.551	0.0180718
607.629	0.0181384
607.707	0.0181280
607.785	0.0180775
607.863	0.0181165
607.941	0.0180859
608.019	0.0181454
608.098	0.0182129
608.176	0.0180975
608.254	0.0180573
608.332	0.0181897
608.410	0.0181958
608.488	0.0182610
608.566	0.0180914
608.644	0.0182990
608.723	0.0182572
608.801	0.0182121
608.879	0.0182790
608.957	0.0183049
609.035	0.0181161
609.113	0.0182388
609.191	0.0182681
609.269	0.0182323
609.348	0.0182069
609.426	0.0181858
609.504	0.0181311
609.582	0.0182172
609.660	0.0182584
609.738	0.0181937
609.816	0.0182771
609.894	0.0182108
609.973	0.0182371
610.051	0.0182401
610.129	0.0181232
610.207	0.0182778
610.285	0.0182487
610.363	0.0182690
610.441	0.0182622
610.519	0.0183019
610.598	0.0183142
610.676	0.0183170
610.754	0.0183666
610.832	0.0182781
610.910	0.0182304
610.988	0.0182596
611.066	0.0182822
611.144	0.0182568
611.223	0.0182525
611.301	0.0182377
611.379	0.0184632
611.457	0.0183174
611.535	0.0182883
611.613	0.0184869
611.691	0.0183021
611.769	0.0182413
611.848	0.0182046
611.926	0.0183675
612.004	0.0183331
612.082	0.0183508
612.160	0.0181386
612.238	0.0183135
612.316	0.0184364
612.394	0.0181382
612.473	0.0181138
612.551	0.0182843
612.629	0.0182742
612.707	0.0183793
612.785	0.0182841
612.863	0.0182855
612.941	0.0181532
613.019	0.0182085
613.098	0.0183525
613.176	0.0183190
613.254	0.0180927
613.332	0.0182804
613.410	0.0182758
613.488	0.0183087
613.566	0.0181974
613.644	0.0182825
613.723	0.0182788
613.801	0.0182603
613.879	0.0183110
613.957	0.0184289
614.035	0.0183727
614.113	0.0182719
614.191	0.0183080
614.269	0.0183282
614.348	0.0183990
614.426	0.0184678
614.504	0.0183273
614.582	0.0182014
614.660	0.0182971
614.738	0.0183333
614.816	0.0182274
614.894	0.0183847
614.973	0.0184531
615.051	0.0182754
615.129	0.0185060
615.207	0.0183801
615.285	0.0183848
615.363	0.0183565
615.441	0.0184296
615.519	0.0183858
615.598	0.0182767
615.676	0.0182954
615.754	0.0183325
615.832	0.0182514
615.910	0.0183998
615.988	0.0183201
616.066	0.0184202
616.144	0.0181963
616.223	0.0183597
616.301	0.0183110
616.379	0.0183909
616.457	0.0181927
616.535	0.0183006
616.613	0.0182183
616.691	0.0180517
616.769	0.0181687
616.848	0.0182286
616.926	0.0181168
617.004	0.0181124
617.082	0.0181065
617.160	0.0181076
617.238	0.0181429
617.316	0.0180709
617.394	0.0181303
617.473	0.0179980
617.551	0.0181239
617.629	0.0181003
617.707	0.0180212
617.785	0.0179659
617.863	0.0180482
617.941	0.0180648
618.019	0.0179233
618.098	0.0181360
618.176	0.0181161
618.254	0.0179930
618.332	0.0179093
618.410	0.0179774
618.488	0.0180675
618.566	0.0180579
618.644	0.0179973
618.723	0.0179549
618.801	0.0180272
618.879	0.0180202
618.957	0.0178080
619.035	0.0178970
619.113	0.0179054
619.191	0.0180257
619.269	0.0181616
619.348	0.0179097
619.426	0.0179047
619.504	0.0179600
619.582	0.0180075
619.660	0.0180502
619.738	0.0180350
619.816	0.0179350
619.894	0.0179496
619.973	0.0179064
620.051	0.0179762
620.129	0.0179525
620.207	0.0178423
620.285	0.0179136
620.363	0.0178229
620.441	0.0180405
620.519	0.0180090
620.598	0.0179688
620.676	0.0179955
620.754	0.0179926
620.832	0.0181084
620.910	0.0179919
620.988	0.0181393
621.066	0.0180898
621.144	0.0179257
621.223	0.0181774
621.301	0.0181844
621.379	0.0179478
621.457	0.0181410
621.535	0.0181418
621.613	0.0180228
621.691	0.0181364
621.769	0.0182220
621.848	0.0180556
621.926	0.0181549
622.004	0.0181436
622.082	0.0179379
622.160	0.0180312
622.238	0.0180780
622.316	0.0181877
622.394	0.0182616
622.473	0.0181194
622.551	0.0181310
622.629	0.0182988
622.707	0.0182243
622.785	0.0180635
622.863	0.0182681
622.941	0.0182076
623.019	0.0182139
623.098	0.0182387
623.176	0.0182122
623.254	0.0182782
623.332	0.0183775
623.410	0.0182066
623.488	0.0182144
623.566	0.0183560
623.644	0.0182909
623.723	0.0182599
623.801	0.0181783
623.879	0.0182683
623.957	0.0183060
624.035	0.0182840
624.113	0.0183221
624.191	0.0182630
624.269	0.0181207
624.348	0.0183429
624.426	0.0183383
624.504	0.0182518
624.582	0.0181622
624.660	0.0181064
624.738	0.0180524
624.816	0.0182131
624.894	0.0182679
624.973	0.0181911
625.051	0.0180510
625.129	0.0182150
625.207	0.0182140
625.285	0.0181628
625.363	0.0180917
625.441	0.0182197
625.519	0.0181242
625.598	0.0180403
625.676	0.0180465
625.754	0.0179284
625.832	0.0179940
625.910	0.0181809
625.988	0.0180815
626.066	0.0181106
626.144	0.0181159
626.223	0.0181646
626.301	0.0181142
626.379	0.0180783
626.457	0.0180486
626.535	0.0181007
626.613	0.0180956
626.691	0.0180199
626.769	0.0181087
626.848	0.0179760
626.926	0.0181054
627.004	0.0179483
627.082	0.0180401
627.160	0.0181522
627.238	0.0179738
627.316	0.0179921
627.394	0.0181348
627.473	0.0179926
627.551	0.0179155
627.629	0.0179707
627.707	0.0177872
627.785	0.0179459
627.863	0.0179359
627.941	0.0179259
628.019	0.0178843
628.098	0.0179012
628.176	0.0179394
628.254	0.0178426
628.332	0.0177646
628.410	0.0178794
628.488	0.0179156
628.566	0.0179881
628.644	0.0178257
628.723	0.0178628
628.801	0.0179052
628.879	0.0180527
628.957	0.0179087
629.035	0.0178792
629.113	0.0178579
629.191	0.0178727
629.269	0.0179232
629.348	0.0177643
629.426	0.0179378
629.504	0.0179550
629.582	0.0178532
629.660	0.0178661
629.738	0.0178216
629.816	0.0178621
629.894	0.0178176
629.973	0.0178088
630.051	0.0179137
630.129	0.0178831
630.207	0.0178660
630.285	0.0178318
630.363	0.0179625
630.441	0.0179449
630.519	0.0179680
630.598	0.0180445
630.676	0.0180618
630.754	0.0180293
630.832	0.0178994
630.910	0.0179924
630.988	0.0179511
631.066	0.0179095
631.144	0.0180488
631.223	0.0180003
631.301	0.0178746
631.379	0.0180131
631.457	0.0180975
631.535	0.0181098
631.613	0.0179728
631.691	0.0179128
631.769	0.0178780
631.848	0.0180525
631.926	0.0179339
632.004	0.0180144
632.082	0.0180032
632.160	0.0180337
632.238	0.0179771
632.316	0.0179388
632.394	0.0179860
632.473	0.0180383
632.551	0.0180306
632.629	0.0179914
632.707	0.0179955
632.785	0.0180251
632.863	0.0178996
632.941	0.0181152
633.019	0.0181550
633.098	0.0180899
633.176	0.0180314
633.254	0.0180927
633.332	0.0180229
633.410	0.0181077
633.488	0.0181973
633.566	0.0181372
633.644	0.0180702
633.723	0.0181111
633.801	0.0181998
633.879	0.0181703
633.957	0.0180881
634.035	0.0181445
634.113	0.0181426
634.191	0.0180831
634.269	0.0180620
634.348	0.0182248
634.426	0.0182690
634.504	0.0180168
634.582	0.0181532
634.660	0.0182610
634.738	0.0182265
634.816	0.0182120
634.894	0.0182313
634.973	0.0181460
635.051	0.0181547
635.129	0.0181386
635.207	0.0183117
635.285	0.0182038
635.363	0.0182016
635.441	0.0183089
635.519	0.0183032
635.598	0.0183813
635.676	0.0182386
635.754	0.0183909
635.832	0.0183028
635.910	0.0181877
635.988	0.0182504
636.066	0.0184115
636.144	0.0181917
636.223	0.0183887
636.301	0.0183882
636.379	0.0183831
636.457	0.0184609
636.535	0.0183381
636.613	0.0183031
636.691	0.0183444
636.769	0.0182869
636.848	0.0183151
636.926	0.0183481
637.004	0.0183001
637.082	0.0182903
637.160	0.0183120
637.238	0.0183611
637.316	0.0184613
637.394	0.0182639
637.473	0.0182543
637.551	0.0182693
637.629	0.0183340
637.707	0.0183334
637.785	0.0182542
637.863	0.0181445
637.941	0.0182164
638.019	0.0183627
638.098	0.0184054
638.176	0.0182201
638.254	0.0182182
638.332	0.0182452
638.410	0.0182181
638.488	0.0182496
638.566	0.0182735
638.644	0.0182494
638.723	0.0181829
638.801	0.0181507
638.879	0.0181889
638.957	0.0182362
639.035	0.0181760
639.113	0.0182889
639.191	0.0182548
639.269	0.0182680
639.348	0.0181463
639.426	0.0182146
639.504	0.0182315
639.582	0.0181648
639.660	0.0182166
639.738	0.0181839
639.816	0.0182487
639.894	0.0182475
639.973	0.0179884
640.051	0.0180465
640.129	0.0180533
640.207	0.0180813
640.285	0.0181548
640.363	0.0180848
640.441	0.0181586
640.519	0.0179879
640.598	0.0179881
640.676	0.0180441
640.754	0.0181547
640.832	0.0180254
640.910	0.0181242
640.988	0.0180410
641.066	0.0180564
641.144	0.0179602
641.223	0.0179369
641.301	0.0179727
641.379	0.0180779
641.457	0.0180236
641.535	0.0180158
641.613	0.0179933
641.691	0.0179711
641.769	0.0180801
641.848	0.0178448
641.926	0.0178459
642.004	0.0180074
642.082	0.0178843
642.160	0.0180544
642.238	0.0180919
642.316	0.0179372
642.394	0.0179543
642.473	0.0179552
642.551	0.0179699
642.629	0.0179689
642.707	0.0179145
642.785	0.0180243
642.863	0.0179205
642.941	0.0179074
643.019	0.0179192
643.098	0.0179660
643.176	0.0180098
643.254	0.0179892
643.332	0.0178659
643.410	0.0179715
643.488	0.0179147
643.566	0.0179902
643.644	0.0177991
643.723	0.0178944
643.801	0.0179095
643.879	0.0179404
643.957	0.0180009
644.035	0.0181149
644.113	0.0180412
644.191	0.0179859
644.269	0.0179002
644.348	0.0180243
644.426	0.0180323
644.504	0.0179949
644.582	0.0180398
644.660	0.0181847
644.738	0.0181355
644.816	0.0179958
644.894	0.0181553
644.973	0.0179600
645.051	0.0179861
645.129	0.0180296
645.207	0.0180570
645.285	0.0181730
645.363	0.0180288
645.441	0.0180620
645.519	0.0181702
645.598	0.0181535
645.676	0.0182029
645.754	0.0182262
645.832	0.0180785
645.910	0.0181290
645.988	0.0182349
646.066	0.0182146
646.144	0.0181747
646.223	0.0181675
646.301	0.0181129
646.379	0.0181341
646.457	0.0182299
646.535	0.0182025
646.613	0.0181422
646.691	0.0181279
646.769	0.0181604
646.848	0.0183000
646.926	0.0181674
647.004	0.0183921
647.082	0.0181464
647.160	0.0183157
647.238	0.0181590
647.316	0.0182426
647.394	0.0183276
647.473	0.0183764
647.551	0.0183244
647.629	0.0182584
647.707	0.0183130
647.785	0.0183028
647.863	0.0182530
647.941	0.0182667
648.019	0.0181996
648.098	0.0182732
648.176	0.0182695
648.254	0.0182963
648.332	0.0182060
648.410	0.0181490
648.488	0.0182414
648.566	0.0182254
648.644	0.0182474
648.723	0.0182188
648.801	0.0183312
648.879	0.0180806
648.957	0.0181291
649.035	0.0182143
649.113	0.0180769
649.191	0.0182037
649.269	0.0181431
649.348	0.0182582
649.426	0.0181966
649.504	0.0179926
649.582	0.0181050
649.660	0.0180322
649.738	0.0180999
649.816	0.0180528
649.894	0.0181913
649.973	0.0182555
650.051	0.0180970
650.129	0.0180594
650.207	0.0179481
650.285	0.0181090
650.363	0.0182754
650.441	0.0181817
650.519	0.0179513
650.598	0.0181167
650.676	0.0181454
650.754	0.0179884
650.832	0.0181825
650.910	0.0181423
650.988	0.0180547
651.066	0.0180331
651.144	0.0180164
651.223	0.0179451
651.301	0.0181579
651.379	0.0179828
651.457	0.0178934
651.535	0.0180741
651.613	0.0180047
651.691	0.0179133
651.769	0.0179462
651.848	0.0180096
651.926	0.0180974
652.004	0.0180588
652.082	0.0180428
652.160	0.0181003
652.238	0.0178870
652.316	0.0180370
652.394	0.0180371
652.473	0.0179633
652.551	0.0179390
652.629	0.0179354
652.707	0.0180274
652.785	0.0180585
652.863	0.0179445
652.941	0.0179612
653.019	0.0179707
653.098	0.0180526
653.176	0.0180602
653.254	0.0179539
653.332	0.0180521
653.410	0.0179142
653.488	0.0179398
653.566	0.0179675
653.644	0.0180061
653.723	0.0179913
653.801	0.0179797
653.879	0.0180917
653.957	0.0180572
654.035	0.0181472
654.113	0.0178992
654.191	0.0179648
654.269	0.0180473
654.348	0.0179649
654.426	0.0178772
654.504	0.0179585
654.582	0.0181203
654.660	0.0180247
654.738	0.0179754
654.816	0.0178621
654.894	0.0179893
654.973	0.0179266
655.051	0.0179929
655.129	0.0180057
655.207	0.0180750
655.285	0.0179932
655.363	0.0181203
655.441	0.0180320
655.519	0.0181451
655.598	0.0180112
655.676	0.0180304
655.754	0.0181656
655.832	0.0180270
655.910	0.0180784
655.988	0.0178902
656.066	0.0181612
656.144	0.0181464
656.223	0.0180214
656.301	0.0179769
656.379	0.0180677
656.457	0.0181093
656.535	0.0179830
656.613	0.0181046
656.691	0.0181627
656.769	0.0179623
656.848	0.0181648
656.926	0.0182198
657.004	0.0181016
657.082	0.0180064
657.160	0.0180918
657.238	0.0181245
657.316	0.0181946
657.394	0.0180843
657.473	0.0181427
657.551	0.0181139
657.629	0.0181181
657.707	0.0180850
657.785	0.0181091
657.863	0.0182244
657.941	0.0181237
658.019	0.0182471
658.098	0.0181773
658.176	0.0181672
658.254	0.0182741
658.332	0.0182981
658.410	0.0182681
658.488	0.0180401
658.566	0.0181622
658.644	0.0181720
658.723	0.0181675
658.801	0.0180092
658.879	0.0181525
658.957	0.0180521
659.035	0.0181972
659.113	0.0182164
659.191	0.0182606
659.269	0.0182014
659.348	0.0181305
659.426	0.0181246
659.504	0.0182367
659.582	0.0182844
659.660	0.0182561
659.738	0.0181946
659.816	0.0180239
659.894	0.0181248
659.973	0.0180998
660.051	0.0181257
660.129	0.0181486
660.207	0.0181481
660.285	0.0181886
660.363	0.0182195
660.441	0.0181719
660.519	0.0181428
660.598	0.0180939
660.676	0.0179721
660.754	0.0181248
660.832	0.0180615
660.910	0.0181362
660.988	0.0180027
661.066	0.0179372
661.144	0.0180657
661.223	0.0180189
661.301	0.0179423
661.379	0.0179510
661.457	0.0179205
661.535	0.0179449
661.613	0.0179356
661.691	0.0179888
661.769	0.0178519
661.848	0.0178848
661.926	0.0179524
662.004	0.0179393
662.082	0.0178742
662.160	0.0178822
662.238	0.0180051
662.316	0.0178558
662.394	0.0179154
662.473	0.0178806
662.551	0.0178767
662.629	0.0178619
662.707	0.0177828
662.785	0.0180101
662.863	0.0179906
662.941	0.0180108
663.019	0.0181100
663.098	0.0180566
663.176	0.0181172
663.254	0.0179930
663.332	0.0181300
663.410	0.0181318
663.488	0.0181657
663.566	0.0182728
663.644	0.0181903
663.723	0.0181573
663.801	0.0180260
663.879	0.0181551
663.957	0.0181061
664.035	0.0180325
664.113	0.0180639
664.191	0.0180727
664.269	0.0180278
664.348	0.0180484
664.426	0.0180623
664.504	0.0181108
664.582	0.0179874
664.660	0.0181046
664.738	0.0180543
664.816	0.0180437
664.894	0.0179758
664.973	0.0181038
665.051	0.0179996
665.129	0.0179983
665.207	0.0179992
665.285	0.0179730
665.363	0.0181798
665.441	0.0180536
665.519	0.0181292
665.598	0.0181501
665.676	0.0180322
665.754	0.0180525
665.832	0.0180766
665.910	0.0181786
665.988	0.0181153
666.066	0.0182129
666.144	0.0180861
666.223	0.0182816
666.301	0.0182685
666.379	0.0182874
666.457	0.0182252
666.535	0.0180563
666.613	0.0181235
666.691	0.0181068
666.769	0.0181030
666.848	0.0182466
666.926	0.0182607
667.004	0.0182538
667.082	0.0182320
667.160	0.0182768
667.238	0.0182452
667.316	0.0182600
667.394	0.0182294
667.473	0.0183178
667.551	0.0182989
667.629	0.0183231
667.707	0.0182510
667.785	0.0182413
667.863	0.0182487
667.941	0.0182008
668.019	0.0182166
668.098	0.0182454
668.176	0.0182137
668.254	0.0181753
668.332	0.0180045
668.410	0.0180829
668.488	0.0182617
668.566	0.0182678
668.644	0.0179671
668.723	0.0180029
668.801	0.0179911
668.879	0.0178545
668.957	0.0180029
669.035	0.0179411
669.113	0.0178607
669.191	0.0178963
669.269	0.0178759
669.348	0.0179551
669.426	0.0178990
669.504	0.0179801
669.582	0.0180408
669.660	0.0179752
669.738	0.0179649
669.816	0.0182068
669.894	0.0180370
669.973	0.0182127
670.051	0.0181095
670.129	0.0182317
670.207	0.0183495
670.285	0.0181638
670.363	0.0182447
670.441	0.0182872
670.519	0.0182004
670.598	0.0182043
670.676	0.0183894
670.754	0.0182678
670.832	0.0182928
670.910	0.0181537
670.988	0.0183585
671.066	0.0184243
671.144	0.0182047
671.223	0.0183150
671.301	0.0182654
671.379	0.0181583
671.457	0.0182463
671.535	0.0182571
671.613	0.0182458
671.691	0.0180871
671.769	0.0182205
671.848	0.0181557
671.926	0.0181274
672.004	0.0181729
672.082	0.0181933
672.160	0.0180638
672.238	0.0179807
672.316	0.0181950
672.394	0.0181763
672.473	0.0181199
672.551	0.0182490
672.629	0.0180350
672.707	0.0179862
672.785	0.0178773
672.863	0.0179227
672.941	0.0179733
673.019	0.0179001
673.098	0.0177314
673.176	0.0177366
673.254	0.0179032
673.332	0.0177204
673.410	0.0176688
673.488	0.0177815
673.566	0.0177055
673.644	0.0177831
673.723	0.0178365
673.801	0.0178226
673.879	0.0177872
673.957	0.0177742
674.035	0.0178891
674.113	0.0179509
674.191	0.0179823
674.269	0.0180020
674.348	0.0180390
674.426	0.0181401
674.504	0.0181744
674.582	0.0181358
674.660	0.0182504
674.738	0.0181407
674.816	0.0181707
674.894	0.0182729
674.973	0.0182597
675.051	0.0181622
675.129	0.0182362
675.207	0.0182957
675.285	0.0180811
675.363	0.0180335
675.441	0.0180831
675.519	0.0181952
675.598	0.0181545
675.676	0.0180460
675.754	0.0180085
675.832	0.0180379
675.910	0.0181856
675.988	0.0181530
676.066	0.0180219
676.144	0.0181373
676.223	0.0180965
676.301	0.0180484
676.379	0.0181628
676.457	0.0179964
676.535	0.0180682
676.613	0.0180825
676.691	0.0179954
676.769	0.0180399
676.848	0.0180648
676.926	0.0179926
677.004	0.0180579
677.082	0.0179242
677.160	0.0179292
677.238	0.0179676
677.316	0.0178667
677.394	0.0178535
677.473	0.0180927
677.551	0.0180318
677.629	0.0179287
677.707	0.0178925
677.785	0.0181037
677.863	0.0179794
677.941	0.0179988
678.019	0.0182146
678.098	0.0180435
678.176	0.0179842
678.254	0.0181011
678.332	0.0183601
678.410	0.0182778
678.488	0.0181792
678.566	0.0181940
678.644	0.0184350
678.723	0.0183332
678.801	0.0182073
678.879	0.0182016
678.957	0.0181539
679.035	0.0184073
679.113	0.0181654
679.191	0.0181477
679.269	0.0179980
679.348	0.0179446
679.426	0.0179964
679.504	0.0180289
679.582	0.0178378
679.660	0.0177616
679.738	0.0178211
679.816	0.0180080
679.894	0.0179182
679.973	0.0177913
680.051	0.0177039
680.129	0.0178258
680.207	0.0179966
680.285	0.0178785
680.363	0.0178521
680.441	0.0178275
680.519	0.0179533
680.598	0.0180408
680.676	0.0179719
680.754	0.0180536
680.832	0.0181150
680.910	0.0181670
680.988	0.0181341
681.066	0.0181522
681.144	0.0182608
681.223	0.0181251
681.301	0.0182353
681.379	0.0181349
681.457	0.0182104
681.535	0.0182507
681.613	0.0182250
681.691	0.0182143
681.769	0.0182172
681.848	0.0181099
681.926	0.0181275
682.004	0.0181754
682.082	0.0181064
682.160	0.0181200
682.238	0.0181776
682.316	0.0180858
682.394	0.0182005
682.473	0.0181982
682.551	0.0181815
682.629	0.0181316
682.707	0.0180795
682.785	0.0181380
682.863	0.0180860
682.941	0.0181122
683.019	0.0181968
683.098	0.0182444
683.176	0.0181240
683.254	0.0182072
683.332	0.0180956
683.410	0.0181857
683.488	0.0182030
683.566	0.0180545
683.644	0.0180688
683.723	0.0181807
683.801	0.0180661
683.879	0.0181281
683.957	0.0182266
684.035	0.0180769
684.113	0.0179805
684.191	0.0179405
684.269	0.0180071
684.348	0.0180065
684.426	0.0179317
684.504	0.0179025
684.582	0.0180071
684.660	0.0180735
684.738	0.0179488
684.816	0.0181148
684.894	0.0181561
684.973	0.0181052
685.051	0.0181611
685.129	0.0179870
685.207	0.0180315
685.285	0.0181730
685.363	0.0182962
685.441	0.0180373
685.519	0.0180733
685.598	0.0183372
685.676	0.0182443
685.754	0.0183186
685.832	0.0182056
685.910	0.0181757
685.988	0.0182038
686.066	0.0182537
686.144	0.0182093
686.223	0.0185562
686.301	0.0184451
686.379	0.0185603
686.457	0.0185368
686.535	0.0185117
686.613	0.0185636
686.691	0.0183594
686.769	0.0186079
686.848	0.0186019
686.926	0.0184810
687.004	0.0185397
687.082	0.0184538
687.160	0.0184120
687.238	0.0183897
687.316	0.0182073
687.394	0.0182240
687.473	0.0182676
687.551	0.0182855
687.629	0.0181864
687.707	0.0182235
687.785	0.0182140
687.863	0.0183142
687.941	0.0182566
688.019	0.0182990
688.098	0.0183251
688.176	0.0183257
688.254	0.0181417
688.332	0.0181805
688.410	0.0182351
688.488	0.0183266
688.566	0.0183298
688.644	0.0182699
688.723	0.0181731
688.801	0.0182448
688.879	0.0181431
688.957	0.0181944
689.035	0.0180393
689.113	0.0180257
689.191	0.0180098
689.269	0.0179422
689.348	0.0179116
689.426	0.0179929
689.504	0.0177679
689.582	0.0177544
689.660	0.0177795
689.738	0.0180068
689.816	0.0178531
689.894	0.0178316
689.973	0.0178040
690.051	0.0178923
690.129	0.0177564
690.207	0.0178880
690.285	0.0178365
690.363	0.0178271
690.441	0.0178632
690.519	0.0180564
690.598	0.0180521
690.676	0.0180718
690.754	0.0180681
690.832	0.0180570
690.910	0.0183417
690.988	0.0180802
691.066	0.0182069
691.144	0.0183128
691.223	0.0182475
691.301	0.0182736
691.379	0.0182874
691.457	0.0182861
691.535	0.0181406
691.613	0.0182474
691.691	0.0183183
691.769	0.0181828
691.848	0.0181581
691.926	0.0182491
692.004	0.0180373
692.082	0.0180197
692.160	0.0182224
692.238	0.0179301
692.316	0.0177967
692.394	0.0179410
692.473	0.0179668
692.551	0.0178490
692.629	0.0178101
692.707	0.0178632
692.785	0.0176905
692.863	0.0177511
692.941	0.0176591
693.019	0.0178770
693.098	0.0177549
693.176	0.0177177
693.254	0.0178323
693.332	0.0178810
693.410	0.0178420
693.488	0.0179640
693.566	0.0180145
693.644	0.0178963
693.723	0.0180329
693.801	0.0180633
693.879	0.0180273
693.957	0.0179632
694.035	0.0180621
694.113	0.0182289
694.191	0.0182489
694.269	0.0182093
694.348	0.0181790
694.426	0.0182396
694.504	0.0182770
694.582	0.0181932
694.660	0.0182327
694.738	0.0181453
694.816	0.0181578
694.894	0.0179816
694.973	0.0180239
695.051	0.0179628
695.129	0.0178444
695.207	0.0179364
695.285	0.0177274
695.363	0.0178996
695.441	0.0177681
695.519	0.0178127
695.598	0.0178143
695.676	0.0177567
695.754	0.0177367
695.832	0.0177883
695.910	0.0178223
695.988	0.0178910
696.066	0.0179766
696.144	0.0179565
696.223	0.0178206
696.301	0.0179333
696.379	0.0180961
696.457	0.0181368
696.535	0.0181100
696.613	0.0180692
696.691	0.0180443
696.769	0.0181210
696.848	0.0179909
696.926	0.0180164
697.004	0.0180191
697.082	0.0179296
697.160	0.0179317
697.238	0.0180501
697.316	0.0179809
697.394	0.0179259
697.473	0.0179502
697.551	0.0178777
697.629	0.0178869
697.707	0.0177125
697.785	0.0178642
697.863	0.0178967
697.941	0.0178320
698.019	0.0179079
698.098	0.0179160
698.176	0.0177600
698.254	0.0178098
698.332	0.0180289
698.410	0.0180157
698.488	0.0179816
698.566	0.0180288
698.644	0.0181439
698.723	0.0179901
698.801	0.0180267
698.879	0.0180784
698.957	0.0181545
699.035	0.0181398
699.113	0.0181763
699.191	0.0181562
699.269	0.0181601
699.348	0.0182137
699.426	0.0180611
699.504	0.0180738
699.582	0.0179993
699.660	0.0182143
699.738	0.0180839
699.816	0.0181164
699.894	0.0181934
699.973	0.0180071
700.051	0.0180782
700.129	0.0181601
700.207	0.0182191
700.285	0.0181246
700.363	0.0181440
700.441	0.0180137
700.519	0.0180689
700.598	0.0180002
700.676	0.0180075
700.754	0.0180582
700.832	0.0179985
700.910	0.0179914
700.988	0.0180181
701.066	0.0179969
701.144	0.0178829
701.223	0.0178764
701.301	0.0179546
701.379	0.0178616
701.457	0.0178001
701.535	0.0178705
701.613	0.0179097
701.691	0.0177988
701.769	0.0178828
701.848	0.0177652
701.926	0.0178556
702.004	0.0179388
702.082	0.0178004
702.160	0.0178326
702.238	0.0179530
702.316	0.0180178
702.394	0.0180177
702.473	0.0180106
702.551	0.0179827
702.629	0.0180412
702.707	0.0180994
702.785	0.0180863
702.863	0.0182014
702.941	0.0181213
703.019	0.0181335
703.098	0.0182472
703.176	0.0180974
703.254	0.0181332
703.332	0.0182229
703.410	0.0182071
703.488	0.0183543
703.566	0.0181394
703.644	0.0180914
703.723	0.0181578
703.801	0.0181704
703.879	0.0181742
703.957	0.0180801
704.035	0.0180130
704.113	0.0182371
704.191	0.0180389
704.269	0.0181769
704.348	0.0180753
704.426	0.0180595
704.504	0.0182184
704.582	0.0181347
704.660	0.0180507
704.738	0.0180495
704.816	0.0180322
704.894	0.0180428
704.973	0.0180492
705.051	0.0178906
705.129	0.0179635
705.207	0.0179237
705.285	0.0178666
705.363	0.0177926
705.441	0.0178554
705.519	0.0178542
705.598	0.0178798
705.676	0.0179329
705.754	0.0179735
705.832	0.0178452
705.910	0.0177514
705.988	0.0176059
706.066	0.0177184
706.144	0.0179930
706.223	0.0179823
706.301	0.0178118
706.379	0.0179447
706.457	0.0178870
706.535	0.0180170
706.613	0.0179458
706.691	0.0180566
706.769	0.0180871
706.848	0.0180470
706.926	0.0182427
707.004	0.0182845
707.082	0.0180755
707.160	0.0182748
707.238	0.0183451
707.316	0.0182980
707.394	0.0183192
707.473	0.0182579
707.551	0.0183447
707.629	0.0182767
707.707	0.0181891
707.785	0.0181625
707.863	0.0181083
707.941	0.0181299
708.019	0.0180836
708.098	0.0180692
708.176	0.0181464
708.254	0.0181195
708.332	0.0181282
708.410	0.0181271
708.488	0.0181583
708.566	0.0182150
708.644	0.0181796
708.723	0.0180714
708.801	0.0182409
708.879	0.0182732
708.957	0.0184303
709.035	0.0183304
709.113	0.0182851
709.191	0.0183367
709.269	0.0182935
709.348	0.0182980
709.426	0.0184367
709.504	0.0183986
709.582	0.0183696
709.660	0.0183880
709.738	0.0183450
709.816	0.0181921
709.894	0.0182739
709.973	0.0181447
710.051	0.0181179
710.129	0.0179923
710.207	0.0181274
710.285	0.0179818
710.363	0.0178379
710.441	0.0179533
710.519	0.0178311
710.598	0.0177876
710.676	0.0178397
710.754	0.0179260
710.832	0.0179169
710.910	0.0180084
710.988	0.0180252
711.066	0.0180399
711.144	0.0181291
711.223	0.0182065
711.301	0.0179940
711.379	0.0180947
711.457	0.0181535
711.535	0.0182833
711.613	0.0182806
711.691	0.0181764
711.769	0.0181866
711.848	0.0181562
711.926	0.0182176
712.004	0.0183305
712.082	0.0182918
712.160	0.0183605
712.238	0.0182941
712.316	0.0183868
712.394	0.0183023
712.473	0.0184881
712.551	0.0183965
712.629	0.0184113
712.707	0.0185262
712.785	0.0183668
712.863	0.0183482
712.941	0.0185215
713.019	0.0183280
713.098	0.0181720
713.176	0.0182489
713.254	0.0180914
713.332	0.0182399
713.410	0.0181924
713.488	0.0181219
713.566	0.0179742
713.644	0.0179348
713.723	0.0179902
713.801	0.0176604
713.879	0.0177955
713.957	0.0178326
714.035	0.0178516
714.113	0.0177333
714.191	0.0176669
714.269	0.0178820
714.348	0.0178078
714.426	0.0177442
714.504	0.0178993
714.582	0.0178685
714.660	0.0178609
714.738	0.0178905
714.816	0.0179649
714.894	0.0178767
714.973	0.0181243
715.051	0.0181399
715.129	0.0181363
715.207	0.0182487
715.285	0.0182619
715.363	0.0180814
715.441	0.0181852
715.519	0.0183929
715.598	0.0182853
715.676	0.0181759
715.754	0.0181966
715.832	0.0182385
715.910	0.0182507
715.988	0.0183130
716.066	0.0182103
716.144	0.0182165
716.223	0.0182121
716.301	0.0181371
716.379	0.0180758
716.457	0.0180572
716.535	0.0181087
716.613	0.0180170
716.691	0.0180046
716.769	0.0177958
716.848	0.0176769
716.926	0.0177611
717.004	0.0177319
717.082	0.0175640
717.160	0.0176968
717.238	0.0176695
717.316	0.0176335
717.394	0.0175607
717.473	0.0176956
717.551	0.0174825
717.629	0.0176080
717.707	0.0177291
717.785	0.0177309
717.863	0.0179592
717.941	0.0178972
718.019	0.0178833
718.098	0.0180342
718.176	0.0179086
718.254	0.0180547
718.332	0.0181925
718.410	0.0180875
718.488	0.0180327
718.566	0.0181634
718.644	0.0180875
718.723	0.0182764
718.801	0.0182253
718.879	0.0181851
718.957	0.0181738
719.035	0.0181357
719.113	0.0179987
719.191	0.0180405
719.269	0.0179909
719.348	0.0178366
719.426	0.0179397
719.504	0.0181418
719.582	0.0180762
719.660	0.0180610
719.738	0.0180536
719.816	0.0179638
719.894	0.0179241
719.973	0.0179722
720.051	0.0179855
720.129	0.0180668
720.207	0.0181382
720.285	0.0181495
720.363	0.0180814
720.441	0.0181509
720.519	0.0180377
720.598	0.0182188
720.676	0.0183449
720.754	0.0182128
720.832	0.0182443
720.910	0.0182893
720.988	0.0183508
721.066	0.0182644
721.144	0.0182789
721.223	0.0183115
721.301	0.0182635
721.379	0.0182048
721.457	0.0182626
721.535	0.0182056
721.613	0.0182605
721.691	0.0180651
721.769	0.0179737
721.848	0.0180581
721.926	0.0179047
722.004	0.0179510
722.082	0.0178712
722.160	0.0178185
722.238	0.0178535
722.316	0.0178082
722.394	0.0178465
722.473	0.0177876
722.551	0.0177916
722.629	0.0177863
722.707	0.0178776
722.785	0.0177918
722.863	0.0179404
722.941	0.0179967
723.019	0.0179513
723.098	0.0179521
723.176	0.0180675
723.254	0.0178960
723.332	0.0180818
723.410	0.0180227
723.488	0.0182043
723.566	0.0181870
723.644	0.0181432
723.723	0.0182436
723.801	0.0181883
723.879	0.0183998
723.957	0.0183582
724.035	0.0183822
724.113	0.0182346
724.191	0.0183041
724.269	0.0184357
724.348	0.0183473
724.426	0.0183626
724.504	0.0182562
724.582	0.0184029
724.660	0.0183561
724.738	0.0183125
724.816	0.0183603
724.894	0.0182504
724.973	0.0181032
725.051	0.0181688
725.129	0.0180070
725.207	0.0180208
725.285	0.0180527
725.363	0.0180026
725.441	0.0178944
725.519	0.0179121
725.598	0.0177590
725.676	0.0178492
725.754	0.0178164
725.832	0.0177946
725.910	0.0177547
725.988	0.0176174
726.066	0.0177806
726.144	0.0176209
726.223	0.0175910
726.301	0.0177426
726.379	0.0177977
726.457	0.0177397
726.535	0.0175776
726.613	0.0177426
726.691	0.0177010
726.769	0.0177123
726.848	0.0180276
726.926	0.0178162
727.004	0.0180840
727.082	0.0180884
727.160	0.0182912
727.238	0.0180886
727.316	0.0183509
727.394	0.0183603
727.473	0.0182378
727.551	0.0183282
727.629	0.0184278
727.707	0.0185818
727.785	0.0184672
727.863	0.0184668
727.941	0.0183856
728.019	0.0183907
728.098	0.0185054
728.176	0.0183905
728.254	0.0181877
728.332	0.0184283
728.410	0.0182138
728.488	0.0180589
728.566	0.0180186
728.644	0.0180942
728.723	0.0179906
728.801	0.0179572
728.879	0.0178347
728.957	0.0178727
729.035	0.0177728
729.113	0.0176488
729.191	0.0175873
729.269	0.0176019
729.348	0.0176922
729.426	0.0178216
729.504	0.0179527
729.582	0.0178236
729.660	0.0179482
729.738	0.0179062
729.816	0.0180386
729.894	0.0181163
729.973	0.0181792
730.051	0.0181051
730.129	0.0180996
730.207	0.0181350
730.285	0.0180678
730.363	0.0181441
730.441	0.0182079
730.519	0.0182156
730.598	0.0182556
730.676	0.0180654
730.754	0.0181474
730.832	0.0182655
730.910	0.0182927
730.988	0.0182947
731.066	0.0184476
731.144	0.0184640
731.223	0.0184472
731.301	0.0183051
731.379	0.0184081
731.457	0.0184953
731.535	0.0184670
731.613	0.0185249
731.691	0.0186089
731.769	0.0184727
731.848	0.0184642
731.926	0.0183909
732.004	0.0183366
732.082	0.0182207
732.160	0.0182670
732.238	0.0182003
732.316	0.0180909
732.394	0.0180507
732.473	0.0180331
732.551	0.0179465
732.629	0.0179681
732.707	0.0178635
732.785	0.0178053
732.863	0.0176609
732.941	0.0177685
733.019	0.0176730
733.098	0.0176503
733.176	0.0177520
733.254	0.0178160
733.332	0.0176701
733.410	0.0177963
733.488	0.0181077
733.566	0.0181590
733.644	0.0180407
733.723	0.0181118
733.801	0.0181942
733.879	0.0182481
733.957	0.0182855
734.035	0.0184200
734.113	0.0184151
734.191	0.0185006
734.269	0.0183743
734.348	0.0183105
734.426	0.0182441
734.504	0.0182724
734.582	0.0183372
734.660	0.0182591
734.738	0.0182348
734.816	0.0181862
734.894	0.0181176
734.973	0.0180470
735.051	0.0180692
735.129	0.0179525
735.207	0.0180437
735.285	0.0179426
735.363	0.0179012
735.441	0.0179483
735.519	0.0179797
735.598	0.0179631
735.676	0.0178990
735.754	0.0180253
735.832	0.0178018
735.910	0.0178840
735.988	0.0179395
736.066	0.0179132
736.144	0.0180516
736.223	0.0179885
736.301	0.0178844
736.379	0.0180189
736.457	0.0180634
736.535	0.0178995
736.613	0.0180788
736.691	0.0181423
736.769	0.0180995
736.848	0.0180302
736.926	0.0180299
737.004	0.0180771
737.082	0.0181498
737.160	0.0179013
737.238	0.0178445
737.316	0.0179893
737.394	0.0180253
737.473	0.0180681
737.551	0.0180342
737.629	0.0180149
737.707	0.0179507
737.785	0.0178629
737.863	0.0179837
737.941	0.0179155
738.019	0.0178785
738.098	0.0179426
738.176	0.0180250
738.254	0.0180229
738.332	0.0179602
738.410	0.0180202
738.488	0.0181027
738.566	0.0181954
738.644	0.0181807
738.723	0.0183620
738.801	0.0182243
738.879	0.0180755
738.957	0.0181998
739.035	0.0182518
739.113	0.0183029
739.191	0.0181857
739.269	0.0183173
739.348	0.0181900
739.426	0.0181841
739.504	0.0181307
739.582	0.0181956
739.660	0.0181909
739.738	0.0181673
739.816	0.0182417
739.894	0.0180433
739.973	0.0181081
740.051	0.0182239
740.129	0.0181473
740.207	0.0182392
740.285	0.0182067
740.363	0.0182401
740.441	0.0183223
740.519	0.0185191
740.598	0.0184984
740.676	0.0187096
740.754	0.0185641
740.832	0.0185132
740.910	0.0186152
740.988	0.0187775
741.066	0.0185678
741.144	0.0185023
741.223	0.0185725
741.301	0.0184826
741.379	0.0184763
741.457	0.0182920
741.535	0.0183173
741.613	0.0183381
741.691	0.0181065
741.769	0.0181492
741.848	0.0180055
741.926	0.0181440
742.004	0.0181979
742.082	0.0181677
742.160	0.0183622
742.238	0.0181272
742.316	0.0181663
742.394	0.0182154
742.473	0.0183360
742.551	0.0182373
742.629	0.0183891
742.707	0.0183466
742.785	0.0182365
742.863	0.0182300
742.941	0.0183083
743.019	0.0185075
743.098	0.0184283
743.176	0.0183022
743.254	0.0182251
743.332	0.0182925
743.410	0.0183438
743.488	0.0183715
743.566	0.0182596
743.644	0.0182034
743.723	0.0182640
743.801	0.0182286
743.879	0.0183521
743.957	0.0181275
744.035	0.0180521
744.113	0.0179624
744.191	0.0182114
744.269	0.0182525
744.348	0.0181068
744.426	0.0181393
744.504	0.0181913
744.582	0.0181693
744.660	0.0182146
744.738	0.0182405
744.816	0.0183910
744.894	0.0184258
744.973	0.0183867
745.051	0.0184274
745.129	0.0183733
745.207	0.0184940
745.285	0.0185667
745.363	0.0184464
745.441	0.0184999
745.519	0.0182703
745.598	0.0183906
745.676	0.0184487
745.754	0.0184286
745.832	0.0183180
745.910	0.0184194
745.988	0.0182664
746.066	0.0182364
746.144	0.0183191
746.223	0.0182353
746.301	0.0181963
746.379	0.0181792
746.457	0.0181081
746.535	0.0179643
746.613	0.0179742
746.691	0.0179404
746.769	0.0180256
746.848	0.0179157
746.926	0.0178972
747.004	0.0179925
747.082	0.0178043
747.160	0.0178560
747.238	0.0178134
747.316	0.0179350
747.394	0.0178687
747.473	0.0177781
747.551	0.0179412
747.629	0.0181165
747.707	0.0180824
747.785	0.0180771
747.863	0.0181079
747.941	0.0181443
748.019	0.0181599
748.098	0.0181926
748.176	0.0182510
748.254	0.0181126
748.332	0.0180547
748.410	0.0181133
748.488	0.0181164
748.566	0.0181316
748.644	0.0182163
748.723	0.0179402
748.801	0.0180048
748.879	0.0180663
748.957	0.0179175
749.035	0.0181104
749.113	0.0180015
749.191	0.0180250
749.269	0.0180045
749.348	0.0182117
749.426	0.0181348
749.504	0.0181782
749.582	0.0182613
749.660	0.0182253
749.738	0.0181612
749.816	0.0182233
749.894	0.0182751
749.973	0.0182954
750.051	0.0181539
750.129	0.0182776
750.207	0.0183278
750.285	0.0183167
750.363	0.0183508
750.441	0.0182598
750.519	0.0182435
750.598	0.0182523
750.676	0.0182336
750.754	0.0181762
750.832	0.0181625
750.910	0.0180109
750.988	0.0179946
751.066	0.0179111
751.144	0.0179797
751.223	0.0179849
751.301	0.0178789
751.379	0.0177399
751.457	0.0179919
751.535	0.0180319
751.613	0.0179754
751.691	0.0180453
751.769	0.0181183
751.848	0.0182312
751.926	0.0182287
752.004	0.0182474
752.082	0.0182558
752.160	0.0184081
752.238	0.0183351
752.316	0.0185438
752.394	0.0185456
752.473	0.0183855
752.551	0.0182813
752.629	0.0185372
752.707	0.0186038
752.785	0.0184729
752.863	0.0185575
752.941	0.0185145
753.019	0.0185022
753.098	0.0184071
753.176	0.0184236
753.254	0.0184937
753.332	0.0184391
753.410	0.0184049
753.488	0.0183614
753.566	0.0184240
753.644	0.0183480
753.723	0.0181326
753.801	0.0183225
753.879	0.0182481
753.957	0.0181628
754.035	0.0181276
754.113	0.0181886
754.191	0.0181733
754.269	0.0179900
754.348	0.0180570
754.426	0.0180998
754.504	0.0179478
754.582	0.0182244
754.660	0.0180926
754.738	0.0181269
754.816	0.0180679
754.894	0.0180026
754.973	0.0178645
755.051	0.0180286
755.129	0.0180184
755.207	0.0179668
755.285	0.0179007
755.363	0.0179091
755.441	0.0180873
755.519	0.0180278
755.598	0.0177335
755.676	0.0179879
755.754	0.0178287
755.832	0.0178111
755.910	0.0179340
755.988	0.0178776
756.066	0.0178917
756.144	0.0179301
756.223	0.0179046
756.301	0.0178018
756.379	0.0178400
756.457	0.0178848
756.535	0.0178957
756.613	0.0179089
756.691	0.0177293
756.769	0.0177599
756.848	0.0178610
756.926	0.0178266
757.004	0.0177941
757.082	0.0178660
757.160	0.0178699
757.238	0.0179791
757.316	0.0178968
757.394	0.0179817
757.473	0.0178476
757.551	0.0180255
757.629	0.0180626
757.707	0.0179163
757.785	0.0180444
757.863	0.0178628
757.941	0.0179371
758.019	0.0179804
758.098	0.0178371
758.176	0.0179464
758.254	0.0178675
758.332	0.0179016
758.410	0.0177872
758.488	0.0179168
758.566	0.0179755
758.644	0.0177994
758.723	0.0179057
758.801	0.0178172
758.879	0.0177161
758.957	0.0177490
759.035	0.0177604
759.113	0.0177533
759.191	0.0178450
759.269	0.0178682
759.348	0.0178204
759.426	0.0179025
759.504	0.0178545
759.582	0.0180866
759.660	0.0181365
759.738	0.0181613
759.816	0.0182585
759.894	0.0183196
759.973	0.0182218
760.051	0.0182768
760.129	0.0182239
760.207	0.0183229
760.285	0.0183614
760.363	0.0181133
760.441	0.0181275
760.519	0.0182316
760.598	0.0181882
760.676	0.0179561
760.754	0.0183092
760.832	0.0181732
760.910	0.0178778
760.988	0.0179147
761.066	0.0179501
761.144	0.0180818
761.223	0.0179401
761.301	0.0179265
761.379	0.0180490
761.457	0.0180440
761.535	0.0179062
761.613	0.0179626
761.691	0.0177806
761.769	0.0177898
761.848	0.0179943
761.926	0.0180507
762.004	0.0180540
762.082	0.0178841
762.160	0.0180688
762.238	0.0179903
762.316	0.0181067
762.394	0.0180917
762.473	0.0179811
762.551	0.0180994
762.629	0.0181232
762.707	0.0180840
762.785	0.0181347
762.863	0.0182816
762.941	0.0182651
763.019	0.0182842
763.098	0.0182539
763.176	0.0182516
763.254	0.0183393
763.332	0.0184307
763.410	0.0183955
763.488	0.0184203
763.566	0.0182980
763.644	0.0183752
763.723	0.0183672
763.801	0.0182456
763.879	0.0183981
763.957	0.0183785
764.035	0.0183480
764.113	0.0183733
764.191	0.0183055
764.269	0.0183809
764.348	0.0184419
764.426	0.0183849
764.504	0.0182700
764.582	0.0182623
764.660	0.0182603
764.738	0.0182623
764.816	0.0183756
764.894	0.0182836
764.973	0.0183490
765.051	0.0183298
765.129	0.0183469
765.207	0.0184326
765.285	0.0181912
765.363	0.0182125
765.441	0.0182267
765.519	0.0181351
765.598	0.0182549
765.676	0.0181688
765.754	0.0182302
765.832	0.0181801
765.910	0.0181647
765.988	0.0182160
766.066	0.0182884
766.144	0.0179790
766.223	0.0181840
766.301	0.0181890
766.379	0.0182020
766.457	0.0184042
766.535	0.0183297
766.613	0.0181263
766.691	0.0183327
766.769	0.0183521
766.848	0.0182556
766.926	0.0183574
767.004	0.0182966
767.082	0.0181251
767.160	0.0183205
767.238	0.0183229
767.316	0.0181754
767.394	0.0179809
767.473	0.0181918
767.551	0.0181735
767.629	0.0179744
767.707	0.0179335
767.785	0.0179498
767.863	0.0179427
767.941	0.0178355
768.019	0.0177480
768.098	0.0179676
768.176	0.0179831
768.254	0.0179421
768.332	0.0180336
768.410	0.0178497
768.488	0.0179175
768.566	0.0180250
768.644	0.0179768
768.723	0.0179984
768.801	0.0180991
768.879	0.0180453
768.957	0.0179446
769.035	0.0180941
769.113	0.0180136
769.191	0.0180231
769.269	0.0180688
769.348	0.0179230
769.426	0.0179607
769.504	0.0180436
769.582	0.0179091
769.660	0.0180846
769.738	0.0180597
769.816	0.0180445
769.894	0.0181374
769.973	0.0181249
770.051	0.0182349
770.129	0.0181548
770.207	0.0180637
770.285	0.0180025
770.363	0.0181892
770.441	0.0182565
770.519	0.0181783
770.598	0.0182095
770.676	0.0180922
770.754	0.0181637
770.832	0.0182191
770.910	0.0182819
770.988	0.0183049
771.066	0.0182149
771.144	0.0181679
771.223	0.0183385
771.301	0.0181036
771.379	0.0180933
771.457	0.0180069
771.535	0.0181219
771.613	0.0182500
771.691	0.0180968
771.769	0.0179823
771.848	0.0180018
771.926	0.0180994
772.004	0.0180389
772.082	0.0180994
772.160	0.0182003
772.238	0.0181350
772.316	0.0181316
772.394	0.0180549
772.473	0.0180361
772.551	0.0181208
772.629	0.0180548
772.707	0.0181986
772.785	0.0182647
772.863	0.0181418
772.941	0.0181661
773.019	0.0181801
773.098	0.0182832
773.176	0.0182491
773.254	0.0184738
773.332	0.0183585
773.410	0.0183733
773.488	0.0183263
773.566	0.0183276
773.644	0.0183404
773.723	0.0182156
773.801	0.0182209
773.879	0.0183096
773.957	0.0183672
774.035	0.0182642
774.113	0.0182078
774.191	0.0182990
774.269	0.0183028
774.348	0.0181857
774.426	0.0180099
774.504	0.0180715
774.582	0.0181664
774.660	0.0180653
774.738	0.0180502
774.816	0.0179739
774.894	0.0180915
774.973	0.0181591
775.051	0.0180972
775.129	0.0181699
775.207	0.0180264
775.285	0.0181363
775.363	0.0182096
775.441	0.0180009
775.519	0.0178802
775.598	0.0178700
775.676	0.0180739
775.754	0.0181004
775.832	0.0180827
775.910	0.0179128
775.988	0.0178549
776.066	0.0179596
776.144	0.0179492
776.223	0.0179601
776.301	0.0178684
776.379	0.0180158
776.457	0.0180027
776.535	0.0178257
776.613	0.0178487
776.691	0.0178747
776.769	0.0179292
776.848	0.0177785
776.926	0.0179251
777.004	0.0178421
777.082	0.0179293
777.160	0.0179709
777.238	0.0179672
777.316	0.0178606
777.394	0.0179450
777.473	0.0178596
777.551	0.0179845
777.629	0.0179799
777.707	0.0179860
777.785	0.0180598
777.863	0.0182165
777.941	0.0181873
778.019	0.0180995
778.098	0.0181538
778.176	0.0182439
778.254	0.0182822
778.332	0.0181031
778.410	0.0181921
778.488	0.0180759
778.566	0.0180652
778.644	0.0181863
778.723	0.0180976
778.801	0.0180470
778.879	0.0181387
778.957	0.0181474
779.035	0.0179523
779.113	0.0180078
779.191	0.0179762
779.269	0.0179334
779.348	0.0179286
779.426	0.0179915
779.504	0.0179336
779.582	0.0178465
779.660	0.0179047
779.738	0.0179912
779.816	0.0179272
779.894	0.0178293
779.973	0.0178457
780.051	0.0180055
780.129	0.0179532
780.207	0.0179146
780.285	0.0179140
780.363	0.0180737
780.441	0.0180531
780.519	0.0179581
780.598	0.0179950
780.676	0.0180271
780.754	0.0181810
780.832	0.0180157
780.910	0.0179630
780.988	0.0181551
781.066	0.0180967
781.144	0.0181130
781.223	0.0179998
781.301	0.0180096
781.379	0.0179826
781.457	0.0180819
781.535	0.0179861
781.613	0.0179321
781.691	0.0179240
781.769	0.0178651
781.848	0.0179210
781.926	0.0180074
782.004	0.0179517
782.082	0.0179262
782.160	0.0179079
782.238	0.0180055
782.316	0.0178231
782.394	0.0179810
782.473	0.0178904
782.551	0.0180698
782.629	0.0182406
782.707	0.0180704
782.785	0.0180365
782.863	0.0179488
782.941	0.0179835
783.019	0.0181500
783.098	0.0179852
783.176	0.0180331
783.254	0.0180092
783.332	0.0181713
783.410	0.0181276
783.488	0.0179791
783.566	0.0181770
783.644	0.0180751
783.723	0.0180433
783.801	0.0180541
783.879	0.0179766
783.957	0.0181223
784.035	0.0180203
784.113	0.0181150
784.191	0.0179860
784.269	0.0181552
784.348	0.0181281
784.426	0.0179684
784.504	0.0180775
784.582	0.0180593
784.660	0.0180440
784.738	0.0181840
784.816	0.0181123
784.894	0.0181934
784.973	0.0179636
785.051	0.0180196
785.129	0.0179513
785.207	0.0180688
785.285	0.0180853
785.363	0.0180103
785.441	0.0179713
785.519	0.0180503
785.598	0.0179129
785.676	0.0181039
785.754	0.0181332
785.832	0.0178873
785.910	0.0180878
785.988	0.0180471
786.066	0.0180750
786.144	0.0180198
786.223	0.0179873
786.301	0.0180264
786.379	0.0182361
786.457	0.0180874
786.535	0.0180731
786.613	0.0181464
786.691	0.0181551
786.769	0.0180769
786.848	0.0180099
786.926	0.0180936
787.004	0.0179745
787.082	0.0180865
787.160	0.0179598
787.238	0.0179628
787.316	0.0180914
787.394	0.0179565
787.473	0.0179913
787.551	0.0181171
787.629	0.0181503
787.707	0.0181603
787.785	0.0180367
787.863	0.0181454
787.941	0.0180178
788.019	0.0181010
788.098	0.0180692
788.176	0.0180037
788.254	0.0180589
788.332	0.0180641
788.410	0.0179852
788.488	0.0180447
788.566	0.0181361
788.644	0.0180019
788.723	0.0179676
788.801	0.0180725
788.879	0.0181930
788.957	0.0179942
789.035	0.0179739
789.113	0.0180482
789.191	0.0179286
789.269	0.0180273
789.348	0.0180872
789.426	0.0180231
789.504	0.0179919
789.582	0.0180486
789.660	0.0179483
789.738	0.0179166
789.816	0.0179867
789.894	0.0180126
789.973	0.0178816
790.051	0.0178191
790.129	0.0179532
790.207	0.0181374
790.285	0.0181211
790.363	0.0179045
790.441	0.0179743
790.519	0.0179468
790.598	0.0180349
790.676	0.0181113
790.754	0.0179868
790.832	0.0180075
790.910	0.0179761
790.988	0.0180398
791.066	0.0180334
791.144	0.0180495
791.223	0.0179158
791.301	0.0180820
791.379	0.0180299
791.457	0.0180901
791.535	0.0180865
791.613	0.0179891
791.691	0.0181152
791.769	0.0180309
791.848	0.0181083
791.926	0.0181416
792.004	0.0181037
792.082	0.0180605
792.160	0.0181207
792.238	0.0180814
792.316	0.0180017
792.394	0.0179391
792.473	0.0179597
792.551	0.0180411
792.629	0.0180070
792.707	0.0180327
792.785	0.0178944
792.863	0.0179901
792.941	0.0180585
793.019	0.0180975
793.098	0.0180128
793.176	0.0179906
793.254	0.0180094
793.332	0.0179417
793.410	0.0179869
793.488	0.0180576
793.566	0.0179077
793.644	0.0179646
793.723	0.0180596
793.801	0.0177736
793.879	0.0180156
793.957	0.0178587
794.035	0.0180066
794.113	0.0180280
794.191	0.0179704
794.269	0.0179146
794.348	0.0179878
794.426	0.0179644
794.504	0.0179288
794.582	0.0181274
794.660	0.0180600
794.738	0.0180524
794.816	0.0180746
794.894	0.0181107
794.973	0.0180199
795.051	0.0180814
795.129	0.0180741
795.207	0.0180901
795.285	0.0181424
795.363	0.0181289
795.441	0.0181147
795.519	0.0180596
795.598	0.0180927
795.676	0.0180207
795.754	0.0179941
795.832	0.0180315
795.910	0.0181188
795.988	0.0179990
796.066	0.0180029
796.144	0.0179313
796.223	0.0180266
796.301	0.0179884
796.379	0.0180266
796.457	0.0180652
796.535	0.0180482
796.613	0.0181377
796.691	0.0181493
796.769	0.0181895
796.848	0.0180299
796.926	0.0181921
797.004	0.0182130
797.082	0.0180973
797.160	0.0180636
797.238	0.0180688
797.316	0.0182246
797.394	0.0182598
797.473	0.0181157
797.551	0.0182726
797.629	0.0180966
797.707	0.0181660
797.785	0.0180654
797.863	0.0181594
797.941	0.0179468
798.019	0.0180435
798.098	0.0180004
798.176	0.0180515
798.254	0.0180490
798.332	0.0179858
798.410	0.0178665
798.488	0.0179285
798.566	0.0179756
798.644	0.0178398
798.723	0.0179990
798.801	0.0178264
798.879	0.0178071
798.957	0.0177485
799.035	0.0178157
799.113	0.0177856
799.191	0.0177680
799.269	0.0177138
799.348	0.0177571
799.426	0.0176576
799.504	0.0180449
799.582	0.0178078
799.660	0.0178497
799.738	0.0177685
799.816	0.0179030
799.894	0.0178401
799.973	0.0176865
800.051	0.0178759
800.129	0.0177935
800.207	0.0177784
800.285	0.0178048
800.363	0.0175887
800.441	0.0177639
800.519	0.0178172
800.598	0.0178432
800.676	0.0178507
800.754	0.0178209
800.832	0.0179588
800.910	0.0178853
800.988	0.0179026
801.066	0.0179305
801.144	0.0179734
801.223	0.0180914
801.301	0.0180185
801.379	0.0179691
801.457	0.0179421
801.535	0.0179832
801.613	0.0180243
801.691	0.0180150
801.769	0.0180132
801.848	0.0181949
801.926	0.0180752
802.004	0.0180673
802.082	0.0180566
802.160	0.0180403
802.238	0.0179638
802.316	0.0179829
802.394	0.0180347
802.473	0.0179854
802.551	0.0180022
802.629	0.0178358
802.707	0.0180151
802.785	0.0180137
802.863	0.0180347
802.941	0.0180838
803.019	0.0179742
803.098	0.0179247
803.176	0.0180691
803.254	0.0181239
803.332	0.0181705
803.410	0.0180766
803.488	0.0181339
803.566	0.0182440
803.644	0.0180986
803.723	0.0179839
803.801	0.0182164
803.879	0.0182058
803.957	0.0181949
804.035	0.0180307
804.113	0.0181660
804.191	0.0182584
804.269	0.0180963
804.348	0.0180685
804.426	0.0181375
804.504	0.0182528
804.582	0.0182329
804.660	0.0181947
804.738	0.0181573
804.816	0.0181792
804.894	0.0181555
804.973	0.0181166
805.051	0.0181675
805.129	0.0181144
805.207	0.0182140
805.285	0.0183431
805.363	0.0183517
805.441	0.0183298
805.519	0.0182090
805.598	0.0181805
805.676	0.0182294
805.754	0.0181178
805.832	0.0180026
805.910	0.0181936
805.988	0.0182350
806.066	0.0181261
806.144	0.0182340
806.223	0.0182407
806.301	0.0179687
806.379	0.0180840
806.457	0.0180815
806.535	0.0183012
806.613	0.0182070
806.691	0.0180858
806.769	0.0182070
806.848	0.0181754
806.926	0.0181947
807.004	0.0182705
807.082	0.0180731
807.160	0.0182025
807.238	0.0181638
807.316	0.0181830
807.394	0.0182726
807.473	0.0182604
807.551	0.0182539
807.629	0.0181718
807.707	0.0181090
807.785	0.0182458
807.863	0.0180702
807.941	0.0181824
808.019	0.0181480
808.098	0.0180845
808.176	0.0180515
808.254	0.0179943
808.332	0.0179858
808.410	0.0179886
808.488	0.0181157
808.566	0.0180332
808.644	0.0179744
808.723	0.0180249
808.801	0.0180740
808.879	0.0179526
808.957	0.0180852
809.035	0.0181619
809.113	0.0181178
809.191	0.0181629
809.269	0.0181454
809.348	0.0181947
809.426	0.0180990
809.504	0.0180756
809.582	0.0181770
809.660	0.0181596
809.738	0.0181189
809.816	0.0181852
809.894	0.0182839
809.973	0.0181830
810.051	0.0183483
810.129	0.0181929
810.207	0.0181448
810.285	0.0182207
810.363	0.0181193
810.441	0.0182732
810.519	0.0182542
810.598	0.0180285
810.676	0.0182033
810.754	0.0180891
810.832	0.0180925
810.910	0.0181366
810.988	0.0181028
811.066	0.0180810
811.144	0.0181583
811.223	0.0181195
811.301	0.0181239
811.379	0.0182774
811.457	0.0181715
811.535	0.0181150
811.613	0.0181805
811.691	0.0180708
811.769	0.0180795
811.848	0.0179951
811.926	0.0179774
812.004	0.0180415
812.082	0.0180246
812.160	0.0180791
812.238	0.0181452
812.316	0.0181168
812.394	0.0180473
812.473	0.0181908
812.551	0.0180937
812.629	0.0181517
812.707	0.0180171
812.785	0.0179318
812.863	0.0180299
812.941	0.0181573
813.019	0.0182125
813.098	0.0180632
813.176	0.0180234
813.254	0.0181502
813.332	0.0180858
813.410	0.0181364
813.488	0.0181998
813.566	0.0182233
813.644	0.0181951
813.723	0.0180855
813.801	0.0181680
813.879	0.0182434
813.957	0.0183609
814.035	0.0182510
814.113	0.0183040
814.191	0.0183559
814.269	0.0183033
814.348	0.0183951
814.426	0.0182790
814.504	0.0182462
814.582	0.0183216
814.660	0.0183221
814.738	0.0183942
814.816	0.0183965
814.894	0.0182213
814.973	0.0183022
815.051	0.0183041
815.129	0.0183077
815.207	0.0182047
815.285	0.0182769
815.363	0.0182458
815.441	0.0182682
815.519	0.0182630
815.598	0.0180389
815.676	0.0180914
815.754	0.0180235
815.832	0.0181336
815.910	0.0180470
815.988	0.0177982
816.066	0.0179845
816.144	0.0179908
816.223	0.0179492
816.301	0.0179597
816.379	0.0180473
816.457	0.0178338
816.535	0.0179778
816.613	0.0179491
816.691	0.0179904
816.769	0.0181006
816.848	0.0180405
816.926	0.0179934
817.004	0.0179795
817.082	0.0181156
817.160	0.0181468
817.238	0.0182059
817.316	0.0182035
817.394	0.0182803
817.473	0.0182058
817.551	0.0183090
817.629	0.0182823
817.707	0.0182272
817.785	0.0181174
817.863	0.0182645
817.941	0.0183990
818.019	0.0181863
818.098	0.0182291
818.176	0.0182186
818.254	0.0182099
818.332	0.0182574
818.410	0.0182565
818.488	0.0181467
818.566	0.0180598
818.644	0.0180397
818.723	0.0180516
818.801	0.0179679
818.879	0.0181348
818.957	0.0180383
819.035	0.0177978
819.113	0.0180695
819.191	0.0178873
819.269	0.0179086
819.348	0.0180328
819.426	0.0179360
819.504	0.0178262
819.582	0.0179736
819.660	0.0178719
819.738	0.0179690
819.816	0.0178036
819.894	0.0176932
