06/03/2022	18:48:40	Ver.	4.1	UNKNOWN
Optical Delay	475.008614	Delta X		0.078125	Sweeps	1	Scan Rate	0/0
Coordinates	Axis 1	NaN	Axis 2	NaN	Axis 3	NaN	Axis 4	NaN	Axis 5	NaN	Axis 6	0.000000
TX Power	0.000000	RX Power	0.000000

475.009	0.0180811
475.087	0.0183041
475.165	0.0182159
475.243	0.0181864
475.321	0.0182137
475.399	0.0181651
475.477	0.0181120
475.555	0.0183017
475.634	0.0182397
475.712	0.0182124
475.790	0.0182778
475.868	0.0182744
475.946	0.0182264
476.024	0.0182259
476.102	0.0182271
476.180	0.0183083
476.259	0.0182813
476.337	0.0182891
476.415	0.0183723
476.493	0.0183121
476.571	0.0182331
476.649	0.0181751
476.727	0.0182393
476.805	0.0182758
476.884	0.0183928
476.962	0.0182883
477.040	0.0181829
477.118	0.0182564
477.196	0.0182036
477.274	0.0182162
477.352	0.0181892
477.430	0.0181176
477.509	0.0182168
477.587	0.0180598
477.665	0.0179842
477.743	0.0181842
477.821	0.0181408
477.899	0.0180952
477.977	0.0180569
478.055	0.0179434
478.134	0.0179802
478.212	0.0180678
478.290	0.0180153
478.368	0.0180595
478.446	0.0179510
478.524	0.0178788
478.602	0.0179889
478.680	0.0179620
478.759	0.0179591
478.837	0.0179082
478.915	0.0180000
478.993	0.0178246
479.071	0.0177620
479.149	0.0178955
479.227	0.0178062
479.305	0.0177689
479.384	0.0177907
479.462	0.0177641
479.540	0.0177271
479.618	0.0177195
479.696	0.0177656
479.774	0.0178246
479.852	0.0177869
479.930	0.0177812
480.009	0.0176944
480.087	0.0177688
480.165	0.0178286
480.243	0.0177531
480.321	0.0178300
480.399	0.0177382
480.477	0.0178204
480.555	0.0177321
480.634	0.0177907
480.712	0.0177828
480.790	0.0179507
480.868	0.0177072
480.946	0.0178449
481.024	0.0178422
481.102	0.0179073
481.180	0.0178608
481.259	0.0178511
481.337	0.0179079
481.415	0.0178135
481.493	0.0178674
481.571	0.0178690
481.649	0.0180419
481.727	0.0179703
481.805	0.0178288
481.884	0.0179372
481.962	0.0179760
482.040	0.0179215
482.118	0.0179017
482.196	0.0178533
482.274	0.0178201
482.352	0.0179644
482.430	0.0180396
482.509	0.0179319
482.587	0.0180120
482.665	0.0180547
482.743	0.0180504
482.821	0.0180105
482.899	0.0180457
482.977	0.0180141
483.055	0.0181303
483.134	0.0181416
483.212	0.0181047
483.290	0.0182008
483.368	0.0181013
483.446	0.0181831
483.524	0.0182564
483.602	0.0181741
483.680	0.0182767
483.759	0.0181692
483.837	0.0182893
483.915	0.0182310
483.993	0.0183262
484.071	0.0184638
484.149	0.0184855
484.227	0.0183994
484.305	0.0183202
484.384	0.0184120
484.462	0.0183910
484.540	0.0184312
484.618	0.0185245
484.696	0.0184199
484.774	0.0185164
484.852	0.0185037
484.930	0.0185708
485.009	0.0184366
485.087	0.0184608
485.165	0.0183881
485.243	0.0184366
485.321	0.0184648
485.399	0.0185112
485.477	0.0183672
485.555	0.0183723
485.634	0.0183676
485.712	0.0184624
485.790	0.0184669
485.868	0.0182629
485.946	0.0183471
486.024	0.0182689
486.102	0.0182682
486.180	0.0184302
486.259	0.0181965
486.337	0.0179871
486.415	0.0180771
486.493	0.0180845
486.571	0.0180938
486.649	0.0179803
486.727	0.0178743
486.805	0.0180208
486.884	0.0180635
486.962	0.0180412
487.040	0.0178954
487.118	0.0179443
487.196	0.0179903
487.274	0.0179988
487.352	0.0179443
487.430	0.0177898
487.509	0.0177599
487.587	0.0178415
487.665	0.0178031
487.743	0.0178843
487.821	0.0179718
487.899	0.0178331
487.977	0.0178301
488.055	0.0179607
488.134	0.0177607
488.212	0.0177835
488.290	0.0179182
488.368	0.0175967
488.446	0.0176212
488.524	0.0177806
488.602	0.0177002
488.680	0.0178323
488.759	0.0177984
488.837	0.0175475
488.915	0.0176928
488.993	0.0177487
489.071	0.0175324
489.149	0.0177387
489.227	0.0177603
489.305	0.0175459
489.384	0.0174429
489.462	0.0175605
489.540	0.0175905
489.618	0.0177564
489.696	0.0175982
489.774	0.0175247
489.852	0.0175169
489.930	0.0176283
490.009	0.0176202
490.087	0.0175880
490.165	0.0175089
490.243	0.0174828
490.321	0.0175481
490.399	0.0177840
490.477	0.0176846
490.555	0.0173947
490.634	0.0176804
490.712	0.0176505
490.790	0.0176142
490.868	0.0175597
490.946	0.0174805
491.024	0.0176117
491.102	0.0176807
491.180	0.0175543
491.259	0.0176520
491.337	0.0175550
491.415	0.0175576
491.493	0.0176415
491.571	0.0175836
491.649	0.0176774
491.727	0.0177787
491.805	0.0176122
491.884	0.0175722
491.962	0.0176619
492.040	0.0177405
492.118	0.0176764
492.196	0.0177190
492.274	0.0178165
492.352	0.0177370
492.430	0.0177872
492.509	0.0178096
492.587	0.0176809
492.665	0.0178703
492.743	0.0178473
492.821	0.0178413
492.899	0.0179715
492.977	0.0179881
493.055	0.0178909
493.134	0.0180968
493.212	0.0180412
493.290	0.0178915
493.368	0.0180533
493.446	0.0179981
493.524	0.0181110
493.602	0.0179771
493.680	0.0181831
493.759	0.0181689
493.837	0.0180820
493.915	0.0181152
493.993	0.0180960
494.071	0.0182158
494.149	0.0181232
494.227	0.0181322
494.305	0.0181596
494.384	0.0181081
494.462	0.0181099
494.540	0.0181226
494.618	0.0180335
494.696	0.0181524
494.774	0.0181217
494.852	0.0181692
494.930	0.0181181
495.009	0.0181989
495.087	0.0181939
495.165	0.0181809
495.243	0.0181453
495.321	0.0180367
495.399	0.0181740
495.477	0.0180246
495.555	0.0180795
495.634	0.0180948
495.712	0.0179971
495.790	0.0181460
495.868	0.0181169
495.946	0.0181293
496.024	0.0179132
496.102	0.0179532
496.180	0.0180576
496.259	0.0180785
496.337	0.0179509
496.415	0.0180276
496.493	0.0180583
496.571	0.0179418
496.649	0.0179916
496.727	0.0180378
496.805	0.0179060
496.884	0.0179282
496.962	0.0179228
497.040	0.0178778
497.118	0.0178175
497.196	0.0179389
497.274	0.0180672
497.352	0.0178931
497.430	0.0178863
497.509	0.0179545
497.587	0.0179481
497.665	0.0179772
497.743	0.0179734
497.821	0.0180753
497.899	0.0178825
497.977	0.0179046
498.055	0.0179475
498.134	0.0180194
498.212	0.0181180
498.290	0.0178993
498.368	0.0178283
498.446	0.0177772
498.524	0.0179230
498.602	0.0179041
498.680	0.0179073
498.759	0.0179663
498.837	0.0178264
498.915	0.0178249
498.993	0.0179072
499.071	0.0178619
499.149	0.0178190
499.227	0.0178655
499.305	0.0177570
499.384	0.0177560
499.462	0.0179147
499.540	0.0179099
499.618	0.0178098
499.696	0.0178380
499.774	0.0177927
499.852	0.0177575
499.930	0.0177232
500.009	0.0179275
500.087	0.0178758
500.165	0.0177876
500.243	0.0177437
500.321	0.0179571
500.399	0.0179264
500.477	0.0178805
500.555	0.0177602
500.634	0.0178034
500.712	0.0178613
500.790	0.0177276
500.868	0.0178730
500.946	0.0179384
501.024	0.0179047
501.102	0.0178392
501.180	0.0178475
501.259	0.0178564
501.337	0.0178030
501.415	0.0179448
501.493	0.0177936
501.571	0.0178838
501.649	0.0179492
501.727	0.0178336
501.805	0.0180555
501.884	0.0179681
501.962	0.0179430
502.040	0.0180056
502.118	0.0178067
502.196	0.0179770
502.274	0.0180475
502.352	0.0180795
502.430	0.0180036
502.509	0.0179222
502.587	0.0179951
502.665	0.0179589
502.743	0.0179131
502.821	0.0178571
502.899	0.0181081
502.977	0.0179578
503.055	0.0179533
503.134	0.0178913
503.212	0.0178705
503.290	0.0180385
503.368	0.0180002
503.446	0.0179146
503.524	0.0178797
503.602	0.0179720
503.680	0.0179809
503.759	0.0180090
503.837	0.0181318
503.915	0.0179942
503.993	0.0179599
504.071	0.0178896
504.149	0.0179383
504.227	0.0180769
504.305	0.0178910
504.384	0.0179582
504.462	0.0179002
504.540	0.0181109
504.618	0.0179028
504.696	0.0179397
504.774	0.0179786
504.852	0.0178213
504.930	0.0179245
505.009	0.0179246
505.087	0.0178043
505.165	0.0178373
505.243	0.0178590
505.321	0.0178583
505.399	0.0178826
505.477	0.0179926
505.555	0.0178405
505.634	0.0178606
505.712	0.0178445
505.790	0.0178634
505.868	0.0181497
505.946	0.0179221
506.024	0.0178194
506.102	0.0179270
506.180	0.0178479
506.259	0.0179221
506.337	0.0180297
506.415	0.0179075
506.493	0.0178323
506.571	0.0179617
506.649	0.0180138
506.727	0.0180519
506.805	0.0179277
506.884	0.0179108
506.962	0.0179642
507.040	0.0180196
507.118	0.0179287
507.196	0.0178946
507.274	0.0179877
507.352	0.0178904
507.430	0.0179977
507.509	0.0180727
507.587	0.0179122
507.665	0.0179343
507.743	0.0178574
507.821	0.0180402
507.899	0.0179620
507.977	0.0179896
508.055	0.0178728
508.134	0.0179667
508.212	0.0178606
508.290	0.0180093
508.368	0.0181049
508.446	0.0179868
508.524	0.0179389
508.602	0.0179115
508.680	0.0179067
508.759	0.0180178
508.837	0.0179548
508.915	0.0180731
508.993	0.0179183
509.071	0.0180602
509.149	0.0180396
509.227	0.0178751
509.305	0.0179024
509.384	0.0179712
509.462	0.0179998
509.540	0.0179859
509.618	0.0180273
509.696	0.0180853
509.774	0.0182018
509.852	0.0181049
509.930	0.0180268
510.009	0.0180620
510.087	0.0180482
510.165	0.0179954
510.243	0.0180602
510.321	0.0180943
510.399	0.0181194
510.477	0.0181540
510.555	0.0180075
510.634	0.0181107
510.712	0.0181329
510.790	0.0182061
510.868	0.0182330
510.946	0.0181953
511.024	0.0182541
511.102	0.0183463
511.180	0.0182584
511.259	0.0181808
511.337	0.0181475
511.415	0.0182589
511.493	0.0182319
511.571	0.0181895
511.649	0.0183077
511.727	0.0183634
511.805	0.0183201
511.884	0.0182993
511.962	0.0183095
512.040	0.0184132
512.118	0.0184586
512.196	0.0185262
512.274	0.0183659
512.352	0.0184334
512.430	0.0185250
512.509	0.0185823
512.587	0.0182932
512.665	0.0183427
512.743	0.0183907
512.821	0.0184193
512.899	0.0184703
512.977	0.0184834
513.055	0.0185089
513.134	0.0184390
513.212	0.0184651
513.290	0.0184119
513.368	0.0185988
513.446	0.0185231
513.524	0.0184982
513.602	0.0185516
513.680	0.0184814
513.759	0.0185620
513.837	0.0186237
513.915	0.0183622
513.993	0.0185591
514.071	0.0183944
514.149	0.0184217
514.227	0.0185272
514.305	0.0185777
514.384	0.0183837
514.462	0.0185983
514.540	0.0182974
514.618	0.0183628
514.696	0.0183310
514.774	0.0183231
514.852	0.0183683
514.930	0.0183228
515.009	0.0182371
515.087	0.0182272
515.165	0.0181609
515.243	0.0181379
515.321	0.0182481
515.399	0.0180861
515.477	0.0180526
515.555	0.0180202
515.634	0.0180850
515.712	0.0179753
515.790	0.0179819
515.868	0.0178928
515.946	0.0178831
516.024	0.0178143
516.102	0.0177855
516.180	0.0177931
516.259	0.0177573
516.337	0.0177213
516.415	0.0176318
516.493	0.0174683
516.571	0.0176270
516.649	0.0175365
516.727	0.0175022
516.805	0.0175036
516.884	0.0173976
516.962	0.0174941
517.040	0.0175009
517.118	0.0175164
517.196	0.0173529
517.274	0.0175628
517.352	0.0174583
517.430	0.0173763
517.509	0.0173927
517.587	0.0173508
517.665	0.0174114
517.743	0.0174622
517.821	0.0174058
517.899	0.0173951
517.977	0.0172750
518.055	0.0173943
518.134	0.0174493
518.212	0.0174984
518.290	0.0173277
518.368	0.0173199
518.446	0.0172477
518.524	0.0173952
518.602	0.0174535
518.680	0.0174243
518.759	0.0172888
518.837	0.0174268
518.915	0.0173668
518.993	0.0173699
519.071	0.0174607
519.149	0.0173425
519.227	0.0174599
519.305	0.0173062
519.384	0.0174837
519.462	0.0175542
519.540	0.0174331
519.618	0.0174189
519.696	0.0175675
519.774	0.0177238
519.852	0.0173885
519.930	0.0174912
520.009	0.0177193
520.087	0.0176051
520.165	0.0175710
520.243	0.0175566
520.321	0.0178329
520.399	0.0177776
520.477	0.0179364
520.555	0.0177699
520.634	0.0179232
520.712	0.0179200
520.790	0.0179554
520.868	0.0181290
520.946	0.0180077
521.024	0.0179225
521.102	0.0180926
521.180	0.0180877
521.259	0.0181447
521.337	0.0181207
521.415	0.0183134
521.493	0.0183330
521.571	0.0182339
521.649	0.0181242
521.727	0.0181493
521.805	0.0182500
521.884	0.0182968
521.962	0.0182748
522.040	0.0182719
522.118	0.0184090
522.196	0.0183808
522.274	0.0184051
522.352	0.0182707
522.430	0.0183183
522.509	0.0184499
522.587	0.0185122
522.665	0.0182403
522.743	0.0184026
522.821	0.0183184
522.899	0.0183593
522.977	0.0182033
523.055	0.0182507
523.134	0.0183300
523.212	0.0182768
523.290	0.0181978
523.368	0.0182188
523.446	0.0182423
523.524	0.0181682
523.602	0.0181548
523.680	0.0181912
523.759	0.0181332
523.837	0.0181524
523.915	0.0179809
523.993	0.0180092
524.071	0.0179845
524.149	0.0181055
524.227	0.0178647
524.305	0.0179522
524.384	0.0178735
524.462	0.0178875
524.540	0.0179617
524.618	0.0178276
524.696	0.0179556
524.774	0.0178214
524.852	0.0178796
524.930	0.0179371
525.009	0.0178915
525.087	0.0178544
525.165	0.0177804
525.243	0.0177457
525.321	0.0178654
525.399	0.0179247
525.477	0.0178102
525.555	0.0176189
525.634	0.0177684
525.712	0.0177451
525.790	0.0178202
525.868	0.0176870
525.946	0.0177422
526.024	0.0176939
526.102	0.0175620
526.180	0.0175439
526.259	0.0176759
526.337	0.0175989
526.415	0.0175523
526.493	0.0175882
526.571	0.0174910
526.649	0.0175437
526.727	0.0174904
526.805	0.0174836
526.884	0.0175082
526.962	0.0173624
527.040	0.0174788
527.118	0.0175378
527.196	0.0175162
527.274	0.0174424
527.352	0.0174503
527.430	0.0174874
527.509	0.0174782
527.587	0.0174812
527.665	0.0173828
527.743	0.0174982
527.821	0.0175135
527.899	0.0174996
527.977	0.0174104
528.055	0.0174225
528.134	0.0175416
528.212	0.0175706
528.290	0.0174181
528.368	0.0175597
528.446	0.0174483
528.524	0.0175838
528.602	0.0176117
528.680	0.0175874
528.759	0.0176379
528.837	0.0175672
528.915	0.0176154
528.993	0.0176073
529.071	0.0175860
529.149	0.0176254
529.227	0.0176843
529.305	0.0175800
529.384	0.0176730
529.462	0.0176053
529.540	0.0177245
529.618	0.0176120
529.696	0.0174808
529.774	0.0179279
529.852	0.0178745
529.930	0.0178669
530.009	0.0178017
530.087	0.0178744
530.165	0.0178632
530.243	0.0179251
530.321	0.0179566
530.399	0.0179410
530.477	0.0179469
530.555	0.0180029
530.634	0.0180078
530.712	0.0180545
530.790	0.0180478
530.868	0.0180994
530.946	0.0180978
531.024	0.0179987
531.102	0.0181493
531.180	0.0183138
531.259	0.0182076
531.337	0.0181474
531.415	0.0184127
531.493	0.0182915
531.571	0.0184196
531.649	0.0183663
531.727	0.0185076
531.805	0.0184595
531.884	0.0185588
531.962	0.0185814
532.040	0.0186301
532.118	0.0185962
532.196	0.0185699
532.274	0.0186450
532.352	0.0186925
532.430	0.0186880
532.509	0.0185944
532.587	0.0186463
532.665	0.0187690
532.743	0.0187270
532.821	0.0186458
532.899	0.0187788
532.977	0.0187824
533.055	0.0187373
533.134	0.0187955
533.212	0.0188103
533.290	0.0186954
533.368	0.0188078
533.446	0.0187814
533.524	0.0187937
533.602	0.0188212
533.680	0.0186918
533.759	0.0188463
533.837	0.0186864
533.915	0.0188204
533.993	0.0187643
534.071	0.0187856
534.149	0.0186651
534.227	0.0186745
534.305	0.0186206
534.384	0.0187071
534.462	0.0186815
534.540	0.0186796
534.618	0.0185312
534.696	0.0186159
534.774	0.0186829
534.852	0.0186607
534.930	0.0186298
535.009	0.0185637
535.087	0.0186381
535.165	0.0186476
535.243	0.0185783
535.321	0.0186483
535.399	0.0187492
535.477	0.0186991
535.555	0.0187076
535.634	0.0185038
535.712	0.0187146
535.790	0.0186230
535.868	0.0186181
535.946	0.0185547
536.024	0.0186356
536.102	0.0185292
536.180	0.0184694
536.259	0.0183048
536.337	0.0183165
536.415	0.0182465
536.493	0.0181157
536.571	0.0180643
536.649	0.0180138
536.727	0.0178625
536.805	0.0176756
536.884	0.0177671
536.962	0.0176339
537.040	0.0175025
537.118	0.0173134
537.196	0.0172118
537.274	0.0172046
537.352	0.0171902
537.430	0.0171166
537.509	0.0171819
537.587	0.0170524
537.665	0.0169985
537.743	0.0171306
537.821	0.0169769
537.899	0.0169088
537.977	0.0169569
538.055	0.0168857
538.134	0.0169352
538.212	0.0168834
538.290	0.0167188
538.368	0.0166969
538.446	0.0166570
538.524	0.0164617
538.602	0.0166654
538.680	0.0163788
538.759	0.0164130
538.837	0.0165797
538.915	0.0164503
538.993	0.0165180
539.071	0.0163976
539.149	0.0165266
539.227	0.0165171
539.305	0.0165646
539.384	0.0165892
539.462	0.0166392
539.540	0.0166606
539.618	0.0168634
539.696	0.0171320
539.774	0.0171944
539.852	0.0171429
539.930	0.0173162
540.009	0.0173753
540.087	0.0174481
540.165	0.0176046
540.243	0.0176549
540.321	0.0174806
540.399	0.0175505
540.477	0.0174851
540.555	0.0173795
540.634	0.0175170
540.712	0.0173287
540.790	0.0172311
540.868	0.0172394
540.946	0.0170885
541.024	0.0170742
541.102	0.0169827
541.180	0.0169897
541.259	0.0170013
541.337	0.0169110
541.415	0.0169367
541.493	0.0169955
541.571	0.0169785
541.649	0.0170174
541.727	0.0171523
541.805	0.0171608
541.884	0.0171574
541.962	0.0174796
542.040	0.0175876
542.118	0.0178064
542.196	0.0179439
542.274	0.0180625
542.352	0.0183105
542.430	0.0184608
542.509	0.0187019
542.587	0.0188470
542.665	0.0191195
542.743	0.0192554
542.821	0.0194367
542.899	0.0196108
542.977	0.0196857
543.055	0.0198427
543.134	0.0197772
543.212	0.0197768
543.290	0.0199349
543.368	0.0198921
543.446	0.0198760
543.524	0.0198740
543.602	0.0198165
543.680	0.0200054
543.759	0.0200961
543.837	0.0199327
543.915	0.0198162
543.993	0.0197604
544.071	0.0197543
544.149	0.0197603
544.227	0.0197058
544.305	0.0198016
544.384	0.0196749
544.462	0.0196627
544.540	0.0194730
544.618	0.0194510
544.696	0.0193771
544.774	0.0191057
544.852	0.0190954
544.930	0.0190325
545.009	0.0187027
545.087	0.0187022
545.165	0.0186225
545.243	0.0184783
545.321	0.0184674
545.399	0.0183055
545.477	0.0181223
545.555	0.0179710
545.634	0.0179755
545.712	0.0178994
545.790	0.0177184
545.868	0.0176926
545.946	0.0176794
546.024	0.0176026
546.102	0.0177025
546.180	0.0176285
546.259	0.0175477
546.337	0.0175317
546.415	0.0177399
546.493	0.0175227
546.571	0.0175259
546.649	0.0176606
546.727	0.0175043
546.805	0.0174876
546.884	0.0175565
546.962	0.0175393
547.040	0.0174305
547.118	0.0175223
547.196	0.0176310
547.274	0.0175895
547.352	0.0175483
547.430	0.0174171
547.509	0.0174702
547.587	0.0175475
547.665	0.0176267
547.743	0.0175993
547.821	0.0174931
547.899	0.0174757
547.977	0.0175870
548.055	0.0175885
548.134	0.0176558
548.212	0.0174685
548.290	0.0175748
548.368	0.0175671
548.446	0.0175691
548.524	0.0175002
548.602	0.0174718
548.680	0.0174328
548.759	0.0174159
548.837	0.0172564
548.915	0.0173923
548.993	0.0173114
549.071	0.0172115
549.149	0.0172659
549.227	0.0173038
549.305	0.0173206
549.384	0.0172431
549.462	0.0173329
549.540	0.0172105
549.618	0.0172290
549.696	0.0173418
549.774	0.0173317
549.852	0.0173375
549.930	0.0173318
550.009	0.0174498
550.087	0.0176173
550.165	0.0174841
550.243	0.0175156
550.321	0.0177075
550.399	0.0177005
550.477	0.0177244
550.555	0.0178660
550.634	0.0178194
550.712	0.0178665
550.790	0.0178456
550.868	0.0178773
550.946	0.0178609
551.024	0.0179089
551.102	0.0179407
551.180	0.0178510
551.259	0.0177471
551.337	0.0178596
551.415	0.0178971
551.493	0.0179075
551.571	0.0178036
551.649	0.0178461
551.727	0.0178116
551.805	0.0179187
551.884	0.0179832
551.962	0.0178362
552.040	0.0178909
552.118	0.0179819
552.196	0.0178722
552.274	0.0177705
552.352	0.0180209
552.430	0.0180354
552.509	0.0179869
552.587	0.0179724
552.665	0.0180728
552.743	0.0180284
552.821	0.0181060
552.899	0.0182262
552.977	0.0181187
553.055	0.0183289
553.134	0.0182857
553.212	0.0182533
553.290	0.0183041
553.368	0.0184439
553.446	0.0182478
553.524	0.0184134
553.602	0.0182605
553.680	0.0182891
553.759	0.0183871
553.837	0.0182535
553.915	0.0184168
553.993	0.0183437
554.071	0.0182572
554.149	0.0182689
554.227	0.0182037
554.305	0.0183371
554.384	0.0182797
554.462	0.0183044
554.540	0.0182118
554.618	0.0183209
554.696	0.0181127
554.774	0.0182549
554.852	0.0182878
554.930	0.0181484
555.009	0.0182365
555.087	0.0182807
555.165	0.0184026
555.243	0.0185175
555.321	0.0185387
555.399	0.0184431
555.477	0.0185425
555.555	0.0185795
555.634	0.0185293
555.712	0.0185049
555.790	0.0185799
555.868	0.0185726
555.946	0.0184647
556.024	0.0185680
556.102	0.0184743
556.180	0.0185674
556.259	0.0185102
556.337	0.0185576
556.415	0.0184902
556.493	0.0184327
556.571	0.0184137
556.649	0.0184432
556.727	0.0184196
556.805	0.0183164
556.884	0.0181745
556.962	0.0182330
557.040	0.0182106
557.118	0.0182057
557.196	0.0181474
557.274	0.0181089
557.352	0.0180818
557.430	0.0180301
557.509	0.0179022
557.587	0.0179218
557.665	0.0178329
557.743	0.0177863
557.821	0.0175648
557.899	0.0174629
557.977	0.0176958
558.055	0.0175916
558.134	0.0175390
558.212	0.0173553
558.290	0.0173163
558.368	0.0173313
558.446	0.0172979
558.524	0.0172642
558.602	0.0172176
558.680	0.0173538
558.759	0.0172437
558.837	0.0172221
558.915	0.0171851
558.993	0.0174064
559.071	0.0173918
559.149	0.0173702
559.227	0.0173448
559.305	0.0172671
559.384	0.0174780
559.462	0.0174745
559.540	0.0174529
559.618	0.0174505
559.696	0.0174480
559.774	0.0173508
559.852	0.0175034
559.930	0.0176085
560.009	0.0175603
560.087	0.0174672
560.165	0.0177239
560.243	0.0176450
560.321	0.0178273
560.399	0.0178120
560.477	0.0177502
560.555	0.0179276
560.634	0.0179566
560.712	0.0180133
560.790	0.0180717
560.868	0.0181474
560.946	0.0181081
561.024	0.0180920
561.102	0.0182830
561.180	0.0183080
561.259	0.0183024
561.337	0.0182362
561.415	0.0182164
561.493	0.0183556
561.571	0.0182848
561.649	0.0184464
561.727	0.0184300
561.805	0.0184183
561.884	0.0184480
561.962	0.0184521
562.040	0.0185261
562.118	0.0183879
562.196	0.0182664
562.274	0.0182290
562.352	0.0181702
562.430	0.0181061
562.509	0.0180763
562.587	0.0180891
562.665	0.0179813
562.743	0.0179623
562.821	0.0180355
562.899	0.0180588
562.977	0.0180345
563.055	0.0179609
563.134	0.0179230
563.212	0.0179431
563.290	0.0180872
563.368	0.0179388
563.446	0.0180276
563.524	0.0179171
563.602	0.0179077
563.680	0.0178414
563.759	0.0179194
563.837	0.0179923
563.915	0.0179956
563.993	0.0179740
564.071	0.0177721
564.149	0.0179546
564.227	0.0179073
564.305	0.0179308
564.384	0.0180860
564.462	0.0180618
564.540	0.0180711
564.618	0.0180442
564.696	0.0180875
564.774	0.0180299
564.852	0.0181047
564.930	0.0181095
565.009	0.0182584
565.087	0.0180759
565.165	0.0181166
565.243	0.0180596
565.321	0.0182119
565.399	0.0180717
565.477	0.0179652
565.555	0.0181541
565.634	0.0180323
565.712	0.0180148
565.790	0.0179132
565.868	0.0180865
565.946	0.0180421
566.024	0.0180257
566.102	0.0179366
566.180	0.0179890
566.259	0.0180137
566.337	0.0179259
566.415	0.0179469
566.493	0.0178955
566.571	0.0179201
566.649	0.0179115
566.727	0.0179759
566.805	0.0177850
566.884	0.0180209
566.962	0.0177692
567.040	0.0177819
567.118	0.0179112
567.196	0.0177894
567.274	0.0178345
567.352	0.0179053
567.430	0.0178373
567.509	0.0179681
567.587	0.0178266
567.665	0.0179286
567.743	0.0179944
567.821	0.0178772
567.899	0.0180600
567.977	0.0180986
568.055	0.0180679
568.134	0.0180505
568.212	0.0180722
568.290	0.0180219
568.368	0.0180682
568.446	0.0180290
568.524	0.0181094
568.602	0.0181386
568.680	0.0180704
568.759	0.0180512
568.837	0.0181136
568.915	0.0179744
568.993	0.0180129
569.071	0.0180136
569.149	0.0180479
569.227	0.0178870
569.305	0.0179974
569.384	0.0181553
569.462	0.0180212
569.540	0.0180521
569.618	0.0179068
569.696	0.0178962
569.774	0.0179977
569.852	0.0178834
569.930	0.0179411
570.009	0.0178434
570.087	0.0178925
570.165	0.0179853
570.243	0.0178335
570.321	0.0178555
570.399	0.0178844
570.477	0.0176880
570.555	0.0178937
570.634	0.0179249
570.712	0.0179007
570.790	0.0178312
570.868	0.0178271
570.946	0.0178536
571.024	0.0178486
571.102	0.0179518
571.180	0.0179042
571.259	0.0178066
571.337	0.0179602
571.415	0.0179335
571.493	0.0178210
571.571	0.0181638
571.649	0.0181594
571.727	0.0179401
571.805	0.0180762
571.884	0.0178067
571.962	0.0182014
572.040	0.0179897
572.118	0.0179282
572.196	0.0180039
572.274	0.0180222
572.352	0.0181612
572.430	0.0180087
572.509	0.0180534
572.587	0.0179800
572.665	0.0181013
572.743	0.0179507
572.821	0.0179890
572.899	0.0181616
572.977	0.0180063
573.055	0.0180648
573.134	0.0181496
573.212	0.0180610
573.290	0.0180264
573.368	0.0179932
573.446	0.0179946
573.524	0.0181017
573.602	0.0180686
573.680	0.0179523
573.759	0.0180911
573.837	0.0180598
573.915	0.0180025
573.993	0.0180725
574.071	0.0182439
574.149	0.0181848
574.227	0.0181073
574.305	0.0181342
574.384	0.0180864
574.462	0.0180067
574.540	0.0181675
574.618	0.0181656
574.696	0.0181800
574.774	0.0180493
574.852	0.0180697
574.930	0.0180504
575.009	0.0181217
575.087	0.0180038
575.165	0.0180666
575.243	0.0179147
575.321	0.0179134
575.399	0.0180310
575.477	0.0179731
575.555	0.0179176
575.634	0.0178906
575.712	0.0179886
575.790	0.0180711
575.868	0.0181467
575.946	0.0178589
576.024	0.0179680
576.102	0.0179875
576.180	0.0180624
576.259	0.0182261
576.337	0.0181400
576.415	0.0180205
576.493	0.0181753
576.571	0.0182187
576.649	0.0181304
576.727	0.0180634
576.805	0.0181739
576.884	0.0181067
576.962	0.0180772
577.040	0.0180270
577.118	0.0179605
577.196	0.0180070
577.274	0.0179456
577.352	0.0179544
577.430	0.0177705
577.509	0.0178355
577.587	0.0178619
577.665	0.0178516
577.743	0.0177222
577.821	0.0177771
577.899	0.0176847
577.977	0.0177373
578.055	0.0176454
578.134	0.0176580
578.212	0.0178282
578.290	0.0176740
578.368	0.0176851
578.446	0.0178137
578.524	0.0176775
578.602	0.0178394
578.680	0.0178307
578.759	0.0177926
578.837	0.0177753
578.915	0.0178043
578.993	0.0179657
579.071	0.0178829
579.149	0.0179346
579.227	0.0179766
579.305	0.0179931
579.384	0.0179367
579.462	0.0179618
579.540	0.0180237
579.618	0.0180774
579.696	0.0178822
579.774	0.0180111
579.852	0.0181389
579.930	0.0179465
580.009	0.0178002
580.087	0.0179462
580.165	0.0180405
580.243	0.0180018
580.321	0.0179373
580.399	0.0178898
580.477	0.0179507
580.555	0.0180573
580.634	0.0179645
580.712	0.0180434
580.790	0.0180933
580.868	0.0179735
580.946	0.0179822
581.024	0.0180275
581.102	0.0180837
581.180	0.0180097
581.259	0.0179020
581.337	0.0180620
581.415	0.0180507
581.493	0.0179040
581.571	0.0179556
581.649	0.0181328
581.727	0.0180734
581.805	0.0179575
581.884	0.0179874
581.962	0.0178962
582.040	0.0178493
582.118	0.0180099
582.196	0.0179974
582.274	0.0178502
582.352	0.0180285
582.430	0.0180520
582.509	0.0179416
582.587	0.0180215
582.665	0.0181151
582.743	0.0180622
582.821	0.0180344
582.899	0.0180697
582.977	0.0180692
583.055	0.0181069
583.134	0.0181010
583.212	0.0182040
583.290	0.0180776
583.368	0.0182078
583.446	0.0181319
583.524	0.0181334
583.602	0.0181413
583.680	0.0180965
583.759	0.0181979
583.837	0.0180772
583.915	0.0180795
583.993	0.0180589
584.071	0.0181040
584.149	0.0180771
584.227	0.0179710
584.305	0.0181442
584.384	0.0180536
584.462	0.0179692
584.540	0.0179862
584.618	0.0178368
584.696	0.0180441
584.774	0.0180936
584.852	0.0179540
584.930	0.0180169
585.009	0.0179137
585.087	0.0179997
585.165	0.0180095
585.243	0.0180922
585.321	0.0179361
585.399	0.0180022
585.477	0.0181838
585.555	0.0180846
585.634	0.0180187
585.712	0.0182388
585.790	0.0181993
585.868	0.0180976
585.946	0.0182170
586.024	0.0182015
586.102	0.0182010
586.180	0.0182833
586.259	0.0182381
586.337	0.0182186
586.415	0.0183031
586.493	0.0183682
586.571	0.0183772
586.649	0.0183781
586.727	0.0183027
586.805	0.0182795
586.884	0.0183962
586.962	0.0182178
587.040	0.0182944
587.118	0.0183624
587.196	0.0183277
587.274	0.0185258
587.352	0.0184731
587.430	0.0183417
587.509	0.0184739
587.587	0.0183923
587.665	0.0182667
587.743	0.0182455
587.821	0.0182129
587.899	0.0183384
587.977	0.0182112
588.055	0.0182492
588.134	0.0181676
588.212	0.0179848
588.290	0.0178781
588.368	0.0179977
588.446	0.0178629
588.524	0.0178532
588.602	0.0179319
588.680	0.0177288
588.759	0.0177624
588.837	0.0178359
588.915	0.0179613
588.993	0.0178204
589.071	0.0176656
589.149	0.0176966
589.227	0.0176946
589.305	0.0176659
589.384	0.0177231
589.462	0.0176667
589.540	0.0176366
589.618	0.0176420
589.696	0.0177842
589.774	0.0176835
589.852	0.0177040
589.930	0.0178402
590.009	0.0177623
590.087	0.0177819
590.165	0.0178174
590.243	0.0177238
590.321	0.0178245
590.399	0.0176818
590.477	0.0176671
590.555	0.0178931
590.634	0.0178524
590.712	0.0177436
590.790	0.0178608
590.868	0.0177330
590.946	0.0179324
591.024	0.0178624
591.102	0.0177959
591.180	0.0179008
591.259	0.0178962
591.337	0.0178000
591.415	0.0177548
591.493	0.0178084
591.571	0.0178288
591.649	0.0178094
591.727	0.0178556
591.805	0.0179536
591.884	0.0178168
591.962	0.0181001
592.040	0.0179577
592.118	0.0178537
592.196	0.0179553
592.274	0.0179571
592.352	0.0178918
592.430	0.0178748
592.509	0.0180642
592.587	0.0179841
592.665	0.0179459
592.743	0.0180224
592.821	0.0180920
592.899	0.0179131
592.977	0.0178677
593.055	0.0180714
593.134	0.0180349
593.212	0.0179956
593.290	0.0181580
593.368	0.0180180
593.446	0.0180515
593.524	0.0180804
593.602	0.0181464
593.680	0.0182288
593.759	0.0183564
593.837	0.0181663
593.915	0.0180889
593.993	0.0182372
594.071	0.0183293
594.149	0.0182238
594.227	0.0182150
594.305	0.0182607
594.384	0.0182262
594.462	0.0182298
594.540	0.0181947
594.618	0.0181120
594.696	0.0180890
594.774	0.0181550
594.852	0.0180998
594.930	0.0181415
595.009	0.0181450
595.087	0.0180804
595.165	0.0180585
595.243	0.0181969
595.321	0.0181709
595.399	0.0180771
595.477	0.0180881
595.555	0.0180890
595.634	0.0181748
595.712	0.0181779
595.790	0.0181500
595.868	0.0180105
595.946	0.0180325
596.024	0.0179337
596.102	0.0180220
596.180	0.0179153
596.259	0.0180933
596.337	0.0179343
596.415	0.0180595
596.493	0.0181275
596.571	0.0179742
596.649	0.0180524
596.727	0.0179825
596.805	0.0180231
596.884	0.0180180
596.962	0.0179883
597.040	0.0180007
597.118	0.0179738
597.196	0.0180527
597.274	0.0180087
597.352	0.0181380
597.430	0.0180813
597.509	0.0181805
597.587	0.0180986
597.665	0.0181321
597.743	0.0181919
597.821	0.0179892
597.899	0.0179932
597.977	0.0179424
598.055	0.0180067
598.134	0.0179712
598.212	0.0179525
598.290	0.0178760
598.368	0.0180342
598.446	0.0180037
598.524	0.0178719
598.602	0.0177063
598.680	0.0176823
598.759	0.0179125
598.837	0.0177647
598.915	0.0176789
598.993	0.0178482
599.071	0.0177032
599.149	0.0177251
599.227	0.0177544
599.305	0.0176527
599.384	0.0175011
599.462	0.0176654
599.540	0.0176206
599.618	0.0175496
599.696	0.0176199
599.774	0.0175249
599.852	0.0174522
599.930	0.0174100
600.009	0.0173903
600.087	0.0175819
600.165	0.0175007
600.243	0.0174223
600.321	0.0175033
600.399	0.0174900
600.477	0.0174867
600.555	0.0174702
600.634	0.0173883
600.712	0.0175854
600.790	0.0175443
600.868	0.0173594
600.946	0.0175032
601.024	0.0175079
601.102	0.0174529
601.180	0.0175068
601.259	0.0175381
601.337	0.0173971
601.415	0.0175642
601.493	0.0176008
601.571	0.0175057
601.649	0.0175256
601.727	0.0174649
601.805	0.0174245
601.884	0.0175938
601.962	0.0176299
602.040	0.0174872
602.118	0.0175711
602.196	0.0175987
602.274	0.0175821
602.352	0.0175610
602.430	0.0176312
602.509	0.0176283
602.587	0.0176623
602.665	0.0176411
602.743	0.0176630
602.821	0.0177106
602.899	0.0177589
602.977	0.0176612
603.055	0.0177489
603.134	0.0177285
603.212	0.0177700
603.290	0.0177641
603.368	0.0178106
603.446	0.0177231
603.524	0.0178524
603.602	0.0178772
603.680	0.0179475
603.759	0.0178662
603.837	0.0178962
603.915	0.0178717
603.993	0.0180000
604.071	0.0181244
604.149	0.0180805
604.227	0.0180743
604.305	0.0179854
604.384	0.0180411
604.462	0.0180512
604.540	0.0180270
604.618	0.0178803
604.696	0.0181808
604.774	0.0180266
604.852	0.0181223
604.930	0.0181027
605.009	0.0181218
605.087	0.0181244
605.165	0.0181944
605.243	0.0180399
605.321	0.0181724
605.399	0.0181170
605.477	0.0180864
605.555	0.0181165
605.634	0.0181733
605.712	0.0182213
605.790	0.0181371
605.868	0.0182637
605.946	0.0181493
606.024	0.0182101
606.102	0.0182355
606.180	0.0183223
606.259	0.0182806
606.337	0.0182993
606.415	0.0181461
606.493	0.0182937
606.571	0.0182047
606.649	0.0181190
606.727	0.0181795
606.805	0.0182027
606.884	0.0181658
606.962	0.0182298
607.040	0.0180913
607.118	0.0180318
607.196	0.0180503
607.274	0.0181743
607.352	0.0181382
607.430	0.0180182
607.509	0.0180725
607.587	0.0179850
607.665	0.0179924
607.743	0.0180833
607.821	0.0180726
607.899	0.0181009
607.977	0.0180806
608.055	0.0180573
608.134	0.0179879
608.212	0.0180602
608.290	0.0180737
608.368	0.0181430
608.446	0.0181517
608.524	0.0180591
608.602	0.0180717
608.680	0.0180804
608.759	0.0181168
608.837	0.0181159
608.915	0.0180410
608.993	0.0181329
609.071	0.0180891
609.149	0.0181031
609.227	0.0182214
609.305	0.0182241
609.384	0.0181178
609.462	0.0182248
609.540	0.0181274
609.618	0.0180912
609.696	0.0180931
609.774	0.0179759
609.852	0.0181907
609.930	0.0181406
610.009	0.0179797
610.087	0.0181538
610.165	0.0181376
610.243	0.0180806
610.321	0.0180256
610.399	0.0179961
610.477	0.0179410
610.555	0.0181362
610.634	0.0180387
610.712	0.0179830
610.790	0.0180637
610.868	0.0181426
610.946	0.0180260
611.024	0.0180540
611.102	0.0181380
611.180	0.0181429
611.259	0.0181351
611.337	0.0180639
611.415	0.0181812
611.493	0.0181042
611.571	0.0181197
611.649	0.0181113
611.727	0.0181223
611.805	0.0181004
611.884	0.0181705
611.962	0.0180766
612.040	0.0182745
612.118	0.0180563
612.196	0.0181894
612.274	0.0181902
612.352	0.0181211
612.430	0.0180892
612.509	0.0181201
612.587	0.0181164
612.665	0.0181228
612.743	0.0179266
612.821	0.0179631
612.899	0.0181216
612.977	0.0179629
613.055	0.0180257
613.134	0.0178863
613.212	0.0180605
613.290	0.0179594
613.368	0.0179877
613.446	0.0180810
613.524	0.0180109
613.602	0.0180264
613.680	0.0180665
613.759	0.0180405
613.837	0.0179788
613.915	0.0181322
613.993	0.0179526
614.071	0.0178897
614.149	0.0178524
614.227	0.0179302
614.305	0.0179046
614.384	0.0179692
614.462	0.0179882
614.540	0.0179375
614.618	0.0179263
614.696	0.0179455
614.774	0.0178528
614.852	0.0180520
614.930	0.0180307
615.009	0.0178346
615.087	0.0180296
615.165	0.0180323
615.243	0.0178296
615.321	0.0178295
615.399	0.0179810
615.477	0.0178888
615.555	0.0179363
615.634	0.0178352
615.712	0.0179844
615.790	0.0179352
615.868	0.0178668
615.946	0.0179768
616.024	0.0178970
616.102	0.0179191
616.180	0.0178376
616.259	0.0178651
616.337	0.0178028
616.415	0.0178403
616.493	0.0180168
616.571	0.0178447
616.649	0.0177981
616.727	0.0177580
616.805	0.0178212
616.884	0.0178603
616.962	0.0178661
617.040	0.0178941
617.118	0.0179326
617.196	0.0178735
617.274	0.0178191
617.352	0.0179349
617.430	0.0179866
617.509	0.0178377
617.587	0.0178690
617.665	0.0177654
617.743	0.0177953
617.821	0.0177917
617.899	0.0178477
617.977	0.0178209
618.055	0.0177002
618.134	0.0178407
618.212	0.0178551
618.290	0.0178574
618.368	0.0176962
618.446	0.0176679
618.524	0.0177348
618.602	0.0177558
618.680	0.0177844
618.759	0.0178876
618.837	0.0179140
618.915	0.0179292
618.993	0.0178416
619.071	0.0177422
619.149	0.0177541
619.227	0.0176776
619.305	0.0177784
619.384	0.0178796
619.462	0.0178139
619.540	0.0178347
619.618	0.0178474
619.696	0.0177715
619.774	0.0178632
619.852	0.0178092
619.930	0.0178064
620.009	0.0177681
620.087	0.0177903
620.165	0.0177684
620.243	0.0176604
620.321	0.0177970
620.399	0.0178352
620.477	0.0176462
620.555	0.0177841
620.634	0.0176505
620.712	0.0177741
620.790	0.0178957
620.868	0.0177103
620.946	0.0177444
621.024	0.0177204
621.102	0.0177623
621.180	0.0178336
621.259	0.0179186
621.337	0.0177314
621.415	0.0177690
621.493	0.0177976
621.571	0.0178894
621.649	0.0179943
621.727	0.0178194
621.805	0.0177838
621.884	0.0179383
621.962	0.0179823
622.040	0.0179239
622.118	0.0180456
622.196	0.0178522
622.274	0.0178756
622.352	0.0179912
622.430	0.0179559
622.509	0.0178905
622.587	0.0180600
622.665	0.0181170
622.743	0.0179944
622.821	0.0179854
622.899	0.0180148
622.977	0.0179951
623.055	0.0180361
623.134	0.0179292
623.212	0.0180229
623.290	0.0179328
623.368	0.0179296
623.446	0.0178124
623.524	0.0178681
623.602	0.0178567
623.680	0.0179588
623.759	0.0178679
623.837	0.0178870
623.915	0.0179006
623.993	0.0177800
624.071	0.0178155
624.149	0.0179455
624.227	0.0178564
624.305	0.0177273
624.384	0.0177856
624.462	0.0178725
624.540	0.0177072
624.618	0.0177436
624.696	0.0177655
624.774	0.0177443
624.852	0.0178059
624.930	0.0177312
625.009	0.0178016
625.087	0.0177139
625.165	0.0178857
625.243	0.0178142
625.321	0.0178413
625.399	0.0178443
625.477	0.0176270
625.555	0.0178117
625.634	0.0178028
625.712	0.0178088
625.790	0.0177734
625.868	0.0178378
625.946	0.0177128
626.024	0.0177407
626.102	0.0179250
626.180	0.0177158
626.259	0.0177084
626.337	0.0177821
626.415	0.0177187
626.493	0.0179216
626.571	0.0179207
626.649	0.0179061
626.727	0.0177925
626.805	0.0177039
626.884	0.0177885
626.962	0.0178716
627.040	0.0178234
627.118	0.0178663
627.196	0.0178933
627.274	0.0179135
627.352	0.0178965
627.430	0.0179336
627.509	0.0179931
627.587	0.0178819
627.665	0.0179330
627.743	0.0179061
627.821	0.0178979
627.899	0.0178941
627.977	0.0179082
628.055	0.0179129
628.134	0.0180500
628.212	0.0178705
628.290	0.0177802
628.368	0.0178798
628.446	0.0179842
628.524	0.0177354
628.602	0.0177795
628.680	0.0179987
628.759	0.0179326
628.837	0.0179080
628.915	0.0178889
628.993	0.0178139
629.071	0.0177946
629.149	0.0180437
629.227	0.0179983
629.305	0.0178793
629.384	0.0178822
629.462	0.0179271
629.540	0.0177890
629.618	0.0181024
629.696	0.0180140
629.774	0.0180734
629.852	0.0178616
629.930	0.0180144
630.009	0.0179120
630.087	0.0180355
630.165	0.0180952
630.243	0.0180247
630.321	0.0180722
630.399	0.0181413
630.477	0.0181199
630.555	0.0182721
630.634	0.0179999
630.712	0.0181116
630.790	0.0181685
630.868	0.0181515
630.946	0.0181315
631.024	0.0182623
631.102	0.0182597
631.180	0.0181729
631.259	0.0181854
631.337	0.0181786
631.415	0.0181517
631.493	0.0180163
631.571	0.0181702
631.649	0.0180910
631.727	0.0181971
631.805	0.0182062
631.884	0.0181636
631.962	0.0180077
632.040	0.0181483
632.118	0.0181605
632.196	0.0180813
632.274	0.0180607
632.352	0.0179418
632.430	0.0180892
632.509	0.0180015
632.587	0.0180598
632.665	0.0180276
632.743	0.0179618
632.821	0.0180562
632.899	0.0181204
632.977	0.0180182
633.055	0.0180651
633.134	0.0179730
633.212	0.0179735
633.290	0.0181316
633.368	0.0181575
633.446	0.0180369
633.524	0.0180273
633.602	0.0180011
633.680	0.0181020
633.759	0.0181242
633.837	0.0180499
633.915	0.0179211
633.993	0.0180168
634.071	0.0181523
634.149	0.0181042
634.227	0.0180933
634.305	0.0181044
634.384	0.0182597
634.462	0.0180936
634.540	0.0181361
634.618	0.0181049
634.696	0.0181114
634.774	0.0180489
634.852	0.0180974
634.930	0.0180007
635.009	0.0180846
635.087	0.0181294
635.165	0.0180476
635.243	0.0179683
635.321	0.0180718
635.399	0.0180788
635.477	0.0180416
635.555	0.0180031
635.634	0.0181046
635.712	0.0180914
635.790	0.0180747
635.868	0.0182130
635.946	0.0181510
636.024	0.0178790
636.102	0.0180065
636.180	0.0181409
636.259	0.0182403
636.337	0.0181151
636.415	0.0180855
636.493	0.0180833
636.571	0.0181043
636.649	0.0181563
636.727	0.0181509
636.805	0.0181136
636.884	0.0180352
636.962	0.0181661
637.040	0.0181557
637.118	0.0180918
637.196	0.0180960
637.274	0.0181151
637.352	0.0180326
637.430	0.0180624
637.509	0.0180516
637.587	0.0180811
637.665	0.0179216
637.743	0.0180750
637.821	0.0180524
637.899	0.0180919
637.977	0.0180116
638.055	0.0179285
638.134	0.0179698
638.212	0.0179071
638.290	0.0178691
638.368	0.0178658
638.446	0.0178213
638.524	0.0177831
638.602	0.0176950
638.680	0.0178160
638.759	0.0178434
638.837	0.0178059
638.915	0.0177083
638.993	0.0178079
639.071	0.0177374
639.149	0.0176106
639.227	0.0176871
639.305	0.0176385
639.384	0.0177130
639.462	0.0176887
639.540	0.0176391
639.618	0.0176025
639.696	0.0177088
639.774	0.0176161
639.852	0.0176160
639.930	0.0175900
640.009	0.0177077
640.087	0.0176865
640.165	0.0176138
640.243	0.0177601
640.321	0.0178166
640.399	0.0177650
640.477	0.0177681
640.555	0.0178959
640.634	0.0178480
640.712	0.0179468
640.790	0.0180165
640.868	0.0179201
640.946	0.0180087
641.024	0.0181198
641.102	0.0181001
641.180	0.0182512
641.259	0.0182697
641.337	0.0181940
641.415	0.0180544
641.493	0.0181325
641.571	0.0181987
641.649	0.0181495
641.727	0.0181112
641.805	0.0181913
641.884	0.0181163
641.962	0.0180957
642.040	0.0181183
642.118	0.0181257
642.196	0.0181416
642.274	0.0179340
642.352	0.0180868
642.430	0.0180808
642.509	0.0179661
642.587	0.0180306
642.665	0.0180247
642.743	0.0180756
642.821	0.0178745
642.899	0.0181412
642.977	0.0181802
643.055	0.0179298
643.134	0.0180819
643.212	0.0181363
643.290	0.0181921
643.368	0.0180529
643.446	0.0181590
643.524	0.0181900
643.602	0.0181085
643.680	0.0180665
643.759	0.0179843
643.837	0.0181753
643.915	0.0180768
643.993	0.0180289
644.071	0.0181313
644.149	0.0181297
644.227	0.0182363
644.305	0.0181779
644.384	0.0182784
644.462	0.0181679
644.540	0.0180198
644.618	0.0182324
644.696	0.0183080
644.774	0.0184025
644.852	0.0183226
644.930	0.0184202
645.009	0.0183629
645.087	0.0181828
645.165	0.0183283
645.243	0.0183340
645.321	0.0183575
645.399	0.0182272
645.477	0.0181961
645.555	0.0182798
645.634	0.0183308
645.712	0.0182240
645.790	0.0183286
645.868	0.0182552
645.946	0.0181841
646.024	0.0182770
646.102	0.0181386
646.180	0.0182310
646.259	0.0181615
646.337	0.0182108
646.415	0.0182684
646.493	0.0183146
646.571	0.0181649
646.649	0.0181532
646.727	0.0180936
646.805	0.0181393
646.884	0.0181184
646.962	0.0180170
647.040	0.0181253
647.118	0.0180503
647.196	0.0180649
647.274	0.0180947
647.352	0.0180407
647.430	0.0180320
647.509	0.0180173
647.587	0.0180370
647.665	0.0179958
647.743	0.0178893
647.821	0.0178709
647.899	0.0179734
647.977	0.0178733
648.055	0.0179360
648.134	0.0178584
648.212	0.0178607
648.290	0.0179482
648.368	0.0179413
648.446	0.0179296
648.524	0.0178771
648.602	0.0177705
648.680	0.0177888
648.759	0.0177707
648.837	0.0178226
648.915	0.0179543
648.993	0.0179229
649.071	0.0176730
649.149	0.0178207
649.227	0.0178887
649.305	0.0178333
649.384	0.0177637
649.462	0.0177254
649.540	0.0179039
649.618	0.0178743
649.696	0.0178600
649.774	0.0177466
649.852	0.0178233
649.930	0.0179517
650.009	0.0178599
650.087	0.0177146
650.165	0.0177938
650.243	0.0177861
650.321	0.0178806
650.399	0.0177473
650.477	0.0178440
650.555	0.0178938
650.634	0.0178410
650.712	0.0178845
650.790	0.0178005
650.868	0.0179433
650.946	0.0178453
651.024	0.0178514
651.102	0.0177863
651.180	0.0179893
651.259	0.0179661
651.337	0.0179774
651.415	0.0179919
651.493	0.0180152
651.571	0.0179141
651.649	0.0178510
651.727	0.0181064
651.805	0.0181557
651.884	0.0179208
651.962	0.0180760
652.040	0.0181071
652.118	0.0179819
652.196	0.0179269
652.274	0.0180394
652.352	0.0179476
652.430	0.0180396
652.509	0.0179786
652.587	0.0180957
652.665	0.0180241
652.743	0.0180555
652.821	0.0179070
652.899	0.0179745
652.977	0.0179578
653.055	0.0180100
653.134	0.0178889
653.212	0.0178223
653.290	0.0179272
653.368	0.0179502
653.446	0.0179195
653.524	0.0178886
653.602	0.0179869
653.680	0.0179842
653.759	0.0179573
653.837	0.0179646
653.915	0.0178719
653.993	0.0179458
654.071	0.0179826
654.149	0.0178192
654.227	0.0178555
654.305	0.0178938
654.384	0.0178495
654.462	0.0179699
654.540	0.0180166
654.618	0.0180910
654.696	0.0179768
654.774	0.0179697
654.852	0.0180580
654.930	0.0179746
655.009	0.0180947
655.087	0.0181190
655.165	0.0179496
655.243	0.0178606
655.321	0.0179930
655.399	0.0179965
655.477	0.0180835
655.555	0.0181709
655.634	0.0180047
655.712	0.0180817
655.790	0.0181361
655.868	0.0181104
655.946	0.0181755
656.024	0.0182150
656.102	0.0180362
656.180	0.0181118
656.259	0.0181104
656.337	0.0180924
656.415	0.0182126
656.493	0.0182952
656.571	0.0180598
656.649	0.0181210
656.727	0.0181393
656.805	0.0181396
656.884	0.0181130
656.962	0.0181227
657.040	0.0180927
657.118	0.0181945
657.196	0.0181110
657.274	0.0180367
657.352	0.0182753
657.430	0.0180875
657.509	0.0180846
657.587	0.0181736
657.665	0.0182254
657.743	0.0181067
657.821	0.0182212
657.899	0.0181931
657.977	0.0181336
658.055	0.0181889
658.134	0.0182183
658.212	0.0181382
658.290	0.0182021
658.368	0.0182085
658.446	0.0179901
658.524	0.0181313
658.602	0.0182062
658.680	0.0181287
658.759	0.0180483
658.837	0.0181232
658.915	0.0181105
658.993	0.0180779
659.071	0.0181179
659.149	0.0179501
659.227	0.0179812
659.305	0.0179630
659.384	0.0179735
659.462	0.0180801
659.540	0.0180748
659.618	0.0180938
659.696	0.0180070
659.774	0.0180069
659.852	0.0180638
659.930	0.0180339
660.009	0.0180573
660.087	0.0179888
660.165	0.0179576
660.243	0.0180001
660.321	0.0178673
660.399	0.0179247
660.477	0.0180331
660.555	0.0178422
660.634	0.0177512
660.712	0.0178035
660.790	0.0177293
660.868	0.0176397
660.946	0.0177061
661.024	0.0177054
661.102	0.0176952
661.180	0.0175155
661.259	0.0176476
661.337	0.0175947
661.415	0.0176395
661.493	0.0176212
661.571	0.0174774
661.649	0.0174079
661.727	0.0176194
661.805	0.0175442
661.884	0.0173380
661.962	0.0176588
662.040	0.0176778
662.118	0.0176195
662.196	0.0176579
662.274	0.0177532
662.352	0.0176791
662.430	0.0177148
662.509	0.0177682
662.587	0.0178648
662.665	0.0179564
662.743	0.0177261
662.821	0.0176485
662.899	0.0178055
662.977	0.0178127
663.055	0.0178575
663.134	0.0179040
663.212	0.0179002
663.290	0.0180620
663.368	0.0179837
663.446	0.0178844
663.524	0.0180087
663.602	0.0181201
663.680	0.0180497
663.759	0.0181294
663.837	0.0182273
663.915	0.0181045
663.993	0.0181337
664.071	0.0181337
664.149	0.0182748
664.227	0.0181582
664.305	0.0181409
664.384	0.0181826
664.462	0.0184401
664.540	0.0182455
664.618	0.0181961
664.696	0.0182463
664.774	0.0183163
664.852	0.0182412
664.930	0.0182947
665.009	0.0182742
665.087	0.0182438
665.165	0.0181485
665.243	0.0182191
665.321	0.0181847
665.399	0.0182423
665.477	0.0181774
665.555	0.0181802
665.634	0.0182828
665.712	0.0181774
665.790	0.0182195
665.868	0.0180849
665.946	0.0179468
666.024	0.0181239
666.102	0.0181133
666.180	0.0180553
666.259	0.0181473
666.337	0.0182737
666.415	0.0182462
666.493	0.0183530
666.571	0.0182881
666.649	0.0182339
666.727	0.0182293
666.805	0.0182883
666.884	0.0181975
666.962	0.0182255
667.040	0.0183914
667.118	0.0183714
667.196	0.0184144
667.274	0.0183415
667.352	0.0183305
667.430	0.0183555
667.509	0.0181496
667.587	0.0183167
667.665	0.0183083
667.743	0.0183775
667.821	0.0182633
667.899	0.0182574
667.977	0.0182472
668.055	0.0182972
668.134	0.0181697
668.212	0.0182663
668.290	0.0181735
668.368	0.0182261
668.446	0.0182293
668.524	0.0181166
668.602	0.0181613
668.680	0.0181438
668.759	0.0181470
668.837	0.0179720
668.915	0.0181423
668.993	0.0181437
669.071	0.0182320
669.149	0.0182280
669.227	0.0180721
669.305	0.0180944
669.384	0.0181216
669.462	0.0182676
669.540	0.0181214
669.618	0.0180830
669.696	0.0180475
669.774	0.0180198
669.852	0.0180588
669.930	0.0181588
670.009	0.0180898
670.087	0.0179093
670.165	0.0179010
670.243	0.0179140
670.321	0.0178546
670.399	0.0178959
670.477	0.0179071
670.555	0.0178049
670.634	0.0177634
670.712	0.0177805
670.790	0.0176700
670.868	0.0176581
670.946	0.0177645
671.024	0.0176190
671.102	0.0174776
671.180	0.0175965
671.259	0.0177789
671.337	0.0176630
671.415	0.0177362
671.493	0.0177451
671.571	0.0177122
671.649	0.0175833
671.727	0.0177772
671.805	0.0176059
671.884	0.0177502
671.962	0.0178166
672.040	0.0177048
672.118	0.0177473
672.196	0.0176834
672.274	0.0176901
672.352	0.0176955
672.430	0.0179196
672.509	0.0177836
672.587	0.0177063
672.665	0.0177322
672.743	0.0176892
672.821	0.0175480
672.899	0.0178491
672.977	0.0176452
673.055	0.0177786
673.134	0.0177264
673.212	0.0175225
673.290	0.0176862
673.368	0.0177448
673.446	0.0176519
673.524	0.0176192
673.602	0.0177091
673.680	0.0177779
673.759	0.0177525
673.837	0.0177169
673.915	0.0178236
673.993	0.0176484
674.071	0.0177353
674.149	0.0177620
674.227	0.0176760
674.305	0.0179340
674.384	0.0177826
674.462	0.0177995
674.540	0.0178745
674.618	0.0178693
674.696	0.0178637
674.774	0.0178464
674.852	0.0177432
674.930	0.0179253
675.009	0.0177552
675.087	0.0179311
675.165	0.0180787
675.243	0.0179353
675.321	0.0180042
675.399	0.0181229
675.477	0.0180190
675.555	0.0180126
675.634	0.0179189
675.712	0.0180862
675.790	0.0182370
675.868	0.0181345
675.946	0.0181674
676.024	0.0182676
676.102	0.0182082
676.180	0.0182381
676.259	0.0181780
676.337	0.0182059
676.415	0.0181938
676.493	0.0181969
676.571	0.0180511
676.649	0.0180720
676.727	0.0180448
676.805	0.0181739
676.884	0.0181367
676.962	0.0180260
677.040	0.0178562
677.118	0.0180157
677.196	0.0180463
677.274	0.0179749
677.352	0.0179221
677.430	0.0180126
677.509	0.0178444
677.587	0.0179244
677.665	0.0178002
677.743	0.0178951
677.821	0.0178739
677.899	0.0178214
677.977	0.0178072
678.055	0.0177022
678.134	0.0178313
678.212	0.0179160
678.290	0.0180621
678.368	0.0178269
678.446	0.0178629
678.524	0.0178822
678.602	0.0179301
678.680	0.0180124
678.759	0.0179273
678.837	0.0178412
678.915	0.0180180
678.993	0.0179484
679.071	0.0178955
679.149	0.0179102
679.227	0.0179355
679.305	0.0178973
679.384	0.0179966
679.462	0.0179848
679.540	0.0178225
679.618	0.0179665
679.696	0.0178439
679.774	0.0179767
679.852	0.0178016
679.930	0.0178883
680.009	0.0179536
680.087	0.0178072
680.165	0.0178620
680.243	0.0177666
680.321	0.0178158
680.399	0.0178866
680.477	0.0178555
680.555	0.0178650
680.634	0.0177338
680.712	0.0178242
680.790	0.0178069
680.868	0.0178622
680.946	0.0178093
681.024	0.0178580
681.102	0.0177965
681.180	0.0179682
681.259	0.0179348
681.337	0.0179449
681.415	0.0178907
681.493	0.0179362
681.571	0.0179363
681.649	0.0180455
681.727	0.0179414
681.805	0.0178719
681.884	0.0179091
681.962	0.0178831
682.040	0.0178223
682.118	0.0178065
682.196	0.0177003
682.274	0.0178764
682.352	0.0176894
682.430	0.0178035
682.509	0.0178339
682.587	0.0176971
682.665	0.0176956
682.743	0.0178378
682.821	0.0176070
682.899	0.0176808
682.977	0.0178868
683.055	0.0178753
683.134	0.0178076
683.212	0.0178231
683.290	0.0178141
683.368	0.0178249
683.446	0.0178949
683.524	0.0179433
683.602	0.0180473
683.680	0.0180173
683.759	0.0181102
683.837	0.0181622
683.915	0.0180510
683.993	0.0181127
684.071	0.0181136
684.149	0.0180632
684.227	0.0181947
684.305	0.0180045
684.384	0.0181070
684.462	0.0180588
684.540	0.0180390
684.618	0.0180023
684.696	0.0179506
684.774	0.0180788
684.852	0.0179905
684.930	0.0179353
685.009	0.0179632
685.087	0.0178876
685.165	0.0179980
685.243	0.0179102
685.321	0.0180070
685.399	0.0180132
685.477	0.0178556
685.555	0.0180054
685.634	0.0178896
685.712	0.0179729
685.790	0.0180082
685.868	0.0179999
685.946	0.0179547
686.024	0.0179337
686.102	0.0179651
686.180	0.0179302
686.259	0.0178937
686.337	0.0181585
686.415	0.0180812
686.493	0.0179854
686.571	0.0178903
686.649	0.0178748
686.727	0.0181197
686.805	0.0179790
686.884	0.0180035
686.962	0.0179657
687.040	0.0180098
687.118	0.0179050
687.196	0.0182288
687.274	0.0180374
687.352	0.0179106
687.430	0.0180342
687.509	0.0179528
687.587	0.0180882
687.665	0.0180859
687.743	0.0181028
687.821	0.0181125
687.899	0.0181360
687.977	0.0182211
688.055	0.0180447
688.134	0.0179136
688.212	0.0181206
688.290	0.0181670
688.368	0.0180385
688.446	0.0181310
688.524	0.0180939
688.602	0.0181017
688.680	0.0181629
688.759	0.0181589
688.837	0.0180362
688.915	0.0180936
688.993	0.0181957
689.071	0.0180219
689.149	0.0179167
689.227	0.0182103
689.305	0.0181582
689.384	0.0180756
689.462	0.0180986
689.540	0.0181093
689.618	0.0181486
689.696	0.0180077
689.774	0.0179961
689.852	0.0179657
689.930	0.0179689
690.009	0.0178651
690.087	0.0179897
690.165	0.0177831
690.243	0.0177498
690.321	0.0178725
690.399	0.0177539
690.477	0.0176968
690.555	0.0178329
690.634	0.0175636
690.712	0.0177787
690.790	0.0177798
690.868	0.0175635
690.946	0.0175808
691.024	0.0176815
691.102	0.0177587
691.180	0.0176229
691.259	0.0175359
691.337	0.0176186
691.415	0.0175802
691.493	0.0176439
691.571	0.0175726
691.649	0.0176458
691.727	0.0177394
691.805	0.0176512
691.884	0.0176736
691.962	0.0177342
692.040	0.0177916
692.118	0.0177838
692.196	0.0178530
692.274	0.0177740
692.352	0.0178550
692.430	0.0177686
692.509	0.0178317
692.587	0.0178907
692.665	0.0179610
692.743	0.0179326
692.821	0.0178783
692.899	0.0180453
692.977	0.0180604
693.055	0.0178524
693.134	0.0179367
693.212	0.0179063
693.290	0.0180981
693.368	0.0180119
693.446	0.0179202
693.524	0.0178900
693.602	0.0178314
693.680	0.0178854
693.759	0.0178887
693.837	0.0178593
693.915	0.0177830
693.993	0.0179085
694.071	0.0176520
694.149	0.0178963
694.227	0.0180495
694.305	0.0178769
694.384	0.0178836
694.462	0.0180511
694.540	0.0180334
694.618	0.0179845
694.696	0.0179996
694.774	0.0181467
694.852	0.0180138
694.930	0.0181696
695.009	0.0181013
695.087	0.0182222
695.165	0.0181266
695.243	0.0180936
695.321	0.0180698
695.399	0.0180503
695.477	0.0181087
695.555	0.0180115
695.634	0.0179688
695.712	0.0179831
695.790	0.0180791
695.868	0.0180610
695.946	0.0181043
696.024	0.0181146
696.102	0.0180708
696.180	0.0180565
696.259	0.0179742
696.337	0.0180509
696.415	0.0179697
696.493	0.0178965
696.571	0.0180004
696.649	0.0178407
696.727	0.0179262
696.805	0.0179675
696.884	0.0179958
696.962	0.0179835
697.040	0.0178330
697.118	0.0179881
697.196	0.0179853
697.274	0.0181316
697.352	0.0180894
697.430	0.0179533
697.509	0.0179325
697.587	0.0179534
697.665	0.0178851
697.743	0.0181112
697.821	0.0180476
697.899	0.0180343
697.977	0.0180299
698.055	0.0180906
698.134	0.0180004
698.212	0.0180258
698.290	0.0179945
698.368	0.0180101
698.446	0.0179512
698.524	0.0180112
698.602	0.0179310
698.680	0.0179616
698.759	0.0179623
698.837	0.0179959
698.915	0.0177673
698.993	0.0179701
699.071	0.0179430
699.149	0.0180653
699.227	0.0178163
699.305	0.0178905
699.384	0.0179855
699.462	0.0179565
699.540	0.0179219
699.618	0.0179858
699.696	0.0179763
699.774	0.0179385
699.852	0.0179578
699.930	0.0179388
700.009	0.0181106
700.087	0.0179825
700.165	0.0178530
700.243	0.0179350
700.321	0.0179948
700.399	0.0179697
700.477	0.0179443
700.555	0.0179832
700.634	0.0179253
700.712	0.0177493
700.790	0.0178465
700.868	0.0178883
700.946	0.0178014
701.024	0.0178915
701.102	0.0178521
701.180	0.0176913
701.259	0.0177301
701.337	0.0176127
701.415	0.0176785
701.493	0.0175899
701.571	0.0177487
701.649	0.0176817
701.727	0.0175987
701.805	0.0178167
701.884	0.0176240
701.962	0.0177071
702.040	0.0177718
702.118	0.0177129
702.196	0.0178012
702.274	0.0179031
702.352	0.0177576
702.430	0.0178616
702.509	0.0176883
702.587	0.0177336
702.665	0.0178130
702.743	0.0178540
702.821	0.0178018
702.899	0.0177103
702.977	0.0177783
703.055	0.0178872
703.134	0.0178293
703.212	0.0178008
703.290	0.0176869
703.368	0.0177385
703.446	0.0176987
703.524	0.0177525
703.602	0.0178844
703.680	0.0177837
703.759	0.0178470
703.837	0.0178582
703.915	0.0178221
703.993	0.0176887
704.071	0.0176656
704.149	0.0178413
704.227	0.0177679
704.305	0.0178577
704.384	0.0178620
704.462	0.0177990
704.540	0.0177329
704.618	0.0178896
704.696	0.0179012
704.774	0.0179226
704.852	0.0177695
704.930	0.0178162
705.009	0.0178585
705.087	0.0178027
705.165	0.0179258
705.243	0.0178292
705.321	0.0179040
705.399	0.0180332
705.477	0.0179771
705.555	0.0180686
705.634	0.0179422
705.712	0.0180912
705.790	0.0181339
705.868	0.0181601
705.946	0.0183465
706.024	0.0182613
706.102	0.0182017
706.180	0.0182983
706.259	0.0182964
706.337	0.0182711
706.415	0.0183456
706.493	0.0183829
706.571	0.0182910
706.649	0.0182309
706.727	0.0182533
706.805	0.0180613
706.884	0.0181701
706.962	0.0180706
707.040	0.0179219
707.118	0.0179523
707.196	0.0179574
707.274	0.0179237
707.352	0.0178954
707.430	0.0179507
707.509	0.0177594
707.587	0.0177542
707.665	0.0177279
707.743	0.0177504
707.821	0.0176633
707.899	0.0177240
707.977	0.0179201
708.055	0.0179668
708.134	0.0178855
708.212	0.0179681
708.290	0.0182011
708.368	0.0181836
708.446	0.0181150
708.524	0.0182378
708.602	0.0182539
708.680	0.0180943
708.759	0.0180671
708.837	0.0182159
708.915	0.0182794
708.993	0.0182107
709.071	0.0180440
709.149	0.0181693
709.227	0.0181799
709.305	0.0180495
709.384	0.0180156
709.462	0.0181642
709.540	0.0179506
709.618	0.0179018
709.696	0.0178680
709.774	0.0178930
709.852	0.0177582
709.930	0.0177074
710.009	0.0177465
710.087	0.0177577
710.165	0.0177901
710.243	0.0177126
710.321	0.0177090
710.399	0.0179025
710.477	0.0177274
710.555	0.0177178
710.634	0.0178687
710.712	0.0177413
710.790	0.0179276
710.868	0.0178506
710.946	0.0179922
711.024	0.0179823
711.102	0.0181180
711.180	0.0180097
711.259	0.0180883
711.337	0.0180677
711.415	0.0182303
711.493	0.0180384
711.571	0.0181416
711.649	0.0183120
711.727	0.0182804
711.805	0.0183540
711.884	0.0183128
711.962	0.0183507
712.040	0.0182920
712.118	0.0183332
712.196	0.0182288
712.274	0.0183239
712.352	0.0182928
712.430	0.0182370
712.509	0.0180973
712.587	0.0180475
712.665	0.0180027
712.743	0.0180862
712.821	0.0178268
712.899	0.0178410
712.977	0.0178957
713.055	0.0177917
713.134	0.0178271
713.212	0.0177928
713.290	0.0176886
713.368	0.0176366
713.446	0.0179179
713.524	0.0176567
713.602	0.0177004
713.680	0.0176948
713.759	0.0177923
713.837	0.0177240
713.915	0.0176832
713.993	0.0178471
714.071	0.0178891
714.149	0.0178981
714.227	0.0179174
714.305	0.0179720
714.384	0.0179176
714.462	0.0179827
714.540	0.0178867
714.618	0.0180139
714.696	0.0180066
714.774	0.0179137
714.852	0.0179716
714.930	0.0179790
715.009	0.0180738
715.087	0.0180621
715.165	0.0181506
715.243	0.0180079
715.321	0.0181171
715.399	0.0181468
715.477	0.0180354
715.555	0.0182072
715.634	0.0181207
715.712	0.0180867
715.790	0.0181343
715.868	0.0182686
715.946	0.0181632
716.024	0.0182032
716.102	0.0181865
716.180	0.0181743
716.259	0.0182188
716.337	0.0181850
716.415	0.0182646
716.493	0.0182491
716.571	0.0181418
716.649	0.0180696
716.727	0.0180079
716.805	0.0178703
716.884	0.0179416
716.962	0.0180070
717.040	0.0178212
717.118	0.0178717
717.196	0.0179204
717.274	0.0178582
717.352	0.0178240
717.430	0.0178654
717.509	0.0179250
717.587	0.0178390
717.665	0.0178546
717.743	0.0179153
717.821	0.0178419
717.899	0.0180291
717.977	0.0181937
718.055	0.0181592
718.134	0.0182256
718.212	0.0181494
718.290	0.0181496
718.368	0.0181837
718.446	0.0180805
718.524	0.0182523
718.602	0.0181828
718.680	0.0181719
718.759	0.0182111
718.837	0.0182062
718.915	0.0181998
718.993	0.0183266
719.071	0.0182209
719.149	0.0183572
719.227	0.0181367
719.305	0.0181107
719.384	0.0181650
719.462	0.0182203
719.540	0.0182345
719.618	0.0182112
719.696	0.0182453
719.774	0.0180850
719.852	0.0182738
719.930	0.0181631
720.009	0.0180571
720.087	0.0180976
720.165	0.0180693
720.243	0.0179736
720.321	0.0180402
720.399	0.0179821
720.477	0.0179114
720.555	0.0180276
720.634	0.0180325
720.712	0.0179762
720.790	0.0178828
720.868	0.0180269
720.946	0.0179665
721.024	0.0179600
721.102	0.0179880
721.180	0.0180048
721.259	0.0178651
721.337	0.0179170
721.415	0.0181254
721.493	0.0180464
721.571	0.0181501
721.649	0.0182520
721.727	0.0182417
721.805	0.0179860
721.884	0.0181020
721.962	0.0181776
722.040	0.0181236
722.118	0.0181226
722.196	0.0179617
722.274	0.0180530
722.352	0.0181026
722.430	0.0179815
722.509	0.0179160
722.587	0.0179910
722.665	0.0180202
722.743	0.0179060
722.821	0.0178840
722.899	0.0178804
722.977	0.0179330
723.055	0.0180013
723.134	0.0179630
723.212	0.0179791
723.290	0.0179196
723.368	0.0180594
723.446	0.0180995
723.524	0.0180049
723.602	0.0181397
723.680	0.0181319
723.759	0.0181400
723.837	0.0180624
723.915	0.0181922
723.993	0.0181969
724.071	0.0183873
724.149	0.0184019
724.227	0.0181966
724.305	0.0182426
724.384	0.0182825
724.462	0.0183447
724.540	0.0182544
724.618	0.0182835
724.696	0.0183199
724.774	0.0182888
724.852	0.0182578
724.930	0.0183080
725.009	0.0183408
725.087	0.0180543
725.165	0.0180442
725.243	0.0181377
725.321	0.0179730
725.399	0.0179521
725.477	0.0178578
725.555	0.0178200
725.634	0.0179753
725.712	0.0177758
725.790	0.0178237
725.868	0.0178541
725.946	0.0177618
726.024	0.0177738
726.102	0.0175957
726.180	0.0175613
726.259	0.0176209
726.337	0.0176051
726.415	0.0177922
726.493	0.0175670
726.571	0.0174909
726.649	0.0175053
726.727	0.0177063
726.805	0.0177331
726.884	0.0176175
726.962	0.0176729
727.040	0.0177579
727.118	0.0177724
727.196	0.0178376
727.274	0.0179575
727.352	0.0179296
727.430	0.0178965
727.509	0.0179478
727.587	0.0179285
727.665	0.0180402
727.743	0.0180904
727.821	0.0181615
727.899	0.0182095
727.977	0.0182021
728.055	0.0182705
728.134	0.0180431
728.212	0.0182277
728.290	0.0181883
728.368	0.0181943
728.446	0.0180820
728.524	0.0181049
728.602	0.0180913
728.680	0.0182066
728.759	0.0180704
728.837	0.0180208
728.915	0.0181896
728.993	0.0181634
729.071	0.0182743
729.149	0.0182102
729.227	0.0181804
729.305	0.0181786
729.384	0.0179845
729.462	0.0180324
729.540	0.0180470
729.618	0.0180412
729.696	0.0179169
729.774	0.0181177
729.852	0.0177911
729.930	0.0177870
730.009	0.0180042
730.087	0.0179101
730.165	0.0178167
730.243	0.0178615
730.321	0.0178684
730.399	0.0177681
730.477	0.0179766
730.555	0.0178194
730.634	0.0178522
730.712	0.0178729
730.790	0.0178965
730.868	0.0179028
730.946	0.0180238
731.024	0.0180013
731.102	0.0181148
731.180	0.0179460
731.259	0.0180346
731.337	0.0180781
731.415	0.0180779
731.493	0.0180065
731.571	0.0181483
731.649	0.0181763
731.727	0.0179441
731.805	0.0180646
731.884	0.0178658
731.962	0.0180077
732.040	0.0179713
732.118	0.0178540
732.196	0.0178379
732.274	0.0178105
732.352	0.0179278
732.430	0.0178101
732.509	0.0179678
732.587	0.0179483
732.665	0.0179554
732.743	0.0179851
732.821	0.0180830
732.899	0.0180711
732.977	0.0180668
733.055	0.0181596
733.134	0.0181075
733.212	0.0180588
733.290	0.0180441
733.368	0.0180405
733.446	0.0180737
733.524	0.0181200
733.602	0.0182439
733.680	0.0180978
733.759	0.0180375
733.837	0.0181726
733.915	0.0180962
733.993	0.0179864
734.071	0.0180054
734.149	0.0180105
734.227	0.0181237
734.305	0.0179369
734.384	0.0179553
734.462	0.0178972
734.540	0.0179333
734.618	0.0178728
734.696	0.0178757
734.774	0.0177580
734.852	0.0178886
734.930	0.0180158
735.009	0.0179735
735.087	0.0179993
735.165	0.0181047
735.243	0.0179642
735.321	0.0180632
735.399	0.0180708
735.477	0.0181150
735.555	0.0182261
735.634	0.0181161
735.712	0.0181895
735.790	0.0181190
735.868	0.0181670
735.946	0.0181096
736.024	0.0180608
736.102	0.0180112
736.180	0.0180086
736.259	0.0178174
736.337	0.0178693
736.415	0.0176163
736.493	0.0175679
736.571	0.0175288
736.649	0.0174080
736.727	0.0173360
736.805	0.0171744
736.884	0.0171283
736.962	0.0171815
737.040	0.0173132
737.118	0.0173777
737.196	0.0172509
737.274	0.0171938
737.352	0.0173254
737.430	0.0174461
737.509	0.0175300
737.587	0.0174963
737.665	0.0175757
737.743	0.0178114
737.821	0.0178077
737.899	0.0180080
737.977	0.0178761
738.055	0.0181657
738.134	0.0182538
738.212	0.0182122
738.290	0.0184275
738.368	0.0183112
738.446	0.0183759
738.524	0.0185333
738.602	0.0183338
738.680	0.0182906
738.759	0.0184040
738.837	0.0185282
738.915	0.0183840
738.993	0.0183791
739.071	0.0182851
739.149	0.0182608
739.227	0.0181319
739.305	0.0182008
739.384	0.0180860
739.462	0.0180386
739.540	0.0180220
739.618	0.0180153
739.696	0.0178638
739.774	0.0180526
739.852	0.0181225
739.930	0.0180802
740.009	0.0181477
740.087	0.0181752
740.165	0.0180584
740.243	0.0183097
740.321	0.0182469
740.399	0.0181597
740.477	0.0183354
740.555	0.0182443
740.634	0.0182848
740.712	0.0182432
740.790	0.0183946
740.868	0.0182539
740.946	0.0184249
741.024	0.0183667
741.102	0.0182133
741.180	0.0180711
741.259	0.0180368
741.337	0.0181997
741.415	0.0180659
741.493	0.0180383
741.571	0.0178610
741.649	0.0179296
741.727	0.0177637
741.805	0.0177706
741.884	0.0178642
741.962	0.0177750
742.040	0.0176638
742.118	0.0177978
742.196	0.0177433
742.274	0.0178333
742.352	0.0179157
742.430	0.0179514
742.509	0.0180215
742.587	0.0180283
742.665	0.0182452
742.743	0.0181712
742.821	0.0179399
742.899	0.0182067
742.977	0.0183345
743.055	0.0184336
743.134	0.0183403
743.212	0.0183947
743.290	0.0182812
743.368	0.0182859
743.446	0.0183093
743.524	0.0182692
743.602	0.0182581
743.680	0.0182239
743.759	0.0182641
743.837	0.0182623
743.915	0.0183436
743.993	0.0182191
744.071	0.0181519
744.149	0.0181909
744.227	0.0180442
744.305	0.0179907
744.384	0.0181332
744.462	0.0181472
744.540	0.0180687
744.618	0.0179818
744.696	0.0180953
744.774	0.0181246
744.852	0.0181624
744.930	0.0180373
745.009	0.0180247
745.087	0.0179451
745.165	0.0181183
745.243	0.0180646
745.321	0.0180509
745.399	0.0181364
745.477	0.0181541
745.555	0.0180918
745.634	0.0179792
745.712	0.0180730
745.790	0.0179598
745.868	0.0179020
745.946	0.0178300
746.024	0.0178875
746.102	0.0178320
746.180	0.0178397
746.259	0.0178297
746.337	0.0177818
746.415	0.0177129
746.493	0.0177383
746.571	0.0178318
746.649	0.0179146
746.727	0.0179094
746.805	0.0178548
746.884	0.0178249
746.962	0.0179654
747.040	0.0180418
747.118	0.0179349
747.196	0.0180090
747.274	0.0179872
747.352	0.0180791
747.430	0.0180824
747.509	0.0182930
747.587	0.0181440
747.665	0.0181345
747.743	0.0181794
747.821	0.0180674
747.899	0.0181075
747.977	0.0182262
748.055	0.0182288
748.134	0.0179700
748.212	0.0180356
748.290	0.0179247
748.368	0.0178036
748.446	0.0176736
748.524	0.0176398
748.602	0.0175127
748.680	0.0175523
748.759	0.0174052
748.837	0.0175343
748.915	0.0174673
748.993	0.0173055
749.071	0.0174661
749.149	0.0174138
749.227	0.0173456
749.305	0.0174213
749.384	0.0174595
749.462	0.0175251
749.540	0.0176208
749.618	0.0176608
749.696	0.0176559
749.774	0.0178311
749.852	0.0177519
749.930	0.0178558
750.009	0.0178036
750.087	0.0179715
750.165	0.0177674
750.243	0.0178838
750.321	0.0179592
750.399	0.0178899
750.477	0.0178036
750.555	0.0179735
750.634	0.0181364
750.712	0.0180199
750.790	0.0179362
750.868	0.0180710
750.946	0.0181012
751.024	0.0181783
751.102	0.0181230
751.180	0.0181342
751.259	0.0182045
751.337	0.0181775
751.415	0.0180572
751.493	0.0180406
751.571	0.0180809
751.649	0.0180378
751.727	0.0179384
751.805	0.0179759
751.884	0.0179184
751.962	0.0179382
752.040	0.0178289
752.118	0.0177592
752.196	0.0179581
752.274	0.0177827
752.352	0.0176806
752.430	0.0177911
752.509	0.0178581
752.587	0.0176905
752.665	0.0177868
752.743	0.0176414
752.821	0.0176709
752.899	0.0176756
752.977	0.0176558
753.055	0.0177239
753.134	0.0177654
753.212	0.0177796
753.290	0.0178167
753.368	0.0177615
753.446	0.0177154
753.524	0.0177779
753.602	0.0177363
753.680	0.0176824
753.759	0.0178688
753.837	0.0177368
753.915	0.0177665
753.993	0.0176102
754.071	0.0177096
754.149	0.0178197
754.227	0.0177146
754.305	0.0177829
754.384	0.0177882
754.462	0.0178593
754.540	0.0179304
754.618	0.0178812
754.696	0.0178950
754.774	0.0178187
754.852	0.0178992
754.930	0.0179276
755.009	0.0178729
755.087	0.0177769
755.165	0.0179005
755.243	0.0180214
755.321	0.0178409
755.399	0.0178786
755.477	0.0178479
755.555	0.0179061
755.634	0.0179456
755.712	0.0180765
755.790	0.0179269
755.868	0.0179504
755.946	0.0181615
756.024	0.0181915
756.102	0.0180965
756.180	0.0179688
756.259	0.0180070
756.337	0.0181123
756.415	0.0180738
756.493	0.0179811
756.571	0.0179102
756.649	0.0178601
756.727	0.0178246
756.805	0.0179037
756.884	0.0177513
756.962	0.0176282
757.040	0.0176477
757.118	0.0175213
757.196	0.0175631
757.274	0.0175786
757.352	0.0174085
757.430	0.0174633
757.509	0.0174484
757.587	0.0175621
757.665	0.0174360
757.743	0.0174528
757.821	0.0176640
757.899	0.0175314
757.977	0.0174932
758.055	0.0174770
758.134	0.0176530
758.212	0.0176665
758.290	0.0177296
758.368	0.0178027
758.446	0.0176456
758.524	0.0176218
758.602	0.0178308
758.680	0.0178150
758.759	0.0179070
758.837	0.0178140
758.915	0.0179228
758.993	0.0176891
759.071	0.0179487
759.149	0.0180785
759.227	0.0181101
759.305	0.0178856
759.384	0.0180135
759.462	0.0179079
759.540	0.0180770
759.618	0.0179924
759.696	0.0179559
759.774	0.0180240
759.852	0.0181107
759.930	0.0180790
760.009	0.0180460
760.087	0.0180421
760.165	0.0181247
760.243	0.0180403
760.321	0.0181747
760.399	0.0180316
760.477	0.0180260
760.555	0.0181004
760.634	0.0182008
760.712	0.0182079
760.790	0.0181871
760.868	0.0181181
760.946	0.0181236
761.024	0.0181631
761.102	0.0180208
761.180	0.0180694
761.259	0.0180432
761.337	0.0181432
761.415	0.0180729
761.493	0.0180842
761.571	0.0179493
761.649	0.0178150
761.727	0.0178186
761.805	0.0178241
761.884	0.0179057
761.962	0.0177536
762.040	0.0176727
762.118	0.0177523
762.196	0.0176761
762.274	0.0178123
762.352	0.0176427
762.430	0.0177267
762.509	0.0178494
762.587	0.0176910
762.665	0.0177667
762.743	0.0177491
762.821	0.0178008
762.899	0.0178973
762.977	0.0178716
763.055	0.0178566
763.134	0.0179237
763.212	0.0179047
763.290	0.0179783
763.368	0.0180770
763.446	0.0180278
763.524	0.0180441
763.602	0.0179671
763.680	0.0179613
763.759	0.0179764
763.837	0.0180269
763.915	0.0181667
763.993	0.0178997
764.071	0.0179094
764.149	0.0179136
764.227	0.0180001
764.305	0.0180118
764.384	0.0180624
764.462	0.0180247
764.540	0.0180252
764.618	0.0179969
764.696	0.0180162
764.774	0.0181306
764.852	0.0181080
764.930	0.0180574
765.009	0.0180727
765.087	0.0181323
765.165	0.0181248
765.243	0.0178970
765.321	0.0180529
765.399	0.0181961
765.477	0.0179712
765.555	0.0179148
765.634	0.0180938
765.712	0.0180237
765.790	0.0179321
765.868	0.0180324
765.946	0.0178642
766.024	0.0177622
766.102	0.0177635
766.180	0.0176521
766.259	0.0176998
766.337	0.0177013
766.415	0.0176148
766.493	0.0175638
766.571	0.0174995
766.649	0.0174265
766.727	0.0175299
766.805	0.0174524
766.884	0.0174265
766.962	0.0173466
767.040	0.0175315
767.118	0.0173788
767.196	0.0175343
767.274	0.0174982
767.352	0.0177718
767.430	0.0176944
767.509	0.0176514
767.587	0.0179057
767.665	0.0179182
767.743	0.0178452
767.821	0.0178365
767.899	0.0179807
767.977	0.0180663
768.055	0.0179758
768.134	0.0181086
768.212	0.0179955
768.290	0.0179839
768.368	0.0180656
768.446	0.0179559
768.524	0.0178701
768.602	0.0177772
768.680	0.0178883
768.759	0.0177943
768.837	0.0178210
768.915	0.0179621
768.993	0.0178259
769.071	0.0177838
769.149	0.0179118
769.227	0.0178370
769.305	0.0176640
769.384	0.0178222
769.462	0.0177625
769.540	0.0178985
769.618	0.0180444
769.696	0.0179369
769.774	0.0178189
769.852	0.0178213
769.930	0.0178738
770.009	0.0178373
770.087	0.0177788
770.165	0.0178786
770.243	0.0177221
770.321	0.0176832
770.399	0.0177982
770.477	0.0178630
770.555	0.0176974
770.634	0.0175971
770.712	0.0178519
770.790	0.0177547
770.868	0.0177121
770.946	0.0178191
771.024	0.0178236
771.102	0.0176463
771.180	0.0177762
771.259	0.0177657
771.337	0.0177659
771.415	0.0178238
771.493	0.0178245
771.571	0.0178478
771.649	0.0179852
771.727	0.0179377
771.805	0.0179301
771.884	0.0179315
771.962	0.0178352
772.040	0.0178569
772.118	0.0179885
772.196	0.0178549
772.274	0.0179100
772.352	0.0179482
772.430	0.0180061
772.509	0.0179315
772.587	0.0179330
772.665	0.0179530
772.743	0.0179881
772.821	0.0179519
772.899	0.0178891
772.977	0.0177728
773.055	0.0177318
773.134	0.0178897
773.212	0.0177721
773.290	0.0176997
773.368	0.0179447
773.446	0.0176885
773.524	0.0178387
773.602	0.0178667
773.680	0.0178503
773.759	0.0178333
773.837	0.0178683
773.915	0.0178338
773.993	0.0178243
774.071	0.0179811
774.149	0.0180154
774.227	0.0179523
774.305	0.0178544
774.384	0.0180800
774.462	0.0179498
774.540	0.0179282
774.618	0.0180569
774.696	0.0180787
774.774	0.0181632
774.852	0.0179986
774.930	0.0179117
775.009	0.0181438
775.087	0.0181920
775.165	0.0181693
775.243	0.0182269
775.321	0.0182949
775.399	0.0182183
775.477	0.0181912
775.555	0.0182313
775.634	0.0181111
775.712	0.0181441
775.790	0.0179636
775.868	0.0179746
775.946	0.0178733
776.024	0.0179942
776.102	0.0179902
776.180	0.0179668
776.259	0.0178862
776.337	0.0179739
776.415	0.0177702
776.493	0.0178294
776.571	0.0179056
776.649	0.0179857
776.727	0.0179111
776.805	0.0179063
776.884	0.0178998
776.962	0.0178561
777.040	0.0180336
777.118	0.0180453
777.196	0.0179400
777.274	0.0180557
777.352	0.0182903
777.430	0.0182936
777.509	0.0182201
777.587	0.0183653
777.665	0.0183031
777.743	0.0182561
777.821	0.0182627
777.899	0.0182782
777.977	0.0183424
778.055	0.0183280
778.134	0.0182105
778.212	0.0182216
778.290	0.0181223
778.368	0.0180561
778.446	0.0180814
778.524	0.0180885
778.602	0.0179336
778.680	0.0180016
778.759	0.0179806
778.837	0.0179308
778.915	0.0179603
778.993	0.0178162
779.071	0.0177579
779.149	0.0177792
779.227	0.0178690
779.305	0.0178912
779.384	0.0178107
779.462	0.0178194
779.540	0.0178123
779.618	0.0177192
779.696	0.0176892
779.774	0.0176556
779.852	0.0177561
779.930	0.0177242
780.009	0.0175882
780.087	0.0177208
780.165	0.0177334
780.243	0.0176727
780.321	0.0177139
780.399	0.0176805
780.477	0.0176208
780.555	0.0175877
780.634	0.0175947
780.712	0.0176002
780.790	0.0176123
780.868	0.0176535
780.946	0.0175403
781.024	0.0176205
781.102	0.0175910
781.180	0.0174282
781.259	0.0176574
781.337	0.0179066
781.415	0.0178263
781.493	0.0176366
781.571	0.0177825
781.649	0.0178346
781.727	0.0178286
781.805	0.0179199
781.884	0.0179123
781.962	0.0179165
782.040	0.0180127
782.118	0.0180264
782.196	0.0179508
782.274	0.0180453
782.352	0.0181241
782.430	0.0180978
782.509	0.0180618
782.587	0.0180848
782.665	0.0181322
782.743	0.0181173
782.821	0.0180692
782.899	0.0180408
782.977	0.0181574
783.055	0.0179365
783.134	0.0181483
783.212	0.0180598
783.290	0.0180694
783.368	0.0181457
783.446	0.0180462
783.524	0.0180359
783.602	0.0180119
783.680	0.0180823
783.759	0.0180408
783.837	0.0180915
783.915	0.0181826
783.993	0.0180893
784.071	0.0180517
784.149	0.0180394
784.227	0.0180163
784.305	0.0181476
784.384	0.0180064
784.462	0.0181677
784.540	0.0180511
784.618	0.0181123
784.696	0.0182390
784.774	0.0181467
784.852	0.0180886
784.930	0.0181537
785.009	0.0180547
785.087	0.0180830
785.165	0.0181090
785.243	0.0179607
785.321	0.0180793
785.399	0.0179907
785.477	0.0179484
785.555	0.0179874
785.634	0.0178696
785.712	0.0179388
785.790	0.0178448
785.868	0.0179344
785.946	0.0178128
786.024	0.0179169
786.102	0.0179034
786.180	0.0178609
786.259	0.0178518
786.337	0.0180231
786.415	0.0178915
786.493	0.0180759
786.571	0.0178906
786.649	0.0179865
786.727	0.0179837
786.805	0.0181248
786.884	0.0180000
786.962	0.0180783
787.040	0.0180546
787.118	0.0180569
787.196	0.0178750
787.274	0.0180842
787.352	0.0181827
787.430	0.0180703
787.509	0.0180754
787.587	0.0179848
787.665	0.0180130
787.743	0.0180149
787.821	0.0179938
787.899	0.0179839
787.977	0.0179279
788.055	0.0180772
788.134	0.0180595
788.212	0.0180049
788.290	0.0180223
788.368	0.0181352
788.446	0.0179404
788.524	0.0180884
788.602	0.0180650
788.680	0.0179645
788.759	0.0180157
788.837	0.0179472
788.915	0.0178819
788.993	0.0180145
789.071	0.0179073
789.149	0.0178720
789.227	0.0178252
789.305	0.0177982
789.384	0.0177860
789.462	0.0177932
789.540	0.0177166
789.618	0.0176501
789.696	0.0176311
789.774	0.0176903
789.852	0.0176176
789.930	0.0175223
790.009	0.0176309
790.087	0.0178336
790.165	0.0177695
790.243	0.0177538
790.321	0.0177170
790.399	0.0176607
790.477	0.0177911
790.555	0.0178332
790.634	0.0179485
790.712	0.0179720
790.790	0.0180419
790.868	0.0179150
790.946	0.0178931
791.024	0.0179788
791.102	0.0179413
791.180	0.0179748
791.259	0.0180464
791.337	0.0180219
791.415	0.0179809
791.493	0.0180441
791.571	0.0179649
791.649	0.0179940
791.727	0.0178841
791.805	0.0179476
791.884	0.0180614
791.962	0.0179914
792.040	0.0178993
792.118	0.0178802
792.196	0.0179214
792.274	0.0177640
792.352	0.0177832
792.430	0.0177917
792.509	0.0177341
792.587	0.0177667
792.665	0.0177309
792.743	0.0176780
792.821	0.0175967
792.899	0.0177589
792.977	0.0177230
793.055	0.0177657
793.134	0.0178052
793.212	0.0178205
793.290	0.0178153
793.368	0.0178707
793.446	0.0177583
793.524	0.0179124
793.602	0.0180190
793.680	0.0179562
793.759	0.0180104
793.837	0.0180963
793.915	0.0180981
793.993	0.0181549
794.071	0.0182064
794.149	0.0181413
794.227	0.0182750
794.305	0.0183826
794.384	0.0182985
794.462	0.0183340
794.540	0.0182665
794.618	0.0184163
794.696	0.0184307
794.774	0.0183527
794.852	0.0182791
794.930	0.0183024
