06/03/2022	18:49:00	Ver.	4.1	UNKNOWN
Optical Delay	475.008614	Delta X		0.078125	Sweeps	1	Scan Rate	0/0
Coordinates	Axis 1	NaN	Axis 2	NaN	Axis 3	NaN	Axis 4	NaN	Axis 5	NaN	Axis 6	0.000000
TX Power	0.000000	RX Power	0.000000

475.009	0.0186475
475.087	0.0186851
475.165	0.0185217
475.243	0.0185646
475.321	0.0186868
475.399	0.0186552
475.477	0.0186653
475.555	0.0185781
475.634	0.0186874
475.712	0.0187813
475.790	0.0186486
475.868	0.0186913
475.946	0.0185555
476.024	0.0185550
476.102	0.0186871
476.180	0.0186681
476.259	0.0186561
476.337	0.0186765
476.415	0.0185719
476.493	0.0185738
476.571	0.0185386
476.649	0.0185404
476.727	0.0186462
476.805	0.0185324
476.884	0.0184201
476.962	0.0186245
477.040	0.0184789
477.118	0.0183952
477.196	0.0184960
477.274	0.0183108
477.352	0.0184083
477.430	0.0183646
477.509	0.0183770
477.587	0.0183807
477.665	0.0183923
477.743	0.0182716
477.821	0.0183294
477.899	0.0182999
477.977	0.0183028
478.055	0.0183964
478.134	0.0183387
478.212	0.0182491
478.290	0.0183059
478.368	0.0184122
478.446	0.0183546
478.524	0.0182315
478.602	0.0183747
478.680	0.0183540
478.759	0.0184898
478.837	0.0183467
478.915	0.0184548
478.993	0.0183845
479.071	0.0184135
479.149	0.0184180
479.227	0.0184249
479.305	0.0183842
479.384	0.0183746
479.462	0.0183762
479.540	0.0184783
479.618	0.0184586
479.696	0.0184086
479.774	0.0182711
479.852	0.0185030
479.930	0.0184936
480.009	0.0184415
480.087	0.0184599
480.165	0.0184663
480.243	0.0184595
480.321	0.0185078
480.399	0.0183849
480.477	0.0185541
480.555	0.0186262
480.634	0.0185285
480.712	0.0185973
480.790	0.0185466
480.868	0.0185283
480.946	0.0185912
481.024	0.0186043
481.102	0.0186002
481.180	0.0187106
481.259	0.0186431
481.337	0.0186684
481.415	0.0188569
481.493	0.0186996
481.571	0.0186640
481.649	0.0187910
481.727	0.0188403
481.805	0.0188380
481.884	0.0188605
481.962	0.0188800
482.040	0.0188082
482.118	0.0189471
482.196	0.0189580
482.274	0.0190142
482.352	0.0189101
482.430	0.0190302
482.509	0.0189999
482.587	0.0190459
482.665	0.0189668
482.743	0.0189743
482.821	0.0190395
482.899	0.0189037
482.977	0.0190204
483.055	0.0186995
483.134	0.0188411
483.212	0.0187731
483.290	0.0189767
483.368	0.0189626
483.446	0.0188426
483.524	0.0189165
483.602	0.0188693
483.680	0.0188287
483.759	0.0187964
483.837	0.0188048
483.915	0.0188002
483.993	0.0186686
484.071	0.0187561
484.149	0.0187764
484.227	0.0187729
484.305	0.0186429
484.384	0.0186173
484.462	0.0186052
484.540	0.0186198
484.618	0.0184460
484.696	0.0185962
484.774	0.0185793
484.852	0.0185551
484.930	0.0185710
485.009	0.0184137
485.087	0.0185126
485.165	0.0186212
485.243	0.0183974
485.321	0.0185365
485.399	0.0184998
485.477	0.0184641
485.555	0.0185558
485.634	0.0184217
485.712	0.0184328
485.790	0.0184774
485.868	0.0184363
485.946	0.0183614
486.024	0.0183765
486.102	0.0183756
486.180	0.0184002
486.259	0.0183210
486.337	0.0184400
486.415	0.0183517
486.493	0.0183796
486.571	0.0183739
486.649	0.0183240
486.727	0.0182777
486.805	0.0183320
486.884	0.0183001
486.962	0.0182543
487.040	0.0182439
487.118	0.0182072
487.196	0.0184177
487.274	0.0182960
487.352	0.0182656
487.430	0.0182101
487.509	0.0181208
487.587	0.0181349
487.665	0.0181826
487.743	0.0181605
487.821	0.0180769
487.899	0.0181375
487.977	0.0180586
488.055	0.0181745
488.134	0.0180267
488.212	0.0181679
488.290	0.0180715
488.368	0.0182007
488.446	0.0181628
488.524	0.0180012
488.602	0.0179566
488.680	0.0180344
488.759	0.0181638
488.837	0.0180036
488.915	0.0180039
488.993	0.0181068
489.071	0.0179314
489.149	0.0179574
489.227	0.0181953
489.305	0.0180822
489.384	0.0180857
489.462	0.0180296
489.540	0.0180546
489.618	0.0180278
489.696	0.0179930
489.774	0.0180794
489.852	0.0180978
489.930	0.0180935
490.009	0.0180096
490.087	0.0181020
490.165	0.0182406
490.243	0.0180962
490.321	0.0181262
490.399	0.0182343
490.477	0.0182013
490.555	0.0181429
490.634	0.0182934
490.712	0.0182962
490.790	0.0182176
490.868	0.0183961
490.946	0.0183888
491.024	0.0183385
491.102	0.0184257
491.180	0.0182764
491.259	0.0184548
491.337	0.0184506
491.415	0.0184599
491.493	0.0184923
491.571	0.0184453
491.649	0.0185662
491.727	0.0185281
491.805	0.0185287
491.884	0.0185318
491.962	0.0186973
492.040	0.0185800
492.118	0.0186372
492.196	0.0186420
492.274	0.0185445
492.352	0.0185497
492.430	0.0186373
492.509	0.0186584
492.587	0.0187189
492.665	0.0187164
492.743	0.0186275
492.821	0.0186114
492.899	0.0187610
492.977	0.0187052
493.055	0.0186670
493.134	0.0186448
493.212	0.0186586
493.290	0.0186760
493.368	0.0185741
493.446	0.0186535
493.524	0.0186473
493.602	0.0186874
493.680	0.0186304
493.759	0.0184956
493.837	0.0186001
493.915	0.0185927
493.993	0.0185237
494.071	0.0185233
494.149	0.0184650
494.227	0.0185622
494.305	0.0185927
494.384	0.0186081
494.462	0.0186007
494.540	0.0185471
494.618	0.0186273
494.696	0.0186384
494.774	0.0185050
494.852	0.0184242
494.930	0.0184019
495.009	0.0184666
495.087	0.0184661
495.165	0.0184147
495.243	0.0184806
495.321	0.0185088
495.399	0.0184111
495.477	0.0183004
495.555	0.0183634
495.634	0.0183844
495.712	0.0183431
495.790	0.0182570
495.868	0.0183961
495.946	0.0183449
496.024	0.0183336
496.102	0.0185031
496.180	0.0182549
496.259	0.0183703
496.337	0.0184110
496.415	0.0182880
496.493	0.0182422
496.571	0.0183890
496.649	0.0182604
496.727	0.0182771
496.805	0.0182981
496.884	0.0184428
496.962	0.0183410
497.040	0.0182268
497.118	0.0183089
497.196	0.0183552
497.274	0.0181807
497.352	0.0183573
497.430	0.0183408
497.509	0.0183582
497.587	0.0182324
497.665	0.0182529
497.743	0.0181929
497.821	0.0183144
497.899	0.0183248
497.977	0.0183179
498.055	0.0182487
498.134	0.0182555
498.212	0.0182063
498.290	0.0182368
498.368	0.0181606
498.446	0.0183230
498.524	0.0184231
498.602	0.0182870
498.680	0.0183489
498.759	0.0182995
498.837	0.0182867
498.915	0.0183569
498.993	0.0183958
499.071	0.0182948
499.149	0.0183126
499.227	0.0182506
499.305	0.0182277
499.384	0.0183551
499.462	0.0182993
499.540	0.0182722
499.618	0.0182516
499.696	0.0182706
499.774	0.0182452
499.852	0.0183446
499.930	0.0182703
500.009	0.0182545
500.087	0.0182992
500.165	0.0183732
500.243	0.0185686
500.321	0.0183740
500.399	0.0183592
500.477	0.0184410
500.555	0.0184138
500.634	0.0184623
500.712	0.0185188
500.790	0.0185175
500.868	0.0186720
500.946	0.0186068
501.024	0.0185602
501.102	0.0186860
501.180	0.0185163
501.259	0.0185380
501.337	0.0185563
501.415	0.0185611
501.493	0.0185598
501.571	0.0185513
501.649	0.0184825
501.727	0.0185611
501.805	0.0186414
501.884	0.0186549
501.962	0.0185928
502.040	0.0186102
502.118	0.0185773
502.196	0.0186995
502.274	0.0187334
502.352	0.0186885
502.430	0.0186761
502.509	0.0185440
502.587	0.0185148
502.665	0.0188338
502.743	0.0186518
502.821	0.0186771
502.899	0.0186468
502.977	0.0186700
503.055	0.0186991
503.134	0.0187890
503.212	0.0187367
503.290	0.0186789
503.368	0.0186750
503.446	0.0186673
503.524	0.0187264
503.602	0.0188049
503.680	0.0186230
503.759	0.0186850
503.837	0.0187037
503.915	0.0187830
503.993	0.0186185
504.071	0.0186707
504.149	0.0186832
504.227	0.0186580
504.305	0.0185945
504.384	0.0186246
504.462	0.0186853
504.540	0.0187423
504.618	0.0187720
504.696	0.0185680
504.774	0.0185632
504.852	0.0185715
504.930	0.0185033
505.009	0.0184937
505.087	0.0185256
505.165	0.0186917
505.243	0.0184351
505.321	0.0184023
505.399	0.0185732
505.477	0.0185009
505.555	0.0185743
505.634	0.0184717
505.712	0.0183778
505.790	0.0186217
505.868	0.0185218
505.946	0.0185383
506.024	0.0185362
506.102	0.0184399
506.180	0.0183484
506.259	0.0185432
506.337	0.0184633
506.415	0.0184721
506.493	0.0184486
506.571	0.0183388
506.649	0.0182957
506.727	0.0184500
506.805	0.0184253
506.884	0.0184443
506.962	0.0184734
507.040	0.0184973
507.118	0.0183370
507.196	0.0183282
507.274	0.0184617
507.352	0.0184946
507.430	0.0183591
507.509	0.0182280
507.587	0.0184216
507.665	0.0185502
507.743	0.0183691
507.821	0.0184339
507.899	0.0183382
507.977	0.0184669
508.055	0.0183377
508.134	0.0184637
508.212	0.0187280
508.290	0.0184496
508.368	0.0184814
508.446	0.0185213
508.524	0.0184426
508.602	0.0183755
508.680	0.0185250
508.759	0.0184620
508.837	0.0185029
508.915	0.0185334
508.993	0.0185432
509.071	0.0185645
509.149	0.0185726
509.227	0.0185361
509.305	0.0184929
509.384	0.0187241
509.462	0.0187202
509.540	0.0185980
509.618	0.0186099
509.696	0.0185258
509.774	0.0188290
509.852	0.0186488
509.930	0.0186487
510.009	0.0187386
510.087	0.0186485
510.165	0.0186439
510.243	0.0187054
510.321	0.0187290
510.399	0.0188670
510.477	0.0186733
510.555	0.0187534
510.634	0.0189163
510.712	0.0187688
510.790	0.0185587
510.868	0.0187381
510.946	0.0187435
511.024	0.0187945
511.102	0.0188541
511.180	0.0187962
511.259	0.0188983
511.337	0.0188811
511.415	0.0188205
511.493	0.0187797
511.571	0.0189529
511.649	0.0189778
511.727	0.0188692
511.805	0.0189205
511.884	0.0189204
511.962	0.0190665
512.040	0.0188110
512.118	0.0189278
512.196	0.0189252
512.274	0.0190373
512.352	0.0189460
512.430	0.0190278
512.509	0.0190002
512.587	0.0189285
512.665	0.0191121
512.743	0.0189025
512.821	0.0190507
512.899	0.0189803
512.977	0.0189719
513.055	0.0189768
513.134	0.0191405
513.212	0.0191217
513.290	0.0189952
513.368	0.0190331
513.446	0.0189990
513.524	0.0190975
513.602	0.0189303
513.680	0.0189625
513.759	0.0189339
513.837	0.0189060
513.915	0.0188119
513.993	0.0187764
514.071	0.0188164
514.149	0.0187769
514.227	0.0186978
514.305	0.0187468
514.384	0.0186246
514.462	0.0186703
514.540	0.0185190
514.618	0.0186789
514.696	0.0186206
514.774	0.0184809
514.852	0.0184946
514.930	0.0183572
515.009	0.0183725
515.087	0.0182777
515.165	0.0181990
515.243	0.0182026
515.321	0.0181373
515.399	0.0179316
515.477	0.0181306
515.555	0.0182453
515.634	0.0178585
515.712	0.0179642
515.790	0.0179899
515.868	0.0179066
515.946	0.0179383
516.024	0.0179547
516.102	0.0178236
516.180	0.0177808
516.259	0.0179552
516.337	0.0178648
516.415	0.0178087
516.493	0.0178769
516.571	0.0177855
516.649	0.0177493
516.727	0.0178354
516.805	0.0179000
516.884	0.0178716
516.962	0.0177769
517.040	0.0178384
517.118	0.0178542
517.196	0.0177286
517.274	0.0178933
517.352	0.0178255
517.430	0.0177513
517.509	0.0177979
517.587	0.0177281
517.665	0.0177837
517.743	0.0178873
517.821	0.0176936
517.899	0.0178538
517.977	0.0177796
518.055	0.0177097
518.134	0.0177690
518.212	0.0178197
518.290	0.0178412
518.368	0.0177520
518.446	0.0176956
518.524	0.0177732
518.602	0.0179296
518.680	0.0179550
518.759	0.0178750
518.837	0.0178075
518.915	0.0180086
518.993	0.0180105
519.071	0.0181507
519.149	0.0180527
519.227	0.0180770
519.305	0.0182397
519.384	0.0181709
519.462	0.0183253
519.540	0.0183253
519.618	0.0183618
519.696	0.0183887
519.774	0.0184666
519.852	0.0184845
519.930	0.0184545
520.009	0.0184786
520.087	0.0184999
520.165	0.0186568
520.243	0.0187744
520.321	0.0186539
520.399	0.0188474
520.477	0.0186318
520.555	0.0188242
520.634	0.0188153
520.712	0.0186973
520.790	0.0188541
520.868	0.0187817
520.946	0.0188365
521.024	0.0188655
521.102	0.0190367
521.180	0.0189609
521.259	0.0188903
521.337	0.0187593
521.415	0.0189260
521.493	0.0187451
521.571	0.0187625
521.649	0.0188136
521.727	0.0190226
521.805	0.0189555
521.884	0.0189357
521.962	0.0189911
522.040	0.0188961
522.118	0.0189959
522.196	0.0188333
522.274	0.0189196
522.352	0.0188454
522.430	0.0187312
522.509	0.0186427
522.587	0.0187451
522.665	0.0186693
522.743	0.0187543
522.821	0.0186297
522.899	0.0186520
522.977	0.0186396
523.055	0.0187143
523.134	0.0186015
523.212	0.0185558
523.290	0.0186324
523.368	0.0186916
523.446	0.0184560
523.524	0.0185622
523.602	0.0185462
523.680	0.0184597
523.759	0.0185448
523.837	0.0184130
523.915	0.0183028
523.993	0.0182980
524.071	0.0183601
524.149	0.0183486
524.227	0.0184930
524.305	0.0182732
524.384	0.0183803
524.462	0.0183743
524.540	0.0183551
524.618	0.0183043
524.696	0.0182538
524.774	0.0183456
524.852	0.0181888
524.930	0.0182066
525.009	0.0182426
525.087	0.0182025
525.165	0.0180568
525.243	0.0181743
525.321	0.0181206
525.399	0.0180752
525.477	0.0181517
525.555	0.0179858
525.634	0.0179519
525.712	0.0179406
525.790	0.0181612
525.868	0.0180373
525.946	0.0179594
526.024	0.0181350
526.102	0.0178977
526.180	0.0178791
526.259	0.0181708
526.337	0.0180958
526.415	0.0180899
526.493	0.0180165
526.571	0.0180109
526.649	0.0179136
526.727	0.0180014
526.805	0.0179886
526.884	0.0180321
526.962	0.0180482
527.040	0.0180747
527.118	0.0180785
527.196	0.0181435
527.274	0.0181248
527.352	0.0181949
527.430	0.0181631
527.509	0.0181080
527.587	0.0181746
527.665	0.0182866
527.743	0.0182551
527.821	0.0181239
527.899	0.0181725
527.977	0.0183221
528.055	0.0181480
528.134	0.0181681
528.212	0.0183543
528.290	0.0182465
528.368	0.0181490
528.446	0.0183166
528.524	0.0184047
528.602	0.0183628
528.680	0.0183570
528.759	0.0184202
528.837	0.0184383
528.915	0.0182945
528.993	0.0183532
529.071	0.0185040
529.149	0.0185336
529.227	0.0184492
529.305	0.0186775
529.384	0.0185945
529.462	0.0187364
529.540	0.0187170
529.618	0.0187122
529.696	0.0187001
529.774	0.0187060
529.852	0.0188018
529.930	0.0187794
530.009	0.0188433
530.087	0.0189259
530.165	0.0188750
530.243	0.0189254
530.321	0.0189748
530.399	0.0190540
530.477	0.0190972
530.555	0.0190576
530.634	0.0191604
530.712	0.0193134
530.790	0.0190775
530.868	0.0191655
530.946	0.0192850
531.024	0.0192294
531.102	0.0192018
531.180	0.0193068
531.259	0.0193417
531.337	0.0193074
531.415	0.0193269
531.493	0.0193201
531.571	0.0192825
531.649	0.0192338
531.727	0.0193651
531.805	0.0193499
531.884	0.0192089
531.962	0.0193844
532.040	0.0193214
532.118	0.0193082
532.196	0.0194595
532.274	0.0192776
532.352	0.0194115
532.430	0.0192976
532.509	0.0192544
532.587	0.0192788
532.665	0.0192203
532.743	0.0192532
532.821	0.0192121
532.899	0.0192922
532.977	0.0192793
533.055	0.0191209
533.134	0.0192194
533.212	0.0190983
533.290	0.0192384
533.368	0.0192358
533.446	0.0191378
533.524	0.0190307
533.602	0.0189722
533.680	0.0190680
533.759	0.0190609
533.837	0.0190245
533.915	0.0191048
533.993	0.0190661
534.071	0.0189001
534.149	0.0189494
534.227	0.0189308
534.305	0.0189508
534.384	0.0188308
534.462	0.0189357
534.540	0.0190338
534.618	0.0189757
534.696	0.0189532
534.774	0.0190075
534.852	0.0189635
534.930	0.0189165
535.009	0.0188251
535.087	0.0188499
535.165	0.0188482
535.243	0.0185894
535.321	0.0186366
535.399	0.0186238
535.477	0.0185598
535.555	0.0184047
535.634	0.0183907
535.712	0.0182099
535.790	0.0180810
535.868	0.0179503
535.946	0.0179092
536.024	0.0178394
536.102	0.0178897
536.180	0.0178229
536.259	0.0177631
536.337	0.0176739
536.415	0.0175823
536.493	0.0177507
536.571	0.0177282
536.649	0.0177219
536.727	0.0178226
536.805	0.0177927
536.884	0.0176811
536.962	0.0177268
537.040	0.0176729
537.118	0.0178602
537.196	0.0179318
537.274	0.0176708
537.352	0.0175665
537.430	0.0175307
537.509	0.0175157
537.587	0.0174545
537.665	0.0173129
537.743	0.0172350
537.821	0.0171002
537.899	0.0171748
537.977	0.0170403
538.055	0.0169910
538.134	0.0170029
538.212	0.0171351
538.290	0.0170381
538.368	0.0172289
538.446	0.0171889
538.524	0.0172968
538.602	0.0173518
538.680	0.0173819
538.759	0.0174951
538.837	0.0174957
538.915	0.0175294
538.993	0.0175238
539.071	0.0175668
539.149	0.0176654
539.227	0.0176248
539.305	0.0176102
539.384	0.0175989
539.462	0.0176689
539.540	0.0175850
539.618	0.0176649
539.696	0.0177701
539.774	0.0176662
539.852	0.0174706
539.930	0.0175932
540.009	0.0174583
540.087	0.0175462
540.165	0.0175015
540.243	0.0175081
540.321	0.0175632
540.399	0.0176027
540.477	0.0175366
540.555	0.0174746
540.634	0.0177491
540.712	0.0176460
540.790	0.0179225
540.868	0.0180616
540.946	0.0180810
541.024	0.0180217
541.102	0.0182935
541.180	0.0186095
541.259	0.0187497
541.337	0.0187830
541.415	0.0190065
541.493	0.0192682
541.571	0.0194470
541.649	0.0195360
541.727	0.0198524
541.805	0.0200851
541.884	0.0200606
541.962	0.0201850
542.040	0.0203172
542.118	0.0205280
542.196	0.0205173
542.274	0.0205164
542.352	0.0206531
542.430	0.0207201
542.509	0.0206229
542.587	0.0205716
542.665	0.0206228
542.743	0.0204675
542.821	0.0205956
542.899	0.0205383
542.977	0.0206826
543.055	0.0204732
543.134	0.0204250
543.212	0.0203385
543.290	0.0202026
543.368	0.0201968
543.446	0.0201911
543.524	0.0199935
543.602	0.0198665
543.680	0.0197102
543.759	0.0196873
543.837	0.0196056
543.915	0.0195124
543.993	0.0192382
544.071	0.0190493
544.149	0.0189338
544.227	0.0189229
544.305	0.0188181
544.384	0.0189426
544.462	0.0186382
544.540	0.0184616
544.618	0.0185160
544.696	0.0184309
544.774	0.0182072
544.852	0.0183036
544.930	0.0183515
545.009	0.0180143
545.087	0.0181409
545.165	0.0180137
545.243	0.0178760
545.321	0.0179619
545.399	0.0178783
545.477	0.0177465
545.555	0.0179419
545.634	0.0179093
545.712	0.0179582
545.790	0.0178849
545.868	0.0178481
545.946	0.0178145
546.024	0.0179501
546.102	0.0180362
546.180	0.0180763
546.259	0.0178310
546.337	0.0180614
546.415	0.0180434
546.493	0.0181664
546.571	0.0181129
546.649	0.0180782
546.727	0.0181544
546.805	0.0180197
546.884	0.0181878
546.962	0.0180679
547.040	0.0181474
547.118	0.0179272
547.196	0.0179777
547.274	0.0180476
547.352	0.0180676
547.430	0.0180293
547.509	0.0178815
547.587	0.0179887
547.665	0.0179763
547.743	0.0179636
547.821	0.0178451
547.899	0.0179262
547.977	0.0179665
548.055	0.0180315
548.134	0.0177701
548.212	0.0179327
548.290	0.0178236
548.368	0.0178522
548.446	0.0178371
548.524	0.0179783
548.602	0.0179750
548.680	0.0179340
548.759	0.0179320
548.837	0.0180626
548.915	0.0178518
548.993	0.0178906
549.071	0.0180377
549.149	0.0179594
549.227	0.0179214
549.305	0.0182568
549.384	0.0180945
549.462	0.0181348
549.540	0.0182233
549.618	0.0182410
549.696	0.0182529
549.774	0.0181971
549.852	0.0182554
549.930	0.0183028
550.009	0.0183424
550.087	0.0183228
550.165	0.0182125
550.243	0.0181884
550.321	0.0182372
550.399	0.0182567
550.477	0.0183813
550.555	0.0183747
550.634	0.0183657
550.712	0.0183835
550.790	0.0182716
550.868	0.0184201
550.946	0.0184544
551.024	0.0183575
551.102	0.0182862
551.180	0.0185493
551.259	0.0184916
551.337	0.0186133
551.415	0.0186249
551.493	0.0185754
551.571	0.0186577
551.649	0.0187019
551.727	0.0187714
551.805	0.0188866
551.884	0.0188868
551.962	0.0189156
552.040	0.0189234
552.118	0.0189283
552.196	0.0189270
552.274	0.0189973
552.352	0.0190113
552.430	0.0188988
552.509	0.0190363
552.587	0.0189457
552.665	0.0190322
552.743	0.0191344
552.821	0.0190841
552.899	0.0188818
552.977	0.0189701
553.055	0.0190616
553.134	0.0189390
553.212	0.0188375
553.290	0.0189619
553.368	0.0189326
553.446	0.0190221
553.524	0.0188657
553.602	0.0188567
553.680	0.0188995
553.759	0.0188207
553.837	0.0188806
553.915	0.0190340
553.993	0.0189593
554.071	0.0189201
554.149	0.0189762
554.227	0.0191109
554.305	0.0190977
554.384	0.0190682
554.462	0.0192365
554.540	0.0190778
554.618	0.0190466
554.696	0.0190211
554.774	0.0188989
554.852	0.0190349
554.930	0.0190582
555.009	0.0191633
555.087	0.0189798
555.165	0.0189894
555.243	0.0189648
555.321	0.0190352
555.399	0.0190105
555.477	0.0187788
555.555	0.0187194
555.634	0.0187882
555.712	0.0187469
555.790	0.0186818
555.868	0.0184830
555.946	0.0184353
556.024	0.0185624
556.102	0.0184650
556.180	0.0183930
556.259	0.0183506
556.337	0.0182419
556.415	0.0182742
556.493	0.0180399
556.571	0.0180415
556.649	0.0180344
556.727	0.0179777
556.805	0.0178770
556.884	0.0180136
556.962	0.0179466
557.040	0.0177339
557.118	0.0177291
557.196	0.0176452
557.274	0.0176940
557.352	0.0177138
557.430	0.0176712
557.509	0.0175536
557.587	0.0175271
557.665	0.0176502
557.743	0.0177375
557.821	0.0177429
557.899	0.0175797
557.977	0.0177318
558.055	0.0177474
558.134	0.0177596
558.212	0.0177156
558.290	0.0177225
558.368	0.0178284
558.446	0.0178513
558.524	0.0179482
558.602	0.0178918
558.680	0.0180219
558.759	0.0179723
558.837	0.0180745
558.915	0.0181564
558.993	0.0181494
559.071	0.0182156
559.149	0.0184389
559.227	0.0184275
559.305	0.0186219
559.384	0.0186323
559.462	0.0185386
559.540	0.0188325
559.618	0.0188396
559.696	0.0187558
559.774	0.0189667
559.852	0.0188928
559.930	0.0189111
560.009	0.0190488
560.087	0.0189987
560.165	0.0191449
560.243	0.0189792
560.321	0.0189906
560.399	0.0190899
560.477	0.0191113
560.555	0.0191913
560.634	0.0191236
560.712	0.0190369
560.790	0.0192317
560.868	0.0191947
560.946	0.0193298
561.024	0.0192667
561.102	0.0191425
561.180	0.0192247
561.259	0.0191525
561.337	0.0191443
561.415	0.0190305
561.493	0.0190150
561.571	0.0189636
561.649	0.0187735
561.727	0.0187212
561.805	0.0186835
561.884	0.0186127
561.962	0.0186916
562.040	0.0185358
562.118	0.0184338
562.196	0.0185047
562.274	0.0184028
562.352	0.0184705
562.430	0.0185432
562.509	0.0184604
562.587	0.0183685
562.665	0.0182945
562.743	0.0183408
562.821	0.0182962
562.899	0.0183015
562.977	0.0183900
563.055	0.0182678
563.134	0.0183632
563.212	0.0184206
563.290	0.0184528
563.368	0.0184502
563.446	0.0184254
563.524	0.0185687
563.602	0.0185931
563.680	0.0184744
563.759	0.0184231
563.837	0.0186623
563.915	0.0186686
563.993	0.0185406
564.071	0.0185199
564.149	0.0186025
564.227	0.0186561
564.305	0.0186758
564.384	0.0185946
564.462	0.0185415
564.540	0.0186057
564.618	0.0186645
564.696	0.0186024
564.774	0.0185715
564.852	0.0185834
564.930	0.0185325
565.009	0.0185840
565.087	0.0184498
565.165	0.0182796
565.243	0.0183880
565.321	0.0183805
565.399	0.0184683
565.477	0.0184491
565.555	0.0183523
565.634	0.0182600
565.712	0.0182529
565.790	0.0181573
565.868	0.0182558
565.946	0.0182466
566.024	0.0182895
566.102	0.0182917
566.180	0.0182052
566.259	0.0181694
566.337	0.0182491
566.415	0.0181962
566.493	0.0182388
566.571	0.0181884
566.649	0.0183118
566.727	0.0184177
566.805	0.0183585
566.884	0.0183654
566.962	0.0184348
567.040	0.0185518
567.118	0.0184291
567.196	0.0184592
567.274	0.0185241
567.352	0.0186778
567.430	0.0185758
567.509	0.0184933
567.587	0.0185482
567.665	0.0183985
567.743	0.0184655
567.821	0.0184124
567.899	0.0185195
567.977	0.0183517
568.055	0.0182561
568.134	0.0184877
568.212	0.0184012
568.290	0.0184090
568.368	0.0183979
568.446	0.0185056
568.524	0.0184531
568.602	0.0184882
568.680	0.0184322
568.759	0.0184241
568.837	0.0184093
568.915	0.0184369
568.993	0.0182880
569.071	0.0184692
569.149	0.0183326
569.227	0.0184682
569.305	0.0184165
569.384	0.0182443
569.462	0.0181964
569.540	0.0181710
569.618	0.0182040
569.696	0.0183149
569.774	0.0182156
569.852	0.0183124
569.930	0.0182951
570.009	0.0183806
570.087	0.0181724
570.165	0.0182315
570.243	0.0182498
570.321	0.0182272
570.399	0.0183382
570.477	0.0182333
570.555	0.0183979
570.634	0.0183800
570.712	0.0182852
570.790	0.0183773
570.868	0.0184269
570.946	0.0182977
571.024	0.0183310
571.102	0.0184023
571.180	0.0184254
571.259	0.0183703
571.337	0.0182673
571.415	0.0183418
571.493	0.0184632
571.571	0.0183658
571.649	0.0183679
571.727	0.0184214
571.805	0.0183514
571.884	0.0184027
571.962	0.0184753
572.040	0.0183673
572.118	0.0183351
572.196	0.0184649
572.274	0.0184254
572.352	0.0185477
572.430	0.0185799
572.509	0.0185863
572.587	0.0186107
572.665	0.0186955
572.743	0.0187933
572.821	0.0186204
572.899	0.0187165
572.977	0.0187616
573.055	0.0188959
573.134	0.0187755
573.212	0.0187782
573.290	0.0187242
573.368	0.0188603
573.446	0.0187439
573.524	0.0188807
573.602	0.0188651
573.680	0.0188083
573.759	0.0189565
573.837	0.0187584
573.915	0.0188472
573.993	0.0188483
574.071	0.0186827
574.149	0.0187609
574.227	0.0188485
574.305	0.0187717
574.384	0.0187577
574.462	0.0187048
574.540	0.0185868
574.618	0.0185098
574.696	0.0186527
574.774	0.0185571
574.852	0.0186449
574.930	0.0185652
575.009	0.0184276
575.087	0.0185449
575.165	0.0185310
575.243	0.0185706
575.321	0.0185262
575.399	0.0185008
575.477	0.0186148
575.555	0.0186055
575.634	0.0185474
575.712	0.0185899
575.790	0.0184563
575.868	0.0186789
575.946	0.0185449
576.024	0.0183940
576.102	0.0185626
576.180	0.0185101
576.259	0.0184317
576.337	0.0185609
576.415	0.0184382
576.493	0.0183308
576.571	0.0182817
576.649	0.0183563
576.727	0.0182269
576.805	0.0183708
576.884	0.0182951
576.962	0.0183369
577.040	0.0183729
577.118	0.0183880
577.196	0.0183488
577.274	0.0184620
577.352	0.0184567
577.430	0.0184842
577.509	0.0184362
577.587	0.0185632
577.665	0.0185511
577.743	0.0184261
577.821	0.0184477
577.899	0.0186430
577.977	0.0186304
578.055	0.0185606
578.134	0.0185954
578.212	0.0185146
578.290	0.0186089
578.368	0.0185278
578.446	0.0185238
578.524	0.0184970
578.602	0.0186394
578.680	0.0184531
578.759	0.0185611
578.837	0.0184951
578.915	0.0185273
578.993	0.0184644
579.071	0.0184971
579.149	0.0185228
579.227	0.0184698
579.305	0.0182189
579.384	0.0184605
579.462	0.0184065
579.540	0.0183050
579.618	0.0184388
579.696	0.0183748
579.774	0.0183581
579.852	0.0184779
579.930	0.0185332
580.009	0.0183240
580.087	0.0182887
580.165	0.0183907
580.243	0.0183217
580.321	0.0181932
580.399	0.0183221
580.477	0.0182443
580.555	0.0181622
580.634	0.0182806
580.712	0.0182439
580.790	0.0181171
580.868	0.0182427
580.946	0.0181297
581.024	0.0181413
581.102	0.0182207
581.180	0.0182515
581.259	0.0181369
581.337	0.0182598
581.415	0.0181751
581.493	0.0181520
581.571	0.0182319
581.649	0.0183846
581.727	0.0183988
581.805	0.0184197
581.884	0.0182943
581.962	0.0183648
582.040	0.0184088
582.118	0.0184590
582.196	0.0184971
582.274	0.0186151
582.352	0.0185969
582.430	0.0184615
582.509	0.0185287
582.587	0.0184521
582.665	0.0184472
582.743	0.0185908
582.821	0.0185423
582.899	0.0185056
582.977	0.0184875
583.055	0.0186488
583.134	0.0186203
583.212	0.0185999
583.290	0.0186330
583.368	0.0186930
583.446	0.0186211
583.524	0.0186509
583.602	0.0186043
583.680	0.0186410
583.759	0.0187623
583.837	0.0187871
583.915	0.0186367
583.993	0.0188157
584.071	0.0187176
584.149	0.0188119
584.227	0.0188279
584.305	0.0188670
584.384	0.0187800
584.462	0.0188345
584.540	0.0189449
584.618	0.0189500
584.696	0.0189162
584.774	0.0188313
584.852	0.0188615
584.930	0.0189922
585.009	0.0189862
585.087	0.0189275
585.165	0.0189172
585.243	0.0189108
585.321	0.0189040
585.399	0.0188952
585.477	0.0190019
585.555	0.0189178
585.634	0.0189492
585.712	0.0190031
585.790	0.0190006
585.868	0.0190537
585.946	0.0189664
586.024	0.0188972
586.102	0.0188698
586.180	0.0188862
586.259	0.0188129
586.337	0.0188462
586.415	0.0187876
586.493	0.0188449
586.571	0.0187282
586.649	0.0187223
586.727	0.0187089
586.805	0.0187408
586.884	0.0187008
586.962	0.0185632
587.040	0.0187397
587.118	0.0185620
587.196	0.0186005
587.274	0.0186009
587.352	0.0183993
587.430	0.0184369
587.509	0.0182964
587.587	0.0183778
587.665	0.0184537
587.743	0.0182122
587.821	0.0182236
587.899	0.0183394
587.977	0.0181236
588.055	0.0180568
588.134	0.0181229
588.212	0.0181961
588.290	0.0181531
588.368	0.0181593
588.446	0.0179576
588.524	0.0181241
588.602	0.0181403
588.680	0.0181635
588.759	0.0180702
588.837	0.0180824
588.915	0.0181296
588.993	0.0182021
589.071	0.0182384
589.149	0.0181664
589.227	0.0181869
589.305	0.0182040
589.384	0.0183259
589.462	0.0181062
589.540	0.0182631
589.618	0.0183561
589.696	0.0184287
589.774	0.0184145
589.852	0.0184104
589.930	0.0184712
590.009	0.0185283
590.087	0.0185596
590.165	0.0184080
590.243	0.0185439
590.321	0.0184840
590.399	0.0185680
590.477	0.0184545
590.555	0.0184014
590.634	0.0185351
590.712	0.0183868
590.790	0.0184692
590.868	0.0184702
590.946	0.0184157
591.024	0.0185397
591.102	0.0184065
591.180	0.0184265
591.259	0.0182932
591.337	0.0182816
591.415	0.0183958
591.493	0.0183881
591.571	0.0183986
591.649	0.0183640
591.727	0.0185048
591.805	0.0183350
591.884	0.0183271
591.962	0.0184654
592.040	0.0185161
592.118	0.0184329
592.196	0.0182747
592.274	0.0183445
592.352	0.0183932
592.430	0.0184126
592.509	0.0185346
592.587	0.0186292
592.665	0.0184615
592.743	0.0185355
592.821	0.0185493
592.899	0.0186559
592.977	0.0184325
593.055	0.0184652
593.134	0.0184995
593.212	0.0186430
593.290	0.0185794
593.368	0.0184284
593.446	0.0185596
593.524	0.0187480
593.602	0.0186128
593.680	0.0185396
593.759	0.0186030
593.837	0.0186518
593.915	0.0185019
593.993	0.0185981
594.071	0.0185943
594.149	0.0184535
594.227	0.0185172
594.305	0.0186971
594.384	0.0185458
594.462	0.0185464
594.540	0.0186447
594.618	0.0186686
594.696	0.0186483
594.774	0.0186174
594.852	0.0186138
594.930	0.0186837
595.009	0.0187296
595.087	0.0186044
595.165	0.0185152
595.243	0.0185612
595.321	0.0187654
595.399	0.0185690
595.477	0.0185771
595.555	0.0187666
595.634	0.0185883
595.712	0.0186121
595.790	0.0185507
595.868	0.0184915
595.946	0.0187505
596.024	0.0186620
596.102	0.0185352
596.180	0.0185134
596.259	0.0186970
596.337	0.0185428
596.415	0.0185083
596.493	0.0187248
596.571	0.0186320
596.649	0.0186333
596.727	0.0186050
596.805	0.0186334
596.884	0.0185775
596.962	0.0184943
597.040	0.0184978
597.118	0.0185474
597.196	0.0184305
597.274	0.0184361
597.352	0.0183768
597.430	0.0182910
597.509	0.0183762
597.587	0.0182524
597.665	0.0181889
597.743	0.0182705
597.821	0.0182984
597.899	0.0181279
597.977	0.0182452
598.055	0.0182850
598.134	0.0181268
598.212	0.0182881
598.290	0.0181956
598.368	0.0181148
598.446	0.0182613
598.524	0.0181628
598.602	0.0181621
598.680	0.0180322
598.759	0.0182627
598.837	0.0181651
598.915	0.0180783
598.993	0.0181220
599.071	0.0181456
599.149	0.0181361
599.227	0.0181049
599.305	0.0180855
599.384	0.0181474
599.462	0.0182770
599.540	0.0179710
599.618	0.0179999
599.696	0.0182073
599.774	0.0180075
599.852	0.0181610
599.930	0.0180025
600.009	0.0181012
600.087	0.0180311
600.165	0.0178976
600.243	0.0180087
600.321	0.0179232
600.399	0.0180048
600.477	0.0180371
600.555	0.0179227
600.634	0.0179004
600.712	0.0180703
600.790	0.0181199
600.868	0.0180477
600.946	0.0179650
601.024	0.0180421
601.102	0.0179123
601.180	0.0179994
601.259	0.0180357
601.337	0.0180845
601.415	0.0180608
601.493	0.0180211
601.571	0.0179803
601.649	0.0182056
601.727	0.0181320
601.805	0.0180808
601.884	0.0181396
601.962	0.0181826
602.040	0.0182580
602.118	0.0183670
602.196	0.0184052
602.274	0.0183067
602.352	0.0184270
602.430	0.0184833
602.509	0.0182336
602.587	0.0183817
602.665	0.0184206
602.743	0.0186268
602.821	0.0185591
602.899	0.0186232
602.977	0.0186009
603.055	0.0186375
603.134	0.0187048
603.212	0.0188327
603.290	0.0186964
603.368	0.0186690
603.446	0.0187302
603.524	0.0186514
603.602	0.0188100
603.680	0.0187963
603.759	0.0187080
603.837	0.0186495
603.915	0.0187954
603.993	0.0185717
604.071	0.0186712
604.149	0.0188368
604.227	0.0187724
604.305	0.0186086
604.384	0.0187646
604.462	0.0187357
604.540	0.0188054
604.618	0.0186575
604.696	0.0187148
604.774	0.0186462
604.852	0.0187629
604.930	0.0187604
605.009	0.0187402
605.087	0.0187222
605.165	0.0187177
605.243	0.0188490
605.321	0.0189605
605.399	0.0188593
605.477	0.0187302
605.555	0.0187342
605.634	0.0188682
605.712	0.0188107
605.790	0.0187077
605.868	0.0187489
605.946	0.0187523
606.024	0.0188152
606.102	0.0186891
606.180	0.0187270
606.259	0.0185840
606.337	0.0185824
606.415	0.0187331
606.493	0.0186172
606.571	0.0188100
606.649	0.0186009
606.727	0.0186728
606.805	0.0185257
606.884	0.0186418
606.962	0.0185733
607.040	0.0186156
607.118	0.0186517
607.196	0.0185270
607.274	0.0185237
607.352	0.0185738
607.430	0.0186542
607.509	0.0186124
607.587	0.0185794
607.665	0.0185304
607.743	0.0187157
607.821	0.0186330
607.899	0.0185733
607.977	0.0186190
608.055	0.0185811
608.134	0.0187946
608.212	0.0185482
608.290	0.0186459
608.368	0.0187820
608.446	0.0186499
608.524	0.0186275
608.602	0.0185249
608.680	0.0185564
608.759	0.0185963
608.837	0.0185393
608.915	0.0185651
608.993	0.0185818
609.071	0.0184715
609.149	0.0185917
609.227	0.0185654
609.305	0.0184843
609.384	0.0184869
609.462	0.0185879
609.540	0.0185303
609.618	0.0185342
609.696	0.0185723
609.774	0.0186412
609.852	0.0186005
609.930	0.0185207
610.009	0.0185278
610.087	0.0185677
610.165	0.0184878
610.243	0.0185892
610.321	0.0184669
610.399	0.0186553
610.477	0.0186300
610.555	0.0186337
610.634	0.0185694
610.712	0.0185825
610.790	0.0185842
610.868	0.0185923
610.946	0.0185397
611.024	0.0186179
611.102	0.0185657
611.180	0.0186469
611.259	0.0185911
611.337	0.0185368
611.415	0.0186180
611.493	0.0186107
611.571	0.0184927
611.649	0.0185534
611.727	0.0186180
611.805	0.0186511
611.884	0.0185361
611.962	0.0185387
612.040	0.0185383
612.118	0.0186644
612.196	0.0185931
612.274	0.0185265
612.352	0.0183703
612.430	0.0185425
612.509	0.0184846
612.587	0.0185081
612.665	0.0185893
612.743	0.0183704
612.821	0.0185195
612.899	0.0185271
612.977	0.0186214
613.055	0.0184315
613.134	0.0186180
613.212	0.0184707
613.290	0.0184914
613.368	0.0184026
613.446	0.0184588
613.524	0.0183974
613.602	0.0186037
613.680	0.0186073
613.759	0.0184428
613.837	0.0184417
613.915	0.0185902
613.993	0.0185546
614.071	0.0186050
614.149	0.0185402
614.227	0.0185184
614.305	0.0184615
614.384	0.0183891
614.462	0.0184957
614.540	0.0185317
614.618	0.0185273
614.696	0.0184650
614.774	0.0185963
614.852	0.0184435
614.930	0.0184365
615.009	0.0185322
615.087	0.0185551
615.165	0.0184378
615.243	0.0184546
615.321	0.0184744
615.399	0.0183366
615.477	0.0183170
615.555	0.0183950
615.634	0.0183856
615.712	0.0182609
615.790	0.0184309
615.868	0.0183738
615.946	0.0182695
616.024	0.0183313
616.102	0.0182417
616.180	0.0181792
616.259	0.0183794
616.337	0.0182146
616.415	0.0183948
616.493	0.0183851
616.571	0.0183663
616.649	0.0183075
616.727	0.0183154
616.805	0.0183144
616.884	0.0183777
616.962	0.0184483
617.040	0.0183324
617.118	0.0184110
617.196	0.0184498
617.274	0.0184309
617.352	0.0183305
617.430	0.0183459
617.509	0.0184641
617.587	0.0182505
617.665	0.0183047
617.743	0.0184225
617.821	0.0184381
617.899	0.0182487
617.977	0.0184310
618.055	0.0183764
618.134	0.0182140
618.212	0.0184677
618.290	0.0183751
618.368	0.0182482
618.446	0.0183974
618.524	0.0183502
618.602	0.0182982
618.680	0.0183830
618.759	0.0183879
618.837	0.0183744
618.915	0.0182803
618.993	0.0183514
619.071	0.0183657
619.149	0.0183128
619.227	0.0183640
619.305	0.0183189
619.384	0.0183849
619.462	0.0182814
619.540	0.0183282
619.618	0.0184510
619.696	0.0183720
619.774	0.0183048
619.852	0.0182086
619.930	0.0183611
620.009	0.0183119
620.087	0.0182775
620.165	0.0183051
620.243	0.0183524
620.321	0.0184636
620.399	0.0184605
620.477	0.0183789
620.555	0.0183694
620.634	0.0183579
620.712	0.0182707
620.790	0.0183943
620.868	0.0185233
620.946	0.0183070
621.024	0.0183095
621.102	0.0184700
621.180	0.0184808
621.259	0.0184138
621.337	0.0184832
621.415	0.0185220
621.493	0.0184003
621.571	0.0183855
621.649	0.0183705
621.727	0.0185130
621.805	0.0183807
621.884	0.0185678
621.962	0.0185462
622.040	0.0184861
622.118	0.0184439
622.196	0.0185235
622.274	0.0185190
622.352	0.0183595
622.430	0.0183782
622.509	0.0183813
622.587	0.0183572
622.665	0.0182948
622.743	0.0184144
622.821	0.0184218
622.899	0.0184887
622.977	0.0183732
623.055	0.0181518
623.134	0.0185072
623.212	0.0182845
623.290	0.0182215
623.368	0.0183258
623.446	0.0183167
623.524	0.0183330
623.602	0.0183156
623.680	0.0182999
623.759	0.0183695
623.837	0.0182919
623.915	0.0183778
623.993	0.0185259
624.071	0.0183341
624.149	0.0183115
624.227	0.0184960
624.305	0.0183981
624.384	0.0182931
624.462	0.0182443
624.540	0.0184101
624.618	0.0183098
624.696	0.0184171
624.774	0.0184451
624.852	0.0183974
624.930	0.0182886
625.009	0.0183571
625.087	0.0183040
625.165	0.0183641
625.243	0.0183589
625.321	0.0183152
625.399	0.0183263
625.477	0.0183397
625.555	0.0183612
625.634	0.0183724
625.712	0.0183253
625.790	0.0183727
625.868	0.0184875
625.946	0.0183720
626.024	0.0183807
626.102	0.0183644
626.180	0.0184915
626.259	0.0184035
626.337	0.0183211
626.415	0.0185445
626.493	0.0184574
626.571	0.0183742
626.649	0.0185088
626.727	0.0183529
626.805	0.0183580
626.884	0.0184935
626.962	0.0184437
627.040	0.0184679
627.118	0.0185265
627.196	0.0185204
627.274	0.0185363
627.352	0.0183996
627.430	0.0186281
627.509	0.0184589
627.587	0.0184635
627.665	0.0184380
627.743	0.0185201
627.821	0.0185236
627.899	0.0184689
627.977	0.0185799
628.055	0.0185682
628.134	0.0184413
628.212	0.0185803
628.290	0.0185768
628.368	0.0185307
628.446	0.0186445
628.524	0.0186255
628.602	0.0187132
628.680	0.0186454
628.759	0.0185341
628.837	0.0185625
628.915	0.0187105
628.993	0.0186053
629.071	0.0186412
629.149	0.0187450
629.227	0.0188528
629.305	0.0188641
629.384	0.0187344
629.462	0.0186538
629.540	0.0187524
629.618	0.0187527
629.696	0.0187923
629.774	0.0185937
629.852	0.0187705
629.930	0.0187349
630.009	0.0187042
630.087	0.0187013
630.165	0.0186491
630.243	0.0186777
630.321	0.0186105
630.399	0.0187007
630.477	0.0186356
630.555	0.0187417
630.634	0.0185374
630.712	0.0186529
630.790	0.0186379
630.868	0.0184536
630.946	0.0185869
631.024	0.0185611
631.102	0.0186976
631.180	0.0184936
631.259	0.0184708
631.337	0.0184402
631.415	0.0185372
631.493	0.0185551
631.571	0.0186134
631.649	0.0184872
631.727	0.0185590
631.805	0.0185699
631.884	0.0185766
631.962	0.0185096
632.040	0.0186166
632.118	0.0185607
632.196	0.0186366
632.274	0.0185566
632.352	0.0186747
632.430	0.0186810
632.509	0.0184841
632.587	0.0185934
632.665	0.0185574
632.743	0.0187017
632.821	0.0187238
632.899	0.0185728
632.977	0.0186131
633.055	0.0185867
633.134	0.0187563
633.212	0.0187048
633.290	0.0185390
633.368	0.0186515
633.446	0.0187244
633.524	0.0187255
633.602	0.0185789
633.680	0.0185357
633.759	0.0185020
633.837	0.0185595
633.915	0.0186115
633.993	0.0185474
634.071	0.0184630
634.149	0.0184171
634.227	0.0184264
634.305	0.0184941
634.384	0.0185113
634.462	0.0185378
634.540	0.0186522
634.618	0.0184798
634.696	0.0185545
634.774	0.0185914
634.852	0.0187403
634.930	0.0186458
635.009	0.0185037
635.087	0.0187298
635.165	0.0186602
635.243	0.0186728
635.321	0.0186042
635.399	0.0187337
635.477	0.0187617
635.555	0.0188194
635.634	0.0187272
635.712	0.0186534
635.790	0.0188186
635.868	0.0186454
635.946	0.0187103
636.024	0.0188379
636.102	0.0187266
636.180	0.0186561
636.259	0.0185849
636.337	0.0187396
636.415	0.0188390
636.493	0.0187063
636.571	0.0187214
636.649	0.0186243
636.727	0.0186099
636.805	0.0186165
636.884	0.0185790
636.962	0.0185921
637.040	0.0184502
637.118	0.0184486
637.196	0.0183690
637.274	0.0185099
637.352	0.0183546
637.430	0.0182558
637.509	0.0184099
637.587	0.0183952
637.665	0.0181950
637.743	0.0182574
637.821	0.0181563
637.899	0.0182290
637.977	0.0183648
638.055	0.0181565
638.134	0.0181419
638.212	0.0180760
638.290	0.0181371
638.368	0.0180573
638.446	0.0181213
638.524	0.0181658
638.602	0.0182536
638.680	0.0181429
638.759	0.0180952
638.837	0.0181110
638.915	0.0184106
638.993	0.0183035
639.071	0.0181606
639.149	0.0183285
639.227	0.0182874
639.305	0.0182966
639.384	0.0184019
639.462	0.0184348
639.540	0.0184579
639.618	0.0185425
639.696	0.0185671
639.774	0.0185818
639.852	0.0187040
639.930	0.0186895
640.009	0.0187083
640.087	0.0187165
640.165	0.0187846
640.243	0.0188197
640.321	0.0188637
640.399	0.0187748
640.477	0.0186581
640.555	0.0188827
640.634	0.0188338
640.712	0.0187122
640.790	0.0188182
640.868	0.0186822
640.946	0.0186311
641.024	0.0187334
641.102	0.0186343
641.180	0.0185667
641.259	0.0187128
641.337	0.0185595
641.415	0.0186395
641.493	0.0187282
641.571	0.0186476
641.649	0.0185819
641.727	0.0186509
641.805	0.0186180
641.884	0.0185358
641.962	0.0185641
642.040	0.0185890
642.118	0.0184566
642.196	0.0184830
642.274	0.0186594
642.352	0.0185565
642.430	0.0185658
642.509	0.0185051
642.587	0.0185971
642.665	0.0184522
642.743	0.0186572
642.821	0.0185181
642.899	0.0185359
642.977	0.0185957
643.055	0.0185684
643.134	0.0185902
643.212	0.0186351
643.290	0.0185494
643.368	0.0187206
643.446	0.0186875
643.524	0.0186199
643.602	0.0186428
643.680	0.0187364
643.759	0.0187146
643.837	0.0187683
643.915	0.0187368
643.993	0.0187626
644.071	0.0188161
644.149	0.0186936
644.227	0.0186659
644.305	0.0187629
644.384	0.0187169
644.462	0.0187499
644.540	0.0185999
644.618	0.0187790
644.696	0.0187191
644.774	0.0187077
644.852	0.0187849
644.930	0.0187504
645.009	0.0187057
645.087	0.0186094
645.165	0.0186108
645.243	0.0188098
645.321	0.0186320
645.399	0.0186163
645.477	0.0186520
645.555	0.0186460
645.634	0.0186298
645.712	0.0185688
645.790	0.0185991
645.868	0.0185149
645.946	0.0185921
646.024	0.0185748
646.102	0.0184853
646.180	0.0184880
646.259	0.0184974
646.337	0.0186325
646.415	0.0185890
646.493	0.0185618
646.571	0.0185608
646.649	0.0184437
646.727	0.0184789
646.805	0.0184462
646.884	0.0184142
646.962	0.0184062
647.040	0.0183875
647.118	0.0184905
647.196	0.0185207
647.274	0.0182752
647.352	0.0184104
647.430	0.0183891
647.509	0.0182202
647.587	0.0182343
647.665	0.0181970
647.743	0.0182317
647.821	0.0183922
647.899	0.0181894
647.977	0.0182184
648.055	0.0181908
648.134	0.0181480
648.212	0.0181631
648.290	0.0183024
648.368	0.0181670
648.446	0.0182098
648.524	0.0182475
648.602	0.0181579
648.680	0.0182581
648.759	0.0181126
648.837	0.0181264
648.915	0.0183689
648.993	0.0184014
649.071	0.0183138
649.149	0.0182990
649.227	0.0183253
649.305	0.0183854
649.384	0.0184431
649.462	0.0183028
649.540	0.0183960
649.618	0.0185019
649.696	0.0184231
649.774	0.0182770
649.852	0.0183774
649.930	0.0182764
650.009	0.0183330
650.087	0.0184141
650.165	0.0185251
650.243	0.0183981
650.321	0.0183996
650.399	0.0183705
650.477	0.0184533
650.555	0.0183992
650.634	0.0185464
650.712	0.0184345
650.790	0.0185007
650.868	0.0186231
650.946	0.0184658
651.024	0.0185274
651.102	0.0185375
651.180	0.0183896
651.259	0.0184186
651.337	0.0185249
651.415	0.0184269
651.493	0.0184667
651.571	0.0185194
651.649	0.0184664
651.727	0.0184899
651.805	0.0184193
651.884	0.0184461
651.962	0.0185197
652.040	0.0184705
652.118	0.0186255
652.196	0.0184286
652.274	0.0184585
652.352	0.0184845
652.430	0.0185270
652.509	0.0186442
652.587	0.0184907
652.665	0.0185063
652.743	0.0184174
652.821	0.0186073
652.899	0.0187700
652.977	0.0185571
653.055	0.0185184
653.134	0.0186128
653.212	0.0184676
653.290	0.0185723
653.368	0.0185582
653.446	0.0184971
653.524	0.0185571
653.602	0.0185431
653.680	0.0185143
653.759	0.0185364
653.837	0.0186054
653.915	0.0185783
653.993	0.0186694
654.071	0.0186049
654.149	0.0185521
654.227	0.0186526
654.305	0.0185726
654.384	0.0186283
654.462	0.0186717
654.540	0.0186634
654.618	0.0186838
654.696	0.0186264
654.774	0.0185156
654.852	0.0188538
654.930	0.0186716
655.009	0.0186920
655.087	0.0186819
655.165	0.0185096
655.243	0.0186477
655.321	0.0185532
655.399	0.0184169
655.477	0.0184856
655.555	0.0186077
655.634	0.0186082
655.712	0.0186433
655.790	0.0185173
655.868	0.0186913
655.946	0.0187280
656.024	0.0186285
656.102	0.0186667
656.180	0.0187144
656.259	0.0188799
656.337	0.0188718
656.415	0.0188875
656.493	0.0188888
656.571	0.0189016
656.649	0.0189629
656.727	0.0189168
656.805	0.0190822
656.884	0.0189387
656.962	0.0189730
657.040	0.0189867
657.118	0.0189035
657.196	0.0190267
657.274	0.0189169
657.352	0.0187392
657.430	0.0188898
657.509	0.0187479
657.587	0.0188257
657.665	0.0186761
657.743	0.0187255
657.821	0.0186375
657.899	0.0187572
657.977	0.0184721
658.055	0.0185660
658.134	0.0185606
658.212	0.0185918
658.290	0.0185099
658.368	0.0184901
658.446	0.0183305
658.524	0.0184020
658.602	0.0184537
658.680	0.0184704
658.759	0.0185123
658.837	0.0183231
658.915	0.0183101
658.993	0.0182581
659.071	0.0183683
659.149	0.0183283
659.227	0.0182469
659.305	0.0183288
659.384	0.0182554
659.462	0.0181878
659.540	0.0181116
659.618	0.0182056
659.696	0.0180076
659.774	0.0180547
659.852	0.0180701
659.930	0.0182117
660.009	0.0180779
660.087	0.0180656
660.165	0.0179007
660.243	0.0180533
660.321	0.0180487
660.399	0.0181237
660.477	0.0180856
660.555	0.0180463
660.634	0.0180444
660.712	0.0180409
660.790	0.0181776
660.868	0.0181971
660.946	0.0182774
661.024	0.0181747
661.102	0.0183119
661.180	0.0182930
661.259	0.0183916
661.337	0.0183536
661.415	0.0182620
661.493	0.0183697
661.571	0.0184547
661.649	0.0183491
661.727	0.0184446
661.805	0.0185036
661.884	0.0184570
661.962	0.0185580
662.040	0.0185670
662.118	0.0185992
662.196	0.0186530
662.274	0.0186657
662.352	0.0186387
662.430	0.0187010
662.509	0.0187141
662.587	0.0186153
662.665	0.0187899
662.743	0.0188161
662.821	0.0186798
662.899	0.0186218
662.977	0.0186095
663.055	0.0189380
663.134	0.0188543
663.212	0.0187520
663.290	0.0186877
663.368	0.0187596
663.446	0.0187201
663.524	0.0187378
663.602	0.0187849
663.680	0.0188221
663.759	0.0188347
663.837	0.0187810
663.915	0.0186752
663.993	0.0187006
664.071	0.0187791
664.149	0.0188784
664.227	0.0186549
664.305	0.0187568
664.384	0.0186341
664.462	0.0187633
664.540	0.0186611
664.618	0.0186687
664.696	0.0187586
664.774	0.0187056
664.852	0.0186319
664.930	0.0186195
665.009	0.0187221
665.087	0.0187803
665.165	0.0186649
665.243	0.0187285
665.321	0.0186780
665.399	0.0187754
665.477	0.0187527
665.555	0.0187872
665.634	0.0187680
665.712	0.0184718
665.790	0.0187812
665.868	0.0187711
665.946	0.0186486
666.024	0.0187438
666.102	0.0186766
666.180	0.0186047
666.259	0.0186362
666.337	0.0187572
666.415	0.0186153
666.493	0.0187139
666.571	0.0186146
666.649	0.0185217
666.727	0.0186872
666.805	0.0187649
666.884	0.0187891
666.962	0.0186478
667.040	0.0187506
667.118	0.0186380
667.196	0.0187003
667.274	0.0185951
667.352	0.0187082
667.430	0.0186478
667.509	0.0187391
667.587	0.0187052
667.665	0.0186468
667.743	0.0187556
667.821	0.0187184
667.899	0.0185863
667.977	0.0186719
668.055	0.0186905
668.134	0.0186105
668.212	0.0185941
668.290	0.0185076
668.368	0.0185545
668.446	0.0185580
668.524	0.0184606
668.602	0.0185342
668.680	0.0184627
668.759	0.0183852
668.837	0.0184093
668.915	0.0185091
668.993	0.0184341
669.071	0.0182365
669.149	0.0184739
669.227	0.0183709
669.305	0.0183173
669.384	0.0182217
669.462	0.0182168
669.540	0.0181728
669.618	0.0182291
669.696	0.0182282
669.774	0.0181980
669.852	0.0181886
669.930	0.0181876
670.009	0.0181858
670.087	0.0181661
670.165	0.0181971
670.243	0.0179573
670.321	0.0181678
670.399	0.0182406
670.477	0.0181489
670.555	0.0180646
670.634	0.0179894
670.712	0.0180100
670.790	0.0180156
670.868	0.0181893
670.946	0.0180640
671.024	0.0180061
671.102	0.0181709
671.180	0.0181545
671.259	0.0181754
671.337	0.0182450
671.415	0.0183670
671.493	0.0182585
671.571	0.0183603
671.649	0.0183182
671.727	0.0183440
671.805	0.0183290
671.884	0.0184771
671.962	0.0182514
672.040	0.0182917
672.118	0.0184550
672.196	0.0183044
672.274	0.0182246
672.352	0.0183253
672.430	0.0183218
672.509	0.0183111
672.587	0.0182883
672.665	0.0181812
672.743	0.0182100
672.821	0.0181586
672.899	0.0182517
672.977	0.0182648
673.055	0.0181765
673.134	0.0181676
673.212	0.0182521
673.290	0.0182607
673.368	0.0181500
673.446	0.0181060
673.524	0.0181526
673.602	0.0182466
673.680	0.0182546
673.759	0.0183119
673.837	0.0183452
673.915	0.0183546
673.993	0.0183875
674.071	0.0184558
674.149	0.0184114
674.227	0.0183996
674.305	0.0183769
674.384	0.0184221
674.462	0.0184241
674.540	0.0184026
674.618	0.0183668
674.696	0.0184559
674.774	0.0183907
674.852	0.0185876
674.930	0.0185568
675.009	0.0185083
675.087	0.0185584
675.165	0.0185597
675.243	0.0184606
675.321	0.0185384
675.399	0.0186021
675.477	0.0185512
675.555	0.0186925
675.634	0.0186114
675.712	0.0186600
675.790	0.0187106
675.868	0.0186703
675.946	0.0187607
676.024	0.0186449
676.102	0.0187098
676.180	0.0187471
676.259	0.0186613
676.337	0.0184840
676.415	0.0185268
676.493	0.0185730
676.571	0.0186117
676.649	0.0185984
676.727	0.0186121
676.805	0.0185547
676.884	0.0184329
676.962	0.0183945
677.040	0.0184121
677.118	0.0184070
677.196	0.0182885
677.274	0.0182729
677.352	0.0184042
677.430	0.0184159
677.509	0.0183825
677.587	0.0182817
677.665	0.0183302
677.743	0.0184859
677.821	0.0184003
677.899	0.0181636
677.977	0.0183514
678.055	0.0185241
678.134	0.0183065
678.212	0.0183228
678.290	0.0183328
678.368	0.0183292
678.446	0.0183250
678.524	0.0183862
678.602	0.0184184
678.680	0.0184273
678.759	0.0185086
678.837	0.0183946
678.915	0.0183518
678.993	0.0184357
679.071	0.0183463
679.149	0.0183754
679.227	0.0184528
679.305	0.0182860
679.384	0.0185020
679.462	0.0185180
679.540	0.0184615
679.618	0.0184068
679.696	0.0184045
679.774	0.0185894
679.852	0.0183469
679.930	0.0184117
680.009	0.0185300
680.087	0.0182701
680.165	0.0183872
680.243	0.0185224
680.321	0.0184163
680.399	0.0183665
680.477	0.0183849
680.555	0.0183601
680.634	0.0184780
680.712	0.0183531
680.790	0.0183739
680.868	0.0184916
680.946	0.0183184
681.024	0.0185406
681.102	0.0184023
681.180	0.0183009
681.259	0.0184403
681.337	0.0183009
681.415	0.0184991
681.493	0.0186915
681.571	0.0184118
681.649	0.0183949
681.727	0.0185218
681.805	0.0185888
681.884	0.0185869
681.962	0.0185441
682.040	0.0184282
682.118	0.0185167
682.196	0.0184913
682.274	0.0185000
682.352	0.0184477
682.430	0.0183685
682.509	0.0183212
682.587	0.0183676
682.665	0.0184098
682.743	0.0182884
682.821	0.0185065
682.899	0.0183345
682.977	0.0183460
683.055	0.0183598
683.134	0.0183958
683.212	0.0184131
683.290	0.0183871
683.368	0.0183386
683.446	0.0184972
683.524	0.0184413
683.602	0.0183451
683.680	0.0182775
683.759	0.0185799
683.837	0.0184129
683.915	0.0184813
683.993	0.0185766
684.071	0.0183129
684.149	0.0183954
684.227	0.0184737
684.305	0.0183572
684.384	0.0185622
684.462	0.0183635
684.540	0.0182158
684.618	0.0184832
684.696	0.0183997
684.774	0.0185206
684.852	0.0184278
684.930	0.0183917
685.009	0.0183705
685.087	0.0183420
685.165	0.0185466
685.243	0.0184649
685.321	0.0183849
685.399	0.0184737
685.477	0.0185287
685.555	0.0184637
685.634	0.0186518
685.712	0.0185827
685.790	0.0184636
685.868	0.0186307
685.946	0.0186783
686.024	0.0185419
686.102	0.0186478
686.180	0.0187553
686.259	0.0188483
686.337	0.0187241
686.415	0.0186266
686.493	0.0186717
686.571	0.0186981
686.649	0.0187285
686.727	0.0186007
686.805	0.0187083
686.884	0.0188273
686.962	0.0187204
687.040	0.0186998
687.118	0.0186149
687.196	0.0185390
687.274	0.0186872
687.352	0.0185933
687.430	0.0186521
687.509	0.0186424
687.587	0.0185513
687.665	0.0186600
687.743	0.0185364
687.821	0.0185435
687.899	0.0184827
687.977	0.0184553
688.055	0.0185268
688.134	0.0184389
688.212	0.0185696
688.290	0.0184589
688.368	0.0185649
688.446	0.0186130
688.524	0.0183521
688.602	0.0184636
688.680	0.0185738
688.759	0.0183150
688.837	0.0184190
688.915	0.0183210
688.993	0.0182816
689.071	0.0183499
689.149	0.0183378
689.227	0.0184380
689.305	0.0183018
689.384	0.0184073
689.462	0.0183103
689.540	0.0182792
689.618	0.0183425
689.696	0.0183282
689.774	0.0183002
689.852	0.0183318
689.930	0.0184891
690.009	0.0183690
690.087	0.0183119
690.165	0.0183988
690.243	0.0182720
690.321	0.0181544
690.399	0.0183418
690.477	0.0182845
690.555	0.0183406
690.634	0.0182812
690.712	0.0184101
690.790	0.0183492
690.868	0.0183880
690.946	0.0182776
691.024	0.0182074
691.102	0.0182130
691.180	0.0182169
691.259	0.0182761
691.337	0.0181775
691.415	0.0185151
691.493	0.0183747
691.571	0.0182280
691.649	0.0183889
691.727	0.0183430
691.805	0.0183538
691.884	0.0184192
691.962	0.0184596
692.040	0.0184536
692.118	0.0184912
692.196	0.0184678
692.274	0.0185167
692.352	0.0186397
692.430	0.0186292
692.509	0.0185488
692.587	0.0185548
692.665	0.0186046
692.743	0.0186491
692.821	0.0187100
692.899	0.0187337
692.977	0.0186074
693.055	0.0186326
693.134	0.0186306
693.212	0.0185876
693.290	0.0186533
693.368	0.0186691
693.446	0.0185783
693.524	0.0184933
693.602	0.0185319
693.680	0.0184749
693.759	0.0183852
693.837	0.0184366
693.915	0.0184295
693.993	0.0185448
694.071	0.0184992
694.149	0.0183138
694.227	0.0183880
694.305	0.0186645
694.384	0.0184416
694.462	0.0183659
694.540	0.0184692
694.618	0.0184007
694.696	0.0184220
694.774	0.0184882
694.852	0.0184716
694.930	0.0182703
695.009	0.0183497
695.087	0.0183087
695.165	0.0184467
695.243	0.0183585
695.321	0.0183490
695.399	0.0182920
695.477	0.0183588
695.555	0.0182160
695.634	0.0182870
695.712	0.0184085
695.790	0.0183686
695.868	0.0183067
695.946	0.0183321
696.024	0.0183067
696.102	0.0184012
696.180	0.0182321
696.259	0.0181571
696.337	0.0183245
696.415	0.0183235
696.493	0.0185302
696.571	0.0184018
696.649	0.0184443
696.727	0.0183073
696.805	0.0184026
696.884	0.0184732
696.962	0.0184583
697.040	0.0183692
697.118	0.0184203
697.196	0.0184884
697.274	0.0185573
697.352	0.0184102
697.430	0.0185534
697.509	0.0185593
697.587	0.0184452
697.665	0.0186288
697.743	0.0186826
697.821	0.0184933
697.899	0.0185930
697.977	0.0184894
698.055	0.0185548
698.134	0.0187902
698.212	0.0186568
698.290	0.0185603
698.368	0.0186263
698.446	0.0186813
698.524	0.0185590
698.602	0.0185166
698.680	0.0185577
698.759	0.0184637
698.837	0.0185547
698.915	0.0185619
698.993	0.0185809
699.071	0.0184869
699.149	0.0185609
699.227	0.0183363
699.305	0.0184061
699.384	0.0183494
699.462	0.0184245
699.540	0.0184013
699.618	0.0182969
699.696	0.0182248
699.774	0.0184019
699.852	0.0182335
699.930	0.0183118
700.009	0.0183555
700.087	0.0183034
700.165	0.0184467
700.243	0.0182845
700.321	0.0182079
700.399	0.0184013
700.477	0.0184888
700.555	0.0182477
700.634	0.0182895
700.712	0.0184597
700.790	0.0183696
700.868	0.0183959
700.946	0.0182464
701.024	0.0182372
701.102	0.0182984
701.180	0.0184334
701.259	0.0182678
701.337	0.0182661
701.415	0.0182199
701.493	0.0181490
701.571	0.0183547
701.649	0.0182819
701.727	0.0182874
701.805	0.0182004
701.884	0.0183214
701.962	0.0184004
702.040	0.0182035
702.118	0.0182791
702.196	0.0184292
702.274	0.0183507
702.352	0.0183266
702.430	0.0182376
702.509	0.0185131
702.587	0.0184923
702.665	0.0183914
702.743	0.0185513
702.821	0.0184821
702.899	0.0184576
702.977	0.0185935
703.055	0.0184727
703.134	0.0185014
703.212	0.0183530
703.290	0.0185858
703.368	0.0186692
703.446	0.0183836
703.524	0.0186555
703.602	0.0185548
703.680	0.0184724
703.759	0.0185139
703.837	0.0185606
703.915	0.0183837
703.993	0.0184560
704.071	0.0185331
704.149	0.0184039
704.227	0.0185426
704.305	0.0184583
704.384	0.0184020
704.462	0.0183329
704.540	0.0183779
704.618	0.0184777
704.696	0.0184811
704.774	0.0185738
704.852	0.0185056
704.930	0.0184863
705.009	0.0183166
705.087	0.0183661
705.165	0.0184493
705.243	0.0184638
705.321	0.0184763
705.399	0.0184457
705.477	0.0184998
705.555	0.0184644
705.634	0.0185406
705.712	0.0184527
705.790	0.0185818
705.868	0.0184524
705.946	0.0185299
706.024	0.0186262
706.102	0.0185720
706.180	0.0186248
706.259	0.0186976
706.337	0.0186364
706.415	0.0187851
706.493	0.0187764
706.571	0.0186558
706.649	0.0185325
706.727	0.0185076
706.805	0.0185355
706.884	0.0185861
706.962	0.0185214
707.040	0.0185370
707.118	0.0183600
707.196	0.0184516
707.274	0.0183794
707.352	0.0182584
707.430	0.0183252
707.509	0.0181609
707.587	0.0182700
707.665	0.0182565
707.743	0.0181930
707.821	0.0182657
707.899	0.0183018
707.977	0.0184248
708.055	0.0184191
708.134	0.0184248
708.212	0.0184739
708.290	0.0185464
708.368	0.0185978
708.446	0.0184518
708.524	0.0185735
708.602	0.0187440
708.680	0.0187137
708.759	0.0187416
708.837	0.0186819
708.915	0.0188187
708.993	0.0187143
709.071	0.0186131
709.149	0.0186748
709.227	0.0187829
709.305	0.0186035
709.384	0.0187526
709.462	0.0186729
709.540	0.0186002
709.618	0.0186143
709.696	0.0185662
709.774	0.0187285
709.852	0.0183900
709.930	0.0184462
710.009	0.0184977
710.087	0.0183014
710.165	0.0183948
710.243	0.0182853
710.321	0.0183289
710.399	0.0184018
710.477	0.0184986
710.555	0.0183681
710.634	0.0182227
710.712	0.0184477
710.790	0.0185329
710.868	0.0185775
710.946	0.0185616
711.024	0.0188564
711.102	0.0186977
711.180	0.0186019
711.259	0.0187090
711.337	0.0187801
711.415	0.0187511
711.493	0.0188841
711.571	0.0187975
711.649	0.0188659
711.727	0.0188315
711.805	0.0188017
711.884	0.0188994
711.962	0.0188407
712.040	0.0188172
712.118	0.0188927
712.196	0.0187895
712.274	0.0187231
712.352	0.0187222
712.430	0.0188533
712.509	0.0187827
712.587	0.0187003
712.665	0.0185126
712.743	0.0186243
712.821	0.0183834
712.899	0.0185025
712.977	0.0183721
713.055	0.0184030
713.134	0.0181687
713.212	0.0182389
713.290	0.0182851
713.368	0.0182802
713.446	0.0181532
713.524	0.0180246
713.602	0.0182023
713.680	0.0183761
713.759	0.0181496
713.837	0.0182259
713.915	0.0182999
713.993	0.0183500
714.071	0.0183544
714.149	0.0183327
714.227	0.0185078
714.305	0.0183925
714.384	0.0185432
714.462	0.0187189
714.540	0.0187538
714.618	0.0186530
714.696	0.0185415
714.774	0.0184638
714.852	0.0187240
714.930	0.0186879
715.009	0.0185238
715.087	0.0185692
715.165	0.0185759
715.243	0.0186997
715.321	0.0186248
715.399	0.0186158
715.477	0.0186610
715.555	0.0186960
715.634	0.0187331
715.712	0.0185802
715.790	0.0186805
715.868	0.0187762
715.946	0.0188547
716.024	0.0187998
716.102	0.0187669
716.180	0.0187331
716.259	0.0187534
716.337	0.0188216
716.415	0.0187392
716.493	0.0187551
716.571	0.0188206
716.649	0.0187302
716.727	0.0185839
716.805	0.0186143
716.884	0.0186062
716.962	0.0185859
717.040	0.0184393
717.118	0.0185743
717.196	0.0184933
717.274	0.0183479
717.352	0.0183861
717.430	0.0183029
717.509	0.0184565
717.587	0.0183694
717.665	0.0184178
717.743	0.0185651
717.821	0.0183889
717.899	0.0183607
717.977	0.0185645
718.055	0.0186001
718.134	0.0184762
718.212	0.0187155
718.290	0.0186465
718.368	0.0186392
718.446	0.0187086
718.524	0.0187598
718.602	0.0188510
718.680	0.0187626
718.759	0.0187289
718.837	0.0188218
718.915	0.0187862
718.993	0.0186034
719.071	0.0187505
719.149	0.0186594
719.227	0.0186639
719.305	0.0187763
719.384	0.0186522
719.462	0.0187098
719.540	0.0186282
719.618	0.0186466
719.696	0.0186378
719.774	0.0185648
719.852	0.0186938
719.930	0.0185369
720.009	0.0185073
720.087	0.0185845
720.165	0.0186361
720.243	0.0186420
720.321	0.0185207
720.399	0.0185851
720.477	0.0184369
720.555	0.0185175
720.634	0.0184898
720.712	0.0184372
720.790	0.0184469
720.868	0.0185612
720.946	0.0184348
721.024	0.0185147
721.102	0.0184707
721.180	0.0184262
721.259	0.0185370
721.337	0.0186123
721.415	0.0185970
721.493	0.0186329
721.571	0.0186726
721.649	0.0185715
721.727	0.0186028
721.805	0.0186436
721.884	0.0185988
721.962	0.0186211
722.040	0.0184873
722.118	0.0186689
722.196	0.0186920
722.274	0.0185281
722.352	0.0186744
722.430	0.0186765
722.509	0.0185788
722.587	0.0185838
722.665	0.0184386
722.743	0.0184583
722.821	0.0185123
722.899	0.0184437
722.977	0.0183797
723.055	0.0185180
723.134	0.0182458
723.212	0.0183911
723.290	0.0184850
723.368	0.0184772
723.446	0.0184972
723.524	0.0184729
723.602	0.0185389
723.680	0.0185803
723.759	0.0184111
723.837	0.0185157
723.915	0.0186320
723.993	0.0185597
724.071	0.0186270
724.149	0.0186187
724.227	0.0186512
724.305	0.0186671
724.384	0.0187173
724.462	0.0186582
724.540	0.0185689
724.618	0.0187144
724.696	0.0185819
724.774	0.0185606
724.852	0.0186106
724.930	0.0185648
725.009	0.0185786
725.087	0.0184328
725.165	0.0185058
725.243	0.0184321
725.321	0.0183054
725.399	0.0182874
725.477	0.0183015
725.555	0.0182847
725.634	0.0182299
725.712	0.0181807
725.790	0.0181738
725.868	0.0182436
725.946	0.0182242
726.024	0.0179980
726.102	0.0181328
726.180	0.0180708
726.259	0.0181927
726.337	0.0182014
726.415	0.0182402
726.493	0.0182312
726.571	0.0182811
726.649	0.0184195
726.727	0.0182994
726.805	0.0182834
726.884	0.0182959
726.962	0.0183909
727.040	0.0184818
727.118	0.0184200
727.196	0.0185754
727.274	0.0185662
727.352	0.0185287
727.430	0.0186811
727.509	0.0186172
727.587	0.0187962
727.665	0.0187662
727.743	0.0188747
727.821	0.0187701
727.899	0.0187955
727.977	0.0188110
728.055	0.0188486
728.134	0.0190141
728.212	0.0188406
728.290	0.0188447
728.368	0.0186834
728.446	0.0187581
728.524	0.0187112
728.602	0.0186294
728.680	0.0184737
728.759	0.0186818
728.837	0.0186376
728.915	0.0185553
728.993	0.0186562
729.071	0.0185881
729.149	0.0186854
729.227	0.0186420
729.305	0.0186179
729.384	0.0186765
729.462	0.0185350
729.540	0.0186485
729.618	0.0187015
729.696	0.0185670
729.774	0.0186915
729.852	0.0187034
729.930	0.0185344
730.009	0.0185350
730.087	0.0184902
730.165	0.0185392
730.243	0.0184274
730.321	0.0184628
730.399	0.0183992
730.477	0.0184257
730.555	0.0183376
730.634	0.0184002
730.712	0.0185485
730.790	0.0184815
730.868	0.0185177
730.946	0.0184784
731.024	0.0185059
731.102	0.0185047
731.180	0.0186263
731.259	0.0186093
731.337	0.0186110
731.415	0.0185536
731.493	0.0186664
731.571	0.0185533
731.649	0.0185818
731.727	0.0185363
731.805	0.0185580
731.884	0.0185811
731.962	0.0185917
732.040	0.0185580
732.118	0.0187211
732.196	0.0186489
732.274	0.0186046
732.352	0.0185633
732.430	0.0186430
732.509	0.0187142
732.587	0.0186250
732.665	0.0187199
732.743	0.0187376
732.821	0.0186360
732.899	0.0187732
732.977	0.0188115
733.055	0.0187134
733.134	0.0185695
733.212	0.0186508
733.290	0.0186980
733.368	0.0185961
733.446	0.0185341
733.524	0.0185795
733.602	0.0185565
733.680	0.0185546
733.759	0.0184432
733.837	0.0184001
733.915	0.0183129
733.993	0.0180671
734.071	0.0183625
734.149	0.0184869
734.227	0.0182565
734.305	0.0181733
734.384	0.0183231
734.462	0.0182953
734.540	0.0181933
734.618	0.0182208
734.696	0.0182748
734.774	0.0183264
734.852	0.0182624
734.930	0.0182882
735.009	0.0182393
735.087	0.0185023
735.165	0.0184689
735.243	0.0183155
735.321	0.0184101
735.399	0.0185064
735.477	0.0184279
735.555	0.0185716
735.634	0.0184087
735.712	0.0185863
735.790	0.0185441
735.868	0.0184299
735.946	0.0183840
736.024	0.0185287
736.102	0.0185166
736.180	0.0184835
736.259	0.0183847
736.337	0.0184343
736.415	0.0182544
736.493	0.0182956
736.571	0.0182205
736.649	0.0182666
736.727	0.0182821
736.805	0.0181538
736.884	0.0181548
736.962	0.0182348
737.040	0.0183116
737.118	0.0180904
737.196	0.0181647
737.274	0.0182144
737.352	0.0181789
737.430	0.0183004
737.509	0.0182822
737.587	0.0184101
737.665	0.0184716
737.743	0.0185629
737.821	0.0184937
737.899	0.0186179
737.977	0.0187103
738.055	0.0188789
738.134	0.0190018
738.212	0.0188557
738.290	0.0189334
738.368	0.0189410
738.446	0.0191212
738.524	0.0191496
738.602	0.0192456
738.680	0.0189819
738.759	0.0190887
738.837	0.0191146
738.915	0.0191263
738.993	0.0190217
739.071	0.0190134
739.149	0.0188930
739.227	0.0189851
739.305	0.0186790
739.384	0.0187820
739.462	0.0186484
739.540	0.0185032
739.618	0.0184785
739.696	0.0185359
739.774	0.0185086
739.852	0.0185416
739.930	0.0184805
740.009	0.0185400
740.087	0.0185515
740.165	0.0185916
740.243	0.0185767
740.321	0.0187959
740.399	0.0185749
740.477	0.0186849
740.555	0.0188109
740.634	0.0188821
740.712	0.0188598
740.790	0.0189802
740.868	0.0189274
740.946	0.0189565
741.024	0.0189175
741.102	0.0190070
741.180	0.0189523
741.259	0.0189748
741.337	0.0188155
741.415	0.0187791
741.493	0.0187114
741.571	0.0186690
741.649	0.0186024
741.727	0.0185281
741.805	0.0185470
741.884	0.0185213
741.962	0.0186089
742.040	0.0182616
742.118	0.0183736
742.196	0.0184486
742.274	0.0183428
742.352	0.0183769
742.430	0.0184689
742.509	0.0183554
742.587	0.0185461
742.665	0.0185619
742.743	0.0187257
742.821	0.0186638
742.899	0.0188704
742.977	0.0187411
743.055	0.0187890
743.134	0.0187632
743.212	0.0188303
743.290	0.0188551
743.368	0.0187653
743.446	0.0187659
743.524	0.0186885
743.602	0.0186883
743.680	0.0186987
743.759	0.0186318
743.837	0.0186529
743.915	0.0186567
743.993	0.0186101
744.071	0.0184807
744.149	0.0184457
744.227	0.0185814
744.305	0.0185135
744.384	0.0182880
744.462	0.0183607
744.540	0.0183723
744.618	0.0185355
744.696	0.0185144
744.774	0.0184918
744.852	0.0184540
744.930	0.0185548
745.009	0.0187257
745.087	0.0185282
745.165	0.0185831
745.243	0.0186127
745.321	0.0186374
745.399	0.0186600
745.477	0.0186071
745.555	0.0185773
745.634	0.0187276
745.712	0.0186156
745.790	0.0185783
745.868	0.0185688
745.946	0.0185188
746.024	0.0184687
746.102	0.0184834
746.180	0.0185208
746.259	0.0184673
746.337	0.0183147
746.415	0.0183139
746.493	0.0183258
746.571	0.0183683
746.649	0.0182392
746.727	0.0183336
746.805	0.0183395
746.884	0.0183839
746.962	0.0182907
747.040	0.0183457
747.118	0.0184314
747.196	0.0183954
747.274	0.0182645
747.352	0.0183445
747.430	0.0182472
747.509	0.0181983
747.587	0.0184587
747.665	0.0183891
747.743	0.0182951
747.821	0.0182853
747.899	0.0181835
747.977	0.0182893
748.055	0.0183862
748.134	0.0180998
748.212	0.0183591
748.290	0.0183849
748.368	0.0182156
748.446	0.0182487
748.524	0.0183176
748.602	0.0183011
748.680	0.0180378
748.759	0.0181326
748.837	0.0182310
748.915	0.0181927
748.993	0.0181054
749.071	0.0180675
749.149	0.0181650
749.227	0.0181977
749.305	0.0181968
749.384	0.0182786
749.462	0.0183444
749.540	0.0182111
749.618	0.0184005
749.696	0.0184454
749.774	0.0184453
749.852	0.0184478
749.930	0.0185448
750.009	0.0185867
750.087	0.0185775
750.165	0.0185333
750.243	0.0186069
750.321	0.0185789
750.399	0.0185105
750.477	0.0186121
750.555	0.0186739
750.634	0.0185428
750.712	0.0185555
750.790	0.0186961
750.868	0.0185005
750.946	0.0185571
751.024	0.0185214
751.102	0.0185632
751.180	0.0184515
751.259	0.0186562
751.337	0.0185778
751.415	0.0185195
751.493	0.0184014
751.571	0.0184752
751.649	0.0183364
751.727	0.0184116
751.805	0.0182687
751.884	0.0182948
751.962	0.0182092
752.040	0.0180801
752.118	0.0181707
752.196	0.0181244
752.274	0.0179643
752.352	0.0181748
752.430	0.0181007
752.509	0.0181260
752.587	0.0181496
752.665	0.0181534
752.743	0.0182320
752.821	0.0182693
752.899	0.0182072
752.977	0.0183274
753.055	0.0183407
753.134	0.0183850
753.212	0.0184362
753.290	0.0184750
753.368	0.0184385
753.446	0.0183839
753.524	0.0183838
753.602	0.0183286
753.680	0.0183959
753.759	0.0183256
753.837	0.0183608
753.915	0.0183661
753.993	0.0184321
754.071	0.0184081
754.149	0.0182948
754.227	0.0184463
754.305	0.0184528
754.384	0.0185004
754.462	0.0185078
754.540	0.0185882
754.618	0.0184961
754.696	0.0184435
754.774	0.0185110
754.852	0.0185746
754.930	0.0185323
755.009	0.0185301
755.087	0.0184914
755.165	0.0186591
755.243	0.0186559
755.321	0.0184309
755.399	0.0185654
755.477	0.0186952
755.555	0.0185762
755.634	0.0185768
755.712	0.0185825
755.790	0.0185820
755.868	0.0185941
755.946	0.0186733
756.024	0.0185418
756.102	0.0186626
756.180	0.0186111
756.259	0.0186103
756.337	0.0184336
756.415	0.0184747
756.493	0.0184322
756.571	0.0186069
756.649	0.0183971
756.727	0.0182799
756.805	0.0182458
756.884	0.0182785
756.962	0.0182805
757.040	0.0182114
757.118	0.0180593
757.196	0.0180565
757.274	0.0181898
757.352	0.0179135
757.430	0.0181758
757.509	0.0181282
757.587	0.0180028
757.665	0.0180110
757.743	0.0181484
757.821	0.0181207
757.899	0.0180634
757.977	0.0182777
758.055	0.0182863
758.134	0.0182607
758.212	0.0183092
758.290	0.0184422
758.368	0.0183993
758.446	0.0184499
758.524	0.0184814
758.602	0.0185275
758.680	0.0184725
758.759	0.0186586
758.837	0.0186421
758.915	0.0186452
758.993	0.0187509
759.071	0.0187553
759.149	0.0187289
759.227	0.0188097
759.305	0.0187881
759.384	0.0187360
759.462	0.0187916
759.540	0.0187639
759.618	0.0187008
759.696	0.0187510
759.774	0.0187884
759.852	0.0186997
759.930	0.0186746
760.009	0.0186892
760.087	0.0186929
760.165	0.0187537
760.243	0.0187315
760.321	0.0186013
760.399	0.0185596
760.477	0.0186728
760.555	0.0187631
760.634	0.0185934
760.712	0.0185623
760.790	0.0184940
760.868	0.0185559
760.946	0.0185782
761.024	0.0185395
761.102	0.0185545
761.180	0.0185063
761.259	0.0185726
761.337	0.0184571
761.415	0.0183998
761.493	0.0185142
761.571	0.0185950
761.649	0.0185339
761.727	0.0185795
761.805	0.0185537
761.884	0.0184695
761.962	0.0183843
762.040	0.0184910
762.118	0.0185921
762.196	0.0184641
762.274	0.0184454
762.352	0.0183073
762.430	0.0183575
762.509	0.0184219
762.587	0.0184291
762.665	0.0185574
762.743	0.0184138
762.821	0.0185241
762.899	0.0183628
762.977	0.0183738
763.055	0.0185774
763.134	0.0186315
763.212	0.0184657
763.290	0.0184299
763.368	0.0185669
763.446	0.0186643
763.524	0.0185485
763.602	0.0184749
763.680	0.0184136
763.759	0.0184546
763.837	0.0184590
763.915	0.0185333
763.993	0.0184700
764.071	0.0185104
764.149	0.0184159
764.227	0.0185383
764.305	0.0184775
764.384	0.0183787
764.462	0.0184561
764.540	0.0186289
764.618	0.0185692
764.696	0.0185046
764.774	0.0184997
764.852	0.0184964
764.930	0.0184695
765.009	0.0185176
765.087	0.0185024
765.165	0.0184619
765.243	0.0186401
765.321	0.0185019
765.399	0.0183006
765.477	0.0183932
765.555	0.0182841
765.634	0.0183814
765.712	0.0184982
765.790	0.0183637
765.868	0.0182904
765.946	0.0183021
766.024	0.0182896
766.102	0.0183802
766.180	0.0183070
766.259	0.0182590
766.337	0.0182372
766.415	0.0182114
766.493	0.0181725
766.571	0.0180182
766.649	0.0180091
766.727	0.0179868
766.805	0.0178870
766.884	0.0179392
766.962	0.0177797
767.040	0.0179282
767.118	0.0178405
767.196	0.0178498
767.274	0.0177238
767.352	0.0178911
767.430	0.0180286
767.509	0.0180981
767.587	0.0180894
767.665	0.0181239
767.743	0.0181905
767.821	0.0182671
767.899	0.0183428
767.977	0.0185680
768.055	0.0185763
768.134	0.0184674
768.212	0.0185360
768.290	0.0186205
768.368	0.0185448
768.446	0.0186995
768.524	0.0186463
768.602	0.0186111
768.680	0.0185962
768.759	0.0185286
768.837	0.0186349
768.915	0.0186179
768.993	0.0186069
769.071	0.0186011
769.149	0.0185897
769.227	0.0186249
769.305	0.0185178
769.384	0.0186687
769.462	0.0187160
769.540	0.0186544
769.618	0.0186721
769.696	0.0187070
769.774	0.0188515
769.852	0.0186095
769.930	0.0184344
770.009	0.0184380
770.087	0.0184694
770.165	0.0183602
770.243	0.0184649
770.321	0.0183910
770.399	0.0182965
770.477	0.0183184
770.555	0.0181811
770.634	0.0181961
770.712	0.0182197
770.790	0.0180179
770.868	0.0181762
770.946	0.0183052
771.024	0.0181592
771.102	0.0182253
771.180	0.0181214
771.259	0.0181570
771.337	0.0182451
771.415	0.0181890
771.493	0.0183290
771.571	0.0183781
771.649	0.0182748
771.727	0.0184581
771.805	0.0184546
771.884	0.0185465
771.962	0.0183872
772.040	0.0184901
772.118	0.0186024
772.196	0.0186293
772.274	0.0184253
772.352	0.0185829
772.430	0.0186090
772.509	0.0184504
772.587	0.0185405
772.665	0.0186175
772.743	0.0186744
772.821	0.0185544
772.899	0.0185750
772.977	0.0186649
773.055	0.0184762
773.134	0.0185933
773.212	0.0185374
773.290	0.0183845
773.368	0.0185246
773.446	0.0187744
773.524	0.0184788
773.602	0.0185888
773.680	0.0188177
773.759	0.0186020
773.837	0.0185221
773.915	0.0185164
773.993	0.0186568
774.071	0.0185432
774.149	0.0185870
774.227	0.0186079
774.305	0.0187085
774.384	0.0186486
774.462	0.0185815
774.540	0.0185709
774.618	0.0185941
774.696	0.0186308
774.774	0.0185580
774.852	0.0186017
774.930	0.0187198
775.009	0.0187402
775.087	0.0187664
775.165	0.0188577
775.243	0.0186765
775.321	0.0187136
775.399	0.0187817
775.477	0.0187860
775.555	0.0188313
775.634	0.0188105
775.712	0.0187405
775.790	0.0187158
775.868	0.0186236
775.946	0.0187753
776.024	0.0186794
776.102	0.0185320
776.180	0.0185783
776.259	0.0186407
776.337	0.0184341
776.415	0.0184653
776.493	0.0185860
776.571	0.0185228
776.649	0.0185251
776.727	0.0185291
776.805	0.0185312
776.884	0.0185698
776.962	0.0186788
777.040	0.0184354
777.118	0.0184391
777.196	0.0183922
777.274	0.0183330
777.352	0.0185204
777.430	0.0186687
777.509	0.0185057
777.587	0.0185357
777.665	0.0185581
777.743	0.0184352
777.821	0.0184928
777.899	0.0185995
777.977	0.0185429
778.055	0.0185014
778.134	0.0185225
778.212	0.0185223
778.290	0.0183875
778.368	0.0184975
778.446	0.0184327
778.524	0.0182806
778.602	0.0184708
778.680	0.0184507
778.759	0.0185208
778.837	0.0183128
778.915	0.0183749
778.993	0.0182040
779.071	0.0183060
779.149	0.0182363
779.227	0.0183241
779.305	0.0184414
779.384	0.0183660
779.462	0.0182967
779.540	0.0183379
779.618	0.0183311
779.696	0.0183985
779.774	0.0183979
779.852	0.0183679
779.930	0.0184331
780.009	0.0183947
780.087	0.0183984
780.165	0.0185583
780.243	0.0183743
780.321	0.0184356
780.399	0.0184995
780.477	0.0186356
780.555	0.0184137
780.634	0.0185032
780.712	0.0186228
780.790	0.0185924
780.868	0.0185727
780.946	0.0186269
781.024	0.0187502
781.102	0.0188147
781.180	0.0186687
781.259	0.0186497
781.337	0.0186948
781.415	0.0185784
781.493	0.0187135
781.571	0.0187347
781.649	0.0186916
781.727	0.0185839
781.805	0.0186307
781.884	0.0184527
781.962	0.0185265
782.040	0.0185234
782.118	0.0185065
782.196	0.0184888
782.274	0.0183438
782.352	0.0185402
782.430	0.0184244
782.509	0.0185305
782.587	0.0184950
782.665	0.0184135
782.743	0.0184202
782.821	0.0184097
782.899	0.0184608
782.977	0.0186474
783.055	0.0184789
783.134	0.0183593
783.212	0.0184624
783.290	0.0185287
783.368	0.0186504
783.446	0.0186081
783.524	0.0186172
783.602	0.0185535
783.680	0.0186031
783.759	0.0185584
783.837	0.0185805
783.915	0.0184912
783.993	0.0185402
784.071	0.0184866
784.149	0.0184769
784.227	0.0184478
784.305	0.0184805
784.384	0.0184794
784.462	0.0183297
784.540	0.0183389
784.618	0.0183231
784.696	0.0184385
784.774	0.0185453
784.852	0.0183211
784.930	0.0184489
785.009	0.0185124
785.087	0.0184171
785.165	0.0184440
785.243	0.0184653
785.321	0.0184636
785.399	0.0184692
785.477	0.0184095
785.555	0.0184673
785.634	0.0184302
785.712	0.0185395
785.790	0.0184892
785.868	0.0184653
785.946	0.0184572
786.024	0.0183944
786.102	0.0184507
786.180	0.0184337
786.259	0.0184040
786.337	0.0185671
786.415	0.0183909
786.493	0.0183591
786.571	0.0184889
786.649	0.0184611
786.727	0.0184837
786.805	0.0183752
786.884	0.0183556
786.962	0.0185330
787.040	0.0184577
787.118	0.0183630
787.196	0.0184289
787.274	0.0184577
787.352	0.0183715
787.430	0.0183421
787.509	0.0185989
787.587	0.0184466
787.665	0.0183907
787.743	0.0185020
787.821	0.0185040
787.899	0.0185440
787.977	0.0185423
788.055	0.0184197
788.134	0.0184672
788.212	0.0184795
788.290	0.0185187
788.368	0.0183939
788.446	0.0183263
788.524	0.0183951
788.602	0.0185233
788.680	0.0183514
788.759	0.0181296
788.837	0.0182745
788.915	0.0183702
788.993	0.0183436
789.071	0.0183604
789.149	0.0182166
789.227	0.0181233
789.305	0.0182322
789.384	0.0183002
789.462	0.0182668
789.540	0.0181747
789.618	0.0181315
789.696	0.0180825
789.774	0.0181369
789.852	0.0182076
789.930	0.0182344
790.009	0.0182630
790.087	0.0182788
790.165	0.0182538
790.243	0.0182324
790.321	0.0182587
790.399	0.0183327
790.477	0.0183701
790.555	0.0185461
790.634	0.0185269
790.712	0.0184220
790.790	0.0183374
790.868	0.0184357
790.946	0.0185657
791.024	0.0186819
791.102	0.0186993
791.180	0.0187624
791.259	0.0186348
791.337	0.0186160
791.415	0.0186387
791.493	0.0186737
791.571	0.0186823
791.649	0.0187288
791.727	0.0186723
791.805	0.0185543
791.884	0.0185442
791.962	0.0187705
792.040	0.0186227
792.118	0.0186140
792.196	0.0187212
792.274	0.0185258
792.352	0.0186591
792.430	0.0186887
792.509	0.0187490
792.587	0.0186131
792.665	0.0186806
792.743	0.0188178
792.821	0.0185386
792.899	0.0186223
792.977	0.0186288
793.055	0.0185521
793.134	0.0185052
793.212	0.0185671
793.290	0.0185383
793.368	0.0184585
793.446	0.0184537
793.524	0.0184485
793.602	0.0186530
793.680	0.0186776
793.759	0.0185933
793.837	0.0187151
793.915	0.0187138
793.993	0.0187784
794.071	0.0187823
794.149	0.0189256
794.227	0.0189365
794.305	0.0190680
794.384	0.0189957
794.462	0.0189493
794.540	0.0191038
794.618	0.0190967
794.696	0.0189491
794.774	0.0188963
794.852	0.0190557
794.930	0.0190186
