06/03/2022	18:49:25	Ver.	4.1	UNKNOWN
Optical Delay	475.008614	Delta X		0.078125	Sweeps	1	Scan Rate	0/0
Coordinates	Axis 1	NaN	Axis 2	NaN	Axis 3	NaN	Axis 4	NaN	Axis 5	NaN	Axis 6	0.000000
TX Power	0.000000	RX Power	0.000000

475.009	0.0178989
475.087	0.0178461
475.165	0.0178089
475.243	0.0177774
475.321	0.0177666
475.399	0.0177451
475.477	0.0178096
475.555	0.0179631
475.634	0.0179623
475.712	0.0177532
475.790	0.0177255
475.868	0.0179234
475.946	0.0177818
476.024	0.0178500
476.102	0.0177186
476.180	0.0179570
476.259	0.0179435
476.337	0.0180268
476.415	0.0177696
476.493	0.0179333
476.571	0.0178897
476.649	0.0177850
476.727	0.0178824
476.805	0.0178962
476.884	0.0179268
476.962	0.0179799
477.040	0.0180694
477.118	0.0180889
477.196	0.0180188
477.274	0.0180231
477.352	0.0180981
477.430	0.0180028
477.509	0.0180670
477.587	0.0181191
477.665	0.0178555
477.743	0.0179917
477.821	0.0179430
477.899	0.0179549
477.977	0.0179387
478.055	0.0179161
478.134	0.0180231
478.212	0.0179425
478.290	0.0179396
478.368	0.0179484
478.446	0.0178452
478.524	0.0177670
478.602	0.0179358
478.680	0.0180048
478.759	0.0178248
478.837	0.0177892
478.915	0.0179385
478.993	0.0178851
479.071	0.0178974
479.149	0.0178551
479.227	0.0178495
479.305	0.0179324
479.384	0.0179171
479.462	0.0178298
479.540	0.0177695
479.618	0.0179359
479.696	0.0179177
479.774	0.0179882
479.852	0.0178680
479.930	0.0179063
480.009	0.0177995
480.087	0.0179288
480.165	0.0179758
480.243	0.0178936
480.321	0.0179690
480.399	0.0179350
480.477	0.0178773
480.555	0.0180404
480.634	0.0179562
480.712	0.0179829
480.790	0.0179964
480.868	0.0178350
480.946	0.0180087
481.024	0.0180665
481.102	0.0177673
481.180	0.0178481
481.259	0.0177852
481.337	0.0178748
481.415	0.0179337
481.493	0.0179192
481.571	0.0179341
481.649	0.0178227
481.727	0.0178854
481.805	0.0178381
481.884	0.0176580
481.962	0.0178352
482.040	0.0178298
482.118	0.0177643
482.196	0.0177670
482.274	0.0178896
482.352	0.0177188
482.430	0.0177691
482.509	0.0179039
482.587	0.0177244
482.665	0.0176527
482.743	0.0177388
482.821	0.0176048
482.899	0.0176075
482.977	0.0176524
483.055	0.0177159
483.134	0.0177061
483.212	0.0175117
483.290	0.0177650
483.368	0.0175890
483.446	0.0175612
483.524	0.0174647
483.602	0.0176028
483.680	0.0176590
483.759	0.0176427
483.837	0.0175105
483.915	0.0176512
483.993	0.0175137
484.071	0.0175010
484.149	0.0175169
484.227	0.0174068
484.305	0.0174473
484.384	0.0174541
484.462	0.0175517
484.540	0.0177054
484.618	0.0175727
484.696	0.0175212
484.774	0.0173161
484.852	0.0175169
484.930	0.0176386
485.009	0.0175195
485.087	0.0174582
485.165	0.0175981
485.243	0.0175587
485.321	0.0177495
485.399	0.0176048
485.477	0.0175641
485.555	0.0175935
485.634	0.0175444
485.712	0.0175722
485.790	0.0175751
485.868	0.0176408
485.946	0.0175988
486.024	0.0174026
486.102	0.0175938
486.180	0.0175887
486.259	0.0175161
486.337	0.0176425
486.415	0.0174990
486.493	0.0176782
486.571	0.0176845
486.649	0.0175671
486.727	0.0176048
486.805	0.0175231
486.884	0.0176415
486.962	0.0176270
487.040	0.0177143
487.118	0.0175915
487.196	0.0176713
487.274	0.0176797
487.352	0.0177548
487.430	0.0175182
487.509	0.0177287
487.587	0.0176989
487.665	0.0176725
487.743	0.0176358
487.821	0.0178308
487.899	0.0177427
487.977	0.0178268
488.055	0.0176884
488.134	0.0176228
488.212	0.0178464
488.290	0.0177505
488.368	0.0178082
488.446	0.0177477
488.524	0.0175806
488.602	0.0176720
488.680	0.0176250
488.759	0.0177807
488.837	0.0175877
488.915	0.0176151
488.993	0.0176882
489.071	0.0176627
489.149	0.0177001
489.227	0.0178422
489.305	0.0177724
489.384	0.0176093
489.462	0.0176811
489.540	0.0177464
489.618	0.0177127
489.696	0.0178603
489.774	0.0176684
489.852	0.0176926
489.930	0.0176931
490.009	0.0176570
490.087	0.0176189
490.165	0.0176595
490.243	0.0176736
490.321	0.0176510
490.399	0.0175609
490.477	0.0176875
490.555	0.0176453
490.634	0.0175381
490.712	0.0174771
490.790	0.0175751
490.868	0.0176290
490.946	0.0174766
491.024	0.0176090
491.102	0.0176570
491.180	0.0175182
491.259	0.0174924
491.337	0.0176020
491.415	0.0176111
491.493	0.0176247
491.571	0.0175760
491.649	0.0175098
491.727	0.0174662
491.805	0.0176115
491.884	0.0176411
491.962	0.0175809
492.040	0.0176476
492.118	0.0176286
492.196	0.0176168
492.274	0.0175455
492.352	0.0176781
492.430	0.0175010
492.509	0.0175728
492.587	0.0174654
492.665	0.0175966
492.743	0.0176668
492.821	0.0176010
492.899	0.0174595
492.977	0.0175229
493.055	0.0175998
493.134	0.0176768
493.212	0.0175994
493.290	0.0177297
493.368	0.0177126
493.446	0.0176800
493.524	0.0175607
493.602	0.0175852
493.680	0.0177356
493.759	0.0177249
493.837	0.0177314
493.915	0.0176857
493.993	0.0177940
494.071	0.0177315
494.149	0.0177226
494.227	0.0177807
494.305	0.0176769
494.384	0.0175990
494.462	0.0177533
494.540	0.0176585
494.618	0.0176214
494.696	0.0176588
494.774	0.0178817
494.852	0.0177092
494.930	0.0177215
495.009	0.0177953
495.087	0.0177468
495.165	0.0176213
495.243	0.0177032
495.321	0.0177818
495.399	0.0176950
495.477	0.0176499
495.555	0.0177039
495.634	0.0176499
495.712	0.0178582
495.790	0.0177132
495.868	0.0177063
495.946	0.0175156
496.024	0.0178214
496.102	0.0176871
496.180	0.0175799
496.259	0.0177077
496.337	0.0176328
496.415	0.0177770
496.493	0.0177633
496.571	0.0177623
496.649	0.0177667
496.727	0.0178670
496.805	0.0177934
496.884	0.0176651
496.962	0.0176424
497.040	0.0177323
497.118	0.0177046
497.196	0.0178213
497.274	0.0178165
497.352	0.0178487
497.430	0.0177349
497.509	0.0178136
497.587	0.0177217
497.665	0.0178676
497.743	0.0178393
497.821	0.0177876
497.899	0.0176823
497.977	0.0177470
498.055	0.0180065
498.134	0.0177279
498.212	0.0178951
498.290	0.0178413
498.368	0.0177940
498.446	0.0179706
498.524	0.0178276
498.602	0.0177779
498.680	0.0179131
498.759	0.0178588
498.837	0.0177722
498.915	0.0178420
498.993	0.0177962
499.071	0.0180094
499.149	0.0179005
499.227	0.0178806
499.305	0.0178834
499.384	0.0179563
499.462	0.0179848
499.540	0.0178204
499.618	0.0177637
499.696	0.0177843
499.774	0.0178503
499.852	0.0178786
499.930	0.0179079
500.009	0.0179204
500.087	0.0180105
500.165	0.0179465
500.243	0.0178994
500.321	0.0179840
500.399	0.0178252
500.477	0.0179402
500.555	0.0179594
500.634	0.0179617
500.712	0.0178091
500.790	0.0178963
500.868	0.0179523
500.946	0.0179492
501.024	0.0178909
501.102	0.0181531
501.180	0.0179647
501.259	0.0177895
501.337	0.0179486
501.415	0.0178875
501.493	0.0178387
501.571	0.0179539
501.649	0.0179734
501.727	0.0180087
501.805	0.0179814
501.884	0.0179225
501.962	0.0180402
502.040	0.0179887
502.118	0.0179795
502.196	0.0179919
502.274	0.0179289
502.352	0.0179366
502.430	0.0179560
502.509	0.0179644
502.587	0.0179458
502.665	0.0179411
502.743	0.0178925
502.821	0.0179716
502.899	0.0179456
502.977	0.0179505
503.055	0.0178994
503.134	0.0179945
503.212	0.0178951
503.290	0.0178442
503.368	0.0180572
503.446	0.0180589
503.524	0.0179795
503.602	0.0177724
503.680	0.0178407
503.759	0.0179635
503.837	0.0179688
503.915	0.0180389
503.993	0.0178961
504.071	0.0179871
504.149	0.0178458
504.227	0.0179611
504.305	0.0179883
504.384	0.0179669
504.462	0.0180144
504.540	0.0179865
504.618	0.0179303
504.696	0.0177854
504.774	0.0179016
504.852	0.0178976
504.930	0.0177866
505.009	0.0179655
505.087	0.0180188
505.165	0.0179128
505.243	0.0178526
505.321	0.0179028
505.399	0.0178468
505.477	0.0179002
505.555	0.0176822
505.634	0.0178756
505.712	0.0179227
505.790	0.0177339
505.868	0.0176240
505.946	0.0177691
506.024	0.0178011
506.102	0.0177380
506.180	0.0176585
506.259	0.0177329
506.337	0.0178417
506.415	0.0178166
506.493	0.0177489
506.571	0.0178479
506.649	0.0177220
506.727	0.0176562
506.805	0.0176778
506.884	0.0178605
506.962	0.0178881
507.040	0.0177090
507.118	0.0177357
507.196	0.0178349
507.274	0.0177444
507.352	0.0178192
507.430	0.0178963
507.509	0.0178277
507.587	0.0178907
507.665	0.0180994
507.743	0.0178642
507.821	0.0179510
507.899	0.0179969
507.977	0.0179070
508.055	0.0180093
508.134	0.0180878
508.212	0.0179799
508.290	0.0180367
508.368	0.0179837
508.446	0.0179985
508.524	0.0181973
508.602	0.0180751
508.680	0.0181120
508.759	0.0180665
508.837	0.0182905
508.915	0.0181953
508.993	0.0181156
509.071	0.0181638
509.149	0.0181536
509.227	0.0181451
509.305	0.0182397
509.384	0.0182416
509.462	0.0182633
509.540	0.0181278
509.618	0.0181397
509.696	0.0182550
509.774	0.0181747
509.852	0.0182794
509.930	0.0181978
510.009	0.0180572
510.087	0.0182171
510.165	0.0182195
510.243	0.0181641
510.321	0.0182498
510.399	0.0182331
510.477	0.0182031
510.555	0.0181553
510.634	0.0182928
510.712	0.0180886
510.790	0.0179504
510.868	0.0181339
510.946	0.0181715
511.024	0.0180562
511.102	0.0181051
511.180	0.0180492
511.259	0.0178808
511.337	0.0179803
511.415	0.0180297
511.493	0.0179991
511.571	0.0180271
511.649	0.0179755
511.727	0.0178113
511.805	0.0179074
511.884	0.0178173
511.962	0.0178046
512.040	0.0178724
512.118	0.0177627
512.196	0.0177432
512.274	0.0177609
512.352	0.0177599
512.430	0.0176733
512.509	0.0176221
512.587	0.0176187
512.665	0.0176530
512.743	0.0175838
512.821	0.0173603
512.899	0.0175179
512.977	0.0174979
513.055	0.0174082
513.134	0.0173322
513.212	0.0173062
513.290	0.0172714
513.368	0.0172648
513.446	0.0171629
513.524	0.0171539
513.602	0.0172436
513.680	0.0172270
513.759	0.0170358
513.837	0.0169526
513.915	0.0170354
513.993	0.0169666
514.071	0.0168520
514.149	0.0170007
514.227	0.0169006
514.305	0.0170277
514.384	0.0168771
514.462	0.0167814
514.540	0.0168396
514.618	0.0169626
514.696	0.0169161
514.774	0.0167495
514.852	0.0170375
514.930	0.0169078
515.009	0.0169412
515.087	0.0168639
515.165	0.0168249
515.243	0.0169232
515.321	0.0169402
515.399	0.0170195
515.477	0.0167861
515.555	0.0170507
515.634	0.0169919
515.712	0.0169225
515.790	0.0168713
515.868	0.0168430
515.946	0.0169475
516.024	0.0170792
516.102	0.0168972
516.180	0.0168739
516.259	0.0169738
516.337	0.0171510
516.415	0.0170820
516.493	0.0170750
516.571	0.0171259
516.649	0.0170094
516.727	0.0172939
516.805	0.0171680
516.884	0.0173161
516.962	0.0173650
517.040	0.0173930
517.118	0.0175200
517.196	0.0175407
517.274	0.0174464
517.352	0.0176357
517.430	0.0175916
517.509	0.0178243
517.587	0.0178067
517.665	0.0177831
517.743	0.0178342
517.821	0.0178483
517.899	0.0178496
517.977	0.0179025
518.055	0.0178922
518.134	0.0179402
518.212	0.0178572
518.290	0.0179123
518.368	0.0181496
518.446	0.0180478
518.524	0.0182874
518.602	0.0181559
518.680	0.0182722
518.759	0.0183118
518.837	0.0182180
518.915	0.0182914
518.993	0.0183731
519.071	0.0182478
519.149	0.0183101
519.227	0.0184202
519.305	0.0182278
519.384	0.0183463
519.462	0.0183210
519.540	0.0182972
519.618	0.0185226
519.696	0.0182481
519.774	0.0182816
519.852	0.0183661
519.930	0.0183962
520.009	0.0183086
520.087	0.0182114
520.165	0.0181472
520.243	0.0182291
520.321	0.0183951
520.399	0.0183283
520.477	0.0182212
520.555	0.0182027
520.634	0.0181633
520.712	0.0182460
520.790	0.0183125
520.868	0.0181261
520.946	0.0181275
521.024	0.0179661
521.102	0.0181829
521.180	0.0179166
521.259	0.0179978
521.337	0.0180609
521.415	0.0179945
521.493	0.0178484
521.571	0.0178333
521.649	0.0178571
521.727	0.0178465
521.805	0.0177744
521.884	0.0178566
521.962	0.0178838
522.040	0.0177704
522.118	0.0177109
522.196	0.0177346
522.274	0.0176588
522.352	0.0176913
522.430	0.0177339
522.509	0.0176846
522.587	0.0175547
522.665	0.0175517
522.743	0.0175781
522.821	0.0175323
522.899	0.0175806
522.977	0.0175800
523.055	0.0175184
523.134	0.0176286
523.212	0.0175209
523.290	0.0175594
523.368	0.0174757
523.446	0.0174080
523.524	0.0175110
523.602	0.0174957
523.680	0.0173725
523.759	0.0173987
523.837	0.0174129
523.915	0.0173602
523.993	0.0173725
524.071	0.0174046
524.149	0.0173344
524.227	0.0173494
524.305	0.0171140
524.384	0.0172753
524.462	0.0176069
524.540	0.0173019
524.618	0.0173150
524.696	0.0173952
524.774	0.0174191
524.852	0.0174334
524.930	0.0174560
525.009	0.0175041
525.087	0.0173941
525.165	0.0176023
525.243	0.0176033
525.321	0.0176631
525.399	0.0175831
525.477	0.0174998
525.555	0.0177882
525.634	0.0177776
525.712	0.0177177
525.790	0.0176299
525.868	0.0178204
525.946	0.0179288
526.024	0.0179176
526.102	0.0178461
526.180	0.0180467
526.259	0.0179936
526.337	0.0179389
526.415	0.0180854
526.493	0.0181516
526.571	0.0180254
526.649	0.0180052
526.727	0.0183020
526.805	0.0180951
526.884	0.0182358
526.962	0.0182092
527.040	0.0183012
527.118	0.0182874
527.196	0.0182801
527.274	0.0183108
527.352	0.0183266
527.430	0.0184806
527.509	0.0185204
527.587	0.0184279
527.665	0.0185170
527.743	0.0185235
527.821	0.0185002
527.899	0.0184715
527.977	0.0186031
528.055	0.0185486
528.134	0.0184750
528.212	0.0184714
528.290	0.0185552
528.368	0.0186301
528.446	0.0186234
528.524	0.0186241
528.602	0.0185329
528.680	0.0184660
528.759	0.0185484
528.837	0.0185162
528.915	0.0185574
528.993	0.0185630
529.071	0.0184634
529.149	0.0184376
529.227	0.0185330
529.305	0.0184811
529.384	0.0185600
529.462	0.0184701
529.540	0.0183006
529.618	0.0184050
529.696	0.0183454
529.774	0.0183208
529.852	0.0183595
529.930	0.0182840
530.009	0.0183334
530.087	0.0183219
530.165	0.0181171
530.243	0.0182130
530.321	0.0181726
530.399	0.0181195
530.477	0.0180577
530.555	0.0180811
530.634	0.0180314
530.712	0.0179695
530.790	0.0180415
530.868	0.0182173
530.946	0.0178262
531.024	0.0180066
531.102	0.0178975
531.180	0.0178410
531.259	0.0178439
531.337	0.0179492
531.415	0.0176987
531.493	0.0176610
531.571	0.0177342
531.649	0.0176351
531.727	0.0176254
531.805	0.0177057
531.884	0.0175848
531.962	0.0175674
532.040	0.0174302
532.118	0.0176120
532.196	0.0176808
532.274	0.0176209
532.352	0.0176436
532.430	0.0179109
532.509	0.0178265
532.587	0.0177504
532.665	0.0179963
532.743	0.0179185
532.821	0.0179991
532.899	0.0181002
532.977	0.0180146
533.055	0.0181070
533.134	0.0180520
533.212	0.0181105
533.290	0.0181382
533.368	0.0181198
533.446	0.0181428
533.524	0.0181542
533.602	0.0181071
533.680	0.0181207
533.759	0.0181907
533.837	0.0179085
533.915	0.0179228
533.993	0.0180227
534.071	0.0179364
534.149	0.0178194
534.227	0.0178613
534.305	0.0178258
534.384	0.0177757
534.462	0.0176665
534.540	0.0177650
534.618	0.0178065
534.696	0.0174995
534.774	0.0175433
534.852	0.0175335
534.930	0.0174995
535.009	0.0174292
535.087	0.0173315
535.165	0.0172736
535.243	0.0171397
535.321	0.0171882
535.399	0.0169096
535.477	0.0167792
535.555	0.0166661
535.634	0.0165547
535.712	0.0165163
535.790	0.0162685
535.868	0.0163611
535.946	0.0163325
536.024	0.0161426
536.102	0.0161814
536.180	0.0161720
536.259	0.0161139
536.337	0.0160629
536.415	0.0161929
536.493	0.0161777
536.571	0.0161832
536.649	0.0161919
536.727	0.0164020
536.805	0.0164252
536.884	0.0164381
536.962	0.0164884
537.040	0.0165274
537.118	0.0166917
537.196	0.0167950
537.274	0.0167831
537.352	0.0170309
537.430	0.0170475
537.509	0.0170618
537.587	0.0170627
537.665	0.0171078
537.743	0.0172079
537.821	0.0171373
537.899	0.0172218
537.977	0.0172305
538.055	0.0173499
538.134	0.0172496
538.212	0.0173792
538.290	0.0172427
538.368	0.0173833
538.446	0.0174718
538.524	0.0175306
538.602	0.0174948
538.680	0.0174919
538.759	0.0178345
538.837	0.0178204
538.915	0.0179237
538.993	0.0179547
539.071	0.0180330
539.149	0.0181698
539.227	0.0182727
539.305	0.0183711
539.384	0.0186295
539.462	0.0187202
539.540	0.0187694
539.618	0.0188792
539.696	0.0189267
539.774	0.0189628
539.852	0.0191275
539.930	0.0193330
540.009	0.0194071
540.087	0.0192699
540.165	0.0194215
540.243	0.0194674
540.321	0.0194333
540.399	0.0195913
540.477	0.0193195
540.555	0.0194785
540.634	0.0196313
540.712	0.0194953
540.790	0.0194218
540.868	0.0194541
540.946	0.0193395
541.024	0.0193468
541.102	0.0192805
541.180	0.0192267
541.259	0.0191454
541.337	0.0189739
541.415	0.0190531
541.493	0.0187501
541.571	0.0186040
541.649	0.0186276
541.727	0.0184932
541.805	0.0182964
541.884	0.0181474
541.962	0.0181339
542.040	0.0180375
542.118	0.0179913
542.196	0.0179222
542.274	0.0178733
542.352	0.0178244
542.430	0.0177780
542.509	0.0177660
542.587	0.0177708
542.665	0.0176594
542.743	0.0176028
542.821	0.0176520
542.899	0.0175634
542.977	0.0177386
543.055	0.0174426
543.134	0.0175584
543.212	0.0175195
543.290	0.0175333
543.368	0.0175529
543.446	0.0173353
543.524	0.0174558
543.602	0.0174368
543.680	0.0172791
543.759	0.0172990
543.837	0.0173105
543.915	0.0174623
543.993	0.0174706
544.071	0.0173748
544.149	0.0174092
544.227	0.0174004
544.305	0.0175010
544.384	0.0175066
544.462	0.0174494
544.540	0.0173724
544.618	0.0174706
544.696	0.0175673
544.774	0.0173978
544.852	0.0175453
544.930	0.0174864
545.009	0.0173889
545.087	0.0174628
545.165	0.0174394
545.243	0.0173875
545.321	0.0173971
545.399	0.0173069
545.477	0.0173971
545.555	0.0175340
545.634	0.0174062
545.712	0.0173736
545.790	0.0174329
545.868	0.0174786
545.946	0.0172309
546.024	0.0173125
546.102	0.0173901
546.180	0.0174849
546.259	0.0174480
546.337	0.0174558
546.415	0.0173018
546.493	0.0174184
546.571	0.0174049
546.649	0.0173742
546.727	0.0174280
546.805	0.0174409
546.884	0.0174681
546.962	0.0173277
547.040	0.0173761
547.118	0.0173785
547.196	0.0173149
547.274	0.0174021
547.352	0.0175418
547.430	0.0175780
547.509	0.0175854
547.587	0.0175195
547.665	0.0175746
547.743	0.0174937
547.821	0.0176143
547.899	0.0175226
547.977	0.0177457
548.055	0.0176780
548.134	0.0175812
548.212	0.0177645
548.290	0.0177052
548.368	0.0176825
548.446	0.0177280
548.524	0.0177299
548.602	0.0176263
548.680	0.0176873
548.759	0.0177483
548.837	0.0179543
548.915	0.0177490
548.993	0.0177067
549.071	0.0177467
549.149	0.0178350
549.227	0.0178295
549.305	0.0178847
549.384	0.0177715
549.462	0.0178951
549.540	0.0179660
549.618	0.0180344
549.696	0.0180225
549.774	0.0179385
549.852	0.0180884
549.930	0.0182144
550.009	0.0182831
550.087	0.0183214
550.165	0.0182379
550.243	0.0183662
550.321	0.0184795
550.399	0.0185781
550.477	0.0185496
550.555	0.0185402
550.634	0.0186090
550.712	0.0186467
550.790	0.0184943
550.868	0.0187305
550.946	0.0186274
551.024	0.0186175
551.102	0.0187682
551.180	0.0186687
551.259	0.0186573
551.337	0.0187318
551.415	0.0186730
551.493	0.0187349
551.571	0.0186591
551.649	0.0185332
551.727	0.0184565
551.805	0.0185272
551.884	0.0185364
551.962	0.0184934
552.040	0.0184822
552.118	0.0185922
552.196	0.0185118
552.274	0.0185330
552.352	0.0184933
552.430	0.0184530
552.509	0.0183906
552.587	0.0183884
552.665	0.0183398
552.743	0.0183264
552.821	0.0181987
552.899	0.0182468
552.977	0.0181317
553.055	0.0180482
553.134	0.0179790
553.212	0.0179585
553.290	0.0178976
553.368	0.0176254
553.446	0.0174995
553.524	0.0174918
553.602	0.0176033
553.680	0.0175281
553.759	0.0174149
553.837	0.0172492
553.915	0.0172613
553.993	0.0172411
554.071	0.0170095
554.149	0.0170859
554.227	0.0169912
554.305	0.0169705
554.384	0.0170121
554.462	0.0167545
554.540	0.0169553
554.618	0.0167764
554.696	0.0167016
554.774	0.0168756
554.852	0.0167767
554.930	0.0168343
555.009	0.0168895
555.087	0.0167933
555.165	0.0169234
555.243	0.0169865
555.321	0.0169166
555.399	0.0169411
555.477	0.0169836
555.555	0.0171771
555.634	0.0171914
555.712	0.0171539
555.790	0.0172466
555.868	0.0173956
555.946	0.0173831
556.024	0.0173929
556.102	0.0174249
556.180	0.0174991
556.259	0.0175255
556.337	0.0176401
556.415	0.0177674
556.493	0.0177762
556.571	0.0178193
556.649	0.0178310
556.727	0.0179053
556.805	0.0178696
556.884	0.0179883
556.962	0.0180089
557.040	0.0181336
557.118	0.0181373
557.196	0.0181489
557.274	0.0181493
557.352	0.0182603
557.430	0.0182644
557.509	0.0183355
557.587	0.0183102
557.665	0.0183421
557.743	0.0184800
557.821	0.0183456
557.899	0.0183965
557.977	0.0185739
558.055	0.0183590
558.134	0.0183805
558.212	0.0184735
558.290	0.0182624
558.368	0.0184435
558.446	0.0184679
558.524	0.0185292
558.602	0.0183626
558.680	0.0183405
558.759	0.0183736
558.837	0.0183100
558.915	0.0184329
558.993	0.0184096
559.071	0.0183312
559.149	0.0183434
559.227	0.0183324
559.305	0.0183713
559.384	0.0183604
559.462	0.0181752
559.540	0.0183255
559.618	0.0182345
559.696	0.0179413
559.774	0.0181541
559.852	0.0180064
559.930	0.0179076
560.009	0.0178993
560.087	0.0179300
560.165	0.0178862
560.243	0.0178014
560.321	0.0178825
560.399	0.0178043
560.477	0.0176804
560.555	0.0178931
560.634	0.0177285
560.712	0.0177917
560.790	0.0177343
560.868	0.0178283
560.946	0.0177027
561.024	0.0177924
561.102	0.0177786
561.180	0.0177473
561.259	0.0177812
561.337	0.0177843
561.415	0.0176486
561.493	0.0176779
561.571	0.0174876
561.649	0.0177012
561.727	0.0176696
561.805	0.0175354
561.884	0.0177643
561.962	0.0177903
562.040	0.0175998
562.118	0.0174915
562.196	0.0175829
562.274	0.0173911
562.352	0.0175442
562.430	0.0174302
562.509	0.0174207
562.587	0.0173618
562.665	0.0172803
562.743	0.0173255
562.821	0.0172969
562.899	0.0171610
562.977	0.0170610
563.055	0.0171572
563.134	0.0170721
563.212	0.0171955
563.290	0.0170518
563.368	0.0170916
563.446	0.0171255
563.524	0.0169415
563.602	0.0170061
563.680	0.0170230
563.759	0.0170592
563.837	0.0169369
563.915	0.0168349
563.993	0.0169158
564.071	0.0170104
564.149	0.0169980
564.227	0.0169633
564.305	0.0169908
564.384	0.0171885
564.462	0.0171652
564.540	0.0171583
564.618	0.0171327
564.696	0.0171039
564.774	0.0173373
564.852	0.0171049
564.930	0.0173244
565.009	0.0173225
565.087	0.0173284
565.165	0.0174849
565.243	0.0172798
565.321	0.0174156
565.399	0.0175018
565.477	0.0172835
565.555	0.0172701
565.634	0.0173582
565.712	0.0174197
565.790	0.0174026
565.868	0.0174187
565.946	0.0174244
566.024	0.0175228
566.102	0.0174464
566.180	0.0174553
566.259	0.0175362
566.337	0.0174986
566.415	0.0176035
566.493	0.0173999
566.571	0.0174258
566.649	0.0176115
566.727	0.0176891
566.805	0.0175949
566.884	0.0175929
566.962	0.0177010
567.040	0.0177898
567.118	0.0176730
567.196	0.0178056
567.274	0.0177361
567.352	0.0177384
567.430	0.0175999
567.509	0.0176997
567.587	0.0176245
567.665	0.0177405
567.743	0.0177256
567.821	0.0177673
567.899	0.0177988
567.977	0.0177081
568.055	0.0177296
568.134	0.0177911
568.212	0.0178555
568.290	0.0178113
568.368	0.0179286
568.446	0.0180144
568.524	0.0178835
568.602	0.0179972
568.680	0.0179536
568.759	0.0181570
568.837	0.0179533
568.915	0.0181179
568.993	0.0180855
569.071	0.0181085
569.149	0.0182038
569.227	0.0182224
569.305	0.0182012
569.384	0.0183411
569.462	0.0181586
569.540	0.0182387
569.618	0.0183125
569.696	0.0182794
569.774	0.0182282
569.852	0.0182592
569.930	0.0183556
570.009	0.0182832
570.087	0.0182836
570.165	0.0183833
570.243	0.0182409
570.321	0.0184299
570.399	0.0183316
570.477	0.0182693
570.555	0.0184398
570.634	0.0184129
570.712	0.0183765
570.790	0.0183639
570.868	0.0185048
570.946	0.0183601
571.024	0.0182909
571.102	0.0182092
571.180	0.0181609
571.259	0.0182719
571.337	0.0183569
571.415	0.0182909
571.493	0.0182337
571.571	0.0181305
571.649	0.0181974
571.727	0.0182259
571.805	0.0181376
571.884	0.0181296
571.962	0.0181577
572.040	0.0181046
572.118	0.0181369
572.196	0.0182110
572.274	0.0181578
572.352	0.0179808
572.430	0.0180568
572.509	0.0180012
572.587	0.0179382
572.665	0.0179925
572.743	0.0179292
572.821	0.0178367
572.899	0.0178708
572.977	0.0179874
573.055	0.0179702
573.134	0.0178481
573.212	0.0180231
573.290	0.0178594
573.368	0.0178813
573.446	0.0177455
573.524	0.0178600
573.602	0.0178226
573.680	0.0178182
573.759	0.0178374
573.837	0.0179128
573.915	0.0178595
573.993	0.0179299
574.071	0.0178474
574.149	0.0178243
574.227	0.0178252
574.305	0.0178162
574.384	0.0177228
574.462	0.0178100
574.540	0.0176357
574.618	0.0176306
574.696	0.0176994
574.774	0.0177736
574.852	0.0176535
574.930	0.0176037
575.009	0.0175762
575.087	0.0174971
575.165	0.0175954
575.243	0.0176164
575.321	0.0175333
575.399	0.0174479
575.477	0.0174874
575.555	0.0174935
575.634	0.0174837
575.712	0.0174936
575.790	0.0174662
575.868	0.0176157
575.946	0.0175498
576.024	0.0176241
576.102	0.0176606
576.180	0.0175587
576.259	0.0175945
576.337	0.0176238
576.415	0.0175191
576.493	0.0175903
576.571	0.0175961
576.649	0.0175683
576.727	0.0176026
576.805	0.0175967
576.884	0.0176685
576.962	0.0175539
577.040	0.0176051
577.118	0.0175619
577.196	0.0176334
577.274	0.0175839
577.352	0.0174749
577.430	0.0174292
577.509	0.0174483
577.587	0.0175521
577.665	0.0175523
577.743	0.0175028
577.821	0.0174670
577.899	0.0174751
577.977	0.0175445
578.055	0.0175674
578.134	0.0175230
578.212	0.0175173
578.290	0.0173864
578.368	0.0173794
578.446	0.0175041
578.524	0.0172980
578.602	0.0174085
578.680	0.0174859
578.759	0.0175226
578.837	0.0174984
578.915	0.0175060
578.993	0.0175902
579.071	0.0174457
579.149	0.0176202
579.227	0.0176480
579.305	0.0177234
579.384	0.0175279
579.462	0.0176791
579.540	0.0177705
579.618	0.0177752
579.696	0.0177414
579.774	0.0177614
579.852	0.0179398
579.930	0.0179593
580.009	0.0178227
580.087	0.0178535
580.165	0.0179514
580.243	0.0178551
580.321	0.0179716
580.399	0.0178896
580.477	0.0178978
580.555	0.0180254
580.634	0.0180364
580.712	0.0180376
580.790	0.0181472
580.868	0.0181393
580.946	0.0181576
581.024	0.0181184
581.102	0.0182434
581.180	0.0180102
581.259	0.0179741
581.337	0.0181759
581.415	0.0181863
581.493	0.0182275
581.571	0.0182234
581.649	0.0181891
581.727	0.0181435
581.805	0.0183192
581.884	0.0182581
581.962	0.0180904
582.040	0.0182777
582.118	0.0182570
582.196	0.0183091
582.274	0.0182452
582.352	0.0183201
582.430	0.0181992
582.509	0.0182549
582.587	0.0182578
582.665	0.0182690
582.743	0.0182433
582.821	0.0182165
582.899	0.0182413
582.977	0.0181162
583.055	0.0180405
583.134	0.0180187
583.212	0.0181875
583.290	0.0181248
583.368	0.0179880
583.446	0.0180910
583.524	0.0180581
583.602	0.0179549
583.680	0.0179390
583.759	0.0180302
583.837	0.0180202
583.915	0.0180541
583.993	0.0180059
584.071	0.0180132
584.149	0.0179655
584.227	0.0178151
584.305	0.0178362
584.384	0.0177939
584.462	0.0178325
584.540	0.0178855
584.618	0.0178532
584.696	0.0176214
584.774	0.0177021
584.852	0.0176947
584.930	0.0177262
585.009	0.0177245
585.087	0.0176104
585.165	0.0177101
585.243	0.0177605
585.321	0.0176135
585.399	0.0175854
585.477	0.0175545
585.555	0.0174709
585.634	0.0175937
585.712	0.0174656
585.790	0.0173116
585.868	0.0172826
585.946	0.0174921
586.024	0.0174347
586.102	0.0173849
586.180	0.0172147
586.259	0.0172833
586.337	0.0172763
586.415	0.0174886
586.493	0.0173915
586.571	0.0174402
586.649	0.0173698
586.727	0.0173812
586.805	0.0173348
586.884	0.0173409
586.962	0.0173511
587.040	0.0173021
587.118	0.0173682
587.196	0.0175059
587.274	0.0174357
587.352	0.0175076
587.430	0.0174212
587.509	0.0174847
587.587	0.0174960
587.665	0.0174831
587.743	0.0174873
587.821	0.0173862
587.899	0.0175269
587.977	0.0175481
588.055	0.0175180
588.134	0.0175306
588.212	0.0174018
588.290	0.0175267
588.368	0.0176377
588.446	0.0176109
588.524	0.0176550
588.602	0.0175124
588.680	0.0175879
588.759	0.0174610
588.837	0.0175642
588.915	0.0175502
588.993	0.0175679
589.071	0.0174886
589.149	0.0175388
589.227	0.0174951
589.305	0.0175246
589.384	0.0174787
589.462	0.0173853
589.540	0.0174988
589.618	0.0175011
589.696	0.0174215
589.774	0.0173551
589.852	0.0174771
589.930	0.0174198
590.009	0.0174901
590.087	0.0174207
590.165	0.0175232
590.243	0.0175777
590.321	0.0173652
590.399	0.0174350
590.477	0.0174626
590.555	0.0174245
590.634	0.0176623
590.712	0.0175175
590.790	0.0174950
590.868	0.0176179
590.946	0.0175269
591.024	0.0175864
591.102	0.0177328
591.180	0.0176427
591.259	0.0177961
591.337	0.0177324
591.415	0.0177642
591.493	0.0177647
591.571	0.0176984
591.649	0.0178280
591.727	0.0178645
591.805	0.0177862
591.884	0.0178219
591.962	0.0177312
592.040	0.0178341
592.118	0.0179906
592.196	0.0178195
592.274	0.0178253
592.352	0.0180202
592.430	0.0179285
592.509	0.0179843
592.587	0.0178809
592.665	0.0180237
592.743	0.0180735
592.821	0.0178221
592.899	0.0179394
592.977	0.0179043
593.055	0.0179987
593.134	0.0180209
593.212	0.0180064
593.290	0.0180571
593.368	0.0179566
593.446	0.0179282
593.524	0.0178970
593.602	0.0179231
593.680	0.0179845
593.759	0.0179700
593.837	0.0179285
593.915	0.0181308
593.993	0.0180618
594.071	0.0180614
594.149	0.0179959
594.227	0.0179068
594.305	0.0179517
594.384	0.0180202
594.462	0.0179455
594.540	0.0180070
594.618	0.0179366
594.696	0.0179102
594.774	0.0179384
594.852	0.0178667
594.930	0.0178209
595.009	0.0178430
595.087	0.0178319
595.165	0.0178098
595.243	0.0177912
595.321	0.0179577
595.399	0.0177271
595.477	0.0176938
595.555	0.0178139
595.634	0.0176690
595.712	0.0176022
595.790	0.0176440
595.868	0.0175345
595.946	0.0175643
596.024	0.0176955
596.102	0.0175421
596.180	0.0175189
596.259	0.0175909
596.337	0.0175534
596.415	0.0174811
596.493	0.0176260
596.571	0.0176819
596.649	0.0174380
596.727	0.0175100
596.805	0.0177344
596.884	0.0175558
596.962	0.0175125
597.040	0.0175134
597.118	0.0176070
597.196	0.0174593
597.274	0.0176541
597.352	0.0175128
597.430	0.0175381
597.509	0.0175325
597.587	0.0174879
597.665	0.0174354
597.743	0.0174848
597.821	0.0175508
597.899	0.0174789
597.977	0.0174883
598.055	0.0174704
598.134	0.0175220
598.212	0.0174149
598.290	0.0174028
598.368	0.0174605
598.446	0.0175095
598.524	0.0175513
598.602	0.0174288
598.680	0.0174670
598.759	0.0175892
598.837	0.0175202
598.915	0.0174988
598.993	0.0176624
599.071	0.0175945
599.149	0.0174610
599.227	0.0174070
599.305	0.0175573
599.384	0.0176583
599.462	0.0177689
599.540	0.0175933
599.618	0.0176482
599.696	0.0178062
599.774	0.0177994
599.852	0.0177920
599.930	0.0175574
600.009	0.0177534
600.087	0.0178258
600.165	0.0178477
600.243	0.0177173
600.321	0.0177637
600.399	0.0177192
600.477	0.0178962
600.555	0.0177957
600.634	0.0176771
600.712	0.0178505
600.790	0.0178109
600.868	0.0178587
600.946	0.0179141
601.024	0.0179298
601.102	0.0177814
601.180	0.0179170
601.259	0.0180027
601.337	0.0178999
601.415	0.0178898
601.493	0.0178524
601.571	0.0179298
601.649	0.0179308
601.727	0.0180257
601.805	0.0178635
601.884	0.0181207
601.962	0.0180959
602.040	0.0179810
602.118	0.0180311
602.196	0.0179199
602.274	0.0180193
602.352	0.0179243
602.430	0.0180784
602.509	0.0179800
602.587	0.0178679
602.665	0.0181030
602.743	0.0179911
602.821	0.0179577
602.899	0.0180097
602.977	0.0180689
603.055	0.0180283
603.134	0.0180985
603.212	0.0180272
603.290	0.0181593
603.368	0.0180807
603.446	0.0181155
603.524	0.0180886
603.602	0.0181876
603.680	0.0181692
603.759	0.0181041
603.837	0.0180330
603.915	0.0181068
603.993	0.0180739
604.071	0.0182265
604.149	0.0181356
604.227	0.0180046
604.305	0.0180138
604.384	0.0179660
604.462	0.0178315
604.540	0.0180292
604.618	0.0179256
604.696	0.0179063
604.774	0.0180138
604.852	0.0179900
604.930	0.0179285
605.009	0.0178468
605.087	0.0178297
605.165	0.0179507
605.243	0.0178642
605.321	0.0179430
605.399	0.0180273
605.477	0.0177317
605.555	0.0178279
605.634	0.0180093
605.712	0.0179306
605.790	0.0178848
605.868	0.0178374
605.946	0.0179453
606.024	0.0179817
606.102	0.0178496
606.180	0.0179850
606.259	0.0179293
606.337	0.0179267
606.415	0.0178709
606.493	0.0178661
606.571	0.0178233
606.649	0.0180356
606.727	0.0179550
606.805	0.0178273
606.884	0.0177926
606.962	0.0178915
607.040	0.0178603
607.118	0.0178460
607.196	0.0179446
607.274	0.0179224
607.352	0.0178321
607.430	0.0179149
607.509	0.0179429
607.587	0.0178917
607.665	0.0178027
607.743	0.0178053
607.821	0.0177833
607.899	0.0177740
607.977	0.0177473
608.055	0.0177573
608.134	0.0177202
608.212	0.0178371
608.290	0.0177869
608.368	0.0178150
608.446	0.0176898
608.524	0.0177369
608.602	0.0179664
608.680	0.0177805
608.759	0.0178252
608.837	0.0176955
608.915	0.0177910
608.993	0.0178514
609.071	0.0178988
609.149	0.0177907
609.227	0.0177495
609.305	0.0178015
609.384	0.0178814
609.462	0.0178612
609.540	0.0178162
609.618	0.0178109
609.696	0.0178726
609.774	0.0177998
609.852	0.0178909
609.930	0.0177628
610.009	0.0178538
610.087	0.0178839
610.165	0.0178332
610.243	0.0177805
610.321	0.0178677
610.399	0.0177844
610.477	0.0177214
610.555	0.0177231
610.634	0.0178902
610.712	0.0178783
610.790	0.0177772
610.868	0.0177125
610.946	0.0177161
611.024	0.0178647
611.102	0.0176650
611.180	0.0177375
611.259	0.0177460
611.337	0.0178873
611.415	0.0177969
611.493	0.0178033
611.571	0.0178030
611.649	0.0177917
611.727	0.0178300
611.805	0.0177887
611.884	0.0178231
611.962	0.0179283
612.040	0.0178643
612.118	0.0177260
612.196	0.0177884
612.274	0.0178132
612.352	0.0177539
612.430	0.0178044
612.509	0.0178747
612.587	0.0176420
612.665	0.0175234
612.743	0.0178477
612.821	0.0177125
612.899	0.0178347
612.977	0.0178745
613.055	0.0175956
613.134	0.0177463
613.212	0.0177562
613.290	0.0175563
613.368	0.0176711
613.446	0.0176599
613.524	0.0176929
613.602	0.0175933
613.680	0.0175867
613.759	0.0175439
613.837	0.0176048
613.915	0.0175105
613.993	0.0175227
614.071	0.0175507
614.149	0.0175671
614.227	0.0175624
614.305	0.0176747
614.384	0.0175693
614.462	0.0175356
614.540	0.0175346
614.618	0.0174421
614.696	0.0174333
614.774	0.0176032
614.852	0.0175909
614.930	0.0175819
615.009	0.0177123
615.087	0.0176769
615.165	0.0176509
615.243	0.0174293
615.321	0.0174764
615.399	0.0175453
615.477	0.0175426
615.555	0.0175610
615.634	0.0175246
615.712	0.0176397
615.790	0.0175744
615.868	0.0175909
615.946	0.0175417
616.024	0.0174657
616.102	0.0174770
616.180	0.0175614
616.259	0.0175746
616.337	0.0177591
616.415	0.0175108
616.493	0.0176804
616.571	0.0176002
616.649	0.0176139
616.727	0.0176643
616.805	0.0176595
616.884	0.0176980
616.962	0.0176089
617.040	0.0176492
617.118	0.0176384
617.196	0.0176403
617.274	0.0176321
617.352	0.0176624
617.430	0.0176162
617.509	0.0177251
617.587	0.0176975
617.665	0.0177148
617.743	0.0175967
617.821	0.0175552
617.899	0.0177784
617.977	0.0176064
618.055	0.0176138
618.134	0.0176980
618.212	0.0177727
618.290	0.0177639
618.368	0.0177993
618.446	0.0176772
618.524	0.0177563
618.602	0.0178621
618.680	0.0177750
618.759	0.0177028
618.837	0.0179020
618.915	0.0177339
618.993	0.0177865
619.071	0.0179134
619.149	0.0178358
619.227	0.0178840
619.305	0.0180633
619.384	0.0179771
619.462	0.0179953
619.540	0.0178377
619.618	0.0178002
619.696	0.0177901
619.774	0.0177962
619.852	0.0178983
619.930	0.0178949
620.009	0.0178493
620.087	0.0179698
620.165	0.0179842
620.243	0.0178342
620.321	0.0178194
620.399	0.0178146
620.477	0.0177798
620.555	0.0178802
620.634	0.0178751
620.712	0.0179882
620.790	0.0177900
620.868	0.0177496
620.946	0.0179212
621.024	0.0178622
621.102	0.0178309
621.180	0.0177661
621.259	0.0177448
621.337	0.0176266
621.415	0.0177689
621.493	0.0177483
621.571	0.0178123
621.649	0.0178400
621.727	0.0178757
621.805	0.0178259
621.884	0.0178345
621.962	0.0178796
622.040	0.0177271
622.118	0.0178709
622.196	0.0178477
622.274	0.0180708
622.352	0.0178646
622.430	0.0179086
622.509	0.0178262
622.587	0.0179787
622.665	0.0177113
622.743	0.0178606
622.821	0.0178702
622.899	0.0179410
622.977	0.0178291
623.055	0.0177521
623.134	0.0178272
623.212	0.0178473
623.290	0.0178497
623.368	0.0177116
623.446	0.0178202
623.524	0.0177670
623.602	0.0177840
623.680	0.0177324
623.759	0.0177779
623.837	0.0177838
623.915	0.0176837
623.993	0.0177550
624.071	0.0178055
624.149	0.0177069
624.227	0.0178234
624.305	0.0177911
624.384	0.0177281
624.462	0.0178159
624.540	0.0178828
624.618	0.0177288
624.696	0.0177630
624.774	0.0176648
624.852	0.0176271
624.930	0.0178207
625.009	0.0176841
625.087	0.0175908
625.165	0.0175474
625.243	0.0176511
625.321	0.0177697
625.399	0.0177457
625.477	0.0177293
625.555	0.0178349
625.634	0.0177750
625.712	0.0177227
625.790	0.0179200
625.868	0.0175945
625.946	0.0176813
626.024	0.0179018
626.102	0.0177385
626.180	0.0176771
626.259	0.0177485
626.337	0.0178208
626.415	0.0176648
626.493	0.0178495
626.571	0.0179435
626.649	0.0178392
626.727	0.0179232
626.805	0.0178239
626.884	0.0178275
626.962	0.0180086
627.040	0.0179293
627.118	0.0178962
627.196	0.0178668
627.274	0.0179342
627.352	0.0180030
627.430	0.0179378
627.509	0.0179428
627.587	0.0179216
627.665	0.0180302
627.743	0.0180058
627.821	0.0178610
627.899	0.0178427
627.977	0.0180668
628.055	0.0180326
628.134	0.0180217
628.212	0.0180151
628.290	0.0179412
628.368	0.0179835
628.446	0.0179642
628.524	0.0179580
628.602	0.0180639
628.680	0.0179211
628.759	0.0180386
628.837	0.0180554
628.915	0.0179749
628.993	0.0179728
629.071	0.0178674
629.149	0.0179131
629.227	0.0180486
629.305	0.0179467
629.384	0.0178394
629.462	0.0180148
629.540	0.0179819
629.618	0.0178324
629.696	0.0180463
629.774	0.0180603
629.852	0.0180505
629.930	0.0180803
630.009	0.0179850
630.087	0.0179726
630.165	0.0180464
630.243	0.0180960
630.321	0.0180566
630.399	0.0180171
630.477	0.0180189
630.555	0.0179920
630.634	0.0180996
630.712	0.0181408
630.790	0.0181651
630.868	0.0180117
630.946	0.0180135
631.024	0.0179426
631.102	0.0180334
631.180	0.0181107
631.259	0.0181029
631.337	0.0181049
631.415	0.0180934
631.493	0.0181046
631.571	0.0179881
631.649	0.0179954
631.727	0.0180853
631.805	0.0180836
631.884	0.0181392
631.962	0.0180850
632.040	0.0180711
632.118	0.0180027
632.196	0.0179911
632.274	0.0180364
632.352	0.0179228
632.430	0.0178561
632.509	0.0179160
632.587	0.0180611
632.665	0.0180244
632.743	0.0179944
632.821	0.0179424
632.899	0.0181079
632.977	0.0179524
633.055	0.0181052
633.134	0.0178658
633.212	0.0179163
633.290	0.0179547
633.368	0.0178532
633.446	0.0179538
633.524	0.0179926
633.602	0.0178925
633.680	0.0178697
633.759	0.0179929
633.837	0.0179126
633.915	0.0178147
633.993	0.0179089
634.071	0.0178591
634.149	0.0177701
634.227	0.0178701
634.305	0.0177248
634.384	0.0178423
634.462	0.0178968
634.540	0.0178365
634.618	0.0176852
634.696	0.0177228
634.774	0.0178255
634.852	0.0177138
634.930	0.0175497
635.009	0.0175739
635.087	0.0178275
635.165	0.0176589
635.243	0.0174717
635.321	0.0175944
635.399	0.0174538
635.477	0.0175658
635.555	0.0175266
635.634	0.0174539
635.712	0.0176408
635.790	0.0175423
635.868	0.0173753
635.946	0.0175577
636.024	0.0176752
636.102	0.0175715
636.180	0.0173982
636.259	0.0175171
636.337	0.0175829
636.415	0.0174026
636.493	0.0175333
636.571	0.0175132
636.649	0.0175818
636.727	0.0175411
636.805	0.0176221
636.884	0.0177567
636.962	0.0175349
637.040	0.0176774
637.118	0.0177158
637.196	0.0177988
637.274	0.0175555
637.352	0.0177831
637.430	0.0177517
637.509	0.0178719
637.587	0.0178277
637.665	0.0179491
637.743	0.0178837
637.821	0.0179807
637.899	0.0179144
637.977	0.0180368
638.055	0.0179837
638.134	0.0180863
638.212	0.0181458
638.290	0.0180603
638.368	0.0180053
638.446	0.0180460
638.524	0.0181260
638.602	0.0181003
638.680	0.0179391
638.759	0.0179208
638.837	0.0179678
638.915	0.0179585
638.993	0.0181437
639.071	0.0180586
639.149	0.0179665
639.227	0.0178459
639.305	0.0178626
639.384	0.0177631
639.462	0.0178625
639.540	0.0179111
639.618	0.0178554
639.696	0.0179388
639.774	0.0180077
639.852	0.0179214
639.930	0.0178783
640.009	0.0178290
640.087	0.0177752
640.165	0.0178505
640.243	0.0178358
640.321	0.0177748
640.399	0.0178857
640.477	0.0179194
640.555	0.0177909
640.634	0.0178738
640.712	0.0177995
640.790	0.0179136
640.868	0.0178532
640.946	0.0178664
641.024	0.0178828
641.102	0.0179357
641.180	0.0178397
641.259	0.0178219
641.337	0.0178495
641.415	0.0179667
641.493	0.0179135
641.571	0.0178770
641.649	0.0179893
641.727	0.0179636
641.805	0.0179898
641.884	0.0178882
641.962	0.0178108
642.040	0.0180253
642.118	0.0179115
642.196	0.0179391
642.274	0.0178748
642.352	0.0179207
642.430	0.0179508
642.509	0.0178535
642.587	0.0177267
642.665	0.0179087
642.743	0.0179930
642.821	0.0178432
642.899	0.0178357
642.977	0.0177155
643.055	0.0178535
643.134	0.0178544
643.212	0.0178741
643.290	0.0177385
643.368	0.0177102
643.446	0.0177039
643.524	0.0177718
643.602	0.0177558
643.680	0.0176101
643.759	0.0176291
643.837	0.0177159
643.915	0.0177896
643.993	0.0177089
644.071	0.0176437
644.149	0.0177182
644.227	0.0176769
644.305	0.0177755
644.384	0.0176656
644.462	0.0176826
644.540	0.0176662
644.618	0.0176736
644.696	0.0176841
644.774	0.0176870
644.852	0.0175938
644.930	0.0177026
645.009	0.0176205
645.087	0.0176163
645.165	0.0176276
645.243	0.0176186
645.321	0.0176061
645.399	0.0176752
645.477	0.0176256
645.555	0.0177595
645.634	0.0176592
645.712	0.0177783
645.790	0.0177382
645.868	0.0176725
645.946	0.0177116
646.024	0.0178258
646.102	0.0176916
646.180	0.0176643
646.259	0.0176773
646.337	0.0176833
646.415	0.0177376
646.493	0.0175645
646.571	0.0177209
646.649	0.0176049
646.727	0.0176987
646.805	0.0175813
646.884	0.0176402
646.962	0.0177760
647.040	0.0175734
647.118	0.0177563
647.196	0.0178204
647.274	0.0177922
647.352	0.0178151
647.430	0.0178645
647.509	0.0178559
647.587	0.0179088
647.665	0.0179321
647.743	0.0178426
647.821	0.0177750
647.899	0.0178801
647.977	0.0178803
648.055	0.0178966
648.134	0.0178051
648.212	0.0178135
648.290	0.0178916
648.368	0.0177261
648.446	0.0178091
648.524	0.0177206
648.602	0.0175871
648.680	0.0177734
648.759	0.0177287
648.837	0.0176030
648.915	0.0177495
648.993	0.0177015
649.071	0.0177150
649.149	0.0178294
649.227	0.0178800
649.305	0.0177653
649.384	0.0179158
649.462	0.0178451
649.540	0.0178053
649.618	0.0180277
649.696	0.0179703
649.774	0.0179220
649.852	0.0179653
649.930	0.0178568
650.009	0.0179653
650.087	0.0180350
650.165	0.0180730
650.243	0.0180731
650.321	0.0181086
650.399	0.0180643
650.477	0.0181242
650.555	0.0181323
650.634	0.0180857
650.712	0.0181059
650.790	0.0180150
650.868	0.0181225
650.946	0.0179187
651.024	0.0180608
651.102	0.0180042
651.180	0.0178611
651.259	0.0180131
651.337	0.0179094
651.415	0.0178587
651.493	0.0180674
651.571	0.0181892
651.649	0.0180637
651.727	0.0180644
651.805	0.0179300
651.884	0.0179212
651.962	0.0180674
652.040	0.0180946
652.118	0.0179131
652.196	0.0181004
652.274	0.0180238
652.352	0.0180334
652.430	0.0180290
652.509	0.0180106
652.587	0.0180952
652.665	0.0180212
652.743	0.0180431
652.821	0.0180367
652.899	0.0179846
652.977	0.0179138
653.055	0.0178824
653.134	0.0179577
653.212	0.0179942
653.290	0.0179507
653.368	0.0180463
653.446	0.0178806
653.524	0.0179751
653.602	0.0179855
653.680	0.0178968
653.759	0.0179901
653.837	0.0180366
653.915	0.0180108
653.993	0.0180326
654.071	0.0180720
654.149	0.0179513
654.227	0.0180328
654.305	0.0180207
654.384	0.0179630
654.462	0.0180962
654.540	0.0180732
654.618	0.0181095
654.696	0.0181137
654.774	0.0180138
654.852	0.0179533
654.930	0.0179963
655.009	0.0180875
655.087	0.0180906
655.165	0.0178852
655.243	0.0178389
655.321	0.0180227
655.399	0.0177919
655.477	0.0179205
655.555	0.0180015
655.634	0.0178485
655.712	0.0178223
655.790	0.0178513
655.868	0.0178652
655.946	0.0177904
656.024	0.0178362
656.102	0.0177311
656.180	0.0177840
656.259	0.0178553
656.337	0.0177094
656.415	0.0178036
656.493	0.0176733
656.571	0.0177345
656.649	0.0176674
656.727	0.0175938
656.805	0.0175922
656.884	0.0177233
656.962	0.0176299
657.040	0.0175183
657.118	0.0174580
657.196	0.0175225
657.274	0.0174805
657.352	0.0174952
657.430	0.0173934
657.509	0.0173211
657.587	0.0172962
657.665	0.0174276
657.743	0.0173347
657.821	0.0173795
657.899	0.0174176
657.977	0.0174909
658.055	0.0174746
658.134	0.0172802
658.212	0.0174622
658.290	0.0175078
658.368	0.0175797
658.446	0.0176649
658.524	0.0175815
658.602	0.0177253
658.680	0.0175109
658.759	0.0176376
658.837	0.0178418
658.915	0.0177254
658.993	0.0176665
659.071	0.0177333
659.149	0.0176897
659.227	0.0178574
659.305	0.0178133
659.384	0.0179466
659.462	0.0177493
659.540	0.0178159
659.618	0.0178418
659.696	0.0178433
659.774	0.0179624
659.852	0.0180784
659.930	0.0179288
660.009	0.0179881
660.087	0.0179851
660.165	0.0179200
660.243	0.0179870
660.321	0.0180070
660.399	0.0178986
660.477	0.0179842
660.555	0.0179109
660.634	0.0179530
660.712	0.0178545
660.790	0.0178888
660.868	0.0179623
660.946	0.0178917
661.024	0.0179440
661.102	0.0180112
661.180	0.0179213
661.259	0.0180028
661.337	0.0180592
661.415	0.0180437
661.493	0.0178709
661.571	0.0178455
661.649	0.0181358
661.727	0.0179756
661.805	0.0179777
661.884	0.0181342
661.962	0.0179526
662.040	0.0179518
662.118	0.0179508
662.196	0.0180104
662.274	0.0179912
662.352	0.0179005
662.430	0.0179700
662.509	0.0179259
662.587	0.0178743
662.665	0.0179459
662.743	0.0179558
662.821	0.0180931
662.899	0.0179613
662.977	0.0178738
663.055	0.0178909
663.134	0.0179206
663.212	0.0179761
663.290	0.0179566
663.368	0.0179763
663.446	0.0180219
663.524	0.0179790
663.602	0.0177681
663.680	0.0178178
663.759	0.0179543
663.837	0.0178242
663.915	0.0180070
663.993	0.0178448
664.071	0.0178245
664.149	0.0178069
664.227	0.0178447
664.305	0.0179601
664.384	0.0177837
664.462	0.0178049
664.540	0.0178413
664.618	0.0178100
664.696	0.0177596
664.774	0.0177776
664.852	0.0177386
664.930	0.0177555
665.009	0.0177071
665.087	0.0177909
665.165	0.0176721
665.243	0.0178002
665.321	0.0177509
665.399	0.0176345
665.477	0.0177073
665.555	0.0177937
665.634	0.0176745
665.712	0.0176857
665.790	0.0176817
665.868	0.0176093
665.946	0.0176784
666.024	0.0175744
666.102	0.0176839
666.180	0.0175826
666.259	0.0175498
666.337	0.0175529
666.415	0.0176627
666.493	0.0177296
666.571	0.0177256
666.649	0.0177370
666.727	0.0177717
666.805	0.0176370
666.884	0.0177688
666.962	0.0178271
667.040	0.0177354
667.118	0.0176900
667.196	0.0176696
667.274	0.0176554
667.352	0.0177280
667.430	0.0176585
667.509	0.0177841
667.587	0.0177040
667.665	0.0176595
667.743	0.0176825
667.821	0.0177049
667.899	0.0175870
667.977	0.0175323
668.055	0.0176785
668.134	0.0177071
668.212	0.0175038
668.290	0.0175916
668.368	0.0175459
668.446	0.0175613
668.524	0.0176513
668.602	0.0175488
668.680	0.0175623
668.759	0.0176679
668.837	0.0177074
668.915	0.0175965
668.993	0.0176005
669.071	0.0175504
669.149	0.0175253
669.227	0.0175894
669.305	0.0176064
669.384	0.0174963
669.462	0.0176113
669.540	0.0174487
669.618	0.0176003
669.696	0.0176439
669.774	0.0176264
669.852	0.0174962
669.930	0.0175581
670.009	0.0176114
670.087	0.0175525
670.165	0.0175304
670.243	0.0176386
670.321	0.0176292
670.399	0.0175980
670.477	0.0175043
670.555	0.0176135
670.634	0.0176290
670.712	0.0177301
670.790	0.0177876
670.868	0.0176648
670.946	0.0177243
671.024	0.0178001
671.102	0.0177716
671.180	0.0177683
671.259	0.0178572
671.337	0.0178262
671.415	0.0179834
671.493	0.0178948
671.571	0.0178767
671.649	0.0178999
671.727	0.0178865
671.805	0.0178854
671.884	0.0179848
671.962	0.0180161
672.040	0.0178454
672.118	0.0180247
672.196	0.0179122
672.274	0.0179385
672.352	0.0179900
672.430	0.0179597
672.509	0.0178731
672.587	0.0179802
672.665	0.0178946
672.743	0.0178844
672.821	0.0178984
672.899	0.0178815
672.977	0.0179211
673.055	0.0178752
673.134	0.0179505
673.212	0.0178397
673.290	0.0178970
673.368	0.0179070
673.446	0.0178586
673.524	0.0177623
673.602	0.0178733
673.680	0.0178857
673.759	0.0178145
673.837	0.0178344
673.915	0.0178519
673.993	0.0177196
674.071	0.0177029
674.149	0.0177158
674.227	0.0179008
674.305	0.0176550
674.384	0.0176666
674.462	0.0177954
674.540	0.0176431
674.618	0.0177022
674.696	0.0176155
674.774	0.0177348
674.852	0.0177324
674.930	0.0175947
675.009	0.0177470
675.087	0.0176788
675.165	0.0177192
675.243	0.0178463
675.321	0.0176756
675.399	0.0177373
675.477	0.0177720
675.555	0.0178137
675.634	0.0178656
675.712	0.0180779
675.790	0.0179878
675.868	0.0176482
675.946	0.0178187
676.024	0.0178036
676.102	0.0179426
676.180	0.0177861
676.259	0.0178448
676.337	0.0177685
676.415	0.0176659
676.493	0.0178024
676.571	0.0177527
676.649	0.0177958
676.727	0.0176394
676.805	0.0177633
676.884	0.0177483
676.962	0.0177657
677.040	0.0178088
677.118	0.0176662
677.196	0.0177013
677.274	0.0177630
677.352	0.0176601
677.430	0.0177094
677.509	0.0176880
677.587	0.0176421
677.665	0.0176801
677.743	0.0177648
677.821	0.0177187
677.899	0.0178711
677.977	0.0177326
678.055	0.0178460
678.134	0.0178337
678.212	0.0178046
678.290	0.0177414
678.368	0.0177798
678.446	0.0177595
678.524	0.0176450
678.602	0.0178112
678.680	0.0177686
678.759	0.0177764
678.837	0.0177643
678.915	0.0176132
678.993	0.0177445
679.071	0.0176863
679.149	0.0176035
679.227	0.0178260
679.305	0.0174752
679.384	0.0178519
679.462	0.0176685
679.540	0.0175658
679.618	0.0176854
679.696	0.0175799
679.774	0.0175941
679.852	0.0176205
679.930	0.0176660
680.009	0.0175578
680.087	0.0176109
680.165	0.0176981
680.243	0.0175802
680.321	0.0176115
680.399	0.0176575
680.477	0.0176937
680.555	0.0176233
680.634	0.0176616
680.712	0.0175448
680.790	0.0175551
680.868	0.0176024
680.946	0.0176385
681.024	0.0176781
681.102	0.0177708
681.180	0.0177222
681.259	0.0177815
681.337	0.0176730
681.415	0.0176077
681.493	0.0176723
681.571	0.0177050
681.649	0.0178798
681.727	0.0176820
681.805	0.0177417
681.884	0.0178081
681.962	0.0176815
682.040	0.0177441
682.118	0.0177888
682.196	0.0177541
682.274	0.0175890
682.352	0.0176180
682.430	0.0180111
682.509	0.0177097
682.587	0.0176161
682.665	0.0178413
682.743	0.0178993
682.821	0.0178609
682.899	0.0179249
682.977	0.0178832
683.055	0.0180045
683.134	0.0179585
683.212	0.0178421
683.290	0.0178725
683.368	0.0179597
683.446	0.0180569
683.524	0.0181018
683.602	0.0180819
683.680	0.0181363
683.759	0.0181222
683.837	0.0179993
683.915	0.0180026
683.993	0.0180032
684.071	0.0179869
684.149	0.0179639
684.227	0.0179882
684.305	0.0179385
684.384	0.0180225
684.462	0.0179964
684.540	0.0178127
684.618	0.0180009
684.696	0.0178761
684.774	0.0178503
684.852	0.0178596
684.930	0.0177838
685.009	0.0176775
685.087	0.0176381
685.165	0.0178011
685.243	0.0179355
685.321	0.0177985
685.399	0.0177860
685.477	0.0176898
685.555	0.0177589
685.634	0.0177296
685.712	0.0177017
685.790	0.0176745
685.868	0.0177740
685.946	0.0177946
686.024	0.0176319
686.102	0.0177942
686.180	0.0176443
686.259	0.0176071
686.337	0.0177267
686.415	0.0177280
686.493	0.0175951
686.571	0.0177641
686.649	0.0176399
686.727	0.0175729
686.805	0.0173815
686.884	0.0174748
686.962	0.0175484
687.040	0.0175455
687.118	0.0174835
687.196	0.0176964
687.274	0.0176590
687.352	0.0175582
687.430	0.0175410
687.509	0.0177135
687.587	0.0176508
687.665	0.0176624
687.743	0.0176356
687.821	0.0176060
687.899	0.0176174
687.977	0.0175751
688.055	0.0176316
688.134	0.0176297
688.212	0.0176812
688.290	0.0177394
688.368	0.0177528
688.446	0.0176447
688.524	0.0176448
688.602	0.0177001
688.680	0.0177934
688.759	0.0175635
688.837	0.0177716
688.915	0.0177325
688.993	0.0176614
689.071	0.0177440
689.149	0.0177641
689.227	0.0178072
689.305	0.0179025
689.384	0.0178635
689.462	0.0177582
689.540	0.0178181
689.618	0.0177448
689.696	0.0178786
689.774	0.0179246
689.852	0.0177555
689.930	0.0177836
690.009	0.0177238
690.087	0.0178746
690.165	0.0178044
690.243	0.0177000
690.321	0.0176805
690.399	0.0179057
690.477	0.0178762
690.555	0.0177901
690.634	0.0176643
690.712	0.0176473
690.790	0.0177863
690.868	0.0177244
690.946	0.0176168
691.024	0.0176627
691.102	0.0177699
691.180	0.0176847
691.259	0.0175808
691.337	0.0176546
691.415	0.0176684
691.493	0.0176897
691.571	0.0178003
691.649	0.0178915
691.727	0.0178807
691.805	0.0176997
691.884	0.0178190
691.962	0.0177826
692.040	0.0177515
692.118	0.0178003
692.196	0.0176264
692.274	0.0178490
692.352	0.0178440
692.430	0.0178149
692.509	0.0176711
692.587	0.0178163
692.665	0.0176707
692.743	0.0179045
692.821	0.0178481
692.899	0.0176984
692.977	0.0178857
693.055	0.0177238
693.134	0.0177177
693.212	0.0177850
693.290	0.0177071
693.368	0.0177367
693.446	0.0176465
693.524	0.0177740
693.602	0.0177396
693.680	0.0177077
693.759	0.0178020
693.837	0.0175827
693.915	0.0176185
693.993	0.0176595
694.071	0.0177319
694.149	0.0177024
694.227	0.0178253
694.305	0.0177067
694.384	0.0177541
694.462	0.0179322
694.540	0.0178730
694.618	0.0177808
694.696	0.0177357
694.774	0.0179169
694.852	0.0178300
694.930	0.0179209
695.009	0.0177966
695.087	0.0180185
695.165	0.0178144
695.243	0.0179107
695.321	0.0181148
695.399	0.0181059
695.477	0.0179633
695.555	0.0179371
695.634	0.0179715
695.712	0.0180267
695.790	0.0180041
695.868	0.0178152
695.946	0.0178577
696.024	0.0179282
696.102	0.0179993
696.180	0.0179601
696.259	0.0178829
696.337	0.0178055
696.415	0.0180156
696.493	0.0178692
696.571	0.0179692
696.649	0.0179600
696.727	0.0179588
696.805	0.0177435
696.884	0.0176802
696.962	0.0177769
697.040	0.0178178
697.118	0.0176580
697.196	0.0177600
697.274	0.0178616
697.352	0.0178471
697.430	0.0177319
697.509	0.0178120
697.587	0.0177612
697.665	0.0176506
697.743	0.0177664
697.821	0.0178350
697.899	0.0177609
697.977	0.0177681
698.055	0.0177027
698.134	0.0176064
698.212	0.0178970
698.290	0.0178872
698.368	0.0176335
698.446	0.0177090
698.524	0.0176762
698.602	0.0175483
698.680	0.0176916
698.759	0.0176311
698.837	0.0175687
698.915	0.0175506
698.993	0.0176683
699.071	0.0175896
699.149	0.0175941
699.227	0.0175959
699.305	0.0174251
699.384	0.0174707
699.462	0.0177150
699.540	0.0175665
699.618	0.0175119
699.696	0.0176186
699.774	0.0175989
699.852	0.0175215
699.930	0.0176580
700.009	0.0177978
700.087	0.0175755
700.165	0.0176472
700.243	0.0176684
700.321	0.0178960
700.399	0.0176776
700.477	0.0176472
700.555	0.0176966
700.634	0.0177745
700.712	0.0177971
700.790	0.0176923
700.868	0.0177587
700.946	0.0176410
701.024	0.0175993
701.102	0.0177682
701.180	0.0176669
701.259	0.0176517
701.337	0.0174990
701.415	0.0177394
701.493	0.0178008
701.571	0.0175803
701.649	0.0176263
701.727	0.0178696
701.805	0.0178455
701.884	0.0177226
701.962	0.0176453
702.040	0.0177530
702.118	0.0177258
702.196	0.0178750
702.274	0.0178345
702.352	0.0177430
702.430	0.0178254
702.509	0.0178792
702.587	0.0177141
702.665	0.0178409
702.743	0.0176801
702.821	0.0177377
702.899	0.0178252
702.977	0.0177856
703.055	0.0176835
703.134	0.0176980
703.212	0.0179468
703.290	0.0178188
703.368	0.0178077
703.446	0.0177088
703.524	0.0176239
703.602	0.0176850
703.680	0.0176917
703.759	0.0177750
703.837	0.0175976
703.915	0.0179012
703.993	0.0177357
704.071	0.0177349
704.149	0.0178503
704.227	0.0176665
704.305	0.0177466
704.384	0.0177987
704.462	0.0179658
704.540	0.0177431
704.618	0.0178609
704.696	0.0177924
704.774	0.0176630
704.852	0.0178968
704.930	0.0178538
705.009	0.0178565
705.087	0.0177415
705.165	0.0177843
705.243	0.0179022
705.321	0.0177455
705.399	0.0177824
705.477	0.0179436
705.555	0.0179066
705.634	0.0178299
705.712	0.0179172
705.790	0.0178940
705.868	0.0180598
705.946	0.0180237
706.024	0.0179444
706.102	0.0180363
706.180	0.0180825
706.259	0.0181498
706.337	0.0179485
706.415	0.0180087
706.493	0.0180880
706.571	0.0179939
706.649	0.0178099
706.727	0.0179620
706.805	0.0178169
706.884	0.0177531
706.962	0.0177331
707.040	0.0178035
707.118	0.0177117
707.196	0.0175654
707.274	0.0175872
707.352	0.0176760
707.430	0.0177618
707.509	0.0177792
707.587	0.0177898
707.665	0.0178046
707.743	0.0176756
707.821	0.0177675
707.899	0.0179144
707.977	0.0179462
708.055	0.0178242
708.134	0.0179496
708.212	0.0178232
708.290	0.0178404
708.368	0.0180383
708.446	0.0179931
708.524	0.0180265
708.602	0.0179010
708.680	0.0179850
708.759	0.0179082
708.837	0.0180980
708.915	0.0180311
708.993	0.0180031
709.071	0.0179982
709.149	0.0179489
709.227	0.0179119
709.305	0.0179542
709.384	0.0178919
709.462	0.0178865
709.540	0.0179434
709.618	0.0177794
709.696	0.0177940
709.774	0.0175902
709.852	0.0176895
709.930	0.0178106
710.009	0.0176987
710.087	0.0177640
710.165	0.0177000
710.243	0.0176796
710.321	0.0176987
710.399	0.0178025
710.477	0.0177026
710.555	0.0177399
710.634	0.0177422
710.712	0.0178592
710.790	0.0177242
710.868	0.0178146
710.946	0.0178103
711.024	0.0178718
711.102	0.0178355
711.180	0.0177487
711.259	0.0177222
711.337	0.0178983
711.415	0.0178825
711.493	0.0179958
711.571	0.0179168
711.649	0.0178166
711.727	0.0178756
711.805	0.0179990
711.884	0.0180545
711.962	0.0179356
712.040	0.0179707
712.118	0.0179893
712.196	0.0179127
712.274	0.0178366
712.352	0.0180497
712.430	0.0178051
712.509	0.0177641
712.587	0.0178868
712.665	0.0177843
712.743	0.0178154
712.821	0.0177934
712.899	0.0178435
712.977	0.0177280
713.055	0.0175651
713.134	0.0176690
713.212	0.0178220
713.290	0.0177452
713.368	0.0177477
713.446	0.0179494
713.524	0.0178646
713.602	0.0178896
713.680	0.0178944
713.759	0.0177640
713.837	0.0178269
713.915	0.0179397
713.993	0.0179560
714.071	0.0179994
714.149	0.0179756
714.227	0.0178663
714.305	0.0180324
714.384	0.0179846
714.462	0.0179827
714.540	0.0179936
714.618	0.0179767
714.696	0.0179296
714.774	0.0179471
714.852	0.0180715
714.930	0.0179389
715.009	0.0178774
715.087	0.0179834
715.165	0.0180959
715.243	0.0180878
715.321	0.0181171
715.399	0.0179148
715.477	0.0180074
715.555	0.0180920
715.634	0.0179690
715.712	0.0179924
715.790	0.0181169
715.868	0.0181454
715.946	0.0181971
716.024	0.0180665
716.102	0.0181274
716.180	0.0181927
716.259	0.0181044
716.337	0.0180132
716.415	0.0179985
716.493	0.0181379
716.571	0.0179483
716.649	0.0179153
716.727	0.0178532
716.805	0.0178440
716.884	0.0178021
716.962	0.0177425
717.040	0.0177931
717.118	0.0177338
717.196	0.0177322
717.274	0.0175906
717.352	0.0176562
717.430	0.0175567
717.509	0.0176378
717.587	0.0177090
717.665	0.0177259
717.743	0.0178029
717.821	0.0177354
717.899	0.0177213
717.977	0.0177952
718.055	0.0178418
718.134	0.0179276
718.212	0.0180177
718.290	0.0179601
718.368	0.0181380
718.446	0.0179251
718.524	0.0178554
718.602	0.0179237
718.680	0.0179697
718.759	0.0179260
718.837	0.0179687
718.915	0.0178141
718.993	0.0177522
719.071	0.0178984
719.149	0.0179144
719.227	0.0177199
719.305	0.0177227
719.384	0.0176923
719.462	0.0179754
719.540	0.0178942
719.618	0.0178141
719.696	0.0178777
719.774	0.0179156
719.852	0.0178257
719.930	0.0177099
720.009	0.0178246
720.087	0.0176215
720.165	0.0176504
720.243	0.0177148
720.321	0.0177654
720.399	0.0177293
720.477	0.0177390
720.555	0.0179171
720.634	0.0175851
720.712	0.0175578
720.790	0.0177068
720.868	0.0176949
720.946	0.0176678
721.024	0.0177048
721.102	0.0177597
721.180	0.0176990
721.259	0.0176709
721.337	0.0177674
721.415	0.0179747
721.493	0.0176798
721.571	0.0178445
721.649	0.0178555
721.727	0.0177631
721.805	0.0177509
721.884	0.0178317
721.962	0.0176559
722.040	0.0175415
722.118	0.0176495
722.196	0.0176952
722.274	0.0177122
722.352	0.0176340
722.430	0.0174965
722.509	0.0176453
722.587	0.0176617
722.665	0.0176891
722.743	0.0175431
722.821	0.0175467
722.899	0.0174956
722.977	0.0176707
723.055	0.0176680
723.134	0.0174953
723.212	0.0176088
723.290	0.0176466
723.368	0.0175862
723.446	0.0177966
723.524	0.0177711
723.602	0.0177082
723.680	0.0177034
723.759	0.0178146
723.837	0.0176845
723.915	0.0177847
723.993	0.0179387
724.071	0.0179065
724.149	0.0178848
724.227	0.0178336
724.305	0.0178728
724.384	0.0178845
724.462	0.0178831
724.540	0.0179370
724.618	0.0178632
724.696	0.0181612
724.774	0.0179163
724.852	0.0179715
724.930	0.0180171
725.009	0.0178502
725.087	0.0178197
725.165	0.0178468
725.243	0.0178319
725.321	0.0178625
725.399	0.0179512
725.477	0.0178383
725.555	0.0177926
725.634	0.0179499
725.712	0.0177927
725.790	0.0177746
725.868	0.0177655
725.946	0.0178393
726.024	0.0177475
726.102	0.0178559
726.180	0.0178069
726.259	0.0177991
726.337	0.0179684
726.415	0.0178379
726.493	0.0177070
726.571	0.0177790
726.649	0.0177426
726.727	0.0178066
726.805	0.0179126
726.884	0.0179116
726.962	0.0180679
727.040	0.0177502
727.118	0.0178790
727.196	0.0179644
727.274	0.0179816
727.352	0.0179782
727.430	0.0180884
727.509	0.0181467
727.587	0.0180993
727.665	0.0181585
727.743	0.0181806
727.821	0.0180724
727.899	0.0181030
727.977	0.0180892
728.055	0.0181821
728.134	0.0181331
728.212	0.0180841
728.290	0.0180724
728.368	0.0179881
728.446	0.0180393
728.524	0.0179014
728.602	0.0179812
728.680	0.0179327
728.759	0.0178529
728.837	0.0179037
728.915	0.0180274
728.993	0.0180495
729.071	0.0179465
729.149	0.0178239
729.227	0.0178661
729.305	0.0178340
729.384	0.0177927
729.462	0.0177222
729.540	0.0176540
729.618	0.0177002
729.696	0.0176630
729.774	0.0175916
729.852	0.0175040
729.930	0.0176525
730.009	0.0175700
730.087	0.0176505
730.165	0.0175076
730.243	0.0174195
730.321	0.0176654
730.399	0.0177591
730.477	0.0176865
730.555	0.0177564
730.634	0.0179002
730.712	0.0178900
730.790	0.0178023
730.868	0.0177818
730.946	0.0179096
731.024	0.0180694
731.102	0.0179167
731.180	0.0179919
731.259	0.0179705
731.337	0.0178439
731.415	0.0179398
731.493	0.0179247
731.571	0.0179024
731.649	0.0179107
731.727	0.0178299
731.805	0.0178649
731.884	0.0178492
731.962	0.0177183
732.040	0.0176457
732.118	0.0177004
732.196	0.0177254
732.274	0.0175925
732.352	0.0176365
732.430	0.0176384
732.509	0.0177785
732.587	0.0176394
732.665	0.0176259
732.743	0.0175726
732.821	0.0178060
732.899	0.0177726
732.977	0.0174494
733.055	0.0177755
733.134	0.0176159
733.212	0.0175564
733.290	0.0174239
733.368	0.0175679
733.446	0.0175635
733.524	0.0175410
733.602	0.0176519
733.680	0.0175018
733.759	0.0175559
733.837	0.0175385
733.915	0.0176302
733.993	0.0175488
734.071	0.0175861
734.149	0.0176897
734.227	0.0176288
734.305	0.0174882
734.384	0.0177295
734.462	0.0176373
734.540	0.0176789
734.618	0.0175700
734.696	0.0176241
734.774	0.0178358
734.852	0.0178410
734.930	0.0179816
735.009	0.0178852
735.087	0.0180093
735.165	0.0181723
735.243	0.0182017
735.321	0.0181960
735.399	0.0183962
735.477	0.0184533
735.555	0.0183981
735.634	0.0185571
735.712	0.0185093
735.790	0.0185180
735.868	0.0185420
735.946	0.0184529
736.024	0.0184078
736.102	0.0181874
736.180	0.0182935
736.259	0.0182347
736.337	0.0182972
736.415	0.0181733
736.493	0.0180920
736.571	0.0179011
736.649	0.0177657
736.727	0.0177192
736.805	0.0177094
736.884	0.0175999
736.962	0.0176085
737.040	0.0174980
737.118	0.0175899
737.196	0.0175095
737.274	0.0174913
737.352	0.0175984
737.430	0.0176778
737.509	0.0174261
737.587	0.0177436
737.665	0.0176347
737.743	0.0176521
737.821	0.0177342
737.899	0.0177315
737.977	0.0178655
738.055	0.0179380
738.134	0.0179465
738.212	0.0179947
738.290	0.0180452
738.368	0.0182535
738.446	0.0180698
738.524	0.0181959
738.602	0.0182253
738.680	0.0183086
738.759	0.0181099
738.837	0.0181493
738.915	0.0181123
738.993	0.0181230
739.071	0.0180961
739.149	0.0180567
739.227	0.0178664
739.305	0.0177794
739.384	0.0177215
739.462	0.0176707
739.540	0.0176994
739.618	0.0176178
739.696	0.0175024
739.774	0.0176019
739.852	0.0175319
739.930	0.0174209
740.009	0.0175148
740.087	0.0176719
740.165	0.0175285
740.243	0.0177018
740.321	0.0176591
740.399	0.0178717
740.477	0.0179164
740.555	0.0178669
740.634	0.0179414
740.712	0.0178537
740.790	0.0177854
740.868	0.0178846
740.946	0.0180165
741.024	0.0180252
741.102	0.0181072
741.180	0.0178127
741.259	0.0178179
741.337	0.0178702
741.415	0.0177691
741.493	0.0177727
741.571	0.0178657
741.649	0.0176523
741.727	0.0174771
741.805	0.0175635
741.884	0.0176719
741.962	0.0174786
742.040	0.0175957
742.118	0.0175605
742.196	0.0174454
742.274	0.0175535
742.352	0.0176157
742.430	0.0176049
742.509	0.0175637
742.587	0.0176215
742.665	0.0176514
742.743	0.0177566
742.821	0.0177903
742.899	0.0178101
742.977	0.0177002
743.055	0.0178737
743.134	0.0178800
743.212	0.0179005
743.290	0.0179414
743.368	0.0180629
743.446	0.0180456
743.524	0.0179268
743.602	0.0179591
743.680	0.0179262
743.759	0.0178996
743.837	0.0177911
743.915	0.0178493
743.993	0.0178057
744.071	0.0178168
744.149	0.0177541
744.227	0.0176588
744.305	0.0176277
744.384	0.0174900
744.462	0.0174873
744.540	0.0174519
744.618	0.0175349
744.696	0.0175556
744.774	0.0174059
744.852	0.0175879
744.930	0.0177045
745.009	0.0176161
745.087	0.0176773
745.165	0.0176437
745.243	0.0177042
745.321	0.0178146
745.399	0.0177227
745.477	0.0178509
745.555	0.0179923
745.634	0.0178382
745.712	0.0178453
745.790	0.0178164
745.868	0.0179418
745.946	0.0178361
746.024	0.0179046
746.102	0.0177183
746.180	0.0177935
746.259	0.0176842
746.337	0.0176292
746.415	0.0176376
746.493	0.0175449
746.571	0.0175800
746.649	0.0175335
746.727	0.0174976
746.805	0.0177046
746.884	0.0175519
746.962	0.0175039
747.040	0.0174330
747.118	0.0176048
747.196	0.0177390
747.274	0.0176623
747.352	0.0175282
747.430	0.0176013
747.509	0.0176192
747.587	0.0177589
747.665	0.0178471
747.743	0.0177456
747.821	0.0177665
747.899	0.0177661
747.977	0.0178242
748.055	0.0179301
748.134	0.0178887
748.212	0.0177718
748.290	0.0178909
748.368	0.0178388
748.446	0.0177265
748.524	0.0178509
748.602	0.0177636
748.680	0.0177795
748.759	0.0176073
748.837	0.0174757
748.915	0.0174737
748.993	0.0174648
749.071	0.0174790
749.149	0.0174294
749.227	0.0172037
749.305	0.0173488
749.384	0.0174189
749.462	0.0173071
749.540	0.0172450
749.618	0.0173877
749.696	0.0174052
749.774	0.0173820
749.852	0.0173269
749.930	0.0175772
750.009	0.0176109
750.087	0.0176304
750.165	0.0174953
750.243	0.0176255
750.321	0.0174950
750.399	0.0176356
750.477	0.0175761
750.555	0.0176365
750.634	0.0177814
750.712	0.0177364
750.790	0.0176714
750.868	0.0176959
750.946	0.0178186
751.024	0.0177115
751.102	0.0177229
751.180	0.0178358
751.259	0.0177342
751.337	0.0177615
751.415	0.0178451
751.493	0.0177094
751.571	0.0178680
751.649	0.0179345
751.727	0.0179482
751.805	0.0178244
751.884	0.0177173
751.962	0.0177821
752.040	0.0178410
752.118	0.0176674
752.196	0.0178087
752.274	0.0176874
752.352	0.0178388
752.430	0.0177771
752.509	0.0178857
752.587	0.0179605
752.665	0.0177979
752.743	0.0177986
752.821	0.0178776
752.899	0.0179128
752.977	0.0178854
753.055	0.0178880
753.134	0.0178764
753.212	0.0180246
753.290	0.0178086
753.368	0.0177412
753.446	0.0178283
753.524	0.0176838
753.602	0.0176929
753.680	0.0177755
753.759	0.0177842
753.837	0.0178029
753.915	0.0175767
753.993	0.0176199
754.071	0.0175552
754.149	0.0175276
754.227	0.0174592
754.305	0.0174554
754.384	0.0175095
754.462	0.0174623
754.540	0.0174435
754.618	0.0174719
754.696	0.0174999
754.774	0.0176232
754.852	0.0176658
754.930	0.0176373
755.009	0.0175828
755.087	0.0176335
755.165	0.0177799
755.243	0.0176839
755.321	0.0176069
755.399	0.0179361
755.477	0.0178708
755.555	0.0178704
755.634	0.0179721
755.712	0.0179869
755.790	0.0178085
755.868	0.0179701
755.946	0.0180082
756.024	0.0180201
756.102	0.0179187
756.180	0.0180563
756.259	0.0181023
756.337	0.0182082
756.415	0.0182590
756.493	0.0181273
756.571	0.0180292
756.649	0.0180575
756.727	0.0181731
756.805	0.0179203
756.884	0.0179278
756.962	0.0179887
757.040	0.0179409
757.118	0.0177755
757.196	0.0178587
757.274	0.0178796
757.352	0.0177147
757.430	0.0178459
757.509	0.0177173
757.587	0.0176646
757.665	0.0176906
757.743	0.0176987
757.821	0.0177081
757.899	0.0177728
757.977	0.0178242
758.055	0.0176457
758.134	0.0177643
758.212	0.0178894
758.290	0.0179511
758.368	0.0179350
758.446	0.0177995
758.524	0.0177129
758.602	0.0178370
758.680	0.0179003
758.759	0.0179577
758.837	0.0179036
758.915	0.0180175
758.993	0.0179478
759.071	0.0179918
759.149	0.0179210
759.227	0.0179793
759.305	0.0180849
759.384	0.0179738
759.462	0.0180504
759.540	0.0179278
759.618	0.0179651
759.696	0.0179222
759.774	0.0179146
759.852	0.0178853
759.930	0.0179618
760.009	0.0178016
760.087	0.0176312
760.165	0.0176939
760.243	0.0176930
760.321	0.0178022
760.399	0.0177459
760.477	0.0176598
760.555	0.0178056
760.634	0.0177377
760.712	0.0175692
760.790	0.0175969
760.868	0.0176443
760.946	0.0176578
761.024	0.0177521
761.102	0.0175596
761.180	0.0176482
761.259	0.0175801
761.337	0.0177130
761.415	0.0175036
761.493	0.0176084
761.571	0.0176742
761.649	0.0175598
761.727	0.0176276
761.805	0.0177111
761.884	0.0176772
761.962	0.0176277
762.040	0.0174383
762.118	0.0174234
762.196	0.0175153
762.274	0.0174372
762.352	0.0174268
762.430	0.0173386
762.509	0.0173579
762.587	0.0174348
762.665	0.0173179
762.743	0.0174024
762.821	0.0173235
762.899	0.0172994
762.977	0.0174425
763.055	0.0174287
763.134	0.0174728
763.212	0.0175439
763.290	0.0174549
763.368	0.0173461
763.446	0.0175248
763.524	0.0174764
763.602	0.0174426
763.680	0.0174812
763.759	0.0175806
763.837	0.0175811
763.915	0.0173474
763.993	0.0174137
764.071	0.0175427
764.149	0.0175702
764.227	0.0174670
764.305	0.0175420
764.384	0.0176348
764.462	0.0175940
764.540	0.0176183
764.618	0.0176630
764.696	0.0176649
764.774	0.0175641
764.852	0.0176163
764.930	0.0175970
765.009	0.0175689
765.087	0.0176756
765.165	0.0177293
765.243	0.0177394
765.321	0.0176604
765.399	0.0176495
765.477	0.0175873
765.555	0.0177185
765.634	0.0177312
765.712	0.0178458
765.790	0.0178475
765.868	0.0177834
765.946	0.0177945
766.024	0.0178681
766.102	0.0178451
766.180	0.0177196
766.259	0.0177691
766.337	0.0177755
766.415	0.0177532
766.493	0.0178477
766.571	0.0177664
766.649	0.0177864
766.727	0.0177017
766.805	0.0177276
766.884	0.0178675
766.962	0.0177642
767.040	0.0176620
767.118	0.0176646
767.196	0.0177910
767.274	0.0177458
767.352	0.0177517
767.430	0.0176650
767.509	0.0177759
767.587	0.0177353
767.665	0.0177010
767.743	0.0177989
767.821	0.0178062
767.899	0.0180056
767.977	0.0178520
768.055	0.0177883
768.134	0.0178045
768.212	0.0178128
768.290	0.0179340
768.368	0.0178830
768.446	0.0179382
768.524	0.0179829
768.602	0.0179293
768.680	0.0181094
768.759	0.0179796
768.837	0.0180097
768.915	0.0179881
768.993	0.0179314
769.071	0.0180372
769.149	0.0179691
769.227	0.0179890
769.305	0.0179853
769.384	0.0179752
769.462	0.0180763
769.540	0.0180550
769.618	0.0179871
769.696	0.0180756
769.774	0.0180962
769.852	0.0180038
769.930	0.0180668
770.009	0.0179296
770.087	0.0177757
770.165	0.0178177
770.243	0.0178674
770.321	0.0177772
770.399	0.0177573
770.477	0.0178152
770.555	0.0177365
770.634	0.0176307
770.712	0.0175111
770.790	0.0177174
770.868	0.0177470
770.946	0.0175938
771.024	0.0176105
771.102	0.0176447
771.180	0.0177303
771.259	0.0178300
771.337	0.0178059
771.415	0.0178840
771.493	0.0179167
771.571	0.0177666
771.649	0.0178820
771.727	0.0180573
771.805	0.0180077
771.884	0.0180846
771.962	0.0181046
772.040	0.0180774
772.118	0.0181239
772.196	0.0180361
772.274	0.0180090
772.352	0.0180187
772.430	0.0181756
772.509	0.0181260
772.587	0.0179836
772.665	0.0180823
772.743	0.0180285
772.821	0.0179996
772.899	0.0179080
772.977	0.0179359
773.055	0.0179866
773.134	0.0179311
773.212	0.0177168
773.290	0.0180128
773.368	0.0177847
773.446	0.0178751
773.524	0.0179002
773.602	0.0178681
773.680	0.0178664
773.759	0.0178634
773.837	0.0178812
773.915	0.0179092
773.993	0.0179953
774.071	0.0178195
774.149	0.0179160
774.227	0.0180108
774.305	0.0179098
774.384	0.0181265
774.462	0.0179578
774.540	0.0180605
774.618	0.0180741
774.696	0.0180592
774.774	0.0181056
774.852	0.0182076
774.930	0.0181998
775.009	0.0181059
775.087	0.0182378
775.165	0.0180508
775.243	0.0180814
775.321	0.0180630
775.399	0.0180217
775.477	0.0181070
775.555	0.0181497
775.634	0.0179340
775.712	0.0179293
775.790	0.0179192
775.868	0.0178540
775.946	0.0179614
776.024	0.0177911
776.102	0.0177221
776.180	0.0176416
776.259	0.0176799
776.337	0.0175959
776.415	0.0176072
776.493	0.0174679
776.571	0.0173862
776.649	0.0174865
776.727	0.0175359
776.805	0.0174680
776.884	0.0173729
776.962	0.0175185
777.040	0.0174969
777.118	0.0175098
777.196	0.0176026
777.274	0.0175600
777.352	0.0176553
777.430	0.0176965
777.509	0.0176979
777.587	0.0176427
777.665	0.0176324
777.743	0.0177344
777.821	0.0176875
777.899	0.0177211
777.977	0.0177315
778.055	0.0176772
778.134	0.0178202
778.212	0.0176915
778.290	0.0177714
778.368	0.0179133
778.446	0.0177195
778.524	0.0178845
778.602	0.0178392
778.680	0.0179081
778.759	0.0178416
778.837	0.0177798
778.915	0.0179295
778.993	0.0177613
779.071	0.0177300
779.149	0.0178596
779.227	0.0178401
779.305	0.0177150
779.384	0.0179288
779.462	0.0178405
779.540	0.0178051
779.618	0.0178780
779.696	0.0178510
779.774	0.0177541
779.852	0.0177962
779.930	0.0178683
780.009	0.0178777
780.087	0.0177403
780.165	0.0175974
780.243	0.0176940
780.321	0.0177480
780.399	0.0176259
780.477	0.0176749
780.555	0.0177415
780.634	0.0176279
780.712	0.0175507
780.790	0.0175904
780.868	0.0175289
780.946	0.0175291
781.024	0.0176595
781.102	0.0176666
781.180	0.0176055
781.259	0.0176919
781.337	0.0176254
781.415	0.0175706
781.493	0.0176406
781.571	0.0176639
781.649	0.0176543
781.727	0.0177362
781.805	0.0175134
781.884	0.0177529
781.962	0.0178012
782.040	0.0177917
782.118	0.0176505
782.196	0.0177089
782.274	0.0177954
782.352	0.0177003
782.430	0.0176041
782.509	0.0177765
782.587	0.0178816
782.665	0.0178463
782.743	0.0177514
782.821	0.0177851
782.899	0.0177630
782.977	0.0178043
783.055	0.0178611
783.134	0.0179432
783.212	0.0179720
783.290	0.0179322
783.368	0.0180036
783.446	0.0180783
783.524	0.0179456
783.602	0.0179334
783.680	0.0179250
783.759	0.0181812
783.837	0.0180308
783.915	0.0180903
783.993	0.0179846
784.071	0.0180917
784.149	0.0178611
784.227	0.0179622
784.305	0.0179571
784.384	0.0179535
784.462	0.0178546
784.540	0.0179180
784.618	0.0178405
784.696	0.0177288
784.774	0.0178493
784.852	0.0176832
784.930	0.0176644
785.009	0.0176734
785.087	0.0177886
785.165	0.0177379
785.243	0.0175073
785.321	0.0177711
785.399	0.0178400
785.477	0.0177852
785.555	0.0176289
785.634	0.0175770
785.712	0.0175256
785.790	0.0176492
785.868	0.0176537
785.946	0.0174973
786.024	0.0176111
786.102	0.0175837
786.180	0.0177621
786.259	0.0177516
786.337	0.0176463
786.415	0.0176733
786.493	0.0176120
786.571	0.0175559
786.649	0.0174922
786.727	0.0176659
786.805	0.0176614
786.884	0.0176948
786.962	0.0175029
787.040	0.0176173
787.118	0.0176465
787.196	0.0175330
787.274	0.0176936
787.352	0.0177035
787.430	0.0176683
787.509	0.0177804
787.587	0.0177911
787.665	0.0178268
787.743	0.0177422
787.821	0.0176618
787.899	0.0178677
787.977	0.0177190
788.055	0.0177406
788.134	0.0178316
788.212	0.0178695
788.290	0.0177979
788.368	0.0179081
788.446	0.0178349
788.524	0.0177880
788.602	0.0178099
788.680	0.0180181
788.759	0.0178439
788.837	0.0178085
788.915	0.0177145
788.993	0.0177766
789.071	0.0177805
789.149	0.0177423
789.227	0.0177290
789.305	0.0177993
789.384	0.0177099
789.462	0.0177203
789.540	0.0178243
789.618	0.0177473
789.696	0.0176589
789.774	0.0177069
789.852	0.0177952
789.930	0.0178292
790.009	0.0179017
790.087	0.0177097
790.165	0.0178657
790.243	0.0178320
790.321	0.0178429
790.399	0.0179562
790.477	0.0179262
790.555	0.0177730
790.634	0.0179581
790.712	0.0181128
790.790	0.0181446
790.868	0.0181171
790.946	0.0180275
791.024	0.0180889
791.102	0.0180840
791.180	0.0180869
791.259	0.0181318
791.337	0.0180965
791.415	0.0180424
791.493	0.0181081
791.571	0.0180173
791.649	0.0182135
791.727	0.0182410
791.805	0.0181754
791.884	0.0180830
791.962	0.0180801
792.040	0.0181992
792.118	0.0180025
792.196	0.0183626
792.274	0.0182108
792.352	0.0180925
792.430	0.0183336
792.509	0.0181162
792.587	0.0181779
792.665	0.0181736
792.743	0.0180360
792.821	0.0180294
792.899	0.0181127
792.977	0.0180831
793.055	0.0180244
793.134	0.0178992
793.212	0.0178921
793.290	0.0179723
793.368	0.0178636
793.446	0.0177408
793.524	0.0178072
793.602	0.0177618
793.680	0.0177109
793.759	0.0176814
793.837	0.0177911
793.915	0.0177755
793.993	0.0176854
794.071	0.0177129
794.149	0.0177878
794.227	0.0177103
794.305	0.0176894
794.384	0.0178259
794.462	0.0178700
794.540	0.0179385
794.618	0.0178938
794.696	0.0178815
794.774	0.0178765
794.852	0.0177997
794.930	0.0179385
