06/03/2022	18:49:40	Ver.	4.1	UNKNOWN
Optical Delay	475.015285	Delta X		0.078125	Sweeps	1	Scan Rate	0/0
Coordinates	Axis 1	NaN	Axis 2	NaN	Axis 3	NaN	Axis 4	NaN	Axis 5	NaN	Axis 6	0.000000
TX Power	0.000000	RX Power	0.000000

475.015	0.0179263
475.093	0.0178819
475.172	0.0178506
475.250	0.0179137
475.328	0.0179829
475.406	0.0179810
475.484	0.0178363
475.562	0.0178629
475.640	0.0177667
475.718	0.0178144
475.797	0.0178297
475.875	0.0179057
475.953	0.0179540
476.031	0.0179632
476.109	0.0176424
476.187	0.0177378
476.265	0.0177995
476.343	0.0177756
476.422	0.0178547
476.500	0.0177790
476.578	0.0177731
476.656	0.0177377
476.734	0.0177448
476.812	0.0177615
476.890	0.0176768
476.968	0.0176255
477.047	0.0177329
477.125	0.0177292
477.203	0.0176633
477.281	0.0177892
477.359	0.0178057
477.437	0.0177359
477.515	0.0177628
477.593	0.0178303
477.672	0.0177948
477.750	0.0177328
477.828	0.0178499
477.906	0.0177953
477.984	0.0178194
478.062	0.0178486
478.140	0.0176634
478.218	0.0177164
478.297	0.0177428
478.375	0.0177284
478.453	0.0177076
478.531	0.0178458
478.609	0.0176982
478.687	0.0176232
478.765	0.0178016
478.843	0.0177760
478.922	0.0176720
479.000	0.0177595
479.078	0.0177499
479.156	0.0177472
479.234	0.0177766
479.312	0.0177004
479.390	0.0176200
479.468	0.0178083
479.547	0.0176751
479.625	0.0177227
479.703	0.0176357
479.781	0.0177557
479.859	0.0177540
479.937	0.0178027
480.015	0.0178218
480.093	0.0176438
480.172	0.0176129
480.250	0.0177801
480.328	0.0176148
480.406	0.0177081
480.484	0.0176513
480.562	0.0174906
480.640	0.0176136
480.718	0.0177650
480.797	0.0176788
480.875	0.0175386
480.953	0.0175405
481.031	0.0176434
481.109	0.0177116
481.187	0.0176857
481.265	0.0177124
481.343	0.0177153
481.422	0.0176760
481.500	0.0176456
481.578	0.0176831
481.656	0.0176125
481.734	0.0175249
481.812	0.0176060
481.890	0.0176183
481.968	0.0175790
482.047	0.0176262
482.125	0.0174960
482.203	0.0176413
482.281	0.0176518
482.359	0.0175957
482.437	0.0175877
482.515	0.0176025
482.593	0.0176302
482.672	0.0175297
482.750	0.0177598
482.828	0.0175217
482.906	0.0175312
482.984	0.0176772
483.062	0.0175997
483.140	0.0176208
483.218	0.0176836
483.297	0.0175942
483.375	0.0176725
483.453	0.0175714
483.531	0.0176046
483.609	0.0175125
483.687	0.0176035
483.765	0.0176347
483.843	0.0174656
483.922	0.0175027
484.000	0.0175883
484.078	0.0175788
484.156	0.0176006
484.234	0.0176139
484.312	0.0175032
484.390	0.0176205
484.468	0.0175120
484.547	0.0175211
484.625	0.0176241
484.703	0.0176327
484.781	0.0175504
484.859	0.0176304
484.937	0.0178094
485.015	0.0176984
485.093	0.0176360
485.172	0.0175681
485.250	0.0175286
485.328	0.0177263
485.406	0.0176542
485.484	0.0175903
485.562	0.0176322
485.640	0.0177685
485.718	0.0175540
485.797	0.0175557
485.875	0.0176057
485.953	0.0177214
486.031	0.0176552
486.109	0.0175996
486.187	0.0175002
486.265	0.0176163
486.343	0.0174640
486.422	0.0175961
486.500	0.0177114
486.578	0.0175365
486.656	0.0175506
486.734	0.0175401
486.812	0.0176088
486.890	0.0175896
486.968	0.0177120
487.047	0.0176118
487.125	0.0175207
487.203	0.0175225
487.281	0.0176068
487.359	0.0176471
487.437	0.0175475
487.515	0.0177038
487.593	0.0175699
487.672	0.0175964
487.750	0.0175565
487.828	0.0175208
487.906	0.0176287
487.984	0.0176202
488.062	0.0175170
488.140	0.0174593
488.218	0.0175277
488.297	0.0174697
488.375	0.0175388
488.453	0.0174105
488.531	0.0174157
488.609	0.0176197
488.687	0.0174796
488.765	0.0175326
488.843	0.0175715
488.922	0.0174812
489.000	0.0174092
489.078	0.0175497
489.156	0.0175391
489.234	0.0174197
489.312	0.0175146
489.390	0.0174056
489.468	0.0174765
489.547	0.0175629
489.625	0.0175015
489.703	0.0174850
489.781	0.0173347
489.859	0.0174264
489.937	0.0175118
490.015	0.0174518
490.093	0.0174520
490.172	0.0174390
490.250	0.0174295
490.328	0.0174934
490.406	0.0174408
490.484	0.0174502
490.562	0.0173743
490.640	0.0174565
490.718	0.0174940
490.797	0.0174429
490.875	0.0175065
490.953	0.0175879
491.031	0.0174786
491.109	0.0174199
491.187	0.0175300
491.265	0.0176073
491.343	0.0176448
491.422	0.0176131
491.500	0.0174503
491.578	0.0173830
491.656	0.0174049
491.734	0.0175844
491.812	0.0174782
491.890	0.0177128
491.968	0.0175490
492.047	0.0174548
492.125	0.0175242
492.203	0.0175398
492.281	0.0174971
492.359	0.0176146
492.437	0.0176053
492.515	0.0175442
492.593	0.0176298
492.672	0.0176291
492.750	0.0175713
492.828	0.0177046
492.906	0.0177248
492.984	0.0176209
493.062	0.0175957
493.140	0.0177108
493.218	0.0177187
493.297	0.0174257
493.375	0.0176972
493.453	0.0177565
493.531	0.0176494
493.609	0.0176885
493.687	0.0176637
493.765	0.0177947
493.843	0.0178544
493.922	0.0178094
494.000	0.0177332
494.078	0.0176983
494.156	0.0176974
494.234	0.0178151
494.312	0.0177814
494.390	0.0179192
494.468	0.0177490
494.547	0.0176833
494.625	0.0177667
494.703	0.0178551
494.781	0.0176142
494.859	0.0177626
494.937	0.0177999
495.015	0.0178993
495.093	0.0179565
495.172	0.0177970
495.250	0.0177494
495.328	0.0178883
495.406	0.0176509
495.484	0.0178722
495.562	0.0179349
495.640	0.0177831
495.718	0.0178353
495.797	0.0178924
495.875	0.0177941
495.953	0.0177379
496.031	0.0178315
496.109	0.0178203
496.187	0.0178692
496.265	0.0178267
496.343	0.0177023
496.422	0.0178767
496.500	0.0177905
496.578	0.0176455
496.656	0.0178343
496.734	0.0177920
496.812	0.0177234
496.890	0.0177570
496.968	0.0178202
497.047	0.0177560
497.125	0.0177838
497.203	0.0178290
497.281	0.0177914
497.359	0.0177922
497.437	0.0176847
497.515	0.0175698
497.593	0.0178555
497.672	0.0178794
497.750	0.0178058
497.828	0.0177504
497.906	0.0178289
497.984	0.0179293
498.062	0.0177759
498.140	0.0177198
498.218	0.0176863
498.297	0.0177316
498.375	0.0178543
498.453	0.0178022
498.531	0.0177010
498.609	0.0176388
498.687	0.0178017
498.765	0.0176756
498.843	0.0177095
498.922	0.0178473
499.000	0.0176501
499.078	0.0177541
499.156	0.0178725
499.234	0.0177503
499.312	0.0177011
499.390	0.0177629
499.468	0.0177241
499.547	0.0177765
499.625	0.0176528
499.703	0.0177084
499.781	0.0178080
499.859	0.0177930
499.937	0.0178150
500.015	0.0177903
500.093	0.0177523
500.172	0.0177736
500.250	0.0179587
500.328	0.0178294
500.406	0.0178214
500.484	0.0179546
500.562	0.0177968
500.640	0.0178498
500.718	0.0178687
500.797	0.0177644
500.875	0.0177248
500.953	0.0177501
501.031	0.0178680
501.109	0.0179240
501.187	0.0177435
501.265	0.0177934
501.343	0.0178099
501.422	0.0178278
501.500	0.0178281
501.578	0.0178310
501.656	0.0178712
501.734	0.0178156
501.812	0.0178636
501.890	0.0178376
501.968	0.0178374
502.047	0.0178325
502.125	0.0178154
502.203	0.0177073
502.281	0.0178181
502.359	0.0178497
502.437	0.0178493
502.515	0.0178593
502.593	0.0179242
502.672	0.0179023
502.750	0.0178991
502.828	0.0178338
502.906	0.0177930
502.984	0.0178853
503.062	0.0178972
503.140	0.0179047
503.218	0.0179342
503.297	0.0178176
503.375	0.0177709
503.453	0.0179565
503.531	0.0179150
503.609	0.0178899
503.687	0.0179219
503.765	0.0177951
503.843	0.0178826
503.922	0.0179977
504.000	0.0178716
504.078	0.0178130
504.156	0.0178999
504.234	0.0178696
504.312	0.0176315
504.390	0.0179099
504.468	0.0179712
504.547	0.0177839
504.625	0.0179236
504.703	0.0178442
504.781	0.0179860
504.859	0.0180070
504.937	0.0179010
505.015	0.0178653
505.093	0.0178225
505.172	0.0178767
505.250	0.0179879
505.328	0.0180235
505.406	0.0180090
505.484	0.0179002
505.562	0.0178006
505.640	0.0178509
505.718	0.0178641
505.797	0.0178356
505.875	0.0179007
505.953	0.0179031
506.031	0.0179889
506.109	0.0179570
506.187	0.0178494
506.265	0.0179147
506.343	0.0179326
506.422	0.0178116
506.500	0.0179284
506.578	0.0179211
506.656	0.0178322
506.734	0.0178094
506.812	0.0178819
506.890	0.0178001
506.968	0.0178724
507.047	0.0179153
507.125	0.0179362
507.203	0.0178838
507.281	0.0179541
507.359	0.0178033
507.437	0.0178875
507.515	0.0179710
507.593	0.0178426
507.672	0.0179830
507.750	0.0179958
507.828	0.0179776
507.906	0.0180592
507.984	0.0179082
508.062	0.0178053
508.140	0.0180138
508.218	0.0179236
508.297	0.0180316
508.375	0.0179292
508.453	0.0179887
508.531	0.0178947
508.609	0.0179928
508.687	0.0179706
508.765	0.0179348
508.843	0.0181132
508.922	0.0180385
509.000	0.0179477
509.078	0.0180882
509.156	0.0179876
509.234	0.0179401
509.312	0.0180840
509.390	0.0180087
509.468	0.0179164
509.547	0.0178230
509.625	0.0179829
509.703	0.0179778
509.781	0.0179815
509.859	0.0180421
509.937	0.0178796
510.015	0.0179588
510.093	0.0180011
510.172	0.0179999
510.250	0.0179192
510.328	0.0178049
510.406	0.0178201
510.484	0.0178443
510.562	0.0179072
510.640	0.0179108
510.718	0.0178435
510.797	0.0178767
510.875	0.0176238
510.953	0.0176934
511.031	0.0177885
511.109	0.0177446
511.187	0.0176355
511.265	0.0175970
511.343	0.0175533
511.422	0.0176109
511.500	0.0174335
511.578	0.0174609
511.656	0.0173334
511.734	0.0174234
511.812	0.0174866
511.890	0.0174489
511.968	0.0172462
512.047	0.0172154
512.125	0.0174481
512.203	0.0172701
512.281	0.0172053
512.359	0.0170725
512.437	0.0171319
512.515	0.0171396
512.593	0.0171207
512.672	0.0169805
512.750	0.0170548
512.828	0.0171363
512.906	0.0169882
512.984	0.0170388
513.062	0.0169579
513.140	0.0169771
513.218	0.0169147
513.297	0.0169189
513.375	0.0169845
513.453	0.0168274
513.531	0.0168008
513.609	0.0168489
513.687	0.0168739
513.765	0.0167535
513.843	0.0167127
513.922	0.0167185
514.000	0.0167700
514.078	0.0167185
514.156	0.0168768
514.234	0.0168493
514.312	0.0167712
514.390	0.0168777
514.468	0.0167867
514.547	0.0167142
514.625	0.0168774
514.703	0.0168224
514.781	0.0169592
514.859	0.0169522
514.937	0.0168781
515.015	0.0167799
515.093	0.0169515
515.172	0.0170142
515.250	0.0169154
515.328	0.0169560
515.406	0.0168531
515.484	0.0168925
515.562	0.0170115
515.640	0.0170797
515.718	0.0171992
515.797	0.0172421
515.875	0.0172584
515.953	0.0171632
516.031	0.0172479
516.109	0.0174734
516.187	0.0173959
516.265	0.0173453
516.343	0.0173923
516.422	0.0176085
516.500	0.0176920
516.578	0.0176064
516.656	0.0175685
516.734	0.0177243
516.812	0.0178107
516.890	0.0179308
516.968	0.0179829
517.047	0.0179019
517.125	0.0178629
517.203	0.0179435
517.281	0.0180272
517.359	0.0178580
517.437	0.0180241
517.515	0.0180906
517.593	0.0180987
517.672	0.0181462
517.750	0.0181596
517.828	0.0180608
517.906	0.0183060
517.984	0.0183675
518.062	0.0183272
518.140	0.0181414
518.218	0.0183213
518.297	0.0182452
518.375	0.0183823
518.453	0.0184340
518.531	0.0182906
518.609	0.0183312
518.687	0.0183092
518.765	0.0183833
518.843	0.0184039
518.922	0.0183408
519.000	0.0183952
519.078	0.0182501
519.156	0.0182290
519.234	0.0182796
519.312	0.0183096
519.390	0.0184185
519.468	0.0184324
519.547	0.0181977
519.625	0.0183291
519.703	0.0182626
519.781	0.0181616
519.859	0.0182373
519.937	0.0182027
520.015	0.0182687
520.093	0.0181639
520.172	0.0182698
520.250	0.0180833
520.328	0.0179985
520.406	0.0180421
520.484	0.0181242
520.562	0.0179742
520.640	0.0180147
520.718	0.0179018
520.797	0.0179871
520.875	0.0178633
520.953	0.0178532
521.031	0.0177740
521.109	0.0177069
521.187	0.0177701
521.265	0.0176122
521.343	0.0175671
521.422	0.0176571
521.500	0.0176128
521.578	0.0176278
521.656	0.0175877
521.734	0.0176200
521.812	0.0175932
521.890	0.0176808
521.968	0.0177758
522.047	0.0175735
522.125	0.0176966
522.203	0.0175622
522.281	0.0175807
522.359	0.0174281
522.437	0.0175513
522.515	0.0176528
522.593	0.0174588
522.672	0.0174963
522.750	0.0175108
522.828	0.0174248
522.906	0.0175066
522.984	0.0174821
523.062	0.0174432
523.140	0.0174486
523.218	0.0172839
523.297	0.0173398
523.375	0.0173556
523.453	0.0175140
523.531	0.0174615
523.609	0.0174478
523.687	0.0173960
523.765	0.0172839
523.843	0.0176400
523.922	0.0175308
524.000	0.0173699
524.078	0.0175591
524.156	0.0175591
524.234	0.0176454
524.312	0.0176897
524.390	0.0177497
524.468	0.0176579
524.547	0.0177115
524.625	0.0175811
524.703	0.0177368
524.781	0.0178802
524.859	0.0177235
524.937	0.0178565
525.015	0.0179050
525.093	0.0179343
525.172	0.0179839
525.250	0.0179456
525.328	0.0178395
525.406	0.0180212
525.484	0.0180205
525.562	0.0180678
525.640	0.0181563
525.718	0.0180740
525.797	0.0180046
525.875	0.0181757
525.953	0.0180769
526.031	0.0182520
526.109	0.0182165
526.187	0.0182766
526.265	0.0182030
526.343	0.0182025
526.422	0.0182101
526.500	0.0182638
526.578	0.0182389
526.656	0.0182534
526.734	0.0182478
526.812	0.0183229
526.890	0.0183753
526.968	0.0183316
527.047	0.0184043
527.125	0.0182609
527.203	0.0183744
527.281	0.0183151
527.359	0.0183570
527.437	0.0184335
527.515	0.0182069
527.593	0.0182529
527.672	0.0182447
527.750	0.0183524
527.828	0.0181123
527.906	0.0182552
527.984	0.0182467
528.062	0.0181620
528.140	0.0182607
528.218	0.0182987
528.297	0.0183200
528.375	0.0182175
528.453	0.0181614
528.531	0.0181977
528.609	0.0181014
528.687	0.0180061
528.765	0.0180408
528.843	0.0179901
528.922	0.0180463
529.000	0.0179791
529.078	0.0178167
529.156	0.0179560
529.234	0.0177669
529.312	0.0179225
529.390	0.0178236
529.468	0.0176892
529.547	0.0176644
529.625	0.0177379
529.703	0.0176225
529.781	0.0176695
529.859	0.0175648
529.937	0.0175414
530.015	0.0174715
530.093	0.0175018
530.172	0.0175526
530.250	0.0174385
530.328	0.0175562
530.406	0.0175628
530.484	0.0173101
530.562	0.0174058
530.640	0.0174933
530.718	0.0174960
530.797	0.0173832
530.875	0.0175588
530.953	0.0174825
531.031	0.0176159
531.109	0.0176562
531.187	0.0177559
531.265	0.0176092
531.343	0.0176183
531.422	0.0179183
531.500	0.0178736
531.578	0.0178069
531.656	0.0179546
531.734	0.0179511
531.812	0.0179210
531.890	0.0181424
531.968	0.0182771
532.047	0.0182987
532.125	0.0182947
532.203	0.0183334
532.281	0.0183798
532.359	0.0183961
532.437	0.0184985
532.515	0.0185788
532.593	0.0185179
532.672	0.0184087
532.750	0.0185229
532.828	0.0186044
532.906	0.0186349
532.984	0.0186034
533.062	0.0185091
533.140	0.0184494
533.218	0.0183810
533.297	0.0182590
533.375	0.0182275
533.453	0.0181299
533.531	0.0179931
533.609	0.0180684
533.687	0.0179575
533.765	0.0178624
533.843	0.0177364
533.922	0.0175933
534.000	0.0176534
534.078	0.0176579
534.156	0.0175002
534.234	0.0174628
534.312	0.0173611
534.390	0.0173549
534.468	0.0171985
534.547	0.0170714
534.625	0.0171002
534.703	0.0167654
534.781	0.0168299
534.859	0.0167302
534.937	0.0166615
535.015	0.0164997
535.093	0.0164653
535.172	0.0162841
535.250	0.0162157
535.328	0.0161144
535.406	0.0158099
535.484	0.0156900
535.562	0.0159184
535.640	0.0158501
535.718	0.0157938
535.797	0.0157732
535.875	0.0158641
535.953	0.0159394
536.031	0.0160075
536.109	0.0161283
536.187	0.0160238
536.265	0.0161755
536.343	0.0162953
536.422	0.0162624
536.500	0.0164448
536.578	0.0165350
536.656	0.0165478
536.734	0.0167706
536.812	0.0168500
536.890	0.0168779
536.968	0.0169112
537.047	0.0170681
537.125	0.0171942
537.203	0.0171446
537.281	0.0170142
537.359	0.0172243
537.437	0.0172515
537.515	0.0171254
537.593	0.0172673
537.672	0.0172498
537.750	0.0173096
537.828	0.0174686
537.906	0.0175613
537.984	0.0175266
538.062	0.0175470
538.140	0.0177753
538.218	0.0177971
538.297	0.0178854
538.375	0.0181139
538.453	0.0183057
538.531	0.0182260
538.609	0.0183601
538.687	0.0184862
538.765	0.0185991
538.843	0.0187469
538.922	0.0187564
539.000	0.0188960
539.078	0.0189465
539.156	0.0191148
539.234	0.0192575
539.312	0.0192144
539.390	0.0192670
539.468	0.0193764
539.547	0.0193787
539.625	0.0193821
539.703	0.0194625
539.781	0.0193953
539.859	0.0193461
539.937	0.0193099
540.015	0.0192133
540.093	0.0191340
540.172	0.0190009
540.250	0.0189957
540.328	0.0188800
540.406	0.0187668
540.484	0.0186784
540.562	0.0185638
540.640	0.0185822
540.718	0.0184813
540.797	0.0184258
540.875	0.0184053
540.953	0.0181369
541.031	0.0181917
541.109	0.0181947
541.187	0.0180885
541.265	0.0179497
541.343	0.0178954
541.422	0.0179983
541.500	0.0178233
541.578	0.0177943
541.656	0.0177785
541.734	0.0177317
541.812	0.0175977
541.890	0.0175420
541.968	0.0176811
542.047	0.0176181
542.125	0.0175874
542.203	0.0177419
542.281	0.0175224
542.359	0.0177303
542.437	0.0175920
542.515	0.0176418
542.593	0.0175120
542.672	0.0176975
542.750	0.0176645
542.828	0.0176505
542.906	0.0176440
542.984	0.0176285
543.062	0.0176447
543.140	0.0177435
543.218	0.0177433
543.297	0.0177512
543.375	0.0176926
543.453	0.0175455
543.531	0.0176904
543.609	0.0177556
543.687	0.0177286
543.765	0.0175523
543.843	0.0176907
543.922	0.0177216
544.000	0.0175499
544.078	0.0176510
544.156	0.0177013
544.234	0.0177755
544.312	0.0176984
544.390	0.0177029
544.468	0.0178437
544.547	0.0176484
544.625	0.0176935
544.703	0.0177017
544.781	0.0177017
544.859	0.0176468
544.937	0.0176089
545.015	0.0174681
545.093	0.0175031
545.172	0.0175260
545.250	0.0175275
545.328	0.0174590
545.406	0.0174533
545.484	0.0174557
545.562	0.0173553
545.640	0.0173325
545.718	0.0171217
545.797	0.0173523
545.875	0.0172929
545.953	0.0171966
546.031	0.0171912
546.109	0.0171350
546.187	0.0170810
546.265	0.0171312
546.343	0.0171527
546.422	0.0171045
546.500	0.0169531
546.578	0.0172292
546.656	0.0172794
546.734	0.0169637
546.812	0.0171547
546.890	0.0173048
546.968	0.0172243
547.047	0.0173114
547.125	0.0173198
547.203	0.0173608
547.281	0.0173338
547.359	0.0173450
547.437	0.0174593
547.515	0.0173804
547.593	0.0172694
547.672	0.0173138
547.750	0.0174434
547.828	0.0174625
547.906	0.0173389
547.984	0.0174880
548.062	0.0175260
548.140	0.0174916
548.218	0.0173819
548.297	0.0172574
548.375	0.0173079
548.453	0.0174392
548.531	0.0174570
548.609	0.0174113
548.687	0.0176437
548.765	0.0175828
548.843	0.0174773
548.922	0.0176073
549.000	0.0178535
549.078	0.0177850
549.156	0.0179456
549.234	0.0181404
549.312	0.0181915
549.390	0.0182857
549.468	0.0182753
549.547	0.0183627
549.625	0.0184080
549.703	0.0185231
549.781	0.0185522
549.859	0.0186482
549.937	0.0185488
550.015	0.0185797
550.093	0.0185967
550.172	0.0186511
550.250	0.0187431
550.328	0.0186922
550.406	0.0186274
550.484	0.0186125
550.562	0.0186212
550.640	0.0186599
550.718	0.0186890
550.797	0.0185844
550.875	0.0184982
550.953	0.0184914
551.031	0.0184981
551.109	0.0183945
551.187	0.0184241
551.265	0.0183701
551.343	0.0184356
551.422	0.0182628
551.500	0.0182302
551.578	0.0181681
551.656	0.0181900
551.734	0.0179498
551.812	0.0179281
551.890	0.0180534
551.968	0.0179166
552.047	0.0178766
552.125	0.0178748
552.203	0.0178699
552.281	0.0178472
552.359	0.0177164
552.437	0.0176707
552.515	0.0175021
552.593	0.0174141
552.672	0.0174048
552.750	0.0174025
552.828	0.0174311
552.906	0.0172061
552.984	0.0171780
553.062	0.0170412
553.140	0.0170667
553.218	0.0171585
553.297	0.0168955
553.375	0.0171365
553.453	0.0169780
553.531	0.0170271
553.609	0.0169548
553.687	0.0170715
553.765	0.0172376
553.843	0.0170402
553.922	0.0171120
554.000	0.0172552
554.078	0.0172525
554.156	0.0173022
554.234	0.0174765
554.312	0.0175703
554.390	0.0174847
554.468	0.0174680
554.547	0.0175923
554.625	0.0174783
554.703	0.0175742
554.781	0.0175400
554.859	0.0176272
554.937	0.0176113
555.015	0.0177411
555.093	0.0177879
555.172	0.0176231
555.250	0.0176250
555.328	0.0177042
555.406	0.0178143
555.484	0.0179012
555.562	0.0179661
555.640	0.0179768
555.718	0.0180798
555.797	0.0181197
555.875	0.0180666
555.953	0.0181758
556.031	0.0181631
556.109	0.0181271
556.187	0.0181355
556.265	0.0182794
556.343	0.0183032
556.422	0.0181915
556.500	0.0183617
556.578	0.0182584
556.656	0.0181210
556.734	0.0181836
556.812	0.0181404
556.890	0.0182792
556.968	0.0181355
557.047	0.0180881
557.125	0.0180569
557.203	0.0180979
557.281	0.0181007
557.359	0.0180764
557.437	0.0179256
557.515	0.0179502
557.593	0.0179773
557.672	0.0180890
557.750	0.0180477
557.828	0.0179391
557.906	0.0180644
557.984	0.0179799
558.062	0.0180166
558.140	0.0179265
558.218	0.0181152
558.297	0.0180539
558.375	0.0181939
558.453	0.0181953
558.531	0.0181612
558.609	0.0181548
558.687	0.0181583
558.765	0.0181348
558.843	0.0179726
558.922	0.0179767
559.000	0.0179697
559.078	0.0179068
559.156	0.0177404
559.234	0.0178085
559.312	0.0177697
559.390	0.0176524
559.468	0.0176546
559.547	0.0176965
559.625	0.0177470
559.703	0.0176679
559.781	0.0176255
559.859	0.0175538
559.937	0.0175292
560.015	0.0173505
560.093	0.0174168
560.172	0.0173668
560.250	0.0173987
560.328	0.0174662
560.406	0.0173724
560.484	0.0173884
560.562	0.0172887
560.640	0.0171738
560.718	0.0171430
560.797	0.0172271
560.875	0.0171359
560.953	0.0170638
561.031	0.0169832
561.109	0.0169651
561.187	0.0170080
561.265	0.0169377
561.343	0.0169762
561.422	0.0169381
561.500	0.0169801
561.578	0.0168916
561.656	0.0168329
561.734	0.0168818
561.812	0.0167272
561.890	0.0166472
561.968	0.0168050
562.047	0.0167010
562.125	0.0166735
562.203	0.0165514
562.281	0.0166626
562.359	0.0167200
562.437	0.0165523
562.515	0.0165577
562.593	0.0165339
562.672	0.0165032
562.750	0.0166889
562.828	0.0165706
562.906	0.0163843
562.984	0.0166443
563.062	0.0166280
563.140	0.0165993
563.218	0.0166609
563.297	0.0167687
563.375	0.0168228
563.453	0.0168851
563.531	0.0169537
563.609	0.0169843
563.687	0.0170275
563.765	0.0171172
563.843	0.0171944
563.922	0.0173394
564.000	0.0174846
564.078	0.0175497
564.156	0.0174679
564.234	0.0175307
564.312	0.0176057
564.390	0.0176642
564.468	0.0176913
564.547	0.0176936
564.625	0.0176626
564.703	0.0177076
564.781	0.0175990
564.859	0.0176778
564.937	0.0175402
565.015	0.0176957
565.093	0.0177040
565.172	0.0175780
565.250	0.0176781
565.328	0.0174574
565.406	0.0176875
565.484	0.0174947
565.562	0.0175138
565.640	0.0175859
565.718	0.0175488
565.797	0.0175333
565.875	0.0175442
565.953	0.0175813
566.031	0.0175878
566.109	0.0175346
566.187	0.0177531
566.265	0.0176680
566.343	0.0175909
566.422	0.0177859
566.500	0.0178209
566.578	0.0177174
566.656	0.0178429
566.734	0.0178362
566.812	0.0178590
566.890	0.0179684
566.968	0.0179526
567.047	0.0180870
567.125	0.0180225
567.203	0.0180362
567.281	0.0180405
567.359	0.0182093
567.437	0.0181287
567.515	0.0181766
567.593	0.0181387
567.672	0.0179497
567.750	0.0181824
567.828	0.0184380
567.906	0.0183178
567.984	0.0181516
568.062	0.0183001
568.140	0.0184093
568.218	0.0184096
568.297	0.0182575
568.375	0.0183148
568.453	0.0183714
568.531	0.0183089
568.609	0.0182415
568.687	0.0183555
568.765	0.0184145
568.843	0.0182524
568.922	0.0183859
569.000	0.0184659
569.078	0.0184924
569.156	0.0181933
569.234	0.0183975
569.312	0.0184506
569.390	0.0184278
569.468	0.0184361
569.547	0.0183810
569.625	0.0184124
569.703	0.0184312
569.781	0.0183493
569.859	0.0183984
569.937	0.0184351
570.015	0.0181573
570.093	0.0182572
570.172	0.0181438
570.250	0.0182269
570.328	0.0182026
570.406	0.0182384
570.484	0.0181612
570.562	0.0181116
570.640	0.0180276
570.718	0.0180576
570.797	0.0180304
570.875	0.0179821
570.953	0.0179612
571.031	0.0179833
571.109	0.0179659
571.187	0.0179097
571.265	0.0180848
571.343	0.0179273
571.422	0.0178489
571.500	0.0177488
571.578	0.0177618
571.656	0.0178126
571.734	0.0178268
571.812	0.0177097
571.890	0.0178600
571.968	0.0177660
572.047	0.0177121
572.125	0.0176576
572.203	0.0176443
572.281	0.0176678
572.359	0.0175867
572.437	0.0177732
572.515	0.0176064
572.593	0.0176264
572.672	0.0177351
572.750	0.0178101
572.828	0.0176141
572.906	0.0174664
572.984	0.0176141
573.062	0.0175965
573.140	0.0175475
573.218	0.0177324
573.297	0.0177309
573.375	0.0177792
573.453	0.0177121
573.531	0.0176260
573.609	0.0177922
573.687	0.0177196
573.765	0.0175587
573.843	0.0175842
573.922	0.0175234
574.000	0.0177319
574.078	0.0174251
574.156	0.0174335
574.234	0.0174509
574.312	0.0174313
574.390	0.0174996
574.468	0.0173534
574.547	0.0174538
574.625	0.0174852
574.703	0.0175065
574.781	0.0173419
574.859	0.0176527
574.937	0.0175140
575.015	0.0174802
575.093	0.0178210
575.172	0.0176433
575.250	0.0176156
575.328	0.0175478
575.406	0.0176683
575.484	0.0177217
575.562	0.0177202
575.640	0.0176821
575.718	0.0176630
575.797	0.0175300
575.875	0.0175021
575.953	0.0176716
576.031	0.0176018
576.109	0.0175904
576.187	0.0175156
576.265	0.0174904
576.343	0.0175636
576.422	0.0175226
576.500	0.0175646
576.578	0.0176153
576.656	0.0176230
576.734	0.0175639
576.812	0.0174022
576.890	0.0174417
576.968	0.0174316
577.047	0.0174423
577.125	0.0174041
577.203	0.0174671
577.281	0.0174746
577.359	0.0174567
577.437	0.0175418
577.515	0.0175037
577.593	0.0173896
577.672	0.0175309
577.750	0.0175999
577.828	0.0175174
577.906	0.0174855
577.984	0.0174950
578.062	0.0175419
578.140	0.0174914
578.218	0.0175297
578.297	0.0175278
578.375	0.0176257
578.453	0.0176929
578.531	0.0175547
578.609	0.0175986
578.687	0.0176341
578.765	0.0175948
578.843	0.0177396
578.922	0.0177513
579.000	0.0177146
579.078	0.0176790
579.156	0.0178998
579.234	0.0178584
579.312	0.0177605
579.390	0.0179549
579.468	0.0179519
579.547	0.0179726
579.625	0.0179253
579.703	0.0179887
579.781	0.0178819
579.859	0.0179984
579.937	0.0182220
580.015	0.0180844
580.093	0.0180956
580.172	0.0182130
580.250	0.0181898
580.328	0.0181712
580.406	0.0181631
580.484	0.0182444
580.562	0.0183302
580.640	0.0183187
580.718	0.0180838
580.797	0.0182153
580.875	0.0182631
580.953	0.0180915
581.031	0.0180752
581.109	0.0181198
581.187	0.0181449
581.265	0.0179839
581.343	0.0182561
581.422	0.0181817
581.500	0.0180167
581.578	0.0180289
581.656	0.0180486
581.734	0.0179848
581.812	0.0180766
581.890	0.0179754
581.968	0.0179175
582.047	0.0180074
582.125	0.0179141
582.203	0.0179352
582.281	0.0179787
582.359	0.0179427
582.437	0.0177550
582.515	0.0179533
582.593	0.0179932
582.672	0.0178345
582.750	0.0178076
582.828	0.0178746
582.906	0.0176485
582.984	0.0177838
583.062	0.0176826
583.140	0.0177412
583.218	0.0175021
583.297	0.0176869
583.375	0.0176087
583.453	0.0176466
583.531	0.0176699
583.609	0.0175948
583.687	0.0176485
583.765	0.0177707
583.843	0.0177498
583.922	0.0176343
584.000	0.0175790
584.078	0.0177366
584.156	0.0176820
584.234	0.0175531
584.312	0.0174538
584.390	0.0175297
584.468	0.0174675
584.547	0.0174048
584.625	0.0173916
584.703	0.0176493
584.781	0.0176120
584.859	0.0173432
584.937	0.0172993
585.015	0.0173632
585.093	0.0171603
585.172	0.0173529
585.250	0.0172763
585.328	0.0173057
585.406	0.0173005
585.484	0.0172737
585.562	0.0171781
585.640	0.0172493
585.718	0.0173310
585.797	0.0171449
585.875	0.0174113
585.953	0.0172550
586.031	0.0171584
586.109	0.0171705
586.187	0.0172634
586.265	0.0172769
586.343	0.0172435
586.422	0.0172301
586.500	0.0173032
586.578	0.0173509
586.656	0.0171632
586.734	0.0172807
586.812	0.0172494
586.890	0.0172385
586.968	0.0173414
587.047	0.0172385
587.125	0.0172222
587.203	0.0172324
587.281	0.0171390
587.359	0.0173196
587.437	0.0171827
587.515	0.0172314
587.593	0.0173573
587.672	0.0171481
587.750	0.0171539
587.828	0.0172994
587.906	0.0171921
587.984	0.0172918
588.062	0.0172839
588.140	0.0170990
588.218	0.0172157
588.297	0.0171693
588.375	0.0172816
588.453	0.0171061
588.531	0.0172311
588.609	0.0173233
588.687	0.0173347
588.765	0.0171874
588.843	0.0172233
588.922	0.0172509
589.000	0.0172215
589.078	0.0172326
589.156	0.0171270
589.234	0.0171083
589.312	0.0172585
589.390	0.0173011
589.468	0.0172025
589.547	0.0174202
589.625	0.0175822
589.703	0.0174021
589.781	0.0173655
589.859	0.0174792
589.937	0.0173694
590.015	0.0174474
590.093	0.0176434
590.172	0.0176414
590.250	0.0175198
590.328	0.0175465
590.406	0.0176788
590.484	0.0176903
590.562	0.0176661
590.640	0.0175256
590.718	0.0177242
590.797	0.0177254
590.875	0.0177412
590.953	0.0178761
591.031	0.0177441
591.109	0.0176860
591.187	0.0177883
591.265	0.0176871
591.343	0.0178371
591.422	0.0178539
591.500	0.0178556
591.578	0.0179334
591.656	0.0178167
591.734	0.0177274
591.812	0.0179501
591.890	0.0179025
591.968	0.0178161
592.047	0.0178128
592.125	0.0179097
592.203	0.0178508
592.281	0.0178661
592.359	0.0178725
592.437	0.0178492
592.515	0.0179382
592.593	0.0180145
592.672	0.0179229
592.750	0.0178176
592.828	0.0178274
592.906	0.0178732
592.984	0.0178468
593.062	0.0178937
593.140	0.0179504
593.218	0.0178065
593.297	0.0178338
593.375	0.0178046
593.453	0.0177477
593.531	0.0178691
593.609	0.0178100
593.687	0.0178324
593.765	0.0178532
593.843	0.0177858
593.922	0.0177595
594.000	0.0178467
594.078	0.0178984
594.156	0.0177454
594.234	0.0178570
594.312	0.0177357
594.390	0.0178199
594.468	0.0177330
594.547	0.0176892
594.625	0.0177116
594.703	0.0177019
594.781	0.0175706
594.859	0.0176163
594.937	0.0177158
595.015	0.0176824
595.093	0.0175984
595.172	0.0176619
595.250	0.0176432
595.328	0.0178026
595.406	0.0176625
595.484	0.0175383
595.562	0.0176958
595.640	0.0178339
595.718	0.0176115
595.797	0.0177418
595.875	0.0177128
595.953	0.0175306
596.031	0.0177398
596.109	0.0177085
596.187	0.0176942
596.265	0.0177274
596.343	0.0176743
596.422	0.0176964
596.500	0.0177543
596.578	0.0175256
596.656	0.0177352
596.734	0.0176136
596.812	0.0176620
596.890	0.0174835
596.968	0.0176426
597.047	0.0174598
597.125	0.0176974
597.203	0.0174543
597.281	0.0173881
597.359	0.0175867
597.437	0.0176029
597.515	0.0174197
597.593	0.0174594
597.672	0.0174865
597.750	0.0175678
597.828	0.0174281
597.906	0.0174847
597.984	0.0174282
598.062	0.0175828
598.140	0.0176183
598.218	0.0176139
598.297	0.0176478
598.375	0.0174891
598.453	0.0176466
598.531	0.0176949
598.609	0.0175791
598.687	0.0175561
598.765	0.0177404
598.843	0.0177492
598.922	0.0176623
599.000	0.0177262
599.078	0.0176351
599.156	0.0177168
599.234	0.0176210
599.312	0.0177028
599.390	0.0178009
599.468	0.0177193
599.547	0.0177126
599.625	0.0177275
599.703	0.0177182
599.781	0.0178057
599.859	0.0177522
599.937	0.0179203
600.015	0.0178960
600.093	0.0177135
600.172	0.0178802
600.250	0.0179721
600.328	0.0179659
600.406	0.0179829
600.484	0.0179548
600.562	0.0178744
600.640	0.0178722
600.718	0.0178087
600.797	0.0178908
600.875	0.0178815
600.953	0.0178291
601.031	0.0179140
601.109	0.0178768
601.187	0.0179647
601.265	0.0178419
601.343	0.0177187
601.422	0.0178143
601.500	0.0178926
601.578	0.0176913
601.656	0.0177505
601.734	0.0176661
601.812	0.0179131
601.890	0.0178071
601.968	0.0177397
602.047	0.0179108
602.125	0.0178342
602.203	0.0178362
602.281	0.0177740
602.359	0.0178480
602.437	0.0177853
602.515	0.0177818
602.593	0.0178633
602.672	0.0178271
602.750	0.0178326
602.828	0.0178504
602.906	0.0178552
602.984	0.0178590
603.062	0.0178191
603.140	0.0179476
603.218	0.0178764
603.297	0.0177409
603.375	0.0176959
603.453	0.0176830
603.531	0.0177847
603.609	0.0178280
603.687	0.0177438
603.765	0.0178265
603.843	0.0177421
603.922	0.0178275
604.000	0.0176709
604.078	0.0177076
604.156	0.0177614
604.234	0.0177481
604.312	0.0177608
604.390	0.0177159
604.468	0.0178118
604.547	0.0177093
604.625	0.0177992
604.703	0.0178748
604.781	0.0178557
604.859	0.0177481
604.937	0.0178390
605.015	0.0176720
605.093	0.0177251
605.172	0.0176968
605.250	0.0179311
605.328	0.0178972
605.406	0.0178085
605.484	0.0177206
605.562	0.0178609
605.640	0.0178069
605.718	0.0178995
605.797	0.0177612
605.875	0.0176889
605.953	0.0177335
606.031	0.0176673
606.109	0.0177777
606.187	0.0177854
606.265	0.0177212
606.343	0.0176138
606.422	0.0176881
606.500	0.0176404
606.578	0.0176688
606.656	0.0176811
606.734	0.0176792
606.812	0.0176437
606.890	0.0176009
606.968	0.0175912
607.047	0.0176688
607.125	0.0175426
607.203	0.0176691
607.281	0.0175987
607.359	0.0177338
607.437	0.0178030
607.515	0.0177084
607.593	0.0175420
607.672	0.0177231
607.750	0.0177655
607.828	0.0176998
607.906	0.0177027
607.984	0.0177784
608.062	0.0179160
608.140	0.0178214
608.218	0.0177451
608.297	0.0177930
608.375	0.0178065
608.453	0.0179041
608.531	0.0179574
608.609	0.0179313
608.687	0.0178741
608.765	0.0179073
608.843	0.0178750
608.922	0.0178693
609.000	0.0179755
609.078	0.0179260
609.156	0.0179177
609.234	0.0179182
609.312	0.0178707
609.390	0.0178944
609.468	0.0179317
609.547	0.0179679
609.625	0.0178142
609.703	0.0177619
609.781	0.0176734
609.859	0.0177067
609.937	0.0177181
610.015	0.0177649
610.093	0.0177016
610.172	0.0177796
610.250	0.0178530
610.328	0.0177473
610.406	0.0177435
610.484	0.0176926
610.562	0.0176860
610.640	0.0176868
610.718	0.0177240
610.797	0.0176260
610.875	0.0177449
610.953	0.0176849
611.031	0.0177966
611.109	0.0176496
611.187	0.0176679
611.265	0.0175877
611.343	0.0176833
611.422	0.0175599
611.500	0.0177241
611.578	0.0176994
611.656	0.0176733
611.734	0.0176948
611.812	0.0175797
611.890	0.0175526
611.968	0.0175454
612.047	0.0174670
612.125	0.0175974
612.203	0.0175153
612.281	0.0175349
612.359	0.0175974
612.437	0.0174936
612.515	0.0174090
612.593	0.0173978
612.672	0.0174617
612.750	0.0173727
612.828	0.0174539
612.906	0.0173626
612.984	0.0174599
613.062	0.0173630
613.140	0.0173241
613.218	0.0173987
613.297	0.0172440
613.375	0.0173520
613.453	0.0173182
613.531	0.0171828
613.609	0.0173167
613.687	0.0172699
613.765	0.0173214
613.843	0.0174468
613.922	0.0174573
614.000	0.0173029
614.078	0.0172952
614.156	0.0172391
614.234	0.0172708
614.312	0.0174468
614.390	0.0172926
614.468	0.0173536
614.547	0.0174291
614.625	0.0172900
614.703	0.0171731
614.781	0.0174542
614.859	0.0175100
614.937	0.0173013
615.015	0.0172535
615.093	0.0174192
615.172	0.0174092
615.250	0.0173787
615.328	0.0173742
615.406	0.0174062
615.484	0.0174043
615.562	0.0174419
615.640	0.0173459
615.718	0.0175512
615.797	0.0174815
615.875	0.0174956
615.953	0.0175481
616.031	0.0176404
616.109	0.0175731
616.187	0.0174758
616.265	0.0176726
616.343	0.0176951
616.422	0.0176025
616.500	0.0175243
616.578	0.0176778
616.656	0.0175373
616.734	0.0176302
616.812	0.0176669
616.890	0.0175176
616.968	0.0177332
617.047	0.0175333
617.125	0.0175928
617.203	0.0176541
617.281	0.0177011
617.359	0.0176991
617.437	0.0177230
617.515	0.0177209
617.593	0.0176602
617.672	0.0177934
617.750	0.0176110
617.828	0.0176611
617.906	0.0176646
617.984	0.0177310
618.062	0.0178887
618.140	0.0178982
618.218	0.0176965
618.297	0.0179882
618.375	0.0177761
618.453	0.0177837
618.531	0.0177814
618.609	0.0176916
618.687	0.0180003
618.765	0.0177649
618.843	0.0178430
618.922	0.0178403
619.000	0.0178510
619.078	0.0179122
619.156	0.0178714
619.234	0.0178757
619.312	0.0179242
619.390	0.0177554
619.468	0.0179259
619.547	0.0179168
619.625	0.0178186
619.703	0.0177890
619.781	0.0178178
619.859	0.0178387
619.937	0.0178056
620.015	0.0179430
620.093	0.0178400
620.172	0.0178796
620.250	0.0177454
620.328	0.0177289
620.406	0.0178421
620.484	0.0177740
620.562	0.0177973
620.640	0.0178199
620.718	0.0177686
620.797	0.0177609
620.875	0.0177046
620.953	0.0179167
621.031	0.0178572
621.109	0.0178127
621.187	0.0177538
621.265	0.0178705
621.343	0.0176474
621.422	0.0176421
621.500	0.0177692
621.578	0.0177733
621.656	0.0178511
621.734	0.0176693
621.812	0.0178033
621.890	0.0176827
621.968	0.0176043
622.047	0.0176114
622.125	0.0178360
622.203	0.0177154
622.281	0.0176008
622.359	0.0177007
622.437	0.0176256
622.515	0.0177180
622.593	0.0176638
622.672	0.0176720
622.750	0.0175744
622.828	0.0177062
622.906	0.0176992
622.984	0.0174634
623.062	0.0176108
623.140	0.0176030
623.218	0.0175273
623.297	0.0176229
623.375	0.0177502
623.453	0.0177133
623.531	0.0176448
623.609	0.0176516
623.687	0.0177572
623.765	0.0176845
623.843	0.0175253
623.922	0.0175420
624.000	0.0177818
624.078	0.0176771
624.156	0.0175819
624.234	0.0177155
624.312	0.0175878
624.390	0.0176053
624.468	0.0176752
624.547	0.0176550
624.625	0.0177171
624.703	0.0175968
624.781	0.0176540
624.859	0.0175741
624.937	0.0177048
625.015	0.0177486
625.093	0.0176537
625.172	0.0175417
625.250	0.0176617
625.328	0.0176328
625.406	0.0175671
625.484	0.0177433
625.562	0.0178323
625.640	0.0177655
625.718	0.0177528
625.797	0.0177632
625.875	0.0176712
625.953	0.0177064
626.031	0.0177203
626.109	0.0177065
626.187	0.0176785
626.265	0.0178635
626.343	0.0176908
626.422	0.0178966
626.500	0.0179574
626.578	0.0177708
626.656	0.0178680
626.734	0.0178042
626.812	0.0178093
626.890	0.0178291
626.968	0.0179040
627.047	0.0179358
627.125	0.0178573
627.203	0.0177824
627.281	0.0179166
627.359	0.0179102
627.437	0.0179273
627.515	0.0179270
627.593	0.0179906
627.672	0.0179202
627.750	0.0180224
627.828	0.0180430
627.906	0.0180383
627.984	0.0178909
628.062	0.0178685
628.140	0.0178644
628.218	0.0179980
628.297	0.0181071
628.375	0.0179157
628.453	0.0181030
628.531	0.0180317
628.609	0.0180068
628.687	0.0180024
628.765	0.0180643
628.843	0.0178942
628.922	0.0180122
629.000	0.0181651
629.078	0.0179478
629.156	0.0179152
629.234	0.0179530
629.312	0.0178944
629.390	0.0179536
629.468	0.0180314
629.547	0.0179874
629.625	0.0179803
629.703	0.0179627
629.781	0.0178570
629.859	0.0180309
629.937	0.0182174
630.015	0.0180325
630.093	0.0179548
630.172	0.0180998
630.250	0.0181187
630.328	0.0180386
630.406	0.0180746
630.484	0.0180575
630.562	0.0180782
630.640	0.0179855
630.718	0.0178602
630.797	0.0181532
630.875	0.0180136
630.953	0.0178989
631.031	0.0180396
631.109	0.0179556
631.187	0.0179560
631.265	0.0181097
631.343	0.0179088
631.422	0.0178820
631.500	0.0179939
631.578	0.0178647
631.656	0.0179441
631.734	0.0179706
631.812	0.0178294
631.890	0.0178917
631.968	0.0177933
632.047	0.0178009
632.125	0.0178171
632.203	0.0177924
632.281	0.0178103
632.359	0.0178056
632.437	0.0178006
632.515	0.0178236
632.593	0.0177702
632.672	0.0176767
632.750	0.0175934
632.828	0.0177634
632.906	0.0177134
632.984	0.0176905
633.062	0.0176329
633.140	0.0177148
633.218	0.0175699
633.297	0.0175983
633.375	0.0176802
633.453	0.0175252
633.531	0.0174418
633.609	0.0175182
633.687	0.0173135
633.765	0.0174725
633.843	0.0175056
633.922	0.0174100
634.000	0.0172447
634.078	0.0173739
634.156	0.0174004
634.234	0.0174099
634.312	0.0173515
634.390	0.0174384
634.468	0.0174105
634.547	0.0174497
634.625	0.0174089
634.703	0.0174017
634.781	0.0173650
634.859	0.0175028
634.937	0.0176060
635.015	0.0174899
635.093	0.0174731
635.172	0.0174753
635.250	0.0174303
635.328	0.0174252
635.406	0.0175363
635.484	0.0175956
635.562	0.0175098
635.640	0.0175995
635.718	0.0174944
635.797	0.0175451
635.875	0.0175428
635.953	0.0176605
636.031	0.0176804
636.109	0.0176199
636.187	0.0177780
636.265	0.0176602
636.343	0.0176938
636.422	0.0176451
636.500	0.0177096
636.578	0.0177898
636.656	0.0179439
636.734	0.0178336
636.812	0.0178592
636.890	0.0178354
636.968	0.0178734
637.047	0.0179579
637.125	0.0178865
637.203	0.0179997
637.281	0.0178202
637.359	0.0179796
637.437	0.0179411
637.515	0.0180850
637.593	0.0179547
637.672	0.0180563
637.750	0.0177030
637.828	0.0177908
637.906	0.0179826
637.984	0.0178672
638.062	0.0179456
638.140	0.0178456
638.218	0.0179482
638.297	0.0179709
638.375	0.0178429
638.453	0.0177435
638.531	0.0176464
638.609	0.0178738
638.687	0.0177068
638.765	0.0177432
638.843	0.0177193
638.922	0.0178310
639.000	0.0179462
639.078	0.0178825
639.156	0.0176957
639.234	0.0176471
639.312	0.0177280
639.390	0.0178484
639.468	0.0177094
639.547	0.0176817
639.625	0.0178292
639.703	0.0177264
639.781	0.0176683
639.859	0.0178062
639.937	0.0177495
640.015	0.0176928
640.093	0.0176485
640.172	0.0178276
640.250	0.0178512
640.328	0.0177525
640.406	0.0178643
640.484	0.0178120
640.562	0.0178008
640.640	0.0178494
640.718	0.0178226
640.797	0.0178529
640.875	0.0178502
640.953	0.0177964
641.031	0.0178293
641.109	0.0178398
641.187	0.0179546
641.265	0.0178613
641.343	0.0177605
641.422	0.0177235
641.500	0.0178392
641.578	0.0178264
641.656	0.0176257
641.734	0.0176278
641.812	0.0177585
641.890	0.0178484
641.968	0.0177376
642.047	0.0177215
642.125	0.0177225
642.203	0.0175909
642.281	0.0176395
642.359	0.0176993
642.437	0.0176425
642.515	0.0177223
642.593	0.0176667
642.672	0.0175666
642.750	0.0176266
642.828	0.0175959
642.906	0.0177470
642.984	0.0176019
643.062	0.0176463
643.140	0.0176608
643.218	0.0174939
643.297	0.0176720
643.375	0.0176237
643.453	0.0176861
643.531	0.0176170
643.609	0.0177186
643.687	0.0177322
643.765	0.0177068
643.843	0.0176337
643.922	0.0176137
644.000	0.0176958
644.078	0.0174854
644.156	0.0176643
644.234	0.0177332
644.312	0.0177925
644.390	0.0178237
644.468	0.0177761
644.547	0.0177932
644.625	0.0177934
644.703	0.0177633
644.781	0.0178091
644.859	0.0177542
644.937	0.0176772
645.015	0.0178313
645.093	0.0177493
645.172	0.0176570
645.250	0.0177112
645.328	0.0177168
645.406	0.0177057
645.484	0.0176083
645.562	0.0177117
645.640	0.0177494
645.718	0.0176791
645.797	0.0176912
645.875	0.0176238
645.953	0.0176317
646.031	0.0178472
646.109	0.0177909
646.187	0.0176675
646.265	0.0179057
646.343	0.0178391
646.422	0.0177780
646.500	0.0178523
646.578	0.0178899
646.656	0.0179173
646.734	0.0178751
646.812	0.0177753
646.890	0.0177644
646.968	0.0179301
647.047	0.0178342
647.125	0.0176922
647.203	0.0179228
647.281	0.0180325
647.359	0.0177055
647.437	0.0176767
647.515	0.0177956
647.593	0.0177092
647.672	0.0177650
647.750	0.0178361
647.828	0.0177105
647.906	0.0176968
647.984	0.0177436
648.062	0.0177698
648.140	0.0178430
648.218	0.0176689
648.297	0.0177211
648.375	0.0178481
648.453	0.0178523
648.531	0.0178516
648.609	0.0179227
648.687	0.0180003
648.765	0.0179358
648.843	0.0178510
648.922	0.0177927
649.000	0.0179100
649.078	0.0178831
649.156	0.0179649
649.234	0.0178235
649.312	0.0180128
649.390	0.0179421
649.468	0.0179432
649.547	0.0179668
649.625	0.0177779
649.703	0.0177563
649.781	0.0178917
649.859	0.0178134
649.937	0.0178585
650.015	0.0178182
650.093	0.0177656
650.172	0.0178462
650.250	0.0176842
650.328	0.0177190
650.406	0.0177711
650.484	0.0177930
650.562	0.0176902
650.640	0.0177602
650.718	0.0176797
650.797	0.0177490
650.875	0.0177487
650.953	0.0176965
651.031	0.0176888
651.109	0.0178585
651.187	0.0177534
651.265	0.0177790
651.343	0.0177306
651.422	0.0178127
651.500	0.0178807
651.578	0.0178339
651.656	0.0178922
651.734	0.0177956
651.812	0.0178574
651.890	0.0179409
651.968	0.0177718
652.047	0.0177440
652.125	0.0178696
652.203	0.0178667
652.281	0.0177349
652.359	0.0178442
652.437	0.0179005
652.515	0.0177268
652.593	0.0177879
652.672	0.0178883
652.750	0.0179158
652.828	0.0178277
652.906	0.0179079
652.984	0.0178716
653.062	0.0177924
653.140	0.0176964
653.218	0.0177203
653.297	0.0177959
653.375	0.0178480
653.453	0.0177650
653.531	0.0178854
653.609	0.0178505
653.687	0.0177142
653.765	0.0177457
653.843	0.0179048
653.922	0.0177544
654.000	0.0177314
654.078	0.0177302
654.156	0.0178591
654.234	0.0177094
654.312	0.0178048
654.390	0.0177832
654.468	0.0178011
654.547	0.0178037
654.625	0.0177826
654.703	0.0176247
654.781	0.0177210
654.859	0.0175934
654.937	0.0176766
655.015	0.0177122
655.093	0.0175316
655.172	0.0175366
655.250	0.0175319
655.328	0.0174975
655.406	0.0174580
655.484	0.0174990
655.562	0.0175469
655.640	0.0175377
655.718	0.0174357
655.797	0.0174943
655.875	0.0172984
655.953	0.0174094
656.031	0.0175729
656.109	0.0175768
656.187	0.0174168
656.265	0.0175784
656.343	0.0175420
656.422	0.0174550
656.500	0.0174140
656.578	0.0174077
656.656	0.0174058
656.734	0.0174952
656.812	0.0174640
656.890	0.0175142
656.968	0.0174898
657.047	0.0174948
657.125	0.0175206
657.203	0.0176125
657.281	0.0176172
657.359	0.0175232
657.437	0.0176901
657.515	0.0175125
657.593	0.0173849
657.672	0.0176799
657.750	0.0175552
657.828	0.0177155
657.906	0.0176432
657.984	0.0174895
658.062	0.0175745
658.140	0.0177416
658.218	0.0177618
658.297	0.0176319
658.375	0.0176533
658.453	0.0176300
658.531	0.0176162
658.609	0.0177824
658.687	0.0177041
658.765	0.0175647
658.843	0.0178529
658.922	0.0177424
659.000	0.0177168
659.078	0.0177811
659.156	0.0177054
659.234	0.0178160
659.312	0.0179360
659.390	0.0178070
659.468	0.0178725
659.547	0.0178287
659.625	0.0177079
659.703	0.0179382
659.781	0.0177918
659.859	0.0177067
659.937	0.0177418
660.015	0.0178040
660.093	0.0180117
660.172	0.0179639
660.250	0.0178200
660.328	0.0178159
660.406	0.0177146
660.484	0.0178073
660.562	0.0178387
660.640	0.0178039
660.718	0.0179008
660.797	0.0179072
660.875	0.0178712
660.953	0.0176942
661.031	0.0177428
661.109	0.0178250
661.187	0.0179111
661.265	0.0178683
661.343	0.0178841
661.422	0.0177659
661.500	0.0177432
661.578	0.0177689
661.656	0.0179101
661.734	0.0179013
661.812	0.0178417
661.890	0.0177745
661.968	0.0177796
662.047	0.0177147
662.125	0.0178507
662.203	0.0177812
662.281	0.0177061
662.359	0.0177818
662.437	0.0177081
662.515	0.0177829
662.593	0.0177199
662.672	0.0176649
662.750	0.0175121
662.828	0.0176684
662.906	0.0176814
662.984	0.0175688
663.062	0.0175764
663.140	0.0175764
663.218	0.0177164
663.297	0.0177561
663.375	0.0176125
663.453	0.0176323
663.531	0.0175677
663.609	0.0175652
663.687	0.0175919
663.765	0.0175572
663.843	0.0175447
663.922	0.0174091
664.000	0.0174589
664.078	0.0175001
664.156	0.0175540
664.234	0.0175334
664.312	0.0174285
664.390	0.0173530
664.468	0.0175605
664.547	0.0176292
664.625	0.0174626
664.703	0.0174931
664.781	0.0174281
664.859	0.0175986
664.937	0.0175015
665.015	0.0176015
665.093	0.0175949
665.172	0.0175906
665.250	0.0175159
665.328	0.0175092
665.406	0.0175644
665.484	0.0175294
665.562	0.0176449
665.640	0.0176045
665.718	0.0176620
665.797	0.0175956
665.875	0.0176936
665.953	0.0175382
666.031	0.0176525
666.109	0.0176292
666.187	0.0175968
666.265	0.0175284
666.343	0.0176413
666.422	0.0175689
666.500	0.0176600
666.578	0.0176521
666.656	0.0177062
666.734	0.0177429
666.812	0.0176029
666.890	0.0176456
666.968	0.0177010
667.047	0.0176593
667.125	0.0177422
667.203	0.0176008
667.281	0.0176578
667.359	0.0177077
667.437	0.0177160
667.515	0.0178371
667.593	0.0177532
667.672	0.0178213
667.750	0.0178297
667.828	0.0176431
667.906	0.0176469
667.984	0.0178008
668.062	0.0177225
668.140	0.0177650
668.218	0.0176926
668.297	0.0178036
668.375	0.0177306
668.453	0.0177077
668.531	0.0177452
668.609	0.0175693
668.687	0.0176863
668.765	0.0178615
668.843	0.0177035
668.922	0.0178376
669.000	0.0177362
669.078	0.0178825
669.156	0.0177844
669.234	0.0175970
669.312	0.0176572
669.390	0.0177387
669.468	0.0177847
669.547	0.0176863
669.625	0.0178214
669.703	0.0179449
669.781	0.0177450
669.859	0.0177135
669.937	0.0176267
670.015	0.0177092
670.093	0.0177917
670.172	0.0176929
670.250	0.0177941
670.328	0.0176408
670.406	0.0177322
670.484	0.0178037
670.562	0.0177428
670.640	0.0177708
670.718	0.0177573
670.797	0.0177409
670.875	0.0177271
670.953	0.0177999
671.031	0.0178511
671.109	0.0177550
671.187	0.0178411
671.265	0.0177905
671.343	0.0178355
671.422	0.0178764
671.500	0.0178086
671.578	0.0176218
671.656	0.0177711
671.734	0.0178050
671.812	0.0177856
671.890	0.0177059
671.968	0.0176563
672.047	0.0176411
672.125	0.0177130
672.203	0.0177023
672.281	0.0176566
672.359	0.0176683
672.437	0.0176131
672.515	0.0176015
672.593	0.0175932
672.672	0.0175709
672.750	0.0175558
672.828	0.0175460
672.906	0.0175428
672.984	0.0175607
673.062	0.0176011
673.140	0.0176579
673.218	0.0174657
673.297	0.0176128
673.375	0.0175898
673.453	0.0175721
673.531	0.0174978
673.609	0.0175085
673.687	0.0176121
673.765	0.0175478
673.843	0.0176093
673.922	0.0174942
674.000	0.0174562
674.078	0.0176509
674.156	0.0175224
674.234	0.0175250
674.312	0.0176321
674.390	0.0175179
674.468	0.0175602
674.547	0.0175082
674.625	0.0175282
674.703	0.0174565
674.781	0.0175318
674.859	0.0175182
674.937	0.0175829
675.015	0.0175629
675.093	0.0174959
675.172	0.0174910
675.250	0.0176591
675.328	0.0175518
675.406	0.0175665
675.484	0.0175432
675.562	0.0176293
675.640	0.0176672
675.718	0.0176018
675.797	0.0177386
675.875	0.0177245
675.953	0.0175999
676.031	0.0176686
676.109	0.0176764
676.187	0.0176468
676.265	0.0175938
676.343	0.0176218
676.422	0.0176591
676.500	0.0177737
676.578	0.0175348
676.656	0.0176031
676.734	0.0176596
676.812	0.0176262
676.890	0.0175603
676.968	0.0175269
677.047	0.0174866
677.125	0.0175856
677.203	0.0176000
677.281	0.0174467
677.359	0.0175454
677.437	0.0174992
677.515	0.0175497
677.593	0.0175225
677.672	0.0176079
677.750	0.0174345
677.828	0.0177193
677.906	0.0176125
677.984	0.0176334
678.062	0.0176008
678.140	0.0175449
678.218	0.0174375
678.297	0.0175906
678.375	0.0175906
678.453	0.0175974
678.531	0.0177422
678.609	0.0174818
678.687	0.0175979
678.765	0.0177471
678.843	0.0176411
678.922	0.0175961
679.000	0.0176658
679.078	0.0174606
679.156	0.0177593
679.234	0.0176754
679.312	0.0175647
679.390	0.0177255
679.468	0.0176440
679.547	0.0176665
679.625	0.0176930
679.703	0.0176217
679.781	0.0176812
679.859	0.0176502
679.937	0.0176254
680.015	0.0177216
680.093	0.0177908
680.172	0.0176568
680.250	0.0176450
680.328	0.0175930
680.406	0.0177408
680.484	0.0177732
680.562	0.0177956
680.640	0.0178065
680.718	0.0178245
680.797	0.0178216
680.875	0.0177237
680.953	0.0177898
681.031	0.0178330
681.109	0.0178191
681.187	0.0178677
681.265	0.0178675
681.343	0.0178860
681.422	0.0178677
681.500	0.0178413
681.578	0.0178017
681.656	0.0178445
681.734	0.0177258
681.812	0.0178876
681.890	0.0179137
681.968	0.0177647
682.047	0.0178386
682.125	0.0177995
682.203	0.0179015
682.281	0.0178719
682.359	0.0178239
682.437	0.0179220
682.515	0.0177957
682.593	0.0178606
682.672	0.0177471
682.750	0.0178385
682.828	0.0178540
682.906	0.0176929
682.984	0.0177219
683.062	0.0180006
683.140	0.0177814
683.218	0.0177817
683.297	0.0177032
683.375	0.0176782
683.453	0.0178517
683.531	0.0177597
683.609	0.0177369
683.687	0.0177222
683.765	0.0177985
683.843	0.0177446
683.922	0.0177672
684.000	0.0178530
684.078	0.0177859
684.156	0.0177010
684.234	0.0178246
684.312	0.0177399
684.390	0.0176904
684.468	0.0176579
684.547	0.0176567
684.625	0.0176080
684.703	0.0175045
684.781	0.0174115
684.859	0.0175581
684.937	0.0176804
685.015	0.0175857
685.093	0.0175438
685.172	0.0175005
685.250	0.0173841
685.328	0.0173691
685.406	0.0176595
685.484	0.0174924
685.562	0.0175285
685.640	0.0176640
685.718	0.0175637
685.797	0.0175899
685.875	0.0176247
685.953	0.0174143
686.031	0.0175527
686.109	0.0174573
686.187	0.0174379
686.265	0.0175839
686.343	0.0174743
686.422	0.0175271
686.500	0.0174144
686.578	0.0174738
686.656	0.0175248
686.734	0.0173902
686.812	0.0174045
686.890	0.0174332
686.968	0.0174217
687.047	0.0175053
687.125	0.0175673
687.203	0.0175425
687.281	0.0175076
687.359	0.0174573
687.437	0.0173698
687.515	0.0177174
687.593	0.0175665
687.672	0.0176467
687.750	0.0175581
687.828	0.0176469
687.906	0.0177424
687.984	0.0176823
688.062	0.0176840
688.140	0.0177866
688.218	0.0176528
688.297	0.0177924
688.375	0.0178049
688.453	0.0177386
688.531	0.0178574
688.609	0.0177473
688.687	0.0179084
688.765	0.0179213
688.843	0.0178925
688.922	0.0176638
689.000	0.0179002
689.078	0.0178860
689.156	0.0177957
689.234	0.0177977
689.312	0.0177003
689.390	0.0177850
689.468	0.0178299
689.547	0.0179023
689.625	0.0178246
689.703	0.0177727
689.781	0.0177111
689.859	0.0178622
689.937	0.0179646
690.015	0.0177679
690.093	0.0177948
690.172	0.0178290
690.250	0.0177696
690.328	0.0176888
690.406	0.0177016
690.484	0.0178315
690.562	0.0177706
690.640	0.0176888
690.718	0.0176109
690.797	0.0176890
690.875	0.0174523
690.953	0.0176691
691.031	0.0175507
691.109	0.0176576
691.187	0.0175517
691.265	0.0176344
691.343	0.0175803
691.422	0.0174954
691.500	0.0175763
691.578	0.0175903
691.656	0.0176243
691.734	0.0176017
691.812	0.0175710
691.890	0.0177000
691.968	0.0177583
692.047	0.0176738
692.125	0.0177962
692.203	0.0177622
692.281	0.0177782
692.359	0.0177906
692.437	0.0178038
692.515	0.0177328
692.593	0.0176003
692.672	0.0177645
692.750	0.0176631
692.828	0.0177853
692.906	0.0179144
692.984	0.0178275
693.062	0.0177119
693.140	0.0175115
693.218	0.0176416
693.297	0.0177428
693.375	0.0177118
693.453	0.0177320
693.531	0.0176754
693.609	0.0175691
693.687	0.0175180
693.765	0.0175856
693.843	0.0177552
693.922	0.0177232
694.000	0.0176382
694.078	0.0176517
694.156	0.0177470
694.234	0.0178303
694.312	0.0177278
694.390	0.0176750
694.468	0.0176111
694.547	0.0176490
694.625	0.0176868
694.703	0.0176678
694.781	0.0175987
694.859	0.0177525
694.937	0.0178571
695.015	0.0177767
695.093	0.0176706
695.172	0.0177554
695.250	0.0177702
695.328	0.0176797
695.406	0.0176855
695.484	0.0178873
695.562	0.0177487
695.640	0.0177652
695.718	0.0177487
695.797	0.0176674
695.875	0.0177890
695.953	0.0177206
696.031	0.0177045
696.109	0.0177237
696.187	0.0175901
696.265	0.0176511
696.343	0.0176212
696.422	0.0176644
696.500	0.0176073
696.578	0.0177283
696.656	0.0175557
696.734	0.0175611
696.812	0.0176020
696.890	0.0175326
696.968	0.0175796
697.047	0.0175589
697.125	0.0176463
697.203	0.0174897
697.281	0.0174244
697.359	0.0176269
697.437	0.0176606
697.515	0.0176276
697.593	0.0176402
697.672	0.0176150
697.750	0.0177100
697.828	0.0175430
697.906	0.0175690
697.984	0.0178086
698.062	0.0177275
698.140	0.0176461
698.218	0.0178329
698.297	0.0175787
698.375	0.0177946
698.453	0.0177023
698.531	0.0178111
698.609	0.0174834
698.687	0.0176801
698.765	0.0177299
698.843	0.0177818
698.922	0.0175405
699.000	0.0176122
699.078	0.0177081
699.156	0.0175882
699.234	0.0175327
699.312	0.0175694
699.390	0.0176975
699.468	0.0175644
699.547	0.0178359
699.625	0.0175565
699.703	0.0176186
699.781	0.0177295
699.859	0.0177449
699.937	0.0175844
700.015	0.0175603
700.093	0.0177787
700.172	0.0176550
700.250	0.0175814
700.328	0.0177838
700.406	0.0176931
700.484	0.0175429
700.562	0.0176416
700.640	0.0176418
700.718	0.0176681
700.797	0.0176686
700.875	0.0176942
700.953	0.0175852
701.031	0.0177216
701.109	0.0175586
701.187	0.0175056
701.265	0.0175695
701.343	0.0175592
701.422	0.0176157
701.500	0.0173733
701.578	0.0177050
701.656	0.0175911
701.734	0.0176102
701.812	0.0176432
701.890	0.0176994
701.968	0.0175472
702.047	0.0176064
702.125	0.0177332
702.203	0.0176498
702.281	0.0176498
702.359	0.0176800
702.437	0.0178394
702.515	0.0176474
702.593	0.0177001
702.672	0.0177900
702.750	0.0179063
702.828	0.0176836
702.906	0.0177887
702.984	0.0176846
703.062	0.0177711
703.140	0.0177699
703.218	0.0179419
703.297	0.0176801
703.375	0.0177141
703.453	0.0178194
703.531	0.0178171
703.609	0.0175951
703.687	0.0177647
703.765	0.0177344
703.843	0.0177055
703.922	0.0176247
704.000	0.0177329
704.078	0.0176756
704.156	0.0177258
704.234	0.0175848
704.312	0.0176672
704.390	0.0176136
704.468	0.0177033
704.547	0.0176931
704.625	0.0176667
704.703	0.0176411
704.781	0.0176610
704.859	0.0175495
704.937	0.0176004
705.015	0.0174957
705.093	0.0176778
705.172	0.0177364
705.250	0.0176126
705.328	0.0176311
705.406	0.0177953
705.484	0.0177047
705.562	0.0177298
705.640	0.0177684
705.718	0.0178391
705.797	0.0178728
705.875	0.0179590
705.953	0.0178786
706.031	0.0178241
706.109	0.0177328
706.187	0.0178480
706.265	0.0178329
706.343	0.0177271
706.422	0.0179176
706.500	0.0177398
706.578	0.0178009
706.656	0.0178693
706.734	0.0178024
706.812	0.0177724
706.890	0.0178046
706.968	0.0176945
707.047	0.0177695
707.125	0.0177705
707.203	0.0176093
707.281	0.0176370
707.359	0.0178439
707.437	0.0177703
707.515	0.0177335
707.593	0.0176709
707.672	0.0177948
707.750	0.0177180
707.828	0.0177482
707.906	0.0178573
707.984	0.0177827
708.062	0.0178890
708.140	0.0178718
708.218	0.0177754
708.297	0.0178048
708.375	0.0178611
708.453	0.0179265
708.531	0.0180099
708.609	0.0178874
708.687	0.0178938
708.765	0.0180223
708.843	0.0179450
708.922	0.0178588
709.000	0.0179922
709.078	0.0180512
709.156	0.0178379
709.234	0.0179028
709.312	0.0179047
709.390	0.0178515
709.468	0.0179108
709.547	0.0179189
709.625	0.0176629
709.703	0.0178565
709.781	0.0177926
709.859	0.0178292
709.937	0.0175481
710.015	0.0175673
710.093	0.0175776
710.172	0.0175755
710.250	0.0175671
710.328	0.0174654
710.406	0.0176585
710.484	0.0176783
710.562	0.0175829
710.640	0.0177317
710.718	0.0176229
710.797	0.0177232
710.875	0.0177438
710.953	0.0176969
711.031	0.0177925
711.109	0.0178587
711.187	0.0178461
711.265	0.0178272
711.343	0.0179509
711.422	0.0180492
711.500	0.0180064
711.578	0.0180639
711.656	0.0180450
711.734	0.0180425
711.812	0.0180918
711.890	0.0180470
711.968	0.0180670
712.047	0.0181593
712.125	0.0180325
712.203	0.0181065
712.281	0.0180133
712.359	0.0179955
712.437	0.0180544
712.515	0.0180789
712.593	0.0180693
712.672	0.0179440
712.750	0.0179833
712.828	0.0178518
712.906	0.0177896
712.984	0.0177767
713.062	0.0176730
713.140	0.0175935
713.218	0.0177107
713.297	0.0176802
713.375	0.0176884
713.453	0.0176682
713.531	0.0178230
713.609	0.0178442
713.687	0.0177482
713.765	0.0176748
713.843	0.0177223
713.922	0.0177259
714.000	0.0178116
714.078	0.0177715
714.156	0.0178848
714.234	0.0176733
714.312	0.0177660
714.390	0.0178491
714.468	0.0177859
714.547	0.0178256
714.625	0.0177969
714.703	0.0177957
714.781	0.0180034
714.859	0.0178143
714.937	0.0177938
715.015	0.0178959
715.093	0.0178937
715.172	0.0178289
715.250	0.0177045
715.328	0.0178304
715.406	0.0177068
715.484	0.0176754
715.562	0.0178400
715.640	0.0177508
715.718	0.0177150
715.797	0.0177582
715.875	0.0177578
715.953	0.0178721
716.031	0.0176360
716.109	0.0179168
716.187	0.0179137
716.265	0.0176982
716.343	0.0176514
716.422	0.0176712
716.500	0.0177992
716.578	0.0176999
716.656	0.0178263
716.734	0.0177498
716.812	0.0175505
716.890	0.0177251
716.968	0.0176574
717.047	0.0175889
717.125	0.0176267
717.203	0.0177029
717.281	0.0176006
717.359	0.0176931
717.437	0.0175048
717.515	0.0174594
717.593	0.0175035
717.672	0.0174242
717.750	0.0174723
717.828	0.0175782
717.906	0.0175920
717.984	0.0176906
718.062	0.0176207
718.140	0.0176334
718.218	0.0178500
718.297	0.0177434
718.375	0.0177603
718.453	0.0178425
718.531	0.0179427
718.609	0.0178853
718.687	0.0180261
718.765	0.0180197
718.843	0.0178245
718.922	0.0178110
719.000	0.0177662
719.078	0.0176292
719.156	0.0178292
719.234	0.0179289
719.312	0.0177967
719.390	0.0178083
719.468	0.0177308
719.547	0.0177210
719.625	0.0176986
719.703	0.0177110
719.781	0.0177567
719.859	0.0177526
719.937	0.0178138
720.015	0.0177943
720.093	0.0177219
720.172	0.0177419
720.250	0.0177995
720.328	0.0177353
720.406	0.0177740
720.484	0.0176978
720.562	0.0177501
720.640	0.0176683
720.718	0.0175458
720.797	0.0176008
720.875	0.0177670
720.953	0.0177277
721.031	0.0176886
721.109	0.0177825
721.187	0.0178046
721.265	0.0177540
721.343	0.0176299
721.422	0.0179090
721.500	0.0178486
721.578	0.0177921
721.656	0.0177616
721.734	0.0177518
721.812	0.0179626
721.890	0.0179109
721.968	0.0177809
722.047	0.0178913
722.125	0.0178265
722.203	0.0177132
722.281	0.0177283
722.359	0.0177166
722.437	0.0175837
722.515	0.0176715
722.593	0.0178833
722.672	0.0177710
722.750	0.0176344
722.828	0.0176565
722.906	0.0176119
722.984	0.0175991
723.062	0.0175490
723.140	0.0177040
723.218	0.0175629
723.297	0.0174028
723.375	0.0176026
723.453	0.0175706
723.531	0.0176398
723.609	0.0176670
723.687	0.0176944
723.765	0.0177055
723.843	0.0176765
723.922	0.0177481
724.000	0.0177901
724.078	0.0179892
724.156	0.0177992
724.234	0.0177528
724.312	0.0177718
724.390	0.0178380
724.468	0.0178136
724.547	0.0178699
724.625	0.0180052
724.703	0.0179763
724.781	0.0178355
724.859	0.0177787
724.937	0.0178502
725.015	0.0178737
725.093	0.0179725
725.172	0.0177977
725.250	0.0176575
725.328	0.0177455
725.406	0.0177667
725.484	0.0178701
725.562	0.0176065
725.640	0.0177864
725.718	0.0178521
725.797	0.0177575
725.875	0.0175988
725.953	0.0177557
726.031	0.0177589
726.109	0.0177583
726.187	0.0175326
726.265	0.0175552
726.343	0.0176888
726.422	0.0176204
726.500	0.0176297
726.578	0.0177180
726.656	0.0175734
726.734	0.0175307
726.812	0.0176779
726.890	0.0177101
726.968	0.0176345
727.047	0.0176670
727.125	0.0178217
727.203	0.0178024
727.281	0.0177988
727.359	0.0176093
727.437	0.0176585
727.515	0.0177712
727.593	0.0177452
727.672	0.0177187
727.750	0.0177621
727.828	0.0178486
727.906	0.0178529
727.984	0.0177821
728.062	0.0178372
728.140	0.0179394
728.218	0.0177521
728.297	0.0177164
728.375	0.0176609
728.453	0.0178452
728.531	0.0176868
728.609	0.0175890
728.687	0.0176431
728.765	0.0175449
728.843	0.0174312
728.922	0.0174738
729.000	0.0175449
729.078	0.0176353
729.156	0.0176459
729.234	0.0174793
729.312	0.0177274
729.390	0.0176643
729.468	0.0177239
729.547	0.0177171
729.625	0.0177409
729.703	0.0178032
729.781	0.0177753
729.859	0.0178409
729.937	0.0178316
730.015	0.0177116
730.093	0.0176173
730.172	0.0177801
730.250	0.0176414
730.328	0.0177142
730.406	0.0176022
730.484	0.0175163
730.562	0.0178238
730.640	0.0176359
730.718	0.0175696
730.797	0.0176883
730.875	0.0176402
730.953	0.0177240
731.031	0.0176825
731.109	0.0177471
731.187	0.0176888
731.265	0.0177962
731.343	0.0178490
731.422	0.0179147
731.500	0.0177905
731.578	0.0177946
731.656	0.0177429
731.734	0.0178014
731.812	0.0176832
731.890	0.0177351
731.968	0.0177398
732.047	0.0176426
732.125	0.0177059
732.203	0.0176807
732.281	0.0178294
732.359	0.0177428
732.437	0.0176633
732.515	0.0176233
732.593	0.0176453
732.672	0.0176009
732.750	0.0175814
732.828	0.0176561
732.906	0.0176456
732.984	0.0177239
733.062	0.0179018
733.140	0.0177597
733.218	0.0179430
733.297	0.0179941
733.375	0.0177543
733.453	0.0178088
733.531	0.0179541
733.609	0.0178094
733.687	0.0179063
733.765	0.0180444
733.843	0.0178999
733.922	0.0179182
734.000	0.0180078
734.078	0.0180264
734.156	0.0180282
734.234	0.0178796
734.312	0.0179377
734.390	0.0179929
734.468	0.0180491
734.547	0.0179012
734.625	0.0178810
734.703	0.0178770
734.781	0.0178955
734.859	0.0179623
734.937	0.0178371
735.015	0.0179711
735.093	0.0179839
735.172	0.0180866
735.250	0.0180664
735.328	0.0180323
735.406	0.0181149
735.484	0.0180936
735.562	0.0180979
735.640	0.0180922
735.718	0.0181113
735.797	0.0181233
735.875	0.0182764
735.953	0.0182539
736.031	0.0181863
736.109	0.0181789
736.187	0.0182595
736.265	0.0182478
736.343	0.0180624
736.422	0.0179160
736.500	0.0179209
736.578	0.0179881
736.656	0.0176603
736.734	0.0176212
736.812	0.0175308
736.890	0.0175655
736.968	0.0174469
737.047	0.0173909
737.125	0.0173711
737.203	0.0174728
737.281	0.0173649
737.359	0.0172710
737.437	0.0174176
737.515	0.0172752
737.593	0.0172045
737.672	0.0172935
737.750	0.0172222
737.828	0.0171936
737.906	0.0173621
737.984	0.0174432
738.062	0.0173191
738.140	0.0174590
738.218	0.0176297
738.297	0.0177535
738.375	0.0174928
738.453	0.0177205
738.531	0.0179266
738.609	0.0178083
738.687	0.0178849
738.765	0.0178743
738.843	0.0181715
738.922	0.0180177
739.000	0.0181398
739.078	0.0180747
739.156	0.0180343
739.234	0.0179882
739.312	0.0180238
739.390	0.0178706
739.468	0.0177754
739.547	0.0177806
739.625	0.0176859
739.703	0.0176858
739.781	0.0176816
739.859	0.0175557
739.937	0.0175730
740.015	0.0175810
740.093	0.0176767
740.172	0.0176819
740.250	0.0177409
740.328	0.0176749
740.406	0.0177424
740.484	0.0178257
740.562	0.0178799
740.640	0.0178484
740.718	0.0180841
740.797	0.0181083
740.875	0.0179900
740.953	0.0182427
741.031	0.0181139
741.109	0.0179634
741.187	0.0180340
741.265	0.0180219
741.343	0.0181276
741.422	0.0179065
741.500	0.0178801
741.578	0.0177393
741.656	0.0175153
741.734	0.0175505
741.812	0.0177211
741.890	0.0176530
741.968	0.0173853
742.047	0.0173353
742.125	0.0173676
742.203	0.0175300
742.281	0.0174661
742.359	0.0175092
742.437	0.0174796
742.515	0.0175515
742.593	0.0175841
742.672	0.0176463
742.750	0.0177171
742.828	0.0177402
742.906	0.0177135
742.984	0.0178464
743.062	0.0177424
743.140	0.0178355
743.218	0.0180406
743.297	0.0179780
743.375	0.0179732
743.453	0.0179475
743.531	0.0179258
743.609	0.0181361
743.687	0.0180100
743.765	0.0179556
743.843	0.0179037
743.922	0.0179032
744.000	0.0180267
744.078	0.0178321
744.156	0.0179309
744.234	0.0179343
744.312	0.0178949
744.390	0.0177801
744.468	0.0175807
744.547	0.0176985
744.625	0.0177814
744.703	0.0177864
744.781	0.0178529
744.859	0.0177312
744.937	0.0176308
745.015	0.0176347
745.093	0.0175916
745.172	0.0176839
745.250	0.0176965
745.328	0.0176508
745.406	0.0176286
745.484	0.0177179
745.562	0.0176131
745.640	0.0175834
745.718	0.0177444
745.797	0.0177657
745.875	0.0177124
745.953	0.0178609
746.031	0.0176574
746.109	0.0178127
746.187	0.0175814
746.265	0.0177120
746.343	0.0177705
746.422	0.0175806
746.500	0.0175961
746.578	0.0174947
746.656	0.0174607
746.734	0.0174446
746.812	0.0174002
746.890	0.0173758
746.968	0.0172783
747.047	0.0173003
747.125	0.0172968
747.203	0.0173377
747.281	0.0173132
747.359	0.0174068
747.437	0.0173923
747.515	0.0174919
747.593	0.0173751
747.672	0.0173391
747.750	0.0174795
747.828	0.0173401
747.906	0.0174282
747.984	0.0175294
748.062	0.0176382
748.140	0.0176479
748.218	0.0173997
748.297	0.0174798
748.375	0.0175645
748.453	0.0175877
748.531	0.0176372
748.609	0.0176488
748.687	0.0175454
748.765	0.0175842
748.843	0.0173887
748.922	0.0175050
749.000	0.0174255
749.078	0.0173038
749.156	0.0173316
749.234	0.0172539
749.312	0.0171919
749.390	0.0170207
749.468	0.0171317
749.547	0.0170872
749.625	0.0170669
749.703	0.0171165
749.781	0.0170716
749.859	0.0171764
749.937	0.0171797
750.015	0.0172630
750.093	0.0175987
750.172	0.0175117
750.250	0.0173927
750.328	0.0176265
750.406	0.0177918
750.484	0.0178336
750.562	0.0177131
750.640	0.0177999
750.718	0.0178924
750.797	0.0179353
750.875	0.0179851
750.953	0.0179598
751.031	0.0178456
751.109	0.0178181
751.187	0.0178775
751.265	0.0180411
751.343	0.0178460
751.422	0.0178387
751.500	0.0178968
751.578	0.0177544
751.656	0.0178274
751.734	0.0177444
751.812	0.0176558
751.890	0.0178304
751.968	0.0177113
752.047	0.0176464
752.125	0.0178669
752.203	0.0176146
752.281	0.0176603
752.359	0.0177458
752.437	0.0176701
752.515	0.0175582
752.593	0.0176328
752.672	0.0176195
752.750	0.0175513
752.828	0.0176234
752.906	0.0175668
752.984	0.0176338
753.062	0.0176132
753.140	0.0174969
753.218	0.0175554
753.297	0.0175372
753.375	0.0177285
753.453	0.0176540
753.531	0.0176502
753.609	0.0176310
753.687	0.0176752
753.765	0.0177611
753.843	0.0176666
753.922	0.0175121
754.000	0.0176735
754.078	0.0175497
754.156	0.0175006
754.234	0.0173978
754.312	0.0175153
754.390	0.0177077
754.468	0.0176137
754.547	0.0174497
754.625	0.0174923
754.703	0.0175890
754.781	0.0175342
754.859	0.0176133
754.937	0.0176197
755.015	0.0176082
755.093	0.0177199
755.172	0.0177637
755.250	0.0177728
755.328	0.0177856
755.406	0.0178255
755.484	0.0180116
755.562	0.0180564
755.640	0.0179432
755.718	0.0179398
755.797	0.0179755
755.875	0.0179231
755.953	0.0179832
756.031	0.0179706
756.109	0.0179739
756.187	0.0178776
756.265	0.0179390
756.343	0.0177192
756.422	0.0178284
756.500	0.0178865
756.578	0.0178713
756.656	0.0177416
756.734	0.0177087
756.812	0.0178735
756.890	0.0177279
756.968	0.0176022
757.047	0.0176617
757.125	0.0176459
757.203	0.0176601
757.281	0.0175777
757.359	0.0175449
757.437	0.0177224
757.515	0.0176083
757.593	0.0174486
757.672	0.0175389
757.750	0.0175345
757.828	0.0176420
757.906	0.0173853
757.984	0.0174165
758.062	0.0175719
758.140	0.0175992
758.218	0.0176263
758.297	0.0175420
758.375	0.0175560
758.453	0.0175506
758.531	0.0173909
758.609	0.0174719
758.687	0.0176054
758.765	0.0176886
758.843	0.0175662
758.922	0.0176514
759.000	0.0176914
759.078	0.0176958
759.156	0.0178354
759.234	0.0177610
759.312	0.0178851
759.390	0.0177433
759.468	0.0180123
759.547	0.0180142
759.625	0.0178957
759.703	0.0181392
759.781	0.0180720
759.859	0.0180125
759.937	0.0178601
760.015	0.0178710
760.093	0.0178639
760.172	0.0177748
760.250	0.0177720
760.328	0.0178425
760.406	0.0177760
760.484	0.0176093
760.562	0.0176939
760.640	0.0176769
760.718	0.0176421
760.797	0.0174435
760.875	0.0174821
760.953	0.0175056
761.031	0.0175157
761.109	0.0174879
761.187	0.0174883
761.265	0.0175369
761.343	0.0174116
761.422	0.0175035
761.500	0.0174306
761.578	0.0174157
761.656	0.0175790
761.734	0.0175425
761.812	0.0174016
761.890	0.0175008
761.968	0.0174389
762.047	0.0174343
762.125	0.0173019
762.203	0.0172348
762.281	0.0172628
762.359	0.0174145
762.437	0.0172967
762.515	0.0172308
762.593	0.0172188
762.672	0.0170158
762.750	0.0170868
762.828	0.0171679
762.906	0.0171439
762.984	0.0172173
763.062	0.0171713
763.140	0.0170784
763.218	0.0173400
763.297	0.0172717
763.375	0.0173475
763.453	0.0173699
763.531	0.0174982
763.609	0.0174944
763.687	0.0177197
763.765	0.0178500
763.843	0.0176681
763.922	0.0176518
764.000	0.0176680
764.078	0.0179066
764.156	0.0177866
764.234	0.0178350
764.312	0.0178671
764.390	0.0179181
764.468	0.0178533
764.547	0.0177838
764.625	0.0177061
764.703	0.0179976
764.781	0.0179185
764.859	0.0179721
764.937	0.0179266
765.015	0.0179656
765.093	0.0179176
765.172	0.0179263
765.250	0.0178318
765.328	0.0179876
765.406	0.0179570
765.484	0.0178819
765.562	0.0178117
765.640	0.0179430
765.718	0.0178579
765.797	0.0179062
765.875	0.0178395
765.953	0.0177609
766.031	0.0177691
766.109	0.0178049
766.187	0.0178405
766.265	0.0178440
766.343	0.0177813
766.422	0.0179506
766.500	0.0178487
766.578	0.0178089
766.656	0.0178419
766.734	0.0177266
766.812	0.0177435
766.890	0.0178231
766.968	0.0177562
767.047	0.0176144
767.125	0.0176634
767.203	0.0176937
767.281	0.0177428
767.359	0.0176515
767.437	0.0175175
767.515	0.0174393
767.593	0.0176654
767.672	0.0174456
767.750	0.0175236
767.828	0.0177485
767.906	0.0175576
767.984	0.0176636
768.062	0.0175501
768.140	0.0177755
768.218	0.0176594
768.297	0.0178456
768.375	0.0177168
768.453	0.0178230
768.531	0.0177379
768.609	0.0176735
768.687	0.0178269
768.765	0.0178893
768.843	0.0179276
768.922	0.0179615
769.000	0.0181205
769.078	0.0180016
769.156	0.0179047
769.234	0.0180594
769.312	0.0181780
769.390	0.0179897
769.468	0.0180184
769.547	0.0180161
769.625	0.0180353
769.703	0.0179612
769.781	0.0179957
769.859	0.0181306
769.937	0.0181056
770.015	0.0181427
770.093	0.0180950
770.172	0.0181577
770.250	0.0179530
770.328	0.0179715
770.406	0.0179699
770.484	0.0179089
770.562	0.0177885
770.640	0.0177364
770.718	0.0177892
770.797	0.0177402
770.875	0.0177728
770.953	0.0178506
771.031	0.0177569
771.109	0.0178210
771.187	0.0177190
771.265	0.0177423
771.343	0.0176203
771.422	0.0177827
771.500	0.0179881
771.578	0.0178531
771.656	0.0177801
771.734	0.0178922
771.812	0.0178724
771.890	0.0179531
771.968	0.0178022
772.047	0.0178411
772.125	0.0179891
772.203	0.0179956
772.281	0.0178565
772.359	0.0178746
772.437	0.0179600
772.515	0.0179913
772.593	0.0178741
772.672	0.0179904
772.750	0.0178824
772.828	0.0177424
772.906	0.0178999
772.984	0.0179632
773.062	0.0178709
773.140	0.0179244
773.218	0.0177693
773.297	0.0178981
773.375	0.0178996
773.453	0.0178355
773.531	0.0177988
773.609	0.0177528
773.687	0.0178490
773.765	0.0177856
773.843	0.0178198
773.922	0.0177618
774.000	0.0176987
774.078	0.0178067
774.156	0.0178111
774.234	0.0178590
774.312	0.0177767
774.390	0.0178714
774.468	0.0178320
774.547	0.0178632
774.625	0.0178567
774.703	0.0177097
774.781	0.0178188
774.859	0.0177791
774.937	0.0178973
775.015	0.0178327
775.093	0.0178759
775.172	0.0178600
775.250	0.0178616
775.328	0.0177221
775.406	0.0178145
775.484	0.0176336
775.562	0.0177189
775.640	0.0177692
775.718	0.0177361
775.797	0.0177227
775.875	0.0177073
775.953	0.0176254
776.031	0.0175700
776.109	0.0176285
776.187	0.0176052
776.265	0.0175700
776.343	0.0174957
776.422	0.0175249
776.500	0.0173874
776.578	0.0174395
776.656	0.0173576
776.734	0.0172217
776.812	0.0173404
776.890	0.0172942
776.968	0.0172126
777.047	0.0171603
777.125	0.0173051
777.203	0.0173441
777.281	0.0172495
777.359	0.0173135
777.437	0.0174727
777.515	0.0174384
777.593	0.0174767
777.672	0.0175322
777.750	0.0174897
777.828	0.0176217
777.906	0.0175703
777.984	0.0177020
778.062	0.0176933
778.140	0.0177823
778.218	0.0178239
778.297	0.0177090
778.375	0.0177613
778.453	0.0176882
778.531	0.0176508
778.609	0.0177288
778.687	0.0177914
778.765	0.0175198
778.843	0.0176915
778.922	0.0176492
779.000	0.0176770
779.078	0.0176771
779.156	0.0176558
779.234	0.0176778
779.312	0.0176254
779.390	0.0176130
779.468	0.0176701
779.547	0.0175174
779.625	0.0175048
779.703	0.0175413
779.781	0.0175953
779.859	0.0175271
779.937	0.0176981
780.015	0.0174741
780.093	0.0174592
780.172	0.0176588
780.250	0.0176449
780.328	0.0176324
780.406	0.0176923
780.484	0.0177008
780.562	0.0176083
780.640	0.0176830
780.718	0.0175340
780.797	0.0175779
780.875	0.0176852
780.953	0.0175364
781.031	0.0176772
781.109	0.0176659
781.187	0.0176563
781.265	0.0175372
781.343	0.0176009
781.422	0.0176385
781.500	0.0176450
781.578	0.0176544
781.656	0.0176598
781.734	0.0177279
781.812	0.0177142
781.890	0.0177529
781.968	0.0176620
782.047	0.0178702
782.125	0.0179107
782.203	0.0179166
782.281	0.0178984
782.359	0.0178683
782.437	0.0179120
782.515	0.0178339
782.593	0.0178781
782.672	0.0179989
782.750	0.0178889
782.828	0.0178783
782.906	0.0178661
782.984	0.0179980
783.062	0.0179547
783.140	0.0177244
783.218	0.0178841
783.297	0.0178904
783.375	0.0178924
783.453	0.0178642
783.531	0.0178403
783.609	0.0178053
783.687	0.0179716
783.765	0.0177959
783.843	0.0178117
783.922	0.0178937
784.000	0.0177366
784.078	0.0177978
784.156	0.0177918
784.234	0.0178249
784.312	0.0178025
784.390	0.0176912
784.468	0.0177770
784.547	0.0177491
784.625	0.0177940
784.703	0.0176473
784.781	0.0176456
784.859	0.0176070
784.937	0.0176757
785.015	0.0176878
785.093	0.0176465
785.172	0.0175517
785.250	0.0175162
785.328	0.0176043
785.406	0.0174290
785.484	0.0175322
785.562	0.0175889
785.640	0.0175433
785.718	0.0175687
785.797	0.0175232
785.875	0.0175356
785.953	0.0173530
786.031	0.0175611
786.109	0.0175053
786.187	0.0175671
786.265	0.0174796
786.343	0.0175835
786.422	0.0174831
786.500	0.0176273
786.578	0.0174454
786.656	0.0174575
786.734	0.0176022
786.812	0.0176122
786.890	0.0175423
786.968	0.0174532
787.047	0.0174529
787.125	0.0175424
787.203	0.0175230
787.281	0.0174723
787.359	0.0174464
787.437	0.0176284
787.515	0.0178259
787.593	0.0176198
787.672	0.0176477
787.750	0.0177944
787.828	0.0176750
787.906	0.0177512
787.984	0.0177668
788.062	0.0177567
788.140	0.0176994
788.218	0.0177794
788.297	0.0178119
788.375	0.0177496
788.453	0.0177722
788.531	0.0177996
788.609	0.0178600
788.687	0.0178275
788.765	0.0178882
788.843	0.0178989
788.922	0.0177806
789.000	0.0178336
789.078	0.0178067
789.156	0.0177183
789.234	0.0177680
789.312	0.0177055
789.390	0.0174737
789.468	0.0177596
789.547	0.0177377
789.625	0.0175706
789.703	0.0176620
789.781	0.0175667
789.859	0.0176820
789.937	0.0176797
790.015	0.0176274
790.093	0.0176495
790.172	0.0177074
790.250	0.0177490
790.328	0.0175406
790.406	0.0177505
790.484	0.0179452
790.562	0.0178254
790.640	0.0177695
790.718	0.0178916
790.797	0.0179137
790.875	0.0178681
790.953	0.0179694
791.031	0.0179910
791.109	0.0180971
791.187	0.0179955
791.265	0.0179839
791.343	0.0179110
791.422	0.0179893
791.500	0.0180091
791.578	0.0180408
791.656	0.0178600
791.734	0.0179836
791.812	0.0178202
791.890	0.0179154
791.968	0.0178953
792.047	0.0180107
792.125	0.0179443
792.203	0.0179492
792.281	0.0178918
792.359	0.0179358
792.437	0.0180245
792.515	0.0178846
792.593	0.0179746
792.672	0.0178750
792.750	0.0178371
792.828	0.0177619
792.906	0.0178245
792.984	0.0178526
793.062	0.0179102
793.140	0.0178786
793.218	0.0177885
793.297	0.0178230
793.375	0.0178444
793.453	0.0176514
793.531	0.0176666
793.609	0.0176792
793.687	0.0176895
793.765	0.0175626
793.843	0.0176587
793.922	0.0176704
794.000	0.0174553
794.078	0.0175393
794.156	0.0176719
794.234	0.0175944
794.312	0.0174930
794.390	0.0176218
794.468	0.0175435
794.547	0.0176319
794.625	0.0176968
794.703	0.0176129
794.781	0.0177777
794.859	0.0178582
794.937	0.0177567
