06/03/2022	18:07:58	Ver.	4.1	UNKNOWN
Optical Delay	599.995081	Delta X		0.078125	Sweeps	1	Scan Rate	0/0
Coordinates	Axis 1	NaN	Axis 2	NaN	Axis 3	NaN	Axis 4	NaN	Axis 5	NaN	Axis 6	0.000000
TX Power	0.000000	RX Power	0.000000

599.995	0.0181188
600.073	0.0182063
600.151	0.0181300
600.229	0.0179517
600.308	0.0180337
600.386	0.0180436
600.464	0.0180061
600.542	0.0181786
600.620	0.0180177
600.698	0.0181703
600.776	0.0181927
600.854	0.0179527
600.933	0.0182169
601.011	0.0180136
601.089	0.0179866
601.167	0.0180259
601.245	0.0182090
601.323	0.0180945
601.401	0.0180993
601.479	0.0182151
601.558	0.0180678
601.636	0.0180687
601.714	0.0180954
601.792	0.0178579
601.870	0.0181640
601.948	0.0181120
602.026	0.0179662
602.104	0.0181776
602.183	0.0181055
602.261	0.0181526
602.339	0.0181219
602.417	0.0179477
602.495	0.0181173
602.573	0.0181100
602.651	0.0181068
602.729	0.0181570
602.808	0.0180470
602.886	0.0180823
602.964	0.0180215
603.042	0.0179792
603.120	0.0181346
603.198	0.0180697
603.276	0.0181850
603.354	0.0181066
603.433	0.0182016
603.511	0.0180914
603.589	0.0181440
603.667	0.0181763
603.745	0.0180006
603.823	0.0181573
603.901	0.0180639
603.979	0.0181020
604.058	0.0180211
604.136	0.0180945
604.214	0.0180276
604.292	0.0181535
604.370	0.0181439
604.448	0.0181207
604.526	0.0180227
604.604	0.0180864
604.683	0.0181016
604.761	0.0181632
604.839	0.0181293
604.917	0.0181322
604.995	0.0180833
605.073	0.0180289
605.151	0.0180428
605.229	0.0180341
605.308	0.0181519
605.386	0.0181649
605.464	0.0181558
605.542	0.0180653
605.620	0.0181306
605.698	0.0181506
605.776	0.0180991
605.854	0.0181007
605.933	0.0182315
606.011	0.0181916
606.089	0.0182101
606.167	0.0181437
606.245	0.0181535
606.323	0.0181684
606.401	0.0181274
606.479	0.0181637
606.558	0.0180968
606.636	0.0181792
606.714	0.0179781
606.792	0.0181125
606.870	0.0181055
606.948	0.0180154
607.026	0.0180832
607.104	0.0180454
607.183	0.0181487
607.261	0.0182356
607.339	0.0181202
607.417	0.0181143
607.495	0.0181219
607.573	0.0181929
607.651	0.0180800
607.729	0.0180144
607.808	0.0181100
607.886	0.0181908
607.964	0.0180782
608.042	0.0180890
608.120	0.0181181
608.198	0.0180937
608.276	0.0180679
608.354	0.0179417
608.433	0.0180284
608.511	0.0182346
608.589	0.0180566
608.667	0.0180679
608.745	0.0180525
608.823	0.0181479
608.901	0.0180447
608.979	0.0181229
609.058	0.0181020
609.136	0.0181068
609.214	0.0179685
609.292	0.0182491
609.370	0.0180793
609.448	0.0180145
609.526	0.0180779
609.604	0.0181070
609.683	0.0181152
609.761	0.0179805
609.839	0.0180579
609.917	0.0182421
609.995	0.0180895
610.073	0.0181730
610.151	0.0180431
610.229	0.0180947
610.308	0.0179975
610.386	0.0181277
610.464	0.0181064
610.542	0.0180679
610.620	0.0181430
610.698	0.0180849
610.776	0.0180658
610.854	0.0181466
610.933	0.0179739
611.011	0.0181344
611.089	0.0180527
611.167	0.0179040
611.245	0.0180412
611.323	0.0181057
611.401	0.0179993
611.479	0.0181046
611.558	0.0180801
611.636	0.0180344
611.714	0.0180019
611.792	0.0181401
611.870	0.0180035
611.948	0.0181297
612.026	0.0180579
612.104	0.0181728
612.183	0.0181462
612.261	0.0182560
612.339	0.0181687
612.417	0.0180645
612.495	0.0180968
612.573	0.0181649
612.651	0.0181251
612.729	0.0181339
612.808	0.0181676
612.886	0.0180264
612.964	0.0181683
613.042	0.0181992
613.120	0.0180739
613.198	0.0182192
613.276	0.0181871
613.354	0.0180638
613.433	0.0180997
613.511	0.0180192
613.589	0.0182270
613.667	0.0180344
613.745	0.0181614
613.823	0.0180675
613.901	0.0180538
613.979	0.0181491
614.058	0.0181071
614.136	0.0181512
614.214	0.0180499
614.292	0.0181021
614.370	0.0181172
614.448	0.0181782
614.526	0.0181324
614.604	0.0181052
614.683	0.0181462
614.761	0.0181325
614.839	0.0181372
614.917	0.0181227
614.995	0.0181493
615.073	0.0181260
615.151	0.0180820
615.229	0.0181075
615.308	0.0181564
615.386	0.0181335
615.464	0.0181241
615.542	0.0180385
615.620	0.0180936
615.698	0.0181484
615.776	0.0181741
615.854	0.0182123
615.933	0.0181590
616.011	0.0181133
616.089	0.0180666
616.167	0.0179847
616.245	0.0180741
616.323	0.0180835
616.401	0.0180385
616.479	0.0180512
616.558	0.0181464
616.636	0.0181231
616.714	0.0181811
616.792	0.0180551
616.870	0.0180465
616.948	0.0181487
617.026	0.0180096
617.104	0.0181196
617.183	0.0182211
617.261	0.0180723
617.339	0.0180511
617.417	0.0181349
617.495	0.0181732
617.573	0.0181579
617.651	0.0180205
617.729	0.0179890
617.808	0.0180215
617.886	0.0181452
617.964	0.0180650
618.042	0.0180762
618.120	0.0180611
618.198	0.0181202
618.276	0.0182496
618.354	0.0180756
618.433	0.0180588
618.511	0.0180831
618.589	0.0181021
618.667	0.0181181
618.745	0.0179706
618.823	0.0179795
618.901	0.0179866
618.979	0.0181094
619.058	0.0180653
619.136	0.0180553
619.214	0.0180666
619.292	0.0181815
619.370	0.0180132
619.448	0.0180394
619.526	0.0179636
619.604	0.0180902
619.683	0.0182140
619.761	0.0181371
619.839	0.0179727
619.917	0.0180621
619.995	0.0180667
620.073	0.0181553
620.151	0.0180672
620.229	0.0180975
620.308	0.0181741
620.386	0.0181126
620.464	0.0181671
620.542	0.0181609
620.620	0.0179746
620.698	0.0180312
620.776	0.0180973
620.854	0.0180492
620.933	0.0179865
621.011	0.0180302
621.089	0.0180407
621.167	0.0179542
621.245	0.0179858
621.323	0.0181164
621.401	0.0179664
621.479	0.0180794
621.558	0.0181093
621.636	0.0180457
621.714	0.0181735
621.792	0.0181119
621.870	0.0179949
621.948	0.0181887
622.026	0.0182339
622.104	0.0181037
622.183	0.0181357
622.261	0.0181760
622.339	0.0180984
622.417	0.0180621
622.495	0.0180821
622.573	0.0180946
622.651	0.0181196
622.729	0.0180125
622.808	0.0182349
622.886	0.0181692
622.964	0.0180672
623.042	0.0180481
623.120	0.0181610
623.198	0.0180972
623.276	0.0180408
623.354	0.0179790
623.433	0.0181444
623.511	0.0179569
623.589	0.0180264
623.667	0.0180391
623.745	0.0180698
623.823	0.0180258
623.901	0.0180446
623.979	0.0181745
624.058	0.0181449
624.136	0.0180885
624.214	0.0180291
624.292	0.0181088
624.370	0.0180054
624.448	0.0181747
624.526	0.0180862
624.604	0.0179524
624.683	0.0180791
624.761	0.0180363
624.839	0.0180083
624.917	0.0181009
624.995	0.0179939
625.073	0.0180766
625.151	0.0181005
625.229	0.0182075
625.308	0.0180299
625.386	0.0180248
625.464	0.0179175
625.542	0.0181116
625.620	0.0182040
625.698	0.0180695
625.776	0.0179668
625.854	0.0180351
625.933	0.0182079
626.011	0.0181188
626.089	0.0181638
626.167	0.0181147
626.245	0.0180656
626.323	0.0179966
626.401	0.0181672
626.479	0.0181211
626.558	0.0180296
626.636	0.0182024
626.714	0.0179810
626.792	0.0180398
626.870	0.0181657
626.948	0.0180442
627.026	0.0180520
627.104	0.0179250
627.183	0.0180424
627.261	0.0181409
627.339	0.0180782
627.417	0.0178631
627.495	0.0180924
627.573	0.0180796
627.651	0.0180675
627.729	0.0179391
627.808	0.0180702
627.886	0.0181164
627.964	0.0181650
628.042	0.0180858
628.120	0.0179150
628.198	0.0180109
628.276	0.0181421
628.354	0.0181094
628.433	0.0179808
628.511	0.0180566
628.589	0.0181416
628.667	0.0181135
628.745	0.0181393
628.823	0.0180173
628.901	0.0180273
628.979	0.0182199
629.058	0.0181174
629.136	0.0180666
629.214	0.0181358
629.292	0.0180327
629.370	0.0181024
629.448	0.0180450
629.526	0.0180121
629.604	0.0180360
629.683	0.0180815
629.761	0.0180604
629.839	0.0180119
629.917	0.0180071
629.995	0.0180703
630.073	0.0181480
630.151	0.0181277
630.229	0.0181178
630.308	0.0179725
630.386	0.0179977
630.464	0.0180534
630.542	0.0181429
630.620	0.0181534
630.698	0.0179962
630.776	0.0180486
630.854	0.0181538
630.933	0.0178964
631.011	0.0180620
631.089	0.0180829
631.167	0.0181544
631.245	0.0180551
631.323	0.0180237
631.401	0.0181161
631.479	0.0180177
631.558	0.0180119
631.636	0.0181306
631.714	0.0181376
631.792	0.0180583
631.870	0.0179610
631.948	0.0181272
632.026	0.0180713
632.104	0.0180281
632.183	0.0180019
632.261	0.0181038
632.339	0.0181037
632.417	0.0180460
632.495	0.0180771
632.573	0.0181692
632.651	0.0180858
632.729	0.0181182
632.808	0.0181567
632.886	0.0180569
632.964	0.0181013
633.042	0.0179735
633.120	0.0180015
633.198	0.0181071
633.276	0.0180663
633.354	0.0180956
633.433	0.0179936
633.511	0.0181347
633.589	0.0180827
633.667	0.0180711
633.745	0.0181392
633.823	0.0181512
633.901	0.0181674
633.979	0.0181402
634.058	0.0180558
634.136	0.0180769
634.214	0.0181343
634.292	0.0181326
634.370	0.0181377
634.448	0.0181012
634.526	0.0180740
634.604	0.0180121
634.683	0.0180910
634.761	0.0181853
634.839	0.0181102
634.917	0.0180464
634.995	0.0181330
635.073	0.0181086
635.151	0.0181522
635.229	0.0181902
635.308	0.0181225
635.386	0.0181803
635.464	0.0182431
635.542	0.0182296
635.620	0.0181017
635.698	0.0181305
635.776	0.0180476
635.854	0.0181115
635.933	0.0183305
636.011	0.0182133
636.089	0.0180926
636.167	0.0180941
636.245	0.0181069
636.323	0.0181084
636.401	0.0180362
636.479	0.0182363
636.558	0.0181287
636.636	0.0181076
636.714	0.0181425
636.792	0.0180588
636.870	0.0180855
636.948	0.0180880
637.026	0.0180981
637.104	0.0180792
637.183	0.0181300
637.261	0.0179666
637.339	0.0180554
637.417	0.0181437
637.495	0.0181387
637.573	0.0180870
637.651	0.0180726
637.729	0.0181366
637.808	0.0181816
637.886	0.0180915
637.964	0.0179937
638.042	0.0180612
638.120	0.0180688
638.198	0.0180921
638.276	0.0181490
638.354	0.0181282
638.433	0.0180129
638.511	0.0180536
638.589	0.0180402
638.667	0.0181260
638.745	0.0180067
638.823	0.0182174
638.901	0.0181562
638.979	0.0180820
639.058	0.0181113
639.136	0.0180677
639.214	0.0179762
639.292	0.0180330
639.370	0.0181095
639.448	0.0180579
639.526	0.0180089
639.604	0.0180785
639.683	0.0183243
639.761	0.0180958
639.839	0.0179994
639.917	0.0181541
639.995	0.0181316
640.073	0.0179916
640.151	0.0181142
640.229	0.0181321
640.308	0.0181028
640.386	0.0181519
640.464	0.0181251
640.542	0.0180688
640.620	0.0183044
640.698	0.0179243
640.776	0.0179925
640.854	0.0181326
640.933	0.0180315
641.011	0.0181451
641.089	0.0180405
641.167	0.0180900
641.245	0.0180750
641.323	0.0180822
641.401	0.0180296
641.479	0.0180173
641.558	0.0181878
641.636	0.0181158
641.714	0.0182117
641.792	0.0180339
641.870	0.0181240
641.948	0.0180674
642.026	0.0179533
642.104	0.0181946
642.183	0.0181280
642.261	0.0180388
642.339	0.0181549
642.417	0.0180402
642.495	0.0180272
642.573	0.0180125
642.651	0.0180242
642.729	0.0180841
642.808	0.0180883
642.886	0.0180737
642.964	0.0181505
643.042	0.0181514
643.120	0.0180516
643.198	0.0181823
643.276	0.0181689
643.354	0.0180755
643.433	0.0180574
643.511	0.0179902
643.589	0.0180821
643.667	0.0181627
643.745	0.0181985
643.823	0.0180510
643.901	0.0181287
643.979	0.0180746
644.058	0.0180387
644.136	0.0179930
644.214	0.0180360
644.292	0.0181073
644.370	0.0180594
644.448	0.0181046
644.526	0.0180466
644.604	0.0181036
644.683	0.0180502
644.761	0.0181577
644.839	0.0181218
644.917	0.0181892
644.995	0.0180994
645.073	0.0179414
645.151	0.0180604
645.229	0.0181068
645.308	0.0180045
645.386	0.0180145
645.464	0.0180641
645.542	0.0181382
645.620	0.0180769
645.698	0.0180110
645.776	0.0180615
645.854	0.0180706
645.933	0.0179787
646.011	0.0182293
646.089	0.0181059
646.167	0.0180856
646.245	0.0180970
646.323	0.0180280
646.401	0.0180746
646.479	0.0180796
646.558	0.0180126
646.636	0.0180328
646.714	0.0179829
646.792	0.0180605
646.870	0.0180935
646.948	0.0181018
647.026	0.0182456
647.104	0.0182546
647.183	0.0182106
647.261	0.0180992
647.339	0.0181303
647.417	0.0181165
647.495	0.0181580
647.573	0.0181002
647.651	0.0181643
647.729	0.0181377
647.808	0.0180845
647.886	0.0181807
647.964	0.0180994
648.042	0.0179278
648.120	0.0181094
648.198	0.0181678
648.276	0.0181439
648.354	0.0180461
648.433	0.0180264
648.511	0.0180149
648.589	0.0180350
648.667	0.0181190
648.745	0.0180237
648.823	0.0180660
648.901	0.0181635
648.979	0.0180675
649.058	0.0181230
649.136	0.0179378
649.214	0.0181586
649.292	0.0182185
649.370	0.0180863
649.448	0.0180878
649.526	0.0181720
649.604	0.0180726
649.683	0.0179782
649.761	0.0181173
649.839	0.0180606
649.917	0.0180580
649.995	0.0180635
650.073	0.0180998
650.151	0.0181070
650.229	0.0181844
650.308	0.0179866
650.386	0.0181591
650.464	0.0180317
650.542	0.0180959
650.620	0.0181187
650.698	0.0180502
650.776	0.0180562
650.854	0.0181362
650.933	0.0180356
651.011	0.0182046
651.089	0.0181714
651.167	0.0180068
651.245	0.0179990
651.323	0.0182220
651.401	0.0181784
651.479	0.0181735
651.558	0.0179519
651.636	0.0180827
651.714	0.0182083
651.792	0.0181188
651.870	0.0180837
651.948	0.0181008
652.026	0.0181745
652.104	0.0181820
652.183	0.0181171
652.261	0.0182122
652.339	0.0181128
652.417	0.0180167
652.495	0.0181573
652.573	0.0180921
652.651	0.0180994
652.729	0.0179946
652.808	0.0181133
652.886	0.0180315
652.964	0.0181242
653.042	0.0181448
653.120	0.0180936
653.198	0.0180640
653.276	0.0180241
653.354	0.0180010
653.433	0.0181953
653.511	0.0180455
653.589	0.0179884
653.667	0.0180518
653.745	0.0179610
653.823	0.0180643
653.901	0.0180233
653.979	0.0180642
654.058	0.0180824
654.136	0.0181454
654.214	0.0181728
654.292	0.0181245
654.370	0.0181616
654.448	0.0181239
654.526	0.0181260
654.604	0.0181366
654.683	0.0180274
654.761	0.0180338
654.839	0.0180785
654.917	0.0180822
654.995	0.0181966
655.073	0.0180909
655.151	0.0181187
655.229	0.0181835
655.308	0.0180834
655.386	0.0179461
655.464	0.0180576
655.542	0.0181532
655.620	0.0181105
655.698	0.0181116
655.776	0.0182346
655.854	0.0182132
655.933	0.0180180
656.011	0.0181841
656.089	0.0180653
656.167	0.0180456
656.245	0.0181210
656.323	0.0180312
656.401	0.0181717
656.479	0.0182022
656.558	0.0182549
656.636	0.0180750
656.714	0.0180916
656.792	0.0180824
656.870	0.0180945
656.948	0.0181774
657.026	0.0180260
657.104	0.0180849
657.183	0.0181525
657.261	0.0180908
657.339	0.0181331
657.417	0.0179971
657.495	0.0180820
657.573	0.0180420
657.651	0.0180807
657.729	0.0181133
657.808	0.0180285
657.886	0.0180269
657.964	0.0181985
658.042	0.0180337
658.120	0.0180282
658.198	0.0181853
658.276	0.0181026
658.354	0.0180363
658.433	0.0180502
658.511	0.0179016
658.589	0.0180358
658.667	0.0180676
658.745	0.0180843
658.823	0.0180583
658.901	0.0180442
658.979	0.0180331
659.058	0.0180134
659.136	0.0181712
659.214	0.0179402
659.292	0.0181121
659.370	0.0181654
659.448	0.0181026
659.526	0.0181355
659.604	0.0180592
659.683	0.0181393
659.761	0.0179804
659.839	0.0179981
659.917	0.0180219
659.995	0.0181165
660.073	0.0179374
660.151	0.0179687
660.229	0.0178989
660.308	0.0182045
660.386	0.0180450
660.464	0.0180538
660.542	0.0180891
660.620	0.0179291
660.698	0.0179807
660.776	0.0181277
660.854	0.0180641
660.933	0.0181077
661.011	0.0179688
661.089	0.0182816
661.167	0.0180723
661.245	0.0179409
661.323	0.0180091
661.401	0.0180935
661.479	0.0179036
661.558	0.0180730
661.636	0.0180834
661.714	0.0181187
661.792	0.0181283
661.870	0.0181792
661.948	0.0180996
662.026	0.0180824
662.104	0.0182154
662.183	0.0181252
662.261	0.0180952
662.339	0.0180032
662.417	0.0180067
662.495	0.0180431
662.573	0.0180154
662.651	0.0179986
662.729	0.0181660
662.808	0.0179976
662.886	0.0180133
662.964	0.0179736
663.042	0.0180064
663.120	0.0179510
663.198	0.0180492
663.276	0.0179965
663.354	0.0180476
663.433	0.0181171
663.511	0.0180345
663.589	0.0180214
663.667	0.0181255
663.745	0.0179469
663.823	0.0180911
663.901	0.0180867
663.979	0.0180357
664.058	0.0180656
664.136	0.0180599
664.214	0.0180042
664.292	0.0180895
664.370	0.0181113
664.448	0.0180295
664.526	0.0179913
664.604	0.0180014
664.683	0.0181340
664.761	0.0181064
664.839	0.0180545
664.917	0.0180614
664.995	0.0179813
665.073	0.0180761
665.151	0.0180986
665.229	0.0179910
665.308	0.0180540
665.386	0.0180193
665.464	0.0180800
665.542	0.0179774
665.620	0.0180518
665.698	0.0181353
665.776	0.0181271
665.854	0.0180587
665.933	0.0180042
666.011	0.0180984
666.089	0.0181765
666.167	0.0180180
666.245	0.0180148
666.323	0.0181506
666.401	0.0179468
666.479	0.0180580
666.558	0.0179935
666.636	0.0181479
666.714	0.0180695
666.792	0.0180649
666.870	0.0181267
666.948	0.0180799
667.026	0.0180356
667.104	0.0180819
667.183	0.0180037
667.261	0.0180090
667.339	0.0180955
667.417	0.0180979
667.495	0.0180376
667.573	0.0180870
667.651	0.0180910
667.729	0.0181950
667.808	0.0181092
667.886	0.0181799
667.964	0.0180943
668.042	0.0179927
668.120	0.0182227
668.198	0.0180692
668.276	0.0180695
668.354	0.0180284
668.433	0.0180802
668.511	0.0180801
668.589	0.0181924
668.667	0.0181210
668.745	0.0180029
668.823	0.0181047
668.901	0.0181786
668.979	0.0180011
669.058	0.0180312
669.136	0.0179857
669.214	0.0180287
669.292	0.0179287
669.370	0.0180747
669.448	0.0182063
669.526	0.0179935
669.604	0.0180344
669.683	0.0181217
669.761	0.0181461
669.839	0.0180804
669.917	0.0179712
669.995	0.0180577
670.073	0.0180268
670.151	0.0181244
670.229	0.0180335
670.308	0.0180714
670.386	0.0179437
670.464	0.0180109
670.542	0.0180188
670.620	0.0178947
670.698	0.0180550
670.776	0.0181584
670.854	0.0180873
670.933	0.0179560
671.011	0.0180489
671.089	0.0181213
671.167	0.0180965
671.245	0.0180980
671.323	0.0179299
671.401	0.0179980
671.479	0.0180212
671.558	0.0181149
671.636	0.0180001
671.714	0.0179787
671.792	0.0180242
671.870	0.0179838
671.948	0.0181307
672.026	0.0180497
672.104	0.0180097
672.183	0.0179894
672.261	0.0180362
672.339	0.0179840
672.417	0.0182870
672.495	0.0182325
672.573	0.0180745
672.651	0.0178700
672.729	0.0181089
672.808	0.0181863
672.886	0.0180214
672.964	0.0181965
673.042	0.0181702
673.120	0.0180019
673.198	0.0181185
673.276	0.0180951
673.354	0.0180679
673.433	0.0180830
673.511	0.0179803
673.589	0.0180441
673.667	0.0180459
673.745	0.0180288
673.823	0.0180871
673.901	0.0180170
673.979	0.0180412
674.058	0.0180305
674.136	0.0181430
674.214	0.0181152
674.292	0.0181936
674.370	0.0179841
674.448	0.0181507
674.526	0.0181775
674.604	0.0179775
674.683	0.0180451
674.761	0.0180780
674.839	0.0180844
674.917	0.0180700
674.995	0.0181185
675.073	0.0180329
675.151	0.0179212
675.229	0.0180807
675.308	0.0180058
675.386	0.0181372
675.464	0.0181184
675.542	0.0180466
675.620	0.0180907
675.698	0.0180905
675.776	0.0180779
675.854	0.0179795
675.933	0.0180690
676.011	0.0181138
676.089	0.0180521
676.167	0.0180762
676.245	0.0180311
676.323	0.0180621
676.401	0.0181762
676.479	0.0180438
676.558	0.0180597
676.636	0.0180766
676.714	0.0182225
676.792	0.0180751
676.870	0.0180825
676.948	0.0179314
677.026	0.0180612
677.104	0.0182717
677.183	0.0181351
677.261	0.0181127
677.339	0.0180849
677.417	0.0180650
677.495	0.0180255
677.573	0.0180241
677.651	0.0180173
677.729	0.0180908
677.808	0.0181685
677.886	0.0179719
677.964	0.0180811
678.042	0.0181348
678.120	0.0181824
678.198	0.0180297
678.276	0.0181548
678.354	0.0179941
678.433	0.0181806
678.511	0.0181359
678.589	0.0180849
678.667	0.0181617
678.745	0.0181261
678.823	0.0180079
678.901	0.0179321
678.979	0.0181419
679.058	0.0181095
679.136	0.0180952
679.214	0.0181246
679.292	0.0180157
679.370	0.0180540
679.448	0.0180005
679.526	0.0181160
679.604	0.0180884
679.683	0.0181432
679.761	0.0180801
679.839	0.0179625
679.917	0.0180734
679.995	0.0180480
680.073	0.0180743
680.151	0.0179815
680.229	0.0181678
680.308	0.0183327
680.386	0.0180116
680.464	0.0181616
680.542	0.0181882
680.620	0.0180406
680.698	0.0180515
680.776	0.0181236
680.854	0.0180838
680.933	0.0180832
681.011	0.0180865
681.089	0.0181028
681.167	0.0182068
681.245	0.0181943
681.323	0.0181078
681.401	0.0180878
681.479	0.0180897
681.558	0.0181631
681.636	0.0181218
681.714	0.0181044
681.792	0.0180236
681.870	0.0181120
681.948	0.0181860
682.026	0.0181660
682.104	0.0180750
682.183	0.0181201
682.261	0.0181310
682.339	0.0181336
682.417	0.0181253
682.495	0.0181496
682.573	0.0180214
682.651	0.0181658
682.729	0.0182114
682.808	0.0181769
682.886	0.0182082
682.964	0.0181394
683.042	0.0180901
683.120	0.0181747
683.198	0.0182019
683.276	0.0181307
683.354	0.0182102
683.433	0.0181483
683.511	0.0181564
683.589	0.0181646
683.667	0.0180975
683.745	0.0181355
683.823	0.0181925
683.901	0.0182756
683.979	0.0181658
684.058	0.0181607
684.136	0.0182815
684.214	0.0181208
684.292	0.0181548
684.370	0.0181743
684.448	0.0180061
684.526	0.0181282
684.604	0.0181879
684.683	0.0181798
684.761	0.0182247
684.839	0.0182286
684.917	0.0181068
684.995	0.0181430
685.073	0.0181538
685.151	0.0180922
685.229	0.0181457
685.308	0.0181728
685.386	0.0181280
685.464	0.0180939
685.542	0.0182424
685.620	0.0182033
685.698	0.0180349
685.776	0.0180573
685.854	0.0182230
685.933	0.0181459
686.011	0.0181446
686.089	0.0180524
686.167	0.0181317
686.245	0.0181219
686.323	0.0181286
686.401	0.0181633
686.479	0.0180908
686.558	0.0181652
686.636	0.0180420
686.714	0.0181833
686.792	0.0182471
686.870	0.0180421
686.948	0.0181738
687.026	0.0182465
687.104	0.0181421
687.183	0.0181978
687.261	0.0182166
687.339	0.0181944
687.417	0.0180961
687.495	0.0182889
687.573	0.0182286
687.651	0.0180477
687.729	0.0181161
687.808	0.0182222
687.886	0.0181994
687.964	0.0180235
688.042	0.0181511
688.120	0.0181370
688.198	0.0180554
688.276	0.0180835
688.354	0.0181695
688.433	0.0180771
688.511	0.0181544
688.589	0.0180868
688.667	0.0180980
688.745	0.0181163
688.823	0.0180293
688.901	0.0178324
688.979	0.0181544
689.058	0.0180810
689.136	0.0180977
689.214	0.0180914
689.292	0.0181364
689.370	0.0182356
689.448	0.0180315
689.526	0.0180363
689.604	0.0180340
689.683	0.0179210
689.761	0.0179868
689.839	0.0179427
689.917	0.0180600
689.995	0.0181631
690.073	0.0181917
690.151	0.0180481
690.229	0.0180258
690.308	0.0179356
690.386	0.0179637
690.464	0.0182147
690.542	0.0179633
690.620	0.0179742
690.698	0.0181824
690.776	0.0180419
690.854	0.0178915
690.933	0.0180500
691.011	0.0179088
691.089	0.0180062
691.167	0.0179774
691.245	0.0179407
691.323	0.0181009
691.401	0.0179903
691.479	0.0180016
691.558	0.0179385
691.636	0.0179690
691.714	0.0180334
691.792	0.0180389
691.870	0.0180624
691.948	0.0180096
692.026	0.0180289
692.104	0.0181310
692.183	0.0180542
692.261	0.0181567
692.339	0.0180486
692.417	0.0178691
692.495	0.0179045
692.573	0.0180879
692.651	0.0179929
692.729	0.0180892
692.808	0.0180896
692.886	0.0180553
692.964	0.0178416
693.042	0.0179672
693.120	0.0179969
693.198	0.0180717
693.276	0.0180237
693.354	0.0179209
693.433	0.0180367
693.511	0.0180563
693.589	0.0179666
693.667	0.0180148
693.745	0.0179903
693.823	0.0181319
693.901	0.0180325
693.979	0.0179689
694.058	0.0179630
694.136	0.0180302
694.214	0.0180225
694.292	0.0180237
694.370	0.0179826
694.448	0.0180511
694.526	0.0180657
694.604	0.0179849
694.683	0.0180206
694.761	0.0180382
694.839	0.0180299
694.917	0.0180633
694.995	0.0180272
695.073	0.0181820
695.151	0.0180890
695.229	0.0181460
695.308	0.0181750
695.386	0.0180883
695.464	0.0180444
695.542	0.0181506
695.620	0.0181338
695.698	0.0179570
695.776	0.0180637
695.854	0.0179999
695.933	0.0178903
696.011	0.0180090
696.089	0.0181612
696.167	0.0180972
696.245	0.0181891
696.323	0.0184065
696.401	0.0183743
696.479	0.0184505
696.558	0.0186691
696.636	0.0186907
696.714	0.0187851
696.792	0.0187306
696.870	0.0185703
696.948	0.0185388
697.026	0.0184866
697.104	0.0183548
697.183	0.0181283
697.261	0.0178455
697.339	0.0177705
697.417	0.0174560
697.495	0.0172563
697.573	0.0170859
697.651	0.0170300
697.729	0.0167918
697.808	0.0168241
697.886	0.0166468
697.964	0.0167348
698.042	0.0166525
698.120	0.0169618
698.198	0.0172760
698.276	0.0176802
698.354	0.0180468
698.433	0.0185549
698.511	0.0190695
698.589	0.0198146
698.667	0.0204646
698.745	0.0208398
698.823	0.0212231
698.901	0.0214247
698.979	0.0216012
699.058	0.0212066
699.136	0.0211436
699.214	0.0206782
699.292	0.0198468
699.370	0.0192191
699.448	0.0184574
699.526	0.0175940
699.604	0.0166466
699.683	0.0158670
699.761	0.0151506
699.839	0.0144247
699.917	0.0141642
699.995	0.0137087
700.073	0.0135431
700.151	0.0136187
700.229	0.0138244
700.308	0.0143271
700.386	0.0147031
700.464	0.0155383
700.542	0.0163821
700.620	0.0172785
700.698	0.0183027
700.776	0.0190398
700.854	0.0200015
700.933	0.0210365
701.011	0.0216930
701.089	0.0223289
701.167	0.0227678
701.245	0.0232865
701.323	0.0233703
701.401	0.0234969
701.479	0.0231528
701.558	0.0228195
701.636	0.0223122
701.714	0.0213905
701.792	0.0204222
701.870	0.0193201
701.948	0.0182101
702.026	0.0171060
702.104	0.0159138
702.183	0.0147105
702.261	0.0138293
702.339	0.0132090
702.417	0.0127139
702.495	0.0124268
702.573	0.0124306
702.651	0.0128407
702.729	0.0132726
702.808	0.0139931
702.886	0.0145706
702.964	0.0157147
703.042	0.0168254
703.120	0.0174616
703.198	0.0184705
703.276	0.0192107
703.354	0.0199874
703.433	0.0207696
703.511	0.0212669
703.589	0.0216118
703.667	0.0219758
703.745	0.0222363
703.823	0.0221417
703.901	0.0219924
703.979	0.0215198
704.058	0.0209106
704.136	0.0201636
704.214	0.0193912
704.292	0.0183599
704.370	0.0172762
704.448	0.0164793
704.526	0.0155564
704.604	0.0147266
704.683	0.0141048
704.761	0.0136519
704.839	0.0136787
704.917	0.0137306
704.995	0.0139906
705.073	0.0146992
705.151	0.0155222
705.229	0.0165229
705.308	0.0174923
705.386	0.0185378
705.464	0.0197817
705.542	0.0205066
705.620	0.0213374
705.698	0.0220512
705.776	0.0227100
705.854	0.0228349
705.933	0.0230521
706.011	0.0228544
706.089	0.0225703
706.167	0.0221783
706.245	0.0214396
706.323	0.0206959
706.401	0.0197240
706.479	0.0189328
706.558	0.0181184
706.636	0.0171981
706.714	0.0161943
706.792	0.0156159
706.870	0.0150084
706.948	0.0145870
707.026	0.0143202
707.104	0.0139969
707.183	0.0137791
707.261	0.0138745
707.339	0.0138954
707.417	0.0141708
707.495	0.0142969
707.573	0.0148050
707.651	0.0152957
707.729	0.0157285
707.808	0.0164192
707.886	0.0172413
707.964	0.0178187
708.042	0.0185606
708.120	0.0192700
708.198	0.0201113
708.276	0.0205779
708.354	0.0210977
708.433	0.0214780
708.511	0.0215368
708.589	0.0218715
708.667	0.0216563
708.745	0.0213729
708.823	0.0210774
708.901	0.0205637
708.979	0.0200013
709.058	0.0194610
709.136	0.0191361
709.214	0.0186374
709.292	0.0182426
709.370	0.0179441
709.448	0.0176689
709.526	0.0175481
709.604	0.0173730
709.683	0.0172260
709.761	0.0172695
709.839	0.0173695
709.917	0.0172259
709.995	0.0172773
710.073	0.0173000
710.151	0.0173841
710.229	0.0174239
710.308	0.0175934
710.386	0.0177216
710.464	0.0177825
710.542	0.0178655
710.620	0.0179198
710.698	0.0179674
710.776	0.0179596
710.854	0.0178504
710.933	0.0179986
711.011	0.0179493
711.089	0.0179027
711.167	0.0177948
711.245	0.0176008
711.323	0.0177671
711.401	0.0176772
711.479	0.0176991
711.558	0.0176117
711.636	0.0177196
711.714	0.0177867
711.792	0.0177221
711.870	0.0179414
711.948	0.0181771
712.026	0.0183749
712.104	0.0183878
712.183	0.0184528
712.261	0.0186127
712.339	0.0188054
712.417	0.0190361
712.495	0.0191322
712.573	0.0191620
712.651	0.0193695
712.729	0.0192555
712.808	0.0193678
712.886	0.0192944
712.964	0.0192465
713.042	0.0190292
713.120	0.0188873
713.198	0.0185281
713.276	0.0184355
713.354	0.0179568
713.433	0.0176929
713.511	0.0173548
713.589	0.0170189
713.667	0.0167458
713.745	0.0165761
713.823	0.0163798
713.901	0.0162119
713.979	0.0162871
714.058	0.0163164
714.136	0.0164480
714.214	0.0164516
714.292	0.0166303
714.370	0.0169626
714.448	0.0172416
714.526	0.0173081
714.604	0.0176809
714.683	0.0180548
714.761	0.0184665
714.839	0.0186752
714.917	0.0189787
714.995	0.0193023
715.073	0.0195574
715.151	0.0197517
715.229	0.0200394
715.308	0.0201135
715.386	0.0199825
715.464	0.0199515
715.542	0.0199305
715.620	0.0196812
715.698	0.0193484
715.776	0.0189912
715.854	0.0187907
715.933	0.0183430
716.011	0.0176908
716.089	0.0174393
716.167	0.0170805
716.245	0.0168623
716.323	0.0166663
716.401	0.0166081
716.479	0.0165604
716.558	0.0167299
716.636	0.0171078
716.714	0.0172010
716.792	0.0175586
716.870	0.0179509
716.948	0.0181578
717.026	0.0183580
717.104	0.0186352
717.183	0.0187699
717.261	0.0189507
717.339	0.0190178
717.417	0.0189627
717.495	0.0189042
717.573	0.0188198
717.651	0.0185896
717.729	0.0182727
717.808	0.0180839
717.886	0.0178493
717.964	0.0174962
718.042	0.0173929
718.120	0.0170212
718.198	0.0167785
718.276	0.0167724
718.354	0.0167446
718.433	0.0167029
718.511	0.0168499
718.589	0.0167719
718.667	0.0169167
718.745	0.0170615
718.823	0.0172935
718.901	0.0175376
718.979	0.0178162
719.058	0.0180491
719.136	0.0183163
719.214	0.0185985
719.292	0.0187286
719.370	0.0191574
719.448	0.0194234
719.526	0.0193719
719.604	0.0195567
719.683	0.0197563
719.761	0.0196558
719.839	0.0195971
719.917	0.0195042
719.995	0.0194085
720.073	0.0189285
720.151	0.0187286
720.229	0.0185819
720.308	0.0182032
720.386	0.0177477
720.464	0.0175389
720.542	0.0171972
720.620	0.0172962
720.698	0.0170992
720.776	0.0169373
720.854	0.0170539
720.933	0.0172321
721.011	0.0172394
721.089	0.0174240
721.167	0.0176833
721.245	0.0177361
721.323	0.0179419
721.401	0.0180970
721.479	0.0183170
721.558	0.0184741
721.636	0.0187231
721.714	0.0187297
721.792	0.0190307
721.870	0.0189921
721.948	0.0190552
722.026	0.0190441
722.104	0.0190057
722.183	0.0188386
722.261	0.0186389
722.339	0.0186265
722.417	0.0184891
722.495	0.0181696
722.573	0.0179183
722.651	0.0177192
722.729	0.0174628
722.808	0.0173080
722.886	0.0172933
722.964	0.0171638
723.042	0.0172259
723.120	0.0173207
723.198	0.0172810
723.276	0.0175282
723.354	0.0177910
723.433	0.0178660
723.511	0.0179010
723.589	0.0181973
723.667	0.0182099
723.745	0.0183900
723.823	0.0184948
723.901	0.0185232
723.979	0.0184566
724.058	0.0184002
724.136	0.0184535
724.214	0.0184093
724.292	0.0182824
724.370	0.0181303
724.448	0.0182706
724.526	0.0179926
724.604	0.0179964
724.683	0.0178954
724.761	0.0179220
724.839	0.0177906
724.917	0.0178571
724.995	0.0179029
725.073	0.0178390
725.151	0.0179635
725.229	0.0179443
725.308	0.0179163
725.386	0.0180884
725.464	0.0180514
725.542	0.0180173
725.620	0.0180161
725.698	0.0180954
725.776	0.0182174
725.854	0.0179939
725.933	0.0180878
726.011	0.0181772
726.089	0.0182036
726.167	0.0181505
726.245	0.0183447
726.323	0.0183029
726.401	0.0182759
726.479	0.0182904
726.558	0.0182262
726.636	0.0182294
726.714	0.0182413
726.792	0.0183106
726.870	0.0181338
726.948	0.0180109
727.026	0.0180618
727.104	0.0180627
727.183	0.0181328
727.261	0.0180782
727.339	0.0179852
727.417	0.0180968
727.495	0.0181408
727.573	0.0181525
727.651	0.0184257
727.729	0.0183517
727.808	0.0183627
727.886	0.0181569
727.964	0.0182762
728.042	0.0182420
728.120	0.0182312
728.198	0.0179153
728.276	0.0178760
728.354	0.0177450
728.433	0.0175772
728.511	0.0174223
728.589	0.0174344
728.667	0.0173215
728.745	0.0174445
728.823	0.0175942
728.901	0.0175247
728.979	0.0176571
729.058	0.0176974
729.136	0.0176968
729.214	0.0177146
729.292	0.0179807
729.370	0.0179742
729.448	0.0180737
729.526	0.0181497
729.604	0.0181886
729.683	0.0181448
729.761	0.0182681
729.839	0.0183609
729.917	0.0183086
729.995	0.0182200
730.073	0.0181886
730.151	0.0181772
730.229	0.0182603
730.308	0.0184070
730.386	0.0181914
730.464	0.0180781
730.542	0.0181921
730.620	0.0181772
730.698	0.0181918
730.776	0.0180630
730.854	0.0180067
730.933	0.0181254
731.011	0.0182299
731.089	0.0180078
731.167	0.0180556
731.245	0.0180454
731.323	0.0182212
731.401	0.0180996
731.479	0.0180348
731.558	0.0181682
731.636	0.0182688
731.714	0.0181314
731.792	0.0180179
731.870	0.0181434
731.948	0.0180785
732.026	0.0180181
732.104	0.0180446
732.183	0.0180975
732.261	0.0180042
732.339	0.0181759
732.417	0.0181015
732.495	0.0181680
732.573	0.0182955
732.651	0.0181884
732.729	0.0182864
732.808	0.0183805
732.886	0.0183210
732.964	0.0184462
733.042	0.0183543
733.120	0.0183454
733.198	0.0180738
733.276	0.0180579
733.354	0.0180390
733.433	0.0178162
733.511	0.0179776
733.589	0.0178650
733.667	0.0178286
733.745	0.0176155
733.823	0.0175471
733.901	0.0177912
733.979	0.0178323
734.058	0.0179472
734.136	0.0179602
734.214	0.0179562
734.292	0.0180312
734.370	0.0180087
734.448	0.0182362
734.526	0.0182143
734.604	0.0182877
734.683	0.0182695
734.761	0.0182844
734.839	0.0182381
734.917	0.0183061
734.995	0.0183368
735.073	0.0183405
735.151	0.0183961
735.229	0.0182977
735.308	0.0183640
735.386	0.0185126
735.464	0.0184246
735.542	0.0184904
735.620	0.0185251
735.698	0.0184524
735.776	0.0182729
735.854	0.0182526
735.933	0.0182548
736.011	0.0182057
736.089	0.0181861
736.167	0.0179034
736.245	0.0178693
736.323	0.0179391
736.401	0.0178341
736.479	0.0177992
736.558	0.0178137
736.636	0.0177982
736.714	0.0177862
736.792	0.0178354
736.870	0.0178146
736.948	0.0181116
737.026	0.0181072
737.104	0.0180470
737.183	0.0181772
737.261	0.0182265
737.339	0.0182066
737.417	0.0182659
737.495	0.0181832
737.573	0.0180724
737.651	0.0182079
737.729	0.0181024
737.808	0.0180436
737.886	0.0181112
737.964	0.0179987
738.042	0.0179160
738.120	0.0179898
738.198	0.0179099
738.276	0.0179054
738.354	0.0181678
738.433	0.0181681
738.511	0.0182561
738.589	0.0182376
738.667	0.0183287
738.745	0.0182988
738.823	0.0183255
738.901	0.0183253
738.979	0.0182626
739.058	0.0181568
739.136	0.0179981
739.214	0.0181626
739.292	0.0180093
739.370	0.0180214
739.448	0.0178743
739.526	0.0178325
739.604	0.0178951
739.683	0.0177637
739.761	0.0177030
739.839	0.0176824
739.917	0.0177842
739.995	0.0176796
740.073	0.0178309
740.151	0.0178002
740.229	0.0178680
740.308	0.0180606
740.386	0.0180447
740.464	0.0182355
740.542	0.0182606
740.620	0.0183934
740.698	0.0185669
740.776	0.0185535
740.854	0.0187263
740.933	0.0185952
741.011	0.0185838
741.089	0.0185852
741.167	0.0185099
741.245	0.0185553
741.323	0.0185418
741.401	0.0182649
741.479	0.0183823
741.558	0.0183488
741.636	0.0180374
741.714	0.0180064
741.792	0.0180818
741.870	0.0179220
741.948	0.0176486
742.026	0.0177776
742.104	0.0177234
742.183	0.0176184
742.261	0.0176806
742.339	0.0176629
742.417	0.0176687
742.495	0.0177842
742.573	0.0178197
742.651	0.0179225
742.729	0.0181198
742.808	0.0180041
742.886	0.0180258
742.964	0.0181095
743.042	0.0181889
743.120	0.0182483
743.198	0.0183923
743.276	0.0182893
743.354	0.0182197
743.433	0.0182899
743.511	0.0180981
743.589	0.0179354
743.667	0.0179960
743.745	0.0179629
743.823	0.0178253
743.901	0.0176834
743.979	0.0177184
744.058	0.0175653
744.136	0.0175340
744.214	0.0174003
744.292	0.0175468
744.370	0.0173707
744.448	0.0175683
744.526	0.0177339
744.604	0.0176711
744.683	0.0177263
744.761	0.0178494
744.839	0.0180678
744.917	0.0181491
744.995	0.0183301
745.073	0.0185396
745.151	0.0185714
745.229	0.0186629
745.308	0.0188396
745.386	0.0187322
745.464	0.0186943
745.542	0.0186468
745.620	0.0186526
745.698	0.0186712
745.776	0.0187204
745.854	0.0186658
745.933	0.0184164
746.011	0.0184756
746.089	0.0184140
746.167	0.0183504
746.245	0.0182321
746.323	0.0181853
746.401	0.0181403
746.479	0.0180486
746.558	0.0178546
746.636	0.0178746
746.714	0.0177610
746.792	0.0178516
746.870	0.0179802
746.948	0.0178936
747.026	0.0176456
747.104	0.0179025
747.183	0.0178568
747.261	0.0179827
747.339	0.0179770
747.417	0.0180515
747.495	0.0179160
747.573	0.0179293
747.651	0.0178397
747.729	0.0179198
747.808	0.0180186
747.886	0.0180482
747.964	0.0181103
748.042	0.0180292
748.120	0.0180633
748.198	0.0182093
748.276	0.0181672
748.354	0.0182094
748.433	0.0181983
748.511	0.0180630
748.589	0.0180896
748.667	0.0181680
748.745	0.0180927
748.823	0.0181894
748.901	0.0180868
748.979	0.0179742
749.058	0.0181528
749.136	0.0180342
749.214	0.0182211
749.292	0.0182713
749.370	0.0182805
749.448	0.0182363
749.526	0.0181596
749.604	0.0182714
749.683	0.0181798
749.761	0.0182126
749.839	0.0181840
749.917	0.0181909
749.995	0.0180759
750.073	0.0178935
750.151	0.0179672
750.229	0.0179256
750.308	0.0179504
750.386	0.0178741
750.464	0.0177755
750.542	0.0178622
750.620	0.0178941
750.698	0.0179993
750.776	0.0178757
750.854	0.0178497
750.933	0.0180816
751.011	0.0179547
751.089	0.0179194
751.167	0.0180418
751.245	0.0177667
751.323	0.0178062
751.401	0.0178483
751.479	0.0179644
751.558	0.0178746
751.636	0.0178134
751.714	0.0177730
751.792	0.0176643
751.870	0.0177396
751.948	0.0178292
752.026	0.0180048
752.104	0.0179288
752.183	0.0179303
752.261	0.0180018
752.339	0.0181958
752.417	0.0183082
752.495	0.0182720
752.573	0.0184592
752.651	0.0184142
752.729	0.0185709
752.808	0.0186520
752.886	0.0185352
752.964	0.0186095
753.042	0.0186987
753.120	0.0186642
753.198	0.0185940
753.276	0.0186446
753.354	0.0186050
753.433	0.0186231
753.511	0.0185177
753.589	0.0183203
753.667	0.0184887
753.745	0.0182607
753.823	0.0181106
753.901	0.0181767
753.979	0.0182472
754.058	0.0181343
754.136	0.0180041
754.214	0.0179083
754.292	0.0179307
754.370	0.0178063
754.448	0.0177988
754.526	0.0177258
754.604	0.0175622
754.683	0.0175242
754.761	0.0176021
754.839	0.0175984
754.917	0.0176245
754.995	0.0177419
755.073	0.0178311
755.151	0.0178430
755.229	0.0179180
755.308	0.0179633
755.386	0.0181615
755.464	0.0181268
755.542	0.0182337
755.620	0.0183531
755.698	0.0182718
755.776	0.0182560
755.854	0.0182359
755.933	0.0182222
756.011	0.0181370
756.089	0.0180565
756.167	0.0180994
756.245	0.0180384
756.323	0.0180491
756.401	0.0180437
756.479	0.0179671
756.558	0.0179456
756.636	0.0178589
756.714	0.0179198
756.792	0.0178653
756.870	0.0180335
756.948	0.0179053
757.026	0.0179641
757.104	0.0177796
757.183	0.0179309
757.261	0.0180999
757.339	0.0179688
757.417	0.0179690
757.495	0.0180489
757.573	0.0180750
757.651	0.0181053
757.729	0.0182497
757.808	0.0183231
757.886	0.0183515
757.964	0.0182655
758.042	0.0185251
758.120	0.0184192
758.198	0.0182630
758.276	0.0181760
758.354	0.0183627
758.433	0.0183507
758.511	0.0183375
758.589	0.0181259
758.667	0.0181766
758.745	0.0178600
758.823	0.0178996
758.901	0.0179072
758.979	0.0177304
759.058	0.0179837
759.136	0.0177749
759.214	0.0177335
759.292	0.0177322
759.370	0.0179154
759.448	0.0179034
759.526	0.0178967
759.604	0.0179453
759.683	0.0180254
759.761	0.0181753
759.839	0.0182880
759.917	0.0183046
759.995	0.0184871
760.073	0.0183746
760.151	0.0185529
760.229	0.0183916
760.308	0.0187452
760.386	0.0185650
760.464	0.0184147
760.542	0.0185109
760.620	0.0184325
760.698	0.0184627
760.776	0.0182958
760.854	0.0180937
760.933	0.0180927
761.011	0.0179880
761.089	0.0179994
761.167	0.0180875
761.245	0.0180988
761.323	0.0178433
761.401	0.0178934
761.479	0.0179799
761.558	0.0180575
761.636	0.0181558
761.714	0.0179942
761.792	0.0180803
761.870	0.0181414
761.948	0.0182700
762.026	0.0182955
762.104	0.0183041
762.183	0.0184253
762.261	0.0184493
762.339	0.0184010
762.417	0.0183895
762.495	0.0184301
762.573	0.0184085
762.651	0.0183420
762.729	0.0181623
762.808	0.0182004
762.886	0.0182284
762.964	0.0180879
763.042	0.0180362
763.120	0.0181099
763.198	0.0179721
763.276	0.0179514
763.354	0.0178275
763.433	0.0178460
763.511	0.0176955
763.589	0.0177559
763.667	0.0177582
763.745	0.0178582
763.823	0.0177805
763.901	0.0179021
763.979	0.0179002
764.058	0.0178278
764.136	0.0179086
764.214	0.0179883
764.292	0.0179005
764.370	0.0181349
764.448	0.0180659
764.526	0.0180485
764.604	0.0180546
764.683	0.0178446
764.761	0.0179895
764.839	0.0180442
764.917	0.0179954
764.995	0.0180312
765.073	0.0180273
765.151	0.0181493
765.229	0.0180978
765.308	0.0179895
765.386	0.0181384
765.464	0.0182742
765.542	0.0181104
765.620	0.0180856
765.698	0.0181199
765.776	0.0182616
765.854	0.0182649
765.933	0.0183112
766.011	0.0184074
766.089	0.0183163
766.167	0.0182821
766.245	0.0182501
766.323	0.0182109
766.401	0.0180887
766.479	0.0180974
766.558	0.0181467
766.636	0.0180440
766.714	0.0179982
766.792	0.0178878
766.870	0.0179057
766.948	0.0179424
767.026	0.0179850
767.104	0.0178623
767.183	0.0179790
767.261	0.0181732
767.339	0.0181812
767.417	0.0181048
767.495	0.0183235
767.573	0.0181956
767.651	0.0181624
767.729	0.0183261
767.808	0.0184586
767.886	0.0184138
767.964	0.0185394
768.042	0.0184712
768.120	0.0183592
768.198	0.0183860
768.276	0.0185531
768.354	0.0184028
768.433	0.0182854
768.511	0.0182885
768.589	0.0182483
768.667	0.0180843
768.745	0.0180109
768.823	0.0179925
768.901	0.0178944
768.979	0.0177673
769.058	0.0178581
769.136	0.0177579
769.214	0.0177177
769.292	0.0177961
769.370	0.0177054
769.448	0.0177950
769.526	0.0177769
769.604	0.0178167
769.683	0.0178848
769.761	0.0180666
769.839	0.0181374
769.917	0.0180925
769.995	0.0181986
770.073	0.0182095
770.151	0.0182223
770.229	0.0181948
770.308	0.0183141
770.386	0.0182384
770.464	0.0179887
770.542	0.0179731
770.620	0.0180929
770.698	0.0180552
770.776	0.0179277
770.854	0.0179795
770.933	0.0179717
771.011	0.0179533
771.089	0.0178027
771.167	0.0178152
771.245	0.0178732
771.323	0.0177118
771.401	0.0177486
771.479	0.0177618
771.558	0.0178416
771.636	0.0178133
771.714	0.0179336
771.792	0.0180182
771.870	0.0179941
771.948	0.0181698
772.026	0.0180297
772.104	0.0180081
772.183	0.0181424
772.261	0.0181009
772.339	0.0182257
772.417	0.0183176
772.495	0.0182635
772.573	0.0181525
772.651	0.0182362
772.729	0.0182944
772.808	0.0182763
772.886	0.0182762
772.964	0.0183997
773.042	0.0182942
773.120	0.0183752
773.198	0.0182533
773.276	0.0182733
773.354	0.0183508
773.433	0.0181416
773.511	0.0182699
773.589	0.0181790
773.667	0.0179638
773.745	0.0181917
773.823	0.0180608
773.901	0.0179563
773.979	0.0180580
774.058	0.0179816
774.136	0.0178799
774.214	0.0179375
774.292	0.0181194
774.370	0.0178594
774.448	0.0178849
774.526	0.0179246
774.604	0.0179357
774.683	0.0180863
774.761	0.0180059
774.839	0.0181617
774.917	0.0181753
774.995	0.0181863
775.073	0.0182214
775.151	0.0183079
775.229	0.0182841
775.308	0.0182610
775.386	0.0181971
775.464	0.0182516
775.542	0.0184163
775.620	0.0183157
775.698	0.0182845
775.776	0.0182671
775.854	0.0183486
775.933	0.0181442
776.011	0.0180909
776.089	0.0181577
776.167	0.0181322
776.245	0.0179939
776.323	0.0178669
776.401	0.0179799
776.479	0.0178303
776.558	0.0177923
776.636	0.0177222
776.714	0.0179259
776.792	0.0180498
776.870	0.0178812
776.948	0.0179359
777.026	0.0179353
777.104	0.0179199
777.183	0.0179804
777.261	0.0180154
777.339	0.0181061
777.417	0.0181581
777.495	0.0182597
777.573	0.0181842
777.651	0.0181608
777.729	0.0182645
777.808	0.0182492
777.886	0.0183820
777.964	0.0183100
778.042	0.0184570
778.120	0.0183382
778.198	0.0183456
778.276	0.0183058
778.354	0.0180643
778.433	0.0181303
778.511	0.0181404
778.589	0.0181709
778.667	0.0180676
778.745	0.0179507
778.823	0.0178070
778.901	0.0179162
778.979	0.0179134
779.058	0.0178448
779.136	0.0178669
779.214	0.0180576
779.292	0.0178105
779.370	0.0177595
779.448	0.0178362
779.526	0.0180393
779.604	0.0179176
779.683	0.0180621
779.761	0.0179884
779.839	0.0179982
779.917	0.0182471
779.995	0.0180859
780.073	0.0181419
780.151	0.0182935
780.229	0.0183917
780.308	0.0181938
780.386	0.0182439
780.464	0.0183463
780.542	0.0183465
780.620	0.0183017
780.698	0.0183250
780.776	0.0182775
780.854	0.0183084
780.933	0.0181786
781.011	0.0181675
781.089	0.0181297
781.167	0.0180692
781.245	0.0180547
781.323	0.0179777
781.401	0.0179474
781.479	0.0178286
781.558	0.0179472
781.636	0.0179099
781.714	0.0178493
781.792	0.0178516
781.870	0.0179049
781.948	0.0177891
782.026	0.0179833
782.104	0.0179486
782.183	0.0179608
782.261	0.0179376
782.339	0.0179943
782.417	0.0181139
782.495	0.0180602
782.573	0.0180479
782.651	0.0181477
782.729	0.0181037
782.808	0.0181869
782.886	0.0183009
782.964	0.0183411
783.042	0.0182488
783.120	0.0182580
783.198	0.0183305
783.276	0.0183862
783.354	0.0182788
783.433	0.0182833
783.511	0.0182394
783.589	0.0181227
783.667	0.0181969
783.745	0.0181635
783.823	0.0179999
783.901	0.0179410
783.979	0.0180001
784.058	0.0179254
784.136	0.0180193
784.214	0.0179876
784.292	0.0179881
784.370	0.0180769
784.448	0.0179261
784.526	0.0180977
784.604	0.0181303
784.683	0.0181067
784.761	0.0181585
784.839	0.0181708
784.917	0.0180910
784.995	0.0183319
785.073	0.0181354
785.151	0.0181953
785.229	0.0183798
785.308	0.0182895
785.386	0.0184273
785.464	0.0183247
785.542	0.0182757
785.620	0.0182417
785.698	0.0182344
785.776	0.0182691
785.854	0.0182706
785.933	0.0181503
786.011	0.0181485
786.089	0.0180042
786.167	0.0179174
786.245	0.0179028
786.323	0.0179667
786.401	0.0179869
786.479	0.0178557
786.558	0.0178316
786.636	0.0176633
786.714	0.0178452
786.792	0.0178841
786.870	0.0179014
786.948	0.0178693
787.026	0.0179474
787.104	0.0180466
787.183	0.0181458
787.261	0.0181266
787.339	0.0180831
787.417	0.0182482
787.495	0.0183263
787.573	0.0183847
787.651	0.0183624
787.729	0.0183481
787.808	0.0183669
787.886	0.0184995
787.964	0.0183025
788.042	0.0182652
788.120	0.0182932
788.198	0.0183987
788.276	0.0183090
788.354	0.0182838
788.433	0.0180832
788.511	0.0179633
788.589	0.0180446
788.667	0.0179203
788.745	0.0179863
788.823	0.0180428
788.901	0.0178423
788.979	0.0178609
789.058	0.0179104
789.136	0.0178857
789.214	0.0180231
789.292	0.0178424
789.370	0.0179365
789.448	0.0180315
789.526	0.0179771
789.604	0.0181458
789.683	0.0182489
789.761	0.0181252
789.839	0.0181990
789.917	0.0182413
789.995	0.0183562
790.073	0.0182071
790.151	0.0182315
790.229	0.0182635
790.308	0.0181318
790.386	0.0181624
790.464	0.0182482
790.542	0.0182199
790.620	0.0183291
790.698	0.0184309
790.776	0.0183053
790.854	0.0183672
790.933	0.0183448
791.011	0.0183510
791.089	0.0182778
791.167	0.0183114
791.245	0.0183353
791.323	0.0183047
791.401	0.0181799
791.479	0.0182372
791.558	0.0182889
791.636	0.0183569
791.714	0.0182521
791.792	0.0180981
791.870	0.0180189
791.948	0.0180524
792.026	0.0180099
792.104	0.0180409
792.183	0.0180965
792.261	0.0179250
792.339	0.0179454
792.417	0.0180522
792.495	0.0180578
792.573	0.0180166
792.651	0.0181052
792.729	0.0180631
792.808	0.0180927
792.886	0.0180754
792.964	0.0181274
793.042	0.0183194
793.120	0.0182156
793.198	0.0180658
793.276	0.0182786
793.354	0.0182005
793.433	0.0182822
793.511	0.0180666
793.589	0.0180340
793.667	0.0180249
793.745	0.0182874
793.823	0.0180954
793.901	0.0178930
793.979	0.0179709
794.058	0.0179122
794.136	0.0179816
794.214	0.0178501
794.292	0.0178599
794.370	0.0178065
794.448	0.0179503
794.526	0.0179749
794.604	0.0179110
794.683	0.0180237
794.761	0.0180321
794.839	0.0179355
794.917	0.0180429
794.995	0.0181923
795.073	0.0182089
795.151	0.0183292
795.229	0.0182368
795.308	0.0183275
795.386	0.0184867
795.464	0.0183761
795.542	0.0184507
795.620	0.0185152
795.698	0.0185847
795.776	0.0184101
795.854	0.0182914
795.933	0.0182218
796.011	0.0182677
796.089	0.0181830
796.167	0.0179307
796.245	0.0179952
796.323	0.0179440
796.401	0.0180160
796.479	0.0177973
796.558	0.0177917
796.636	0.0177658
796.714	0.0176987
796.792	0.0176301
796.870	0.0176379
796.948	0.0178254
797.026	0.0178099
797.104	0.0180195
797.183	0.0180268
797.261	0.0181931
797.339	0.0180958
797.417	0.0181631
797.495	0.0182746
797.573	0.0183163
797.651	0.0184446
797.729	0.0183987
797.808	0.0184943
797.886	0.0184185
797.964	0.0183497
798.042	0.0183620
798.120	0.0182840
798.198	0.0183193
798.276	0.0183434
798.354	0.0181632
798.433	0.0180853
798.511	0.0179958
798.589	0.0179687
798.667	0.0179006
798.745	0.0179401
798.823	0.0178329
798.901	0.0177779
798.979	0.0178312
799.058	0.0178667
799.136	0.0178927
799.214	0.0180870
799.292	0.0178488
799.370	0.0180210
799.448	0.0180006
799.526	0.0180627
799.604	0.0180566
799.683	0.0179590
799.761	0.0181931
799.839	0.0180791
799.917	0.0181719
799.995	0.0181835
800.073	0.0181673
800.151	0.0179860
800.229	0.0181428
800.308	0.0181378
800.386	0.0178832
800.464	0.0181691
800.542	0.0180729
800.620	0.0180553
800.698	0.0180316
800.776	0.0180163
800.854	0.0179621
800.933	0.0179360
801.011	0.0180782
801.089	0.0180434
801.167	0.0181073
801.245	0.0179932
801.323	0.0182166
801.401	0.0181993
801.479	0.0181275
801.558	0.0181493
801.636	0.0181688
801.714	0.0181846
801.792	0.0182701
801.870	0.0182354
801.948	0.0181546
802.026	0.0182330
802.104	0.0181544
802.183	0.0180556
802.261	0.0180521
802.339	0.0180933
802.417	0.0180705
802.495	0.0178860
802.573	0.0179971
802.651	0.0178014
802.729	0.0179108
802.808	0.0179362
802.886	0.0179531
802.964	0.0179514
803.042	0.0180015
803.120	0.0181362
803.198	0.0180735
803.276	0.0181406
803.354	0.0180964
803.433	0.0182859
803.511	0.0180631
803.589	0.0182836
803.667	0.0183239
803.745	0.0182172
803.823	0.0180975
803.901	0.0181692
803.979	0.0182111
804.058	0.0182024
804.136	0.0180818
804.214	0.0180446
804.292	0.0181049
804.370	0.0179496
804.448	0.0177853
804.526	0.0178365
804.604	0.0177454
804.683	0.0176774
804.761	0.0176842
804.839	0.0175777
804.917	0.0175694
804.995	0.0176865
805.073	0.0176640
805.151	0.0176360
805.229	0.0177170
805.308	0.0178957
805.386	0.0180384
805.464	0.0181905
805.542	0.0183281
805.620	0.0183784
805.698	0.0184386
805.776	0.0184917
805.854	0.0185081
805.933	0.0185791
806.011	0.0185695
806.089	0.0184617
806.167	0.0183952
806.245	0.0185203
806.323	0.0183166
806.401	0.0182138
806.479	0.0182286
806.558	0.0181509
806.636	0.0180309
806.714	0.0179994
806.792	0.0178420
806.870	0.0178822
806.948	0.0178260
807.026	0.0178881
807.104	0.0178648
807.183	0.0179177
807.261	0.0180021
807.339	0.0180447
807.417	0.0179434
807.495	0.0181490
807.573	0.0180062
807.651	0.0180653
807.729	0.0180800
807.808	0.0180760
807.886	0.0181093
807.964	0.0182816
808.042	0.0183778
808.120	0.0182478
808.198	0.0182333
808.276	0.0182626
808.354	0.0183100
808.433	0.0181355
808.511	0.0181786
808.589	0.0181776
808.667	0.0181230
808.745	0.0181201
808.823	0.0179986
808.901	0.0179248
808.979	0.0178645
809.058	0.0179716
809.136	0.0179560
809.214	0.0180051
809.292	0.0178516
809.370	0.0179211
809.448	0.0180169
809.526	0.0179444
809.604	0.0180235
809.683	0.0181331
809.761	0.0180354
809.839	0.0179768
809.917	0.0181113
809.995	0.0181750
810.073	0.0181140
810.151	0.0182310
810.229	0.0182787
810.308	0.0181904
810.386	0.0182925
810.464	0.0183089
810.542	0.0181641
810.620	0.0181445
810.698	0.0180901
810.776	0.0181087
810.854	0.0181664
810.933	0.0181400
811.011	0.0179806
811.089	0.0180061
811.167	0.0180912
811.245	0.0181554
811.323	0.0180730
811.401	0.0181475
811.479	0.0180606
811.558	0.0181927
811.636	0.0181377
811.714	0.0181054
811.792	0.0182154
811.870	0.0181348
811.948	0.0179140
812.026	0.0180916
812.104	0.0180947
812.183	0.0180194
812.261	0.0179593
812.339	0.0179766
812.417	0.0181135
812.495	0.0180357
812.573	0.0180777
812.651	0.0180868
812.729	0.0180043
812.808	0.0180618
812.886	0.0179803
812.964	0.0181112
813.042	0.0181432
813.120	0.0180753
813.198	0.0182430
813.276	0.0182546
813.354	0.0181912
813.433	0.0181782
813.511	0.0182446
813.589	0.0182243
813.667	0.0181259
813.745	0.0181149
813.823	0.0180824
813.901	0.0180697
813.979	0.0182864
814.058	0.0181407
814.136	0.0181324
814.214	0.0181034
814.292	0.0180511
814.370	0.0180487
814.448	0.0180808
814.526	0.0179711
814.604	0.0179649
814.683	0.0179980
814.761	0.0179339
814.839	0.0179420
814.917	0.0180866
814.995	0.0181111
815.073	0.0180493
815.151	0.0181023
815.229	0.0179884
815.308	0.0179213
815.386	0.0181058
815.464	0.0181398
815.542	0.0182230
815.620	0.0182780
815.698	0.0183492
815.776	0.0182397
815.854	0.0182843
815.933	0.0184293
816.011	0.0184112
816.089	0.0183736
816.167	0.0183313
816.245	0.0185432
816.323	0.0183847
816.401	0.0182407
816.479	0.0181437
816.558	0.0181847
816.636	0.0182343
816.714	0.0180714
816.792	0.0178955
816.870	0.0178739
816.948	0.0178083
817.026	0.0177342
817.104	0.0177934
817.183	0.0178671
817.261	0.0177341
817.339	0.0179924
817.417	0.0179033
817.495	0.0178979
817.573	0.0180708
817.651	0.0179566
817.729	0.0180058
817.808	0.0181300
817.886	0.0181952
817.964	0.0183966
818.042	0.0183705
818.120	0.0182349
818.198	0.0183746
818.276	0.0184151
818.354	0.0182631
818.433	0.0183898
818.511	0.0184461
818.589	0.0182845
818.667	0.0181308
818.745	0.0183147
818.823	0.0182098
818.901	0.0181639
818.979	0.0181718
819.058	0.0180434
819.136	0.0180350
819.214	0.0179852
819.292	0.0180709
819.370	0.0181054
819.448	0.0180476
819.526	0.0179668
819.604	0.0180883
819.683	0.0180541
819.761	0.0181567
819.839	0.0180856
819.917	0.0179189
819.995	0.0181477
820.073	0.0181075
820.151	0.0180611
820.229	0.0181558
820.308	0.0181038
820.386	0.0180639
820.464	0.0179756
820.542	0.0181903
820.620	0.0180444
820.698	0.0179372
820.776	0.0180357
820.854	0.0180612
820.933	0.0181763
821.011	0.0179114
821.089	0.0179562
821.167	0.0179246
821.245	0.0180158
821.323	0.0181146
821.401	0.0180679
821.479	0.0181304
821.558	0.0181066
821.636	0.0179836
821.714	0.0181092
821.792	0.0182191
821.870	0.0181617
821.948	0.0181225
822.026	0.0181608
822.104	0.0181810
822.183	0.0180612
822.261	0.0182455
822.339	0.0182676
822.417	0.0181909
822.495	0.0180504
822.573	0.0181577
822.651	0.0180849
822.729	0.0180373
822.808	0.0181172
822.886	0.0179866
822.964	0.0177911
823.042	0.0179967
823.120	0.0181303
823.198	0.0181568
823.276	0.0180099
823.354	0.0179664
823.433	0.0181856
823.511	0.0180606
823.589	0.0180515
823.667	0.0182711
823.745	0.0182160
823.823	0.0181209
823.901	0.0182109
823.979	0.0181977
824.058	0.0181411
824.136	0.0181963
824.214	0.0181437
824.292	0.0181167
824.370	0.0180738
824.448	0.0182385
824.526	0.0180308
824.604	0.0179723
824.683	0.0180023
824.761	0.0180038
824.839	0.0180753
824.917	0.0180199
824.995	0.0178557
825.073	0.0178652
825.151	0.0179705
825.229	0.0178953
825.308	0.0177860
825.386	0.0178211
825.464	0.0179377
825.542	0.0177527
825.620	0.0178693
825.698	0.0179238
825.776	0.0179252
825.854	0.0179034
825.933	0.0180369
826.011	0.0178468
826.089	0.0179976
826.167	0.0180831
826.245	0.0181054
826.323	0.0179382
826.401	0.0180594
826.479	0.0179611
826.558	0.0180900
826.636	0.0181107
826.714	0.0180243
826.792	0.0181874
826.870	0.0180267
826.948	0.0180002
827.026	0.0181606
827.104	0.0179891
827.183	0.0180775
827.261	0.0182322
827.339	0.0181111
827.417	0.0180896
827.495	0.0181712
827.573	0.0181954
827.651	0.0181293
827.729	0.0181941
827.808	0.0182371
827.886	0.0181255
827.964	0.0181477
828.042	0.0181467
828.120	0.0182190
828.198	0.0180914
828.276	0.0180115
828.354	0.0181315
828.433	0.0181071
828.511	0.0181026
828.589	0.0179756
828.667	0.0180000
828.745	0.0179813
828.823	0.0178908
828.901	0.0179657
828.979	0.0179353
829.058	0.0178848
829.136	0.0179740
829.214	0.0179221
829.292	0.0179510
829.370	0.0177772
829.448	0.0178082
829.526	0.0178047
829.604	0.0178597
829.683	0.0177764
829.761	0.0179609
829.839	0.0180116
829.917	0.0180390
829.995	0.0179642
830.073	0.0180476
830.151	0.0179729
830.229	0.0180119
830.308	0.0181045
830.386	0.0181207
830.464	0.0181658
830.542	0.0181621
830.620	0.0182133
830.698	0.0182625
830.776	0.0182999
830.854	0.0181929
830.933	0.0183911
831.011	0.0183153
831.089	0.0182895
831.167	0.0181417
831.245	0.0181596
831.323	0.0183160
831.401	0.0182019
831.479	0.0181576
831.558	0.0180688
831.636	0.0181254
831.714	0.0181436
831.792	0.0179803
831.870	0.0180479
831.948	0.0180554
832.026	0.0180271
832.104	0.0179987
832.183	0.0179842
832.261	0.0180595
832.339	0.0180711
832.417	0.0178990
832.495	0.0181150
832.573	0.0179857
832.651	0.0179697
832.729	0.0181561
832.808	0.0181568
832.886	0.0181454
832.964	0.0183186
833.042	0.0181865
833.120	0.0181774
833.198	0.0181725
833.276	0.0181596
833.354	0.0182397
833.433	0.0181849
833.511	0.0181660
833.589	0.0179578
833.667	0.0179851
833.745	0.0180560
833.823	0.0181114
833.901	0.0180159
833.979	0.0179532
834.058	0.0179053
834.136	0.0179668
834.214	0.0178651
834.292	0.0178226
834.370	0.0179131
834.448	0.0178521
834.526	0.0179599
834.604	0.0179315
834.683	0.0180505
834.761	0.0180299
834.839	0.0181499
834.917	0.0183807
834.995	0.0181628
835.073	0.0181889
835.151	0.0184126
835.229	0.0183259
835.308	0.0183324
835.386	0.0184753
835.464	0.0183133
835.542	0.0183162
835.620	0.0183147
835.698	0.0182162
835.776	0.0182987
835.854	0.0182865
835.933	0.0181491
836.011	0.0181599
836.089	0.0181010
836.167	0.0181033
836.245	0.0181052
836.323	0.0180279
836.401	0.0179492
836.479	0.0180803
836.558	0.0180949
836.636	0.0179538
836.714	0.0180893
836.792	0.0182155
836.870	0.0182469
836.948	0.0181901
837.026	0.0181400
837.104	0.0183337
837.183	0.0182647
837.261	0.0181468
837.339	0.0182371
837.417	0.0181812
837.495	0.0182405
837.573	0.0182074
837.651	0.0181609
837.729	0.0180811
837.808	0.0180905
837.886	0.0180552
837.964	0.0179881
838.042	0.0180686
838.120	0.0179525
838.198	0.0179762
838.276	0.0180347
838.354	0.0178956
838.433	0.0180406
838.511	0.0179968
838.589	0.0180782
838.667	0.0182450
838.745	0.0181358
838.823	0.0182195
838.901	0.0181405
838.979	0.0182230
839.058	0.0182523
839.136	0.0181153
839.214	0.0182552
839.292	0.0182761
839.370	0.0182842
839.448	0.0182430
839.526	0.0180455
839.604	0.0182243
839.683	0.0181203
839.761	0.0180264
839.839	0.0180497
839.917	0.0179779
839.995	0.0179792
840.073	0.0181396
840.151	0.0180801
840.229	0.0178842
840.308	0.0177952
840.386	0.0178649
840.464	0.0178871
840.542	0.0179892
840.620	0.0179704
840.698	0.0178383
840.776	0.0178931
840.854	0.0178844
840.933	0.0179972
841.011	0.0180476
841.089	0.0180888
841.167	0.0182157
841.245	0.0182736
841.323	0.0181777
841.401	0.0183250
841.479	0.0182553
841.558	0.0182421
841.636	0.0183232
841.714	0.0183418
841.792	0.0183881
841.870	0.0182820
841.948	0.0183376
842.026	0.0182591
842.104	0.0183075
842.183	0.0181912
842.261	0.0182902
842.339	0.0181258
842.417	0.0182143
842.495	0.0181398
842.573	0.0180909
842.651	0.0181520
842.729	0.0181977
842.808	0.0180599
842.886	0.0182210
842.964	0.0181679
843.042	0.0180350
843.120	0.0180473
843.198	0.0182024
843.276	0.0181415
843.354	0.0181319
843.433	0.0180737
843.511	0.0181624
843.589	0.0182079
843.667	0.0181783
843.745	0.0181445
843.823	0.0181287
843.901	0.0180832
843.979	0.0181573
844.058	0.0181886
844.136	0.0181271
844.214	0.0179585
844.292	0.0181216
844.370	0.0181337
844.448	0.0181796
844.526	0.0180512
844.604	0.0180114
844.683	0.0181287
844.761	0.0179951
844.839	0.0179826
844.917	0.0180831
844.995	0.0179217
845.073	0.0179899
845.151	0.0180805
845.229	0.0180937
845.308	0.0179550
845.386	0.0179938
845.464	0.0180556
845.542	0.0180496
845.620	0.0182607
845.698	0.0181477
845.776	0.0182603
845.854	0.0182384
845.933	0.0181248
846.011	0.0180995
846.089	0.0181793
846.167	0.0181185
846.245	0.0182610
846.323	0.0181678
846.401	0.0183243
846.479	0.0183101
846.558	0.0182491
846.636	0.0182218
846.714	0.0183414
846.792	0.0182132
846.870	0.0183129
846.948	0.0181987
847.026	0.0181423
847.104	0.0181952
847.183	0.0182165
847.261	0.0181895
847.339	0.0182168
847.417	0.0182105
847.495	0.0181554
847.573	0.0180644
847.651	0.0180942
847.729	0.0180914
847.808	0.0179740
847.886	0.0180437
847.964	0.0180647
848.042	0.0180486
848.120	0.0179040
848.198	0.0179404
848.276	0.0179874
848.354	0.0179066
848.433	0.0179723
848.511	0.0179356
848.589	0.0181258
848.667	0.0179899
848.745	0.0179415
848.823	0.0179118
848.901	0.0179308
848.979	0.0179017
849.058	0.0178664
849.136	0.0178700
849.214	0.0178909
849.292	0.0178963
849.370	0.0180257
849.448	0.0180634
849.526	0.0179396
849.604	0.0179474
849.683	0.0180799
849.761	0.0179716
849.839	0.0181084
849.917	0.0180092
849.995	0.0181284
850.073	0.0182265
850.151	0.0180483
850.229	0.0180453
850.308	0.0180177
850.386	0.0179857
850.464	0.0181577
850.542	0.0180661
850.620	0.0180013
850.698	0.0180610
850.776	0.0181171
850.854	0.0179652
850.933	0.0179698
851.011	0.0179931
851.089	0.0180573
851.167	0.0180874
851.245	0.0181023
851.323	0.0181612
851.401	0.0180558
851.479	0.0181735
851.558	0.0181262
851.636	0.0180650
851.714	0.0182274
851.792	0.0182592
851.870	0.0181618
851.948	0.0181707
852.026	0.0181240
852.104	0.0183483
852.183	0.0183148
852.261	0.0180575
852.339	0.0182756
852.417	0.0182401
852.495	0.0181095
852.573	0.0181316
852.651	0.0181950
852.729	0.0181469
852.808	0.0181293
852.886	0.0181970
852.964	0.0179962
853.042	0.0179934
853.120	0.0180224
853.198	0.0180085
853.276	0.0180236
853.354	0.0179169
853.433	0.0179706
853.511	0.0179538
853.589	0.0178793
853.667	0.0178217
853.745	0.0179183
853.823	0.0178492
853.901	0.0180656
853.979	0.0179832
854.058	0.0179556
854.136	0.0181139
854.214	0.0180710
854.292	0.0180686
854.370	0.0181368
854.448	0.0180913
854.526	0.0181823
854.604	0.0181366
854.683	0.0181198
854.761	0.0181387
854.839	0.0180824
854.917	0.0181580
854.995	0.0182310
855.073	0.0181201
855.151	0.0181240
855.229	0.0180769
855.308	0.0181336
855.386	0.0182878
855.464	0.0181916
855.542	0.0180350
855.620	0.0180824
855.698	0.0180740
855.776	0.0180530
855.854	0.0181314
855.933	0.0181049
856.011	0.0180410
856.089	0.0180962
856.167	0.0181035
856.245	0.0181412
856.323	0.0180710
856.401	0.0182611
856.479	0.0181699
856.558	0.0181819
856.636	0.0181964
856.714	0.0180282
856.792	0.0181046
856.870	0.0182213
856.948	0.0181569
857.026	0.0180145
857.104	0.0179648
857.183	0.0180601
857.261	0.0181107
857.339	0.0182137
857.417	0.0181170
857.495	0.0180994
857.573	0.0181604
857.651	0.0180835
857.729	0.0180837
857.808	0.0182819
857.886	0.0184454
857.964	0.0181734
858.042	0.0180769
858.120	0.0181019
858.198	0.0181101
858.276	0.0182804
858.354	0.0182990
858.433	0.0181992
858.511	0.0181514
858.589	0.0181423
858.667	0.0180511
858.745	0.0180173
858.823	0.0179467
858.901	0.0180023
858.979	0.0181603
859.058	0.0181087
859.136	0.0181973
859.214	0.0180197
859.292	0.0181459
859.370	0.0182137
859.448	0.0181290
859.526	0.0183580
859.604	0.0181321
859.683	0.0181894
859.761	0.0180442
859.839	0.0182957
859.917	0.0183020
859.995	0.0181438
860.073	0.0181158
860.151	0.0182439
860.229	0.0183231
860.308	0.0182311
860.386	0.0181068
860.464	0.0181536
860.542	0.0181216
860.620	0.0182519
860.698	0.0179933
860.776	0.0180315
860.854	0.0182145
860.933	0.0180798
861.011	0.0181738
861.089	0.0180051
861.167	0.0179366
861.245	0.0180833
861.323	0.0180710
861.401	0.0181300
861.479	0.0180924
861.558	0.0181452
861.636	0.0181739
861.714	0.0182764
861.792	0.0181315
861.870	0.0181704
861.948	0.0181356
862.026	0.0180553
862.104	0.0181528
862.183	0.0181683
862.261	0.0180161
862.339	0.0181667
862.417	0.0181936
862.495	0.0180402
862.573	0.0180828
862.651	0.0180509
862.729	0.0179317
862.808	0.0179932
862.886	0.0180759
862.964	0.0180721
863.042	0.0180034
863.120	0.0180553
863.198	0.0180533
863.276	0.0181467
863.354	0.0180891
863.433	0.0181459
863.511	0.0180727
863.589	0.0180797
863.667	0.0182500
863.745	0.0182734
863.823	0.0182611
863.901	0.0180686
863.979	0.0181433
864.058	0.0181090
864.136	0.0181663
864.214	0.0181627
864.292	0.0181886
864.370	0.0181950
864.448	0.0181472
864.526	0.0181866
864.604	0.0181119
864.683	0.0182413
864.761	0.0182213
864.839	0.0181664
864.917	0.0181792
864.995	0.0181467
865.073	0.0182065
865.151	0.0182542
865.229	0.0181101
865.308	0.0181656
865.386	0.0181713
865.464	0.0182075
865.542	0.0181640
865.620	0.0181569
865.698	0.0182276
865.776	0.0181254
865.854	0.0182329
865.933	0.0182905
866.011	0.0181184
866.089	0.0182729
866.167	0.0181799
866.245	0.0180790
866.323	0.0179753
866.401	0.0180598
866.479	0.0180908
866.558	0.0179696
866.636	0.0181605
866.714	0.0180404
866.792	0.0181992
866.870	0.0181142
866.948	0.0180952
867.026	0.0181252
867.104	0.0180003
867.183	0.0179003
867.261	0.0180549
867.339	0.0180410
867.417	0.0180036
867.495	0.0180238
867.573	0.0180672
867.651	0.0181840
867.729	0.0180999
867.808	0.0180622
867.886	0.0181831
867.964	0.0182143
868.042	0.0180464
868.120	0.0183003
868.198	0.0181699
868.276	0.0181973
868.354	0.0180526
868.433	0.0183260
868.511	0.0182758
868.589	0.0182994
868.667	0.0182280
868.745	0.0182264
868.823	0.0182587
868.901	0.0182159
868.979	0.0182399
869.058	0.0182278
869.136	0.0180910
869.214	0.0182193
869.292	0.0182333
869.370	0.0183279
869.448	0.0181410
869.526	0.0182523
869.604	0.0182332
869.683	0.0182992
869.761	0.0181867
869.839	0.0181795
869.917	0.0181053
869.995	0.0182056
870.073	0.0180233
870.151	0.0179713
870.229	0.0180474
870.308	0.0180729
870.386	0.0180308
870.464	0.0179793
870.542	0.0180356
870.620	0.0179039
870.698	0.0179425
870.776	0.0178786
870.854	0.0180428
870.933	0.0179959
871.011	0.0181308
871.089	0.0179666
871.167	0.0179921
871.245	0.0181223
871.323	0.0180030
871.401	0.0180143
871.479	0.0183034
871.558	0.0181904
871.636	0.0181738
871.714	0.0182291
871.792	0.0183218
871.870	0.0183227
871.948	0.0182784
872.026	0.0182755
872.104	0.0182453
872.183	0.0183121
872.261	0.0181647
872.339	0.0181669
872.417	0.0182197
872.495	0.0182047
872.573	0.0180621
872.651	0.0180667
872.729	0.0180345
872.808	0.0179388
872.886	0.0179881
872.964	0.0180039
873.042	0.0180743
873.120	0.0180718
873.198	0.0179754
873.276	0.0181483
873.354	0.0180908
873.433	0.0180328
873.511	0.0181005
873.589	0.0180599
873.667	0.0181551
873.745	0.0180183
873.823	0.0182279
873.901	0.0182164
873.979	0.0180524
874.058	0.0180724
874.136	0.0180936
874.214	0.0182027
874.292	0.0181059
874.370	0.0181660
874.448	0.0181851
874.526	0.0180044
874.604	0.0181503
874.683	0.0180135
874.761	0.0180394
874.839	0.0180136
874.917	0.0179475
874.995	0.0178158
875.073	0.0179300
875.151	0.0179921
875.229	0.0178613
875.308	0.0178873
875.386	0.0178956
875.464	0.0180261
875.542	0.0178912
875.620	0.0179309
875.698	0.0181005
875.776	0.0179846
875.854	0.0179575
875.933	0.0181059
876.011	0.0181984
876.089	0.0180531
876.167	0.0182075
876.245	0.0180477
876.323	0.0179890
876.401	0.0180750
876.479	0.0181462
876.558	0.0181580
876.636	0.0181625
876.714	0.0181057
876.792	0.0180616
876.870	0.0181404
876.948	0.0181576
877.026	0.0180447
877.104	0.0180665
877.183	0.0181552
877.261	0.0180703
877.339	0.0180923
877.417	0.0179626
877.495	0.0180499
877.573	0.0181241
877.651	0.0180817
877.729	0.0181520
877.808	0.0180550
877.886	0.0180487
877.964	0.0180728
878.042	0.0179736
878.120	0.0180025
878.198	0.0179005
878.276	0.0181281
878.354	0.0181054
878.433	0.0180148
878.511	0.0181185
878.589	0.0180813
878.667	0.0181333
878.745	0.0179566
878.823	0.0181306
878.901	0.0182142
878.979	0.0181640
879.058	0.0179726
879.136	0.0180852
879.214	0.0181049
879.292	0.0180624
879.370	0.0180560
879.448	0.0181960
879.526	0.0180821
879.604	0.0180865
879.683	0.0180027
879.761	0.0179449
879.839	0.0180550
879.917	0.0181336
879.995	0.0178756
880.073	0.0179825
880.151	0.0179565
880.229	0.0181857
880.308	0.0180737
880.386	0.0180109
880.464	0.0179720
880.542	0.0179840
880.620	0.0180563
880.698	0.0181676
880.776	0.0181339
880.854	0.0181915
880.933	0.0181319
881.011	0.0181508
881.089	0.0180724
881.167	0.0181995
881.245	0.0183008
881.323	0.0182716
881.401	0.0182676
881.479	0.0181853
881.558	0.0183453
881.636	0.0184446
881.714	0.0182236
881.792	0.0182063
881.870	0.0182388
881.948	0.0182227
882.026	0.0181170
882.104	0.0181755
882.183	0.0181445
882.261	0.0182373
882.339	0.0182463
882.417	0.0181575
882.495	0.0180398
882.573	0.0180746
882.651	0.0179350
882.729	0.0180674
882.808	0.0181361
882.886	0.0180637
882.964	0.0179747
883.042	0.0180378
883.120	0.0180072
883.198	0.0182062
883.276	0.0180836
883.354	0.0181300
883.433	0.0180357
883.511	0.0181502
883.589	0.0181182
883.667	0.0180263
883.745	0.0181751
883.823	0.0182148
883.901	0.0180683
883.979	0.0182312
884.058	0.0182079
884.136	0.0182462
884.214	0.0180972
884.292	0.0179505
884.370	0.0181420
884.448	0.0181407
884.526	0.0181061
884.604	0.0180315
884.683	0.0180640
884.761	0.0179451
884.839	0.0180009
884.917	0.0181501
884.995	0.0181331
885.073	0.0181085
885.151	0.0179858
885.229	0.0180624
885.308	0.0180951
885.386	0.0180218
885.464	0.0180278
885.542	0.0182135
885.620	0.0182554
885.698	0.0181765
885.776	0.0181717
885.854	0.0182068
885.933	0.0181257
886.011	0.0180506
886.089	0.0180690
886.167	0.0180470
886.245	0.0181594
886.323	0.0182257
886.401	0.0181570
886.479	0.0180016
886.558	0.0180833
886.636	0.0179963
886.714	0.0182131
886.792	0.0180418
886.870	0.0180843
886.948	0.0180633
887.026	0.0180348
887.104	0.0179836
887.183	0.0180882
887.261	0.0180608
887.339	0.0180277
887.417	0.0180074
887.495	0.0179816
887.573	0.0180104
887.651	0.0179092
887.729	0.0180763
887.808	0.0180821
887.886	0.0180601
887.964	0.0180753
888.042	0.0180039
888.120	0.0181056
888.198	0.0181718
888.276	0.0181449
888.354	0.0181164
888.433	0.0182326
888.511	0.0181985
888.589	0.0182020
888.667	0.0181669
888.745	0.0180655
888.823	0.0181348
888.901	0.0181152
888.979	0.0179062
889.058	0.0179721
889.136	0.0180016
889.214	0.0179400
889.292	0.0177358
889.370	0.0179790
889.448	0.0178943
889.526	0.0179532
889.604	0.0178379
889.683	0.0179362
889.761	0.0180692
889.839	0.0180514
889.917	0.0179854
889.995	0.0181679
890.073	0.0181203
890.151	0.0181561
890.229	0.0182424
890.308	0.0183822
890.386	0.0185709
890.464	0.0185255
890.542	0.0184306
890.620	0.0184560
890.698	0.0184842
890.776	0.0183987
890.854	0.0183931
890.933	0.0183585
891.011	0.0182803
891.089	0.0181411
891.167	0.0180756
891.245	0.0179488
891.323	0.0179144
891.401	0.0176747
891.479	0.0176466
891.558	0.0176167
891.636	0.0174277
891.714	0.0175327
891.792	0.0175919
891.870	0.0175448
891.948	0.0177097
892.026	0.0177260
892.104	0.0178133
892.183	0.0179296
892.261	0.0180865
892.339	0.0182343
892.417	0.0183006
892.495	0.0184830
892.573	0.0187140
892.651	0.0186559
892.729	0.0186848
892.808	0.0187604
892.886	0.0188359
892.964	0.0186777
893.042	0.0185988
893.120	0.0186552
893.198	0.0185926
893.276	0.0182079
893.354	0.0180457
893.433	0.0181145
893.511	0.0179111
893.589	0.0176987
893.667	0.0175343
893.745	0.0174762
893.823	0.0172612
893.901	0.0172913
893.979	0.0174630
894.058	0.0173962
894.136	0.0174461
894.214	0.0175568
894.292	0.0174954
894.370	0.0177164
894.448	0.0180444
894.526	0.0180550
894.604	0.0180716
894.683	0.0183634
894.761	0.0185322
894.839	0.0185608
894.917	0.0185674
894.995	0.0186531
895.073	0.0186823
895.151	0.0185756
895.229	0.0185773
895.308	0.0184698
895.386	0.0183060
895.464	0.0183759
895.542	0.0182973
895.620	0.0181973
895.698	0.0180679
895.776	0.0179880
895.854	0.0179574
895.933	0.0178770
896.011	0.0179379
896.089	0.0177917
896.167	0.0177952
896.245	0.0177699
896.323	0.0176669
896.401	0.0176420
896.479	0.0177642
896.558	0.0178117
896.636	0.0178902
896.714	0.0180173
896.792	0.0180648
896.870	0.0182500
896.948	0.0182354
897.026	0.0183934
897.104	0.0184447
897.183	0.0183965
897.261	0.0185790
897.339	0.0184588
897.417	0.0182935
897.495	0.0183753
897.573	0.0185425
897.651	0.0184350
897.729	0.0181409
897.808	0.0181749
897.886	0.0181913
897.964	0.0179478
898.042	0.0179636
898.120	0.0178706
898.198	0.0177406
898.276	0.0177393
898.354	0.0177985
898.433	0.0178004
898.511	0.0177397
898.589	0.0177547
898.667	0.0177294
898.745	0.0176603
898.823	0.0177224
898.901	0.0177888
898.979	0.0178297
899.058	0.0177596
899.136	0.0178285
899.214	0.0179775
899.292	0.0180339
899.370	0.0179790
899.448	0.0178905
899.526	0.0180865
899.604	0.0181998
899.683	0.0180999
899.761	0.0181494
899.839	0.0182404
899.917	0.0182324
899.995	0.0183041
900.073	0.0183771
900.151	0.0184386
900.229	0.0185401
900.308	0.0185738
900.386	0.0185555
900.464	0.0184537
900.542	0.0184688
900.620	0.0184068
900.698	0.0183066
900.776	0.0184072
900.854	0.0183601
900.933	0.0180979
901.011	0.0181658
901.089	0.0180204
901.167	0.0177209
901.245	0.0177457
901.323	0.0177760
901.401	0.0177102
901.479	0.0176463
901.558	0.0176035
901.636	0.0175299
901.714	0.0175849
901.792	0.0176723
901.870	0.0176897
901.948	0.0177635
902.026	0.0178103
902.104	0.0178279
902.183	0.0182436
902.261	0.0183225
902.339	0.0181928
902.417	0.0183041
902.495	0.0184219
902.573	0.0184054
902.651	0.0185345
902.729	0.0184501
902.808	0.0183868
902.886	0.0184177
902.964	0.0182423
903.042	0.0181867
903.120	0.0183038
903.198	0.0180498
903.276	0.0179254
903.354	0.0179007
903.433	0.0178445
903.511	0.0178029
903.589	0.0177846
903.667	0.0177589
903.745	0.0178375
903.823	0.0179233
903.901	0.0176658
903.979	0.0176268
904.058	0.0178353
904.136	0.0178851
904.214	0.0178257
904.292	0.0179383
904.370	0.0177980
904.448	0.0178918
904.526	0.0181961
904.604	0.0181487
904.683	0.0182317
904.761	0.0181457
904.839	0.0182723
904.917	0.0182561
904.995	0.0183608
905.073	0.0182100
905.151	0.0183445
905.229	0.0182439
905.308	0.0180967
905.386	0.0181374
905.464	0.0181348
905.542	0.0180846
905.620	0.0179692
905.698	0.0179373
905.776	0.0180280
905.854	0.0179073
905.933	0.0179012
906.011	0.0179760
906.089	0.0178550
906.167	0.0177680
906.245	0.0178558
906.323	0.0179317
906.401	0.0179323
906.479	0.0179993
906.558	0.0179822
906.636	0.0181367
906.714	0.0181200
906.792	0.0180555
906.870	0.0181070
906.948	0.0181081
907.026	0.0182146
907.104	0.0182644
907.183	0.0181077
907.261	0.0181377
907.339	0.0182529
907.417	0.0182433
907.495	0.0181912
907.573	0.0181626
907.651	0.0182423
907.729	0.0181162
907.808	0.0181223
907.886	0.0179716
907.964	0.0180596
908.042	0.0180996
908.120	0.0179974
908.198	0.0180615
908.276	0.0181257
908.354	0.0179768
908.433	0.0179481
908.511	0.0180357
908.589	0.0179612
908.667	0.0180207
908.745	0.0180005
908.823	0.0181194
908.901	0.0181293
908.979	0.0182329
909.058	0.0181772
909.136	0.0181059
909.214	0.0180468
909.292	0.0180515
909.370	0.0180139
909.448	0.0181115
909.526	0.0180118
909.604	0.0179667
909.683	0.0179675
909.761	0.0179351
909.839	0.0178584
909.917	0.0178423
909.995	0.0178318
910.073	0.0178812
910.151	0.0178333
910.229	0.0177740
910.308	0.0179047
910.386	0.0179012
910.464	0.0180062
910.542	0.0180055
910.620	0.0180247
910.698	0.0180640
910.776	0.0180755
910.854	0.0183739
910.933	0.0182058
911.011	0.0181889
911.089	0.0182693
911.167	0.0184095
911.245	0.0184234
911.323	0.0183230
911.401	0.0183643
911.479	0.0183340
911.558	0.0183666
911.636	0.0182394
911.714	0.0180973
911.792	0.0181685
911.870	0.0181053
911.948	0.0181411
912.026	0.0180005
912.104	0.0180148
912.183	0.0179817
912.261	0.0180125
912.339	0.0180025
912.417	0.0180632
912.495	0.0181330
912.573	0.0179736
912.651	0.0179692
912.729	0.0179852
912.808	0.0181304
912.886	0.0180742
912.964	0.0180544
913.042	0.0181170
913.120	0.0181030
913.198	0.0180473
913.276	0.0182011
913.354	0.0179397
913.433	0.0180148
913.511	0.0182227
913.589	0.0182495
913.667	0.0182883
913.745	0.0183305
913.823	0.0183969
913.901	0.0182583
913.979	0.0182227
914.058	0.0182233
914.136	0.0182036
914.214	0.0182616
914.292	0.0182408
914.370	0.0181325
914.448	0.0181133
914.526	0.0182073
914.604	0.0180612
914.683	0.0181409
914.761	0.0181048
914.839	0.0181254
914.917	0.0180807
914.995	0.0179652
915.073	0.0180396
915.151	0.0180970
915.229	0.0182475
915.308	0.0182880
915.386	0.0182549
915.464	0.0182294
915.542	0.0182541
915.620	0.0183160
915.698	0.0182549
915.776	0.0182265
915.854	0.0181687
915.933	0.0180753
916.011	0.0183793
916.089	0.0182848
916.167	0.0182196
916.245	0.0182272
916.323	0.0181962
916.401	0.0181136
916.479	0.0182130
916.558	0.0179984
916.636	0.0181518
916.714	0.0180486
916.792	0.0179247
916.870	0.0180218
916.948	0.0180192
917.026	0.0179929
917.104	0.0179831
917.183	0.0179418
917.261	0.0179813
917.339	0.0180254
917.417	0.0180254
917.495	0.0179488
917.573	0.0180259
917.651	0.0181306
917.729	0.0181712
917.808	0.0182421
917.886	0.0180776
917.964	0.0180892
918.042	0.0181300
918.120	0.0181464
918.198	0.0183777
918.276	0.0184024
918.354	0.0184312
918.433	0.0183308
918.511	0.0181812
918.589	0.0183283
918.667	0.0182070
918.745	0.0182594
918.823	0.0180762
918.901	0.0180569
918.979	0.0180671
919.058	0.0181733
919.136	0.0180273
919.214	0.0179513
919.292	0.0180621
919.370	0.0180410
919.448	0.0180904
919.526	0.0180920
919.604	0.0181336
919.683	0.0179829
919.761	0.0179376
919.839	0.0180624
919.917	0.0179823
