06/03/2022	18:08:33	Ver.	4.1	UNKNOWN
Optical Delay	599.995081	Delta X		0.078125	Sweeps	1	Scan Rate	0/0
Coordinates	Axis 1	NaN	Axis 2	NaN	Axis 3	NaN	Axis 4	NaN	Axis 5	NaN	Axis 6	0.000000
TX Power	0.000000	RX Power	0.000000

599.995	0.0187405
600.073	0.0187302
600.151	0.0187244
600.229	0.0187396
600.308	0.0187421
600.386	0.0187238
600.464	0.0188406
600.542	0.0186974
600.620	0.0186433
600.698	0.0185721
600.776	0.0187772
600.854	0.0187676
600.933	0.0188826
601.011	0.0187567
601.089	0.0186073
601.167	0.0187312
601.245	0.0187411
601.323	0.0187157
601.401	0.0187090
601.479	0.0188684
601.558	0.0187061
601.636	0.0187093
601.714	0.0187162
601.792	0.0187180
601.870	0.0187446
601.948	0.0188458
602.026	0.0185005
602.104	0.0186999
602.183	0.0184750
602.261	0.0186961
602.339	0.0187570
602.417	0.0187808
602.495	0.0187129
602.573	0.0186063
602.651	0.0186073
602.729	0.0186916
602.808	0.0187341
602.886	0.0186179
602.964	0.0187146
603.042	0.0185342
603.120	0.0186490
603.198	0.0189034
603.276	0.0187329
603.354	0.0187597
603.433	0.0188010
603.511	0.0186539
603.589	0.0187090
603.667	0.0187047
603.745	0.0186576
603.823	0.0186609
603.901	0.0186834
603.979	0.0188438
604.058	0.0187309
604.136	0.0186821
604.214	0.0187164
604.292	0.0187003
604.370	0.0186907
604.448	0.0187708
604.526	0.0188303
604.604	0.0186722
604.683	0.0187404
604.761	0.0185895
604.839	0.0187003
604.917	0.0186904
604.995	0.0186980
605.073	0.0187727
605.151	0.0187514
605.229	0.0187206
605.308	0.0186767
605.386	0.0187438
605.464	0.0188169
605.542	0.0188559
605.620	0.0187352
605.698	0.0186674
605.776	0.0185933
605.854	0.0185757
605.933	0.0187083
606.011	0.0188408
606.089	0.0187167
606.167	0.0186974
606.245	0.0187013
606.323	0.0186243
606.401	0.0189009
606.479	0.0187308
606.558	0.0187666
606.636	0.0188324
606.714	0.0187473
606.792	0.0188121
606.870	0.0187543
606.948	0.0187898
607.026	0.0187169
607.104	0.0188122
607.183	0.0187531
607.261	0.0185530
607.339	0.0187640
607.417	0.0187685
607.495	0.0187098
607.573	0.0187217
607.651	0.0187029
607.729	0.0187128
607.808	0.0187592
607.886	0.0186156
607.964	0.0186359
608.042	0.0187418
608.120	0.0188239
608.198	0.0189365
608.276	0.0186617
608.354	0.0186320
608.433	0.0187790
608.511	0.0187182
608.589	0.0187938
608.667	0.0187797
608.745	0.0187379
608.823	0.0187871
608.901	0.0188500
608.979	0.0188385
609.058	0.0186966
609.136	0.0187683
609.214	0.0186720
609.292	0.0187417
609.370	0.0186895
609.448	0.0186635
609.526	0.0187160
609.604	0.0188211
609.683	0.0187270
609.761	0.0187020
609.839	0.0187278
609.917	0.0188128
609.995	0.0188758
610.073	0.0187944
610.151	0.0187701
610.229	0.0189038
610.308	0.0188534
610.386	0.0186211
610.464	0.0187771
610.542	0.0189433
610.620	0.0187576
610.698	0.0186284
610.776	0.0187838
610.854	0.0188142
610.933	0.0188326
611.011	0.0188161
611.089	0.0187912
611.167	0.0187990
611.245	0.0187791
611.323	0.0187183
611.401	0.0186696
611.479	0.0187302
611.558	0.0187254
611.636	0.0187664
611.714	0.0187254
611.792	0.0186749
611.870	0.0186426
611.948	0.0188317
612.026	0.0187974
612.104	0.0187602
612.183	0.0186906
612.261	0.0187016
612.339	0.0188065
612.417	0.0188169
612.495	0.0186723
612.573	0.0186381
612.651	0.0186698
612.729	0.0187877
612.808	0.0186875
612.886	0.0187444
612.964	0.0187739
613.042	0.0188943
613.120	0.0187209
613.198	0.0186275
613.276	0.0187896
613.354	0.0187536
613.433	0.0186824
613.511	0.0187240
613.589	0.0187473
613.667	0.0186565
613.745	0.0188008
613.823	0.0187484
613.901	0.0186570
613.979	0.0187019
614.058	0.0187267
614.136	0.0187623
614.214	0.0187466
614.292	0.0187099
614.370	0.0186420
614.448	0.0187643
614.526	0.0186613
614.604	0.0186008
614.683	0.0186887
614.761	0.0188141
614.839	0.0185732
614.917	0.0188130
614.995	0.0187090
615.073	0.0186094
615.151	0.0185986
615.229	0.0188240
615.308	0.0187509
615.386	0.0187736
615.464	0.0186957
615.542	0.0187669
615.620	0.0187212
615.698	0.0187168
615.776	0.0188427
615.854	0.0187743
615.933	0.0187621
616.011	0.0187103
616.089	0.0187262
616.167	0.0186204
616.245	0.0187298
616.323	0.0187511
616.401	0.0187903
616.479	0.0187923
616.558	0.0187646
616.636	0.0186697
616.714	0.0186687
616.792	0.0187944
616.870	0.0187645
616.948	0.0187154
617.026	0.0186639
617.104	0.0187421
617.183	0.0189083
617.261	0.0187238
617.339	0.0186201
617.417	0.0187138
617.495	0.0187714
617.573	0.0187344
617.651	0.0187310
617.729	0.0186975
617.808	0.0188713
617.886	0.0187322
617.964	0.0187449
618.042	0.0187833
618.120	0.0186742
618.198	0.0186758
618.276	0.0187595
618.354	0.0186479
618.433	0.0186671
618.511	0.0186842
618.589	0.0186969
618.667	0.0186306
618.745	0.0187689
618.823	0.0186401
618.901	0.0188256
618.979	0.0187294
619.058	0.0186475
619.136	0.0188010
619.214	0.0188234
619.292	0.0185831
619.370	0.0186372
619.448	0.0187086
619.526	0.0188635
619.604	0.0186646
619.683	0.0187133
619.761	0.0188139
619.839	0.0187372
619.917	0.0186895
619.995	0.0185603
620.073	0.0186507
620.151	0.0187279
620.229	0.0187639
620.308	0.0187103
620.386	0.0187191
620.464	0.0186770
620.542	0.0187758
620.620	0.0187209
620.698	0.0186585
620.776	0.0186932
620.854	0.0187742
620.933	0.0186996
621.011	0.0188125
621.089	0.0186143
621.167	0.0187244
621.245	0.0187147
621.323	0.0187962
621.401	0.0187646
621.479	0.0187992
621.558	0.0187489
621.636	0.0187556
621.714	0.0187199
621.792	0.0186305
621.870	0.0187730
621.948	0.0187475
622.026	0.0186366
622.104	0.0187207
622.183	0.0187730
622.261	0.0187775
622.339	0.0187696
622.417	0.0186099
622.495	0.0188156
622.573	0.0187558
622.651	0.0187151
622.729	0.0186357
622.808	0.0187280
622.886	0.0187449
622.964	0.0185521
623.042	0.0186484
623.120	0.0187656
623.198	0.0187952
623.276	0.0186581
623.354	0.0186458
623.433	0.0186699
623.511	0.0187810
623.589	0.0187276
623.667	0.0186327
623.745	0.0187187
623.823	0.0187733
623.901	0.0187019
623.979	0.0187379
624.058	0.0187878
624.136	0.0187887
624.214	0.0187396
624.292	0.0188080
624.370	0.0186433
624.448	0.0188001
624.526	0.0188409
624.604	0.0187035
624.683	0.0186412
624.761	0.0187399
624.839	0.0187849
624.917	0.0187360
624.995	0.0186597
625.073	0.0187056
625.151	0.0186609
625.229	0.0186449
625.308	0.0187452
625.386	0.0185820
625.464	0.0185570
625.542	0.0186786
625.620	0.0185915
625.698	0.0186971
625.776	0.0186662
625.854	0.0186280
625.933	0.0187584
626.011	0.0187036
626.089	0.0187345
626.167	0.0187739
626.245	0.0186183
626.323	0.0187653
626.401	0.0187521
626.479	0.0188882
626.558	0.0188058
626.636	0.0187904
626.714	0.0187247
626.792	0.0188153
626.870	0.0187636
626.948	0.0188011
627.026	0.0188410
627.104	0.0188252
627.183	0.0187387
627.261	0.0186577
627.339	0.0186398
627.417	0.0187278
627.495	0.0188564
627.573	0.0186536
627.651	0.0186691
627.729	0.0186088
627.808	0.0187314
627.886	0.0186724
627.964	0.0186478
628.042	0.0184951
628.120	0.0187255
628.198	0.0187507
628.276	0.0187133
628.354	0.0187200
628.433	0.0186495
628.511	0.0185856
628.589	0.0186894
628.667	0.0186945
628.745	0.0188794
628.823	0.0187479
628.901	0.0187124
628.979	0.0187539
629.058	0.0187546
629.136	0.0188004
629.214	0.0188473
629.292	0.0187650
629.370	0.0187801
629.448	0.0187751
629.526	0.0189045
629.604	0.0187386
629.683	0.0187115
629.761	0.0186883
629.839	0.0187193
629.917	0.0189070
629.995	0.0186878
630.073	0.0187350
630.151	0.0188037
630.229	0.0186874
630.308	0.0186627
630.386	0.0186253
630.464	0.0185391
630.542	0.0187547
630.620	0.0186912
630.698	0.0186196
630.776	0.0186729
630.854	0.0186088
630.933	0.0187080
631.011	0.0186433
631.089	0.0186799
631.167	0.0188181
631.245	0.0187265
631.323	0.0186943
631.401	0.0186577
631.479	0.0187103
631.558	0.0188327
631.636	0.0187490
631.714	0.0187131
631.792	0.0185796
631.870	0.0185686
631.948	0.0188159
632.026	0.0188001
632.104	0.0187405
632.183	0.0185358
632.261	0.0186896
632.339	0.0187573
632.417	0.0187772
632.495	0.0186457
632.573	0.0185892
632.651	0.0186458
632.729	0.0187714
632.808	0.0186411
632.886	0.0186906
632.964	0.0187230
633.042	0.0187056
633.120	0.0188097
633.198	0.0186849
633.276	0.0188805
633.354	0.0187052
633.433	0.0187337
633.511	0.0188111
633.589	0.0187601
633.667	0.0187897
633.745	0.0188477
633.823	0.0186427
633.901	0.0186988
633.979	0.0186852
634.058	0.0187349
634.136	0.0187911
634.214	0.0186667
634.292	0.0186242
634.370	0.0187794
634.448	0.0187276
634.526	0.0185882
634.604	0.0186546
634.683	0.0188589
634.761	0.0188192
634.839	0.0186804
634.917	0.0188145
634.995	0.0187401
635.073	0.0187367
635.151	0.0186990
635.229	0.0184821
635.308	0.0187570
635.386	0.0189082
635.464	0.0187675
635.542	0.0186987
635.620	0.0187006
635.698	0.0187737
635.776	0.0187173
635.854	0.0187794
635.933	0.0186657
636.011	0.0187341
636.089	0.0187989
636.167	0.0187374
636.245	0.0187313
636.323	0.0188313
636.401	0.0188400
636.479	0.0186217
636.558	0.0187229
636.636	0.0187238
636.714	0.0188179
636.792	0.0187091
636.870	0.0187177
636.948	0.0187890
637.026	0.0187714
637.104	0.0187008
637.183	0.0186610
637.261	0.0187097
637.339	0.0187247
637.417	0.0185338
637.495	0.0187721
637.573	0.0187028
637.651	0.0186110
637.729	0.0188259
637.808	0.0187829
637.886	0.0186075
637.964	0.0186926
638.042	0.0188012
638.120	0.0187763
638.198	0.0187334
638.276	0.0187562
638.354	0.0187745
638.433	0.0187354
638.511	0.0186771
638.589	0.0186208
638.667	0.0187524
638.745	0.0186385
638.823	0.0186269
638.901	0.0187785
638.979	0.0187907
639.058	0.0187595
639.136	0.0187448
639.214	0.0185775
639.292	0.0186240
639.370	0.0187519
639.448	0.0185911
639.526	0.0187018
639.604	0.0187610
639.683	0.0187475
639.761	0.0187454
639.839	0.0187393
639.917	0.0187238
639.995	0.0186718
640.073	0.0186619
640.151	0.0188045
640.229	0.0187296
640.308	0.0187494
640.386	0.0186992
640.464	0.0187165
640.542	0.0186846
640.620	0.0186761
640.698	0.0187055
640.776	0.0187939
640.854	0.0186989
640.933	0.0187904
641.011	0.0187638
641.089	0.0185862
641.167	0.0186509
641.245	0.0188226
641.323	0.0187469
641.401	0.0186294
641.479	0.0187889
641.558	0.0188085
641.636	0.0187397
641.714	0.0187044
641.792	0.0186561
641.870	0.0186399
641.948	0.0187180
642.026	0.0187838
642.104	0.0187406
642.183	0.0187479
642.261	0.0188369
642.339	0.0186806
642.417	0.0187974
642.495	0.0187689
642.573	0.0188004
642.651	0.0187544
642.729	0.0187601
642.808	0.0186349
642.886	0.0186086
642.964	0.0187173
643.042	0.0186722
643.120	0.0188892
643.198	0.0187199
643.276	0.0187007
643.354	0.0188496
643.433	0.0186432
643.511	0.0188108
643.589	0.0186124
643.667	0.0187078
643.745	0.0187390
643.823	0.0187228
643.901	0.0187356
643.979	0.0185108
644.058	0.0188843
644.136	0.0186847
644.214	0.0187034
644.292	0.0186925
644.370	0.0186111
644.448	0.0187436
644.526	0.0188329
644.604	0.0187929
644.683	0.0186875
644.761	0.0186542
644.839	0.0186611
644.917	0.0187242
644.995	0.0188757
645.073	0.0187739
645.151	0.0186983
645.229	0.0186580
645.308	0.0187588
645.386	0.0186715
645.464	0.0186173
645.542	0.0187678
645.620	0.0187125
645.698	0.0186833
645.776	0.0186010
645.854	0.0188541
645.933	0.0186673
646.011	0.0185968
646.089	0.0186756
646.167	0.0187997
646.245	0.0187578
646.323	0.0186787
646.401	0.0186623
646.479	0.0187192
646.558	0.0187650
646.636	0.0186185
646.714	0.0187537
646.792	0.0187256
646.870	0.0187380
646.948	0.0186893
647.026	0.0187711
647.104	0.0187560
647.183	0.0187811
647.261	0.0187835
647.339	0.0187028
647.417	0.0188155
647.495	0.0187351
647.573	0.0187412
647.651	0.0187722
647.729	0.0186941
647.808	0.0187989
647.886	0.0186575
647.964	0.0186212
648.042	0.0186259
648.120	0.0188428
648.198	0.0187970
648.276	0.0187455
648.354	0.0187912
648.433	0.0185873
648.511	0.0187576
648.589	0.0186897
648.667	0.0187649
648.745	0.0186785
648.823	0.0186857
648.901	0.0186737
648.979	0.0186793
649.058	0.0186152
649.136	0.0186820
649.214	0.0187315
649.292	0.0186259
649.370	0.0188290
649.448	0.0186497
649.526	0.0186858
649.604	0.0186250
649.683	0.0188409
649.761	0.0185976
649.839	0.0187312
649.917	0.0188691
649.995	0.0188096
650.073	0.0186607
650.151	0.0184994
650.229	0.0186757
650.308	0.0187815
650.386	0.0187299
650.464	0.0187413
650.542	0.0186141
650.620	0.0186608
650.698	0.0187975
650.776	0.0187511
650.854	0.0186958
650.933	0.0187041
651.011	0.0187082
651.089	0.0187403
651.167	0.0188513
651.245	0.0187561
651.323	0.0186550
651.401	0.0188311
651.479	0.0187694
651.558	0.0187857
651.636	0.0187866
651.714	0.0188234
651.792	0.0187616
651.870	0.0185696
651.948	0.0186802
652.026	0.0187681
652.104	0.0187549
652.183	0.0187258
652.261	0.0186845
652.339	0.0186701
652.417	0.0187083
652.495	0.0188464
652.573	0.0187823
652.651	0.0187608
652.729	0.0187204
652.808	0.0186494
652.886	0.0187311
652.964	0.0189136
653.042	0.0187840
653.120	0.0187107
653.198	0.0187125
653.276	0.0189853
653.354	0.0186785
653.433	0.0186871
653.511	0.0187917
653.589	0.0187722
653.667	0.0188080
653.745	0.0186432
653.823	0.0186301
653.901	0.0187866
653.979	0.0186486
654.058	0.0187265
654.136	0.0186349
654.214	0.0186488
654.292	0.0187842
654.370	0.0187202
654.448	0.0184915
654.526	0.0188315
654.604	0.0188412
654.683	0.0185466
654.761	0.0187405
654.839	0.0186546
654.917	0.0187141
654.995	0.0188155
655.073	0.0186970
655.151	0.0187119
655.229	0.0188127
655.308	0.0187489
655.386	0.0187469
655.464	0.0188587
655.542	0.0188077
655.620	0.0188449
655.698	0.0187655
655.776	0.0187296
655.854	0.0187666
655.933	0.0187128
656.011	0.0187530
656.089	0.0187919
656.167	0.0188129
656.245	0.0187242
656.323	0.0187823
656.401	0.0187949
656.479	0.0187222
656.558	0.0188383
656.636	0.0187447
656.714	0.0188436
656.792	0.0188549
656.870	0.0188146
656.948	0.0186673
657.026	0.0187720
657.104	0.0186839
657.183	0.0186758
657.261	0.0187376
657.339	0.0187212
657.417	0.0188229
657.495	0.0187294
657.573	0.0187310
657.651	0.0187962
657.729	0.0187607
657.808	0.0186029
657.886	0.0186224
657.964	0.0188316
658.042	0.0187282
658.120	0.0187774
658.198	0.0186711
658.276	0.0186922
658.354	0.0186293
658.433	0.0187059
658.511	0.0187776
658.589	0.0187392
658.667	0.0188060
658.745	0.0187708
658.823	0.0187345
658.901	0.0186788
658.979	0.0186998
659.058	0.0185804
659.136	0.0187282
659.214	0.0187727
659.292	0.0186623
659.370	0.0188367
659.448	0.0188245
659.526	0.0186950
659.604	0.0187823
659.683	0.0186795
659.761	0.0187386
659.839	0.0188573
659.917	0.0187107
659.995	0.0187426
660.073	0.0187981
660.151	0.0186634
660.229	0.0187092
660.308	0.0186481
660.386	0.0188100
660.464	0.0188608
660.542	0.0186827
660.620	0.0188452
660.698	0.0186621
660.776	0.0187678
660.854	0.0187452
660.933	0.0188254
661.011	0.0186373
661.089	0.0186503
661.167	0.0187772
661.245	0.0187074
661.323	0.0188228
661.401	0.0188208
661.479	0.0187724
661.558	0.0185900
661.636	0.0186689
661.714	0.0187225
661.792	0.0185931
661.870	0.0188460
661.948	0.0187189
662.026	0.0186756
662.104	0.0188290
662.183	0.0187556
662.261	0.0188374
662.339	0.0187460
662.417	0.0187752
662.495	0.0186962
662.573	0.0187712
662.651	0.0188991
662.729	0.0186947
662.808	0.0185479
662.886	0.0186922
662.964	0.0187793
663.042	0.0188276
663.120	0.0186745
663.198	0.0185532
663.276	0.0188492
663.354	0.0186599
663.433	0.0187029
663.511	0.0187483
663.589	0.0187389
663.667	0.0188220
663.745	0.0186145
663.823	0.0186772
663.901	0.0187177
663.979	0.0186954
664.058	0.0188176
664.136	0.0185819
664.214	0.0186494
664.292	0.0187738
664.370	0.0186793
664.448	0.0186777
664.526	0.0187180
664.604	0.0187256
664.683	0.0186611
664.761	0.0185169
664.839	0.0188188
664.917	0.0187730
664.995	0.0188496
665.073	0.0186848
665.151	0.0186011
665.229	0.0186859
665.308	0.0186275
665.386	0.0186917
665.464	0.0187756
665.542	0.0188248
665.620	0.0187759
665.698	0.0187906
665.776	0.0186620
665.854	0.0186025
665.933	0.0187198
666.011	0.0187287
666.089	0.0187653
666.167	0.0187576
666.245	0.0187187
666.323	0.0188344
666.401	0.0187981
666.479	0.0186285
666.558	0.0187923
666.636	0.0187984
666.714	0.0187762
666.792	0.0189247
666.870	0.0186237
666.948	0.0187411
667.026	0.0187678
667.104	0.0188986
667.183	0.0187247
667.261	0.0186723
667.339	0.0187616
667.417	0.0187402
667.495	0.0187563
667.573	0.0186661
667.651	0.0187401
667.729	0.0187299
667.808	0.0187399
667.886	0.0188049
667.964	0.0187553
668.042	0.0186319
668.120	0.0187295
668.198	0.0186921
668.276	0.0187029
668.354	0.0187744
668.433	0.0187343
668.511	0.0188268
668.589	0.0186993
668.667	0.0187255
668.745	0.0186732
668.823	0.0188024
668.901	0.0186754
668.979	0.0186684
669.058	0.0187084
669.136	0.0188555
669.214	0.0187125
669.292	0.0186526
669.370	0.0186803
669.448	0.0187791
669.526	0.0186950
669.604	0.0186613
669.683	0.0186329
669.761	0.0187411
669.839	0.0186870
669.917	0.0187457
669.995	0.0186711
670.073	0.0187466
670.151	0.0188848
670.229	0.0186863
670.308	0.0186604
670.386	0.0186136
670.464	0.0188067
670.542	0.0186922
670.620	0.0187437
670.698	0.0187636
670.776	0.0187788
670.854	0.0187201
670.933	0.0186033
671.011	0.0186855
671.089	0.0188255
671.167	0.0188004
671.245	0.0186626
671.323	0.0186938
671.401	0.0187244
671.479	0.0185680
671.558	0.0188081
671.636	0.0187357
671.714	0.0187212
671.792	0.0187579
671.870	0.0188431
671.948	0.0186474
672.026	0.0188037
672.104	0.0185974
672.183	0.0186977
672.261	0.0187324
672.339	0.0187629
672.417	0.0188485
672.495	0.0188084
672.573	0.0186769
672.651	0.0185942
672.729	0.0187598
672.808	0.0188554
672.886	0.0186684
672.964	0.0187239
673.042	0.0186176
673.120	0.0186179
673.198	0.0185980
673.276	0.0187686
673.354	0.0187624
673.433	0.0186328
673.511	0.0187415
673.589	0.0187724
673.667	0.0186378
673.745	0.0186670
673.823	0.0186826
673.901	0.0187402
673.979	0.0188000
674.058	0.0186427
674.136	0.0186649
674.214	0.0187427
674.292	0.0186728
674.370	0.0186801
674.448	0.0186662
674.526	0.0186594
674.604	0.0186494
674.683	0.0187016
674.761	0.0187154
674.839	0.0187960
674.917	0.0187460
674.995	0.0187061
675.073	0.0187772
675.151	0.0186670
675.229	0.0187901
675.308	0.0188860
675.386	0.0186440
675.464	0.0186635
675.542	0.0187059
675.620	0.0187750
675.698	0.0186951
675.776	0.0187569
675.854	0.0186474
675.933	0.0188427
676.011	0.0187192
676.089	0.0187071
676.167	0.0187125
676.245	0.0187315
676.323	0.0187304
676.401	0.0186195
676.479	0.0186889
676.558	0.0188363
676.636	0.0186987
676.714	0.0187476
676.792	0.0186942
676.870	0.0186581
676.948	0.0185367
677.026	0.0186787
677.104	0.0187175
677.183	0.0186420
677.261	0.0186489
677.339	0.0188293
677.417	0.0185654
677.495	0.0187525
677.573	0.0186605
677.651	0.0186330
677.729	0.0186271
677.808	0.0186813
677.886	0.0188235
677.964	0.0186636
678.042	0.0187096
678.120	0.0186744
678.198	0.0187122
678.276	0.0188235
678.354	0.0187341
678.433	0.0188033
678.511	0.0187614
678.589	0.0187030
678.667	0.0187717
678.745	0.0187408
678.823	0.0187086
678.901	0.0187048
678.979	0.0187639
679.058	0.0186983
679.136	0.0186987
679.214	0.0187762
679.292	0.0187708
679.370	0.0185472
679.448	0.0186478
679.526	0.0186864
679.604	0.0186745
679.683	0.0187929
679.761	0.0187661
679.839	0.0187589
679.917	0.0187972
679.995	0.0187160
680.073	0.0188245
680.151	0.0187777
680.229	0.0187866
680.308	0.0185640
680.386	0.0187876
680.464	0.0187457
680.542	0.0188130
680.620	0.0186578
680.698	0.0188739
680.776	0.0188528
680.854	0.0188883
680.933	0.0186878
681.011	0.0187883
681.089	0.0186629
681.167	0.0188002
681.245	0.0187960
681.323	0.0187298
681.401	0.0187598
681.479	0.0188599
681.558	0.0187646
681.636	0.0187399
681.714	0.0188848
681.792	0.0187825
681.870	0.0187118
681.948	0.0188709
682.026	0.0188494
682.104	0.0187310
682.183	0.0187475
682.261	0.0188644
682.339	0.0187406
682.417	0.0187168
682.495	0.0187890
682.573	0.0187450
682.651	0.0187267
682.729	0.0188805
682.808	0.0189301
682.886	0.0187600
682.964	0.0187950
683.042	0.0187884
683.120	0.0188803
683.198	0.0189144
683.276	0.0186411
683.354	0.0187514
683.433	0.0187885
683.511	0.0188855
683.589	0.0188831
683.667	0.0189079
683.745	0.0188470
683.823	0.0188403
683.901	0.0188850
683.979	0.0188442
684.058	0.0187619
684.136	0.0188349
684.214	0.0188009
684.292	0.0188358
684.370	0.0186942
684.448	0.0187838
684.526	0.0188029
684.604	0.0188925
684.683	0.0189320
684.761	0.0188219
684.839	0.0187316
684.917	0.0188195
684.995	0.0188453
685.073	0.0188562
685.151	0.0187195
685.229	0.0188865
685.308	0.0188509
685.386	0.0187826
685.464	0.0188042
685.542	0.0188080
685.620	0.0188737
685.698	0.0188322
685.776	0.0188898
685.854	0.0188869
685.933	0.0188943
686.011	0.0187792
686.089	0.0187595
686.167	0.0187500
686.245	0.0188445
686.323	0.0188033
686.401	0.0187790
686.479	0.0189201
686.558	0.0189264
686.636	0.0187798
686.714	0.0188822
686.792	0.0186446
686.870	0.0188572
686.948	0.0188417
687.026	0.0188543
687.104	0.0186990
687.183	0.0187274
687.261	0.0187841
687.339	0.0186543
687.417	0.0187782
687.495	0.0188274
687.573	0.0186951
687.651	0.0187467
687.729	0.0186189
687.808	0.0186816
687.886	0.0187858
687.964	0.0187341
688.042	0.0186866
688.120	0.0185645
688.198	0.0188467
688.276	0.0187095
688.354	0.0187498
688.433	0.0187184
688.511	0.0187596
688.589	0.0187411
688.667	0.0185832
688.745	0.0186742
688.823	0.0187507
688.901	0.0187685
688.979	0.0186880
689.058	0.0186534
689.136	0.0187388
689.214	0.0188017
689.292	0.0188362
689.370	0.0187253
689.448	0.0186822
689.526	0.0187192
689.604	0.0187504
689.683	0.0187959
689.761	0.0185369
689.839	0.0186841
689.917	0.0187749
689.995	0.0187229
690.073	0.0187666
690.151	0.0188690
690.229	0.0186079
690.308	0.0186260
690.386	0.0187277
690.464	0.0185479
690.542	0.0185349
690.620	0.0187190
690.698	0.0188789
690.776	0.0186909
690.854	0.0186979
690.933	0.0185831
691.011	0.0185851
691.089	0.0186603
691.167	0.0185683
691.245	0.0185901
691.323	0.0186228
691.401	0.0187158
691.479	0.0186514
691.558	0.0186234
691.636	0.0187447
691.714	0.0186644
691.792	0.0185268
691.870	0.0185954
691.948	0.0186317
692.026	0.0187086
692.104	0.0187662
692.183	0.0186111
692.261	0.0186362
692.339	0.0186593
692.417	0.0187076
692.495	0.0187744
692.573	0.0186147
692.651	0.0186573
692.729	0.0186074
692.808	0.0186414
692.886	0.0185919
692.964	0.0187392
693.042	0.0188441
693.120	0.0186233
693.198	0.0186293
693.276	0.0186768
693.354	0.0186645
693.433	0.0186345
693.511	0.0186569
693.589	0.0186620
693.667	0.0185341
693.745	0.0186230
693.823	0.0186259
693.901	0.0187717
693.979	0.0187048
694.058	0.0185685
694.136	0.0187263
694.214	0.0186427
694.292	0.0187274
694.370	0.0188776
694.448	0.0187138
694.526	0.0186295
694.604	0.0187145
694.683	0.0188363
694.761	0.0187917
694.839	0.0186585
694.917	0.0187668
694.995	0.0188158
695.073	0.0187949
695.151	0.0186185
695.229	0.0186016
695.308	0.0186079
695.386	0.0186255
695.464	0.0185826
695.542	0.0185992
695.620	0.0186905
695.698	0.0187135
695.776	0.0188795
695.854	0.0189213
695.933	0.0190219
696.011	0.0190284
696.089	0.0191639
696.167	0.0190607
696.245	0.0191100
696.323	0.0191351
696.401	0.0191473
696.479	0.0190584
696.558	0.0189306
696.636	0.0190472
696.714	0.0188376
696.792	0.0186766
696.870	0.0185376
696.948	0.0184692
697.026	0.0181374
697.104	0.0180676
697.183	0.0178171
697.261	0.0178210
697.339	0.0176528
697.417	0.0175700
697.495	0.0178218
697.573	0.0176620
697.651	0.0177178
697.729	0.0179208
697.808	0.0180196
697.886	0.0182596
697.964	0.0185508
698.042	0.0187319
698.120	0.0192488
698.198	0.0198183
698.276	0.0202708
698.354	0.0208356
698.433	0.0212090
698.511	0.0215414
698.589	0.0218333
698.667	0.0220425
698.745	0.0219286
698.823	0.0215582
698.901	0.0213025
698.979	0.0205847
699.058	0.0198666
699.136	0.0191920
699.214	0.0183031
699.292	0.0175284
699.370	0.0166875
699.448	0.0159133
699.526	0.0152174
699.604	0.0147396
699.683	0.0141405
699.761	0.0136143
699.839	0.0134216
699.917	0.0133602
699.995	0.0136167
700.073	0.0137870
700.151	0.0144759
700.229	0.0151314
700.308	0.0161812
700.386	0.0174630
700.464	0.0187514
700.542	0.0201228
700.620	0.0214010
700.698	0.0228000
700.776	0.0240565
700.854	0.0252010
700.933	0.0258614
701.011	0.0266476
701.089	0.0267178
701.167	0.0266413
701.245	0.0261217
701.323	0.0254067
701.401	0.0244401
701.479	0.0232484
701.558	0.0217194
701.636	0.0202960
701.714	0.0186346
701.792	0.0169678
701.870	0.0151714
701.948	0.0139120
702.026	0.0126806
702.104	0.0118717
702.183	0.0112162
702.261	0.0108853
702.339	0.0109124
702.417	0.0111676
702.495	0.0116137
702.573	0.0122835
702.651	0.0131163
702.729	0.0141192
702.808	0.0152892
702.886	0.0164236
702.964	0.0177489
703.042	0.0188580
703.120	0.0198496
703.198	0.0209894
703.276	0.0221621
703.354	0.0229832
703.433	0.0235946
703.511	0.0243677
703.589	0.0249160
703.667	0.0251937
703.745	0.0253327
703.823	0.0253272
703.901	0.0249666
703.979	0.0245131
704.058	0.0238755
704.136	0.0228030
704.214	0.0217843
704.292	0.0203776
704.370	0.0189648
704.448	0.0176585
704.526	0.0162274
704.604	0.0149586
704.683	0.0138790
704.761	0.0128757
704.839	0.0122129
704.917	0.0117247
704.995	0.0117599
705.073	0.0118189
705.151	0.0122830
705.229	0.0131807
705.308	0.0140746
705.386	0.0153879
705.464	0.0168752
705.542	0.0183389
705.620	0.0199194
705.698	0.0214474
705.776	0.0226757
705.854	0.0241524
705.933	0.0252180
706.011	0.0258044
706.089	0.0262777
706.167	0.0264233
706.245	0.0262508
706.323	0.0255307
706.401	0.0247907
706.479	0.0235678
706.558	0.0223631
706.636	0.0208993
706.714	0.0194199
706.792	0.0179099
706.870	0.0164089
706.948	0.0151065
707.026	0.0139424
707.104	0.0129041
707.183	0.0119504
707.261	0.0112318
707.339	0.0106667
707.417	0.0106802
707.495	0.0106728
707.573	0.0111311
707.651	0.0118052
707.729	0.0128286
707.808	0.0139676
707.886	0.0157222
707.964	0.0174764
708.042	0.0192307
708.120	0.0209180
708.198	0.0227382
708.276	0.0242088
708.354	0.0255419
708.433	0.0263390
708.511	0.0267116
708.589	0.0267841
708.667	0.0265254
708.745	0.0258697
708.823	0.0248470
708.901	0.0236756
708.979	0.0222852
709.058	0.0211806
709.136	0.0198319
709.214	0.0184745
709.292	0.0175889
709.370	0.0167464
709.448	0.0161213
709.526	0.0157156
709.604	0.0153606
709.683	0.0153876
709.761	0.0154053
709.839	0.0155841
709.917	0.0157224
709.995	0.0159137
710.073	0.0163243
710.151	0.0167847
710.229	0.0173213
710.308	0.0178309
710.386	0.0183817
710.464	0.0189642
710.542	0.0193922
710.620	0.0200063
710.698	0.0202947
710.776	0.0206186
710.854	0.0208675
710.933	0.0207522
711.011	0.0203929
711.089	0.0200600
711.167	0.0196304
711.245	0.0191747
711.323	0.0185207
711.401	0.0180494
711.479	0.0175824
711.558	0.0170979
711.636	0.0168280
711.714	0.0167072
711.792	0.0164983
711.870	0.0165570
711.948	0.0167123
712.026	0.0169310
712.104	0.0170707
712.183	0.0175119
712.261	0.0178055
712.339	0.0182723
712.417	0.0188815
712.495	0.0195718
712.573	0.0199855
712.651	0.0205733
712.729	0.0207723
712.808	0.0212000
712.886	0.0214478
712.964	0.0216328
713.042	0.0216794
713.120	0.0214034
713.198	0.0212086
713.276	0.0208493
713.354	0.0204414
713.433	0.0198550
713.511	0.0191582
713.589	0.0186756
713.667	0.0181564
713.745	0.0174857
713.823	0.0170240
713.901	0.0164383
713.979	0.0163468
714.058	0.0160701
714.136	0.0159081
714.214	0.0159294
714.292	0.0159242
714.370	0.0162263
714.448	0.0165816
714.526	0.0169488
714.604	0.0176574
714.683	0.0179650
714.761	0.0184409
714.839	0.0188910
714.917	0.0194212
714.995	0.0195969
715.073	0.0199149
715.151	0.0201621
715.229	0.0205027
715.308	0.0206146
715.386	0.0206530
715.464	0.0205449
715.542	0.0206348
715.620	0.0205961
715.698	0.0203700
715.776	0.0200974
715.854	0.0198397
715.933	0.0194518
716.011	0.0192834
716.089	0.0187350
716.167	0.0185374
716.245	0.0182294
716.323	0.0180072
716.401	0.0178115
716.479	0.0176711
716.558	0.0178129
716.636	0.0176253
716.714	0.0175935
716.792	0.0178406
716.870	0.0179710
716.948	0.0180242
717.026	0.0180782
717.104	0.0183110
717.183	0.0183776
717.261	0.0186616
717.339	0.0187241
717.417	0.0191263
717.495	0.0191806
717.573	0.0191531
717.651	0.0193397
717.729	0.0193674
717.808	0.0193175
717.886	0.0190716
717.964	0.0190578
718.042	0.0187621
718.120	0.0187675
718.198	0.0186395
718.276	0.0184958
718.354	0.0181993
718.433	0.0180164
718.511	0.0179253
718.589	0.0177651
718.667	0.0176347
718.745	0.0175198
718.823	0.0176965
718.901	0.0176691
718.979	0.0177551
719.058	0.0179675
719.136	0.0181940
719.214	0.0184533
719.292	0.0186982
719.370	0.0190456
719.448	0.0193071
719.526	0.0195328
719.604	0.0198330
719.683	0.0200357
719.761	0.0201373
719.839	0.0204796
719.917	0.0205148
719.995	0.0206989
720.073	0.0204686
720.151	0.0202279
720.229	0.0200506
720.308	0.0196926
720.386	0.0194970
720.464	0.0190753
720.542	0.0187185
720.620	0.0183801
720.698	0.0179958
720.776	0.0177362
720.854	0.0175779
720.933	0.0175915
721.011	0.0174456
721.089	0.0175634
721.167	0.0174235
721.245	0.0175072
721.323	0.0178430
721.401	0.0179857
721.479	0.0182207
721.558	0.0183656
721.636	0.0187321
721.714	0.0189925
721.792	0.0193048
721.870	0.0194679
721.948	0.0196239
722.026	0.0198676
722.104	0.0201334
722.183	0.0202602
722.261	0.0200020
722.339	0.0201441
722.417	0.0199418
722.495	0.0196180
722.573	0.0192645
722.651	0.0191253
722.729	0.0188338
722.808	0.0184713
722.886	0.0182607
722.964	0.0178369
723.042	0.0177196
723.120	0.0174650
723.198	0.0175148
723.276	0.0175677
723.354	0.0174765
723.433	0.0175372
723.511	0.0176959
723.589	0.0177823
723.667	0.0178525
723.745	0.0180863
723.823	0.0181791
723.901	0.0182703
723.979	0.0186018
724.058	0.0188498
724.136	0.0190958
724.214	0.0191724
724.292	0.0193410
724.370	0.0194525
724.448	0.0194421
724.526	0.0195570
724.604	0.0195413
724.683	0.0195021
724.761	0.0194315
724.839	0.0195198
724.917	0.0194308
724.995	0.0191431
725.073	0.0191299
725.151	0.0188572
725.229	0.0185954
725.308	0.0184320
725.386	0.0182425
725.464	0.0182107
725.542	0.0180206
725.620	0.0179549
725.698	0.0177491
725.776	0.0179102
725.854	0.0179626
725.933	0.0179831
726.011	0.0181106
726.089	0.0182664
726.167	0.0184296
726.245	0.0186104
726.323	0.0188451
726.401	0.0191267
726.479	0.0195559
726.558	0.0195775
726.636	0.0195565
726.714	0.0195540
726.792	0.0195231
726.870	0.0195485
726.948	0.0194831
727.026	0.0193156
727.104	0.0192110
727.183	0.0190620
727.261	0.0189971
727.339	0.0188939
727.417	0.0188519
727.495	0.0187805
727.573	0.0186442
727.651	0.0187500
727.729	0.0182941
727.808	0.0183504
727.886	0.0185095
727.964	0.0183280
728.042	0.0182803
728.120	0.0182965
728.198	0.0180549
728.276	0.0182455
728.354	0.0182930
728.433	0.0184582
728.511	0.0184004
728.589	0.0183761
728.667	0.0183945
728.745	0.0186673
728.823	0.0184555
728.901	0.0184339
728.979	0.0185895
729.058	0.0186416
729.136	0.0184870
729.214	0.0186588
729.292	0.0184779
729.370	0.0184727
729.448	0.0186578
729.526	0.0187829
729.604	0.0188096
729.683	0.0187930
729.761	0.0190677
729.839	0.0192339
729.917	0.0191234
729.995	0.0191228
730.073	0.0190056
730.151	0.0190118
730.229	0.0191645
730.308	0.0190766
730.386	0.0190620
730.464	0.0189452
730.542	0.0189285
730.620	0.0189777
730.698	0.0185404
730.776	0.0185871
730.854	0.0184782
730.933	0.0183588
731.011	0.0182337
731.089	0.0180991
731.167	0.0181084
731.245	0.0182442
731.323	0.0183002
731.401	0.0182045
731.479	0.0182175
731.558	0.0183785
731.636	0.0184904
731.714	0.0186021
731.792	0.0185455
731.870	0.0186836
731.948	0.0187556
732.026	0.0187244
732.104	0.0189423
732.183	0.0191011
732.261	0.0188668
732.339	0.0190302
732.417	0.0189211
732.495	0.0188713
732.573	0.0191278
732.651	0.0190559
732.729	0.0191798
732.808	0.0191416
732.886	0.0190905
732.964	0.0192181
733.042	0.0190808
733.120	0.0190313
733.198	0.0190479
733.276	0.0188953
733.354	0.0189613
733.433	0.0189201
733.511	0.0188818
733.589	0.0188582
733.667	0.0186793
733.745	0.0186711
733.823	0.0186504
733.901	0.0187906
733.979	0.0186796
734.058	0.0186882
734.136	0.0183842
734.214	0.0183911
734.292	0.0184760
734.370	0.0184618
734.448	0.0185126
734.526	0.0183733
734.604	0.0182858
734.683	0.0184045
734.761	0.0182814
734.839	0.0184058
734.917	0.0184231
734.995	0.0185529
735.073	0.0186835
735.151	0.0188514
735.229	0.0188710
735.308	0.0190740
735.386	0.0191058
735.464	0.0191390
735.542	0.0193578
735.620	0.0193809
735.698	0.0192635
735.776	0.0192531
735.854	0.0193099
735.933	0.0193796
736.011	0.0191001
736.089	0.0190163
736.167	0.0189237
736.245	0.0187573
736.323	0.0186439
736.401	0.0185433
736.479	0.0183358
736.558	0.0183517
736.636	0.0182263
736.714	0.0181353
736.792	0.0180287
736.870	0.0180628
736.948	0.0181779
737.026	0.0184425
737.104	0.0184721
737.183	0.0186523
737.261	0.0185735
737.339	0.0187767
737.417	0.0189172
737.495	0.0190952
737.573	0.0191325
737.651	0.0190796
737.729	0.0191386
737.808	0.0190626
737.886	0.0188919
737.964	0.0189056
738.042	0.0189336
738.120	0.0187882
738.198	0.0186962
738.276	0.0185894
738.354	0.0186795
738.433	0.0186757
738.511	0.0186630
738.589	0.0185167
738.667	0.0184930
738.745	0.0184471
738.823	0.0186405
738.901	0.0187630
738.979	0.0186985
739.058	0.0186324
739.136	0.0186634
739.214	0.0186852
739.292	0.0186896
739.370	0.0187089
739.448	0.0188036
739.526	0.0186600
739.604	0.0185973
739.683	0.0185921
739.761	0.0185212
739.839	0.0184070
739.917	0.0183514
739.995	0.0184572
740.073	0.0184700
740.151	0.0185216
740.229	0.0188306
740.308	0.0187602
740.386	0.0189211
740.464	0.0189780
740.542	0.0191151
740.620	0.0191885
740.698	0.0191870
740.776	0.0192324
740.854	0.0194082
740.933	0.0193421
741.011	0.0195660
741.089	0.0194667
741.167	0.0193710
741.245	0.0193176
741.323	0.0192861
741.401	0.0191486
741.479	0.0191978
741.558	0.0191476
741.636	0.0188818
741.714	0.0187600
741.792	0.0188341
741.870	0.0185743
741.948	0.0185497
742.026	0.0184512
742.104	0.0183817
742.183	0.0183006
742.261	0.0181723
742.339	0.0181480
742.417	0.0182988
742.495	0.0184976
742.573	0.0184895
742.651	0.0186255
742.729	0.0184998
742.808	0.0185268
742.886	0.0185969
742.964	0.0185817
743.042	0.0184616
743.120	0.0184866
743.198	0.0184654
743.276	0.0186244
743.354	0.0185800
743.433	0.0184606
743.511	0.0184699
743.589	0.0185532
743.667	0.0185815
743.745	0.0184582
743.823	0.0184494
743.901	0.0183793
743.979	0.0184506
744.058	0.0184772
744.136	0.0184495
744.214	0.0183863
744.292	0.0183924
744.370	0.0183157
744.448	0.0185038
744.526	0.0185074
744.604	0.0186077
744.683	0.0186838
744.761	0.0188993
744.839	0.0188015
744.917	0.0188988
744.995	0.0188409
745.073	0.0189423
745.151	0.0190585
745.229	0.0191295
745.308	0.0191464
745.386	0.0189871
745.464	0.0190566
745.542	0.0189481
745.620	0.0189767
745.698	0.0190044
745.776	0.0189253
745.854	0.0189392
745.933	0.0191480
746.011	0.0190235
746.089	0.0189034
746.167	0.0189742
746.245	0.0189378
746.323	0.0189549
746.401	0.0190414
746.479	0.0187680
746.558	0.0187411
746.636	0.0188856
746.714	0.0187021
746.792	0.0187685
746.870	0.0187182
746.948	0.0186105
747.026	0.0185222
747.104	0.0184096
747.183	0.0185334
747.261	0.0185255
747.339	0.0183506
747.417	0.0184160
747.495	0.0183707
747.573	0.0182635
747.651	0.0183099
747.729	0.0185264
747.808	0.0185227
747.886	0.0185284
747.964	0.0187208
748.042	0.0187536
748.120	0.0187401
748.198	0.0189513
748.276	0.0188992
748.354	0.0191273
748.433	0.0192020
748.511	0.0191264
748.589	0.0191562
748.667	0.0192099
748.745	0.0191322
748.823	0.0191148
748.901	0.0189998
748.979	0.0189876
749.058	0.0190025
749.136	0.0188235
749.214	0.0186719
749.292	0.0186098
749.370	0.0187038
749.448	0.0186568
749.526	0.0185267
749.604	0.0185096
749.683	0.0184383
749.761	0.0183653
749.839	0.0184720
749.917	0.0183981
749.995	0.0185463
750.073	0.0184194
750.151	0.0185034
750.229	0.0184416
750.308	0.0185247
750.386	0.0185470
750.464	0.0186406
750.542	0.0185599
750.620	0.0184821
750.698	0.0184793
750.776	0.0185886
750.854	0.0185892
750.933	0.0186021
751.011	0.0184378
751.089	0.0186373
751.167	0.0186571
751.245	0.0185097
751.323	0.0184024
751.401	0.0185633
751.479	0.0185072
751.558	0.0183900
751.636	0.0184698
751.714	0.0184879
751.792	0.0184538
751.870	0.0185223
751.948	0.0186829
752.026	0.0185932
752.104	0.0187193
752.183	0.0188788
752.261	0.0190472
752.339	0.0190375
752.417	0.0191252
752.495	0.0191463
752.573	0.0193221
752.651	0.0193158
752.729	0.0192833
752.808	0.0192884
752.886	0.0193595
752.964	0.0193439
753.042	0.0192815
753.120	0.0191579
753.198	0.0192365
753.276	0.0192175
753.354	0.0189830
753.433	0.0189137
753.511	0.0189810
753.589	0.0187944
753.667	0.0187486
753.745	0.0187807
753.823	0.0185010
753.901	0.0185047
753.979	0.0184318
754.058	0.0184669
754.136	0.0184572
754.214	0.0184756
754.292	0.0184731
754.370	0.0184607
754.448	0.0183104
754.526	0.0181798
754.604	0.0181922
754.683	0.0181491
754.761	0.0183712
754.839	0.0183470
754.917	0.0184514
754.995	0.0183350
755.073	0.0183838
755.151	0.0184971
755.229	0.0185709
755.308	0.0186205
755.386	0.0186728
755.464	0.0187295
755.542	0.0187225
755.620	0.0189242
755.698	0.0188227
755.776	0.0188688
755.854	0.0188383
755.933	0.0189811
756.011	0.0187624
756.089	0.0187118
756.167	0.0187820
756.245	0.0188519
756.323	0.0187464
756.401	0.0186275
756.479	0.0185432
756.558	0.0185561
756.636	0.0185554
756.714	0.0185729
756.792	0.0185581
756.870	0.0186015
756.948	0.0185751
757.026	0.0185972
757.104	0.0186553
757.183	0.0187096
757.261	0.0187617
757.339	0.0186990
757.417	0.0188195
757.495	0.0189085
757.573	0.0188839
757.651	0.0188220
757.729	0.0190146
757.808	0.0190450
757.886	0.0190849
757.964	0.0191036
758.042	0.0190508
758.120	0.0188995
758.198	0.0188295
758.276	0.0189449
758.354	0.0186813
758.433	0.0185592
758.511	0.0185670
758.589	0.0185995
758.667	0.0185533
758.745	0.0185138
758.823	0.0185056
758.901	0.0186016
758.979	0.0185861
759.058	0.0186089
759.136	0.0185366
759.214	0.0185662
759.292	0.0186236
759.370	0.0187058
759.448	0.0187504
759.526	0.0187845
759.604	0.0188789
759.683	0.0187972
759.761	0.0187925
759.839	0.0187505
759.917	0.0189039
759.995	0.0189252
760.073	0.0189583
760.151	0.0189485
760.229	0.0188849
760.308	0.0189772
760.386	0.0189030
760.464	0.0188898
760.542	0.0189252
760.620	0.0188848
760.698	0.0188315
760.776	0.0189451
760.854	0.0188824
760.933	0.0189512
761.011	0.0188054
761.089	0.0188895
761.167	0.0188911
761.245	0.0187699
761.323	0.0185944
761.401	0.0187206
761.479	0.0188158
761.558	0.0186519
761.636	0.0186415
761.714	0.0188569
761.792	0.0187357
761.870	0.0187234
761.948	0.0187524
762.026	0.0188287
762.104	0.0188412
762.183	0.0189002
762.261	0.0188171
762.339	0.0188407
762.417	0.0189324
762.495	0.0189854
762.573	0.0190340
762.651	0.0188320
762.729	0.0188792
762.808	0.0188413
762.886	0.0187523
762.964	0.0186598
763.042	0.0186945
763.120	0.0186305
763.198	0.0185103
763.276	0.0185152
763.354	0.0184306
763.433	0.0185124
763.511	0.0183559
763.589	0.0183146
763.667	0.0183442
763.745	0.0183695
763.823	0.0184133
763.901	0.0184042
763.979	0.0183665
764.058	0.0184195
764.136	0.0184524
764.214	0.0186759
764.292	0.0185001
764.370	0.0186511
764.448	0.0187334
764.526	0.0187843
764.604	0.0188729
764.683	0.0188237
764.761	0.0188847
764.839	0.0193482
764.917	0.0191489
764.995	0.0189694
765.073	0.0191116
765.151	0.0191730
765.229	0.0190936
765.308	0.0191364
765.386	0.0190883
765.464	0.0190366
765.542	0.0190549
765.620	0.0189876
765.698	0.0187859
765.776	0.0188151
765.854	0.0187020
765.933	0.0187644
766.011	0.0187165
766.089	0.0186144
766.167	0.0185800
766.245	0.0184531
766.323	0.0185217
766.401	0.0184177
766.479	0.0184381
766.558	0.0184325
766.636	0.0184091
766.714	0.0184296
766.792	0.0184743
766.870	0.0185558
766.948	0.0186828
767.026	0.0185428
767.104	0.0187266
767.183	0.0187486
767.261	0.0185880
767.339	0.0188087
767.417	0.0188280
767.495	0.0190530
767.573	0.0189445
767.651	0.0189760
767.729	0.0191154
767.808	0.0190120
767.886	0.0189922
767.964	0.0190479
768.042	0.0190266
768.120	0.0190365
768.198	0.0191605
768.276	0.0190051
768.354	0.0189513
768.433	0.0189844
768.511	0.0188815
768.589	0.0188447
768.667	0.0188846
768.745	0.0187540
768.823	0.0186510
768.901	0.0185928
768.979	0.0184823
769.058	0.0184627
769.136	0.0184301
769.214	0.0183785
769.292	0.0184325
769.370	0.0184380
769.448	0.0183752
769.526	0.0184145
769.604	0.0184544
769.683	0.0187126
769.761	0.0187691
769.839	0.0187540
769.917	0.0188770
769.995	0.0188264
770.073	0.0188602
770.151	0.0189278
770.229	0.0190827
770.308	0.0190862
770.386	0.0189666
770.464	0.0189665
770.542	0.0189458
770.620	0.0189735
770.698	0.0189037
770.776	0.0188430
770.854	0.0187413
770.933	0.0186655
771.011	0.0187424
771.089	0.0186018
771.167	0.0183761
771.245	0.0183901
771.323	0.0182660
771.401	0.0183115
771.479	0.0182458
771.558	0.0182301
771.636	0.0183131
771.714	0.0184020
771.792	0.0183917
771.870	0.0183322
771.948	0.0185909
772.026	0.0185037
772.104	0.0186215
772.183	0.0188083
772.261	0.0188816
772.339	0.0188854
772.417	0.0190202
772.495	0.0190436
772.573	0.0190466
772.651	0.0191347
772.729	0.0191931
772.808	0.0190453
772.886	0.0191302
772.964	0.0191513
773.042	0.0190049
773.120	0.0191355
773.198	0.0192135
773.276	0.0189353
773.354	0.0187730
773.433	0.0187990
773.511	0.0187365
773.589	0.0187987
773.667	0.0185811
773.745	0.0187354
773.823	0.0186997
773.901	0.0185436
773.979	0.0184740
774.058	0.0185365
774.136	0.0185036
774.214	0.0184895
774.292	0.0183817
774.370	0.0184583
774.448	0.0184446
774.526	0.0184631
774.604	0.0185828
774.683	0.0185427
774.761	0.0185501
774.839	0.0186827
774.917	0.0187904
774.995	0.0188517
775.073	0.0188744
775.151	0.0188727
775.229	0.0189773
775.308	0.0190508
775.386	0.0189802
775.464	0.0190092
775.542	0.0190539
775.620	0.0191075
775.698	0.0189874
775.776	0.0189105
775.854	0.0187969
775.933	0.0188979
776.011	0.0187625
776.089	0.0185692
776.167	0.0185653
776.245	0.0185177
776.323	0.0184736
776.401	0.0183946
776.479	0.0184448
776.558	0.0184264
776.636	0.0184150
776.714	0.0185753
776.792	0.0184186
776.870	0.0185617
776.948	0.0184397
777.026	0.0187490
777.104	0.0186272
777.183	0.0187550
777.261	0.0188553
777.339	0.0188792
777.417	0.0187804
777.495	0.0188815
777.573	0.0189183
777.651	0.0189998
777.729	0.0188902
777.808	0.0188980
777.886	0.0190034
777.964	0.0190036
778.042	0.0190617
778.120	0.0189232
778.198	0.0188480
778.276	0.0188635
778.354	0.0188915
778.433	0.0187316
778.511	0.0184842
778.589	0.0186465
778.667	0.0186405
778.745	0.0185778
778.823	0.0185860
778.901	0.0186441
778.979	0.0185900
779.058	0.0185169
779.136	0.0186188
779.214	0.0184953
779.292	0.0186647
779.370	0.0185532
779.448	0.0185814
779.526	0.0186800
779.604	0.0185857
779.683	0.0186787
779.761	0.0186362
779.839	0.0187276
779.917	0.0188472
779.995	0.0189134
780.073	0.0190371
780.151	0.0188970
780.229	0.0189243
780.308	0.0189927
780.386	0.0189678
780.464	0.0189964
780.542	0.0189944
780.620	0.0190092
780.698	0.0188845
780.776	0.0189725
780.854	0.0189201
780.933	0.0189531
781.011	0.0187256
781.089	0.0188057
781.167	0.0187267
781.245	0.0185574
781.323	0.0186626
781.401	0.0186443
781.479	0.0185770
781.558	0.0185046
781.636	0.0185026
781.714	0.0186224
781.792	0.0184203
781.870	0.0185240
781.948	0.0184583
782.026	0.0185586
782.104	0.0186599
782.183	0.0186118
782.261	0.0187633
782.339	0.0186594
782.417	0.0187280
782.495	0.0187127
782.573	0.0188600
782.651	0.0186579
782.729	0.0188637
782.808	0.0188000
782.886	0.0190642
782.964	0.0190853
783.042	0.0190821
783.120	0.0189279
783.198	0.0188271
783.276	0.0189413
783.354	0.0188661
783.433	0.0187308
783.511	0.0186263
783.589	0.0186231
783.667	0.0185674
783.745	0.0185733
783.823	0.0182877
783.901	0.0185491
783.979	0.0185838
784.058	0.0183322
784.136	0.0184276
784.214	0.0184589
784.292	0.0184258
784.370	0.0184666
784.448	0.0184894
784.526	0.0185569
784.604	0.0187066
784.683	0.0187726
784.761	0.0189054
784.839	0.0188701
784.917	0.0188496
784.995	0.0190128
785.073	0.0191856
785.151	0.0189687
785.229	0.0189375
785.308	0.0190688
785.386	0.0188902
785.464	0.0189011
785.542	0.0189523
785.620	0.0188735
785.698	0.0189845
785.776	0.0188435
785.854	0.0187400
785.933	0.0188808
786.011	0.0186363
786.089	0.0185653
786.167	0.0185697
786.245	0.0186955
786.323	0.0184859
786.401	0.0184419
786.479	0.0185042
786.558	0.0183509
786.636	0.0183199
786.714	0.0182958
786.792	0.0182100
786.870	0.0182607
786.948	0.0184267
787.026	0.0184480
787.104	0.0185107
787.183	0.0184885
787.261	0.0186649
787.339	0.0186458
787.417	0.0188057
787.495	0.0187624
787.573	0.0188861
787.651	0.0189816
787.729	0.0190706
787.808	0.0191261
787.886	0.0191679
787.964	0.0191007
788.042	0.0191142
788.120	0.0189774
788.198	0.0191654
788.276	0.0190821
788.354	0.0189552
788.433	0.0187933
788.511	0.0187997
788.589	0.0187377
788.667	0.0186779
788.745	0.0185329
788.823	0.0184798
788.901	0.0184616
788.979	0.0184990
789.058	0.0185148
789.136	0.0183925
789.214	0.0184985
789.292	0.0184875
789.370	0.0184524
789.448	0.0185007
789.526	0.0186250
789.604	0.0186868
789.683	0.0187497
789.761	0.0186619
789.839	0.0187881
789.917	0.0188965
789.995	0.0190124
790.073	0.0189539
790.151	0.0190640
790.229	0.0189456
790.308	0.0189359
790.386	0.0189112
790.464	0.0188963
790.542	0.0188778
790.620	0.0189706
790.698	0.0189408
790.776	0.0188913
790.854	0.0188603
790.933	0.0188538
791.011	0.0189057
791.089	0.0189253
791.167	0.0188007
791.245	0.0188492
791.323	0.0187453
791.401	0.0185971
791.479	0.0187212
791.558	0.0187698
791.636	0.0187342
791.714	0.0187216
791.792	0.0187226
791.870	0.0187515
791.948	0.0185768
792.026	0.0186491
792.104	0.0185777
792.183	0.0186114
792.261	0.0187539
792.339	0.0186015
792.417	0.0186271
792.495	0.0186204
792.573	0.0187412
792.651	0.0186991
792.729	0.0186134
792.808	0.0186639
792.886	0.0187610
792.964	0.0186281
793.042	0.0189477
793.120	0.0187968
793.198	0.0187405
793.276	0.0187728
793.354	0.0189035
793.433	0.0187814
793.511	0.0188271
793.589	0.0186642
793.667	0.0187097
793.745	0.0186377
793.823	0.0186885
793.901	0.0184091
793.979	0.0182848
794.058	0.0184979
794.136	0.0184703
794.214	0.0184596
794.292	0.0185457
794.370	0.0184057
794.448	0.0184814
794.526	0.0185388
794.604	0.0186027
794.683	0.0186148
794.761	0.0187331
794.839	0.0187862
794.917	0.0188715
794.995	0.0189178
795.073	0.0189951
795.151	0.0190412
795.229	0.0188196
795.308	0.0189629
795.386	0.0191122
795.464	0.0189721
795.542	0.0190342
795.620	0.0190066
795.698	0.0189739
795.776	0.0188766
795.854	0.0189331
795.933	0.0187696
796.011	0.0186531
796.089	0.0187839
796.167	0.0184752
796.245	0.0182919
796.323	0.0185044
796.401	0.0184081
796.479	0.0182678
796.558	0.0183951
796.636	0.0182751
796.714	0.0180460
796.792	0.0182557
796.870	0.0183200
796.948	0.0183577
797.026	0.0183972
797.104	0.0183833
797.183	0.0186066
797.261	0.0187351
797.339	0.0186884
797.417	0.0187737
797.495	0.0188415
797.573	0.0190778
797.651	0.0190062
797.729	0.0192462
797.808	0.0191334
797.886	0.0190028
797.964	0.0192419
798.042	0.0191134
798.120	0.0190633
798.198	0.0190386
798.276	0.0191428
798.354	0.0189182
798.433	0.0187606
798.511	0.0187022
798.589	0.0186967
798.667	0.0184877
798.745	0.0184422
798.823	0.0182304
798.901	0.0182171
798.979	0.0181428
799.058	0.0182748
799.136	0.0181595
799.214	0.0181200
799.292	0.0181457
799.370	0.0183131
799.448	0.0184244
799.526	0.0186107
799.604	0.0186233
799.683	0.0186975
799.761	0.0187136
799.839	0.0188065
799.917	0.0188232
799.995	0.0189249
800.073	0.0190515
800.151	0.0189774
800.229	0.0191158
800.308	0.0190686
800.386	0.0191148
800.464	0.0190483
800.542	0.0190201
800.620	0.0190510
800.698	0.0190759
800.776	0.0189437
800.854	0.0188641
800.933	0.0189496
801.011	0.0189710
801.089	0.0188739
801.167	0.0188074
801.245	0.0185770
801.323	0.0185228
801.401	0.0185919
801.479	0.0185059
801.558	0.0185437
801.636	0.0186081
801.714	0.0185378
801.792	0.0184635
801.870	0.0185735
801.948	0.0185057
802.026	0.0186901
802.104	0.0186493
802.183	0.0186399
802.261	0.0186150
802.339	0.0186167
802.417	0.0186687
802.495	0.0186352
802.573	0.0185338
802.651	0.0186330
802.729	0.0186457
802.808	0.0185941
802.886	0.0185298
802.964	0.0185528
803.042	0.0186642
803.120	0.0187730
803.198	0.0187727
803.276	0.0188408
803.354	0.0187057
803.433	0.0187743
803.511	0.0189100
803.589	0.0188043
803.667	0.0189882
803.745	0.0188811
803.823	0.0188019
803.901	0.0189393
803.979	0.0189588
804.058	0.0188158
804.136	0.0188289
804.214	0.0187180
804.292	0.0186665
804.370	0.0187326
804.448	0.0186701
804.526	0.0185560
804.604	0.0184861
804.683	0.0184412
804.761	0.0184885
804.839	0.0183836
804.917	0.0181985
804.995	0.0181988
805.073	0.0181952
805.151	0.0182291
805.229	0.0182933
805.308	0.0182015
805.386	0.0183632
805.464	0.0185239
805.542	0.0186172
805.620	0.0188102
805.698	0.0188863
805.776	0.0191324
805.854	0.0191222
805.933	0.0190956
806.011	0.0192263
806.089	0.0193927
806.167	0.0193221
806.245	0.0194254
806.323	0.0193719
806.401	0.0192477
806.479	0.0192570
806.558	0.0191693
806.636	0.0191174
806.714	0.0190583
806.792	0.0190633
806.870	0.0189029
806.948	0.0188210
807.026	0.0190104
807.104	0.0185410
807.183	0.0185120
807.261	0.0185703
807.339	0.0184591
807.417	0.0182162
807.495	0.0182246
807.573	0.0183746
807.651	0.0182884
807.729	0.0182883
807.808	0.0183401
807.886	0.0183497
807.964	0.0183611
808.042	0.0184950
808.120	0.0186390
808.198	0.0186808
808.276	0.0186716
808.354	0.0188834
808.433	0.0187804
808.511	0.0189081
808.589	0.0189701
808.667	0.0189068
808.745	0.0189095
808.823	0.0188942
808.901	0.0190861
808.979	0.0188615
809.058	0.0189490
809.136	0.0188661
809.214	0.0188969
809.292	0.0187592
809.370	0.0187563
809.448	0.0185052
809.526	0.0187885
809.604	0.0186534
809.683	0.0183942
809.761	0.0186760
809.839	0.0185875
809.917	0.0184062
809.995	0.0185110
810.073	0.0185954
810.151	0.0185953
810.229	0.0185229
810.308	0.0186634
810.386	0.0188331
810.464	0.0186646
810.542	0.0187736
810.620	0.0188486
810.698	0.0189746
810.776	0.0189436
810.854	0.0190192
810.933	0.0190208
811.011	0.0190831
811.089	0.0190788
811.167	0.0191433
811.245	0.0190515
811.323	0.0190405
811.401	0.0190285
811.479	0.0189354
811.558	0.0189566
811.636	0.0188298
811.714	0.0188068
811.792	0.0187803
811.870	0.0187186
811.948	0.0186299
812.026	0.0186048
812.104	0.0185853
812.183	0.0184706
812.261	0.0185835
812.339	0.0185251
812.417	0.0184041
812.495	0.0185500
812.573	0.0186069
812.651	0.0186603
812.729	0.0187789
812.808	0.0187251
812.886	0.0187233
812.964	0.0187347
813.042	0.0188483
813.120	0.0188615
813.198	0.0189875
813.276	0.0189480
813.354	0.0189960
813.433	0.0189503
813.511	0.0189941
813.589	0.0189980
813.667	0.0190506
813.745	0.0189088
813.823	0.0190174
813.901	0.0189177
813.979	0.0188655
814.058	0.0187548
814.136	0.0187201
814.214	0.0186736
814.292	0.0186793
814.370	0.0187263
814.448	0.0185408
814.526	0.0186795
814.604	0.0185583
814.683	0.0186192
814.761	0.0184911
814.839	0.0184878
814.917	0.0185030
814.995	0.0185818
815.073	0.0186008
815.151	0.0186493
815.229	0.0185458
815.308	0.0187205
815.386	0.0187604
815.464	0.0187904
815.542	0.0188976
815.620	0.0189449
815.698	0.0189482
815.776	0.0189506
815.854	0.0189625
815.933	0.0191202
816.011	0.0189876
816.089	0.0190153
816.167	0.0191225
816.245	0.0189554
816.323	0.0189134
816.401	0.0188332
816.479	0.0188352
816.558	0.0187919
816.636	0.0187447
816.714	0.0187753
816.792	0.0186581
816.870	0.0184299
816.948	0.0185149
817.026	0.0184370
817.104	0.0184898
817.183	0.0183495
817.261	0.0185543
817.339	0.0183833
817.417	0.0183458
817.495	0.0183359
817.573	0.0185228
817.651	0.0182898
817.729	0.0185058
817.808	0.0185591
817.886	0.0183913
817.964	0.0186060
818.042	0.0186948
818.120	0.0186854
818.198	0.0189783
818.276	0.0188847
818.354	0.0188589
818.433	0.0188306
818.511	0.0189755
818.589	0.0190219
818.667	0.0191313
818.745	0.0189636
818.823	0.0188182
818.901	0.0190143
818.979	0.0188995
819.058	0.0189737
819.136	0.0188341
819.214	0.0188613
819.292	0.0189451
819.370	0.0189030
819.448	0.0188142
819.526	0.0186595
819.604	0.0187408
819.683	0.0187215
819.761	0.0186003
819.839	0.0187019
819.917	0.0184242
819.995	0.0186209
820.073	0.0184780
820.151	0.0184875
820.229	0.0184888
820.308	0.0182967
820.386	0.0183088
820.464	0.0184328
820.542	0.0184328
820.620	0.0185068
820.698	0.0185594
820.776	0.0185001
820.854	0.0184695
820.933	0.0186175
821.011	0.0186422
821.089	0.0186612
821.167	0.0187722
821.245	0.0187559
821.323	0.0187942
821.401	0.0188930
821.479	0.0188635
821.558	0.0190155
821.636	0.0189825
821.714	0.0190116
821.792	0.0189354
821.870	0.0189578
821.948	0.0187857
822.026	0.0189566
822.104	0.0188126
822.183	0.0187951
822.261	0.0188227
822.339	0.0186747
822.417	0.0185380
822.495	0.0185696
822.573	0.0185231
822.651	0.0186867
822.729	0.0185966
822.808	0.0185020
822.886	0.0186057
822.964	0.0186342
823.042	0.0186147
823.120	0.0187593
823.198	0.0186341
823.276	0.0187810
823.354	0.0186642
823.433	0.0187078
823.511	0.0186948
823.589	0.0186650
823.667	0.0188905
823.745	0.0188068
823.823	0.0187669
823.901	0.0189293
823.979	0.0189106
824.058	0.0187456
824.136	0.0186803
824.214	0.0189548
824.292	0.0188194
824.370	0.0187637
824.448	0.0186808
824.526	0.0186620
824.604	0.0188374
824.683	0.0186968
824.761	0.0187058
824.839	0.0186504
824.917	0.0186464
824.995	0.0187153
825.073	0.0186462
825.151	0.0185966
825.229	0.0186710
825.308	0.0185995
825.386	0.0185089
825.464	0.0185487
825.542	0.0185102
825.620	0.0185046
825.698	0.0185146
825.776	0.0184684
825.854	0.0184894
825.933	0.0185009
826.011	0.0183713
826.089	0.0183739
826.167	0.0185022
826.245	0.0184792
826.323	0.0184921
826.401	0.0185548
826.479	0.0185936
826.558	0.0187341
826.636	0.0185863
826.714	0.0186456
826.792	0.0185872
826.870	0.0187046
826.948	0.0188105
827.026	0.0187794
827.104	0.0188116
827.183	0.0189117
827.261	0.0189232
827.339	0.0188046
827.417	0.0188951
827.495	0.0189373
827.573	0.0189600
827.651	0.0190437
827.729	0.0189903
827.808	0.0187001
827.886	0.0188712
827.964	0.0190137
828.042	0.0188043
828.120	0.0187108
828.198	0.0186829
828.276	0.0186390
828.354	0.0185571
828.433	0.0185283
828.511	0.0184612
828.589	0.0183408
828.667	0.0184135
828.745	0.0186127
828.823	0.0185652
828.901	0.0185525
828.979	0.0184576
829.058	0.0187102
829.136	0.0186280
829.214	0.0186185
829.292	0.0185064
829.370	0.0184704
829.448	0.0187086
829.526	0.0186378
829.604	0.0187698
829.683	0.0187749
829.761	0.0187699
829.839	0.0187076
829.917	0.0188632
829.995	0.0187735
830.073	0.0188540
830.151	0.0188242
830.229	0.0188584
830.308	0.0187019
830.386	0.0187283
830.464	0.0186935
830.542	0.0188760
830.620	0.0188222
830.698	0.0187479
830.776	0.0185833
830.854	0.0187207
830.933	0.0187357
831.011	0.0187387
831.089	0.0187004
831.167	0.0187836
831.245	0.0187946
831.323	0.0188258
831.401	0.0187352
831.479	0.0187057
831.558	0.0187734
831.636	0.0187443
831.714	0.0188033
831.792	0.0188342
831.870	0.0188442
831.948	0.0187276
832.026	0.0186269
832.104	0.0188609
832.183	0.0187247
832.261	0.0186869
832.339	0.0187920
832.417	0.0187479
832.495	0.0185963
832.573	0.0188757
832.651	0.0185876
832.729	0.0187075
832.808	0.0188512
832.886	0.0187002
832.964	0.0188235
833.042	0.0186803
833.120	0.0187521
833.198	0.0187830
833.276	0.0186578
833.354	0.0187743
833.433	0.0188258
833.511	0.0186311
833.589	0.0187387
833.667	0.0188013
833.745	0.0186375
833.823	0.0185316
833.901	0.0186334
833.979	0.0185870
834.058	0.0186642
834.136	0.0186327
834.214	0.0185772
834.292	0.0184959
834.370	0.0185019
834.448	0.0185216
834.526	0.0185669
834.604	0.0184288
834.683	0.0186063
834.761	0.0186121
834.839	0.0188174
834.917	0.0188274
834.995	0.0186071
835.073	0.0187985
835.151	0.0187453
835.229	0.0188628
835.308	0.0190125
835.386	0.0189035
835.464	0.0190166
835.542	0.0191156
835.620	0.0189680
835.698	0.0189997
835.776	0.0190471
835.854	0.0189965
835.933	0.0190753
836.011	0.0189225
836.089	0.0189490
836.167	0.0189944
836.245	0.0188535
836.323	0.0189244
836.401	0.0189014
836.479	0.0189120
836.558	0.0187704
836.636	0.0187200
836.714	0.0186871
836.792	0.0187377
836.870	0.0186990
836.948	0.0185950
837.026	0.0186048
837.104	0.0186221
837.183	0.0186351
837.261	0.0185076
837.339	0.0184823
837.417	0.0186859
837.495	0.0185262
837.573	0.0185939
837.651	0.0186348
837.729	0.0187055
837.808	0.0186700
837.886	0.0187537
837.964	0.0188107
838.042	0.0188267
838.120	0.0187379
838.198	0.0188545
838.276	0.0189352
838.354	0.0188271
838.433	0.0189688
838.511	0.0189127
838.589	0.0189378
838.667	0.0190820
838.745	0.0190379
838.823	0.0191106
838.901	0.0190972
838.979	0.0189535
839.058	0.0187885
839.136	0.0189848
839.214	0.0189139
839.292	0.0187778
839.370	0.0189932
839.448	0.0188876
839.526	0.0188133
839.604	0.0186983
839.683	0.0186160
839.761	0.0187802
839.839	0.0185699
839.917	0.0185702
839.995	0.0185018
840.073	0.0186517
840.151	0.0185207
840.229	0.0184840
840.308	0.0184180
840.386	0.0184837
840.464	0.0184453
840.542	0.0182906
840.620	0.0183868
840.698	0.0186214
840.776	0.0184928
840.854	0.0184914
840.933	0.0184679
841.011	0.0186787
841.089	0.0186681
841.167	0.0188023
841.245	0.0186226
841.323	0.0187920
841.401	0.0189215
841.479	0.0189025
841.558	0.0189601
841.636	0.0190260
841.714	0.0189595
841.792	0.0190256
841.870	0.0191361
841.948	0.0191139
842.026	0.0190813
842.104	0.0190083
842.183	0.0189484
842.261	0.0189369
842.339	0.0187753
842.417	0.0189100
842.495	0.0189208
842.573	0.0189035
842.651	0.0189144
842.729	0.0188150
842.808	0.0188345
842.886	0.0188266
842.964	0.0187843
843.042	0.0187389
843.120	0.0187940
843.198	0.0188842
843.276	0.0187533
843.354	0.0186602
843.433	0.0187300
843.511	0.0188820
843.589	0.0188731
843.667	0.0188742
843.745	0.0187591
843.823	0.0187391
843.901	0.0187405
843.979	0.0186137
844.058	0.0187327
844.136	0.0187729
844.214	0.0187254
844.292	0.0187345
844.370	0.0186982
844.448	0.0186713
844.526	0.0186976
844.604	0.0186971
844.683	0.0185484
844.761	0.0187105
844.839	0.0184242
844.917	0.0185034
844.995	0.0187360
845.073	0.0185718
845.151	0.0186037
845.229	0.0187041
845.308	0.0185555
845.386	0.0185989
845.464	0.0185609
845.542	0.0187164
845.620	0.0188423
845.698	0.0185431
845.776	0.0185490
845.854	0.0188092
845.933	0.0187186
846.011	0.0187074
846.089	0.0188072
846.167	0.0188970
846.245	0.0189155
846.323	0.0189321
846.401	0.0188709
846.479	0.0189195
846.558	0.0189011
846.636	0.0189258
846.714	0.0190510
846.792	0.0190763
846.870	0.0190691
846.948	0.0190036
847.026	0.0189790
847.104	0.0189158
847.183	0.0189330
847.261	0.0188670
847.339	0.0190295
847.417	0.0188462
847.495	0.0187450
847.573	0.0187735
847.651	0.0187364
847.729	0.0185834
847.808	0.0185480
847.886	0.0185303
847.964	0.0186135
848.042	0.0186313
848.120	0.0183788
848.198	0.0184348
848.276	0.0184251
848.354	0.0184477
848.433	0.0184626
848.511	0.0184386
848.589	0.0184091
848.667	0.0185489
848.745	0.0185715
848.823	0.0185590
848.901	0.0184599
848.979	0.0186015
849.058	0.0184545
849.136	0.0184794
849.214	0.0186996
849.292	0.0186132
849.370	0.0185168
849.448	0.0185732
849.526	0.0186007
849.604	0.0185527
849.683	0.0185443
849.761	0.0186712
849.839	0.0187896
849.917	0.0186944
849.995	0.0188748
850.073	0.0187298
850.151	0.0187350
850.229	0.0187704
850.308	0.0186645
850.386	0.0186940
850.464	0.0186587
850.542	0.0186392
850.620	0.0186311
850.698	0.0185474
850.776	0.0186240
850.854	0.0186943
850.933	0.0185795
851.011	0.0186330
851.089	0.0185955
851.167	0.0185597
851.245	0.0188852
851.323	0.0188181
851.401	0.0187117
851.479	0.0186380
851.558	0.0187613
851.636	0.0187630
851.714	0.0189052
851.792	0.0189027
851.870	0.0189631
851.948	0.0189317
852.026	0.0188601
852.104	0.0188940
852.183	0.0190173
852.261	0.0191005
852.339	0.0190469
852.417	0.0190520
852.495	0.0190556
852.573	0.0189603
852.651	0.0188852
852.729	0.0189211
852.808	0.0186942
852.886	0.0186733
852.964	0.0187709
853.042	0.0187202
853.120	0.0186343
853.198	0.0185264
853.276	0.0185229
853.354	0.0183514
853.433	0.0185651
853.511	0.0184940
853.589	0.0184789
853.667	0.0184698
853.745	0.0185326
853.823	0.0185026
853.901	0.0185982
853.979	0.0184657
854.058	0.0184692
854.136	0.0185857
854.214	0.0185474
854.292	0.0185529
854.370	0.0186763
854.448	0.0186839
854.526	0.0187266
854.604	0.0188413
854.683	0.0186961
854.761	0.0188410
854.839	0.0189597
854.917	0.0187682
854.995	0.0187853
855.073	0.0189183
855.151	0.0189659
855.229	0.0188618
855.308	0.0188637
855.386	0.0188175
855.464	0.0187710
855.542	0.0188528
855.620	0.0188845
855.698	0.0188416
855.776	0.0187307
855.854	0.0186461
855.933	0.0187618
856.011	0.0186108
856.089	0.0187540
856.167	0.0186987
856.245	0.0187258
856.323	0.0186766
856.401	0.0184438
856.479	0.0188443
856.558	0.0187756
856.636	0.0186946
856.714	0.0187854
856.792	0.0187476
856.870	0.0187428
856.948	0.0187600
857.026	0.0187989
857.104	0.0187417
857.183	0.0187335
857.261	0.0188432
857.339	0.0187504
857.417	0.0186854
857.495	0.0188622
857.573	0.0186916
857.651	0.0187652
857.729	0.0187447
857.808	0.0187658
857.886	0.0187904
857.964	0.0187704
858.042	0.0187483
858.120	0.0189521
858.198	0.0189205
858.276	0.0188382
858.354	0.0188087
858.433	0.0188433
858.511	0.0187793
858.589	0.0188203
858.667	0.0187983
858.745	0.0188995
858.823	0.0186944
858.901	0.0186729
858.979	0.0187360
859.058	0.0187324
859.136	0.0187098
859.214	0.0186810
859.292	0.0187463
859.370	0.0188013
859.448	0.0186727
859.526	0.0186277
859.604	0.0187560
859.683	0.0188403
859.761	0.0187666
859.839	0.0188859
859.917	0.0187495
859.995	0.0187638
860.073	0.0188930
860.151	0.0188403
860.229	0.0188024
860.308	0.0188581
860.386	0.0188396
860.464	0.0187897
860.542	0.0187778
860.620	0.0188873
860.698	0.0188076
860.776	0.0187817
860.854	0.0187289
860.933	0.0187874
861.011	0.0185802
861.089	0.0187025
861.167	0.0186164
861.245	0.0185951
861.323	0.0187110
861.401	0.0185812
861.479	0.0186707
861.558	0.0185753
861.636	0.0186330
861.714	0.0185310
861.792	0.0185468
861.870	0.0186739
861.948	0.0185215
862.026	0.0187419
862.104	0.0186431
862.183	0.0186993
862.261	0.0186835
862.339	0.0186513
862.417	0.0186918
862.495	0.0186324
862.573	0.0187635
862.651	0.0187364
862.729	0.0187556
862.808	0.0186755
862.886	0.0187714
862.964	0.0187453
863.042	0.0187645
863.120	0.0188861
863.198	0.0188577
863.276	0.0189869
863.354	0.0189987
863.433	0.0188607
863.511	0.0189236
863.589	0.0188471
863.667	0.0187630
863.745	0.0188709
863.823	0.0189700
863.901	0.0189229
863.979	0.0189486
864.058	0.0189172
864.136	0.0189304
864.214	0.0188187
864.292	0.0188379
864.370	0.0187627
864.448	0.0186893
864.526	0.0188133
864.604	0.0186737
864.683	0.0187358
864.761	0.0187560
864.839	0.0186253
864.917	0.0187540
864.995	0.0187493
865.073	0.0187659
865.151	0.0187348
865.229	0.0186816
865.308	0.0187044
865.386	0.0187109
865.464	0.0186825
865.542	0.0188208
865.620	0.0188907
865.698	0.0187749
865.776	0.0187474
865.854	0.0188786
865.933	0.0189901
866.011	0.0188496
866.089	0.0188354
866.167	0.0188665
866.245	0.0189671
866.323	0.0188288
866.401	0.0189597
866.479	0.0186731
866.558	0.0188194
866.636	0.0188717
866.714	0.0188404
866.792	0.0186595
866.870	0.0187394
866.948	0.0188020
867.026	0.0186312
867.104	0.0185587
867.183	0.0186446
867.261	0.0185617
867.339	0.0185286
867.417	0.0186044
867.495	0.0185673
867.573	0.0185954
867.651	0.0186477
867.729	0.0185158
867.808	0.0186127
867.886	0.0187289
867.964	0.0186707
868.042	0.0187503
868.120	0.0188045
868.198	0.0188617
868.276	0.0187205
868.354	0.0186946
868.433	0.0189292
868.511	0.0189384
868.589	0.0188344
868.667	0.0189880
868.745	0.0189544
868.823	0.0190022
868.901	0.0189500
868.979	0.0190367
869.058	0.0189752
869.136	0.0189668
869.214	0.0188380
869.292	0.0187531
869.370	0.0188753
869.448	0.0187645
869.526	0.0186674
869.604	0.0186973
869.683	0.0187569
869.761	0.0186201
869.839	0.0185658
869.917	0.0186429
869.995	0.0187702
870.073	0.0186404
870.151	0.0186137
870.229	0.0186012
870.308	0.0185224
870.386	0.0187885
870.464	0.0186803
870.542	0.0187334
870.620	0.0188148
870.698	0.0186105
870.776	0.0187120
870.854	0.0188006
870.933	0.0186533
871.011	0.0189304
871.089	0.0188501
871.167	0.0188691
871.245	0.0189093
871.323	0.0187574
871.401	0.0188109
871.479	0.0188056
871.558	0.0188819
871.636	0.0187384
871.714	0.0187486
871.792	0.0187904
871.870	0.0187477
871.948	0.0188020
872.026	0.0188120
872.104	0.0187883
872.183	0.0186498
872.261	0.0185720
872.339	0.0187126
872.417	0.0187875
872.495	0.0186625
872.573	0.0186774
872.651	0.0186813
872.729	0.0186092
872.808	0.0186500
872.886	0.0187120
872.964	0.0186594
873.042	0.0186552
873.120	0.0186723
873.198	0.0187088
873.276	0.0189261
873.354	0.0188355
873.433	0.0187620
873.511	0.0187539
873.589	0.0188380
873.667	0.0188112
873.745	0.0187624
873.823	0.0188776
873.901	0.0187374
873.979	0.0188197
874.058	0.0186971
874.136	0.0185885
874.214	0.0187556
874.292	0.0188088
874.370	0.0187031
874.448	0.0185154
874.526	0.0184754
874.604	0.0185074
874.683	0.0186268
874.761	0.0185329
874.839	0.0184885
874.917	0.0184395
874.995	0.0184729
875.073	0.0185217
875.151	0.0185612
875.229	0.0184428
875.308	0.0185336
875.386	0.0186152
875.464	0.0184719
875.542	0.0185564
875.620	0.0185452
875.698	0.0186194
875.776	0.0186057
875.854	0.0186448
875.933	0.0187732
876.011	0.0188221
876.089	0.0188356
876.167	0.0189370
876.245	0.0188853
876.323	0.0189702
876.401	0.0189283
876.479	0.0189355
876.558	0.0189285
876.636	0.0188324
876.714	0.0189033
876.792	0.0188228
876.870	0.0189298
876.948	0.0187910
877.026	0.0188157
877.104	0.0187445
877.183	0.0187363
877.261	0.0187341
877.339	0.0185969
877.417	0.0186797
877.495	0.0186894
877.573	0.0186251
877.651	0.0186093
877.729	0.0185638
877.808	0.0184929
877.886	0.0185474
877.964	0.0186975
878.042	0.0185600
878.120	0.0186756
878.198	0.0186550
878.276	0.0186800
878.354	0.0187733
878.433	0.0186375
878.511	0.0187914
878.589	0.0188702
878.667	0.0188026
878.745	0.0187366
878.823	0.0188939
878.901	0.0187563
878.979	0.0188114
879.058	0.0187866
879.136	0.0187594
879.214	0.0187248
879.292	0.0187243
879.370	0.0187897
879.448	0.0187223
879.526	0.0186782
879.604	0.0187164
879.683	0.0186723
879.761	0.0187012
879.839	0.0186891
879.917	0.0186422
879.995	0.0186107
880.073	0.0187828
880.151	0.0186385
880.229	0.0186597
880.308	0.0187314
880.386	0.0187145
880.464	0.0186501
880.542	0.0186391
880.620	0.0187356
880.698	0.0187885
880.776	0.0186839
880.854	0.0188265
880.933	0.0188682
881.011	0.0189829
881.089	0.0188378
881.167	0.0186839
881.245	0.0189400
881.323	0.0190118
881.401	0.0189371
881.479	0.0187428
881.558	0.0189703
881.636	0.0189850
881.714	0.0188556
881.792	0.0188052
881.870	0.0187573
881.948	0.0187876
882.026	0.0187657
882.104	0.0186215
882.183	0.0186958
882.261	0.0187788
882.339	0.0186897
882.417	0.0186327
882.495	0.0186133
882.573	0.0186119
882.651	0.0185401
882.729	0.0185268
882.808	0.0185921
882.886	0.0186433
882.964	0.0186446
883.042	0.0187174
883.120	0.0186103
883.198	0.0185629
883.276	0.0187206
883.354	0.0187367
883.433	0.0186108
883.511	0.0186301
883.589	0.0187597
883.667	0.0188031
883.745	0.0188790
883.823	0.0188183
883.901	0.0187378
883.979	0.0187901
884.058	0.0188739
884.136	0.0189165
884.214	0.0188830
884.292	0.0188966
884.370	0.0188606
884.448	0.0187868
884.526	0.0188025
884.604	0.0186325
884.683	0.0188609
884.761	0.0186398
884.839	0.0186331
884.917	0.0185838
884.995	0.0186710
885.073	0.0185502
885.151	0.0185948
885.229	0.0186284
885.308	0.0185667
885.386	0.0186037
885.464	0.0185715
885.542	0.0186874
885.620	0.0185391
885.698	0.0186088
885.776	0.0186137
885.854	0.0187739
885.933	0.0187299
886.011	0.0186891
886.089	0.0187116
886.167	0.0187312
886.245	0.0187164
886.323	0.0186134
886.401	0.0186275
886.479	0.0185889
886.558	0.0188509
886.636	0.0188452
886.714	0.0186190
886.792	0.0185494
886.870	0.0187830
886.948	0.0186874
887.026	0.0185500
887.104	0.0186547
887.183	0.0185723
887.261	0.0185308
887.339	0.0185667
887.417	0.0187707
887.495	0.0186453
887.573	0.0187106
887.651	0.0185968
887.729	0.0187268
887.808	0.0187033
887.886	0.0187305
887.964	0.0188112
888.042	0.0188007
888.120	0.0186877
888.198	0.0188431
888.276	0.0186924
888.354	0.0187434
888.433	0.0188049
888.511	0.0185573
888.589	0.0186433
888.667	0.0187319
888.745	0.0187669
888.823	0.0188027
888.901	0.0188152
888.979	0.0186063
889.058	0.0186484
889.136	0.0185345
889.214	0.0186123
889.292	0.0186559
889.370	0.0185570
889.448	0.0185802
889.526	0.0186137
889.604	0.0187582
889.683	0.0187109
889.761	0.0185727
889.839	0.0188796
889.917	0.0187584
889.995	0.0188962
890.073	0.0189880
890.151	0.0187793
890.229	0.0189680
890.308	0.0188845
890.386	0.0188457
890.464	0.0189149
890.542	0.0187199
890.620	0.0187758
890.698	0.0187535
890.776	0.0186815
890.854	0.0187181
890.933	0.0184903
891.011	0.0184051
891.089	0.0184145
891.167	0.0182855
891.245	0.0182868
891.323	0.0182591
891.401	0.0182861
891.479	0.0181694
891.558	0.0181403
891.636	0.0185216
891.714	0.0182072
891.792	0.0183662
891.870	0.0183897
891.948	0.0185763
892.026	0.0187200
892.104	0.0187222
892.183	0.0189092
892.261	0.0191370
892.339	0.0192076
892.417	0.0192745
892.495	0.0192625
892.573	0.0193179
892.651	0.0196051
892.729	0.0194154
892.808	0.0193549
892.886	0.0194860
892.964	0.0192866
893.042	0.0190336
893.120	0.0189283
893.198	0.0188507
893.276	0.0187166
893.354	0.0183690
893.433	0.0181599
893.511	0.0180348
893.589	0.0179465
893.667	0.0177429
893.745	0.0176950
893.823	0.0176701
893.901	0.0175812
893.979	0.0177473
894.058	0.0179512
894.136	0.0179503
894.214	0.0181386
894.292	0.0182182
894.370	0.0184248
894.448	0.0186530
894.526	0.0189342
894.604	0.0189632
894.683	0.0190971
894.761	0.0192116
894.839	0.0193785
894.917	0.0193672
894.995	0.0194950
895.073	0.0195289
895.151	0.0193316
895.229	0.0194730
895.308	0.0193809
895.386	0.0192288
895.464	0.0192549
895.542	0.0189793
895.620	0.0189510
895.698	0.0188602
895.776	0.0186857
895.854	0.0186111
895.933	0.0182515
896.011	0.0181570
896.089	0.0182422
896.167	0.0179855
896.245	0.0178724
896.323	0.0178168
896.401	0.0178683
896.479	0.0178677
896.558	0.0179331
896.636	0.0180585
896.714	0.0180582
896.792	0.0181807
896.870	0.0182900
896.948	0.0183936
897.026	0.0186100
897.104	0.0187769
897.183	0.0189211
897.261	0.0190485
897.339	0.0193045
897.417	0.0194324
897.495	0.0194344
897.573	0.0197076
897.651	0.0194530
897.729	0.0195668
897.808	0.0193211
897.886	0.0193069
897.964	0.0192744
898.042	0.0192281
898.120	0.0190267
898.198	0.0188537
898.276	0.0188058
898.354	0.0185954
898.433	0.0184631
898.511	0.0182561
898.589	0.0181118
898.667	0.0180965
898.745	0.0179789
898.823	0.0179636
898.901	0.0179317
898.979	0.0178288
899.058	0.0177917
899.136	0.0179852
899.214	0.0179270
899.292	0.0181509
899.370	0.0182372
899.448	0.0183723
899.526	0.0186092
899.604	0.0187527
899.683	0.0189570
899.761	0.0191016
899.839	0.0191808
899.917	0.0192705
899.995	0.0193658
900.073	0.0194065
900.151	0.0195467
900.229	0.0195313
900.308	0.0194341
900.386	0.0191490
900.464	0.0191623
900.542	0.0190929
900.620	0.0188694
900.698	0.0187939
900.776	0.0187151
900.854	0.0186875
900.933	0.0186391
901.011	0.0184007
901.089	0.0184176
901.167	0.0181471
901.245	0.0182153
901.323	0.0181898
901.401	0.0182735
901.479	0.0181433
901.558	0.0181758
901.636	0.0182589
901.714	0.0182431
901.792	0.0183295
901.870	0.0184067
901.948	0.0184357
902.026	0.0184599
902.104	0.0185629
902.183	0.0186414
902.261	0.0187119
902.339	0.0188554
902.417	0.0188895
902.495	0.0189240
902.573	0.0190398
902.651	0.0190781
902.729	0.0190213
902.808	0.0188162
902.886	0.0188689
902.964	0.0188625
903.042	0.0187309
903.120	0.0187314
903.198	0.0185469
903.276	0.0186160
903.354	0.0186493
903.433	0.0185973
903.511	0.0185810
903.589	0.0184871
903.667	0.0186737
903.745	0.0187289
903.823	0.0185522
903.901	0.0186075
903.979	0.0185610
904.058	0.0184953
904.136	0.0185145
904.214	0.0187688
904.292	0.0186614
904.370	0.0186096
904.448	0.0186913
904.526	0.0185647
904.604	0.0187102
904.683	0.0185843
904.761	0.0185814
904.839	0.0186911
904.917	0.0188460
904.995	0.0188061
905.073	0.0189470
905.151	0.0188902
905.229	0.0188197
905.308	0.0187850
905.386	0.0187657
905.464	0.0188071
905.542	0.0187930
905.620	0.0187942
905.698	0.0187373
905.776	0.0187482
905.854	0.0186668
905.933	0.0186073
906.011	0.0185822
906.089	0.0184225
906.167	0.0185692
906.245	0.0186763
906.323	0.0186801
906.401	0.0186668
906.479	0.0186243
906.558	0.0185709
906.636	0.0185387
906.714	0.0185421
906.792	0.0186082
906.870	0.0185611
906.948	0.0184698
907.026	0.0185676
907.104	0.0186362
907.183	0.0184977
907.261	0.0184426
907.339	0.0185995
907.417	0.0187662
907.495	0.0186479
907.573	0.0188295
907.651	0.0188510
907.729	0.0187672
907.808	0.0187754
907.886	0.0188624
907.964	0.0187209
908.042	0.0189835
908.120	0.0189427
908.198	0.0189129
908.276	0.0189156
908.354	0.0189003
908.433	0.0188320
908.511	0.0188785
908.589	0.0188063
908.667	0.0188046
908.745	0.0188590
908.823	0.0186523
908.901	0.0187375
908.979	0.0185529
909.058	0.0186271
909.136	0.0186057
909.214	0.0186962
909.292	0.0187038
909.370	0.0186539
909.448	0.0186135
909.526	0.0186189
909.604	0.0185323
909.683	0.0184600
909.761	0.0184692
909.839	0.0183687
909.917	0.0184782
909.995	0.0184367
910.073	0.0183911
910.151	0.0183818
910.229	0.0184549
910.308	0.0184154
910.386	0.0183548
910.464	0.0185186
910.542	0.0185258
910.620	0.0186531
910.698	0.0185969
910.776	0.0187900
910.854	0.0189520
910.933	0.0189246
911.011	0.0189459
911.089	0.0190310
911.167	0.0190680
911.245	0.0190656
911.323	0.0192322
911.401	0.0191545
911.479	0.0190720
911.558	0.0190829
911.636	0.0190194
911.714	0.0189482
911.792	0.0190225
911.870	0.0186718
911.948	0.0188252
912.026	0.0185886
912.104	0.0186485
912.183	0.0186286
912.261	0.0184724
912.339	0.0185223
912.417	0.0183989
912.495	0.0183876
912.573	0.0185246
912.651	0.0184621
912.729	0.0185560
912.808	0.0184975
912.886	0.0185527
912.964	0.0185097
913.042	0.0185905
913.120	0.0186887
913.198	0.0187159
913.276	0.0188206
913.354	0.0187858
913.433	0.0187795
913.511	0.0188132
913.589	0.0188333
913.667	0.0189749
913.745	0.0190021
913.823	0.0189730
913.901	0.0188086
913.979	0.0187680
914.058	0.0188934
914.136	0.0190210
914.214	0.0187834
914.292	0.0187166
914.370	0.0187267
914.448	0.0187441
914.526	0.0186409
914.604	0.0186425
914.683	0.0185832
914.761	0.0185379
914.839	0.0186876
914.917	0.0185925
914.995	0.0185111
915.073	0.0185117
915.151	0.0185757
915.229	0.0187210
915.308	0.0186786
915.386	0.0187675
915.464	0.0187227
915.542	0.0187223
915.620	0.0188732
915.698	0.0189670
915.776	0.0187944
915.854	0.0189308
915.933	0.0188953
916.011	0.0189711
916.089	0.0187468
916.167	0.0188035
916.245	0.0188249
916.323	0.0187350
916.401	0.0188223
916.479	0.0188366
916.558	0.0187279
916.636	0.0187283
916.714	0.0187789
916.792	0.0185383
916.870	0.0187110
916.948	0.0186394
917.026	0.0186155
917.104	0.0185406
917.183	0.0185552
917.261	0.0185791
917.339	0.0185508
917.417	0.0186006
917.495	0.0185750
917.573	0.0186638
917.651	0.0187573
917.729	0.0187776
917.808	0.0187253
917.886	0.0187774
917.964	0.0187502
918.042	0.0188200
918.120	0.0188197
918.198	0.0190157
918.276	0.0188906
918.354	0.0188831
918.433	0.0188657
918.511	0.0189906
918.589	0.0188763
918.667	0.0187604
918.745	0.0187292
918.823	0.0187970
918.901	0.0188707
918.979	0.0188927
919.058	0.0188441
919.136	0.0186436
919.214	0.0185549
919.292	0.0185796
919.370	0.0186007
919.448	0.0185225
919.526	0.0187525
919.604	0.0185690
919.683	0.0184737
919.761	0.0185612
919.839	0.0185782
919.917	0.0185126
