06/03/2022	18:08:43	Ver.	4.1	UNKNOWN
Optical Delay	599.995081	Delta X		0.078125	Sweeps	1	Scan Rate	0/0
Coordinates	Axis 1	NaN	Axis 2	NaN	Axis 3	NaN	Axis 4	NaN	Axis 5	NaN	Axis 6	0.000000
TX Power	0.000000	RX Power	0.000000

599.995	0.0182839
600.073	0.0183541
600.151	0.0183908
600.229	0.0183758
600.308	0.0182193
600.386	0.0181870
600.464	0.0183119
600.542	0.0183150
600.620	0.0182624
600.698	0.0182779
600.776	0.0182938
600.854	0.0182821
600.933	0.0182272
601.011	0.0184145
601.089	0.0182925
601.167	0.0183820
601.245	0.0183293
601.323	0.0182157
601.401	0.0182117
601.479	0.0183030
601.558	0.0182632
601.636	0.0183529
601.714	0.0182670
601.792	0.0182507
601.870	0.0183590
601.948	0.0183328
602.026	0.0183975
602.104	0.0181898
602.183	0.0181110
602.261	0.0183681
602.339	0.0183861
602.417	0.0182784
602.495	0.0182768
602.573	0.0182976
602.651	0.0182601
602.729	0.0182865
602.808	0.0182631
602.886	0.0182607
602.964	0.0183329
603.042	0.0183325
603.120	0.0183565
603.198	0.0182039
603.276	0.0182757
603.354	0.0183475
603.433	0.0182941
603.511	0.0182381
603.589	0.0181853
603.667	0.0182124
603.745	0.0183177
603.823	0.0183453
603.901	0.0183292
603.979	0.0182981
604.058	0.0182043
604.136	0.0181976
604.214	0.0183247
604.292	0.0183547
604.370	0.0182109
604.448	0.0183285
604.526	0.0183090
604.604	0.0182574
604.683	0.0181763
604.761	0.0182246
604.839	0.0183140
604.917	0.0184125
604.995	0.0183662
605.073	0.0181262
605.151	0.0181397
605.229	0.0182899
605.308	0.0183549
605.386	0.0183405
605.464	0.0183698
605.542	0.0183105
605.620	0.0181715
605.698	0.0183342
605.776	0.0183390
605.854	0.0181581
605.933	0.0183077
606.011	0.0183599
606.089	0.0182542
606.167	0.0183195
606.245	0.0183015
606.323	0.0182404
606.401	0.0183118
606.479	0.0181441
606.558	0.0182305
606.636	0.0182314
606.714	0.0183267
606.792	0.0182609
606.870	0.0181677
606.948	0.0182931
607.026	0.0182506
607.104	0.0183074
607.183	0.0182094
607.261	0.0183009
607.339	0.0183108
607.417	0.0181863
607.495	0.0181988
607.573	0.0182441
607.651	0.0184751
607.729	0.0183156
607.808	0.0182475
607.886	0.0182940
607.964	0.0182259
608.042	0.0182150
608.120	0.0183377
608.198	0.0182123
608.276	0.0181680
608.354	0.0182411
608.433	0.0181905
608.511	0.0182686
608.589	0.0183198
608.667	0.0182132
608.745	0.0181764
608.823	0.0183062
608.901	0.0181652
608.979	0.0182076
609.058	0.0182539
609.136	0.0183002
609.214	0.0181043
609.292	0.0183031
609.370	0.0182749
609.448	0.0182962
609.526	0.0181537
609.604	0.0182371
609.683	0.0181094
609.761	0.0182426
609.839	0.0182607
609.917	0.0183040
609.995	0.0183685
610.073	0.0183744
610.151	0.0182217
610.229	0.0182632
610.308	0.0181937
610.386	0.0182762
610.464	0.0183121
610.542	0.0183328
610.620	0.0183887
610.698	0.0183797
610.776	0.0183288
610.854	0.0182174
610.933	0.0182918
611.011	0.0183504
611.089	0.0181282
611.167	0.0181986
611.245	0.0182175
611.323	0.0183244
611.401	0.0183533
611.479	0.0181349
611.558	0.0183080
611.636	0.0182572
611.714	0.0182849
611.792	0.0183638
611.870	0.0182815
611.948	0.0182523
612.026	0.0182032
612.104	0.0182485
612.183	0.0182532
612.261	0.0182619
612.339	0.0182698
612.417	0.0183131
612.495	0.0181633
612.573	0.0182600
612.651	0.0184661
612.729	0.0183229
612.808	0.0183563
612.886	0.0183881
612.964	0.0181715
613.042	0.0183150
613.120	0.0183450
613.198	0.0182162
613.276	0.0183149
613.354	0.0183218
613.433	0.0182299
613.511	0.0182275
613.589	0.0182040
613.667	0.0181724
613.745	0.0184120
613.823	0.0182735
613.901	0.0181126
613.979	0.0182356
614.058	0.0182961
614.136	0.0182872
614.214	0.0182449
614.292	0.0182739
614.370	0.0183498
614.448	0.0182718
614.526	0.0182665
614.604	0.0184195
614.683	0.0181586
614.761	0.0183089
614.839	0.0182815
614.917	0.0182617
614.995	0.0182361
615.073	0.0183314
615.151	0.0183659
615.229	0.0182322
615.308	0.0183295
615.386	0.0183466
615.464	0.0183142
615.542	0.0182407
615.620	0.0182484
615.698	0.0181960
615.776	0.0182230
615.854	0.0182461
615.933	0.0182488
616.011	0.0183696
616.089	0.0183204
616.167	0.0181833
616.245	0.0183044
616.323	0.0182170
616.401	0.0183368
616.479	0.0183125
616.558	0.0181324
616.636	0.0182741
616.714	0.0182848
616.792	0.0182525
616.870	0.0181991
616.948	0.0182458
617.026	0.0183775
617.104	0.0182774
617.183	0.0183171
617.261	0.0181926
617.339	0.0182446
617.417	0.0184100
617.495	0.0182191
617.573	0.0182442
617.651	0.0181712
617.729	0.0182301
617.808	0.0183908
617.886	0.0182525
617.964	0.0181502
618.042	0.0182298
618.120	0.0183443
618.198	0.0182237
618.276	0.0183273
618.354	0.0182620
618.433	0.0184160
618.511	0.0182277
618.589	0.0182666
618.667	0.0182090
618.745	0.0182476
618.823	0.0183898
618.901	0.0184625
618.979	0.0182780
619.058	0.0182971
619.136	0.0183810
619.214	0.0182055
619.292	0.0182926
619.370	0.0183395
619.448	0.0183706
619.526	0.0183282
619.604	0.0183481
619.683	0.0182508
619.761	0.0184371
619.839	0.0184020
619.917	0.0182193
619.995	0.0182294
620.073	0.0182031
620.151	0.0182493
620.229	0.0183656
620.308	0.0182739
620.386	0.0181745
620.464	0.0181637
620.542	0.0182893
620.620	0.0182427
620.698	0.0181465
620.776	0.0182637
620.854	0.0183295
620.933	0.0182829
621.011	0.0180986
621.089	0.0182607
621.167	0.0182907
621.245	0.0182677
621.323	0.0182761
621.401	0.0182766
621.479	0.0182469
621.558	0.0182687
621.636	0.0184524
621.714	0.0183678
621.792	0.0183441
621.870	0.0183528
621.948	0.0183317
622.026	0.0182071
622.104	0.0183276
622.183	0.0182368
622.261	0.0183301
622.339	0.0184921
622.417	0.0182503
622.495	0.0183243
622.573	0.0184815
622.651	0.0181262
622.729	0.0181242
622.808	0.0182077
622.886	0.0182705
622.964	0.0180820
623.042	0.0182047
623.120	0.0181581
623.198	0.0182153
623.276	0.0183983
623.354	0.0181503
623.433	0.0183011
623.511	0.0184162
623.589	0.0181153
623.667	0.0182677
623.745	0.0183691
623.823	0.0182171
623.901	0.0183046
623.979	0.0183652
624.058	0.0183546
624.136	0.0182318
624.214	0.0183368
624.292	0.0184406
624.370	0.0182645
624.448	0.0184254
624.526	0.0182420
624.604	0.0182307
624.683	0.0183096
624.761	0.0183055
624.839	0.0181221
624.917	0.0183508
624.995	0.0183212
625.073	0.0182463
625.151	0.0184145
625.229	0.0182065
625.308	0.0182381
625.386	0.0183416
625.464	0.0183515
625.542	0.0182875
625.620	0.0182452
625.698	0.0182154
625.776	0.0181771
625.854	0.0183135
625.933	0.0181953
626.011	0.0181177
626.089	0.0181729
626.167	0.0182003
626.245	0.0182382
626.323	0.0183638
626.401	0.0183097
626.479	0.0183772
626.558	0.0182594
626.636	0.0182576
626.714	0.0183437
626.792	0.0183971
626.870	0.0182087
626.948	0.0183167
627.026	0.0183368
627.104	0.0182802
627.183	0.0183482
627.261	0.0183216
627.339	0.0183050
627.417	0.0182231
627.495	0.0182340
627.573	0.0181977
627.651	0.0182604
627.729	0.0182590
627.808	0.0182832
627.886	0.0181416
627.964	0.0181339
628.042	0.0182058
628.120	0.0182243
628.198	0.0181854
628.276	0.0182426
628.354	0.0181765
628.433	0.0181755
628.511	0.0182491
628.589	0.0183330
628.667	0.0183414
628.745	0.0182622
628.823	0.0182466
628.901	0.0181541
628.979	0.0182899
629.058	0.0183039
629.136	0.0183755
629.214	0.0183441
629.292	0.0184069
629.370	0.0182704
629.448	0.0182089
629.526	0.0184231
629.604	0.0184164
629.683	0.0182053
629.761	0.0182454
629.839	0.0183400
629.917	0.0183939
629.995	0.0181924
630.073	0.0182318
630.151	0.0182624
630.229	0.0183218
630.308	0.0183797
630.386	0.0183742
630.464	0.0183052
630.542	0.0182671
630.620	0.0182987
630.698	0.0181976
630.776	0.0182265
630.854	0.0183071
630.933	0.0183015
631.011	0.0183365
631.089	0.0183277
631.167	0.0182852
631.245	0.0183220
631.323	0.0183588
631.401	0.0182613
631.479	0.0182248
631.558	0.0182378
631.636	0.0182566
631.714	0.0183232
631.792	0.0183113
631.870	0.0183220
631.948	0.0182858
632.026	0.0181953
632.104	0.0182681
632.183	0.0182618
632.261	0.0182468
632.339	0.0181750
632.417	0.0181986
632.495	0.0181513
632.573	0.0183459
632.651	0.0181805
632.729	0.0183057
632.808	0.0182220
632.886	0.0181439
632.964	0.0183691
633.042	0.0183238
633.120	0.0183266
633.198	0.0183476
633.276	0.0182883
633.354	0.0183667
633.433	0.0184593
633.511	0.0182611
633.589	0.0183623
633.667	0.0183287
633.745	0.0183044
633.823	0.0183028
633.901	0.0182655
633.979	0.0182371
634.058	0.0183473
634.136	0.0183807
634.214	0.0182537
634.292	0.0182862
634.370	0.0181860
634.448	0.0182931
634.526	0.0183185
634.604	0.0182770
634.683	0.0183187
634.761	0.0183794
634.839	0.0182893
634.917	0.0183044
634.995	0.0182333
635.073	0.0184010
635.151	0.0184354
635.229	0.0183244
635.308	0.0182825
635.386	0.0182484
635.464	0.0182039
635.542	0.0182199
635.620	0.0182749
635.698	0.0182578
635.776	0.0183923
635.854	0.0183907
635.933	0.0182584
636.011	0.0182124
636.089	0.0182943
636.167	0.0182545
636.245	0.0184021
636.323	0.0182281
636.401	0.0184274
636.479	0.0183177
636.558	0.0183092
636.636	0.0183732
636.714	0.0182819
636.792	0.0180838
636.870	0.0181556
636.948	0.0183330
637.026	0.0182711
637.104	0.0182493
637.183	0.0182350
637.261	0.0182035
637.339	0.0183421
637.417	0.0183036
637.495	0.0182344
637.573	0.0182639
637.651	0.0183374
637.729	0.0182475
637.808	0.0183784
637.886	0.0184433
637.964	0.0183109
638.042	0.0181554
638.120	0.0182489
638.198	0.0183871
638.276	0.0183006
638.354	0.0183712
638.433	0.0183285
638.511	0.0182719
638.589	0.0182383
638.667	0.0182165
638.745	0.0184334
638.823	0.0183378
638.901	0.0181641
638.979	0.0184270
639.058	0.0184239
639.136	0.0183302
639.214	0.0183193
639.292	0.0183106
639.370	0.0182283
639.448	0.0183272
639.526	0.0183952
639.604	0.0184247
639.683	0.0183327
639.761	0.0182980
639.839	0.0182403
639.917	0.0182918
639.995	0.0182951
640.073	0.0182528
640.151	0.0182772
640.229	0.0182974
640.308	0.0181944
640.386	0.0183237
640.464	0.0183762
640.542	0.0183979
640.620	0.0182536
640.698	0.0182567
640.776	0.0182363
640.854	0.0181806
640.933	0.0182526
641.011	0.0183463
641.089	0.0183097
641.167	0.0184207
641.245	0.0182946
641.323	0.0182854
641.401	0.0183709
641.479	0.0182583
641.558	0.0182246
641.636	0.0183191
641.714	0.0183372
641.792	0.0183553
641.870	0.0182503
641.948	0.0182893
642.026	0.0182740
642.104	0.0183208
642.183	0.0182811
642.261	0.0181831
642.339	0.0183496
642.417	0.0182169
642.495	0.0183403
642.573	0.0183767
642.651	0.0183033
642.729	0.0182584
642.808	0.0181903
642.886	0.0183366
642.964	0.0184130
643.042	0.0181273
643.120	0.0182362
643.198	0.0182946
643.276	0.0183251
643.354	0.0184467
643.433	0.0183192
643.511	0.0182660
643.589	0.0182815
643.667	0.0183121
643.745	0.0183599
643.823	0.0182777
643.901	0.0182334
643.979	0.0182846
644.058	0.0182722
644.136	0.0182333
644.214	0.0182486
644.292	0.0183287
644.370	0.0183479
644.448	0.0184021
644.526	0.0183756
644.604	0.0182164
644.683	0.0182713
644.761	0.0183606
644.839	0.0183926
644.917	0.0183539
644.995	0.0182923
645.073	0.0182091
645.151	0.0183508
645.229	0.0182182
645.308	0.0182014
645.386	0.0182628
645.464	0.0183132
645.542	0.0185087
645.620	0.0183653
645.698	0.0183002
645.776	0.0183336
645.854	0.0182822
645.933	0.0183943
646.011	0.0183220
646.089	0.0181653
646.167	0.0180872
646.245	0.0182324
646.323	0.0181693
646.401	0.0182399
646.479	0.0181759
646.558	0.0183530
646.636	0.0182796
646.714	0.0182956
646.792	0.0184554
646.870	0.0182627
646.948	0.0183059
647.026	0.0182718
647.104	0.0183152
647.183	0.0184120
647.261	0.0184156
647.339	0.0181711
647.417	0.0183342
647.495	0.0184016
647.573	0.0182002
647.651	0.0182362
647.729	0.0182830
647.808	0.0183129
647.886	0.0182629
647.964	0.0182510
648.042	0.0181519
648.120	0.0183250
648.198	0.0183230
648.276	0.0183259
648.354	0.0182195
648.433	0.0182658
648.511	0.0182381
648.589	0.0182631
648.667	0.0183309
648.745	0.0184000
648.823	0.0181234
648.901	0.0182917
648.979	0.0182442
649.058	0.0183214
649.136	0.0183788
649.214	0.0183041
649.292	0.0182936
649.370	0.0183376
649.448	0.0183683
649.526	0.0183656
649.604	0.0183787
649.683	0.0182783
649.761	0.0182337
649.839	0.0183404
649.917	0.0183334
649.995	0.0183273
650.073	0.0182803
650.151	0.0182053
650.229	0.0183602
650.308	0.0182136
650.386	0.0181620
650.464	0.0183707
650.542	0.0181847
650.620	0.0182699
650.698	0.0183887
650.776	0.0183620
650.854	0.0181918
650.933	0.0181512
651.011	0.0183428
651.089	0.0184529
651.167	0.0183897
651.245	0.0183156
651.323	0.0183229
651.401	0.0182733
651.479	0.0182370
651.558	0.0182844
651.636	0.0183388
651.714	0.0182467
651.792	0.0181969
651.870	0.0182377
651.948	0.0182763
652.026	0.0182762
652.104	0.0183624
652.183	0.0182391
652.261	0.0183106
652.339	0.0182768
652.417	0.0182111
652.495	0.0183070
652.573	0.0183232
652.651	0.0183266
652.729	0.0183650
652.808	0.0182282
652.886	0.0182792
652.964	0.0182324
653.042	0.0183013
653.120	0.0183963
653.198	0.0182719
653.276	0.0182395
653.354	0.0183537
653.433	0.0183005
653.511	0.0182987
653.589	0.0183926
653.667	0.0183201
653.745	0.0182229
653.823	0.0183980
653.901	0.0182912
653.979	0.0181960
654.058	0.0183047
654.136	0.0183257
654.214	0.0184753
654.292	0.0183620
654.370	0.0181316
654.448	0.0183243
654.526	0.0183489
654.604	0.0182692
654.683	0.0182498
654.761	0.0182368
654.839	0.0183122
654.917	0.0182692
654.995	0.0182241
655.073	0.0183187
655.151	0.0182278
655.229	0.0182901
655.308	0.0183656
655.386	0.0183813
655.464	0.0183045
655.542	0.0182668
655.620	0.0182620
655.698	0.0183141
655.776	0.0182638
655.854	0.0183305
655.933	0.0182669
656.011	0.0182733
656.089	0.0183187
656.167	0.0184064
656.245	0.0184489
656.323	0.0180856
656.401	0.0181665
656.479	0.0183010
656.558	0.0183113
656.636	0.0181097
656.714	0.0182563
656.792	0.0182754
656.870	0.0182535
656.948	0.0183945
657.026	0.0181569
657.104	0.0182517
657.183	0.0182298
657.261	0.0182647
657.339	0.0183211
657.417	0.0183816
657.495	0.0182002
657.573	0.0183069
657.651	0.0182160
657.729	0.0183841
657.808	0.0184155
657.886	0.0182563
657.964	0.0181843
658.042	0.0184113
658.120	0.0181925
658.198	0.0182997
658.276	0.0182155
658.354	0.0182883
658.433	0.0182813
658.511	0.0183356
658.589	0.0181123
658.667	0.0181939
658.745	0.0184019
658.823	0.0183154
658.901	0.0183099
658.979	0.0183640
659.058	0.0182655
659.136	0.0182652
659.214	0.0182850
659.292	0.0182499
659.370	0.0182496
659.448	0.0181317
659.526	0.0182923
659.604	0.0181425
659.683	0.0183082
659.761	0.0183322
659.839	0.0182467
659.917	0.0181947
659.995	0.0183306
660.073	0.0183628
660.151	0.0183043
660.229	0.0183015
660.308	0.0183361
660.386	0.0183123
660.464	0.0183330
660.542	0.0182108
660.620	0.0183585
660.698	0.0183243
660.776	0.0183659
660.854	0.0183130
660.933	0.0184016
661.011	0.0183611
661.089	0.0183124
661.167	0.0182893
661.245	0.0183715
661.323	0.0184128
661.401	0.0181734
661.479	0.0182479
661.558	0.0183042
661.636	0.0183720
661.714	0.0183278
661.792	0.0183191
661.870	0.0183363
661.948	0.0183132
662.026	0.0183003
662.104	0.0183181
662.183	0.0182632
662.261	0.0183492
662.339	0.0182557
662.417	0.0183129
662.495	0.0182835
662.573	0.0183610
662.651	0.0181940
662.729	0.0182038
662.808	0.0183488
662.886	0.0183514
662.964	0.0183964
663.042	0.0181884
663.120	0.0182510
663.198	0.0184385
663.276	0.0183315
663.354	0.0181982
663.433	0.0182432
663.511	0.0182410
663.589	0.0183999
663.667	0.0181863
663.745	0.0183231
663.823	0.0182821
663.901	0.0182903
663.979	0.0182674
664.058	0.0183578
664.136	0.0182514
664.214	0.0183766
664.292	0.0182342
664.370	0.0181638
664.448	0.0182714
664.526	0.0182516
664.604	0.0183167
664.683	0.0182417
664.761	0.0183552
664.839	0.0181864
664.917	0.0182323
664.995	0.0182558
665.073	0.0183149
665.151	0.0184220
665.229	0.0182476
665.308	0.0182005
665.386	0.0183266
665.464	0.0184164
665.542	0.0182452
665.620	0.0182446
665.698	0.0183305
665.776	0.0183303
665.854	0.0183327
665.933	0.0183153
666.011	0.0182465
666.089	0.0183056
666.167	0.0182362
666.245	0.0182692
666.323	0.0184519
666.401	0.0184010
666.479	0.0182706
666.558	0.0182697
666.636	0.0184488
666.714	0.0184030
666.792	0.0183277
666.870	0.0183475
666.948	0.0183521
667.026	0.0182819
667.104	0.0182714
667.183	0.0183253
667.261	0.0182272
667.339	0.0183472
667.417	0.0184244
667.495	0.0182696
667.573	0.0184030
667.651	0.0182098
667.729	0.0184210
667.808	0.0183714
667.886	0.0182018
667.964	0.0182722
668.042	0.0182660
668.120	0.0182716
668.198	0.0183128
668.276	0.0184479
668.354	0.0182777
668.433	0.0183701
668.511	0.0183086
668.589	0.0182799
668.667	0.0183908
668.745	0.0182246
668.823	0.0181743
668.901	0.0181528
668.979	0.0182577
669.058	0.0183409
669.136	0.0182688
669.214	0.0182207
669.292	0.0183177
669.370	0.0183395
669.448	0.0182909
669.526	0.0182136
669.604	0.0184422
669.683	0.0183714
669.761	0.0183320
669.839	0.0183180
669.917	0.0183720
669.995	0.0182104
670.073	0.0182401
670.151	0.0183175
670.229	0.0183253
670.308	0.0183092
670.386	0.0182003
670.464	0.0182754
670.542	0.0182745
670.620	0.0182563
670.698	0.0182631
670.776	0.0184282
670.854	0.0183471
670.933	0.0183172
671.011	0.0182973
671.089	0.0182410
671.167	0.0182593
671.245	0.0183620
671.323	0.0181245
671.401	0.0182457
671.479	0.0184680
671.558	0.0183214
671.636	0.0182217
671.714	0.0182787
671.792	0.0182236
671.870	0.0182309
671.948	0.0181783
672.026	0.0183951
672.104	0.0182120
672.183	0.0182104
672.261	0.0182297
672.339	0.0182816
672.417	0.0183204
672.495	0.0181784
672.573	0.0183212
672.651	0.0183391
672.729	0.0183142
672.808	0.0183892
672.886	0.0182973
672.964	0.0182251
673.042	0.0182647
673.120	0.0183572
673.198	0.0182460
673.276	0.0182665
673.354	0.0183093
673.433	0.0183641
673.511	0.0183273
673.589	0.0181274
673.667	0.0182593
673.745	0.0182737
673.823	0.0183887
673.901	0.0183307
673.979	0.0182757
674.058	0.0183117
674.136	0.0182612
674.214	0.0183298
674.292	0.0183273
674.370	0.0184622
674.448	0.0182281
674.526	0.0183904
674.604	0.0182960
674.683	0.0183628
674.761	0.0183277
674.839	0.0180740
674.917	0.0182643
674.995	0.0182021
675.073	0.0182935
675.151	0.0183127
675.229	0.0183247
675.308	0.0182494
675.386	0.0183307
675.464	0.0182713
675.542	0.0183237
675.620	0.0181725
675.698	0.0182234
675.776	0.0182364
675.854	0.0183711
675.933	0.0184325
676.011	0.0183804
676.089	0.0182542
676.167	0.0181826
676.245	0.0182492
676.323	0.0181891
676.401	0.0184164
676.479	0.0182400
676.558	0.0181761
676.636	0.0182542
676.714	0.0183441
676.792	0.0182748
676.870	0.0183271
676.948	0.0182364
677.026	0.0182820
677.104	0.0184092
677.183	0.0183181
677.261	0.0183082
677.339	0.0182140
677.417	0.0182056
677.495	0.0183426
677.573	0.0182888
677.651	0.0183907
677.729	0.0182608
677.808	0.0182189
677.886	0.0184088
677.964	0.0183206
678.042	0.0182141
678.120	0.0183053
678.198	0.0182257
678.276	0.0182041
678.354	0.0182990
678.433	0.0182560
678.511	0.0182581
678.589	0.0181683
678.667	0.0183025
678.745	0.0181851
678.823	0.0183591
678.901	0.0182663
678.979	0.0183319
679.058	0.0181548
679.136	0.0182599
679.214	0.0183871
679.292	0.0182662
679.370	0.0183772
679.448	0.0183112
679.526	0.0182407
679.604	0.0182730
679.683	0.0182930
679.761	0.0183333
679.839	0.0182355
679.917	0.0183653
679.995	0.0183842
680.073	0.0182111
680.151	0.0183373
680.229	0.0183184
680.308	0.0182739
680.386	0.0183452
680.464	0.0182301
680.542	0.0182248
680.620	0.0183737
680.698	0.0183892
680.776	0.0182892
680.854	0.0184243
680.933	0.0184129
681.011	0.0183157
681.089	0.0183134
681.167	0.0182193
681.245	0.0182986
681.323	0.0184321
681.401	0.0181471
681.479	0.0182812
681.558	0.0183116
681.636	0.0183427
681.714	0.0181977
681.792	0.0183339
681.870	0.0184119
681.948	0.0183064
682.026	0.0181839
682.104	0.0182141
682.183	0.0183175
682.261	0.0184491
682.339	0.0182997
682.417	0.0183527
682.495	0.0185017
682.573	0.0182832
682.651	0.0184269
682.729	0.0183486
682.808	0.0184319
682.886	0.0185291
682.964	0.0182227
683.042	0.0183701
683.120	0.0184077
683.198	0.0183276
683.276	0.0182842
683.354	0.0183935
683.433	0.0183112
683.511	0.0183662
683.589	0.0183443
683.667	0.0184190
683.745	0.0183624
683.823	0.0183865
683.901	0.0184020
683.979	0.0183290
684.058	0.0183609
684.136	0.0183766
684.214	0.0184113
684.292	0.0182887
684.370	0.0181882
684.448	0.0183322
684.526	0.0184766
684.604	0.0183744
684.683	0.0184138
684.761	0.0184077
684.839	0.0183758
684.917	0.0184269
684.995	0.0184460
685.073	0.0182758
685.151	0.0183240
685.229	0.0184904
685.308	0.0183504
685.386	0.0183410
685.464	0.0185313
685.542	0.0182950
685.620	0.0183414
685.698	0.0183691
685.776	0.0182259
685.854	0.0183352
685.933	0.0184236
686.011	0.0183055
686.089	0.0183788
686.167	0.0184409
686.245	0.0184258
686.323	0.0181720
686.401	0.0183301
686.479	0.0184295
686.558	0.0184051
686.636	0.0183250
686.714	0.0182838
686.792	0.0183698
686.870	0.0182532
686.948	0.0182616
687.026	0.0183424
687.104	0.0183451
687.183	0.0182616
687.261	0.0182432
687.339	0.0183242
687.417	0.0182847
687.495	0.0183035
687.573	0.0183033
687.651	0.0183268
687.729	0.0182491
687.808	0.0181990
687.886	0.0182972
687.964	0.0181096
688.042	0.0182370
688.120	0.0183145
688.198	0.0183172
688.276	0.0182949
688.354	0.0181408
688.433	0.0182144
688.511	0.0183544
688.589	0.0183516
688.667	0.0182211
688.745	0.0182622
688.823	0.0181714
688.901	0.0182355
688.979	0.0183091
689.058	0.0184016
689.136	0.0181644
689.214	0.0183919
689.292	0.0184125
689.370	0.0183093
689.448	0.0182845
689.526	0.0183537
689.604	0.0183873
689.683	0.0183270
689.761	0.0181892
689.839	0.0182764
689.917	0.0182725
689.995	0.0182156
690.073	0.0182999
690.151	0.0182488
690.229	0.0181719
690.308	0.0182961
690.386	0.0183332
690.464	0.0182030
690.542	0.0181548
690.620	0.0183052
690.698	0.0183312
690.776	0.0182328
690.854	0.0182809
690.933	0.0182721
691.011	0.0182165
691.089	0.0182003
691.167	0.0182426
691.245	0.0181242
691.323	0.0183096
691.401	0.0182592
691.479	0.0182547
691.558	0.0182903
691.636	0.0183159
691.714	0.0182915
691.792	0.0182572
691.870	0.0181578
691.948	0.0182808
692.026	0.0182789
692.104	0.0181142
692.183	0.0183348
692.261	0.0182664
692.339	0.0182700
692.417	0.0182960
692.495	0.0181018
692.573	0.0181828
692.651	0.0182327
692.729	0.0182034
692.808	0.0182694
692.886	0.0183795
692.964	0.0181985
693.042	0.0183292
693.120	0.0184359
693.198	0.0182331
693.276	0.0182549
693.354	0.0182170
693.433	0.0181686
693.511	0.0182801
693.589	0.0182726
693.667	0.0182196
693.745	0.0181600
693.823	0.0181898
693.901	0.0182372
693.979	0.0183241
694.058	0.0182971
694.136	0.0181853
694.214	0.0180936
694.292	0.0183382
694.370	0.0182477
694.448	0.0182957
694.526	0.0183258
694.604	0.0184072
694.683	0.0181942
694.761	0.0183207
694.839	0.0182169
694.917	0.0182962
694.995	0.0181838
695.073	0.0181012
695.151	0.0182333
695.229	0.0181416
695.308	0.0181308
695.386	0.0181780
695.464	0.0182462
695.542	0.0183869
695.620	0.0182054
695.698	0.0184592
695.776	0.0185178
695.854	0.0184544
695.933	0.0186507
696.011	0.0185587
696.089	0.0187150
696.167	0.0187857
696.245	0.0188350
696.323	0.0186855
696.401	0.0186349
696.479	0.0186181
696.558	0.0186887
696.636	0.0184411
696.714	0.0182233
696.792	0.0182482
696.870	0.0180103
696.948	0.0177872
697.026	0.0177407
697.104	0.0176630
697.183	0.0173195
697.261	0.0171259
697.339	0.0171020
697.417	0.0170946
697.495	0.0170770
697.573	0.0172504
697.651	0.0174651
697.729	0.0176627
697.808	0.0177800
697.886	0.0181710
697.964	0.0185815
698.042	0.0189889
698.120	0.0194434
698.198	0.0199582
698.276	0.0204241
698.354	0.0206687
698.433	0.0209988
698.511	0.0212402
698.589	0.0212012
698.667	0.0213155
698.745	0.0210231
698.823	0.0205642
698.901	0.0200639
698.979	0.0195062
699.058	0.0188255
699.136	0.0181377
699.214	0.0172703
699.292	0.0165558
699.370	0.0160321
699.448	0.0151308
699.526	0.0146014
699.604	0.0141504
699.683	0.0137537
699.761	0.0136543
699.839	0.0136294
699.917	0.0136982
699.995	0.0139175
700.073	0.0144031
700.151	0.0148880
700.229	0.0154906
700.308	0.0163709
700.386	0.0174701
700.464	0.0184042
700.542	0.0196722
700.620	0.0208260
700.698	0.0220876
700.776	0.0232748
700.854	0.0243581
700.933	0.0250343
701.011	0.0255569
701.089	0.0256920
701.167	0.0257484
701.245	0.0253548
701.323	0.0246767
701.401	0.0237798
701.479	0.0225847
701.558	0.0211303
701.636	0.0196614
701.714	0.0181708
701.792	0.0167914
701.870	0.0153412
701.948	0.0141872
702.026	0.0131586
702.104	0.0122719
702.183	0.0116129
702.261	0.0111657
702.339	0.0108891
702.417	0.0108932
702.495	0.0109888
702.573	0.0112254
702.651	0.0118460
702.729	0.0124969
702.808	0.0131796
702.886	0.0144097
702.964	0.0154082
703.042	0.0167622
703.120	0.0181801
703.198	0.0196934
703.276	0.0211647
703.354	0.0225253
703.433	0.0236437
703.511	0.0247340
703.589	0.0256066
703.667	0.0260866
703.745	0.0264877
703.823	0.0264213
703.901	0.0261522
703.979	0.0255338
704.058	0.0245184
704.136	0.0233971
704.214	0.0223036
704.292	0.0208448
704.370	0.0193416
704.448	0.0176794
704.526	0.0162430
704.604	0.0148107
704.683	0.0134874
704.761	0.0123962
704.839	0.0114124
704.917	0.0107543
704.995	0.0103599
705.073	0.0103160
705.151	0.0104121
705.229	0.0110801
705.308	0.0120113
705.386	0.0131807
705.464	0.0146154
705.542	0.0164820
705.620	0.0182752
705.698	0.0198571
705.776	0.0216146
705.854	0.0232565
705.933	0.0247205
706.011	0.0256879
706.089	0.0263658
706.167	0.0265778
706.245	0.0264043
706.323	0.0260670
706.401	0.0251308
706.479	0.0242173
706.558	0.0227508
706.636	0.0213595
706.714	0.0199393
706.792	0.0183468
706.870	0.0170683
706.948	0.0156234
707.026	0.0145013
707.104	0.0134340
707.183	0.0122630
707.261	0.0115748
707.339	0.0109692
707.417	0.0106190
707.495	0.0104211
707.573	0.0105057
707.651	0.0109949
707.729	0.0115878
707.808	0.0125415
707.886	0.0138083
707.964	0.0153676
708.042	0.0169808
708.120	0.0187112
708.198	0.0203880
708.276	0.0220461
708.354	0.0234717
708.433	0.0244724
708.511	0.0253307
708.589	0.0259121
708.667	0.0259635
708.745	0.0258149
708.823	0.0252786
708.901	0.0244833
708.979	0.0235074
709.058	0.0223295
709.136	0.0212196
709.214	0.0201672
709.292	0.0190160
709.370	0.0179599
709.448	0.0170552
709.526	0.0165288
709.604	0.0160392
709.683	0.0155159
709.761	0.0152239
709.839	0.0149252
709.917	0.0150920
709.995	0.0151178
710.073	0.0153544
710.151	0.0155714
710.229	0.0158820
710.308	0.0163170
710.386	0.0167968
710.464	0.0171368
710.542	0.0176212
710.620	0.0182681
710.698	0.0186401
710.776	0.0189127
710.854	0.0190971
710.933	0.0194383
711.011	0.0196790
711.089	0.0195766
711.167	0.0195413
711.245	0.0196094
711.323	0.0193818
711.401	0.0190228
711.479	0.0185846
711.558	0.0181253
711.636	0.0177952
711.714	0.0175754
711.792	0.0171081
711.870	0.0166170
711.948	0.0165346
712.026	0.0165965
712.104	0.0165463
712.183	0.0165890
712.261	0.0167729
712.339	0.0172347
712.417	0.0174789
712.495	0.0181959
712.573	0.0186349
712.651	0.0191556
712.729	0.0197111
712.808	0.0200757
712.886	0.0203532
712.964	0.0205220
713.042	0.0204900
713.120	0.0205196
713.198	0.0204044
713.276	0.0202826
713.354	0.0199886
713.433	0.0196999
713.511	0.0194645
713.589	0.0191897
713.667	0.0186463
713.745	0.0183965
713.823	0.0179052
713.901	0.0175926
713.979	0.0172395
714.058	0.0168739
714.136	0.0166523
714.214	0.0164783
714.292	0.0161737
714.370	0.0160943
714.448	0.0160039
714.526	0.0161875
714.604	0.0162334
714.683	0.0163913
714.761	0.0167465
714.839	0.0171754
714.917	0.0175458
714.995	0.0178011
715.073	0.0182798
715.151	0.0187200
715.229	0.0191209
715.308	0.0192979
715.386	0.0195358
715.464	0.0197501
715.542	0.0200518
715.620	0.0202023
715.698	0.0203811
715.776	0.0200555
715.854	0.0200597
715.933	0.0199561
716.011	0.0196165
716.089	0.0194683
716.167	0.0191529
716.245	0.0187380
716.323	0.0182285
716.401	0.0179261
716.479	0.0176763
716.558	0.0174968
716.636	0.0171753
716.714	0.0171662
716.792	0.0171937
716.870	0.0169183
716.948	0.0168402
717.026	0.0170811
717.104	0.0173051
717.183	0.0174427
717.261	0.0176703
717.339	0.0179778
717.417	0.0181605
717.495	0.0183989
717.573	0.0187087
717.651	0.0188667
717.729	0.0188734
717.808	0.0190345
717.886	0.0190004
717.964	0.0188767
718.042	0.0187033
718.120	0.0185809
718.198	0.0184888
718.276	0.0182232
718.354	0.0180862
718.433	0.0177747
718.511	0.0177215
718.589	0.0174678
718.667	0.0174899
718.745	0.0173996
718.823	0.0172688
718.901	0.0173434
718.979	0.0174062
719.058	0.0174204
719.136	0.0176350
719.214	0.0178101
719.292	0.0179852
719.370	0.0182926
719.448	0.0185560
719.526	0.0187284
719.604	0.0191008
719.683	0.0191314
719.761	0.0194418
719.839	0.0195401
719.917	0.0194952
719.995	0.0196299
720.073	0.0195855
720.151	0.0197358
720.229	0.0196354
720.308	0.0193508
720.386	0.0192795
720.464	0.0186806
720.542	0.0186026
720.620	0.0183988
720.698	0.0180032
720.776	0.0176564
720.854	0.0176113
720.933	0.0174909
721.011	0.0172049
721.089	0.0170757
721.167	0.0170225
721.245	0.0171370
721.323	0.0171287
721.401	0.0171748
721.479	0.0175935
721.558	0.0176579
721.636	0.0179672
721.714	0.0182712
721.792	0.0184180
721.870	0.0188842
721.948	0.0190070
722.026	0.0191824
722.104	0.0195290
722.183	0.0195477
722.261	0.0193693
722.339	0.0195745
722.417	0.0194032
722.495	0.0192942
722.573	0.0190924
722.651	0.0189705
722.729	0.0185684
722.808	0.0183573
722.886	0.0182246
722.964	0.0179031
723.042	0.0176228
723.120	0.0174480
723.198	0.0172446
723.276	0.0172540
723.354	0.0171107
723.433	0.0171207
723.511	0.0170975
723.589	0.0172218
723.667	0.0173785
723.745	0.0174877
723.823	0.0175354
723.901	0.0177128
723.979	0.0178661
724.058	0.0181683
724.136	0.0182469
724.214	0.0184975
724.292	0.0184914
724.370	0.0187360
724.448	0.0190163
724.526	0.0189332
724.604	0.0187871
724.683	0.0191033
724.761	0.0190398
724.839	0.0191483
724.917	0.0190285
724.995	0.0188648
725.073	0.0189244
725.151	0.0188201
725.229	0.0184390
725.308	0.0184312
725.386	0.0182577
725.464	0.0179383
725.542	0.0177964
725.620	0.0176855
725.698	0.0175272
725.776	0.0174567
725.854	0.0175381
725.933	0.0175356
726.011	0.0175416
726.089	0.0178451
726.167	0.0178399
726.245	0.0181114
726.323	0.0182186
726.401	0.0183073
726.479	0.0184697
726.558	0.0185793
726.636	0.0188007
726.714	0.0188348
726.792	0.0188686
726.870	0.0190128
726.948	0.0189243
727.026	0.0188170
727.104	0.0188837
727.183	0.0187546
727.261	0.0186660
727.339	0.0187135
727.417	0.0186428
727.495	0.0184271
727.573	0.0184153
727.651	0.0184160
727.729	0.0183736
727.808	0.0182944
727.886	0.0181889
727.964	0.0182024
728.042	0.0180389
728.120	0.0179035
728.198	0.0177959
728.276	0.0176888
728.354	0.0177374
728.433	0.0177888
728.511	0.0176929
728.589	0.0176064
728.667	0.0175439
728.745	0.0177526
728.823	0.0176468
728.901	0.0177020
728.979	0.0178388
729.058	0.0180260
729.136	0.0179235
729.214	0.0181517
729.292	0.0181805
729.370	0.0183221
729.448	0.0185355
729.526	0.0184213
729.604	0.0186057
729.683	0.0187815
729.761	0.0188924
729.839	0.0189101
729.917	0.0188811
729.995	0.0188471
730.073	0.0187492
730.151	0.0186713
730.229	0.0186914
730.308	0.0186467
730.386	0.0185300
730.464	0.0183130
730.542	0.0182574
730.620	0.0182287
730.698	0.0182484
730.776	0.0179025
730.854	0.0179271
730.933	0.0178763
731.011	0.0177380
731.089	0.0177469
731.167	0.0178100
731.245	0.0177396
731.323	0.0177669
731.401	0.0177178
731.479	0.0177174
731.558	0.0178359
731.636	0.0179964
731.714	0.0181185
731.792	0.0181324
731.870	0.0181641
731.948	0.0183563
732.026	0.0182449
732.104	0.0183040
732.183	0.0184637
732.261	0.0184516
732.339	0.0184689
732.417	0.0184998
732.495	0.0185018
732.573	0.0186824
732.651	0.0187040
732.729	0.0187698
732.808	0.0188343
732.886	0.0188007
732.964	0.0187969
733.042	0.0187470
733.120	0.0187921
733.198	0.0185188
733.276	0.0186931
733.354	0.0187026
733.433	0.0185625
733.511	0.0184701
733.589	0.0184022
733.667	0.0182929
733.745	0.0181759
733.823	0.0182254
733.901	0.0180455
733.979	0.0181222
734.058	0.0179558
734.136	0.0179075
734.214	0.0177280
734.292	0.0176762
734.370	0.0179513
734.448	0.0178985
734.526	0.0177935
734.604	0.0178136
734.683	0.0179696
734.761	0.0179263
734.839	0.0180498
734.917	0.0181825
734.995	0.0182056
735.073	0.0182502
735.151	0.0184560
735.229	0.0185497
735.308	0.0185277
735.386	0.0186788
735.464	0.0188403
735.542	0.0189358
735.620	0.0188334
735.698	0.0189400
735.776	0.0189439
735.854	0.0187024
735.933	0.0186578
736.011	0.0186753
736.089	0.0185491
736.167	0.0184177
736.245	0.0182938
736.323	0.0180895
736.401	0.0179935
736.479	0.0178799
736.558	0.0178537
736.636	0.0178014
736.714	0.0177751
736.792	0.0178596
736.870	0.0179280
736.948	0.0179742
737.026	0.0178857
737.104	0.0181077
737.183	0.0182904
737.261	0.0183490
737.339	0.0184402
737.417	0.0183844
737.495	0.0183923
737.573	0.0183467
737.651	0.0185226
737.729	0.0184901
737.808	0.0184092
737.886	0.0185932
737.964	0.0183766
738.042	0.0184445
738.120	0.0183811
738.198	0.0183511
738.276	0.0182684
738.354	0.0182263
738.433	0.0183273
738.511	0.0183336
738.589	0.0182864
738.667	0.0182973
738.745	0.0184473
738.823	0.0182214
738.901	0.0181770
738.979	0.0182822
739.058	0.0184511
739.136	0.0183516
739.214	0.0181684
739.292	0.0181941
739.370	0.0180859
739.448	0.0180476
739.526	0.0178714
739.604	0.0179480
739.683	0.0179976
739.761	0.0180159
739.839	0.0179794
739.917	0.0178655
739.995	0.0179370
740.073	0.0180838
740.151	0.0180395
740.229	0.0181457
740.308	0.0183298
740.386	0.0184386
740.464	0.0186037
740.542	0.0185936
740.620	0.0188074
740.698	0.0188071
740.776	0.0189104
740.854	0.0189849
740.933	0.0190065
741.011	0.0190311
741.089	0.0189220
741.167	0.0189268
741.245	0.0189520
741.323	0.0188315
741.401	0.0186548
741.479	0.0187240
741.558	0.0185490
741.636	0.0185049
741.714	0.0184491
741.792	0.0184615
741.870	0.0183842
741.948	0.0180993
742.026	0.0179211
742.104	0.0180237
742.183	0.0180209
742.261	0.0178696
742.339	0.0178886
742.417	0.0177907
742.495	0.0179385
742.573	0.0179949
742.651	0.0178761
742.729	0.0180663
742.808	0.0180233
742.886	0.0178713
742.964	0.0179208
743.042	0.0180350
743.120	0.0180098
743.198	0.0181057
743.276	0.0181316
743.354	0.0180164
743.433	0.0180087
743.511	0.0182734
743.589	0.0181284
743.667	0.0181767
743.745	0.0182113
743.823	0.0182011
743.901	0.0181450
743.979	0.0182089
744.058	0.0181710
744.136	0.0183270
744.214	0.0182046
744.292	0.0182430
744.370	0.0180777
744.448	0.0182579
744.526	0.0181203
744.604	0.0182022
744.683	0.0180811
744.761	0.0182079
744.839	0.0184434
744.917	0.0183212
744.995	0.0183930
745.073	0.0182800
745.151	0.0184745
745.229	0.0185381
745.308	0.0186565
745.386	0.0186636
745.464	0.0186592
745.542	0.0185941
745.620	0.0184972
745.698	0.0186266
745.776	0.0187444
745.854	0.0185357
745.933	0.0186579
746.011	0.0187808
746.089	0.0186181
746.167	0.0185729
746.245	0.0184582
746.323	0.0185445
746.401	0.0187347
746.479	0.0185999
746.558	0.0184583
746.636	0.0183894
746.714	0.0182742
746.792	0.0182762
746.870	0.0183026
746.948	0.0181680
747.026	0.0180281
747.104	0.0180029
747.183	0.0179059
747.261	0.0179120
747.339	0.0180307
747.417	0.0180595
747.495	0.0179142
747.573	0.0179411
747.651	0.0179305
747.729	0.0180643
747.808	0.0181442
747.886	0.0182287
747.964	0.0182945
748.042	0.0183279
748.120	0.0185603
748.198	0.0184825
748.276	0.0185223
748.354	0.0185967
748.433	0.0187215
748.511	0.0187266
748.589	0.0186800
748.667	0.0185966
748.745	0.0185039
748.823	0.0186209
748.901	0.0185861
748.979	0.0185051
749.058	0.0184563
749.136	0.0184608
749.214	0.0183836
749.292	0.0183904
749.370	0.0184528
749.448	0.0182543
749.526	0.0182065
749.604	0.0182784
749.683	0.0183150
749.761	0.0181578
749.839	0.0180594
749.917	0.0180155
749.995	0.0179638
750.073	0.0179140
750.151	0.0178536
750.229	0.0180032
750.308	0.0179610
750.386	0.0179522
750.464	0.0179961
750.542	0.0181022
750.620	0.0180521
750.698	0.0181236
750.776	0.0180247
750.854	0.0180448
750.933	0.0181590
751.011	0.0180516
751.089	0.0180428
751.167	0.0179563
751.245	0.0179716
751.323	0.0180862
751.401	0.0180360
751.479	0.0180074
751.558	0.0180467
751.636	0.0180316
751.714	0.0180339
751.792	0.0180766
751.870	0.0181412
751.948	0.0181602
752.026	0.0183043
752.104	0.0184446
752.183	0.0183843
752.261	0.0185988
752.339	0.0186064
752.417	0.0186597
752.495	0.0187923
752.573	0.0186736
752.651	0.0187807
752.729	0.0186959
752.808	0.0188312
752.886	0.0189024
752.964	0.0187939
753.042	0.0188866
753.120	0.0187463
753.198	0.0186369
753.276	0.0186438
753.354	0.0185785
753.433	0.0184890
753.511	0.0184895
753.589	0.0182166
753.667	0.0184399
753.745	0.0183810
753.823	0.0181459
753.901	0.0181161
753.979	0.0181580
754.058	0.0179932
754.136	0.0180956
754.214	0.0179617
754.292	0.0179881
754.370	0.0181746
754.448	0.0180113
754.526	0.0179752
754.604	0.0181059
754.683	0.0179121
754.761	0.0179193
754.839	0.0180722
754.917	0.0181354
754.995	0.0180896
755.073	0.0180634
755.151	0.0180690
755.229	0.0179942
755.308	0.0180364
755.386	0.0181271
755.464	0.0182941
755.542	0.0182520
755.620	0.0180233
755.698	0.0181850
755.776	0.0185264
755.854	0.0182132
755.933	0.0182622
756.011	0.0184011
756.089	0.0183292
756.167	0.0182858
756.245	0.0183474
756.323	0.0182570
756.401	0.0181821
756.479	0.0184018
756.558	0.0182507
756.636	0.0182776
756.714	0.0182643
756.792	0.0181997
756.870	0.0182174
756.948	0.0182165
757.026	0.0182319
757.104	0.0182220
757.183	0.0182209
757.261	0.0184706
757.339	0.0183129
757.417	0.0183646
757.495	0.0184871
757.573	0.0184981
757.651	0.0184242
757.729	0.0185332
757.808	0.0184532
757.886	0.0184863
757.964	0.0185395
758.042	0.0184869
758.120	0.0183449
758.198	0.0185364
758.276	0.0184126
758.354	0.0184322
758.433	0.0183247
758.511	0.0183332
758.589	0.0181159
758.667	0.0180994
758.745	0.0182773
758.823	0.0182748
758.901	0.0181337
758.979	0.0179963
759.058	0.0181376
759.136	0.0180595
759.214	0.0179843
759.292	0.0180505
759.370	0.0180622
759.448	0.0181761
759.526	0.0181424
759.604	0.0182143
759.683	0.0182448
759.761	0.0182140
759.839	0.0182227
759.917	0.0182728
759.995	0.0184318
760.073	0.0184505
760.151	0.0184303
760.229	0.0185564
760.308	0.0185537
760.386	0.0186809
760.464	0.0185988
760.542	0.0186085
760.620	0.0185341
760.698	0.0184519
760.776	0.0184325
760.854	0.0184886
760.933	0.0183762
761.011	0.0182764
761.089	0.0182144
761.167	0.0183624
761.245	0.0184093
761.323	0.0183611
761.401	0.0182345
761.479	0.0181019
761.558	0.0181753
761.636	0.0182191
761.714	0.0182412
761.792	0.0182148
761.870	0.0183066
761.948	0.0182268
762.026	0.0182893
762.104	0.0184064
762.183	0.0186137
762.261	0.0184901
762.339	0.0185050
762.417	0.0185004
762.495	0.0184904
762.573	0.0185545
762.651	0.0185905
762.729	0.0183801
762.808	0.0181950
762.886	0.0184764
762.964	0.0183698
763.042	0.0182207
763.120	0.0181879
763.198	0.0181172
763.276	0.0180937
763.354	0.0179776
763.433	0.0178535
763.511	0.0179398
763.589	0.0179396
763.667	0.0179414
763.745	0.0178105
763.823	0.0179890
763.901	0.0179424
763.979	0.0179485
764.058	0.0180601
764.136	0.0180766
764.214	0.0181722
764.292	0.0182089
764.370	0.0182552
764.448	0.0183313
764.526	0.0184188
764.604	0.0184953
764.683	0.0184769
764.761	0.0184857
764.839	0.0185032
764.917	0.0187731
764.995	0.0185857
765.073	0.0186549
765.151	0.0186660
765.229	0.0187028
765.308	0.0185928
765.386	0.0187035
765.464	0.0185238
765.542	0.0185592
765.620	0.0184667
765.698	0.0186143
765.776	0.0184832
765.854	0.0184366
765.933	0.0183114
766.011	0.0181358
766.089	0.0181043
766.167	0.0180270
766.245	0.0181306
766.323	0.0181524
766.401	0.0180437
766.479	0.0179697
766.558	0.0180649
766.636	0.0182273
766.714	0.0179427
766.792	0.0178658
766.870	0.0180123
766.948	0.0180048
767.026	0.0180192
767.104	0.0181561
767.183	0.0180966
767.261	0.0181875
767.339	0.0182172
767.417	0.0183324
767.495	0.0183884
767.573	0.0183614
767.651	0.0186931
767.729	0.0186336
767.808	0.0186502
767.886	0.0185837
767.964	0.0186707
768.042	0.0186781
768.120	0.0188116
768.198	0.0188014
768.276	0.0187912
768.354	0.0187339
768.433	0.0185898
768.511	0.0186199
768.589	0.0183886
768.667	0.0183553
768.745	0.0184104
768.823	0.0182541
768.901	0.0180991
768.979	0.0179572
769.058	0.0181101
769.136	0.0180651
769.214	0.0180357
769.292	0.0178871
769.370	0.0179902
769.448	0.0180033
769.526	0.0179115
769.604	0.0179715
769.683	0.0180627
769.761	0.0181181
769.839	0.0182613
769.917	0.0181657
769.995	0.0183678
770.073	0.0183537
770.151	0.0184725
770.229	0.0185639
770.308	0.0186873
770.386	0.0185583
770.464	0.0186159
770.542	0.0186003
770.620	0.0185378
770.698	0.0186685
770.776	0.0186721
770.854	0.0184032
770.933	0.0184051
771.011	0.0183594
771.089	0.0182892
771.167	0.0181383
771.245	0.0179468
771.323	0.0179523
771.401	0.0179305
771.479	0.0177688
771.558	0.0177921
771.636	0.0176932
771.714	0.0179005
771.792	0.0178961
771.870	0.0179528
771.948	0.0180904
772.026	0.0181298
772.104	0.0180783
772.183	0.0181948
772.261	0.0183212
772.339	0.0183885
772.417	0.0183970
772.495	0.0184737
772.573	0.0185891
772.651	0.0186618
772.729	0.0186595
772.808	0.0186599
772.886	0.0187451
772.964	0.0188622
773.042	0.0189511
773.120	0.0187371
773.198	0.0187190
773.276	0.0186887
773.354	0.0185885
773.433	0.0184534
773.511	0.0184355
773.589	0.0184653
773.667	0.0184747
773.745	0.0182404
773.823	0.0182404
773.901	0.0182265
773.979	0.0181033
774.058	0.0180988
774.136	0.0182635
774.214	0.0180910
774.292	0.0179118
774.370	0.0179235
774.448	0.0181038
774.526	0.0181036
774.604	0.0181483
774.683	0.0181804
774.761	0.0180886
774.839	0.0183269
774.917	0.0182323
774.995	0.0182910
775.073	0.0183846
775.151	0.0185516
775.229	0.0184567
775.308	0.0183749
775.386	0.0186062
775.464	0.0185878
775.542	0.0185208
775.620	0.0186023
775.698	0.0184759
775.776	0.0184435
775.854	0.0184596
775.933	0.0183073
776.011	0.0182887
776.089	0.0182336
776.167	0.0182678
776.245	0.0181816
776.323	0.0180767
776.401	0.0181970
776.479	0.0181274
776.558	0.0179770
776.636	0.0180176
776.714	0.0180046
776.792	0.0179849
776.870	0.0179295
776.948	0.0180140
777.026	0.0181495
777.104	0.0181016
777.183	0.0182191
777.261	0.0181768
777.339	0.0184662
777.417	0.0183399
777.495	0.0183641
777.573	0.0184151
777.651	0.0184921
777.729	0.0184248
777.808	0.0184715
777.886	0.0184770
777.964	0.0184132
778.042	0.0183791
778.120	0.0185947
778.198	0.0184820
778.276	0.0183691
778.354	0.0183408
778.433	0.0183207
778.511	0.0182239
778.589	0.0182686
778.667	0.0182877
778.745	0.0181689
778.823	0.0183346
778.901	0.0182381
778.979	0.0181866
779.058	0.0182076
779.136	0.0181979
779.214	0.0180285
779.292	0.0181540
779.370	0.0182550
779.448	0.0181089
779.526	0.0180959
779.604	0.0181596
779.683	0.0180795
779.761	0.0182101
779.839	0.0181525
779.917	0.0182166
779.995	0.0183326
780.073	0.0183084
780.151	0.0182269
780.229	0.0185053
780.308	0.0185184
780.386	0.0184380
780.464	0.0185629
780.542	0.0186035
780.620	0.0185921
780.698	0.0185439
780.776	0.0185596
780.854	0.0185561
780.933	0.0184068
781.011	0.0183296
781.089	0.0183308
781.167	0.0182132
781.245	0.0182249
781.323	0.0182572
781.401	0.0182422
781.479	0.0182227
781.558	0.0180582
781.636	0.0180870
781.714	0.0181160
781.792	0.0181279
781.870	0.0178982
781.948	0.0179265
782.026	0.0180782
782.104	0.0180271
782.183	0.0180649
782.261	0.0181129
782.339	0.0182102
782.417	0.0182882
782.495	0.0182660
782.573	0.0183529
782.651	0.0184178
782.729	0.0182872
782.808	0.0184153
782.886	0.0185265
782.964	0.0184383
783.042	0.0186039
783.120	0.0184331
783.198	0.0182978
783.276	0.0183302
783.354	0.0182701
783.433	0.0184047
783.511	0.0182174
783.589	0.0183177
783.667	0.0181358
783.745	0.0181604
783.823	0.0181110
783.901	0.0180067
783.979	0.0180776
784.058	0.0180128
784.136	0.0178699
784.214	0.0178896
784.292	0.0180354
784.370	0.0181341
784.448	0.0180706
784.526	0.0181951
784.604	0.0180555
784.683	0.0180750
784.761	0.0182632
784.839	0.0183746
784.917	0.0184279
784.995	0.0184409
785.073	0.0184877
785.151	0.0185366
785.229	0.0185395
785.308	0.0186729
785.386	0.0186603
785.464	0.0186805
785.542	0.0186325
785.620	0.0187048
785.698	0.0185680
785.776	0.0184821
785.854	0.0184910
785.933	0.0185277
786.011	0.0183661
786.089	0.0183537
786.167	0.0182223
786.245	0.0181723
786.323	0.0181406
786.401	0.0181153
786.479	0.0181423
786.558	0.0179742
786.636	0.0179405
786.714	0.0178981
786.792	0.0177951
786.870	0.0178864
786.948	0.0179217
787.026	0.0181483
787.104	0.0180648
787.183	0.0179574
787.261	0.0180052
787.339	0.0182111
787.417	0.0182002
787.495	0.0183252
787.573	0.0182407
787.651	0.0185398
787.729	0.0185365
787.808	0.0185553
787.886	0.0186597
787.964	0.0185468
788.042	0.0186803
788.120	0.0186124
788.198	0.0186976
788.276	0.0185657
788.354	0.0185785
788.433	0.0185942
788.511	0.0183785
788.589	0.0183277
788.667	0.0182161
788.745	0.0181173
788.823	0.0181959
788.901	0.0179511
788.979	0.0179333
789.058	0.0179649
789.136	0.0182645
789.214	0.0180515
789.292	0.0180405
789.370	0.0181172
789.448	0.0180214
789.526	0.0179501
789.604	0.0181771
789.683	0.0182902
789.761	0.0182593
789.839	0.0182492
789.917	0.0184196
789.995	0.0183419
790.073	0.0185643
790.151	0.0185338
790.229	0.0185215
790.308	0.0184066
790.386	0.0184734
790.464	0.0184621
790.542	0.0184695
790.620	0.0183751
790.698	0.0184987
790.776	0.0185352
790.854	0.0185123
790.933	0.0183579
791.011	0.0184494
791.089	0.0183692
791.167	0.0184566
791.245	0.0182839
791.323	0.0183273
791.401	0.0183664
791.479	0.0183530
791.558	0.0183538
791.636	0.0181969
791.714	0.0180943
791.792	0.0180828
791.870	0.0182243
791.948	0.0183203
792.026	0.0181802
792.104	0.0181196
792.183	0.0182063
792.261	0.0182889
792.339	0.0181528
792.417	0.0181964
792.495	0.0181675
792.573	0.0182431
792.651	0.0181292
792.729	0.0182127
792.808	0.0183814
792.886	0.0183682
792.964	0.0183894
793.042	0.0185133
793.120	0.0184330
793.198	0.0184983
793.276	0.0184080
793.354	0.0183701
793.433	0.0183318
793.511	0.0183376
793.589	0.0184998
793.667	0.0183863
793.745	0.0181823
793.823	0.0182409
793.901	0.0182645
793.979	0.0181162
794.058	0.0180949
794.136	0.0180886
794.214	0.0179967
794.292	0.0180531
794.370	0.0179972
794.448	0.0181496
794.526	0.0182494
794.604	0.0181842
794.683	0.0182648
794.761	0.0182383
794.839	0.0183685
794.917	0.0183727
794.995	0.0183170
795.073	0.0182880
795.151	0.0184807
795.229	0.0185609
795.308	0.0185899
795.386	0.0185480
795.464	0.0186066
795.542	0.0186679
795.620	0.0185863
795.698	0.0185148
795.776	0.0183999
795.854	0.0184087
795.933	0.0183872
796.011	0.0181915
796.089	0.0180910
796.167	0.0181653
796.245	0.0180853
796.323	0.0179826
796.401	0.0180455
796.479	0.0178371
796.558	0.0178220
796.636	0.0176814
796.714	0.0176525
796.792	0.0177827
796.870	0.0178586
796.948	0.0178670
797.026	0.0180677
797.104	0.0180656
797.183	0.0182201
797.261	0.0181210
797.339	0.0182871
797.417	0.0184618
797.495	0.0184171
797.573	0.0186466
797.651	0.0186274
797.729	0.0186160
797.808	0.0186230
797.886	0.0187028
797.964	0.0186092
798.042	0.0186781
798.120	0.0187495
798.198	0.0187213
798.276	0.0184476
798.354	0.0184254
798.433	0.0182845
798.511	0.0183625
798.589	0.0180846
798.667	0.0178991
798.745	0.0179044
798.823	0.0178720
798.901	0.0177600
798.979	0.0177988
799.058	0.0175997
799.136	0.0177616
799.214	0.0176115
799.292	0.0177702
799.370	0.0179247
799.448	0.0180204
799.526	0.0180386
799.604	0.0181904
799.683	0.0183105
799.761	0.0184184
799.839	0.0184580
799.917	0.0184618
799.995	0.0184329
800.073	0.0185252
800.151	0.0186744
800.229	0.0187151
800.308	0.0186687
800.386	0.0186890
800.464	0.0188396
800.542	0.0187894
800.620	0.0187560
800.698	0.0186503
800.776	0.0186170
800.854	0.0184644
800.933	0.0184375
801.011	0.0184690
801.089	0.0184105
801.167	0.0182820
801.245	0.0181986
801.323	0.0182661
801.401	0.0181925
801.479	0.0180717
801.558	0.0181714
801.636	0.0179916
801.714	0.0179839
801.792	0.0181059
801.870	0.0181026
801.948	0.0182130
802.026	0.0181570
802.104	0.0180981
802.183	0.0181145
802.261	0.0181348
802.339	0.0181403
802.417	0.0182032
802.495	0.0181083
802.573	0.0181971
802.651	0.0181915
802.729	0.0181503
802.808	0.0181653
802.886	0.0181470
802.964	0.0181667
803.042	0.0182394
803.120	0.0182354
803.198	0.0183565
803.276	0.0183137
803.354	0.0184180
803.433	0.0184374
803.511	0.0184203
803.589	0.0185311
803.667	0.0185388
803.745	0.0184566
803.823	0.0184926
803.901	0.0184433
803.979	0.0184215
804.058	0.0184341
804.136	0.0183496
804.214	0.0182069
804.292	0.0183822
804.370	0.0181452
804.448	0.0181700
804.526	0.0181319
804.604	0.0181242
804.683	0.0179510
804.761	0.0178750
804.839	0.0178938
804.917	0.0179298
804.995	0.0178309
805.073	0.0177644
805.151	0.0178458
805.229	0.0177905
805.308	0.0179288
805.386	0.0179751
805.464	0.0178162
805.542	0.0180049
805.620	0.0182037
805.698	0.0183118
805.776	0.0184423
805.854	0.0186604
805.933	0.0184026
806.011	0.0188421
806.089	0.0187188
806.167	0.0187830
806.245	0.0188491
806.323	0.0190528
806.401	0.0187715
806.479	0.0189440
806.558	0.0188567
806.636	0.0186363
806.714	0.0186051
806.792	0.0186228
806.870	0.0184873
806.948	0.0183904
807.026	0.0183675
807.104	0.0182570
807.183	0.0182480
807.261	0.0181399
807.339	0.0179488
807.417	0.0179988
807.495	0.0179454
807.573	0.0177896
807.651	0.0179669
807.729	0.0179800
807.808	0.0178855
807.886	0.0178526
807.964	0.0179719
808.042	0.0179830
808.120	0.0179382
808.198	0.0180779
808.276	0.0180260
808.354	0.0181190
808.433	0.0182306
808.511	0.0184440
808.589	0.0184027
808.667	0.0184331
808.745	0.0185606
808.823	0.0185751
808.901	0.0185413
808.979	0.0185677
809.058	0.0185033
809.136	0.0183650
809.214	0.0184566
809.292	0.0184236
809.370	0.0184119
809.448	0.0184158
809.526	0.0182609
809.604	0.0182370
809.683	0.0180531
809.761	0.0180836
809.839	0.0182210
809.917	0.0181802
809.995	0.0180107
810.073	0.0180256
810.151	0.0181754
810.229	0.0182912
810.308	0.0183016
810.386	0.0181969
810.464	0.0182286
810.542	0.0183407
810.620	0.0182104
810.698	0.0182693
810.776	0.0183157
810.854	0.0185029
810.933	0.0184064
811.011	0.0184843
811.089	0.0186164
811.167	0.0184482
811.245	0.0186272
811.323	0.0185831
811.401	0.0185455
811.479	0.0186095
811.558	0.0184282
811.636	0.0183798
811.714	0.0183248
811.792	0.0182372
811.870	0.0183292
811.948	0.0183223
812.026	0.0182005
812.104	0.0180390
812.183	0.0180058
812.261	0.0181680
812.339	0.0180476
812.417	0.0179732
812.495	0.0179820
812.573	0.0181009
812.651	0.0180293
812.729	0.0180720
812.808	0.0180965
812.886	0.0183443
812.964	0.0183250
813.042	0.0182542
813.120	0.0182095
813.198	0.0184613
813.276	0.0183687
813.354	0.0185217
813.433	0.0185487
813.511	0.0185512
813.589	0.0184100
813.667	0.0185402
813.745	0.0185537
813.823	0.0184479
813.901	0.0184782
813.979	0.0184539
814.058	0.0185292
814.136	0.0183727
814.214	0.0181953
814.292	0.0182321
814.370	0.0182911
814.448	0.0182005
814.526	0.0180746
814.604	0.0181013
814.683	0.0181808
814.761	0.0181062
814.839	0.0181156
814.917	0.0181033
814.995	0.0180722
815.073	0.0181945
815.151	0.0182147
815.229	0.0180752
815.308	0.0181341
815.386	0.0182311
815.464	0.0183810
815.542	0.0182456
815.620	0.0182730
815.698	0.0183434
815.776	0.0185328
815.854	0.0185883
815.933	0.0184854
816.011	0.0186539
816.089	0.0185233
816.167	0.0186792
816.245	0.0187362
816.323	0.0184234
816.401	0.0184182
816.479	0.0184275
816.558	0.0183606
816.636	0.0184068
816.714	0.0184937
816.792	0.0182712
816.870	0.0181161
816.948	0.0183048
817.026	0.0180074
817.104	0.0179745
817.183	0.0178873
817.261	0.0178857
817.339	0.0180096
817.417	0.0178954
817.495	0.0179574
817.573	0.0178918
817.651	0.0178940
817.729	0.0180518
817.808	0.0180319
817.886	0.0180345
817.964	0.0181095
818.042	0.0181975
818.120	0.0182526
818.198	0.0183707
818.276	0.0184619
818.354	0.0184049
818.433	0.0185924
818.511	0.0186087
818.589	0.0184760
818.667	0.0186528
818.745	0.0186712
818.823	0.0185179
818.901	0.0185161
818.979	0.0185864
819.058	0.0185870
819.136	0.0185355
819.214	0.0185506
819.292	0.0184355
819.370	0.0184741
819.448	0.0183648
819.526	0.0182329
819.604	0.0183376
819.683	0.0182290
819.761	0.0181403
819.839	0.0181642
819.917	0.0179597
819.995	0.0180186
820.073	0.0179202
820.151	0.0179423
820.229	0.0178789
820.308	0.0178941
820.386	0.0179080
820.464	0.0178450
820.542	0.0178897
820.620	0.0181135
820.698	0.0180986
820.776	0.0179058
820.854	0.0180130
820.933	0.0180930
821.011	0.0182202
821.089	0.0181898
821.167	0.0182491
821.245	0.0183983
821.323	0.0183262
821.401	0.0184535
821.479	0.0184295
821.558	0.0184057
821.636	0.0183906
821.714	0.0185207
821.792	0.0183028
821.870	0.0184126
821.948	0.0184747
822.026	0.0183240
822.104	0.0182713
822.183	0.0182645
822.261	0.0182270
822.339	0.0180916
822.417	0.0181730
822.495	0.0181554
822.573	0.0182011
822.651	0.0180624
822.729	0.0181189
822.808	0.0182546
822.886	0.0181971
822.964	0.0180947
823.042	0.0181496
823.120	0.0181014
823.198	0.0181751
823.276	0.0181519
823.354	0.0181930
823.433	0.0181477
823.511	0.0181450
823.589	0.0181568
823.667	0.0182042
823.745	0.0184263
823.823	0.0184503
823.901	0.0181783
823.979	0.0183725
824.058	0.0185045
824.136	0.0183844
824.214	0.0183863
824.292	0.0183895
824.370	0.0184798
824.448	0.0182942
824.526	0.0182480
824.604	0.0183376
824.683	0.0184966
824.761	0.0183476
824.839	0.0182256
824.917	0.0183675
824.995	0.0182219
825.073	0.0182417
825.151	0.0182539
825.229	0.0181253
825.308	0.0181813
825.386	0.0180362
825.464	0.0180254
825.542	0.0182420
825.620	0.0179176
825.698	0.0180505
825.776	0.0180177
825.854	0.0178291
825.933	0.0178902
826.011	0.0178917
826.089	0.0178079
826.167	0.0180467
826.245	0.0180446
826.323	0.0180670
826.401	0.0179969
826.479	0.0180577
826.558	0.0182451
826.636	0.0182652
826.714	0.0183530
826.792	0.0182706
826.870	0.0184039
826.948	0.0185113
827.026	0.0185332
827.104	0.0185101
827.183	0.0186164
827.261	0.0185641
827.339	0.0184817
827.417	0.0185211
827.495	0.0184797
827.573	0.0184358
827.651	0.0185792
827.729	0.0184464
827.808	0.0184187
827.886	0.0183910
827.964	0.0183194
828.042	0.0182951
828.120	0.0182735
828.198	0.0181995
828.276	0.0181566
828.354	0.0181518
828.433	0.0180804
828.511	0.0180650
828.589	0.0180197
828.667	0.0180004
828.745	0.0180275
828.823	0.0179907
828.901	0.0180201
828.979	0.0180417
829.058	0.0180808
829.136	0.0180414
829.214	0.0181932
829.292	0.0182309
829.370	0.0181847
829.448	0.0183506
829.526	0.0182779
829.604	0.0184251
829.683	0.0184189
829.761	0.0181220
829.839	0.0184000
829.917	0.0183566
829.995	0.0183588
830.073	0.0182490
830.151	0.0184151
830.229	0.0183620
830.308	0.0184238
830.386	0.0184367
830.464	0.0183968
830.542	0.0183150
830.620	0.0182670
830.698	0.0184647
830.776	0.0183457
830.854	0.0183284
830.933	0.0183591
831.011	0.0183783
831.089	0.0183051
831.167	0.0182806
831.245	0.0182853
831.323	0.0184100
831.401	0.0183138
831.479	0.0182447
831.558	0.0182820
831.636	0.0182400
831.714	0.0183099
831.792	0.0183836
831.870	0.0182333
831.948	0.0182623
832.026	0.0182674
832.104	0.0182629
832.183	0.0183084
832.261	0.0184071
832.339	0.0182668
832.417	0.0181841
832.495	0.0182782
832.573	0.0183052
832.651	0.0183747
832.729	0.0183037
832.808	0.0183354
832.886	0.0183835
832.964	0.0183193
833.042	0.0184236
833.120	0.0183544
833.198	0.0182436
833.276	0.0183311
833.354	0.0183825
833.433	0.0184245
833.511	0.0182840
833.589	0.0182393
833.667	0.0181531
833.745	0.0182376
833.823	0.0182043
833.901	0.0181431
833.979	0.0180970
834.058	0.0181252
834.136	0.0181274
834.214	0.0181180
834.292	0.0180144
834.370	0.0180795
834.448	0.0181932
834.526	0.0181012
834.604	0.0179873
834.683	0.0182704
834.761	0.0183411
834.839	0.0182034
834.917	0.0182490
834.995	0.0183588
835.073	0.0183257
835.151	0.0184192
835.229	0.0184187
835.308	0.0184258
835.386	0.0185154
835.464	0.0185786
835.542	0.0186349
835.620	0.0186523
835.698	0.0186868
835.776	0.0185409
835.854	0.0185252
835.933	0.0186203
836.011	0.0185587
836.089	0.0184335
836.167	0.0185199
836.245	0.0185467
836.323	0.0184947
836.401	0.0183477
836.479	0.0184245
836.558	0.0183663
836.636	0.0183202
836.714	0.0181500
836.792	0.0182036
836.870	0.0182652
836.948	0.0180531
837.026	0.0181875
837.104	0.0181625
837.183	0.0182220
837.261	0.0181915
837.339	0.0182744
837.417	0.0180965
837.495	0.0180880
837.573	0.0181016
837.651	0.0182396
837.729	0.0180811
837.808	0.0181777
837.886	0.0183477
837.964	0.0182365
838.042	0.0183691
838.120	0.0183908
838.198	0.0183783
838.276	0.0183646
838.354	0.0184245
838.433	0.0185979
838.511	0.0186349
838.589	0.0184544
838.667	0.0185772
838.745	0.0185806
838.823	0.0185494
838.901	0.0185015
838.979	0.0185355
839.058	0.0184554
839.136	0.0184908
839.214	0.0183497
839.292	0.0184166
839.370	0.0184409
839.448	0.0184518
839.526	0.0181243
839.604	0.0182989
839.683	0.0182442
839.761	0.0182453
839.839	0.0180853
839.917	0.0180073
839.995	0.0181203
840.073	0.0179950
840.151	0.0179454
840.229	0.0179615
840.308	0.0179461
840.386	0.0180045
840.464	0.0178982
840.542	0.0179678
840.620	0.0180318
840.698	0.0180583
840.776	0.0180720
840.854	0.0181513
840.933	0.0180276
841.011	0.0182260
841.089	0.0182017
841.167	0.0182997
841.245	0.0184851
841.323	0.0183410
841.401	0.0182556
841.479	0.0185205
841.558	0.0184596
841.636	0.0185249
841.714	0.0185856
841.792	0.0186431
841.870	0.0187514
841.948	0.0186954
842.026	0.0185764
842.104	0.0183374
842.183	0.0184918
842.261	0.0184666
842.339	0.0185167
842.417	0.0184270
842.495	0.0183640
842.573	0.0185217
842.651	0.0185043
842.729	0.0182503
842.808	0.0183424
842.886	0.0184634
842.964	0.0184446
843.042	0.0183437
843.120	0.0183679
843.198	0.0183861
843.276	0.0183729
843.354	0.0182316
843.433	0.0182859
843.511	0.0182451
843.589	0.0181415
843.667	0.0182288
843.745	0.0182542
843.823	0.0183508
843.901	0.0183542
843.979	0.0181694
844.058	0.0182713
844.136	0.0183923
844.214	0.0182117
844.292	0.0182157
844.370	0.0182340
844.448	0.0182309
844.526	0.0182209
844.604	0.0182097
844.683	0.0182414
844.761	0.0182004
844.839	0.0181174
844.917	0.0181216
844.995	0.0181815
845.073	0.0181399
845.151	0.0181026
845.229	0.0179935
845.308	0.0181078
845.386	0.0181665
845.464	0.0181830
845.542	0.0181322
845.620	0.0182961
845.698	0.0180473
845.776	0.0182070
845.854	0.0183197
845.933	0.0182487
846.011	0.0183427
846.089	0.0183258
846.167	0.0183098
846.245	0.0185026
846.323	0.0183549
846.401	0.0183716
846.479	0.0185135
846.558	0.0185109
846.636	0.0184322
846.714	0.0185520
846.792	0.0186425
846.870	0.0184071
846.948	0.0185056
847.026	0.0185121
847.104	0.0185520
847.183	0.0185338
847.261	0.0185042
847.339	0.0184138
847.417	0.0183382
847.495	0.0182880
847.573	0.0182555
847.651	0.0183722
847.729	0.0181679
847.808	0.0181931
847.886	0.0183181
847.964	0.0180541
848.042	0.0180524
848.120	0.0179913
848.198	0.0180484
848.276	0.0181037
848.354	0.0181618
848.433	0.0180692
848.511	0.0180240
848.589	0.0181452
848.667	0.0179483
848.745	0.0179621
848.823	0.0180089
848.901	0.0180787
848.979	0.0181922
849.058	0.0179601
849.136	0.0179733
849.214	0.0180360
849.292	0.0180730
849.370	0.0181807
849.448	0.0180729
849.526	0.0182515
849.604	0.0181815
849.683	0.0180752
849.761	0.0182210
849.839	0.0181828
849.917	0.0183607
849.995	0.0181795
850.073	0.0181490
850.151	0.0182758
850.229	0.0182547
850.308	0.0181758
850.386	0.0182853
850.464	0.0181443
850.542	0.0182060
850.620	0.0180936
850.698	0.0179752
850.776	0.0179688
850.854	0.0180894
850.933	0.0182691
851.011	0.0180956
851.089	0.0180338
851.167	0.0181557
851.245	0.0182065
851.323	0.0181073
851.401	0.0183063
851.479	0.0184296
851.558	0.0182944
851.636	0.0182441
851.714	0.0183765
851.792	0.0185584
851.870	0.0184023
851.948	0.0185206
852.026	0.0184744
852.104	0.0184857
852.183	0.0185785
852.261	0.0185503
852.339	0.0185956
852.417	0.0184944
852.495	0.0185297
852.573	0.0185799
852.651	0.0185631
852.729	0.0183421
852.808	0.0183419
852.886	0.0184487
852.964	0.0182915
853.042	0.0183492
853.120	0.0182647
853.198	0.0181239
853.276	0.0180455
853.354	0.0179842
853.433	0.0179849
853.511	0.0179803
853.589	0.0180328
853.667	0.0180084
853.745	0.0178907
853.823	0.0180067
853.901	0.0179520
853.979	0.0181726
854.058	0.0180428
854.136	0.0178973
854.214	0.0181672
854.292	0.0181541
854.370	0.0182139
854.448	0.0181896
854.526	0.0182358
854.604	0.0182525
854.683	0.0183203
854.761	0.0184184
854.839	0.0184219
854.917	0.0183955
854.995	0.0184306
855.073	0.0184608
855.151	0.0183936
855.229	0.0184173
855.308	0.0184987
855.386	0.0183372
855.464	0.0183951
855.542	0.0184925
855.620	0.0184048
855.698	0.0183147
855.776	0.0181761
855.854	0.0181619
855.933	0.0184107
856.011	0.0183498
856.089	0.0181888
856.167	0.0181630
856.245	0.0182891
856.323	0.0182272
856.401	0.0182549
856.479	0.0183063
856.558	0.0181368
856.636	0.0180863
856.714	0.0180998
856.792	0.0181889
856.870	0.0183586
856.948	0.0182021
857.026	0.0183627
857.104	0.0181937
857.183	0.0182169
857.261	0.0182932
857.339	0.0183269
857.417	0.0183476
857.495	0.0182852
857.573	0.0183201
857.651	0.0183537
857.729	0.0183094
857.808	0.0183786
857.886	0.0184455
857.964	0.0183257
858.042	0.0183575
858.120	0.0185190
858.198	0.0184509
858.276	0.0184546
858.354	0.0184315
858.433	0.0184190
858.511	0.0184371
858.589	0.0184409
858.667	0.0184399
858.745	0.0182593
858.823	0.0181309
858.901	0.0182815
858.979	0.0182407
859.058	0.0181944
859.136	0.0182117
859.214	0.0180625
859.292	0.0180556
859.370	0.0182262
859.448	0.0183115
859.526	0.0182218
859.604	0.0182316
859.683	0.0184571
859.761	0.0183739
859.839	0.0183105
859.917	0.0183549
859.995	0.0184128
860.073	0.0183377
860.151	0.0184575
860.229	0.0183646
860.308	0.0184613
860.386	0.0184928
860.464	0.0183851
860.542	0.0184828
860.620	0.0183516
860.698	0.0184446
860.776	0.0184607
860.854	0.0184178
860.933	0.0184315
861.011	0.0183603
861.089	0.0180984
861.167	0.0181395
861.245	0.0182503
861.323	0.0182082
861.401	0.0181676
861.479	0.0182109
861.558	0.0180602
861.636	0.0182079
861.714	0.0181496
861.792	0.0181490
861.870	0.0181979
861.948	0.0181589
862.026	0.0181213
862.104	0.0182034
862.183	0.0183131
862.261	0.0181580
862.339	0.0182426
862.417	0.0182712
862.495	0.0183365
862.573	0.0182050
862.651	0.0182496
862.729	0.0183457
862.808	0.0184137
862.886	0.0184178
862.964	0.0183748
863.042	0.0184237
863.120	0.0184751
863.198	0.0183035
863.276	0.0182248
863.354	0.0181996
863.433	0.0184785
863.511	0.0183382
863.589	0.0183308
863.667	0.0184460
863.745	0.0185265
863.823	0.0183733
863.901	0.0183218
863.979	0.0183424
864.058	0.0184386
864.136	0.0183453
864.214	0.0182707
864.292	0.0184141
864.370	0.0183258
864.448	0.0181814
864.526	0.0181973
864.604	0.0182322
864.683	0.0182475
864.761	0.0181693
864.839	0.0182484
864.917	0.0181648
864.995	0.0182293
865.073	0.0182141
865.151	0.0183289
865.229	0.0182888
865.308	0.0182912
865.386	0.0181068
865.464	0.0182160
865.542	0.0182934
865.620	0.0182478
865.698	0.0182877
865.776	0.0183408
865.854	0.0183266
865.933	0.0182953
866.011	0.0183949
866.089	0.0184396
866.167	0.0183418
866.245	0.0184455
866.323	0.0183194
866.401	0.0184552
866.479	0.0184023
866.558	0.0184156
866.636	0.0184769
866.714	0.0184498
866.792	0.0183283
866.870	0.0183766
866.948	0.0183507
867.026	0.0184103
867.104	0.0182720
867.183	0.0180885
867.261	0.0183607
867.339	0.0182248
867.417	0.0180948
867.495	0.0180045
867.573	0.0181696
867.651	0.0181033
867.729	0.0180362
867.808	0.0181747
867.886	0.0180370
867.964	0.0180828
868.042	0.0182742
868.120	0.0182323
868.198	0.0181989
868.276	0.0182871
868.354	0.0182805
868.433	0.0183376
868.511	0.0183749
868.589	0.0186333
868.667	0.0185357
868.745	0.0184351
868.823	0.0185133
868.901	0.0183721
868.979	0.0185857
869.058	0.0184417
869.136	0.0184015
869.214	0.0184486
869.292	0.0184036
869.370	0.0183702
869.448	0.0182569
869.526	0.0182783
869.604	0.0181326
869.683	0.0182550
869.761	0.0182177
869.839	0.0181300
869.917	0.0180354
869.995	0.0182178
870.073	0.0181292
870.151	0.0181579
870.229	0.0180936
870.308	0.0181133
870.386	0.0180720
870.464	0.0182042
870.542	0.0182116
870.620	0.0182106
870.698	0.0182376
870.776	0.0182291
870.854	0.0182150
870.933	0.0183921
871.011	0.0184429
871.089	0.0184525
871.167	0.0182970
871.245	0.0183466
871.323	0.0185671
871.401	0.0183254
871.479	0.0184855
871.558	0.0184511
871.636	0.0184149
871.714	0.0183465
871.792	0.0183100
871.870	0.0182875
871.948	0.0183606
872.026	0.0183273
872.104	0.0183215
872.183	0.0181923
872.261	0.0182841
872.339	0.0181486
872.417	0.0180832
872.495	0.0181163
872.573	0.0182648
872.651	0.0182008
872.729	0.0180778
872.808	0.0181965
872.886	0.0182405
872.964	0.0182206
873.042	0.0182678
873.120	0.0183594
873.198	0.0181146
873.276	0.0183337
873.354	0.0183131
873.433	0.0181672
873.511	0.0184305
873.589	0.0184329
873.667	0.0183554
873.745	0.0184319
873.823	0.0183788
873.901	0.0182661
873.979	0.0182472
874.058	0.0181195
874.136	0.0182666
874.214	0.0182189
874.292	0.0182762
874.370	0.0180916
874.448	0.0180972
874.526	0.0180302
874.604	0.0180656
874.683	0.0180572
874.761	0.0181893
874.839	0.0180674
874.917	0.0179246
874.995	0.0178445
875.073	0.0179509
875.151	0.0180157
875.229	0.0179729
875.308	0.0181508
875.386	0.0181268
875.464	0.0180843
875.542	0.0182549
875.620	0.0182595
875.698	0.0181226
875.776	0.0182278
875.854	0.0183067
875.933	0.0183374
876.011	0.0183163
876.089	0.0183997
876.167	0.0184090
876.245	0.0183968
876.323	0.0183798
876.401	0.0184988
876.479	0.0183920
876.558	0.0185011
876.636	0.0184099
876.714	0.0184904
876.792	0.0184574
876.870	0.0183194
876.948	0.0183109
877.026	0.0183707
877.104	0.0183289
877.183	0.0183368
877.261	0.0181522
877.339	0.0181573
877.417	0.0181651
877.495	0.0181779
877.573	0.0180989
877.651	0.0181451
877.729	0.0181130
877.808	0.0181237
877.886	0.0181266
877.964	0.0180654
878.042	0.0182202
878.120	0.0183863
878.198	0.0181703
878.276	0.0182552
878.354	0.0182349
878.433	0.0182644
878.511	0.0183020
878.589	0.0181844
878.667	0.0182715
878.745	0.0183575
878.823	0.0182533
878.901	0.0182941
878.979	0.0184137
879.058	0.0182684
879.136	0.0182294
879.214	0.0182198
879.292	0.0183627
879.370	0.0182751
879.448	0.0182874
879.526	0.0184033
879.604	0.0183145
879.683	0.0180735
879.761	0.0181995
879.839	0.0182403
879.917	0.0181115
879.995	0.0180871
880.073	0.0181415
880.151	0.0182367
880.229	0.0182606
880.308	0.0182893
880.386	0.0181816
880.464	0.0181672
880.542	0.0183002
880.620	0.0182530
880.698	0.0182738
880.776	0.0184056
880.854	0.0183289
880.933	0.0183409
881.011	0.0183312
881.089	0.0183971
881.167	0.0184793
881.245	0.0184348
881.323	0.0184535
881.401	0.0184143
881.479	0.0184692
881.558	0.0184135
881.636	0.0183780
881.714	0.0184254
881.792	0.0183231
881.870	0.0183253
881.948	0.0184383
882.026	0.0183629
882.104	0.0180954
882.183	0.0181584
882.261	0.0183204
882.339	0.0183424
882.417	0.0183644
882.495	0.0181173
882.573	0.0180141
882.651	0.0180598
882.729	0.0181750
882.808	0.0182994
882.886	0.0181927
882.964	0.0180889
883.042	0.0181860
883.120	0.0180362
883.198	0.0182405
883.276	0.0181389
883.354	0.0181957
883.433	0.0183198
883.511	0.0183672
883.589	0.0183669
883.667	0.0182950
883.745	0.0183645
883.823	0.0184149
883.901	0.0183244
883.979	0.0183841
884.058	0.0183697
884.136	0.0184624
884.214	0.0184849
884.292	0.0183047
884.370	0.0183855
884.448	0.0184289
884.526	0.0183617
884.604	0.0183199
884.683	0.0182207
884.761	0.0183366
884.839	0.0182000
884.917	0.0181541
884.995	0.0180808
885.073	0.0181753
885.151	0.0182162
885.229	0.0181410
885.308	0.0182478
885.386	0.0181362
885.464	0.0182011
885.542	0.0181178
885.620	0.0183370
885.698	0.0182905
885.776	0.0182182
885.854	0.0182133
885.933	0.0183324
886.011	0.0182728
886.089	0.0181966
886.167	0.0182520
886.245	0.0182832
886.323	0.0182114
886.401	0.0182536
886.479	0.0181483
886.558	0.0181194
886.636	0.0181316
886.714	0.0181223
886.792	0.0182113
886.870	0.0181063
886.948	0.0181462
887.026	0.0181935
887.104	0.0182405
887.183	0.0181096
887.261	0.0180450
887.339	0.0182282
887.417	0.0181256
887.495	0.0179792
887.573	0.0180434
887.651	0.0180171
887.729	0.0180914
887.808	0.0182193
887.886	0.0181628
887.964	0.0181834
888.042	0.0182842
888.120	0.0183423
888.198	0.0182700
888.276	0.0184400
888.354	0.0183878
888.433	0.0183632
888.511	0.0182452
888.589	0.0182676
888.667	0.0182845
888.745	0.0183825
888.823	0.0182629
888.901	0.0181566
888.979	0.0183342
889.058	0.0183677
889.136	0.0182854
889.214	0.0181335
889.292	0.0180817
889.370	0.0182592
889.448	0.0182228
889.526	0.0182964
889.604	0.0182976
889.683	0.0183294
889.761	0.0182280
889.839	0.0184319
889.917	0.0183498
889.995	0.0184547
890.073	0.0184435
890.151	0.0183985
890.229	0.0184601
890.308	0.0185451
890.386	0.0182726
890.464	0.0184126
890.542	0.0183499
890.620	0.0181895
890.698	0.0181518
890.776	0.0182148
890.854	0.0181028
890.933	0.0179023
891.011	0.0178410
891.089	0.0178896
891.167	0.0180505
891.245	0.0178374
891.323	0.0179632
891.401	0.0179346
891.479	0.0179170
891.558	0.0179777
891.636	0.0179526
891.714	0.0179923
891.792	0.0181262
891.870	0.0181236
891.948	0.0182027
892.026	0.0182230
892.104	0.0184595
892.183	0.0182650
892.261	0.0185622
892.339	0.0187077
892.417	0.0187260
892.495	0.0188721
892.573	0.0189515
892.651	0.0190137
892.729	0.0190431
892.808	0.0189484
892.886	0.0188988
892.964	0.0187884
893.042	0.0186895
893.120	0.0186127
893.198	0.0183602
893.276	0.0181970
893.354	0.0179004
893.433	0.0179619
893.511	0.0175822
893.589	0.0174464
893.667	0.0175134
893.745	0.0172980
893.823	0.0172017
893.901	0.0174207
893.979	0.0173093
894.058	0.0175209
894.136	0.0174577
894.214	0.0175984
894.292	0.0178329
894.370	0.0178644
894.448	0.0179565
894.526	0.0181739
894.604	0.0183409
894.683	0.0184601
894.761	0.0187628
894.839	0.0188959
894.917	0.0189754
894.995	0.0190034
895.073	0.0191084
895.151	0.0191694
895.229	0.0192227
895.308	0.0191953
895.386	0.0188891
895.464	0.0190321
895.542	0.0189002
895.620	0.0187177
895.698	0.0185729
895.776	0.0184162
895.854	0.0180835
895.933	0.0179700
896.011	0.0178980
896.089	0.0178296
896.167	0.0176686
896.245	0.0174308
896.323	0.0173598
896.401	0.0173962
896.479	0.0173471
896.558	0.0173631
896.636	0.0174799
896.714	0.0174503
896.792	0.0174374
896.870	0.0176988
896.948	0.0179379
897.026	0.0181866
897.104	0.0181934
897.183	0.0182919
897.261	0.0185217
897.339	0.0187221
897.417	0.0189735
897.495	0.0191717
897.573	0.0192117
897.651	0.0192522
897.729	0.0192233
897.808	0.0192089
897.886	0.0191707
897.964	0.0190701
898.042	0.0189078
898.120	0.0187865
898.198	0.0185211
898.276	0.0185735
898.354	0.0182044
898.433	0.0179957
898.511	0.0180199
898.589	0.0177406
898.667	0.0175816
898.745	0.0175594
898.823	0.0176160
898.901	0.0173882
898.979	0.0173373
899.058	0.0174850
899.136	0.0174339
899.214	0.0173193
899.292	0.0175885
899.370	0.0177241
899.448	0.0175568
899.526	0.0178101
899.604	0.0181235
899.683	0.0182008
899.761	0.0184765
899.839	0.0186792
899.917	0.0187195
899.995	0.0188112
900.073	0.0189746
900.151	0.0190667
900.229	0.0190105
900.308	0.0191790
900.386	0.0189510
900.464	0.0189538
900.542	0.0188837
900.620	0.0186623
900.698	0.0186535
900.776	0.0185034
900.854	0.0183727
900.933	0.0181837
901.011	0.0181345
901.089	0.0180578
901.167	0.0179407
901.245	0.0179486
901.323	0.0178332
901.401	0.0177850
901.479	0.0178529
901.558	0.0178289
901.636	0.0177146
901.714	0.0177346
901.792	0.0177435
901.870	0.0177735
901.948	0.0178284
902.026	0.0180140
902.104	0.0180887
902.183	0.0179861
902.261	0.0181557
902.339	0.0181938
902.417	0.0183115
902.495	0.0183607
902.573	0.0184544
902.651	0.0185228
902.729	0.0185073
902.808	0.0185848
902.886	0.0184252
902.964	0.0184877
903.042	0.0185973
903.120	0.0183509
903.198	0.0183266
903.276	0.0183546
903.354	0.0184213
903.433	0.0182616
903.511	0.0182299
903.589	0.0182065
903.667	0.0182994
903.745	0.0182142
903.823	0.0180331
903.901	0.0181194
903.979	0.0181349
904.058	0.0182523
904.136	0.0181798
904.214	0.0182459
904.292	0.0181339
904.370	0.0183308
904.448	0.0180912
904.526	0.0181021
904.604	0.0180904
904.683	0.0180792
904.761	0.0182395
904.839	0.0182978
904.917	0.0181572
904.995	0.0183035
905.073	0.0183126
905.151	0.0183878
905.229	0.0183594
905.308	0.0184332
905.386	0.0183868
905.464	0.0183423
905.542	0.0184433
905.620	0.0184091
905.698	0.0182536
905.776	0.0182313
905.854	0.0181799
905.933	0.0181908
906.011	0.0181860
906.089	0.0181816
906.167	0.0180945
906.245	0.0180473
906.323	0.0180300
906.401	0.0179937
906.479	0.0180382
906.558	0.0178511
906.636	0.0181033
906.714	0.0182220
906.792	0.0181724
906.870	0.0181515
906.948	0.0181009
907.026	0.0182416
907.104	0.0183186
907.183	0.0181480
907.261	0.0182256
907.339	0.0181063
907.417	0.0182467
907.495	0.0183227
907.573	0.0182286
907.651	0.0182626
907.729	0.0183810
907.808	0.0183873
907.886	0.0183669
907.964	0.0183211
908.042	0.0184790
908.120	0.0183790
908.198	0.0184824
908.276	0.0184261
908.354	0.0185077
908.433	0.0185042
908.511	0.0184668
908.589	0.0184042
908.667	0.0183569
908.745	0.0182793
908.823	0.0183784
908.901	0.0183392
908.979	0.0183913
909.058	0.0181851
909.136	0.0183489
909.214	0.0183359
909.292	0.0182973
909.370	0.0182509
909.448	0.0181535
909.526	0.0182867
909.604	0.0180965
909.683	0.0180151
909.761	0.0180305
909.839	0.0181443
909.917	0.0178941
909.995	0.0178143
910.073	0.0179230
910.151	0.0179877
910.229	0.0178748
910.308	0.0179725
910.386	0.0180950
910.464	0.0180721
910.542	0.0180830
910.620	0.0182545
910.698	0.0182184
910.776	0.0183215
910.854	0.0185508
910.933	0.0184659
911.011	0.0184238
911.089	0.0186504
911.167	0.0187316
911.245	0.0186481
911.323	0.0185759
911.401	0.0186153
911.479	0.0186242
911.558	0.0186905
911.636	0.0185385
911.714	0.0185820
911.792	0.0185207
911.870	0.0184799
911.948	0.0184100
912.026	0.0183747
912.104	0.0183187
912.183	0.0182671
912.261	0.0182003
912.339	0.0181187
912.417	0.0181403
912.495	0.0180462
912.573	0.0181261
912.651	0.0179778
912.729	0.0180933
912.808	0.0181105
912.886	0.0180379
912.964	0.0181387
913.042	0.0180321
913.120	0.0181641
913.198	0.0182951
913.276	0.0183361
913.354	0.0184074
913.433	0.0183762
913.511	0.0183798
913.589	0.0185083
913.667	0.0183056
913.745	0.0185287
913.823	0.0184774
913.901	0.0185052
913.979	0.0184904
914.058	0.0184124
914.136	0.0183029
914.214	0.0184686
914.292	0.0184744
914.370	0.0184175
914.448	0.0182336
914.526	0.0183318
914.604	0.0183260
914.683	0.0183789
914.761	0.0180944
914.839	0.0181262
914.917	0.0181564
914.995	0.0181898
915.073	0.0181506
915.151	0.0181515
915.229	0.0182374
915.308	0.0183096
915.386	0.0182897
915.464	0.0182862
915.542	0.0182767
915.620	0.0183344
915.698	0.0184512
915.776	0.0182175
915.854	0.0183353
915.933	0.0183115
916.011	0.0182650
916.089	0.0184921
916.167	0.0184409
916.245	0.0183459
916.323	0.0182757
916.401	0.0183448
916.479	0.0183295
916.558	0.0183250
916.636	0.0183176
916.714	0.0182304
916.792	0.0183936
916.870	0.0182294
916.948	0.0181681
917.026	0.0182941
917.104	0.0183738
917.183	0.0181542
917.261	0.0181040
917.339	0.0182240
917.417	0.0182348
917.495	0.0182263
917.573	0.0182612
917.651	0.0181851
917.729	0.0181474
917.808	0.0183704
917.886	0.0182607
917.964	0.0182748
918.042	0.0183851
918.120	0.0184216
918.198	0.0184358
918.276	0.0183851
918.354	0.0185061
918.433	0.0184283
918.511	0.0186037
918.589	0.0185230
918.667	0.0185194
918.745	0.0183270
918.823	0.0184924
918.901	0.0183332
918.979	0.0183069
919.058	0.0182951
919.136	0.0183434
919.214	0.0182742
919.292	0.0181126
919.370	0.0181128
919.448	0.0183348
919.526	0.0182314
919.604	0.0180634
919.683	0.0180678
919.761	0.0181584
919.839	0.0181909
919.917	0.0180145
