06/03/2022	18:09:18	Ver.	4.1	UNKNOWN
Optical Delay	599.995081	Delta X		0.078125	Sweeps	1	Scan Rate	0/0
Coordinates	Axis 1	NaN	Axis 2	NaN	Axis 3	NaN	Axis 4	NaN	Axis 5	NaN	Axis 6	0.000000
TX Power	0.000000	RX Power	0.000000

599.995	0.0180360
600.073	0.0180593
600.151	0.0179379
600.229	0.0181170
600.308	0.0179407
600.386	0.0180393
600.464	0.0181451
600.542	0.0179507
600.620	0.0178107
600.698	0.0180635
600.776	0.0181159
600.854	0.0180189
600.933	0.0180482
601.011	0.0180807
601.089	0.0180774
601.167	0.0179771
601.245	0.0180840
601.323	0.0181212
601.401	0.0180619
601.479	0.0180273
601.558	0.0181186
601.636	0.0180687
601.714	0.0181075
601.792	0.0180965
601.870	0.0180732
601.948	0.0180043
602.026	0.0180152
602.104	0.0181831
602.183	0.0179765
602.261	0.0180521
602.339	0.0180565
602.417	0.0182042
602.495	0.0181059
602.573	0.0180605
602.651	0.0180236
602.729	0.0180535
602.808	0.0180257
602.886	0.0180859
602.964	0.0179418
603.042	0.0180186
603.120	0.0179893
603.198	0.0179666
603.276	0.0181286
603.354	0.0180566
603.433	0.0179262
603.511	0.0179826
603.589	0.0180603
603.667	0.0180935
603.745	0.0178915
603.823	0.0179543
603.901	0.0179224
603.979	0.0181136
604.058	0.0179627
604.136	0.0179012
604.214	0.0179287
604.292	0.0180627
604.370	0.0180902
604.448	0.0179796
604.526	0.0179692
604.604	0.0180021
604.683	0.0180492
604.761	0.0178989
604.839	0.0180726
604.917	0.0180106
604.995	0.0180652
605.073	0.0180903
605.151	0.0181338
605.229	0.0179459
605.308	0.0179876
605.386	0.0180169
605.464	0.0180880
605.542	0.0180147
605.620	0.0181247
605.698	0.0179772
605.776	0.0181650
605.854	0.0180133
605.933	0.0181152
606.011	0.0179459
606.089	0.0180259
606.167	0.0181022
606.245	0.0180607
606.323	0.0179784
606.401	0.0179580
606.479	0.0180401
606.558	0.0180667
606.636	0.0179517
606.714	0.0181629
606.792	0.0180843
606.870	0.0179966
606.948	0.0178643
607.026	0.0180741
607.104	0.0181644
607.183	0.0180009
607.261	0.0179944
607.339	0.0181297
607.417	0.0181538
607.495	0.0179891
607.573	0.0180252
607.651	0.0181305
607.729	0.0180274
607.808	0.0180698
607.886	0.0179813
607.964	0.0180514
608.042	0.0180908
608.120	0.0180933
608.198	0.0179581
608.276	0.0180528
608.354	0.0180048
608.433	0.0180707
608.511	0.0180456
608.589	0.0181401
608.667	0.0180246
608.745	0.0179642
608.823	0.0180359
608.901	0.0180315
608.979	0.0179546
609.058	0.0179509
609.136	0.0180485
609.214	0.0180666
609.292	0.0180721
609.370	0.0181289
609.448	0.0181337
609.526	0.0180466
609.604	0.0180824
609.683	0.0180651
609.761	0.0180534
609.839	0.0179705
609.917	0.0180741
609.995	0.0178976
610.073	0.0180232
610.151	0.0181007
610.229	0.0179821
610.308	0.0182178
610.386	0.0180742
610.464	0.0180203
610.542	0.0180484
610.620	0.0180804
610.698	0.0180983
610.776	0.0179220
610.854	0.0179857
610.933	0.0181232
611.011	0.0180870
611.089	0.0179815
611.167	0.0180116
611.245	0.0181269
611.323	0.0181429
611.401	0.0180355
611.479	0.0180738
611.558	0.0181168
611.636	0.0181097
611.714	0.0179899
611.792	0.0179327
611.870	0.0179331
611.948	0.0181808
612.026	0.0180415
612.104	0.0180260
612.183	0.0180240
612.261	0.0180753
612.339	0.0179977
612.417	0.0179828
612.495	0.0180620
612.573	0.0180241
612.651	0.0179898
612.729	0.0179939
612.808	0.0180301
612.886	0.0180198
612.964	0.0179920
613.042	0.0180375
613.120	0.0180963
613.198	0.0180354
613.276	0.0180481
613.354	0.0179862
613.433	0.0179055
613.511	0.0180227
613.589	0.0179876
613.667	0.0179465
613.745	0.0181793
613.823	0.0180069
613.901	0.0179578
613.979	0.0180037
614.058	0.0180804
614.136	0.0180514
614.214	0.0181108
614.292	0.0179673
614.370	0.0180300
614.448	0.0180759
614.526	0.0180376
614.604	0.0179252
614.683	0.0181600
614.761	0.0180872
614.839	0.0179662
614.917	0.0179807
614.995	0.0180101
615.073	0.0179733
615.151	0.0180429
615.229	0.0179572
615.308	0.0180775
615.386	0.0180714
615.464	0.0180157
615.542	0.0180264
615.620	0.0179633
615.698	0.0179785
615.776	0.0180170
615.854	0.0179803
615.933	0.0180863
616.011	0.0180946
616.089	0.0179731
616.167	0.0179992
616.245	0.0180740
616.323	0.0180272
616.401	0.0180280
616.479	0.0181001
616.558	0.0179704
616.636	0.0180106
616.714	0.0179513
616.792	0.0178510
616.870	0.0180267
616.948	0.0180184
617.026	0.0180202
617.104	0.0180764
617.183	0.0180580
617.261	0.0180931
617.339	0.0179856
617.417	0.0178815
617.495	0.0180155
617.573	0.0181311
617.651	0.0180170
617.729	0.0179626
617.808	0.0180771
617.886	0.0178768
617.964	0.0181287
618.042	0.0180116
618.120	0.0180729
618.198	0.0179999
618.276	0.0179790
618.354	0.0180763
618.433	0.0181335
618.511	0.0180241
618.589	0.0180141
618.667	0.0180595
618.745	0.0179107
618.823	0.0178663
618.901	0.0181255
618.979	0.0180211
619.058	0.0180426
619.136	0.0180888
619.214	0.0178761
619.292	0.0180316
619.370	0.0180784
619.448	0.0180794
619.526	0.0180872
619.604	0.0180515
619.683	0.0180549
619.761	0.0179320
619.839	0.0180575
619.917	0.0180772
619.995	0.0179372
620.073	0.0179599
620.151	0.0180030
620.229	0.0179821
620.308	0.0180724
620.386	0.0181549
620.464	0.0180216
620.542	0.0180648
620.620	0.0180099
620.698	0.0178896
620.776	0.0180429
620.854	0.0179799
620.933	0.0180832
621.011	0.0180729
621.089	0.0181855
621.167	0.0180870
621.245	0.0180656
621.323	0.0180472
621.401	0.0180727
621.479	0.0181723
621.558	0.0180452
621.636	0.0179618
621.714	0.0179984
621.792	0.0181092
621.870	0.0181474
621.948	0.0181400
622.026	0.0180235
622.104	0.0179478
622.183	0.0179948
622.261	0.0179473
622.339	0.0180431
622.417	0.0180770
622.495	0.0177802
622.573	0.0179044
622.651	0.0181114
622.729	0.0179691
622.808	0.0179629
622.886	0.0179677
622.964	0.0179529
623.042	0.0179703
623.120	0.0180487
623.198	0.0181890
623.276	0.0178308
623.354	0.0178851
623.433	0.0179796
623.511	0.0179828
623.589	0.0180750
623.667	0.0181560
623.745	0.0179836
623.823	0.0180453
623.901	0.0180769
623.979	0.0179532
624.058	0.0182240
624.136	0.0181657
624.214	0.0180798
624.292	0.0180928
624.370	0.0180809
624.448	0.0180553
624.526	0.0180801
624.604	0.0180315
624.683	0.0180520
624.761	0.0180579
624.839	0.0179505
624.917	0.0180260
624.995	0.0179650
625.073	0.0180267
625.151	0.0179600
625.229	0.0179715
625.308	0.0178475
625.386	0.0179415
625.464	0.0180582
625.542	0.0181020
625.620	0.0179224
625.698	0.0180896
625.776	0.0179501
625.854	0.0179089
625.933	0.0181515
626.011	0.0180280
626.089	0.0179974
626.167	0.0180862
626.245	0.0180003
626.323	0.0181030
626.401	0.0179913
626.479	0.0180352
626.558	0.0181903
626.636	0.0180482
626.714	0.0181810
626.792	0.0181457
626.870	0.0179803
626.948	0.0181448
627.026	0.0180381
627.104	0.0179980
627.183	0.0181755
627.261	0.0180854
627.339	0.0181129
627.417	0.0179343
627.495	0.0179562
627.573	0.0179542
627.651	0.0179311
627.729	0.0180910
627.808	0.0180087
627.886	0.0179980
627.964	0.0180923
628.042	0.0179806
628.120	0.0179742
628.198	0.0180447
628.276	0.0180083
628.354	0.0180537
628.433	0.0181274
628.511	0.0179250
628.589	0.0178960
628.667	0.0180310
628.745	0.0179869
628.823	0.0179205
628.901	0.0179668
628.979	0.0180255
629.058	0.0180840
629.136	0.0180535
629.214	0.0180220
629.292	0.0180605
629.370	0.0180337
629.448	0.0180180
629.526	0.0179897
629.604	0.0180402
629.683	0.0181419
629.761	0.0181052
629.839	0.0181055
629.917	0.0180470
629.995	0.0179721
630.073	0.0180408
630.151	0.0181010
630.229	0.0179227
630.308	0.0179527
630.386	0.0180749
630.464	0.0181303
630.542	0.0180309
630.620	0.0180334
630.698	0.0179458
630.776	0.0179663
630.854	0.0180563
630.933	0.0180531
631.011	0.0180531
631.089	0.0180476
631.167	0.0180592
631.245	0.0178606
631.323	0.0179938
631.401	0.0180378
631.479	0.0180413
631.558	0.0179729
631.636	0.0178476
631.714	0.0179991
631.792	0.0180481
631.870	0.0180348
631.948	0.0180958
632.026	0.0180368
632.104	0.0179192
632.183	0.0179832
632.261	0.0180545
632.339	0.0181413
632.417	0.0180126
632.495	0.0180057
632.573	0.0180222
632.651	0.0180203
632.729	0.0179510
632.808	0.0180444
632.886	0.0180212
632.964	0.0180125
633.042	0.0180065
633.120	0.0180133
633.198	0.0180861
633.276	0.0181308
633.354	0.0178736
633.433	0.0179298
633.511	0.0180638
633.589	0.0180170
633.667	0.0179876
633.745	0.0180006
633.823	0.0181390
633.901	0.0179709
633.979	0.0180414
634.058	0.0180338
634.136	0.0179225
634.214	0.0179688
634.292	0.0181157
634.370	0.0181594
634.448	0.0179994
634.526	0.0180527
634.604	0.0179900
634.683	0.0179439
634.761	0.0180148
634.839	0.0181237
634.917	0.0180738
634.995	0.0180964
635.073	0.0179036
635.151	0.0180262
635.229	0.0181146
635.308	0.0179607
635.386	0.0180016
635.464	0.0180567
635.542	0.0180288
635.620	0.0181179
635.698	0.0179903
635.776	0.0179834
635.854	0.0180939
635.933	0.0180453
636.011	0.0181483
636.089	0.0181507
636.167	0.0180131
636.245	0.0178991
636.323	0.0180420
636.401	0.0180422
636.479	0.0180601
636.558	0.0180655
636.636	0.0180439
636.714	0.0180595
636.792	0.0180080
636.870	0.0180316
636.948	0.0180162
637.026	0.0179430
637.104	0.0181622
637.183	0.0181663
637.261	0.0180268
637.339	0.0181438
637.417	0.0180269
637.495	0.0180067
637.573	0.0180087
637.651	0.0180823
637.729	0.0179843
637.808	0.0180206
637.886	0.0179591
637.964	0.0180055
638.042	0.0179820
638.120	0.0180450
638.198	0.0181042
638.276	0.0180920
638.354	0.0179005
638.433	0.0180978
638.511	0.0181210
638.589	0.0181054
638.667	0.0182227
638.745	0.0180155
638.823	0.0179363
638.901	0.0180796
638.979	0.0181149
639.058	0.0180763
639.136	0.0179878
639.214	0.0179679
639.292	0.0181122
639.370	0.0181435
639.448	0.0180571
639.526	0.0179521
639.604	0.0180395
639.683	0.0180102
639.761	0.0180409
639.839	0.0181016
639.917	0.0180489
639.995	0.0180200
640.073	0.0180667
640.151	0.0179409
640.229	0.0180702
640.308	0.0181319
640.386	0.0179827
640.464	0.0179736
640.542	0.0180295
640.620	0.0180831
640.698	0.0180367
640.776	0.0180099
640.854	0.0180546
640.933	0.0180028
641.011	0.0180159
641.089	0.0180450
641.167	0.0180366
641.245	0.0180406
641.323	0.0180615
641.401	0.0181982
641.479	0.0181103
641.558	0.0182085
641.636	0.0180846
641.714	0.0181277
641.792	0.0179753
641.870	0.0179887
641.948	0.0179523
642.026	0.0181202
642.104	0.0180721
642.183	0.0181234
642.261	0.0180095
642.339	0.0179564
642.417	0.0181131
642.495	0.0180424
642.573	0.0179412
642.651	0.0179525
642.729	0.0180025
642.808	0.0179903
642.886	0.0181454
642.964	0.0179477
643.042	0.0180753
643.120	0.0180016
643.198	0.0180515
643.276	0.0180967
643.354	0.0180685
643.433	0.0180143
643.511	0.0179994
643.589	0.0179963
643.667	0.0181067
643.745	0.0181113
643.823	0.0180111
643.901	0.0179330
643.979	0.0181262
644.058	0.0180377
644.136	0.0180605
644.214	0.0179892
644.292	0.0180472
644.370	0.0180866
644.448	0.0179427
644.526	0.0179697
644.604	0.0179834
644.683	0.0179973
644.761	0.0180258
644.839	0.0180021
644.917	0.0180005
644.995	0.0179878
645.073	0.0180157
645.151	0.0180221
645.229	0.0180657
645.308	0.0179890
645.386	0.0180462
645.464	0.0180115
645.542	0.0181135
645.620	0.0180240
645.698	0.0178639
645.776	0.0180471
645.854	0.0181179
645.933	0.0179810
646.011	0.0180509
646.089	0.0180800
646.167	0.0180544
646.245	0.0179461
646.323	0.0180239
646.401	0.0179762
646.479	0.0181792
646.558	0.0179012
646.636	0.0179876
646.714	0.0179194
646.792	0.0179503
646.870	0.0180191
646.948	0.0179607
647.026	0.0181157
647.104	0.0179954
647.183	0.0180213
647.261	0.0178997
647.339	0.0180698
647.417	0.0180630
647.495	0.0180750
647.573	0.0179419
647.651	0.0179301
647.729	0.0180476
647.808	0.0180860
647.886	0.0177535
647.964	0.0179633
648.042	0.0180373
648.120	0.0180941
648.198	0.0179909
648.276	0.0180338
648.354	0.0181092
648.433	0.0180372
648.511	0.0180896
648.589	0.0179713
648.667	0.0180294
648.745	0.0180595
648.823	0.0180623
648.901	0.0181065
648.979	0.0180457
649.058	0.0180807
649.136	0.0180703
649.214	0.0180992
649.292	0.0180247
649.370	0.0179846
649.448	0.0180257
649.526	0.0181419
649.604	0.0179877
649.683	0.0179575
649.761	0.0179037
649.839	0.0178627
649.917	0.0180117
649.995	0.0181181
650.073	0.0181130
650.151	0.0180823
650.229	0.0180311
650.308	0.0181133
650.386	0.0181240
650.464	0.0179638
650.542	0.0180578
650.620	0.0180400
650.698	0.0180380
650.776	0.0182777
650.854	0.0180973
650.933	0.0179539
651.011	0.0179676
651.089	0.0181143
651.167	0.0179403
651.245	0.0179352
651.323	0.0181070
651.401	0.0179540
651.479	0.0178644
651.558	0.0180360
651.636	0.0181767
651.714	0.0180045
651.792	0.0181032
651.870	0.0180331
651.948	0.0180477
652.026	0.0179916
652.104	0.0181371
652.183	0.0180297
652.261	0.0181348
652.339	0.0180112
652.417	0.0180067
652.495	0.0181945
652.573	0.0180225
652.651	0.0178933
652.729	0.0180885
652.808	0.0180694
652.886	0.0180402
652.964	0.0181239
653.042	0.0180487
653.120	0.0181169
653.198	0.0179716
653.276	0.0179994
653.354	0.0180803
653.433	0.0180350
653.511	0.0180698
653.589	0.0180120
653.667	0.0180312
653.745	0.0179617
653.823	0.0178910
653.901	0.0180621
653.979	0.0180112
654.058	0.0180871
654.136	0.0181011
654.214	0.0180712
654.292	0.0181837
654.370	0.0180053
654.448	0.0179428
654.526	0.0180412
654.604	0.0180481
654.683	0.0179742
654.761	0.0180377
654.839	0.0180154
654.917	0.0182101
654.995	0.0181957
655.073	0.0179450
655.151	0.0179859
655.229	0.0179493
655.308	0.0179578
655.386	0.0180113
655.464	0.0179297
655.542	0.0179483
655.620	0.0180000
655.698	0.0180495
655.776	0.0181026
655.854	0.0180502
655.933	0.0181056
656.011	0.0179656
656.089	0.0180427
656.167	0.0179293
656.245	0.0179757
656.323	0.0179752
656.401	0.0181762
656.479	0.0180515
656.558	0.0181636
656.636	0.0179668
656.714	0.0179405
656.792	0.0181491
656.870	0.0181095
656.948	0.0180831
657.026	0.0179777
657.104	0.0180303
657.183	0.0179617
657.261	0.0180585
657.339	0.0180984
657.417	0.0180978
657.495	0.0180580
657.573	0.0180581
657.651	0.0180165
657.729	0.0181308
657.808	0.0180997
657.886	0.0180991
657.964	0.0180372
658.042	0.0180074
658.120	0.0180680
658.198	0.0180376
658.276	0.0179810
658.354	0.0181264
658.433	0.0181416
658.511	0.0179552
658.589	0.0181756
658.667	0.0180007
658.745	0.0180080
658.823	0.0180279
658.901	0.0180891
658.979	0.0181639
659.058	0.0179699
659.136	0.0180899
659.214	0.0181647
659.292	0.0181316
659.370	0.0180345
659.448	0.0180662
659.526	0.0180267
659.604	0.0180226
659.683	0.0180235
659.761	0.0180335
659.839	0.0180946
659.917	0.0179302
659.995	0.0179694
660.073	0.0181516
660.151	0.0180635
660.229	0.0179147
660.308	0.0180013
660.386	0.0181194
660.464	0.0180170
660.542	0.0180985
660.620	0.0181509
660.698	0.0180598
660.776	0.0180571
660.854	0.0178706
660.933	0.0180977
661.011	0.0181913
661.089	0.0180707
661.167	0.0180048
661.245	0.0181268
661.323	0.0181203
661.401	0.0181490
661.479	0.0180830
661.558	0.0181532
661.636	0.0180735
661.714	0.0180602
661.792	0.0179304
661.870	0.0180951
661.948	0.0180025
662.026	0.0180599
662.104	0.0180215
662.183	0.0180328
662.261	0.0181041
662.339	0.0179090
662.417	0.0180003
662.495	0.0180944
662.573	0.0179957
662.651	0.0180374
662.729	0.0180959
662.808	0.0178912
662.886	0.0180959
662.964	0.0179218
663.042	0.0180757
663.120	0.0179832
663.198	0.0179854
663.276	0.0180695
663.354	0.0180179
663.433	0.0180372
663.511	0.0180256
663.589	0.0180482
663.667	0.0180312
663.745	0.0182319
663.823	0.0180670
663.901	0.0181680
663.979	0.0181707
664.058	0.0181707
664.136	0.0179715
664.214	0.0180557
664.292	0.0181256
664.370	0.0180129
664.448	0.0179550
664.526	0.0181429
664.604	0.0179076
664.683	0.0180919
664.761	0.0181052
664.839	0.0180000
664.917	0.0180442
664.995	0.0180172
665.073	0.0179898
665.151	0.0180840
665.229	0.0181519
665.308	0.0180656
665.386	0.0181211
665.464	0.0181437
665.542	0.0180614
665.620	0.0180428
665.698	0.0179575
665.776	0.0181276
665.854	0.0180773
665.933	0.0179239
666.011	0.0180109
666.089	0.0179944
666.167	0.0181288
666.245	0.0180429
666.323	0.0180853
666.401	0.0180607
666.479	0.0179662
666.558	0.0180872
666.636	0.0181374
666.714	0.0180182
666.792	0.0180235
666.870	0.0179903
666.948	0.0180909
667.026	0.0182231
667.104	0.0179121
667.183	0.0179986
667.261	0.0180917
667.339	0.0180006
667.417	0.0180427
667.495	0.0180791
667.573	0.0181592
667.651	0.0179988
667.729	0.0179497
667.808	0.0181350
667.886	0.0179878
667.964	0.0181432
668.042	0.0179965
668.120	0.0179198
668.198	0.0180349
668.276	0.0180479
668.354	0.0180444
668.433	0.0180836
668.511	0.0180135
668.589	0.0180181
668.667	0.0181252
668.745	0.0181378
668.823	0.0179610
668.901	0.0180586
668.979	0.0180178
669.058	0.0180651
669.136	0.0179889
669.214	0.0181546
669.292	0.0180664
669.370	0.0180955
669.448	0.0178794
669.526	0.0180259
669.604	0.0179659
669.683	0.0179859
669.761	0.0180431
669.839	0.0179417
669.917	0.0181139
669.995	0.0179919
670.073	0.0180923
670.151	0.0179134
670.229	0.0179772
670.308	0.0181091
670.386	0.0179402
670.464	0.0181181
670.542	0.0179689
670.620	0.0180805
670.698	0.0180280
670.776	0.0179910
670.854	0.0180695
670.933	0.0180454
671.011	0.0181513
671.089	0.0180478
671.167	0.0179624
671.245	0.0181233
671.323	0.0180049
671.401	0.0180383
671.479	0.0180928
671.558	0.0180344
671.636	0.0181300
671.714	0.0180234
671.792	0.0180533
671.870	0.0180083
671.948	0.0180511
672.026	0.0180765
672.104	0.0181080
672.183	0.0182294
672.261	0.0180844
672.339	0.0179501
672.417	0.0180103
672.495	0.0178561
672.573	0.0181178
672.651	0.0181037
672.729	0.0179756
672.808	0.0179756
672.886	0.0179801
672.964	0.0180760
673.042	0.0179376
673.120	0.0180174
673.198	0.0180540
673.276	0.0181139
673.354	0.0179884
673.433	0.0180911
673.511	0.0179022
673.589	0.0180309
673.667	0.0180197
673.745	0.0181528
673.823	0.0178816
673.901	0.0180121
673.979	0.0180485
674.058	0.0179707
674.136	0.0179578
674.214	0.0181012
674.292	0.0180364
674.370	0.0179314
674.448	0.0179470
674.526	0.0181279
674.604	0.0180711
674.683	0.0181281
674.761	0.0180968
674.839	0.0180236
674.917	0.0179679
674.995	0.0180943
675.073	0.0179150
675.151	0.0180470
675.229	0.0180553
675.308	0.0180093
675.386	0.0180381
675.464	0.0179865
675.542	0.0180460
675.620	0.0179162
675.698	0.0179574
675.776	0.0179740
675.854	0.0179253
675.933	0.0180716
676.011	0.0181245
676.089	0.0179852
676.167	0.0180236
676.245	0.0181673
676.323	0.0180794
676.401	0.0180509
676.479	0.0180465
676.558	0.0181157
676.636	0.0180260
676.714	0.0179715
676.792	0.0179927
676.870	0.0180449
676.948	0.0181300
677.026	0.0178563
677.104	0.0179717
677.183	0.0180747
677.261	0.0181113
677.339	0.0180460
677.417	0.0178972
677.495	0.0181633
677.573	0.0179420
677.651	0.0180598
677.729	0.0180215
677.808	0.0181399
677.886	0.0181226
677.964	0.0181149
678.042	0.0180697
678.120	0.0179600
678.198	0.0180785
678.276	0.0180900
678.354	0.0181082
678.433	0.0179601
678.511	0.0180963
678.589	0.0181044
678.667	0.0182171
678.745	0.0181716
678.823	0.0180608
678.901	0.0181171
678.979	0.0180250
679.058	0.0179782
679.136	0.0180399
679.214	0.0181122
679.292	0.0180682
679.370	0.0179539
679.448	0.0180891
679.526	0.0181063
679.604	0.0181027
679.683	0.0180164
679.761	0.0180177
679.839	0.0180975
679.917	0.0180295
679.995	0.0180585
680.073	0.0181303
680.151	0.0180340
680.229	0.0181453
680.308	0.0181162
680.386	0.0179311
680.464	0.0180563
680.542	0.0182153
680.620	0.0181452
680.698	0.0180574
680.776	0.0180962
680.854	0.0182076
680.933	0.0180318
681.011	0.0179396
681.089	0.0181866
681.167	0.0180733
681.245	0.0180862
681.323	0.0181012
681.401	0.0180288
681.479	0.0181695
681.558	0.0179950
681.636	0.0180419
681.714	0.0181092
681.792	0.0181981
681.870	0.0180338
681.948	0.0181389
682.026	0.0182074
682.104	0.0180430
682.183	0.0180650
682.261	0.0180254
682.339	0.0180344
682.417	0.0180835
682.495	0.0181173
682.573	0.0182051
682.651	0.0180608
682.729	0.0181737
682.808	0.0182390
682.886	0.0180486
682.964	0.0181696
683.042	0.0180176
683.120	0.0179512
683.198	0.0181461
683.276	0.0181995
683.354	0.0180429
683.433	0.0181805
683.511	0.0181871
683.589	0.0180730
683.667	0.0180245
683.745	0.0180476
683.823	0.0181110
683.901	0.0179871
683.979	0.0180881
684.058	0.0180977
684.136	0.0180583
684.214	0.0180144
684.292	0.0180965
684.370	0.0181447
684.448	0.0181278
684.526	0.0180505
684.604	0.0180466
684.683	0.0181473
684.761	0.0180275
684.839	0.0180721
684.917	0.0180688
684.995	0.0181400
685.073	0.0181049
685.151	0.0180450
685.229	0.0179506
685.308	0.0179613
685.386	0.0180672
685.464	0.0178812
685.542	0.0180752
685.620	0.0182191
685.698	0.0181541
685.776	0.0180720
685.854	0.0179228
685.933	0.0178695
686.011	0.0179911
686.089	0.0180136
686.167	0.0180543
686.245	0.0180093
686.323	0.0181073
686.401	0.0180877
686.479	0.0180608
686.558	0.0180921
686.636	0.0179913
686.714	0.0179424
686.792	0.0180122
686.870	0.0181352
686.948	0.0181052
687.026	0.0180253
687.104	0.0179568
687.183	0.0180737
687.261	0.0180261
687.339	0.0180161
687.417	0.0180263
687.495	0.0180737
687.573	0.0179803
687.651	0.0179211
687.729	0.0180076
687.808	0.0179975
687.886	0.0180325
687.964	0.0180076
688.042	0.0179533
688.120	0.0179906
688.198	0.0179520
688.276	0.0180453
688.354	0.0179856
688.433	0.0179077
688.511	0.0180207
688.589	0.0179733
688.667	0.0180307
688.745	0.0179672
688.823	0.0179770
688.901	0.0179439
688.979	0.0180598
689.058	0.0180241
689.136	0.0179408
689.214	0.0180315
689.292	0.0179900
689.370	0.0179498
689.448	0.0180363
689.526	0.0179572
689.604	0.0180672
689.683	0.0179684
689.761	0.0179157
689.839	0.0178502
689.917	0.0180626
689.995	0.0180006
690.073	0.0179478
690.151	0.0180046
690.229	0.0180283
690.308	0.0180385
690.386	0.0179501
690.464	0.0179974
690.542	0.0179386
690.620	0.0179616
690.698	0.0179145
690.776	0.0178674
690.854	0.0178708
690.933	0.0179335
691.011	0.0178957
691.089	0.0180299
691.167	0.0180585
691.245	0.0180263
691.323	0.0179002
691.401	0.0180512
691.479	0.0179712
691.558	0.0179390
691.636	0.0179704
691.714	0.0180498
691.792	0.0179527
691.870	0.0181507
691.948	0.0179860
692.026	0.0180223
692.104	0.0182110
692.183	0.0180608
692.261	0.0179896
692.339	0.0180450
692.417	0.0180399
692.495	0.0180627
692.573	0.0180346
692.651	0.0180212
692.729	0.0181095
692.808	0.0179443
692.886	0.0180168
692.964	0.0179015
693.042	0.0179660
693.120	0.0180217
693.198	0.0179470
693.276	0.0179296
693.354	0.0179662
693.433	0.0179197
693.511	0.0179193
693.589	0.0179074
693.667	0.0179949
693.745	0.0181057
693.823	0.0180366
693.901	0.0180891
693.979	0.0180886
694.058	0.0180215
694.136	0.0179521
694.214	0.0181204
694.292	0.0179526
694.370	0.0179222
694.448	0.0181256
694.526	0.0179889
694.604	0.0179137
694.683	0.0178421
694.761	0.0179066
694.839	0.0180762
694.917	0.0179807
694.995	0.0179343
695.073	0.0181150
695.151	0.0182082
695.229	0.0182251
695.308	0.0184070
695.386	0.0184649
695.464	0.0185139
695.542	0.0185393
695.620	0.0185802
695.698	0.0186655
695.776	0.0186253
695.854	0.0184834
695.933	0.0182539
696.011	0.0182162
696.089	0.0180062
696.167	0.0179178
696.245	0.0174519
696.323	0.0173289
696.401	0.0171584
696.479	0.0169715
696.558	0.0168231
696.636	0.0167574
696.714	0.0167860
696.792	0.0167953
696.870	0.0169003
696.948	0.0169218
697.026	0.0172159
697.104	0.0173833
697.183	0.0176250
697.261	0.0179889
697.339	0.0182982
697.417	0.0185744
697.495	0.0188570
697.573	0.0193805
697.651	0.0196819
697.729	0.0201553
697.808	0.0201471
697.886	0.0205036
697.964	0.0205893
698.042	0.0204731
698.120	0.0202177
698.198	0.0200716
698.276	0.0194756
698.354	0.0189805
698.433	0.0186130
698.511	0.0181544
698.589	0.0176996
698.667	0.0172061
698.745	0.0169135
698.823	0.0167474
698.901	0.0162327
698.979	0.0160387
699.058	0.0157723
699.136	0.0155236
699.214	0.0152375
699.292	0.0149706
699.370	0.0146982
699.448	0.0145359
699.526	0.0145393
699.604	0.0146428
699.683	0.0146510
699.761	0.0149922
699.839	0.0154216
699.917	0.0158223
699.995	0.0164716
700.073	0.0173300
700.151	0.0179827
700.229	0.0190203
700.308	0.0201216
700.386	0.0211414
700.464	0.0222357
700.542	0.0231899
700.620	0.0241191
700.698	0.0247572
700.776	0.0253599
700.854	0.0256464
700.933	0.0255646
701.011	0.0250501
701.089	0.0244247
701.167	0.0234418
701.245	0.0220988
701.323	0.0209186
701.401	0.0192529
701.479	0.0176431
701.558	0.0161681
701.636	0.0145892
701.714	0.0133643
701.792	0.0123013
701.870	0.0113739
701.948	0.0105493
702.026	0.00997955
702.104	0.00974228
702.183	0.00973625
702.261	0.00990433
702.339	0.0100879
702.417	0.0105511
702.495	0.0110497
702.573	0.0117052
702.651	0.0126530
702.729	0.0137244
702.808	0.0147937
702.886	0.0162582
702.964	0.0178565
703.042	0.0196954
703.120	0.0214915
703.198	0.0235361
703.276	0.0253761
703.354	0.0268656
703.433	0.0281870
703.511	0.0290359
703.589	0.0294115
703.667	0.0293301
703.745	0.0287960
703.823	0.0276647
703.901	0.0260979
703.979	0.0245492
704.058	0.0226885
704.136	0.0208240
704.214	0.0189028
704.292	0.0171700
704.370	0.0155284
704.448	0.0141892
704.526	0.0129777
704.604	0.0119767
704.683	0.0111685
704.761	0.0105307
704.839	0.00995651
704.917	0.00969780
704.995	0.00960640
705.073	0.00967690
705.151	0.00994156
705.229	0.0103407
705.308	0.0109992
705.386	0.0120663
705.464	0.0133164
705.542	0.0146993
705.620	0.0163671
705.698	0.0182516
705.776	0.0200277
705.854	0.0218549
705.933	0.0234055
706.011	0.0247003
706.089	0.0259114
706.167	0.0265579
706.245	0.0268413
706.323	0.0265624
706.401	0.0261523
706.479	0.0253357
706.558	0.0242969
706.636	0.0230562
706.714	0.0216304
706.792	0.0202164
706.870	0.0188797
706.948	0.0176529
707.026	0.0164404
707.104	0.0155438
707.183	0.0146312
707.261	0.0138777
707.339	0.0132621
707.417	0.0124796
707.495	0.0120937
707.573	0.0119115
707.651	0.0116364
707.729	0.0115095
707.808	0.0117564
707.886	0.0120426
707.964	0.0125477
708.042	0.0132615
708.120	0.0143460
708.198	0.0153630
708.276	0.0166409
708.354	0.0180544
708.433	0.0193396
708.511	0.0207452
708.589	0.0220850
708.667	0.0231902
708.745	0.0240699
708.823	0.0247883
708.901	0.0254070
708.979	0.0253062
709.058	0.0253693
709.136	0.0249609
709.214	0.0243326
709.292	0.0233464
709.370	0.0225579
709.448	0.0217371
709.526	0.0205030
709.604	0.0193822
709.683	0.0183584
709.761	0.0173866
709.839	0.0164727
709.917	0.0158429
709.995	0.0153566
710.073	0.0149691
710.151	0.0145351
710.229	0.0144304
710.308	0.0142674
710.386	0.0142921
710.464	0.0141738
710.542	0.0140150
710.620	0.0140971
710.698	0.0142204
710.776	0.0141738
710.854	0.0143958
710.933	0.0148430
711.011	0.0151487
711.089	0.0157016
711.167	0.0164363
711.245	0.0173616
711.323	0.0178826
711.401	0.0187902
711.479	0.0195569
711.558	0.0201225
711.636	0.0204439
711.714	0.0207175
711.792	0.0208045
711.870	0.0207546
711.948	0.0204316
712.026	0.0199937
712.104	0.0195168
712.183	0.0191512
712.261	0.0186634
712.339	0.0184643
712.417	0.0180969
712.495	0.0180245
712.573	0.0179297
712.651	0.0180064
712.729	0.0182606
712.808	0.0182888
712.886	0.0185488
712.964	0.0186927
713.042	0.0188721
713.120	0.0189960
713.198	0.0187746
713.276	0.0187007
713.354	0.0185621
713.433	0.0183492
713.511	0.0181559
713.589	0.0177742
713.667	0.0176495
713.745	0.0176255
713.823	0.0176319
713.901	0.0174205
713.979	0.0175681
714.058	0.0175155
714.136	0.0175885
714.214	0.0177692
714.292	0.0179062
714.370	0.0179177
714.448	0.0179261
714.526	0.0178374
714.604	0.0179316
714.683	0.0177821
714.761	0.0176682
714.839	0.0176119
714.917	0.0175331
714.995	0.0172636
715.073	0.0172070
715.151	0.0171516
715.229	0.0173190
715.308	0.0172314
715.386	0.0172301
715.464	0.0173460
715.542	0.0175942
715.620	0.0175940
715.698	0.0180214
715.776	0.0182288
715.854	0.0184447
715.933	0.0185355
716.011	0.0185298
716.089	0.0188094
716.167	0.0188127
716.245	0.0187016
716.323	0.0187031
716.401	0.0184837
716.479	0.0186192
716.558	0.0185287
716.636	0.0186351
716.714	0.0185904
716.792	0.0184666
716.870	0.0186411
716.948	0.0187745
717.026	0.0188179
717.104	0.0187598
717.183	0.0187291
717.261	0.0187464
717.339	0.0185256
717.417	0.0183179
717.495	0.0182955
717.573	0.0180584
717.651	0.0176742
717.729	0.0173195
717.808	0.0169282
717.886	0.0166073
717.964	0.0163723
718.042	0.0163338
718.120	0.0164977
718.198	0.0165826
718.276	0.0168488
718.354	0.0171317
718.433	0.0174321
718.511	0.0179185
718.589	0.0181073
718.667	0.0183334
718.745	0.0186505
718.823	0.0187633
718.901	0.0188355
718.979	0.0189407
719.058	0.0189935
719.136	0.0188992
719.214	0.0186896
719.292	0.0187119
719.370	0.0186208
719.448	0.0185343
719.526	0.0185316
719.604	0.0183926
719.683	0.0184182
719.761	0.0182960
719.839	0.0181203
719.917	0.0182415
719.995	0.0181472
720.073	0.0179804
720.151	0.0180226
720.229	0.0179031
720.308	0.0177322
720.386	0.0177386
720.464	0.0176445
720.542	0.0175301
720.620	0.0174994
720.698	0.0176427
720.776	0.0176295
720.854	0.0177695
720.933	0.0179665
721.011	0.0180843
721.089	0.0182032
721.167	0.0184038
721.245	0.0184838
721.323	0.0185812
721.401	0.0186627
721.479	0.0186384
721.558	0.0186639
721.636	0.0186390
721.714	0.0185427
721.792	0.0184222
721.870	0.0182396
721.948	0.0180251
722.026	0.0179459
722.104	0.0179125
722.183	0.0179571
722.261	0.0177198
722.339	0.0176427
722.417	0.0175486
722.495	0.0176445
722.573	0.0179752
722.651	0.0179723
722.729	0.0179109
722.808	0.0181631
722.886	0.0183040
722.964	0.0181927
723.042	0.0182551
723.120	0.0183163
723.198	0.0181802
723.276	0.0179882
723.354	0.0177056
723.433	0.0176463
723.511	0.0174123
723.589	0.0172020
723.667	0.0170688
723.745	0.0171317
723.823	0.0171322
723.901	0.0173466
723.979	0.0171336
724.058	0.0172391
724.136	0.0174262
724.214	0.0176086
724.292	0.0176809
724.370	0.0177434
724.448	0.0180559
724.526	0.0181086
724.604	0.0183945
724.683	0.0184998
724.761	0.0185851
724.839	0.0187441
724.917	0.0187939
724.995	0.0188464
725.073	0.0187754
725.151	0.0188392
725.229	0.0186931
725.308	0.0186401
725.386	0.0183907
725.464	0.0181863
725.542	0.0180830
725.620	0.0178455
725.698	0.0177158
725.776	0.0175433
725.854	0.0173543
725.933	0.0172884
726.011	0.0172343
726.089	0.0172523
726.167	0.0172710
726.245	0.0173437
726.323	0.0174867
726.401	0.0177106
726.479	0.0177653
726.558	0.0181361
726.636	0.0181833
726.714	0.0185126
726.792	0.0186172
726.870	0.0187151
726.948	0.0187659
727.026	0.0187677
727.104	0.0188110
727.183	0.0188477
727.261	0.0186450
727.339	0.0184168
727.417	0.0185097
727.495	0.0183119
727.573	0.0182536
727.651	0.0182310
727.729	0.0180158
727.808	0.0179416
727.886	0.0178938
727.964	0.0179105
728.042	0.0177740
728.120	0.0178628
728.198	0.0177081
728.276	0.0177163
728.354	0.0176775
728.433	0.0176630
728.511	0.0176370
728.589	0.0173773
728.667	0.0174108
728.745	0.0174226
728.823	0.0173327
728.901	0.0174510
728.979	0.0174118
729.058	0.0175632
729.136	0.0175935
729.214	0.0176537
729.292	0.0178999
729.370	0.0179837
729.448	0.0181682
729.526	0.0181853
729.604	0.0182359
729.683	0.0183834
729.761	0.0184611
729.839	0.0188184
729.917	0.0187753
729.995	0.0186896
730.073	0.0187207
730.151	0.0186765
730.229	0.0185649
730.308	0.0184848
730.386	0.0185400
730.464	0.0183555
730.542	0.0183810
730.620	0.0182767
730.698	0.0180270
730.776	0.0179132
730.854	0.0177538
730.933	0.0177333
731.011	0.0175679
731.089	0.0175515
731.167	0.0174545
731.245	0.0171999
731.323	0.0172164
731.401	0.0172385
731.479	0.0173493
731.558	0.0172400
731.636	0.0171685
731.714	0.0172247
731.792	0.0174668
731.870	0.0175386
731.948	0.0176897
732.026	0.0179535
732.104	0.0182091
732.183	0.0184463
732.261	0.0185557
732.339	0.0186971
732.417	0.0188226
732.495	0.0190411
732.573	0.0191862
732.651	0.0187939
732.729	0.0190134
732.808	0.0190565
732.886	0.0189281
732.964	0.0189673
733.042	0.0187962
733.120	0.0186125
733.198	0.0185969
733.276	0.0183846
733.354	0.0182217
733.433	0.0180312
733.511	0.0181173
733.589	0.0178012
733.667	0.0176893
733.745	0.0174926
733.823	0.0173547
733.901	0.0172818
733.979	0.0170588
734.058	0.0170712
734.136	0.0171567
734.214	0.0172942
734.292	0.0172424
734.370	0.0174033
734.448	0.0174562
734.526	0.0176527
734.604	0.0179179
734.683	0.0179036
734.761	0.0181311
734.839	0.0182195
734.917	0.0185329
734.995	0.0185023
735.073	0.0184593
735.151	0.0183626
735.229	0.0184652
735.308	0.0183193
735.386	0.0183178
735.464	0.0183501
735.542	0.0184167
735.620	0.0185202
735.698	0.0184917
735.776	0.0184602
735.854	0.0186805
735.933	0.0185159
736.011	0.0185836
736.089	0.0186477
736.167	0.0183846
736.245	0.0184991
736.323	0.0183311
736.401	0.0181005
736.479	0.0180287
736.558	0.0179011
736.636	0.0177373
736.714	0.0176024
736.792	0.0173871
736.870	0.0173017
736.948	0.0171433
737.026	0.0172021
737.104	0.0171599
737.183	0.0171794
737.261	0.0172313
737.339	0.0174205
737.417	0.0176044
737.495	0.0176421
737.573	0.0179239
737.651	0.0179858
737.729	0.0182700
737.808	0.0183511
737.886	0.0185731
737.964	0.0186489
738.042	0.0186517
738.120	0.0187683
738.198	0.0189616
738.276	0.0188067
738.354	0.0187256
738.433	0.0187171
738.511	0.0187688
738.589	0.0186046
738.667	0.0185124
738.745	0.0185365
738.823	0.0183004
738.901	0.0181505
738.979	0.0181025
739.058	0.0180023
739.136	0.0179131
739.214	0.0176756
739.292	0.0175531
739.370	0.0174162
739.448	0.0172770
739.526	0.0173511
739.604	0.0173175
739.683	0.0172374
739.761	0.0172866
739.839	0.0174190
739.917	0.0177086
739.995	0.0177586
740.073	0.0179266
740.151	0.0181541
740.229	0.0181725
740.308	0.0183635
740.386	0.0184795
740.464	0.0186202
740.542	0.0186208
740.620	0.0186992
740.698	0.0186837
740.776	0.0186932
740.854	0.0186311
740.933	0.0187147
741.011	0.0187438
741.089	0.0185657
741.167	0.0187190
741.245	0.0187820
741.323	0.0186703
741.401	0.0185175
741.479	0.0185656
741.558	0.0183958
741.636	0.0182548
741.714	0.0181356
741.792	0.0181058
741.870	0.0180174
741.948	0.0178893
742.026	0.0177162
742.104	0.0176663
742.183	0.0176888
742.261	0.0177437
742.339	0.0177871
742.417	0.0176968
742.495	0.0178954
742.573	0.0175539
742.651	0.0178288
742.729	0.0177754
742.808	0.0176731
742.886	0.0177128
742.964	0.0178778
743.042	0.0177480
743.120	0.0176749
743.198	0.0177685
743.276	0.0178093
743.354	0.0179696
743.433	0.0181238
743.511	0.0180118
743.589	0.0181027
743.667	0.0182716
743.745	0.0182800
743.823	0.0185206
743.901	0.0184260
743.979	0.0185896
744.058	0.0184704
744.136	0.0184022
744.214	0.0183552
744.292	0.0181933
744.370	0.0182827
744.448	0.0181106
744.526	0.0181699
744.604	0.0179570
744.683	0.0178097
744.761	0.0179419
744.839	0.0179249
744.917	0.0177547
744.995	0.0176468
745.073	0.0176421
745.151	0.0179139
745.229	0.0178202
745.308	0.0179091
745.386	0.0177891
745.464	0.0179047
745.542	0.0179193
745.620	0.0180769
745.698	0.0181227
745.776	0.0181144
745.854	0.0180923
745.933	0.0180194
746.011	0.0179017
746.089	0.0180788
746.167	0.0180986
746.245	0.0179950
746.323	0.0180134
746.401	0.0181453
746.479	0.0183484
746.558	0.0182912
746.636	0.0182141
746.714	0.0183726
746.792	0.0185027
746.870	0.0185105
746.948	0.0183736
747.026	0.0183846
747.104	0.0183184
747.183	0.0182143
747.261	0.0180663
747.339	0.0179861
747.417	0.0180209
747.495	0.0178622
747.573	0.0177534
747.651	0.0177441
747.729	0.0178513
747.808	0.0177879
747.886	0.0179193
747.964	0.0178064
748.042	0.0177906
748.120	0.0179128
748.198	0.0179723
748.276	0.0180019
748.354	0.0181345
748.433	0.0180787
748.511	0.0182615
748.589	0.0183408
748.667	0.0182494
748.745	0.0183313
748.823	0.0184421
748.901	0.0185544
748.979	0.0184013
749.058	0.0183904
749.136	0.0183846
749.214	0.0184234
749.292	0.0182476
749.370	0.0183442
749.448	0.0180810
749.526	0.0180080
749.604	0.0179948
749.683	0.0178644
749.761	0.0178377
749.839	0.0176910
749.917	0.0177181
749.995	0.0175002
750.073	0.0176266
750.151	0.0174738
750.229	0.0176509
750.308	0.0176206
750.386	0.0174416
750.464	0.0176746
750.542	0.0176317
750.620	0.0177547
750.698	0.0178604
750.776	0.0177338
750.854	0.0176591
750.933	0.0176445
751.011	0.0178706
751.089	0.0178194
751.167	0.0177917
751.245	0.0178241
751.323	0.0178980
751.401	0.0179242
751.479	0.0178971
751.558	0.0180573
751.636	0.0182461
751.714	0.0183480
751.792	0.0182652
751.870	0.0182324
751.948	0.0184958
752.026	0.0185682
752.104	0.0185973
752.183	0.0185698
752.261	0.0185867
752.339	0.0186679
752.417	0.0184572
752.495	0.0184653
752.573	0.0183742
752.651	0.0182500
752.729	0.0183115
752.808	0.0180885
752.886	0.0180624
752.964	0.0181291
753.042	0.0179140
753.120	0.0178465
753.198	0.0178590
753.276	0.0176706
753.354	0.0178333
753.433	0.0176639
753.511	0.0178300
753.589	0.0178664
753.667	0.0178539
753.745	0.0177186
753.823	0.0177998
753.901	0.0179141
753.979	0.0178883
754.058	0.0179520
754.136	0.0178517
754.214	0.0179115
754.292	0.0179195
754.370	0.0180796
754.448	0.0180024
754.526	0.0180573
754.604	0.0180471
754.683	0.0180637
754.761	0.0181688
754.839	0.0181559
754.917	0.0180524
754.995	0.0180282
755.073	0.0180221
755.151	0.0179752
755.229	0.0180170
755.308	0.0179754
755.386	0.0178146
755.464	0.0177751
755.542	0.0178521
755.620	0.0178824
755.698	0.0178431
755.776	0.0177321
755.854	0.0180199
755.933	0.0179872
756.011	0.0178722
756.089	0.0179279
756.167	0.0180207
756.245	0.0179680
756.323	0.0181696
756.401	0.0179585
756.479	0.0180574
756.558	0.0180115
756.636	0.0181829
756.714	0.0181183
756.792	0.0180830
756.870	0.0180726
756.948	0.0183295
757.026	0.0182931
757.104	0.0181323
757.183	0.0181412
757.261	0.0182678
757.339	0.0183257
757.417	0.0182543
757.495	0.0183633
757.573	0.0182299
757.651	0.0183398
757.729	0.0183061
757.808	0.0181800
757.886	0.0183621
757.964	0.0180759
758.042	0.0180497
758.120	0.0179948
758.198	0.0179185
758.276	0.0179495
758.354	0.0177696
758.433	0.0178487
758.511	0.0178268
758.589	0.0177832
758.667	0.0178463
758.745	0.0177905
758.823	0.0177670
758.901	0.0177440
758.979	0.0179739
759.058	0.0179700
759.136	0.0179574
759.214	0.0179536
759.292	0.0180692
759.370	0.0181215
759.448	0.0180837
759.526	0.0180877
759.604	0.0182487
759.683	0.0184560
759.761	0.0185162
759.839	0.0183927
759.917	0.0183479
759.995	0.0183315
760.073	0.0182108
760.151	0.0182657
760.229	0.0182467
760.308	0.0182014
760.386	0.0182346
760.464	0.0182401
760.542	0.0180243
760.620	0.0181392
760.698	0.0179967
760.776	0.0179935
760.854	0.0179923
760.933	0.0178701
761.011	0.0178024
761.089	0.0180408
761.167	0.0179728
761.245	0.0181515
761.323	0.0180850
761.401	0.0178402
761.479	0.0178596
761.558	0.0180117
761.636	0.0181821
761.714	0.0179816
761.792	0.0179298
761.870	0.0181258
761.948	0.0180949
762.026	0.0181585
762.104	0.0180594
762.183	0.0182922
762.261	0.0182854
762.339	0.0181549
762.417	0.0182004
762.495	0.0182716
762.573	0.0182666
762.651	0.0182316
762.729	0.0181121
762.808	0.0183646
762.886	0.0181045
762.964	0.0179861
763.042	0.0180461
763.120	0.0181425
763.198	0.0179564
763.276	0.0177977
763.354	0.0178524
763.433	0.0178004
763.511	0.0178427
763.589	0.0177778
763.667	0.0176343
763.745	0.0177322
763.823	0.0178570
763.901	0.0178360
763.979	0.0178499
764.058	0.0180262
764.136	0.0180125
764.214	0.0178817
764.292	0.0179859
764.370	0.0180274
764.448	0.0181879
764.526	0.0182866
764.604	0.0181423
764.683	0.0180933
764.761	0.0181702
764.839	0.0180726
764.917	0.0183849
764.995	0.0185217
765.073	0.0185283
765.151	0.0186008
765.229	0.0187415
765.308	0.0185880
765.386	0.0185229
765.464	0.0184464
765.542	0.0185459
765.620	0.0183321
765.698	0.0182677
765.776	0.0182425
765.854	0.0182723
765.933	0.0181465
766.011	0.0179385
766.089	0.0179032
766.167	0.0177904
766.245	0.0178191
766.323	0.0176309
766.401	0.0176567
766.479	0.0175879
766.558	0.0175977
766.636	0.0176070
766.714	0.0176198
766.792	0.0174924
766.870	0.0177190
766.948	0.0177172
767.026	0.0177476
767.104	0.0178664
767.183	0.0177879
767.261	0.0179128
767.339	0.0179816
767.417	0.0182702
767.495	0.0180507
767.573	0.0182449
767.651	0.0183694
767.729	0.0182341
767.808	0.0184850
767.886	0.0184878
767.964	0.0185133
768.042	0.0186006
768.120	0.0186231
768.198	0.0184525
768.276	0.0185210
768.354	0.0183621
768.433	0.0184100
768.511	0.0183051
768.589	0.0181935
768.667	0.0181860
768.745	0.0180732
768.823	0.0179656
768.901	0.0179443
768.979	0.0177929
769.058	0.0177565
769.136	0.0177673
769.214	0.0177769
769.292	0.0176370
769.370	0.0177997
769.448	0.0177106
769.526	0.0177728
769.604	0.0178095
769.683	0.0178178
769.761	0.0179275
769.839	0.0178848
769.917	0.0179278
769.995	0.0180671
770.073	0.0181398
770.151	0.0183235
770.229	0.0183633
770.308	0.0182915
770.386	0.0182569
770.464	0.0183423
770.542	0.0183678
770.620	0.0183192
770.698	0.0182425
770.776	0.0183676
770.854	0.0183779
770.933	0.0181077
771.011	0.0179971
771.089	0.0180512
771.167	0.0179352
771.245	0.0177345
771.323	0.0175845
771.401	0.0176093
771.479	0.0175234
771.558	0.0175849
771.636	0.0176201
771.714	0.0175079
771.792	0.0175674
771.870	0.0176214
771.948	0.0176592
772.026	0.0177425
772.104	0.0177686
772.183	0.0179510
772.261	0.0180572
772.339	0.0182310
772.417	0.0182294
772.495	0.0181190
772.573	0.0181219
772.651	0.0183411
772.729	0.0184836
772.808	0.0184911
772.886	0.0185032
772.964	0.0183696
773.042	0.0184312
773.120	0.0184410
773.198	0.0184991
773.276	0.0185229
773.354	0.0183746
773.433	0.0182758
773.511	0.0183847
773.589	0.0183506
773.667	0.0184010
773.745	0.0181533
773.823	0.0179929
773.901	0.0179340
773.979	0.0178288
774.058	0.0176867
774.136	0.0177370
774.214	0.0176242
774.292	0.0175662
774.370	0.0174541
774.448	0.0175560
774.526	0.0177749
774.604	0.0177210
774.683	0.0176819
774.761	0.0177048
774.839	0.0177468
774.917	0.0178269
774.995	0.0178487
775.073	0.0180244
775.151	0.0180011
775.229	0.0181075
775.308	0.0179971
775.386	0.0180647
775.464	0.0181343
775.542	0.0182807
775.620	0.0182863
775.698	0.0183275
775.776	0.0182077
775.854	0.0183000
775.933	0.0183719
776.011	0.0181500
776.089	0.0181731
776.167	0.0181988
776.245	0.0181829
776.323	0.0180936
776.401	0.0180313
776.479	0.0178924
776.558	0.0179648
776.636	0.0179246
776.714	0.0177864
776.792	0.0178001
776.870	0.0178661
776.948	0.0178075
777.026	0.0178254
777.104	0.0177610
777.183	0.0178552
777.261	0.0177502
777.339	0.0178603
777.417	0.0178341
777.495	0.0179453
777.573	0.0180959
777.651	0.0180727
777.729	0.0180262
777.808	0.0180399
777.886	0.0181281
777.964	0.0181375
778.042	0.0183637
778.120	0.0183699
778.198	0.0183839
778.276	0.0183029
778.354	0.0183323
778.433	0.0183582
778.511	0.0184867
778.589	0.0184329
778.667	0.0183191
778.745	0.0182161
778.823	0.0182539
778.901	0.0182091
778.979	0.0182929
779.058	0.0181541
779.136	0.0181348
779.214	0.0180398
779.292	0.0178868
779.370	0.0179781
779.448	0.0179382
779.526	0.0178542
779.604	0.0179546
779.683	0.0180476
779.761	0.0179205
779.839	0.0179555
779.917	0.0177822
779.995	0.0178752
780.073	0.0181081
780.151	0.0180389
780.229	0.0182163
780.308	0.0181097
780.386	0.0180167
780.464	0.0180125
780.542	0.0181104
780.620	0.0179881
780.698	0.0181355
780.776	0.0180925
780.854	0.0180058
780.933	0.0180022
781.011	0.0179536
781.089	0.0181664
781.167	0.0181368
781.245	0.0180542
781.323	0.0180331
781.401	0.0181183
781.479	0.0180018
781.558	0.0180729
781.636	0.0179571
781.714	0.0179040
781.792	0.0180451
781.870	0.0179982
781.948	0.0179735
782.026	0.0178860
782.104	0.0178239
782.183	0.0180146
782.261	0.0180481
782.339	0.0178862
782.417	0.0178970
782.495	0.0181065
782.573	0.0181451
782.651	0.0181704
782.729	0.0180460
782.808	0.0180347
782.886	0.0181534
782.964	0.0180351
783.042	0.0180141
783.120	0.0179769
783.198	0.0178963
783.276	0.0179195
783.354	0.0179350
783.433	0.0179214
783.511	0.0178897
783.589	0.0177969
783.667	0.0180260
783.745	0.0179458
783.823	0.0179803
783.901	0.0179292
783.979	0.0177533
784.058	0.0178604
784.136	0.0179571
784.214	0.0180594
784.292	0.0179324
784.370	0.0179931
784.448	0.0179308
784.526	0.0180344
784.604	0.0179580
784.683	0.0178666
784.761	0.0181170
784.839	0.0182340
784.917	0.0181701
784.995	0.0182169
785.073	0.0182597
785.151	0.0181922
785.229	0.0183665
785.308	0.0184968
785.386	0.0186034
785.464	0.0183856
785.542	0.0184112
785.620	0.0182442
785.698	0.0183246
785.776	0.0182399
785.854	0.0181543
785.933	0.0181549
786.011	0.0182543
786.089	0.0181786
786.167	0.0180411
786.245	0.0181178
786.323	0.0180962
786.401	0.0181880
786.479	0.0180123
786.558	0.0179076
786.636	0.0179281
786.714	0.0179111
786.792	0.0178072
786.870	0.0179456
786.948	0.0179446
787.026	0.0177912
787.104	0.0178484
787.183	0.0179198
787.261	0.0179180
787.339	0.0178961
787.417	0.0179861
787.495	0.0180260
787.573	0.0180657
787.651	0.0180624
787.729	0.0181190
787.808	0.0182454
787.886	0.0183689
787.964	0.0183469
788.042	0.0183148
788.120	0.0182059
788.198	0.0183150
788.276	0.0181916
788.354	0.0182679
788.433	0.0181735
788.511	0.0181124
788.589	0.0179305
788.667	0.0180372
788.745	0.0181003
788.823	0.0179707
788.901	0.0180576
788.979	0.0179484
789.058	0.0179668
789.136	0.0178444
789.214	0.0177731
789.292	0.0177467
789.370	0.0179161
789.448	0.0178034
789.526	0.0178222
789.604	0.0178826
789.683	0.0178195
789.761	0.0179454
789.839	0.0178501
789.917	0.0181173
789.995	0.0180181
790.073	0.0181699
790.151	0.0180779
790.229	0.0181924
790.308	0.0181251
790.386	0.0182545
790.464	0.0183234
790.542	0.0182307
790.620	0.0183907
790.698	0.0184300
790.776	0.0182356
790.854	0.0183527
790.933	0.0183652
791.011	0.0184014
791.089	0.0182567
791.167	0.0182574
791.245	0.0182790
791.323	0.0179917
791.401	0.0181499
791.479	0.0181506
791.558	0.0180875
791.636	0.0179301
791.714	0.0178957
791.792	0.0177496
791.870	0.0177672
791.948	0.0179009
792.026	0.0178123
792.104	0.0178284
792.183	0.0179147
792.261	0.0178992
792.339	0.0178854
792.417	0.0177493
792.495	0.0178654
792.573	0.0179581
792.651	0.0180793
792.729	0.0180635
792.808	0.0179604
792.886	0.0180904
792.964	0.0180874
793.042	0.0180796
793.120	0.0182043
793.198	0.0182163
793.276	0.0181866
793.354	0.0182675
793.433	0.0182191
793.511	0.0182278
793.589	0.0182610
793.667	0.0181757
793.745	0.0181911
793.823	0.0181796
793.901	0.0180746
793.979	0.0181006
794.058	0.0179682
794.136	0.0179531
794.214	0.0179512
794.292	0.0181393
794.370	0.0180714
794.448	0.0179505
794.526	0.0180795
794.604	0.0179575
794.683	0.0180087
794.761	0.0180252
794.839	0.0179213
794.917	0.0178790
794.995	0.0179600
795.073	0.0178883
795.151	0.0178830
795.229	0.0178328
795.308	0.0178616
795.386	0.0178441
795.464	0.0179176
795.542	0.0179288
795.620	0.0178767
795.698	0.0179042
795.776	0.0179464
795.854	0.0179871
795.933	0.0178188
796.011	0.0179534
796.089	0.0178716
796.167	0.0178921
796.245	0.0179695
796.323	0.0179458
796.401	0.0179543
796.479	0.0179729
796.558	0.0178917
796.636	0.0179665
796.714	0.0179859
796.792	0.0179986
796.870	0.0180110
796.948	0.0181537
797.026	0.0180967
797.104	0.0180721
797.183	0.0181770
797.261	0.0181552
797.339	0.0181530
797.417	0.0183031
797.495	0.0182491
797.573	0.0182323
797.651	0.0182982
797.729	0.0183339
797.808	0.0182418
797.886	0.0182122
797.964	0.0181871
798.042	0.0183176
798.120	0.0180305
798.198	0.0180851
798.276	0.0180354
798.354	0.0180096
798.433	0.0179078
798.511	0.0178796
798.589	0.0178400
798.667	0.0178206
798.745	0.0175926
798.823	0.0175304
798.901	0.0175703
798.979	0.0176020
799.058	0.0175948
799.136	0.0174773
799.214	0.0174754
799.292	0.0177364
799.370	0.0177863
799.448	0.0179401
799.526	0.0180065
799.604	0.0181685
799.683	0.0181332
799.761	0.0181833
799.839	0.0184060
799.917	0.0183652
799.995	0.0183721
800.073	0.0184308
800.151	0.0186476
800.229	0.0184967
800.308	0.0186140
800.386	0.0186762
800.464	0.0184594
800.542	0.0183615
800.620	0.0185590
800.698	0.0184746
800.776	0.0184327
800.854	0.0184579
800.933	0.0182883
801.011	0.0183117
801.089	0.0180450
801.167	0.0180518
801.245	0.0179647
801.323	0.0178519
801.401	0.0177932
801.479	0.0176888
801.558	0.0175796
801.636	0.0175453
801.714	0.0173839
801.792	0.0175711
801.870	0.0174757
801.948	0.0175657
802.026	0.0175907
802.104	0.0174905
802.183	0.0175809
802.261	0.0178332
802.339	0.0178168
802.417	0.0177457
802.495	0.0180503
802.573	0.0180648
802.651	0.0181695
802.729	0.0181238
802.808	0.0181577
802.886	0.0183849
802.964	0.0184301
803.042	0.0184523
803.120	0.0184225
803.198	0.0185270
803.276	0.0184647
803.354	0.0185722
803.433	0.0183926
803.511	0.0186170
803.589	0.0184087
803.667	0.0184665
803.745	0.0182751
803.823	0.0182859
803.901	0.0183349
803.979	0.0182185
804.058	0.0181519
804.136	0.0180099
804.214	0.0179282
804.292	0.0178848
804.370	0.0176409
804.448	0.0177036
804.526	0.0176102
804.604	0.0176084
804.683	0.0174610
804.761	0.0175912
804.839	0.0176056
804.917	0.0175663
804.995	0.0175626
805.073	0.0176125
805.151	0.0175758
805.229	0.0175915
805.308	0.0176320
805.386	0.0177946
805.464	0.0179068
805.542	0.0178965
805.620	0.0179336
805.698	0.0180264
805.776	0.0181487
805.854	0.0181718
805.933	0.0183126
806.011	0.0184758
806.089	0.0184934
806.167	0.0185461
806.245	0.0186418
806.323	0.0185682
806.401	0.0185452
806.479	0.0186889
806.558	0.0186143
806.636	0.0186431
806.714	0.0185304
806.792	0.0184454
806.870	0.0184631
806.948	0.0183675
807.026	0.0183820
807.104	0.0180242
807.183	0.0179343
807.261	0.0178243
807.339	0.0178916
807.417	0.0178409
807.495	0.0176467
807.573	0.0176450
807.651	0.0174918
807.729	0.0174496
807.808	0.0175684
807.886	0.0174423
807.964	0.0176019
808.042	0.0175459
808.120	0.0176170
808.198	0.0176240
808.276	0.0176803
808.354	0.0178712
808.433	0.0178957
808.511	0.0178836
808.589	0.0180814
808.667	0.0182964
808.745	0.0183457
808.823	0.0182935
808.901	0.0183846
808.979	0.0184684
809.058	0.0184620
809.136	0.0184093
809.214	0.0183424
809.292	0.0184247
809.370	0.0184987
809.448	0.0183717
809.526	0.0182817
809.604	0.0182394
809.683	0.0181370
809.761	0.0182434
809.839	0.0180185
809.917	0.0181937
809.995	0.0180562
810.073	0.0179676
810.151	0.0179507
810.229	0.0180980
810.308	0.0180836
810.386	0.0181483
810.464	0.0180534
810.542	0.0179449
810.620	0.0180618
810.698	0.0181336
810.776	0.0180229
810.854	0.0179209
810.933	0.0180507
811.011	0.0181400
811.089	0.0180552
811.167	0.0181214
811.245	0.0181203
811.323	0.0180546
811.401	0.0178730
811.479	0.0181631
811.558	0.0179945
811.636	0.0180706
811.714	0.0179720
811.792	0.0180421
811.870	0.0181027
811.948	0.0179313
812.026	0.0178957
812.104	0.0179417
812.183	0.0178237
812.261	0.0179906
812.339	0.0179454
812.417	0.0178478
812.495	0.0179263
812.573	0.0179260
812.651	0.0179655
812.729	0.0179541
812.808	0.0181304
812.886	0.0182387
812.964	0.0181474
813.042	0.0180966
813.120	0.0183431
813.198	0.0183267
813.276	0.0182186
813.354	0.0181795
813.433	0.0182186
813.511	0.0182260
813.589	0.0182344
813.667	0.0182574
813.745	0.0181887
813.823	0.0182780
813.901	0.0181412
813.979	0.0181409
814.058	0.0180521
814.136	0.0179356
814.214	0.0179115
814.292	0.0179539
814.370	0.0180060
814.448	0.0179102
814.526	0.0179902
814.604	0.0178607
814.683	0.0177843
814.761	0.0176935
814.839	0.0176719
814.917	0.0178273
814.995	0.0178788
815.073	0.0178482
815.151	0.0178876
815.229	0.0176855
815.308	0.0178796
815.386	0.0179874
815.464	0.0180663
815.542	0.0181315
815.620	0.0181699
815.698	0.0180708
815.776	0.0180910
815.854	0.0180949
815.933	0.0182827
816.011	0.0182438
816.089	0.0183102
816.167	0.0182587
816.245	0.0183359
816.323	0.0183458
816.401	0.0182717
816.479	0.0182285
816.558	0.0183230
816.636	0.0180659
816.714	0.0180962
816.792	0.0180763
816.870	0.0180642
816.948	0.0179469
817.026	0.0180573
817.104	0.0178932
817.183	0.0178762
817.261	0.0178622
817.339	0.0177073
817.417	0.0176396
817.495	0.0175191
817.573	0.0176785
817.651	0.0177092
817.729	0.0176428
817.808	0.0176083
817.886	0.0175707
817.964	0.0176419
818.042	0.0177457
818.120	0.0177840
818.198	0.0180359
818.276	0.0178342
818.354	0.0181796
818.433	0.0183449
818.511	0.0182507
818.589	0.0181701
818.667	0.0183483
818.745	0.0183711
818.823	0.0184428
818.901	0.0184142
818.979	0.0185572
819.058	0.0184216
819.136	0.0184422
819.214	0.0184142
819.292	0.0182774
819.370	0.0182708
819.448	0.0182574
819.526	0.0181271
819.604	0.0180846
819.683	0.0179303
819.761	0.0179850
819.839	0.0179562
819.917	0.0178108
819.995	0.0177043
820.073	0.0177781
820.151	0.0175802
820.229	0.0175513
820.308	0.0176395
820.386	0.0176310
820.464	0.0175318
820.542	0.0176820
820.620	0.0176966
820.698	0.0177197
820.776	0.0176993
820.854	0.0177174
820.933	0.0178093
821.011	0.0179158
821.089	0.0180651
821.167	0.0180427
821.245	0.0182147
821.323	0.0182497
821.401	0.0183054
821.479	0.0184717
821.558	0.0183251
821.636	0.0184329
821.714	0.0185935
821.792	0.0183824
821.870	0.0185224
821.948	0.0184249
822.026	0.0183244
822.104	0.0183016
822.183	0.0183988
822.261	0.0182342
822.339	0.0179985
822.417	0.0179591
822.495	0.0180249
822.573	0.0177840
822.651	0.0178548
822.729	0.0178288
822.808	0.0178350
822.886	0.0176537
822.964	0.0175999
823.042	0.0176419
823.120	0.0177871
823.198	0.0176482
823.276	0.0177805
823.354	0.0177383
823.433	0.0178525
823.511	0.0179243
823.589	0.0180944
823.667	0.0180456
823.745	0.0180318
823.823	0.0181474
823.901	0.0182055
823.979	0.0184081
824.058	0.0183916
824.136	0.0183424
824.214	0.0183388
824.292	0.0184335
824.370	0.0183949
824.448	0.0183897
824.526	0.0184396
824.604	0.0181715
824.683	0.0180902
824.761	0.0182006
824.839	0.0181617
824.917	0.0181087
824.995	0.0179879
825.073	0.0178322
825.151	0.0179668
825.229	0.0179465
825.308	0.0180066
825.386	0.0177628
825.464	0.0176360
825.542	0.0176367
825.620	0.0174509
825.698	0.0174739
825.776	0.0174279
825.854	0.0175416
825.933	0.0173919
826.011	0.0174329
826.089	0.0175085
826.167	0.0174763
826.245	0.0176456
826.323	0.0176978
826.401	0.0178321
826.479	0.0178471
826.558	0.0180482
826.636	0.0180180
826.714	0.0181747
826.792	0.0182536
826.870	0.0182179
826.948	0.0183675
827.026	0.0183537
827.104	0.0184815
827.183	0.0183887
827.261	0.0185005
827.339	0.0184573
827.417	0.0184290
827.495	0.0185599
827.573	0.0185665
827.651	0.0183228
827.729	0.0183632
827.808	0.0182026
827.886	0.0182723
827.964	0.0180753
828.042	0.0179187
828.120	0.0179537
828.198	0.0178741
828.276	0.0179497
828.354	0.0177855
828.433	0.0176700
828.511	0.0175826
828.589	0.0174838
828.667	0.0174593
828.745	0.0174247
828.823	0.0176068
828.901	0.0175911
828.979	0.0173536
829.058	0.0175933
829.136	0.0175603
829.214	0.0176128
829.292	0.0177546
829.370	0.0178937
829.448	0.0179461
829.526	0.0180980
829.604	0.0182360
829.683	0.0183118
829.761	0.0182860
829.839	0.0183965
829.917	0.0185581
829.995	0.0185542
830.073	0.0186554
830.151	0.0185397
830.229	0.0186877
830.308	0.0184240
830.386	0.0185039
830.464	0.0184870
830.542	0.0185121
830.620	0.0183337
830.698	0.0180714
830.776	0.0182484
830.854	0.0181644
830.933	0.0179544
831.011	0.0179071
831.089	0.0178577
831.167	0.0178275
831.245	0.0177779
831.323	0.0176893
831.401	0.0177266
831.479	0.0177035
831.558	0.0176871
831.636	0.0177201
831.714	0.0178484
831.792	0.0178821
831.870	0.0178459
831.948	0.0180058
832.026	0.0180390
832.104	0.0179449
832.183	0.0181098
832.261	0.0181921
832.339	0.0181561
832.417	0.0182707
832.495	0.0182057
832.573	0.0182452
832.651	0.0182588
832.729	0.0181222
832.808	0.0182061
832.886	0.0182804
832.964	0.0183481
833.042	0.0183035
833.120	0.0182571
833.198	0.0181729
833.276	0.0182680
833.354	0.0181161
833.433	0.0181547
833.511	0.0181209
833.589	0.0182977
833.667	0.0180362
833.745	0.0181223
833.823	0.0179856
833.901	0.0178597
833.979	0.0179340
834.058	0.0179963
834.136	0.0178842
834.214	0.0179391
834.292	0.0178210
834.370	0.0177431
834.448	0.0179687
834.526	0.0179406
834.604	0.0179247
834.683	0.0179779
834.761	0.0181805
834.839	0.0181717
834.917	0.0180575
834.995	0.0181618
835.073	0.0182613
835.151	0.0181059
835.229	0.0181664
835.308	0.0182166
835.386	0.0184143
835.464	0.0185188
835.542	0.0185101
835.620	0.0183646
835.698	0.0182803
835.776	0.0183144
835.854	0.0185764
835.933	0.0185550
836.011	0.0184364
836.089	0.0185586
836.167	0.0184312
836.245	0.0183863
836.323	0.0183938
836.401	0.0183176
836.479	0.0182447
836.558	0.0180950
836.636	0.0179930
836.714	0.0180730
836.792	0.0180588
836.870	0.0178673
836.948	0.0177291
837.026	0.0177261
837.104	0.0176708
837.183	0.0176588
837.261	0.0176354
837.339	0.0175224
837.417	0.0176000
837.495	0.0176543
837.573	0.0177372
837.651	0.0177627
837.729	0.0177956
837.808	0.0178261
837.886	0.0178767
837.964	0.0178893
838.042	0.0180435
838.120	0.0179786
838.198	0.0182794
838.276	0.0183113
838.354	0.0182784
838.433	0.0183672
838.511	0.0184418
838.589	0.0184505
838.667	0.0185861
838.745	0.0185325
838.823	0.0185774
838.901	0.0184143
838.979	0.0183723
839.058	0.0183639
839.136	0.0183254
839.214	0.0183974
839.292	0.0182308
839.370	0.0180529
839.448	0.0180573
839.526	0.0179732
839.604	0.0179195
839.683	0.0178177
839.761	0.0177808
839.839	0.0178361
839.917	0.0177517
839.995	0.0178165
840.073	0.0176474
840.151	0.0177282
840.229	0.0177218
840.308	0.0177419
840.386	0.0178096
840.464	0.0177814
840.542	0.0178519
840.620	0.0178776
840.698	0.0179610
840.776	0.0179015
840.854	0.0179472
840.933	0.0181551
841.011	0.0180485
841.089	0.0180817
841.167	0.0181441
841.245	0.0183503
841.323	0.0183239
841.401	0.0182069
841.479	0.0183510
841.558	0.0183246
841.636	0.0184734
841.714	0.0184151
841.792	0.0184442
841.870	0.0184597
841.948	0.0183762
842.026	0.0183023
842.104	0.0184101
842.183	0.0184061
842.261	0.0183762
842.339	0.0184008
842.417	0.0180892
842.495	0.0182068
842.573	0.0181523
842.651	0.0180547
842.729	0.0181049
842.808	0.0181371
842.886	0.0181507
842.964	0.0180807
843.042	0.0181525
843.120	0.0180235
843.198	0.0179817
843.276	0.0179619
843.354	0.0179258
843.433	0.0179633
843.511	0.0179811
843.589	0.0177899
843.667	0.0178614
843.745	0.0179161
843.823	0.0179272
843.901	0.0179675
843.979	0.0180421
844.058	0.0180382
844.136	0.0179489
844.214	0.0181010
844.292	0.0180462
844.370	0.0180118
844.448	0.0179633
844.526	0.0179436
844.604	0.0179896
844.683	0.0181024
844.761	0.0180567
844.839	0.0180530
844.917	0.0181472
844.995	0.0180051
845.073	0.0179730
845.151	0.0180099
845.229	0.0179292
845.308	0.0181170
845.386	0.0180308
845.464	0.0179317
845.542	0.0179155
845.620	0.0179368
845.698	0.0179736
845.776	0.0180458
845.854	0.0179791
845.933	0.0179698
846.011	0.0180143
846.089	0.0179868
846.167	0.0180087
846.245	0.0180789
846.323	0.0179735
846.401	0.0181676
846.479	0.0181863
846.558	0.0181895
846.636	0.0182055
846.714	0.0182670
846.792	0.0182428
846.870	0.0183115
846.948	0.0183125
847.026	0.0182927
847.104	0.0183790
847.183	0.0182603
847.261	0.0182287
847.339	0.0182020
847.417	0.0182180
847.495	0.0181355
847.573	0.0181039
847.651	0.0182342
847.729	0.0180800
847.808	0.0179782
847.886	0.0180051
847.964	0.0179797
848.042	0.0179468
848.120	0.0179323
848.198	0.0179951
848.276	0.0180354
848.354	0.0179447
848.433	0.0178676
848.511	0.0179340
848.589	0.0178334
848.667	0.0178046
848.745	0.0179138
848.823	0.0178841
848.901	0.0178533
848.979	0.0177502
849.058	0.0178378
849.136	0.0180220
849.214	0.0178394
849.292	0.0179794
849.370	0.0180113
849.448	0.0180393
849.526	0.0179790
849.604	0.0179591
849.683	0.0181397
849.761	0.0180859
849.839	0.0181861
849.917	0.0180300
849.995	0.0181621
850.073	0.0181723
850.151	0.0179691
850.229	0.0179989
850.308	0.0182103
850.386	0.0180392
850.464	0.0180389
850.542	0.0180132
850.620	0.0179488
850.698	0.0179200
850.776	0.0180582
850.854	0.0180139
850.933	0.0180183
851.011	0.0178984
851.089	0.0179370
851.167	0.0179028
851.245	0.0180217
851.323	0.0180340
851.401	0.0180383
851.479	0.0179874
851.558	0.0181258
851.636	0.0180474
851.714	0.0181470
851.792	0.0181270
851.870	0.0182440
851.948	0.0181598
852.026	0.0182121
852.104	0.0183179
852.183	0.0183543
852.261	0.0183355
852.339	0.0183977
852.417	0.0184035
852.495	0.0183858
852.573	0.0183298
852.651	0.0183567
852.729	0.0182301
852.808	0.0181898
852.886	0.0182355
852.964	0.0181422
853.042	0.0181580
853.120	0.0180034
853.198	0.0179021
853.276	0.0179761
853.354	0.0178863
853.433	0.0178172
853.511	0.0177743
853.589	0.0177544
853.667	0.0176785
853.745	0.0177008
853.823	0.0178076
853.901	0.0177064
853.979	0.0175407
854.058	0.0178910
854.136	0.0179145
854.214	0.0179433
854.292	0.0177819
854.370	0.0178230
854.448	0.0181220
854.526	0.0180068
854.604	0.0180103
854.683	0.0181940
854.761	0.0181628
854.839	0.0183109
854.917	0.0182861
854.995	0.0184938
855.073	0.0183892
855.151	0.0184237
855.229	0.0184101
855.308	0.0183759
855.386	0.0183959
855.464	0.0182988
855.542	0.0184383
855.620	0.0183224
855.698	0.0183524
855.776	0.0181147
855.854	0.0182440
855.933	0.0180741
856.011	0.0180163
856.089	0.0178526
856.167	0.0179606
856.245	0.0178254
856.323	0.0178788
856.401	0.0179285
856.479	0.0178807
856.558	0.0179873
856.636	0.0178012
856.714	0.0178078
856.792	0.0177785
856.870	0.0179221
856.948	0.0177944
857.026	0.0180377
857.104	0.0178139
857.183	0.0180574
857.261	0.0180473
857.339	0.0178868
857.417	0.0181180
857.495	0.0180840
857.573	0.0182115
857.651	0.0181738
857.729	0.0181660
857.808	0.0183128
857.886	0.0182102
857.964	0.0181322
858.042	0.0182789
858.120	0.0184022
858.198	0.0182010
858.276	0.0181394
858.354	0.0182555
858.433	0.0182599
858.511	0.0182126
858.589	0.0180634
858.667	0.0180773
858.745	0.0179464
858.823	0.0178815
858.901	0.0180150
858.979	0.0179255
859.058	0.0179295
859.136	0.0180367
859.214	0.0179825
859.292	0.0179778
859.370	0.0179227
859.448	0.0179291
859.526	0.0180064
859.604	0.0181054
859.683	0.0180353
859.761	0.0180394
859.839	0.0180627
859.917	0.0181925
859.995	0.0182274
860.073	0.0180517
860.151	0.0181730
860.229	0.0182919
860.308	0.0182188
860.386	0.0182027
860.464	0.0183156
860.542	0.0182906
860.620	0.0182560
860.698	0.0182706
860.776	0.0181294
860.854	0.0181824
860.933	0.0181222
861.011	0.0180950
861.089	0.0181718
861.167	0.0179839
861.245	0.0181765
861.323	0.0180853
861.401	0.0179834
861.479	0.0179247
861.558	0.0179617
861.636	0.0178745
861.714	0.0178906
861.792	0.0179118
861.870	0.0179343
861.948	0.0178988
862.026	0.0179201
862.104	0.0178327
862.183	0.0178384
862.261	0.0179140
862.339	0.0180909
862.417	0.0177865
862.495	0.0178433
862.573	0.0178600
862.651	0.0179351
862.729	0.0179954
862.808	0.0180114
862.886	0.0182172
862.964	0.0182185
863.042	0.0182282
863.120	0.0182250
863.198	0.0183343
863.276	0.0183698
863.354	0.0184425
863.433	0.0185037
863.511	0.0184710
863.589	0.0182931
863.667	0.0183644
863.745	0.0185281
863.823	0.0183353
863.901	0.0182147
863.979	0.0183562
864.058	0.0183096
864.136	0.0180665
864.214	0.0179589
864.292	0.0181213
864.370	0.0179827
864.448	0.0180051
864.526	0.0180273
864.604	0.0179576
864.683	0.0178497
864.761	0.0178297
864.839	0.0178074
864.917	0.0178947
864.995	0.0179743
865.073	0.0179413
865.151	0.0179163
865.229	0.0178333
865.308	0.0179444
865.386	0.0179375
865.464	0.0179077
865.542	0.0181605
865.620	0.0181210
865.698	0.0180000
865.776	0.0180843
865.854	0.0181259
865.933	0.0180749
866.011	0.0181471
866.089	0.0181646
866.167	0.0181921
866.245	0.0181361
866.323	0.0182215
866.401	0.0182941
866.479	0.0182588
866.558	0.0182649
866.636	0.0181525
866.714	0.0181503
866.792	0.0182524
866.870	0.0182244
866.948	0.0181436
867.026	0.0180659
867.104	0.0179299
867.183	0.0179574
867.261	0.0179342
867.339	0.0179552
867.417	0.0180234
867.495	0.0179435
867.573	0.0179389
867.651	0.0179905
867.729	0.0179003
867.808	0.0178815
867.886	0.0178455
867.964	0.0178748
868.042	0.0179841
868.120	0.0180099
868.198	0.0179093
868.276	0.0180559
868.354	0.0181674
868.433	0.0181300
868.511	0.0183383
868.589	0.0182479
868.667	0.0182904
868.745	0.0183262
868.823	0.0182867
868.901	0.0183466
868.979	0.0182613
869.058	0.0182095
869.136	0.0183557
869.214	0.0182230
869.292	0.0181647
869.370	0.0181478
869.448	0.0180231
869.526	0.0180024
869.604	0.0178982
869.683	0.0180074
869.761	0.0178724
869.839	0.0179155
869.917	0.0179858
869.995	0.0178933
870.073	0.0179142
870.151	0.0179560
870.229	0.0179961
870.308	0.0179678
870.386	0.0179523
870.464	0.0179493
870.542	0.0179655
870.620	0.0180767
870.698	0.0179778
870.776	0.0181001
870.854	0.0180832
870.933	0.0181360
871.011	0.0181441
871.089	0.0181985
871.167	0.0183810
871.245	0.0182772
871.323	0.0181866
871.401	0.0183904
871.479	0.0182151
871.558	0.0181213
871.636	0.0181780
871.714	0.0181994
871.792	0.0181820
871.870	0.0180094
871.948	0.0180750
872.026	0.0180932
872.104	0.0180302
872.183	0.0180250
872.261	0.0178621
872.339	0.0177852
872.417	0.0180686
872.495	0.0179720
872.573	0.0179761
872.651	0.0179361
872.729	0.0178683
872.808	0.0178644
872.886	0.0179605
872.964	0.0181172
873.042	0.0180251
873.120	0.0180625
873.198	0.0181275
873.276	0.0180991
873.354	0.0180853
873.433	0.0180635
873.511	0.0179398
873.589	0.0181474
873.667	0.0182053
873.745	0.0180939
873.823	0.0180779
873.901	0.0180459
873.979	0.0178267
874.058	0.0178415
874.136	0.0179849
874.214	0.0178909
874.292	0.0178581
874.370	0.0178374
874.448	0.0178493
874.526	0.0178106
874.604	0.0179227
874.683	0.0178343
874.761	0.0178987
874.839	0.0177186
874.917	0.0178231
874.995	0.0178355
875.073	0.0178775
875.151	0.0179780
875.229	0.0180363
875.308	0.0179784
875.386	0.0179471
875.464	0.0180007
875.542	0.0180009
875.620	0.0179527
875.698	0.0180784
875.776	0.0179808
875.854	0.0181515
875.933	0.0181837
876.011	0.0181329
876.089	0.0182240
876.167	0.0181608
876.245	0.0181358
876.323	0.0182257
876.401	0.0181696
876.479	0.0183257
876.558	0.0182713
876.636	0.0180802
876.714	0.0181787
876.792	0.0181809
876.870	0.0180133
876.948	0.0181384
877.026	0.0182300
877.104	0.0180030
877.183	0.0180619
877.261	0.0179250
877.339	0.0179416
877.417	0.0179454
877.495	0.0179603
877.573	0.0178390
877.651	0.0178386
877.729	0.0178719
877.808	0.0179180
877.886	0.0177547
877.964	0.0179630
878.042	0.0177650
878.120	0.0178247
878.198	0.0179174
878.276	0.0179541
878.354	0.0178925
878.433	0.0178887
878.511	0.0181453
878.589	0.0180339
878.667	0.0180987
878.745	0.0181517
878.823	0.0181667
878.901	0.0181411
878.979	0.0182404
879.058	0.0181743
879.136	0.0182724
879.214	0.0182071
879.292	0.0182360
879.370	0.0180755
879.448	0.0181146
879.526	0.0181690
879.604	0.0180344
879.683	0.0180109
879.761	0.0180866
879.839	0.0180587
879.917	0.0179216
879.995	0.0179128
880.073	0.0180011
880.151	0.0179037
880.229	0.0179734
880.308	0.0178917
880.386	0.0178830
880.464	0.0180529
880.542	0.0178307
880.620	0.0179668
880.698	0.0179929
880.776	0.0181599
880.854	0.0180628
880.933	0.0182301
881.011	0.0179890
881.089	0.0180894
881.167	0.0181754
881.245	0.0181015
881.323	0.0180792
881.401	0.0181070
881.479	0.0181544
881.558	0.0182420
881.636	0.0182201
881.714	0.0181644
881.792	0.0180920
881.870	0.0181378
881.948	0.0181893
882.026	0.0180829
882.104	0.0181075
882.183	0.0181957
882.261	0.0180264
882.339	0.0179288
882.417	0.0179570
882.495	0.0181355
882.573	0.0179854
882.651	0.0178474
882.729	0.0179329
882.808	0.0178808
882.886	0.0178284
882.964	0.0177915
883.042	0.0179031
883.120	0.0178111
883.198	0.0179189
883.276	0.0179712
883.354	0.0179832
883.433	0.0179296
883.511	0.0179587
883.589	0.0179835
883.667	0.0180850
883.745	0.0180793
883.823	0.0180797
883.901	0.0180711
883.979	0.0180506
884.058	0.0182286
884.136	0.0181647
884.214	0.0180776
884.292	0.0181969
884.370	0.0181950
884.448	0.0181200
884.526	0.0182301
884.604	0.0182120
884.683	0.0181649
884.761	0.0181734
884.839	0.0180260
884.917	0.0180326
884.995	0.0180901
885.073	0.0179728
885.151	0.0180616
885.229	0.0180013
885.308	0.0179836
885.386	0.0180032
885.464	0.0178303
885.542	0.0180035
885.620	0.0179120
885.698	0.0180302
885.776	0.0178197
885.854	0.0179842
885.933	0.0180001
886.011	0.0178514
886.089	0.0177987
886.167	0.0178619
886.245	0.0178728
886.323	0.0179050
886.401	0.0179078
886.479	0.0179649
886.558	0.0178887
886.636	0.0178567
886.714	0.0179192
886.792	0.0179027
886.870	0.0179938
886.948	0.0180369
887.026	0.0180405
887.104	0.0180517
887.183	0.0181208
887.261	0.0181477
887.339	0.0181768
887.417	0.0180163
887.495	0.0179290
887.573	0.0179951
887.651	0.0180874
887.729	0.0179985
887.808	0.0180784
887.886	0.0180855
887.964	0.0180250
888.042	0.0179767
888.120	0.0179079
888.198	0.0179455
888.276	0.0180409
888.354	0.0178826
888.433	0.0178804
888.511	0.0180202
888.589	0.0181066
888.667	0.0181673
888.745	0.0182397
888.823	0.0182488
888.901	0.0182110
888.979	0.0181138
889.058	0.0181021
889.136	0.0181550
889.214	0.0182814
889.292	0.0182174
889.370	0.0180946
889.448	0.0182985
889.526	0.0182667
889.604	0.0183419
889.683	0.0182860
889.761	0.0182220
889.839	0.0182512
889.917	0.0180908
889.995	0.0179543
890.073	0.0178345
890.151	0.0180009
890.229	0.0180471
890.308	0.0178004
890.386	0.0177557
890.464	0.0177198
890.542	0.0177032
890.620	0.0176887
890.698	0.0177071
890.776	0.0176877
890.854	0.0177384
890.933	0.0176954
891.011	0.0176027
891.089	0.0177304
891.167	0.0178406
891.245	0.0178130
891.323	0.0178195
891.401	0.0177679
891.479	0.0178421
891.558	0.0179366
891.636	0.0181712
891.714	0.0182889
891.792	0.0182586
891.870	0.0182128
891.948	0.0183690
892.026	0.0185473
892.104	0.0184309
892.183	0.0184619
892.261	0.0186729
892.339	0.0186694
892.417	0.0186444
892.495	0.0187844
892.573	0.0186980
892.651	0.0186515
892.729	0.0185148
892.808	0.0184892
892.886	0.0182748
892.964	0.0181444
893.042	0.0179055
893.120	0.0176729
893.198	0.0176714
893.276	0.0174397
893.354	0.0172482
893.433	0.0170726
893.511	0.0170715
893.589	0.0170474
893.667	0.0169576
893.745	0.0171861
893.823	0.0171863
893.901	0.0170990
893.979	0.0172279
894.058	0.0173397
894.136	0.0177454
894.214	0.0177114
894.292	0.0178468
894.370	0.0179767
894.448	0.0180143
894.526	0.0180755
894.604	0.0182870
894.683	0.0185737
894.761	0.0186705
894.839	0.0187157
894.917	0.0188862
894.995	0.0189410
895.073	0.0191296
895.151	0.0190946
895.229	0.0191070
895.308	0.0190180
895.386	0.0188345
895.464	0.0187768
895.542	0.0185851
895.620	0.0182441
895.698	0.0180502
895.776	0.0177856
895.854	0.0177058
895.933	0.0173933
896.011	0.0172053
896.089	0.0171259
896.167	0.0170737
896.245	0.0171949
896.323	0.0169933
896.401	0.0170953
896.479	0.0171686
896.558	0.0171520
896.636	0.0173324
896.714	0.0172393
896.792	0.0174578
896.870	0.0175186
896.948	0.0177224
897.026	0.0179946
897.104	0.0180457
897.183	0.0183026
897.261	0.0185343
897.339	0.0187132
897.417	0.0186977
897.495	0.0189426
897.573	0.0191985
897.651	0.0190799
897.729	0.0192008
897.808	0.0192057
897.886	0.0191396
897.964	0.0189920
898.042	0.0189604
898.120	0.0186903
898.198	0.0187125
898.276	0.0184930
898.354	0.0181692
898.433	0.0179352
898.511	0.0176575
898.589	0.0174133
898.667	0.0173370
898.745	0.0172501
898.823	0.0170583
898.901	0.0169778
898.979	0.0171221
899.058	0.0170335
899.136	0.0170579
899.214	0.0171567
899.292	0.0170804
899.370	0.0172327
899.448	0.0173462
899.526	0.0173717
899.604	0.0174506
899.683	0.0175836
899.761	0.0178544
899.839	0.0179565
899.917	0.0181016
899.995	0.0182986
900.073	0.0185281
900.151	0.0186185
900.229	0.0186723
900.308	0.0188387
900.386	0.0190892
900.464	0.0190640
900.542	0.0189177
900.620	0.0189791
900.698	0.0190457
900.776	0.0189287
900.854	0.0187008
900.933	0.0185481
901.011	0.0183920
901.089	0.0184176
901.167	0.0182278
901.245	0.0180537
901.323	0.0179373
901.401	0.0177625
901.479	0.0174795
901.558	0.0175256
901.636	0.0173715
901.714	0.0172764
901.792	0.0172594
901.870	0.0173829
901.948	0.0173809
902.026	0.0174939
902.104	0.0174133
902.183	0.0176539
902.261	0.0177972
902.339	0.0177277
902.417	0.0177729
902.495	0.0177457
902.573	0.0177819
902.651	0.0179601
902.729	0.0180888
902.808	0.0180257
902.886	0.0181220
902.964	0.0180250
903.042	0.0183932
903.120	0.0184529
903.198	0.0182450
903.276	0.0184199
903.354	0.0185087
903.433	0.0184935
903.511	0.0183998
903.589	0.0184051
903.667	0.0184173
903.745	0.0183939
903.823	0.0183245
903.901	0.0181280
903.979	0.0182895
904.058	0.0180382
904.136	0.0180356
904.214	0.0180606
904.292	0.0179402
904.370	0.0180334
904.448	0.0180379
904.526	0.0180205
904.604	0.0179377
904.683	0.0178133
904.761	0.0179664
904.839	0.0179610
904.917	0.0179615
904.995	0.0178300
905.073	0.0178491
905.151	0.0178663
905.229	0.0181405
905.308	0.0179784
905.386	0.0179378
905.464	0.0179157
905.542	0.0180732
905.620	0.0181650
905.698	0.0181985
905.776	0.0181152
905.854	0.0180290
905.933	0.0181741
906.011	0.0182520
906.089	0.0182991
906.167	0.0180523
906.245	0.0181197
906.323	0.0181422
906.401	0.0180949
906.479	0.0180829
906.558	0.0180894
906.636	0.0179055
906.714	0.0179713
906.792	0.0179693
906.870	0.0178318
906.948	0.0178475
907.026	0.0178537
907.104	0.0178651
907.183	0.0179733
907.261	0.0179057
907.339	0.0179243
907.417	0.0177721
907.495	0.0179559
907.573	0.0179262
907.651	0.0180131
907.729	0.0180840
907.808	0.0181686
907.886	0.0182421
907.964	0.0182069
908.042	0.0181333
908.120	0.0182217
908.198	0.0182574
908.276	0.0181345
908.354	0.0182587
908.433	0.0181760
908.511	0.0181957
908.589	0.0182546
908.667	0.0183649
908.745	0.0181709
908.823	0.0181659
908.901	0.0182758
908.979	0.0181438
909.058	0.0181033
909.136	0.0180238
909.214	0.0179848
909.292	0.0180209
909.370	0.0179927
909.448	0.0178339
909.526	0.0179195
909.604	0.0179040
909.683	0.0178905
909.761	0.0177500
909.839	0.0178126
909.917	0.0177840
909.995	0.0180145
910.073	0.0179588
910.151	0.0178646
910.229	0.0180145
910.308	0.0180449
910.386	0.0180627
910.464	0.0180856
910.542	0.0181310
910.620	0.0181998
910.698	0.0181310
910.776	0.0181422
910.854	0.0181767
910.933	0.0181696
911.011	0.0181680
911.089	0.0181708
911.167	0.0181974
911.245	0.0182732
911.323	0.0182039
911.401	0.0181940
911.479	0.0181879
911.558	0.0180856
911.636	0.0181107
911.714	0.0181049
911.792	0.0181189
911.870	0.0180215
911.948	0.0180909
912.026	0.0179555
912.104	0.0179267
912.183	0.0179422
912.261	0.0179650
912.339	0.0179600
912.417	0.0178460
912.495	0.0179581
912.573	0.0180943
912.651	0.0179778
912.729	0.0179100
912.808	0.0180460
912.886	0.0181783
912.964	0.0180402
913.042	0.0180812
913.120	0.0180684
913.198	0.0181793
913.276	0.0181372
913.354	0.0181863
913.433	0.0181001
913.511	0.0180921
913.589	0.0179864
913.667	0.0180785
913.745	0.0181366
913.823	0.0181964
913.901	0.0181306
913.979	0.0181495
914.058	0.0181956
914.136	0.0182853
914.214	0.0181475
914.292	0.0182530
914.370	0.0182000
914.448	0.0181931
914.526	0.0181924
914.604	0.0182297
914.683	0.0180859
914.761	0.0181710
914.839	0.0181668
914.917	0.0179622
914.995	0.0179427
915.073	0.0181367
915.151	0.0180231
915.229	0.0178999
915.308	0.0179952
915.386	0.0180613
915.464	0.0180077
915.542	0.0179367
915.620	0.0180087
915.698	0.0181345
915.776	0.0181261
915.854	0.0180875
915.933	0.0181200
916.011	0.0182182
916.089	0.0182203
916.167	0.0180691
916.245	0.0180860
916.323	0.0181510
916.401	0.0180272
916.479	0.0180650
916.558	0.0181635
916.636	0.0180595
916.714	0.0180704
916.792	0.0180599
916.870	0.0180712
916.948	0.0181036
917.026	0.0182407
917.104	0.0180478
917.183	0.0179899
917.261	0.0180522
917.339	0.0179765
917.417	0.0181061
917.495	0.0179902
917.573	0.0178902
917.651	0.0180904
917.729	0.0180503
917.808	0.0180143
917.886	0.0181318
917.964	0.0180316
918.042	0.0181432
918.120	0.0180976
918.198	0.0181530
918.276	0.0182403
918.354	0.0182239
918.433	0.0181812
918.511	0.0182736
918.589	0.0185175
918.667	0.0183182
918.745	0.0184169
918.823	0.0183611
918.901	0.0182885
918.979	0.0182677
919.058	0.0182002
919.136	0.0181122
919.214	0.0182624
919.292	0.0178958
919.370	0.0179814
919.448	0.0179083
919.526	0.0178915
919.604	0.0181172
919.683	0.0179320
919.761	0.0179489
919.839	0.0177728
919.917	0.0178060
