06/03/2022	18:10:08	Ver.	4.1	UNKNOWN
Optical Delay	599.995081	Delta X		0.078125	Sweeps	1	Scan Rate	0/0
Coordinates	Axis 1	NaN	Axis 2	NaN	Axis 3	NaN	Axis 4	NaN	Axis 5	NaN	Axis 6	0.000000
TX Power	0.000000	RX Power	0.000000

599.995	0.0181339
600.073	0.0180585
600.151	0.0181696
600.229	0.0181881
600.308	0.0182029
600.386	0.0182295
600.464	0.0181783
600.542	0.0181234
600.620	0.0180505
600.698	0.0182364
600.776	0.0181544
600.854	0.0181644
600.933	0.0181826
601.011	0.0181732
601.089	0.0183346
601.167	0.0181618
601.245	0.0181360
601.323	0.0182614
601.401	0.0181263
601.479	0.0182441
601.558	0.0181226
601.636	0.0181936
601.714	0.0181623
601.792	0.0180762
601.870	0.0181171
601.948	0.0181639
602.026	0.0181230
602.104	0.0180905
602.183	0.0181620
602.261	0.0180659
602.339	0.0180705
602.417	0.0182139
602.495	0.0181339
602.573	0.0182505
602.651	0.0181622
602.729	0.0181795
602.808	0.0181657
602.886	0.0180505
602.964	0.0181142
603.042	0.0181781
603.120	0.0180190
603.198	0.0181044
603.276	0.0180640
603.354	0.0181526
603.433	0.0182192
603.511	0.0181967
603.589	0.0181664
603.667	0.0180909
603.745	0.0180112
603.823	0.0181631
603.901	0.0180532
603.979	0.0180908
604.058	0.0182302
604.136	0.0180681
604.214	0.0180981
604.292	0.0181082
604.370	0.0182706
604.448	0.0180715
604.526	0.0181201
604.604	0.0182455
604.683	0.0180738
604.761	0.0182051
604.839	0.0182980
604.917	0.0182370
604.995	0.0181483
605.073	0.0180571
605.151	0.0181973
605.229	0.0180402
605.308	0.0182094
605.386	0.0183490
605.464	0.0181197
605.542	0.0181023
605.620	0.0182928
605.698	0.0182243
605.776	0.0181031
605.854	0.0181770
605.933	0.0181939
606.011	0.0181458
606.089	0.0181699
606.167	0.0182125
606.245	0.0180638
606.323	0.0180683
606.401	0.0181417
606.479	0.0181342
606.558	0.0181326
606.636	0.0182162
606.714	0.0181837
606.792	0.0182758
606.870	0.0179865
606.948	0.0180280
607.026	0.0181199
607.104	0.0181262
607.183	0.0182128
607.261	0.0181856
607.339	0.0183002
607.417	0.0181355
607.495	0.0182216
607.573	0.0180880
607.651	0.0182043
607.729	0.0182421
607.808	0.0182037
607.886	0.0181505
607.964	0.0181886
608.042	0.0182068
608.120	0.0180643
608.198	0.0182104
608.276	0.0183310
608.354	0.0180572
608.433	0.0181339
608.511	0.0182862
608.589	0.0182071
608.667	0.0181406
608.745	0.0181954
608.823	0.0181711
608.901	0.0181556
608.979	0.0181689
609.058	0.0180434
609.136	0.0181807
609.214	0.0182407
609.292	0.0178856
609.370	0.0180256
609.448	0.0181624
609.526	0.0181518
609.604	0.0181138
609.683	0.0181686
609.761	0.0180853
609.839	0.0182139
609.917	0.0181789
609.995	0.0181405
610.073	0.0180381
610.151	0.0181022
610.229	0.0181726
610.308	0.0181164
610.386	0.0181074
610.464	0.0180522
610.542	0.0181176
610.620	0.0183122
610.698	0.0181374
610.776	0.0182969
610.854	0.0181561
610.933	0.0180936
611.011	0.0181246
611.089	0.0181525
611.167	0.0181802
611.245	0.0181009
611.323	0.0181129
611.401	0.0182065
611.479	0.0182867
611.558	0.0180948
611.636	0.0181918
611.714	0.0181225
611.792	0.0181297
611.870	0.0181501
611.948	0.0181760
612.026	0.0181189
612.104	0.0181244
612.183	0.0182212
612.261	0.0181089
612.339	0.0181016
612.417	0.0181704
612.495	0.0182570
612.573	0.0181336
612.651	0.0181729
612.729	0.0183396
612.808	0.0182137
612.886	0.0181474
612.964	0.0180930
613.042	0.0181838
613.120	0.0180138
613.198	0.0181801
613.276	0.0181183
613.354	0.0182073
613.433	0.0180996
613.511	0.0180099
613.589	0.0181159
613.667	0.0182003
613.745	0.0182298
613.823	0.0182471
613.901	0.0181702
613.979	0.0180644
614.058	0.0182609
614.136	0.0181604
614.214	0.0182012
614.292	0.0180999
614.370	0.0181514
614.448	0.0182116
614.526	0.0182325
614.604	0.0181699
614.683	0.0181254
614.761	0.0182114
614.839	0.0181374
614.917	0.0180779
614.995	0.0181094
615.073	0.0183250
615.151	0.0182326
615.229	0.0181342
615.308	0.0181062
615.386	0.0183204
615.464	0.0181857
615.542	0.0181317
615.620	0.0181366
615.698	0.0183348
615.776	0.0180813
615.854	0.0181451
615.933	0.0181867
616.011	0.0180601
616.089	0.0180473
616.167	0.0181529
616.245	0.0180949
616.323	0.0181334
616.401	0.0182643
616.479	0.0180936
616.558	0.0180427
616.636	0.0180714
616.714	0.0181132
616.792	0.0180807
616.870	0.0181561
616.948	0.0181448
617.026	0.0180658
617.104	0.0181411
617.183	0.0181144
617.261	0.0182780
617.339	0.0180234
617.417	0.0182022
617.495	0.0181599
617.573	0.0182091
617.651	0.0182043
617.729	0.0181718
617.808	0.0180800
617.886	0.0181749
617.964	0.0181942
618.042	0.0182642
618.120	0.0181719
618.198	0.0181062
618.276	0.0182285
618.354	0.0182252
618.433	0.0180559
618.511	0.0181545
618.589	0.0181354
618.667	0.0181776
618.745	0.0180534
618.823	0.0181180
618.901	0.0181660
618.979	0.0181084
619.058	0.0180853
619.136	0.0181278
619.214	0.0181449
619.292	0.0182460
619.370	0.0180936
619.448	0.0180612
619.526	0.0181869
619.604	0.0183587
619.683	0.0182471
619.761	0.0181432
619.839	0.0182472
619.917	0.0181947
619.995	0.0181259
620.073	0.0181111
620.151	0.0182037
620.229	0.0181032
620.308	0.0182079
620.386	0.0181339
620.464	0.0181335
620.542	0.0180760
620.620	0.0181768
620.698	0.0180788
620.776	0.0180943
620.854	0.0180824
620.933	0.0181326
621.011	0.0182374
621.089	0.0181328
621.167	0.0182279
621.245	0.0181550
621.323	0.0182727
621.401	0.0181708
621.479	0.0181792
621.558	0.0181438
621.636	0.0181867
621.714	0.0182929
621.792	0.0183096
621.870	0.0180428
621.948	0.0181854
622.026	0.0182439
622.104	0.0181105
622.183	0.0181360
622.261	0.0182041
622.339	0.0180917
622.417	0.0181280
622.495	0.0181544
622.573	0.0181084
622.651	0.0181101
622.729	0.0181522
622.808	0.0180196
622.886	0.0181188
622.964	0.0181811
623.042	0.0181451
623.120	0.0181981
623.198	0.0181323
623.276	0.0181910
623.354	0.0182600
623.433	0.0182404
623.511	0.0181966
623.589	0.0181467
623.667	0.0182787
623.745	0.0182773
623.823	0.0180358
623.901	0.0181750
623.979	0.0181216
624.058	0.0181432
624.136	0.0181542
624.214	0.0182740
624.292	0.0182153
624.370	0.0181094
624.448	0.0181761
624.526	0.0183157
624.604	0.0181050
624.683	0.0179896
624.761	0.0182257
624.839	0.0181754
624.917	0.0180194
624.995	0.0182138
625.073	0.0181222
625.151	0.0181536
625.229	0.0180086
625.308	0.0181577
625.386	0.0180547
625.464	0.0182491
625.542	0.0181076
625.620	0.0181363
625.698	0.0181499
625.776	0.0180708
625.854	0.0182146
625.933	0.0182404
626.011	0.0180845
626.089	0.0180314
626.167	0.0182149
626.245	0.0181015
626.323	0.0180373
626.401	0.0183369
626.479	0.0181995
626.558	0.0182063
626.636	0.0181876
626.714	0.0180933
626.792	0.0182891
626.870	0.0181268
626.948	0.0182042
627.026	0.0180750
627.104	0.0181774
627.183	0.0181010
627.261	0.0182681
627.339	0.0181614
627.417	0.0181194
627.495	0.0182108
627.573	0.0182109
627.651	0.0182541
627.729	0.0180412
627.808	0.0182501
627.886	0.0182201
627.964	0.0181689
628.042	0.0181730
628.120	0.0182805
628.198	0.0182727
628.276	0.0180724
628.354	0.0180954
628.433	0.0181258
628.511	0.0181924
628.589	0.0182613
628.667	0.0182223
628.745	0.0181815
628.823	0.0181645
628.901	0.0181743
628.979	0.0181993
629.058	0.0181759
629.136	0.0180712
629.214	0.0180145
629.292	0.0182269
629.370	0.0182427
629.448	0.0181396
629.526	0.0182127
629.604	0.0181902
629.683	0.0181844
629.761	0.0182607
629.839	0.0181607
629.917	0.0182936
629.995	0.0181590
630.073	0.0180402
630.151	0.0181640
630.229	0.0181929
630.308	0.0181388
630.386	0.0183361
630.464	0.0182208
630.542	0.0181489
630.620	0.0181068
630.698	0.0182162
630.776	0.0182924
630.854	0.0182130
630.933	0.0182332
631.011	0.0181380
631.089	0.0181096
631.167	0.0182327
631.245	0.0181719
631.323	0.0181699
631.401	0.0180878
631.479	0.0181841
631.558	0.0181270
631.636	0.0181772
631.714	0.0180639
631.792	0.0181328
631.870	0.0180885
631.948	0.0181830
632.026	0.0182627
632.104	0.0180518
632.183	0.0181278
632.261	0.0181254
632.339	0.0181189
632.417	0.0181954
632.495	0.0180714
632.573	0.0182278
632.651	0.0181107
632.729	0.0181229
632.808	0.0181323
632.886	0.0181758
632.964	0.0180617
633.042	0.0181049
633.120	0.0182516
633.198	0.0181724
633.276	0.0182830
633.354	0.0181554
633.433	0.0181641
633.511	0.0183294
633.589	0.0182293
633.667	0.0180492
633.745	0.0180946
633.823	0.0182048
633.901	0.0182038
633.979	0.0181870
634.058	0.0181633
634.136	0.0181270
634.214	0.0181314
634.292	0.0181481
634.370	0.0180679
634.448	0.0181406
634.526	0.0181851
634.604	0.0182015
634.683	0.0181953
634.761	0.0181234
634.839	0.0181386
634.917	0.0182089
634.995	0.0181931
635.073	0.0181489
635.151	0.0180070
635.229	0.0181659
635.308	0.0181843
635.386	0.0182027
635.464	0.0181644
635.542	0.0181998
635.620	0.0181428
635.698	0.0182778
635.776	0.0182159
635.854	0.0181209
635.933	0.0182289
636.011	0.0182137
636.089	0.0182014
636.167	0.0181143
636.245	0.0181574
636.323	0.0183707
636.401	0.0183424
636.479	0.0181613
636.558	0.0182169
636.636	0.0181662
636.714	0.0181674
636.792	0.0180749
636.870	0.0181308
636.948	0.0181441
637.026	0.0181538
637.104	0.0182356
637.183	0.0182134
637.261	0.0181260
637.339	0.0182005
637.417	0.0182183
637.495	0.0182198
637.573	0.0180754
637.651	0.0181364
637.729	0.0181122
637.808	0.0182929
637.886	0.0179977
637.964	0.0181879
638.042	0.0181570
638.120	0.0181873
638.198	0.0180347
638.276	0.0180783
638.354	0.0180711
638.433	0.0182051
638.511	0.0180701
638.589	0.0182404
638.667	0.0182511
638.745	0.0181624
638.823	0.0181829
638.901	0.0179729
638.979	0.0181489
639.058	0.0181398
639.136	0.0181052
639.214	0.0181554
639.292	0.0179501
639.370	0.0182394
639.448	0.0181646
639.526	0.0180040
639.604	0.0179184
639.683	0.0181216
639.761	0.0181389
639.839	0.0183259
639.917	0.0180493
639.995	0.0180216
640.073	0.0180490
640.151	0.0180701
640.229	0.0181634
640.308	0.0181966
640.386	0.0181594
640.464	0.0183342
640.542	0.0182216
640.620	0.0180270
640.698	0.0181102
640.776	0.0182492
640.854	0.0182004
640.933	0.0181074
641.011	0.0181757
641.089	0.0180877
641.167	0.0181662
641.245	0.0182310
641.323	0.0182034
641.401	0.0182169
641.479	0.0181812
641.558	0.0181657
641.636	0.0183131
641.714	0.0181134
641.792	0.0180719
641.870	0.0179967
641.948	0.0181502
642.026	0.0181236
642.104	0.0182587
642.183	0.0181429
642.261	0.0180715
642.339	0.0181561
642.417	0.0182310
642.495	0.0181032
642.573	0.0183311
642.651	0.0183267
642.729	0.0180708
642.808	0.0180807
642.886	0.0182239
642.964	0.0182418
643.042	0.0180962
643.120	0.0182380
643.198	0.0183354
643.276	0.0182149
643.354	0.0182246
643.433	0.0181744
643.511	0.0181796
643.589	0.0182411
643.667	0.0181197
643.745	0.0181496
643.823	0.0180558
643.901	0.0182058
643.979	0.0181876
644.058	0.0181143
644.136	0.0181660
644.214	0.0182288
644.292	0.0181147
644.370	0.0179822
644.448	0.0182713
644.526	0.0182681
644.604	0.0180811
644.683	0.0181586
644.761	0.0181542
644.839	0.0182027
644.917	0.0182088
644.995	0.0181411
645.073	0.0182327
645.151	0.0182126
645.229	0.0181509
645.308	0.0180802
645.386	0.0180711
645.464	0.0181415
645.542	0.0182397
645.620	0.0181400
645.698	0.0181785
645.776	0.0182050
645.854	0.0182491
645.933	0.0181973
646.011	0.0180371
646.089	0.0181078
646.167	0.0182442
646.245	0.0182456
646.323	0.0181715
646.401	0.0181819
646.479	0.0181651
646.558	0.0181265
646.636	0.0181232
646.714	0.0180968
646.792	0.0180455
646.870	0.0182236
646.948	0.0181775
647.026	0.0182660
647.104	0.0181731
647.183	0.0181964
647.261	0.0181821
647.339	0.0181257
647.417	0.0180348
647.495	0.0180865
647.573	0.0181920
647.651	0.0181139
647.729	0.0184049
647.808	0.0182170
647.886	0.0181800
647.964	0.0181835
648.042	0.0180414
648.120	0.0181308
648.198	0.0182969
648.276	0.0181245
648.354	0.0179956
648.433	0.0180911
648.511	0.0181664
648.589	0.0181207
648.667	0.0181364
648.745	0.0180730
648.823	0.0182090
648.901	0.0181354
648.979	0.0181408
649.058	0.0180669
649.136	0.0181464
649.214	0.0181173
649.292	0.0181606
649.370	0.0181503
649.448	0.0181241
649.526	0.0182044
649.604	0.0183073
649.683	0.0182557
649.761	0.0180917
649.839	0.0181296
649.917	0.0181514
649.995	0.0181545
650.073	0.0180606
650.151	0.0181346
650.229	0.0181761
650.308	0.0181490
650.386	0.0181680
650.464	0.0181729
650.542	0.0180902
650.620	0.0181860
650.698	0.0181627
650.776	0.0180662
650.854	0.0181766
650.933	0.0181438
651.011	0.0182182
651.089	0.0181393
651.167	0.0181937
651.245	0.0179542
651.323	0.0179414
651.401	0.0181258
651.479	0.0180057
651.558	0.0181689
651.636	0.0182255
651.714	0.0180046
651.792	0.0181749
651.870	0.0181822
651.948	0.0180933
652.026	0.0182347
652.104	0.0181530
652.183	0.0182158
652.261	0.0181396
652.339	0.0182119
652.417	0.0181007
652.495	0.0182112
652.573	0.0181762
652.651	0.0181397
652.729	0.0181850
652.808	0.0180170
652.886	0.0181115
652.964	0.0180350
653.042	0.0181728
653.120	0.0182197
653.198	0.0181480
653.276	0.0182130
653.354	0.0181104
653.433	0.0181277
653.511	0.0182394
653.589	0.0182067
653.667	0.0181088
653.745	0.0181696
653.823	0.0181593
653.901	0.0182254
653.979	0.0182433
654.058	0.0180543
654.136	0.0181154
654.214	0.0182221
654.292	0.0181567
654.370	0.0180354
654.448	0.0181338
654.526	0.0180524
654.604	0.0181499
654.683	0.0181281
654.761	0.0180459
654.839	0.0182358
654.917	0.0180733
654.995	0.0181410
655.073	0.0181560
655.151	0.0181230
655.229	0.0181483
655.308	0.0182812
655.386	0.0182843
655.464	0.0181020
655.542	0.0180516
655.620	0.0181178
655.698	0.0181479
655.776	0.0180588
655.854	0.0181684
655.933	0.0182804
656.011	0.0182175
656.089	0.0180554
656.167	0.0182025
656.245	0.0181413
656.323	0.0180331
656.401	0.0180920
656.479	0.0182991
656.558	0.0181940
656.636	0.0181779
656.714	0.0182694
656.792	0.0180783
656.870	0.0181959
656.948	0.0180202
657.026	0.0181686
657.104	0.0181509
657.183	0.0182445
657.261	0.0180563
657.339	0.0181648
657.417	0.0182777
657.495	0.0180039
657.573	0.0180669
657.651	0.0181804
657.729	0.0181885
657.808	0.0180904
657.886	0.0181191
657.964	0.0181803
658.042	0.0180894
658.120	0.0182143
658.198	0.0182165
658.276	0.0181136
658.354	0.0180696
658.433	0.0180753
658.511	0.0183336
658.589	0.0181704
658.667	0.0181815
658.745	0.0182132
658.823	0.0181460
658.901	0.0181381
658.979	0.0181903
659.058	0.0181444
659.136	0.0181425
659.214	0.0182594
659.292	0.0181052
659.370	0.0182700
659.448	0.0182471
659.526	0.0182326
659.604	0.0180634
659.683	0.0181084
659.761	0.0181282
659.839	0.0182211
659.917	0.0182539
659.995	0.0180546
660.073	0.0181452
660.151	0.0182346
660.229	0.0181062
660.308	0.0181947
660.386	0.0180538
660.464	0.0181100
660.542	0.0181136
660.620	0.0181971
660.698	0.0180802
660.776	0.0179900
660.854	0.0182624
660.933	0.0181809
661.011	0.0181593
661.089	0.0181040
661.167	0.0182973
661.245	0.0182041
661.323	0.0180946
661.401	0.0180022
661.479	0.0181544
661.558	0.0182591
661.636	0.0181902
661.714	0.0181616
661.792	0.0181252
661.870	0.0181701
661.948	0.0181135
662.026	0.0181886
662.104	0.0182224
662.183	0.0181333
662.261	0.0180959
662.339	0.0180648
662.417	0.0180685
662.495	0.0181322
662.573	0.0181772
662.651	0.0183111
662.729	0.0181448
662.808	0.0182249
662.886	0.0181141
662.964	0.0180685
663.042	0.0180791
663.120	0.0181579
663.198	0.0182634
663.276	0.0180892
663.354	0.0180204
663.433	0.0180989
663.511	0.0181686
663.589	0.0180068
663.667	0.0181393
663.745	0.0181904
663.823	0.0183279
663.901	0.0181413
663.979	0.0181261
664.058	0.0181840
664.136	0.0181168
664.214	0.0180891
664.292	0.0181229
664.370	0.0181015
664.448	0.0182169
664.526	0.0180894
664.604	0.0181917
664.683	0.0181147
664.761	0.0181591
664.839	0.0181778
664.917	0.0181316
664.995	0.0181550
665.073	0.0181798
665.151	0.0180922
665.229	0.0179720
665.308	0.0182551
665.386	0.0182378
665.464	0.0180701
665.542	0.0181794
665.620	0.0180945
665.698	0.0180031
665.776	0.0181857
665.854	0.0182618
665.933	0.0180952
666.011	0.0179620
666.089	0.0181821
666.167	0.0182388
666.245	0.0182604
666.323	0.0180781
666.401	0.0180987
666.479	0.0181441
666.558	0.0181342
666.636	0.0181767
666.714	0.0182078
666.792	0.0181702
666.870	0.0181809
666.948	0.0181889
667.026	0.0181745
667.104	0.0181577
667.183	0.0180374
667.261	0.0182093
667.339	0.0181796
667.417	0.0180924
667.495	0.0181322
667.573	0.0181510
667.651	0.0181645
667.729	0.0181559
667.808	0.0182471
667.886	0.0181129
667.964	0.0181792
668.042	0.0180065
668.120	0.0180173
668.198	0.0182358
668.276	0.0183400
668.354	0.0181568
668.433	0.0181322
668.511	0.0182563
668.589	0.0181940
668.667	0.0180389
668.745	0.0182767
668.823	0.0182183
668.901	0.0181779
668.979	0.0182346
669.058	0.0181573
669.136	0.0179897
669.214	0.0181513
669.292	0.0180784
669.370	0.0182938
669.448	0.0179794
669.526	0.0180792
669.604	0.0181345
669.683	0.0181206
669.761	0.0182005
669.839	0.0180487
669.917	0.0182349
669.995	0.0181766
670.073	0.0181880
670.151	0.0181786
670.229	0.0182341
670.308	0.0181430
670.386	0.0181206
670.464	0.0180688
670.542	0.0180703
670.620	0.0181248
670.698	0.0181891
670.776	0.0180305
670.854	0.0182381
670.933	0.0182198
671.011	0.0181670
671.089	0.0180688
671.167	0.0181919
671.245	0.0182471
671.323	0.0181776
671.401	0.0181378
671.479	0.0181262
671.558	0.0181077
671.636	0.0181134
671.714	0.0181113
671.792	0.0180454
671.870	0.0182289
671.948	0.0181648
672.026	0.0181792
672.104	0.0181704
672.183	0.0180386
672.261	0.0181700
672.339	0.0181956
672.417	0.0180116
672.495	0.0181738
672.573	0.0180726
672.651	0.0181119
672.729	0.0181573
672.808	0.0182068
672.886	0.0181863
672.964	0.0181912
673.042	0.0181107
673.120	0.0182143
673.198	0.0180058
673.276	0.0181253
673.354	0.0181760
673.433	0.0180644
673.511	0.0181034
673.589	0.0182256
673.667	0.0181052
673.745	0.0181637
673.823	0.0181190
673.901	0.0181741
673.979	0.0181432
674.058	0.0180663
674.136	0.0181596
674.214	0.0181860
674.292	0.0181802
674.370	0.0181216
674.448	0.0181286
674.526	0.0181568
674.604	0.0181124
674.683	0.0182240
674.761	0.0181870
674.839	0.0182535
674.917	0.0181785
674.995	0.0182222
675.073	0.0180958
675.151	0.0182095
675.229	0.0181554
675.308	0.0181824
675.386	0.0182047
675.464	0.0182686
675.542	0.0180783
675.620	0.0181432
675.698	0.0180907
675.776	0.0179848
675.854	0.0180700
675.933	0.0182331
676.011	0.0182011
676.089	0.0182887
676.167	0.0181433
676.245	0.0180941
676.323	0.0182132
676.401	0.0180869
676.479	0.0181711
676.558	0.0181390
676.636	0.0181202
676.714	0.0181421
676.792	0.0181714
676.870	0.0180601
676.948	0.0181664
677.026	0.0182140
677.104	0.0181139
677.183	0.0181692
677.261	0.0183015
677.339	0.0182167
677.417	0.0181186
677.495	0.0181615
677.573	0.0182065
677.651	0.0180470
677.729	0.0182216
677.808	0.0181818
677.886	0.0181067
677.964	0.0180855
678.042	0.0182536
678.120	0.0183069
678.198	0.0182364
678.276	0.0181873
678.354	0.0181612
678.433	0.0181674
678.511	0.0181246
678.589	0.0180543
678.667	0.0182219
678.745	0.0183015
678.823	0.0181406
678.901	0.0180545
678.979	0.0183075
679.058	0.0182973
679.136	0.0182492
679.214	0.0180527
679.292	0.0182381
679.370	0.0183526
679.448	0.0182572
679.526	0.0181503
679.604	0.0182118
679.683	0.0181305
679.761	0.0183289
679.839	0.0182362
679.917	0.0182408
679.995	0.0182301
680.073	0.0181403
680.151	0.0181559
680.229	0.0182339
680.308	0.0183111
680.386	0.0181293
680.464	0.0181644
680.542	0.0183020
680.620	0.0182267
680.698	0.0182134
680.776	0.0181244
680.854	0.0181635
680.933	0.0182130
681.011	0.0181678
681.089	0.0181178
681.167	0.0181532
681.245	0.0181616
681.323	0.0180469
681.401	0.0183164
681.479	0.0181934
681.558	0.0182102
681.636	0.0182199
681.714	0.0181077
681.792	0.0181779
681.870	0.0180687
681.948	0.0183166
682.026	0.0182340
682.104	0.0180999
682.183	0.0180602
682.261	0.0181017
682.339	0.0182433
682.417	0.0182581
682.495	0.0181503
682.573	0.0182737
682.651	0.0182160
682.729	0.0182547
682.808	0.0182465
682.886	0.0181551
682.964	0.0181230
683.042	0.0181884
683.120	0.0181548
683.198	0.0182381
683.276	0.0182182
683.354	0.0181285
683.433	0.0182159
683.511	0.0182803
683.589	0.0182864
683.667	0.0180499
683.745	0.0181811
683.823	0.0182239
683.901	0.0183060
683.979	0.0181824
684.058	0.0180777
684.136	0.0181152
684.214	0.0181509
684.292	0.0182166
684.370	0.0182274
684.448	0.0182988
684.526	0.0182664
684.604	0.0182259
684.683	0.0183364
684.761	0.0180611
684.839	0.0182592
684.917	0.0181624
684.995	0.0182159
685.073	0.0180833
685.151	0.0182179
685.229	0.0182051
685.308	0.0181554
685.386	0.0182449
685.464	0.0180407
685.542	0.0182278
685.620	0.0181204
685.698	0.0182510
685.776	0.0181938
685.854	0.0180970
685.933	0.0180307
686.011	0.0182676
686.089	0.0181094
686.167	0.0181789
686.245	0.0180705
686.323	0.0181573
686.401	0.0181198
686.479	0.0181108
686.558	0.0181014
686.636	0.0180883
686.714	0.0181242
686.792	0.0180747
686.870	0.0181993
686.948	0.0181120
687.026	0.0181748
687.104	0.0181579
687.183	0.0180792
687.261	0.0181293
687.339	0.0180656
687.417	0.0180779
687.495	0.0181921
687.573	0.0180742
687.651	0.0181407
687.729	0.0180745
687.808	0.0179926
687.886	0.0182233
687.964	0.0181940
688.042	0.0180888
688.120	0.0182587
688.198	0.0182635
688.276	0.0181647
688.354	0.0182896
688.433	0.0181848
688.511	0.0182034
688.589	0.0182441
688.667	0.0181288
688.745	0.0181444
688.823	0.0181055
688.901	0.0181919
688.979	0.0182155
689.058	0.0181546
689.136	0.0181170
689.214	0.0181979
689.292	0.0181734
689.370	0.0181077
689.448	0.0181539
689.526	0.0180804
689.604	0.0182256
689.683	0.0180164
689.761	0.0181119
689.839	0.0181786
689.917	0.0182112
689.995	0.0181935
690.073	0.0180802
690.151	0.0181362
690.229	0.0180936
690.308	0.0181650
690.386	0.0181973
690.464	0.0181388
690.542	0.0180614
690.620	0.0181473
690.698	0.0181922
690.776	0.0181581
690.854	0.0180102
690.933	0.0180904
691.011	0.0181200
691.089	0.0181313
691.167	0.0181648
691.245	0.0181596
691.323	0.0181327
691.401	0.0182030
691.479	0.0183141
691.558	0.0181428
691.636	0.0181154
691.714	0.0180711
691.792	0.0182327
691.870	0.0182222
691.948	0.0182207
692.026	0.0181852
692.104	0.0182096
692.183	0.0182269
692.261	0.0182748
692.339	0.0182182
692.417	0.0182293
692.495	0.0181796
692.573	0.0181709
692.651	0.0180524
692.729	0.0180582
692.808	0.0179885
692.886	0.0179580
692.964	0.0179870
693.042	0.0179832
693.120	0.0179803
693.198	0.0180215
693.276	0.0181922
693.354	0.0181018
693.433	0.0180790
693.511	0.0182217
693.589	0.0182432
693.667	0.0181918
693.745	0.0182418
693.823	0.0181812
693.901	0.0182045
693.979	0.0182896
694.058	0.0183223
694.136	0.0182652
694.214	0.0182475
694.292	0.0180596
694.370	0.0182551
694.448	0.0182218
694.526	0.0181924
694.604	0.0181442
694.683	0.0181696
694.761	0.0183533
694.839	0.0183220
694.917	0.0184543
694.995	0.0184555
695.073	0.0184365
695.151	0.0185080
695.229	0.0185259
695.308	0.0185601
695.386	0.0186034
695.464	0.0184627
695.542	0.0183344
695.620	0.0180833
695.698	0.0179043
695.776	0.0177390
695.854	0.0176297
695.933	0.0173559
696.011	0.0171485
696.089	0.0171748
696.167	0.0169594
696.245	0.0168102
696.323	0.0167833
696.401	0.0168298
696.479	0.0167641
696.558	0.0170689
696.636	0.0173190
696.714	0.0178169
696.792	0.0181822
696.870	0.0186282
696.948	0.0192184
697.026	0.0197948
697.104	0.0201212
697.183	0.0207279
697.261	0.0209812
697.339	0.0211060
697.417	0.0211316
697.495	0.0208887
697.573	0.0205922
697.651	0.0201440
697.729	0.0196055
697.808	0.0189011
697.886	0.0183036
697.964	0.0176250
698.042	0.0171296
698.120	0.0166048
698.198	0.0160036
698.276	0.0155954
698.354	0.0151048
698.433	0.0146505
698.511	0.0144449
698.589	0.0144105
698.667	0.0143972
698.745	0.0147023
698.823	0.0151072
698.901	0.0156586
698.979	0.0159576
699.058	0.0164395
699.136	0.0171017
699.214	0.0176268
699.292	0.0183395
699.370	0.0186752
699.448	0.0191116
699.526	0.0196345
699.604	0.0200005
699.683	0.0202296
699.761	0.0206774
699.839	0.0206754
699.917	0.0210114
699.995	0.0211236
700.073	0.0213985
700.151	0.0215326
700.229	0.0217181
700.308	0.0216965
700.386	0.0217300
700.464	0.0216316
700.542	0.0214018
700.620	0.0211203
700.698	0.0207419
700.776	0.0203774
700.854	0.0198203
700.933	0.0190733
701.011	0.0185089
701.089	0.0179067
701.167	0.0171970
701.245	0.0166067
701.323	0.0161026
701.401	0.0155434
701.479	0.0150890
701.558	0.0147684
701.636	0.0141064
701.714	0.0134741
701.792	0.0129646
701.870	0.0123483
701.948	0.0118185
702.026	0.0114762
702.104	0.0111083
702.183	0.0111063
702.261	0.0113817
702.339	0.0118102
702.417	0.0127007
702.495	0.0139451
702.573	0.0152260
702.651	0.0167809
702.729	0.0185081
702.808	0.0204232
702.886	0.0221761
702.964	0.0237445
703.042	0.0252705
703.120	0.0264505
703.198	0.0273753
703.276	0.0281044
703.354	0.0285185
703.433	0.0285876
703.511	0.0283347
703.589	0.0276698
703.667	0.0268433
703.745	0.0256158
703.823	0.0243475
703.901	0.0227566
703.979	0.0212277
704.058	0.0196279
704.136	0.0182162
704.214	0.0166343
704.292	0.0153933
704.370	0.0143034
704.448	0.0133627
704.526	0.0123733
704.604	0.0117510
704.683	0.0112450
704.761	0.0109145
704.839	0.0104415
704.917	0.0102390
704.995	0.00995842
705.073	0.00996628
705.151	0.0100423
705.229	0.0101313
705.308	0.0104553
705.386	0.0110620
705.464	0.0118069
705.542	0.0127482
705.620	0.0140677
705.698	0.0154704
705.776	0.0172275
705.854	0.0188619
705.933	0.0208589
706.011	0.0224976
706.089	0.0241354
706.167	0.0255997
706.245	0.0268207
706.323	0.0276227
706.401	0.0280188
706.479	0.0282296
706.558	0.0278542
706.636	0.0271943
706.714	0.0263405
706.792	0.0251479
706.870	0.0239974
706.948	0.0228163
707.026	0.0213969
707.104	0.0203474
707.183	0.0192638
707.261	0.0182239
707.339	0.0174316
707.417	0.0164282
707.495	0.0157376
707.573	0.0149716
707.651	0.0141730
707.729	0.0132212
707.808	0.0125543
707.886	0.0118536
707.964	0.0112074
708.042	0.0107446
708.120	0.0107255
708.198	0.0108199
708.276	0.0110500
708.354	0.0116570
708.433	0.0123904
708.511	0.0134245
708.589	0.0146594
708.667	0.0158160
708.745	0.0169648
708.823	0.0182040
708.901	0.0196357
708.979	0.0208453
709.058	0.0220676
709.136	0.0228650
709.214	0.0238629
709.292	0.0246416
709.370	0.0249966
709.448	0.0253528
709.526	0.0256051
709.604	0.0254703
709.683	0.0250573
709.761	0.0244807
709.839	0.0236086
709.917	0.0226682
709.995	0.0215656
710.073	0.0203596
710.151	0.0194479
710.229	0.0184019
710.308	0.0174436
710.386	0.0166715
710.464	0.0160881
710.542	0.0154055
710.620	0.0148903
710.698	0.0144737
710.776	0.0138733
710.854	0.0135519
710.933	0.0131685
711.011	0.0130643
711.089	0.0126468
711.167	0.0125346
711.245	0.0125027
711.323	0.0126882
711.401	0.0130009
711.479	0.0132817
711.558	0.0137473
711.636	0.0142858
711.714	0.0149316
711.792	0.0158554
711.870	0.0168152
711.948	0.0177632
712.026	0.0185997
712.104	0.0194426
712.183	0.0202901
712.261	0.0207834
712.339	0.0214875
712.417	0.0218776
712.495	0.0222082
712.573	0.0226823
712.651	0.0228239
712.729	0.0231750
712.808	0.0232467
712.886	0.0233136
712.964	0.0231696
713.042	0.0230586
713.120	0.0228963
713.198	0.0225242
713.276	0.0221133
713.354	0.0215536
713.433	0.0207011
713.511	0.0199915
713.589	0.0193747
713.667	0.0185200
713.745	0.0179035
713.823	0.0170979
713.901	0.0161560
713.979	0.0157087
714.058	0.0149934
714.136	0.0144783
714.214	0.0143182
714.292	0.0137956
714.370	0.0136652
714.448	0.0135740
714.526	0.0135546
714.604	0.0138214
714.683	0.0140833
714.761	0.0145038
714.839	0.0150478
714.917	0.0157423
714.995	0.0162180
715.073	0.0167215
715.151	0.0174210
715.229	0.0178793
715.308	0.0183722
715.386	0.0187374
715.464	0.0190121
715.542	0.0192718
715.620	0.0194212
715.698	0.0196149
715.776	0.0196369
715.854	0.0195721
715.933	0.0196339
716.011	0.0196107
716.089	0.0196473
716.167	0.0197110
716.245	0.0197735
716.323	0.0197540
716.401	0.0197882
716.479	0.0198788
716.558	0.0196689
716.636	0.0195948
716.714	0.0196252
716.792	0.0194539
716.870	0.0193196
716.948	0.0190273
717.026	0.0187179
717.104	0.0185811
717.183	0.0182864
717.261	0.0180031
717.339	0.0180381
717.417	0.0178851
717.495	0.0177000
717.573	0.0178117
717.651	0.0177737
717.729	0.0176488
717.808	0.0175030
717.886	0.0176536
717.964	0.0177235
718.042	0.0176284
718.120	0.0176069
718.198	0.0175213
718.276	0.0176872
718.354	0.0177110
718.433	0.0177454
718.511	0.0177269
718.589	0.0177949
718.667	0.0177022
718.745	0.0176720
718.823	0.0176924
718.901	0.0177283
718.979	0.0176967
719.058	0.0176859
719.136	0.0178703
719.214	0.0178320
719.292	0.0179537
719.370	0.0180135
719.448	0.0179862
719.526	0.0180502
719.604	0.0183706
719.683	0.0183394
719.761	0.0185671
719.839	0.0186804
719.917	0.0185664
719.995	0.0189339
720.073	0.0188186
720.151	0.0187053
720.229	0.0187160
720.308	0.0185195
720.386	0.0184692
720.464	0.0184447
720.542	0.0181245
720.620	0.0178946
720.698	0.0178764
720.776	0.0178930
720.854	0.0178056
720.933	0.0176665
721.011	0.0178751
721.089	0.0177912
721.167	0.0177854
721.245	0.0178638
721.323	0.0179987
721.401	0.0181551
721.479	0.0183236
721.558	0.0183521
721.636	0.0184702
721.714	0.0185241
721.792	0.0185353
721.870	0.0187033
721.948	0.0186337
722.026	0.0186185
722.104	0.0185661
722.183	0.0184319
722.261	0.0182507
722.339	0.0181645
722.417	0.0179691
722.495	0.0177764
722.573	0.0178385
722.651	0.0178342
722.729	0.0177669
722.808	0.0176482
722.886	0.0177509
722.964	0.0178690
723.042	0.0178972
723.120	0.0178868
723.198	0.0181517
723.276	0.0183958
723.354	0.0183343
723.433	0.0183769
723.511	0.0182959
723.589	0.0182265
723.667	0.0181981
723.745	0.0181923
723.823	0.0181561
723.901	0.0180622
723.979	0.0179825
724.058	0.0178289
724.136	0.0177869
724.214	0.0179081
724.292	0.0178038
724.370	0.0176595
724.448	0.0176637
724.526	0.0176834
724.604	0.0176785
724.683	0.0178014
724.761	0.0180166
724.839	0.0179974
724.917	0.0181292
724.995	0.0181654
725.073	0.0181396
725.151	0.0183376
725.229	0.0184342
725.308	0.0183311
725.386	0.0182421
725.464	0.0182040
725.542	0.0180823
725.620	0.0180623
725.698	0.0179163
725.776	0.0179472
725.854	0.0178103
725.933	0.0178796
726.011	0.0177486
726.089	0.0178484
726.167	0.0180004
726.245	0.0181812
726.323	0.0182195
726.401	0.0184347
726.479	0.0186238
726.558	0.0187044
726.636	0.0187476
726.714	0.0189300
726.792	0.0191122
726.870	0.0189613
726.948	0.0189260
727.026	0.0190152
727.104	0.0190442
727.183	0.0188205
727.261	0.0186091
727.339	0.0185609
727.417	0.0184165
727.495	0.0182841
727.573	0.0180549
727.651	0.0181090
727.729	0.0180715
727.808	0.0177914
727.886	0.0177606
727.964	0.0177018
728.042	0.0177982
728.120	0.0178198
728.198	0.0177710
728.276	0.0179054
728.354	0.0178207
728.433	0.0178549
728.511	0.0178430
728.589	0.0174754
728.667	0.0175832
728.745	0.0176493
728.823	0.0174529
728.901	0.0175038
728.979	0.0175907
729.058	0.0175809
729.136	0.0177763
729.214	0.0177133
729.292	0.0178112
729.370	0.0179250
729.448	0.0179854
729.526	0.0181589
729.604	0.0182188
729.683	0.0182748
729.761	0.0184676
729.839	0.0184368
729.917	0.0185194
729.995	0.0184904
730.073	0.0184911
730.151	0.0185462
730.229	0.0186002
730.308	0.0185674
730.386	0.0186314
730.464	0.0185458
730.542	0.0183667
730.620	0.0185295
730.698	0.0186187
730.776	0.0183836
730.854	0.0182694
730.933	0.0183331
731.011	0.0182926
731.089	0.0181971
731.167	0.0181435
731.245	0.0181712
731.323	0.0180370
731.401	0.0181730
731.479	0.0181968
731.558	0.0183235
731.636	0.0182234
731.714	0.0183531
731.792	0.0184096
731.870	0.0184333
731.948	0.0183858
732.026	0.0186477
732.104	0.0186575
732.183	0.0185871
732.261	0.0186935
732.339	0.0186456
732.417	0.0187585
732.495	0.0188992
732.573	0.0187598
732.651	0.0186629
732.729	0.0186380
732.808	0.0185466
732.886	0.0186842
732.964	0.0184467
733.042	0.0182623
733.120	0.0181266
733.198	0.0182683
733.276	0.0181422
733.354	0.0179356
733.433	0.0178049
733.511	0.0178102
733.589	0.0177921
733.667	0.0175932
733.745	0.0174427
733.823	0.0173134
733.901	0.0173997
733.979	0.0172801
734.058	0.0173337
734.136	0.0173759
734.214	0.0175597
734.292	0.0174506
734.370	0.0174372
734.448	0.0175401
734.526	0.0177914
734.604	0.0178313
734.683	0.0178009
734.761	0.0180985
734.839	0.0180286
734.917	0.0182206
734.995	0.0183841
735.073	0.0185967
735.151	0.0187189
735.229	0.0187062
735.308	0.0187872
735.386	0.0188647
735.464	0.0190236
735.542	0.0191020
735.620	0.0192342
735.698	0.0192081
735.776	0.0191277
735.854	0.0191446
735.933	0.0192377
736.011	0.0191133
736.089	0.0189112
736.167	0.0188939
736.245	0.0189149
736.323	0.0187121
736.401	0.0184557
736.479	0.0182240
736.558	0.0180883
736.636	0.0178034
736.714	0.0178031
736.792	0.0176479
736.870	0.0174535
736.948	0.0172781
737.026	0.0171422
737.104	0.0172523
737.183	0.0172503
737.261	0.0170521
737.339	0.0170592
737.417	0.0172112
737.495	0.0171385
737.573	0.0173434
737.651	0.0174975
737.729	0.0176231
737.808	0.0176565
737.886	0.0178118
737.964	0.0181113
738.042	0.0182708
738.120	0.0183643
738.198	0.0185837
738.276	0.0187405
738.354	0.0187844
738.433	0.0189684
738.511	0.0190290
738.589	0.0191003
738.667	0.0191524
738.745	0.0190958
738.823	0.0190071
738.901	0.0190614
738.979	0.0189897
739.058	0.0190479
739.136	0.0188007
739.214	0.0186855
739.292	0.0185669
739.370	0.0184190
739.448	0.0181883
739.526	0.0181923
739.604	0.0180204
739.683	0.0179003
739.761	0.0178563
739.839	0.0176890
739.917	0.0177308
739.995	0.0178288
740.073	0.0177054
740.151	0.0177142
740.229	0.0177687
740.308	0.0175943
740.386	0.0178512
740.464	0.0178101
740.542	0.0179677
740.620	0.0181087
740.698	0.0181788
740.776	0.0182678
740.854	0.0180636
740.933	0.0181856
741.011	0.0181801
741.089	0.0183504
741.167	0.0182011
741.245	0.0181667
741.323	0.0182460
741.401	0.0184715
741.479	0.0184285
741.558	0.0184446
741.636	0.0183781
741.714	0.0184169
741.792	0.0183046
741.870	0.0183070
741.948	0.0181709
742.026	0.0180363
742.104	0.0180585
742.183	0.0178413
742.261	0.0179237
742.339	0.0179663
742.417	0.0177810
742.495	0.0177106
742.573	0.0177106
742.651	0.0178715
742.729	0.0178513
742.808	0.0178560
742.886	0.0179982
742.964	0.0180233
743.042	0.0179842
743.120	0.0183246
743.198	0.0182727
743.276	0.0182860
743.354	0.0184468
743.433	0.0183564
743.511	0.0184554
743.589	0.0183984
743.667	0.0185477
743.745	0.0185149
743.823	0.0186323
743.901	0.0185244
743.979	0.0186284
744.058	0.0185869
744.136	0.0185143
744.214	0.0184824
744.292	0.0183578
744.370	0.0184499
744.448	0.0183764
744.526	0.0182637
744.604	0.0183046
744.683	0.0181255
744.761	0.0181314
744.839	0.0180402
744.917	0.0179920
744.995	0.0180694
745.073	0.0180019
745.151	0.0178929
745.229	0.0178303
745.308	0.0177402
745.386	0.0177502
745.464	0.0175745
745.542	0.0176818
745.620	0.0176575
745.698	0.0176198
745.776	0.0177065
745.854	0.0177550
745.933	0.0176640
746.011	0.0176745
746.089	0.0178071
746.167	0.0177995
746.245	0.0180338
746.323	0.0180443
746.401	0.0181893
746.479	0.0182174
746.558	0.0182966
746.636	0.0184348
746.714	0.0183776
746.792	0.0183670
746.870	0.0184330
746.948	0.0186192
747.026	0.0185178
747.104	0.0183656
747.183	0.0182928
747.261	0.0184608
747.339	0.0183284
747.417	0.0183365
747.495	0.0183760
747.573	0.0182642
747.651	0.0181940
747.729	0.0180978
747.808	0.0182098
747.886	0.0182288
747.964	0.0179704
748.042	0.0180019
748.120	0.0181356
748.198	0.0180817
748.276	0.0180515
748.354	0.0181170
748.433	0.0180274
748.511	0.0179080
748.589	0.0178652
748.667	0.0180084
748.745	0.0180821
748.823	0.0180607
748.901	0.0181599
748.979	0.0182231
749.058	0.0181613
749.136	0.0180090
749.214	0.0181562
749.292	0.0180734
749.370	0.0182092
749.448	0.0183121
749.526	0.0181322
749.604	0.0181516
749.683	0.0181780
749.761	0.0182209
749.839	0.0180863
749.917	0.0181600
749.995	0.0182132
750.073	0.0180303
750.151	0.0180231
750.229	0.0180736
750.308	0.0180940
750.386	0.0179404
750.464	0.0178475
750.542	0.0178906
750.620	0.0178535
750.698	0.0179442
750.776	0.0179351
750.854	0.0178641
750.933	0.0179658
751.011	0.0179089
751.089	0.0178816
751.167	0.0179311
751.245	0.0181084
751.323	0.0182474
751.401	0.0181965
751.479	0.0182107
751.558	0.0183485
751.636	0.0184818
751.714	0.0185020
751.792	0.0185623
751.870	0.0185582
751.948	0.0184723
752.026	0.0184348
752.104	0.0183767
752.183	0.0183939
752.261	0.0182356
752.339	0.0181187
752.417	0.0181574
752.495	0.0181448
752.573	0.0181306
752.651	0.0180847
752.729	0.0179076
752.808	0.0180199
752.886	0.0178440
752.964	0.0180700
753.042	0.0180439
753.120	0.0179571
753.198	0.0181276
753.276	0.0180996
753.354	0.0181289
753.433	0.0182553
753.511	0.0182686
753.589	0.0183000
753.667	0.0182260
753.745	0.0184035
753.823	0.0183691
753.901	0.0183610
753.979	0.0182953
754.058	0.0182056
754.136	0.0183821
754.214	0.0184097
754.292	0.0183346
754.370	0.0181339
754.448	0.0180334
754.526	0.0181139
754.604	0.0180964
754.683	0.0179271
754.761	0.0181612
754.839	0.0179468
754.917	0.0180263
754.995	0.0179864
755.073	0.0178503
755.151	0.0180132
755.229	0.0179023
755.308	0.0178406
755.386	0.0178728
755.464	0.0179865
755.542	0.0180244
755.620	0.0179595
755.698	0.0179510
755.776	0.0180817
755.854	0.0182140
755.933	0.0181509
756.011	0.0181778
756.089	0.0182104
756.167	0.0181560
756.245	0.0182292
756.323	0.0182363
756.401	0.0182433
756.479	0.0182362
756.558	0.0182578
756.636	0.0182615
756.714	0.0181835
756.792	0.0181981
756.870	0.0183523
756.948	0.0183263
757.026	0.0183082
757.104	0.0182600
757.183	0.0181990
757.261	0.0182980
757.339	0.0184145
757.417	0.0183990
757.495	0.0183780
757.573	0.0182801
757.651	0.0184346
757.729	0.0182863
757.808	0.0182117
757.886	0.0182951
757.964	0.0182481
758.042	0.0182891
758.120	0.0182278
758.198	0.0180745
758.276	0.0181046
758.354	0.0180930
758.433	0.0180913
758.511	0.0181177
758.589	0.0179855
758.667	0.0180553
758.745	0.0179752
758.823	0.0179539
758.901	0.0180325
758.979	0.0180219
759.058	0.0181015
759.136	0.0182255
759.214	0.0182522
759.292	0.0182677
759.370	0.0183835
759.448	0.0185253
759.526	0.0184067
759.604	0.0184425
759.683	0.0185639
759.761	0.0184055
759.839	0.0183572
759.917	0.0183324
759.995	0.0182816
760.073	0.0182017
760.151	0.0183669
760.229	0.0181899
760.308	0.0181823
760.386	0.0181205
760.464	0.0181045
760.542	0.0181690
760.620	0.0180888
760.698	0.0180236
760.776	0.0181231
760.854	0.0180434
760.933	0.0181954
761.011	0.0182148
761.089	0.0181051
761.167	0.0180252
761.245	0.0181651
761.323	0.0181646
761.401	0.0179353
761.479	0.0180824
761.558	0.0181102
761.636	0.0179497
761.714	0.0179851
761.792	0.0180592
761.870	0.0180796
761.948	0.0180648
762.026	0.0180561
762.104	0.0181054
762.183	0.0180455
762.261	0.0180174
762.339	0.0181809
762.417	0.0182161
762.495	0.0181127
762.573	0.0181871
762.651	0.0184097
762.729	0.0184028
762.808	0.0183543
762.886	0.0184168
762.964	0.0183252
763.042	0.0184419
763.120	0.0183971
763.198	0.0181264
763.276	0.0182898
763.354	0.0183196
763.433	0.0182265
763.511	0.0180552
763.589	0.0182279
763.667	0.0180859
763.745	0.0178492
763.823	0.0180286
763.901	0.0179202
763.979	0.0179607
764.058	0.0178640
764.136	0.0179361
764.214	0.0178026
764.292	0.0178417
764.370	0.0179451
764.448	0.0179058
764.526	0.0179937
764.604	0.0179745
764.683	0.0181512
764.761	0.0182315
764.839	0.0183617
764.917	0.0184232
764.995	0.0183830
765.073	0.0185420
765.151	0.0185522
765.229	0.0187068
765.308	0.0186400
765.386	0.0185503
765.464	0.0185727
765.542	0.0185278
765.620	0.0184859
765.698	0.0184302
765.776	0.0184088
765.854	0.0183402
765.933	0.0183125
766.011	0.0181527
766.089	0.0182925
766.167	0.0181176
766.245	0.0179693
766.323	0.0180967
766.401	0.0180897
766.479	0.0179113
766.558	0.0179394
766.636	0.0179597
766.714	0.0179604
766.792	0.0178809
766.870	0.0178692
766.948	0.0177888
767.026	0.0178659
767.104	0.0179843
767.183	0.0180275
767.261	0.0180389
767.339	0.0182166
767.417	0.0181284
767.495	0.0181026
767.573	0.0182169
767.651	0.0182016
767.729	0.0182938
767.808	0.0183760
767.886	0.0184849
767.964	0.0183920
768.042	0.0183384
768.120	0.0183894
768.198	0.0182806
768.276	0.0181563
768.354	0.0182929
768.433	0.0183158
768.511	0.0181988
768.589	0.0181491
768.667	0.0181422
768.745	0.0180798
768.823	0.0180830
768.901	0.0181108
768.979	0.0180606
769.058	0.0179639
769.136	0.0180407
769.214	0.0179520
769.292	0.0180862
769.370	0.0180911
769.448	0.0179124
769.526	0.0178305
769.604	0.0179964
769.683	0.0178912
769.761	0.0181902
769.839	0.0181052
769.917	0.0181270
769.995	0.0181306
770.073	0.0181784
770.151	0.0182231
770.229	0.0182651
770.308	0.0183904
770.386	0.0184083
770.464	0.0184231
770.542	0.0184221
770.620	0.0185857
770.698	0.0184093
770.776	0.0184934
770.854	0.0185301
770.933	0.0184044
771.011	0.0183721
771.089	0.0183002
771.167	0.0183283
771.245	0.0182433
771.323	0.0183797
771.401	0.0181744
771.479	0.0181876
771.558	0.0181895
771.636	0.0182405
771.714	0.0182080
771.792	0.0180519
771.870	0.0180847
771.948	0.0181084
772.026	0.0179861
772.104	0.0179443
772.183	0.0179798
772.261	0.0180199
772.339	0.0180345
772.417	0.0181960
772.495	0.0183067
772.573	0.0181203
772.651	0.0182120
772.729	0.0181281
772.808	0.0182766
772.886	0.0182291
772.964	0.0183321
773.042	0.0182641
773.120	0.0184286
773.198	0.0183942
773.276	0.0182217
773.354	0.0183402
773.433	0.0183190
773.511	0.0184036
773.589	0.0183405
773.667	0.0184476
773.745	0.0184086
773.823	0.0183910
773.901	0.0182446
773.979	0.0183489
774.058	0.0182594
774.136	0.0182236
774.214	0.0181332
774.292	0.0181524
774.370	0.0181354
774.448	0.0181329
774.526	0.0180630
774.604	0.0179534
774.683	0.0179648
774.761	0.0179890
774.839	0.0181528
774.917	0.0181293
774.995	0.0179287
775.073	0.0179905
775.151	0.0181017
775.229	0.0179657
775.308	0.0181181
775.386	0.0178339
775.464	0.0179424
775.542	0.0180302
775.620	0.0181021
775.698	0.0180775
775.776	0.0180601
775.854	0.0180914
775.933	0.0182806
776.011	0.0181293
776.089	0.0180988
776.167	0.0183220
776.245	0.0181233
776.323	0.0182467
776.401	0.0181850
776.479	0.0181657
776.558	0.0181313
776.636	0.0180974
776.714	0.0180749
776.792	0.0182143
776.870	0.0182186
776.948	0.0181903
777.026	0.0181367
777.104	0.0181777
777.183	0.0180484
777.261	0.0180289
777.339	0.0182112
777.417	0.0179998
777.495	0.0179353
777.573	0.0179876
777.651	0.0180617
777.729	0.0180371
777.808	0.0180140
777.886	0.0181596
777.964	0.0181010
778.042	0.0182024
778.120	0.0182785
778.198	0.0183170
778.276	0.0183652
778.354	0.0182307
778.433	0.0183327
778.511	0.0185488
778.589	0.0185260
778.667	0.0185523
778.745	0.0184344
778.823	0.0184548
778.901	0.0184289
778.979	0.0184044
779.058	0.0183715
779.136	0.0182828
779.214	0.0183807
779.292	0.0183044
779.370	0.0182507
779.448	0.0182150
779.526	0.0180770
779.604	0.0181466
779.683	0.0181142
779.761	0.0180357
779.839	0.0178860
779.917	0.0179346
779.995	0.0179781
780.073	0.0180365
780.151	0.0178984
780.229	0.0178304
780.308	0.0178557
780.386	0.0179044
780.464	0.0178297
780.542	0.0179848
780.620	0.0180915
780.698	0.0180278
780.776	0.0181478
780.854	0.0182265
780.933	0.0182704
781.011	0.0182179
781.089	0.0183012
781.167	0.0183389
781.245	0.0183985
781.323	0.0185053
781.401	0.0184142
781.479	0.0184102
781.558	0.0184734
781.636	0.0183512
781.714	0.0183969
781.792	0.0184196
781.870	0.0185025
781.948	0.0182791
782.026	0.0181606
782.104	0.0184357
782.183	0.0183105
782.261	0.0182522
782.339	0.0182662
782.417	0.0180709
782.495	0.0180512
782.573	0.0181039
782.651	0.0181297
782.729	0.0180603
782.808	0.0179468
782.886	0.0179382
782.964	0.0178086
783.042	0.0177827
783.120	0.0177662
783.198	0.0178178
783.276	0.0177836
783.354	0.0176767
783.433	0.0177045
783.511	0.0177972
783.589	0.0177302
783.667	0.0177414
783.745	0.0179131
783.823	0.0179442
783.901	0.0180175
783.979	0.0179166
784.058	0.0181097
784.136	0.0180904
784.214	0.0180673
784.292	0.0182447
784.370	0.0182110
784.448	0.0182243
784.526	0.0183533
784.604	0.0183454
784.683	0.0183768
784.761	0.0184869
784.839	0.0185122
784.917	0.0184008
784.995	0.0184993
785.073	0.0185949
785.151	0.0185997
785.229	0.0185654
785.308	0.0186053
785.386	0.0185641
785.464	0.0183628
785.542	0.0184119
785.620	0.0184154
785.698	0.0183420
785.776	0.0182658
785.854	0.0183212
785.933	0.0182623
786.011	0.0183255
786.089	0.0179308
786.167	0.0181458
786.245	0.0182550
786.323	0.0182097
786.401	0.0182333
786.479	0.0180309
786.558	0.0179365
786.636	0.0180476
786.714	0.0179096
786.792	0.0181436
786.870	0.0179309
786.948	0.0179124
787.026	0.0179609
787.104	0.0180320
787.183	0.0182552
787.261	0.0181411
787.339	0.0181234
787.417	0.0181539
787.495	0.0181093
787.573	0.0181054
787.651	0.0181247
787.729	0.0182524
787.808	0.0182322
787.886	0.0182571
787.964	0.0182023
788.042	0.0182794
788.120	0.0183938
788.198	0.0182155
788.276	0.0183400
788.354	0.0183022
788.433	0.0181817
788.511	0.0184824
788.589	0.0182546
788.667	0.0181494
788.745	0.0181635
788.823	0.0181469
788.901	0.0180159
788.979	0.0180268
789.058	0.0180415
789.136	0.0179790
789.214	0.0181075
789.292	0.0182623
789.370	0.0180156
789.448	0.0180033
789.526	0.0180514
789.604	0.0180679
789.683	0.0180168
789.761	0.0181004
789.839	0.0180919
789.917	0.0181690
789.995	0.0181241
790.073	0.0182056
790.151	0.0180910
790.229	0.0180672
790.308	0.0181999
790.386	0.0182336
790.464	0.0180742
790.542	0.0180908
790.620	0.0181844
790.698	0.0181966
790.776	0.0182097
790.854	0.0180704
790.933	0.0181651
791.011	0.0181221
791.089	0.0180640
791.167	0.0182266
791.245	0.0182274
791.323	0.0180777
791.401	0.0181310
791.479	0.0182410
791.558	0.0180930
791.636	0.0179512
791.714	0.0180507
791.792	0.0181623
791.870	0.0180667
791.948	0.0181444
792.026	0.0180975
792.104	0.0181474
792.183	0.0181713
792.261	0.0180429
792.339	0.0182071
792.417	0.0183096
792.495	0.0181498
792.573	0.0182566
792.651	0.0181633
792.729	0.0182075
792.808	0.0180779
792.886	0.0181630
792.964	0.0180930
793.042	0.0182094
793.120	0.0184177
793.198	0.0182836
793.276	0.0183855
793.354	0.0184303
793.433	0.0182146
793.511	0.0183202
793.589	0.0182872
793.667	0.0182967
793.745	0.0182867
793.823	0.0184013
793.901	0.0183720
793.979	0.0183042
794.058	0.0182909
794.136	0.0182507
794.214	0.0182188
794.292	0.0181316
794.370	0.0180735
794.448	0.0180680
794.526	0.0180215
794.604	0.0179297
794.683	0.0180692
794.761	0.0179131
794.839	0.0178814
794.917	0.0180067
794.995	0.0178790
795.073	0.0177917
795.151	0.0179316
795.229	0.0177881
795.308	0.0176754
795.386	0.0178376
795.464	0.0179009
795.542	0.0177489
795.620	0.0178303
795.698	0.0178878
795.776	0.0179539
795.854	0.0181087
795.933	0.0180872
796.011	0.0180921
796.089	0.0180550
796.167	0.0182082
796.245	0.0182574
796.323	0.0183619
796.401	0.0185271
796.479	0.0185725
796.558	0.0186377
796.636	0.0185572
796.714	0.0185925
796.792	0.0186671
796.870	0.0186555
796.948	0.0186015
797.026	0.0186443
797.104	0.0184084
797.183	0.0184939
797.261	0.0184527
797.339	0.0183659
797.417	0.0183358
797.495	0.0182581
797.573	0.0181931
797.651	0.0181402
797.729	0.0180809
797.808	0.0180904
797.886	0.0179251
797.964	0.0178979
798.042	0.0178899
798.120	0.0176265
798.198	0.0176833
798.276	0.0176914
798.354	0.0174591
798.433	0.0176418
798.511	0.0176275
798.589	0.0175170
798.667	0.0176494
798.745	0.0176817
798.823	0.0177205
798.901	0.0177551
798.979	0.0177443
799.058	0.0178498
799.136	0.0179186
799.214	0.0180335
799.292	0.0181033
799.370	0.0181378
799.448	0.0183302
799.526	0.0184359
799.604	0.0185537
799.683	0.0185971
799.761	0.0185854
799.839	0.0188105
799.917	0.0187615
799.995	0.0189170
800.073	0.0188957
800.151	0.0189327
800.229	0.0189304
800.308	0.0189792
800.386	0.0189961
800.464	0.0187373
800.542	0.0186436
800.620	0.0185801
800.698	0.0184574
800.776	0.0184957
800.854	0.0183106
800.933	0.0183056
801.011	0.0181040
801.089	0.0178125
801.167	0.0178410
801.245	0.0176947
801.323	0.0176012
801.401	0.0175526
801.479	0.0173270
801.558	0.0171488
801.636	0.0172113
801.714	0.0173457
801.792	0.0173918
801.870	0.0172151
801.948	0.0173719
802.026	0.0174696
802.104	0.0174429
802.183	0.0175716
802.261	0.0180088
802.339	0.0178512
802.417	0.0180280
802.495	0.0181384
802.573	0.0182001
802.651	0.0184072
802.729	0.0184852
802.808	0.0185902
802.886	0.0185773
802.964	0.0188214
803.042	0.0189852
803.120	0.0188720
803.198	0.0188358
803.276	0.0188467
803.354	0.0190119
803.433	0.0189008
803.511	0.0188357
803.589	0.0187680
803.667	0.0185741
803.745	0.0185889
803.823	0.0184081
803.901	0.0184116
803.979	0.0183575
804.058	0.0180167
804.136	0.0178014
804.214	0.0178645
804.292	0.0177139
804.370	0.0177370
804.448	0.0176424
804.526	0.0176292
804.604	0.0175174
804.683	0.0174383
804.761	0.0175340
804.839	0.0174197
804.917	0.0176482
804.995	0.0175700
805.073	0.0176057
805.151	0.0178215
805.229	0.0178709
805.308	0.0178931
805.386	0.0178410
805.464	0.0180914
805.542	0.0180445
805.620	0.0181369
805.698	0.0183812
805.776	0.0183342
805.854	0.0184262
805.933	0.0185330
806.011	0.0185202
806.089	0.0185964
806.167	0.0188358
806.245	0.0188006
806.323	0.0188085
806.401	0.0186658
806.479	0.0186845
806.558	0.0186101
806.636	0.0185933
806.714	0.0185351
806.792	0.0185088
806.870	0.0183128
806.948	0.0183863
807.026	0.0182804
807.104	0.0182551
807.183	0.0180596
807.261	0.0181428
807.339	0.0180941
807.417	0.0179249
807.495	0.0178662
807.573	0.0179440
807.651	0.0177258
807.729	0.0177887
807.808	0.0176734
807.886	0.0174670
807.964	0.0174408
808.042	0.0174625
808.120	0.0175578
808.198	0.0174513
808.276	0.0176219
808.354	0.0176768
808.433	0.0176893
808.511	0.0178648
808.589	0.0178657
808.667	0.0179388
808.745	0.0179665
808.823	0.0180823
808.901	0.0182652
808.979	0.0183300
809.058	0.0183989
809.136	0.0184125
809.214	0.0184802
809.292	0.0187125
809.370	0.0187437
809.448	0.0188733
809.526	0.0188634
809.604	0.0188746
809.683	0.0188421
809.761	0.0188052
809.839	0.0187394
809.917	0.0185447
809.995	0.0185485
810.073	0.0186193
810.151	0.0184654
810.229	0.0184126
810.308	0.0182115
810.386	0.0181763
810.464	0.0182049
810.542	0.0181258
810.620	0.0178564
810.698	0.0175288
810.776	0.0177334
810.854	0.0177742
810.933	0.0176764
811.011	0.0178208
811.089	0.0178398
811.167	0.0177932
811.245	0.0176152
811.323	0.0177820
811.401	0.0177428
811.479	0.0176959
811.558	0.0178655
811.636	0.0178164
811.714	0.0177505
811.792	0.0178966
811.870	0.0179958
811.948	0.0178820
812.026	0.0179975
812.104	0.0179177
812.183	0.0179856
812.261	0.0181006
812.339	0.0181261
812.417	0.0181212
812.495	0.0182309
812.573	0.0182796
812.651	0.0183382
812.729	0.0182639
812.808	0.0183079
812.886	0.0183525
812.964	0.0185454
813.042	0.0186086
813.120	0.0185473
813.198	0.0185321
813.276	0.0184794
813.354	0.0185104
813.433	0.0185276
813.511	0.0184945
813.589	0.0184251
813.667	0.0184283
813.745	0.0183403
813.823	0.0181918
813.901	0.0182613
813.979	0.0179810
814.058	0.0181001
814.136	0.0181161
814.214	0.0180224
814.292	0.0178957
814.370	0.0178384
814.448	0.0178211
814.526	0.0177989
814.604	0.0178152
814.683	0.0178423
814.761	0.0177408
814.839	0.0177212
814.917	0.0175949
814.995	0.0178691
815.073	0.0177953
815.151	0.0176262
815.229	0.0177689
815.308	0.0178909
815.386	0.0178296
815.464	0.0181088
815.542	0.0180277
815.620	0.0181385
815.698	0.0181130
815.776	0.0181551
815.854	0.0181920
815.933	0.0182464
816.011	0.0183763
816.089	0.0182993
816.167	0.0183720
816.245	0.0182745
816.323	0.0182691
816.401	0.0183279
816.479	0.0183593
816.558	0.0183299
816.636	0.0181816
816.714	0.0181499
816.792	0.0181028
816.870	0.0181283
816.948	0.0181350
817.026	0.0179332
817.104	0.0179933
817.183	0.0179055
817.261	0.0177409
817.339	0.0180305
817.417	0.0179833
817.495	0.0179952
817.573	0.0179856
817.651	0.0179876
817.729	0.0180205
817.808	0.0180318
817.886	0.0180629
817.964	0.0180889
818.042	0.0181559
818.120	0.0182733
818.198	0.0183092
818.276	0.0182765
818.354	0.0182839
818.433	0.0182336
818.511	0.0182396
818.589	0.0181956
818.667	0.0181731
818.745	0.0180357
818.823	0.0182136
818.901	0.0182047
818.979	0.0181369
819.058	0.0182848
819.136	0.0182177
819.214	0.0180391
819.292	0.0181850
819.370	0.0180482
819.448	0.0181324
819.526	0.0181422
819.604	0.0181658
819.683	0.0181821
819.761	0.0181588
819.839	0.0181405
819.917	0.0180582
819.995	0.0180304
820.073	0.0180958
820.151	0.0180371
820.229	0.0180687
820.308	0.0180486
820.386	0.0181339
820.464	0.0180657
820.542	0.0180566
820.620	0.0180045
820.698	0.0180579
820.776	0.0180956
820.854	0.0181770
820.933	0.0180560
821.011	0.0181731
821.089	0.0181013
821.167	0.0181422
821.245	0.0182510
821.323	0.0183127
821.401	0.0182241
821.479	0.0184943
821.558	0.0182825
821.636	0.0183975
821.714	0.0184004
821.792	0.0182919
821.870	0.0183897
821.948	0.0183068
822.026	0.0183148
822.104	0.0182500
822.183	0.0181580
822.261	0.0180832
822.339	0.0180225
822.417	0.0179584
822.495	0.0179764
822.573	0.0178895
822.651	0.0179115
822.729	0.0178359
822.808	0.0178587
822.886	0.0176283
822.964	0.0176071
823.042	0.0177117
823.120	0.0176532
823.198	0.0179226
823.276	0.0177722
823.354	0.0177507
823.433	0.0178214
823.511	0.0180754
823.589	0.0179707
823.667	0.0180726
823.745	0.0182291
823.823	0.0183559
823.901	0.0183013
823.979	0.0185629
824.058	0.0185530
824.136	0.0185915
824.214	0.0186051
824.292	0.0186919
824.370	0.0184666
824.448	0.0185650
824.526	0.0186875
824.604	0.0185732
824.683	0.0186465
824.761	0.0186300
824.839	0.0184355
824.917	0.0182356
824.995	0.0180769
825.073	0.0180687
825.151	0.0180387
825.229	0.0179809
825.308	0.0179626
825.386	0.0179533
825.464	0.0177750
825.542	0.0177175
825.620	0.0177002
825.698	0.0176070
825.776	0.0175584
825.854	0.0176228
825.933	0.0176820
826.011	0.0178023
826.089	0.0176913
826.167	0.0175206
826.245	0.0177849
826.323	0.0176604
826.401	0.0177485
826.479	0.0180243
826.558	0.0179922
826.636	0.0180508
826.714	0.0180723
826.792	0.0182622
826.870	0.0183286
826.948	0.0183549
827.026	0.0183986
827.104	0.0185171
827.183	0.0185944
827.261	0.0186209
827.339	0.0187563
827.417	0.0186217
827.495	0.0187428
827.573	0.0188039
827.651	0.0187608
827.729	0.0185635
827.808	0.0186424
827.886	0.0184388
827.964	0.0184195
828.042	0.0182620
828.120	0.0183221
828.198	0.0181488
828.276	0.0179871
828.354	0.0178671
828.433	0.0178923
828.511	0.0178234
828.589	0.0177400
828.667	0.0175745
828.745	0.0177202
828.823	0.0176360
828.901	0.0176019
828.979	0.0177709
829.058	0.0176173
829.136	0.0177454
829.214	0.0177522
829.292	0.0178841
829.370	0.0176531
829.448	0.0179658
829.526	0.0179595
829.604	0.0180256
829.683	0.0181612
829.761	0.0182913
829.839	0.0184309
829.917	0.0184020
829.995	0.0183740
830.073	0.0184163
830.151	0.0185683
830.229	0.0186318
830.308	0.0185997
830.386	0.0187337
830.464	0.0186130
830.542	0.0187025
830.620	0.0185143
830.698	0.0184993
830.776	0.0182973
830.854	0.0184109
830.933	0.0183409
831.011	0.0181706
831.089	0.0181797
831.167	0.0181089
831.245	0.0177859
831.323	0.0177749
831.401	0.0179601
831.479	0.0177844
831.558	0.0177160
831.636	0.0177969
831.714	0.0178017
831.792	0.0177033
831.870	0.0178290
831.948	0.0177527
832.026	0.0177814
832.104	0.0180309
832.183	0.0180482
832.261	0.0180143
832.339	0.0180325
832.417	0.0181256
832.495	0.0181751
832.573	0.0181283
832.651	0.0182671
832.729	0.0182287
832.808	0.0184172
832.886	0.0184549
832.964	0.0186206
833.042	0.0185603
833.120	0.0184213
833.198	0.0185751
833.276	0.0185580
833.354	0.0185237
833.433	0.0185601
833.511	0.0184618
833.589	0.0182164
833.667	0.0183474
833.745	0.0182291
833.823	0.0181722
833.901	0.0181979
833.979	0.0181010
834.058	0.0179950
834.136	0.0179074
834.214	0.0178416
834.292	0.0178358
834.370	0.0178441
834.448	0.0177425
834.526	0.0178229
834.604	0.0178812
834.683	0.0179112
834.761	0.0177412
834.839	0.0178119
834.917	0.0180196
834.995	0.0180512
835.073	0.0180518
835.151	0.0179686
835.229	0.0182137
835.308	0.0182613
835.386	0.0182417
835.464	0.0183672
835.542	0.0184289
835.620	0.0184652
835.698	0.0184910
835.776	0.0184982
835.854	0.0185383
835.933	0.0184321
836.011	0.0185093
836.089	0.0185708
836.167	0.0186755
836.245	0.0187414
836.323	0.0185851
836.401	0.0185968
836.479	0.0184785
836.558	0.0185368
836.636	0.0184588
836.714	0.0183408
836.792	0.0183084
836.870	0.0181534
836.948	0.0181366
837.026	0.0180479
837.104	0.0178526
837.183	0.0178619
837.261	0.0177554
837.339	0.0176254
837.417	0.0175487
837.495	0.0177560
837.573	0.0176650
837.651	0.0175648
837.729	0.0176699
837.808	0.0176677
837.886	0.0176371
837.964	0.0178461
838.042	0.0177897
838.120	0.0179549
838.198	0.0181026
838.276	0.0180598
838.354	0.0181923
838.433	0.0183460
838.511	0.0183656
838.589	0.0182093
838.667	0.0183612
838.745	0.0184518
838.823	0.0184489
838.901	0.0185310
838.979	0.0184956
839.058	0.0184598
839.136	0.0184865
839.214	0.0184081
839.292	0.0184557
839.370	0.0183897
839.448	0.0184158
839.526	0.0184353
839.604	0.0184009
839.683	0.0182578
839.761	0.0183137
839.839	0.0182541
839.917	0.0182897
839.995	0.0181398
840.073	0.0178860
840.151	0.0180642
840.229	0.0180092
840.308	0.0179391
840.386	0.0179562
840.464	0.0179603
840.542	0.0178235
840.620	0.0179637
840.698	0.0180340
840.776	0.0179472
840.854	0.0179217
840.933	0.0180421
841.011	0.0181238
841.089	0.0180146
841.167	0.0182074
841.245	0.0182612
841.323	0.0182562
841.401	0.0183367
841.479	0.0183260
841.558	0.0184521
841.636	0.0185339
841.714	0.0184437
841.792	0.0184221
841.870	0.0182745
841.948	0.0185680
842.026	0.0183497
842.104	0.0184726
842.183	0.0184211
842.261	0.0183816
842.339	0.0184467
842.417	0.0183358
842.495	0.0181440
842.573	0.0183363
842.651	0.0183321
842.729	0.0182270
842.808	0.0180447
842.886	0.0182000
842.964	0.0183087
843.042	0.0180438
843.120	0.0180373
843.198	0.0180788
843.276	0.0180185
843.354	0.0180936
843.433	0.0180775
843.511	0.0179863
843.589	0.0178479
843.667	0.0179100
843.745	0.0178994
843.823	0.0180468
843.901	0.0178244
843.979	0.0179715
844.058	0.0179237
844.136	0.0178681
844.214	0.0180807
844.292	0.0180741
844.370	0.0180090
844.448	0.0179945
844.526	0.0181020
844.604	0.0181014
844.683	0.0182004
844.761	0.0181898
844.839	0.0182364
844.917	0.0181602
844.995	0.0182382
845.073	0.0182275
845.151	0.0182498
845.229	0.0182366
845.308	0.0182275
845.386	0.0182494
845.464	0.0182262
845.542	0.0183804
845.620	0.0181811
845.698	0.0182321
845.776	0.0181609
845.854	0.0182140
845.933	0.0181009
846.011	0.0181456
846.089	0.0181326
846.167	0.0181988
846.245	0.0182479
846.323	0.0181100
846.401	0.0180854
846.479	0.0181477
846.558	0.0181687
846.636	0.0182464
846.714	0.0182264
846.792	0.0180972
846.870	0.0181491
846.948	0.0182236
847.026	0.0182124
847.104	0.0181967
847.183	0.0180807
847.261	0.0181761
847.339	0.0181501
847.417	0.0181103
847.495	0.0182439
847.573	0.0182656
847.651	0.0180983
847.729	0.0181853
847.808	0.0183265
847.886	0.0182525
847.964	0.0181228
848.042	0.0182333
848.120	0.0183408
848.198	0.0182366
848.276	0.0183305
848.354	0.0183062
848.433	0.0181933
848.511	0.0181223
848.589	0.0182676
848.667	0.0182023
848.745	0.0181908
848.823	0.0180800
848.901	0.0180621
848.979	0.0180907
849.058	0.0179118
849.136	0.0179771
849.214	0.0179111
849.292	0.0180461
849.370	0.0179619
849.448	0.0180476
849.526	0.0180892
849.604	0.0181218
849.683	0.0179658
849.761	0.0180386
849.839	0.0182513
849.917	0.0180274
849.995	0.0182465
850.073	0.0183440
850.151	0.0181482
850.229	0.0182790
850.308	0.0182166
850.386	0.0182288
850.464	0.0183224
850.542	0.0182348
850.620	0.0182889
850.698	0.0181607
850.776	0.0181371
850.854	0.0180982
850.933	0.0181817
851.011	0.0180968
851.089	0.0183130
851.167	0.0181384
851.245	0.0181018
851.323	0.0181412
851.401	0.0181752
851.479	0.0181148
851.558	0.0181609
851.636	0.0181383
851.714	0.0181749
851.792	0.0180266
851.870	0.0182838
851.948	0.0182009
852.026	0.0181171
852.104	0.0180739
852.183	0.0182368
852.261	0.0182638
852.339	0.0181802
852.417	0.0181797
852.495	0.0182042
852.573	0.0181222
852.651	0.0181363
852.729	0.0183083
852.808	0.0182034
852.886	0.0180547
852.964	0.0182256
853.042	0.0181535
853.120	0.0180870
853.198	0.0179083
853.276	0.0180206
853.354	0.0182026
853.433	0.0181587
853.511	0.0179644
853.589	0.0178771
853.667	0.0179617
853.745	0.0180004
853.823	0.0180140
853.901	0.0180245
853.979	0.0178637
854.058	0.0179606
854.136	0.0179830
854.214	0.0179008
854.292	0.0179723
854.370	0.0180077
854.448	0.0181094
854.526	0.0181643
854.604	0.0181392
854.683	0.0182005
854.761	0.0182358
854.839	0.0182497
854.917	0.0182821
854.995	0.0182948
855.073	0.0182628
855.151	0.0182859
855.229	0.0183653
855.308	0.0182787
855.386	0.0183484
855.464	0.0183021
855.542	0.0183331
855.620	0.0185205
855.698	0.0183762
855.776	0.0182311
855.854	0.0182502
855.933	0.0182745
856.011	0.0182674
856.089	0.0182365
856.167	0.0182187
856.245	0.0181799
856.323	0.0181956
856.401	0.0181451
856.479	0.0181409
856.558	0.0182884
856.636	0.0181898
856.714	0.0180828
856.792	0.0180793
856.870	0.0180714
856.948	0.0180148
857.026	0.0182131
857.104	0.0180367
857.183	0.0181017
857.261	0.0181579
857.339	0.0180276
857.417	0.0181886
857.495	0.0183431
857.573	0.0180629
857.651	0.0180325
857.729	0.0180308
857.808	0.0182015
857.886	0.0181863
857.964	0.0182708
858.042	0.0182230
858.120	0.0181056
858.198	0.0180599
858.276	0.0181022
858.354	0.0181625
858.433	0.0181290
858.511	0.0180652
858.589	0.0180827
858.667	0.0182742
858.745	0.0181063
858.823	0.0182172
858.901	0.0180756
858.979	0.0182478
859.058	0.0182295
859.136	0.0182002
859.214	0.0181293
859.292	0.0182635
859.370	0.0181459
859.448	0.0182171
859.526	0.0181025
859.604	0.0181607
859.683	0.0181918
859.761	0.0181447
859.839	0.0182053
859.917	0.0182618
859.995	0.0183623
860.073	0.0181622
860.151	0.0182140
860.229	0.0184009
860.308	0.0185119
860.386	0.0183123
860.464	0.0182497
860.542	0.0182315
860.620	0.0180891
860.698	0.0182759
860.776	0.0183195
860.854	0.0182862
860.933	0.0181238
861.011	0.0182108
861.089	0.0183117
861.167	0.0182550
861.245	0.0181583
861.323	0.0182031
861.401	0.0181119
861.479	0.0182456
861.558	0.0183045
861.636	0.0181038
861.714	0.0180392
861.792	0.0181040
861.870	0.0180492
861.948	0.0180415
862.026	0.0180633
862.104	0.0180575
862.183	0.0180074
862.261	0.0181065
862.339	0.0180547
862.417	0.0182443
862.495	0.0180921
862.573	0.0180866
862.651	0.0181853
862.729	0.0180990
862.808	0.0181918
862.886	0.0181680
862.964	0.0183295
863.042	0.0181999
863.120	0.0182059
863.198	0.0182841
863.276	0.0183131
863.354	0.0184850
863.433	0.0183158
863.511	0.0181696
863.589	0.0182978
863.667	0.0184316
863.745	0.0185274
863.823	0.0185255
863.901	0.0184255
863.979	0.0184258
864.058	0.0182841
864.136	0.0183913
864.214	0.0183413
864.292	0.0183028
864.370	0.0182056
864.448	0.0182240
864.526	0.0183078
864.604	0.0181332
864.683	0.0181929
864.761	0.0180527
864.839	0.0180173
864.917	0.0179800
864.995	0.0180210
865.073	0.0180858
865.151	0.0179460
865.229	0.0179501
865.308	0.0179325
865.386	0.0179832
865.464	0.0178864
865.542	0.0179936
865.620	0.0180900
865.698	0.0179985
865.776	0.0180635
865.854	0.0180032
865.933	0.0180524
866.011	0.0182168
866.089	0.0183825
866.167	0.0182931
866.245	0.0181081
866.323	0.0183797
866.401	0.0183370
866.479	0.0183358
866.558	0.0183817
866.636	0.0184161
866.714	0.0183636
866.792	0.0183503
866.870	0.0182542
866.948	0.0183157
867.026	0.0182781
867.104	0.0182187
867.183	0.0182813
867.261	0.0181995
867.339	0.0180838
867.417	0.0180201
867.495	0.0181440
867.573	0.0179659
867.651	0.0179676
867.729	0.0180429
867.808	0.0180898
867.886	0.0181728
867.964	0.0180574
868.042	0.0182248
868.120	0.0181135
868.198	0.0180453
868.276	0.0180714
868.354	0.0181297
868.433	0.0181579
868.511	0.0181902
868.589	0.0181464
868.667	0.0180926
868.745	0.0181942
868.823	0.0181095
868.901	0.0181667
868.979	0.0181290
869.058	0.0181464
869.136	0.0181618
869.214	0.0181354
869.292	0.0181184
869.370	0.0182964
869.448	0.0181789
869.526	0.0181130
869.604	0.0182510
869.683	0.0181400
869.761	0.0181876
869.839	0.0180898
869.917	0.0181435
869.995	0.0180169
870.073	0.0180819
870.151	0.0181087
870.229	0.0182027
870.308	0.0182623
870.386	0.0180357
870.464	0.0180602
870.542	0.0181104
870.620	0.0180551
870.698	0.0181956
870.776	0.0181101
870.854	0.0183011
870.933	0.0181545
871.011	0.0181561
871.089	0.0181625
871.167	0.0181464
871.245	0.0181929
871.323	0.0182230
871.401	0.0182452
871.479	0.0181664
871.558	0.0182049
871.636	0.0181778
871.714	0.0181006
871.792	0.0182491
871.870	0.0182829
871.948	0.0181370
872.026	0.0181532
872.104	0.0179787
872.183	0.0182200
872.261	0.0181470
872.339	0.0180958
872.417	0.0181704
872.495	0.0181807
872.573	0.0182430
872.651	0.0182671
872.729	0.0181896
872.808	0.0182478
872.886	0.0183508
872.964	0.0182268
873.042	0.0182240
873.120	0.0181830
873.198	0.0181608
873.276	0.0183068
873.354	0.0182653
873.433	0.0181253
873.511	0.0180677
873.589	0.0180878
873.667	0.0181259
873.745	0.0181593
873.823	0.0179408
873.901	0.0179975
873.979	0.0180227
874.058	0.0180396
874.136	0.0180292
874.214	0.0180003
874.292	0.0179939
874.370	0.0180331
874.448	0.0180561
874.526	0.0182087
874.604	0.0179266
874.683	0.0180435
874.761	0.0181895
874.839	0.0181236
874.917	0.0181940
874.995	0.0182565
875.073	0.0182076
875.151	0.0182129
875.229	0.0180808
875.308	0.0182836
875.386	0.0181532
875.464	0.0181297
875.542	0.0182768
875.620	0.0181350
875.698	0.0182816
875.776	0.0181702
875.854	0.0181927
875.933	0.0182435
876.011	0.0182669
876.089	0.0182511
876.167	0.0180614
876.245	0.0180799
876.323	0.0181457
876.401	0.0179718
876.479	0.0181686
876.558	0.0181520
876.636	0.0180424
876.714	0.0180571
876.792	0.0180157
876.870	0.0181684
876.948	0.0181929
877.026	0.0180371
877.104	0.0180780
877.183	0.0180064
877.261	0.0180249
877.339	0.0180365
877.417	0.0179523
877.495	0.0182044
877.573	0.0179198
877.651	0.0179157
877.729	0.0180520
877.808	0.0179414
877.886	0.0180295
877.964	0.0179826
878.042	0.0180101
878.120	0.0180037
878.198	0.0180444
878.276	0.0180507
878.354	0.0181504
878.433	0.0181471
878.511	0.0182005
878.589	0.0182063
878.667	0.0183637
878.745	0.0182894
878.823	0.0181709
878.901	0.0181773
878.979	0.0182276
879.058	0.0182216
879.136	0.0182573
879.214	0.0181889
879.292	0.0181181
879.370	0.0181979
879.448	0.0182082
879.526	0.0181470
879.604	0.0182304
879.683	0.0182058
879.761	0.0180006
879.839	0.0180833
879.917	0.0181024
879.995	0.0181754
880.073	0.0179930
880.151	0.0178746
880.229	0.0181387
880.308	0.0179374
880.386	0.0178577
880.464	0.0179189
880.542	0.0180456
880.620	0.0181103
880.698	0.0179488
880.776	0.0180325
880.854	0.0180850
880.933	0.0180965
881.011	0.0180856
881.089	0.0182626
881.167	0.0181054
881.245	0.0181299
881.323	0.0182506
881.401	0.0182144
881.479	0.0181835
881.558	0.0181951
881.636	0.0182333
881.714	0.0181767
881.792	0.0182623
881.870	0.0181854
881.948	0.0184109
882.026	0.0181026
882.104	0.0182636
882.183	0.0183031
882.261	0.0181681
882.339	0.0182355
882.417	0.0181087
882.495	0.0180769
882.573	0.0181299
882.651	0.0180605
882.729	0.0180809
882.808	0.0181386
882.886	0.0181196
882.964	0.0178554
883.042	0.0180193
883.120	0.0180330
883.198	0.0180878
883.276	0.0181019
883.354	0.0178287
883.433	0.0179572
883.511	0.0180358
883.589	0.0180707
883.667	0.0180370
883.745	0.0180489
883.823	0.0180602
883.901	0.0182040
883.979	0.0180323
884.058	0.0180090
884.136	0.0181087
884.214	0.0182204
884.292	0.0181918
884.370	0.0181548
884.448	0.0181165
884.526	0.0181645
884.604	0.0180597
884.683	0.0181332
884.761	0.0182663
884.839	0.0183438
884.917	0.0182426
884.995	0.0182603
885.073	0.0181879
885.151	0.0183214
885.229	0.0182145
885.308	0.0181767
885.386	0.0182212
885.464	0.0183044
885.542	0.0181549
885.620	0.0180701
885.698	0.0179630
885.776	0.0180536
885.854	0.0181149
885.933	0.0180769
886.011	0.0180342
886.089	0.0177832
886.167	0.0179261
886.245	0.0179491
886.323	0.0179858
886.401	0.0180288
886.479	0.0180276
886.558	0.0180670
886.636	0.0180346
886.714	0.0180660
886.792	0.0181522
886.870	0.0182919
886.948	0.0181856
887.026	0.0181248
887.104	0.0181193
887.183	0.0182682
887.261	0.0181450
887.339	0.0180756
887.417	0.0181887
887.495	0.0181290
887.573	0.0181349
887.651	0.0181075
887.729	0.0182500
887.808	0.0183521
887.886	0.0180460
887.964	0.0181931
888.042	0.0181819
888.120	0.0181607
888.198	0.0182248
888.276	0.0182027
888.354	0.0182232
888.433	0.0181903
888.511	0.0181750
888.589	0.0183463
888.667	0.0183421
888.745	0.0183971
888.823	0.0185661
888.901	0.0183830
888.979	0.0183100
889.058	0.0184093
889.136	0.0183483
889.214	0.0182027
889.292	0.0182111
889.370	0.0181806
889.448	0.0181482
889.526	0.0179586
889.604	0.0179404
889.683	0.0179641
889.761	0.0178737
889.839	0.0178741
889.917	0.0178622
889.995	0.0178499
890.073	0.0178461
890.151	0.0177721
890.229	0.0176244
890.308	0.0177338
890.386	0.0178806
890.464	0.0179668
890.542	0.0178832
890.620	0.0179691
890.698	0.0181112
890.776	0.0179509
890.854	0.0181376
890.933	0.0181653
891.011	0.0181491
891.089	0.0183781
891.167	0.0183304
891.245	0.0182474
891.323	0.0183889
891.401	0.0184361
891.479	0.0185319
891.558	0.0185302
891.636	0.0185603
891.714	0.0184700
891.792	0.0183939
891.870	0.0185883
891.948	0.0184583
892.026	0.0185106
892.104	0.0185033
892.183	0.0185139
892.261	0.0182693
892.339	0.0182025
892.417	0.0183385
892.495	0.0182455
892.573	0.0180955
892.651	0.0179374
892.729	0.0181776
892.808	0.0179111
892.886	0.0178706
892.964	0.0176698
893.042	0.0176583
893.120	0.0177094
893.198	0.0176925
893.276	0.0175938
893.354	0.0177168
893.433	0.0176247
893.511	0.0175905
893.589	0.0174678
893.667	0.0175061
893.745	0.0175636
893.823	0.0175603
893.901	0.0175159
893.979	0.0177403
894.058	0.0178529
894.136	0.0178870
894.214	0.0180939
894.292	0.0181083
894.370	0.0182355
894.448	0.0185754
894.526	0.0186860
894.604	0.0187825
894.683	0.0190263
894.761	0.0189487
894.839	0.0190055
894.917	0.0191619
894.995	0.0191470
895.073	0.0189935
895.151	0.0189330
895.229	0.0188898
895.308	0.0187372
895.386	0.0185584
895.464	0.0184425
895.542	0.0183298
895.620	0.0181234
895.698	0.0178178
895.776	0.0177975
895.854	0.0176349
895.933	0.0174361
896.011	0.0173051
896.089	0.0174355
896.167	0.0172121
896.245	0.0172440
896.323	0.0172811
896.401	0.0173005
896.479	0.0172781
896.558	0.0173518
896.636	0.0175659
896.714	0.0176316
896.792	0.0177107
896.870	0.0178123
896.948	0.0179298
897.026	0.0180538
897.104	0.0182173
897.183	0.0182484
897.261	0.0184015
897.339	0.0186900
897.417	0.0186064
897.495	0.0186372
897.573	0.0188303
897.651	0.0189813
897.729	0.0189656
897.808	0.0190594
897.886	0.0191375
897.964	0.0190365
898.042	0.0190421
898.120	0.0190894
898.198	0.0189359
898.276	0.0187561
898.354	0.0185995
898.433	0.0185680
898.511	0.0184624
898.589	0.0180733
898.667	0.0180497
898.745	0.0178973
898.823	0.0177042
898.901	0.0175903
898.979	0.0173958
899.058	0.0172868
899.136	0.0171953
899.214	0.0172468
899.292	0.0171336
899.370	0.0170699
899.448	0.0171075
899.526	0.0171420
899.604	0.0170644
899.683	0.0172627
899.761	0.0172585
899.839	0.0174935
899.917	0.0175974
899.995	0.0177285
900.073	0.0179769
900.151	0.0180386
900.229	0.0182334
900.308	0.0183762
900.386	0.0184951
900.464	0.0186713
900.542	0.0189439
900.620	0.0190221
900.698	0.0190187
900.776	0.0191582
900.854	0.0192550
900.933	0.0191804
901.011	0.0192727
901.089	0.0191436
901.167	0.0190852
901.245	0.0190455
901.323	0.0190594
901.401	0.0186964
901.479	0.0186300
901.558	0.0183897
901.636	0.0182346
901.714	0.0179766
901.792	0.0178012
901.870	0.0175590
901.948	0.0174348
902.026	0.0172791
902.104	0.0172056
902.183	0.0171954
902.261	0.0172443
902.339	0.0172642
902.417	0.0172900
902.495	0.0172858
902.573	0.0173872
902.651	0.0175242
902.729	0.0177210
902.808	0.0176347
902.886	0.0177942
902.964	0.0178288
903.042	0.0180260
903.120	0.0180502
903.198	0.0180912
903.276	0.0182963
903.354	0.0184230
903.433	0.0183739
903.511	0.0184276
903.589	0.0184643
903.667	0.0187425
903.745	0.0185872
903.823	0.0186862
903.901	0.0187691
903.979	0.0187447
904.058	0.0186993
904.136	0.0188834
904.214	0.0188698
904.292	0.0186279
904.370	0.0186676
904.448	0.0186083
904.526	0.0185300
904.604	0.0183468
904.683	0.0183413
904.761	0.0182319
904.839	0.0180955
904.917	0.0180669
904.995	0.0180790
905.073	0.0179399
905.151	0.0177905
905.229	0.0177730
905.308	0.0177463
905.386	0.0176594
905.464	0.0178141
905.542	0.0176241
905.620	0.0175357
905.698	0.0175925
905.776	0.0176357
905.854	0.0176991
905.933	0.0175926
906.011	0.0176543
906.089	0.0177134
906.167	0.0177923
906.245	0.0179733
906.323	0.0179329
906.401	0.0179664
906.479	0.0179817
906.558	0.0182256
906.636	0.0182283
906.714	0.0183385
906.792	0.0183427
906.870	0.0183929
906.948	0.0185120
907.026	0.0185851
907.104	0.0185108
907.183	0.0184637
907.261	0.0185632
907.339	0.0184392
907.417	0.0184506
907.495	0.0183140
907.573	0.0183259
907.651	0.0182439
907.729	0.0182408
907.808	0.0182228
907.886	0.0180678
907.964	0.0180135
908.042	0.0178960
908.120	0.0180552
908.198	0.0178216
908.276	0.0179227
908.354	0.0179067
908.433	0.0179958
908.511	0.0180531
908.589	0.0181750
908.667	0.0179728
908.745	0.0179671
908.823	0.0179610
908.901	0.0181345
908.979	0.0180264
909.058	0.0181615
909.136	0.0182553
909.214	0.0181181
909.292	0.0182763
909.370	0.0181796
909.448	0.0180714
909.526	0.0182791
909.604	0.0183292
909.683	0.0182979
909.761	0.0182930
909.839	0.0184215
909.917	0.0183370
909.995	0.0183267
910.073	0.0183032
910.151	0.0183176
910.229	0.0182467
910.308	0.0183179
910.386	0.0181335
910.464	0.0180835
910.542	0.0181481
910.620	0.0181805
910.698	0.0182599
910.776	0.0182864
910.854	0.0181513
910.933	0.0182061
911.011	0.0181182
911.089	0.0181958
911.167	0.0182077
911.245	0.0181509
911.323	0.0180375
911.401	0.0181271
911.479	0.0181641
911.558	0.0182039
911.636	0.0181307
911.714	0.0181914
911.792	0.0180846
911.870	0.0181580
911.948	0.0183185
912.026	0.0181625
912.104	0.0181289
912.183	0.0181712
912.261	0.0181928
912.339	0.0181899
912.417	0.0181979
912.495	0.0183017
912.573	0.0181676
912.651	0.0183363
912.729	0.0183020
912.808	0.0182661
912.886	0.0184344
912.964	0.0183140
913.042	0.0184677
913.120	0.0183893
913.198	0.0182143
913.276	0.0183436
913.354	0.0182490
913.433	0.0182456
913.511	0.0182368
913.589	0.0182690
913.667	0.0183361
913.745	0.0183707
913.823	0.0181534
913.901	0.0181503
913.979	0.0181360
914.058	0.0182482
914.136	0.0181594
914.214	0.0182344
914.292	0.0183138
914.370	0.0181033
914.448	0.0180302
914.526	0.0179984
914.604	0.0180792
914.683	0.0182681
914.761	0.0182619
914.839	0.0181144
914.917	0.0181944
914.995	0.0181758
915.073	0.0180563
915.151	0.0181325
915.229	0.0183332
915.308	0.0181728
915.386	0.0181531
915.464	0.0182832
915.542	0.0181740
915.620	0.0182320
915.698	0.0183149
915.776	0.0179993
915.854	0.0179502
915.933	0.0181035
916.011	0.0181306
916.089	0.0182384
916.167	0.0181638
916.245	0.0181380
916.323	0.0182291
916.401	0.0181164
916.479	0.0181059
916.558	0.0181798
916.636	0.0181684
916.714	0.0180573
916.792	0.0182379
916.870	0.0181358
916.948	0.0180478
917.026	0.0180933
917.104	0.0180969
917.183	0.0180693
917.261	0.0181355
917.339	0.0180918
917.417	0.0181461
917.495	0.0180879
917.573	0.0180415
917.651	0.0181516
917.729	0.0181272
917.808	0.0181130
917.886	0.0181985
917.964	0.0182407
918.042	0.0181556
918.120	0.0182918
918.198	0.0183217
918.276	0.0181512
918.354	0.0183993
918.433	0.0183954
918.511	0.0182400
918.589	0.0182278
918.667	0.0182243
918.745	0.0183591
918.823	0.0182371
918.901	0.0183081
918.979	0.0182617
919.058	0.0181432
919.136	0.0181194
919.214	0.0181242
919.292	0.0180811
919.370	0.0182465
919.448	0.0182032
919.526	0.0180915
919.604	0.0180234
919.683	0.0180296
919.761	0.0179737
919.839	0.0178044
919.917	0.0178403
