06/03/2022	18:11:23	Ver.	4.1	UNKNOWN
Optical Delay	599.995081	Delta X		0.078125	Sweeps	1	Scan Rate	0/0
Coordinates	Axis 1	NaN	Axis 2	NaN	Axis 3	NaN	Axis 4	NaN	Axis 5	NaN	Axis 6	0.000000
TX Power	0.000000	RX Power	0.000000

599.995	0.0176713
600.073	0.0177688
600.151	0.0177140
600.229	0.0176600
600.308	0.0177718
600.386	0.0175877
600.464	0.0176975
600.542	0.0176301
600.620	0.0175425
600.698	0.0177110
600.776	0.0175932
600.854	0.0176302
600.933	0.0177902
601.011	0.0176573
601.089	0.0176060
601.167	0.0176354
601.245	0.0176163
601.323	0.0175482
601.401	0.0177335
601.479	0.0177118
601.558	0.0177776
601.636	0.0177421
601.714	0.0175492
601.792	0.0176170
601.870	0.0177160
601.948	0.0176840
602.026	0.0176612
602.104	0.0176273
602.183	0.0176646
602.261	0.0175287
602.339	0.0176194
602.417	0.0176788
602.495	0.0178245
602.573	0.0176668
602.651	0.0176292
602.729	0.0176257
602.808	0.0175542
602.886	0.0176138
602.964	0.0175957
603.042	0.0176971
603.120	0.0176520
603.198	0.0177129
603.276	0.0176682
603.354	0.0176572
603.433	0.0176849
603.511	0.0176462
603.589	0.0175604
603.667	0.0176128
603.745	0.0176794
603.823	0.0178056
603.901	0.0176284
603.979	0.0174477
604.058	0.0177467
604.136	0.0177490
604.214	0.0176727
604.292	0.0176055
604.370	0.0176683
604.448	0.0176499
604.526	0.0175519
604.604	0.0177066
604.683	0.0176339
604.761	0.0176982
604.839	0.0177716
604.917	0.0176911
604.995	0.0176520
605.073	0.0176538
605.151	0.0176186
605.229	0.0176348
605.308	0.0176965
605.386	0.0176478
605.464	0.0175925
605.542	0.0176604
605.620	0.0177559
605.698	0.0176500
605.776	0.0175965
605.854	0.0175702
605.933	0.0176640
606.011	0.0176738
606.089	0.0175448
606.167	0.0177290
606.245	0.0176588
606.323	0.0177178
606.401	0.0176277
606.479	0.0176553
606.558	0.0176846
606.636	0.0177317
606.714	0.0177078
606.792	0.0177736
606.870	0.0177176
606.948	0.0175832
607.026	0.0176359
607.104	0.0176786
607.183	0.0175048
607.261	0.0176290
607.339	0.0178146
607.417	0.0177096
607.495	0.0176667
607.573	0.0176019
607.651	0.0177379
607.729	0.0177836
607.808	0.0177330
607.886	0.0175677
607.964	0.0177393
608.042	0.0177540
608.120	0.0176122
608.198	0.0176545
608.276	0.0177618
608.354	0.0178339
608.433	0.0176391
608.511	0.0176730
608.589	0.0176637
608.667	0.0177655
608.745	0.0177904
608.823	0.0178248
608.901	0.0176309
608.979	0.0176498
609.058	0.0176074
609.136	0.0177785
609.214	0.0177666
609.292	0.0176766
609.370	0.0176054
609.448	0.0177187
609.526	0.0176685
609.604	0.0176135
609.683	0.0177137
609.761	0.0175941
609.839	0.0176535
609.917	0.0177065
609.995	0.0175972
610.073	0.0177377
610.151	0.0175687
610.229	0.0175693
610.308	0.0178400
610.386	0.0177075
610.464	0.0176968
610.542	0.0177345
610.620	0.0177135
610.698	0.0178259
610.776	0.0175403
610.854	0.0176576
610.933	0.0177780
611.011	0.0177514
611.089	0.0177183
611.167	0.0177174
611.245	0.0177010
611.323	0.0176223
611.401	0.0175173
611.479	0.0176044
611.558	0.0176570
611.636	0.0176476
611.714	0.0176428
611.792	0.0177610
611.870	0.0177309
611.948	0.0177178
612.026	0.0176897
612.104	0.0176599
612.183	0.0176619
612.261	0.0175414
612.339	0.0177805
612.417	0.0177554
612.495	0.0176657
612.573	0.0176790
612.651	0.0177579
612.729	0.0176314
612.808	0.0176683
612.886	0.0177468
612.964	0.0178105
613.042	0.0177393
613.120	0.0176554
613.198	0.0176949
613.276	0.0178114
613.354	0.0177770
613.433	0.0176594
613.511	0.0176147
613.589	0.0178335
613.667	0.0177072
613.745	0.0176838
613.823	0.0178333
613.901	0.0176686
613.979	0.0176272
614.058	0.0176649
614.136	0.0177272
614.214	0.0177786
614.292	0.0177867
614.370	0.0175636
614.448	0.0177557
614.526	0.0177097
614.604	0.0177122
614.683	0.0176430
614.761	0.0176529
614.839	0.0177014
614.917	0.0176717
614.995	0.0178120
615.073	0.0176534
615.151	0.0177144
615.229	0.0175129
615.308	0.0178089
615.386	0.0179002
615.464	0.0176418
615.542	0.0176868
615.620	0.0177608
615.698	0.0177057
615.776	0.0176814
615.854	0.0176665
615.933	0.0176758
616.011	0.0176756
616.089	0.0177269
616.167	0.0177392
616.245	0.0178566
616.323	0.0177057
616.401	0.0176570
616.479	0.0177654
616.558	0.0176254
616.636	0.0177319
616.714	0.0176263
616.792	0.0177152
616.870	0.0176080
616.948	0.0178038
617.026	0.0176903
617.104	0.0177470
617.183	0.0176817
617.261	0.0177672
617.339	0.0178212
617.417	0.0176781
617.495	0.0176619
617.573	0.0176171
617.651	0.0176802
617.729	0.0176135
617.808	0.0176236
617.886	0.0177705
617.964	0.0176130
618.042	0.0178133
618.120	0.0176726
618.198	0.0176807
618.276	0.0177174
618.354	0.0176317
618.433	0.0176110
618.511	0.0175668
618.589	0.0175768
618.667	0.0176838
618.745	0.0177215
618.823	0.0175245
618.901	0.0176230
618.979	0.0176951
619.058	0.0176930
619.136	0.0177171
619.214	0.0177219
619.292	0.0176930
619.370	0.0176415
619.448	0.0175790
619.526	0.0178194
619.604	0.0177718
619.683	0.0178021
619.761	0.0176624
619.839	0.0176746
619.917	0.0177368
619.995	0.0176000
620.073	0.0176323
620.151	0.0176742
620.229	0.0176484
620.308	0.0177805
620.386	0.0176951
620.464	0.0177905
620.542	0.0177048
620.620	0.0177473
620.698	0.0176765
620.776	0.0177908
620.854	0.0176777
620.933	0.0176574
621.011	0.0174970
621.089	0.0176975
621.167	0.0177203
621.245	0.0176978
621.323	0.0176859
621.401	0.0176322
621.479	0.0175812
621.558	0.0176018
621.636	0.0177053
621.714	0.0177142
621.792	0.0176682
621.870	0.0176408
621.948	0.0176775
622.026	0.0177232
622.104	0.0175487
622.183	0.0175957
622.261	0.0177695
622.339	0.0177367
622.417	0.0176276
622.495	0.0175441
622.573	0.0178537
622.651	0.0177444
622.729	0.0176601
622.808	0.0176350
622.886	0.0176830
622.964	0.0176163
623.042	0.0176476
623.120	0.0177343
623.198	0.0177737
623.276	0.0175008
623.354	0.0176641
623.433	0.0177103
623.511	0.0177569
623.589	0.0176631
623.667	0.0176690
623.745	0.0176410
623.823	0.0176796
623.901	0.0177652
623.979	0.0176937
624.058	0.0176637
624.136	0.0176712
624.214	0.0177119
624.292	0.0176479
624.370	0.0175448
624.448	0.0176096
624.526	0.0175991
624.604	0.0176221
624.683	0.0176351
624.761	0.0176907
624.839	0.0176009
624.917	0.0177655
624.995	0.0177057
625.073	0.0175339
625.151	0.0175653
625.229	0.0174936
625.308	0.0176148
625.386	0.0177619
625.464	0.0177354
625.542	0.0176035
625.620	0.0176609
625.698	0.0176754
625.776	0.0175253
625.854	0.0176795
625.933	0.0177187
626.011	0.0176712
626.089	0.0177506
626.167	0.0176240
626.245	0.0176257
626.323	0.0176974
626.401	0.0177235
626.479	0.0177168
626.558	0.0176331
626.636	0.0176720
626.714	0.0176727
626.792	0.0177577
626.870	0.0177414
626.948	0.0177499
627.026	0.0177731
627.104	0.0177552
627.183	0.0178119
627.261	0.0175947
627.339	0.0177629
627.417	0.0179052
627.495	0.0176907
627.573	0.0178228
627.651	0.0178072
627.729	0.0177359
627.808	0.0177229
627.886	0.0176917
627.964	0.0177515
628.042	0.0176197
628.120	0.0177296
628.198	0.0177853
628.276	0.0176853
628.354	0.0177195
628.433	0.0175376
628.511	0.0176414
628.589	0.0178117
628.667	0.0176313
628.745	0.0177035
628.823	0.0177290
628.901	0.0176379
628.979	0.0177037
629.058	0.0176879
629.136	0.0176195
629.214	0.0175121
629.292	0.0175782
629.370	0.0175976
629.448	0.0176649
629.526	0.0177783
629.604	0.0177893
629.683	0.0177966
629.761	0.0176534
629.839	0.0177355
629.917	0.0176530
629.995	0.0176965
630.073	0.0176503
630.151	0.0177264
630.229	0.0178091
630.308	0.0177567
630.386	0.0177848
630.464	0.0176440
630.542	0.0177124
630.620	0.0177628
630.698	0.0177359
630.776	0.0176440
630.854	0.0176820
630.933	0.0177277
631.011	0.0176539
631.089	0.0176630
631.167	0.0176869
631.245	0.0177357
631.323	0.0176345
631.401	0.0175433
631.479	0.0177131
631.558	0.0177047
631.636	0.0176022
631.714	0.0177095
631.792	0.0176134
631.870	0.0175617
631.948	0.0176677
632.026	0.0176678
632.104	0.0176588
632.183	0.0176968
632.261	0.0176453
632.339	0.0176132
632.417	0.0177591
632.495	0.0176807
632.573	0.0177193
632.651	0.0175574
632.729	0.0176104
632.808	0.0177447
632.886	0.0175784
632.964	0.0176270
633.042	0.0177774
633.120	0.0177028
633.198	0.0176723
633.276	0.0176437
633.354	0.0176334
633.433	0.0177890
633.511	0.0177089
633.589	0.0175701
633.667	0.0175611
633.745	0.0176517
633.823	0.0178825
633.901	0.0176711
633.979	0.0177087
634.058	0.0175653
634.136	0.0176982
634.214	0.0177953
634.292	0.0176817
634.370	0.0177261
634.448	0.0176593
634.526	0.0177795
634.604	0.0175793
634.683	0.0177435
634.761	0.0178404
634.839	0.0177859
634.917	0.0176228
634.995	0.0176712
635.073	0.0176159
635.151	0.0176710
635.229	0.0175739
635.308	0.0176983
635.386	0.0176667
635.464	0.0177320
635.542	0.0176228
635.620	0.0177670
635.698	0.0176379
635.776	0.0177802
635.854	0.0176794
635.933	0.0176518
636.011	0.0176463
636.089	0.0176560
636.167	0.0177176
636.245	0.0177316
636.323	0.0177209
636.401	0.0177251
636.479	0.0176092
636.558	0.0177977
636.636	0.0177699
636.714	0.0176956
636.792	0.0176388
636.870	0.0177983
636.948	0.0177150
637.026	0.0175973
637.104	0.0176659
637.183	0.0177088
637.261	0.0177145
637.339	0.0177035
637.417	0.0176672
637.495	0.0176262
637.573	0.0176176
637.651	0.0177045
637.729	0.0177032
637.808	0.0176054
637.886	0.0177268
637.964	0.0177778
638.042	0.0177850
638.120	0.0175943
638.198	0.0176664
638.276	0.0177973
638.354	0.0176340
638.433	0.0176952
638.511	0.0175866
638.589	0.0174734
638.667	0.0176026
638.745	0.0177438
638.823	0.0176666
638.901	0.0176533
638.979	0.0176718
639.058	0.0177394
639.136	0.0176994
639.214	0.0177319
639.292	0.0177324
639.370	0.0176955
639.448	0.0176709
639.526	0.0177135
639.604	0.0177204
639.683	0.0176375
639.761	0.0175867
639.839	0.0176971
639.917	0.0175702
639.995	0.0175588
640.073	0.0176893
640.151	0.0176062
640.229	0.0176655
640.308	0.0177245
640.386	0.0175584
640.464	0.0175826
640.542	0.0177581
640.620	0.0177083
640.698	0.0176747
640.776	0.0176622
640.854	0.0177673
640.933	0.0177263
641.011	0.0177184
641.089	0.0176335
641.167	0.0176595
641.245	0.0176115
641.323	0.0176575
641.401	0.0176307
641.479	0.0175954
641.558	0.0176459
641.636	0.0176183
641.714	0.0177923
641.792	0.0176038
641.870	0.0177602
641.948	0.0177105
642.026	0.0176733
642.104	0.0178008
642.183	0.0177309
642.261	0.0176917
642.339	0.0177061
642.417	0.0176049
642.495	0.0176421
642.573	0.0177533
642.651	0.0175951
642.729	0.0177731
642.808	0.0177679
642.886	0.0175258
642.964	0.0175647
643.042	0.0176428
643.120	0.0175114
643.198	0.0176672
643.276	0.0176817
643.354	0.0175030
643.433	0.0175783
643.511	0.0176281
643.589	0.0176584
643.667	0.0177302
643.745	0.0177561
643.823	0.0176535
643.901	0.0177943
643.979	0.0177602
644.058	0.0176839
644.136	0.0175623
644.214	0.0176445
644.292	0.0177332
644.370	0.0176792
644.448	0.0176991
644.526	0.0176816
644.604	0.0176677
644.683	0.0178226
644.761	0.0176419
644.839	0.0176899
644.917	0.0177165
644.995	0.0175215
645.073	0.0176501
645.151	0.0177928
645.229	0.0175749
645.308	0.0176627
645.386	0.0176233
645.464	0.0176792
645.542	0.0176231
645.620	0.0176543
645.698	0.0176541
645.776	0.0176531
645.854	0.0175642
645.933	0.0176555
646.011	0.0176752
646.089	0.0176989
646.167	0.0177132
646.245	0.0176444
646.323	0.0177038
646.401	0.0177940
646.479	0.0178308
646.558	0.0176804
646.636	0.0175917
646.714	0.0175439
646.792	0.0176189
646.870	0.0176820
646.948	0.0177071
647.026	0.0175924
647.104	0.0176102
647.183	0.0175954
647.261	0.0177107
647.339	0.0176685
647.417	0.0177159
647.495	0.0177311
647.573	0.0176633
647.651	0.0176774
647.729	0.0177387
647.808	0.0177029
647.886	0.0177458
647.964	0.0175878
648.042	0.0176891
648.120	0.0178036
648.198	0.0177653
648.276	0.0176484
648.354	0.0177848
648.433	0.0177972
648.511	0.0177152
648.589	0.0177836
648.667	0.0177266
648.745	0.0175850
648.823	0.0176503
648.901	0.0175949
648.979	0.0175539
649.058	0.0176453
649.136	0.0177039
649.214	0.0177026
649.292	0.0176610
649.370	0.0176028
649.448	0.0176475
649.526	0.0177808
649.604	0.0177050
649.683	0.0175201
649.761	0.0176650
649.839	0.0177253
649.917	0.0176189
649.995	0.0177498
650.073	0.0177296
650.151	0.0176739
650.229	0.0176546
650.308	0.0177268
650.386	0.0176331
650.464	0.0176418
650.542	0.0174786
650.620	0.0176254
650.698	0.0177316
650.776	0.0176460
650.854	0.0176380
650.933	0.0175836
651.011	0.0176848
651.089	0.0176662
651.167	0.0176832
651.245	0.0176213
651.323	0.0176788
651.401	0.0176590
651.479	0.0176530
651.558	0.0177095
651.636	0.0176838
651.714	0.0176035
651.792	0.0177786
651.870	0.0177335
651.948	0.0175733
652.026	0.0177508
652.104	0.0176187
652.183	0.0178329
652.261	0.0177630
652.339	0.0177679
652.417	0.0176366
652.495	0.0176055
652.573	0.0176904
652.651	0.0177302
652.729	0.0177589
652.808	0.0178033
652.886	0.0175731
652.964	0.0176576
653.042	0.0176962
653.120	0.0176191
653.198	0.0176000
653.276	0.0177362
653.354	0.0175703
653.433	0.0174911
653.511	0.0175674
653.589	0.0176827
653.667	0.0176875
653.745	0.0175743
653.823	0.0177080
653.901	0.0177689
653.979	0.0176443
654.058	0.0177084
654.136	0.0175913
654.214	0.0176355
654.292	0.0177782
654.370	0.0177978
654.448	0.0178116
654.526	0.0177370
654.604	0.0177478
654.683	0.0177612
654.761	0.0176957
654.839	0.0176189
654.917	0.0178109
654.995	0.0178058
655.073	0.0177409
655.151	0.0176895
655.229	0.0176780
655.308	0.0177306
655.386	0.0177603
655.464	0.0177425
655.542	0.0178669
655.620	0.0177146
655.698	0.0177441
655.776	0.0177029
655.854	0.0176920
655.933	0.0177303
656.011	0.0177604
656.089	0.0176579
656.167	0.0177063
656.245	0.0177525
656.323	0.0176678
656.401	0.0176036
656.479	0.0176385
656.558	0.0177596
656.636	0.0177250
656.714	0.0176939
656.792	0.0177162
656.870	0.0176575
656.948	0.0176726
657.026	0.0176556
657.104	0.0176535
657.183	0.0175908
657.261	0.0176653
657.339	0.0177348
657.417	0.0177494
657.495	0.0177425
657.573	0.0177547
657.651	0.0177110
657.729	0.0176600
657.808	0.0176300
657.886	0.0177374
657.964	0.0177351
658.042	0.0175897
658.120	0.0176972
658.198	0.0177837
658.276	0.0176614
658.354	0.0177871
658.433	0.0176375
658.511	0.0177105
658.589	0.0176006
658.667	0.0175679
658.745	0.0177327
658.823	0.0176355
658.901	0.0178838
658.979	0.0177007
659.058	0.0178006
659.136	0.0176607
659.214	0.0177058
659.292	0.0176376
659.370	0.0177556
659.448	0.0177625
659.526	0.0177552
659.604	0.0177400
659.683	0.0176894
659.761	0.0176941
659.839	0.0177579
659.917	0.0177248
659.995	0.0177097
660.073	0.0177214
660.151	0.0177378
660.229	0.0177872
660.308	0.0177589
660.386	0.0176221
660.464	0.0175575
660.542	0.0178647
660.620	0.0177435
660.698	0.0177316
660.776	0.0177347
660.854	0.0176754
660.933	0.0177397
661.011	0.0177321
661.089	0.0176792
661.167	0.0176950
661.245	0.0176962
661.323	0.0176604
661.401	0.0176582
661.479	0.0177960
661.558	0.0175542
661.636	0.0176177
661.714	0.0177441
661.792	0.0177350
661.870	0.0175836
661.948	0.0176005
662.026	0.0177511
662.104	0.0176231
662.183	0.0176862
662.261	0.0175961
662.339	0.0176975
662.417	0.0177062
662.495	0.0176679
662.573	0.0176475
662.651	0.0176641
662.729	0.0176598
662.808	0.0176770
662.886	0.0177695
662.964	0.0178609
663.042	0.0176068
663.120	0.0175741
663.198	0.0176732
663.276	0.0175331
663.354	0.0176721
663.433	0.0176679
663.511	0.0178695
663.589	0.0178660
663.667	0.0177306
663.745	0.0176308
663.823	0.0176247
663.901	0.0175753
663.979	0.0176892
664.058	0.0176052
664.136	0.0175817
664.214	0.0176916
664.292	0.0177793
664.370	0.0176898
664.448	0.0176041
664.526	0.0176763
664.604	0.0176616
664.683	0.0176853
664.761	0.0178127
664.839	0.0177254
664.917	0.0176685
664.995	0.0176608
665.073	0.0176180
665.151	0.0176364
665.229	0.0176625
665.308	0.0177165
665.386	0.0176369
665.464	0.0177359
665.542	0.0176907
665.620	0.0177176
665.698	0.0177442
665.776	0.0177977
665.854	0.0176296
665.933	0.0176760
666.011	0.0176920
666.089	0.0177277
666.167	0.0175487
666.245	0.0176006
666.323	0.0177610
666.401	0.0177132
666.479	0.0178358
666.558	0.0178667
666.636	0.0176861
666.714	0.0175871
666.792	0.0178053
666.870	0.0176131
666.948	0.0176136
667.026	0.0176698
667.104	0.0177055
667.183	0.0177554
667.261	0.0177580
667.339	0.0177832
667.417	0.0177413
667.495	0.0177039
667.573	0.0176442
667.651	0.0177665
667.729	0.0177831
667.808	0.0177091
667.886	0.0176410
667.964	0.0177637
668.042	0.0177260
668.120	0.0177392
668.198	0.0177369
668.276	0.0174623
668.354	0.0176747
668.433	0.0177998
668.511	0.0176960
668.589	0.0176563
668.667	0.0175843
668.745	0.0177153
668.823	0.0176193
668.901	0.0175965
668.979	0.0176345
669.058	0.0177061
669.136	0.0176158
669.214	0.0176711
669.292	0.0176614
669.370	0.0177692
669.448	0.0177816
669.526	0.0177574
669.604	0.0177428
669.683	0.0177400
669.761	0.0176718
669.839	0.0176910
669.917	0.0177044
669.995	0.0176671
670.073	0.0177061
670.151	0.0176093
670.229	0.0176227
670.308	0.0176768
670.386	0.0177939
670.464	0.0177676
670.542	0.0177223
670.620	0.0177750
670.698	0.0176351
670.776	0.0177669
670.854	0.0177012
670.933	0.0177013
671.011	0.0176216
671.089	0.0176915
671.167	0.0176378
671.245	0.0176945
671.323	0.0177920
671.401	0.0175883
671.479	0.0176665
671.558	0.0177655
671.636	0.0177734
671.714	0.0176510
671.792	0.0176855
671.870	0.0176056
671.948	0.0176044
672.026	0.0177477
672.104	0.0176120
672.183	0.0177123
672.261	0.0176986
672.339	0.0176413
672.417	0.0177548
672.495	0.0176404
672.573	0.0177280
672.651	0.0176063
672.729	0.0177221
672.808	0.0175300
672.886	0.0176272
672.964	0.0177855
673.042	0.0177271
673.120	0.0175877
673.198	0.0176856
673.276	0.0175940
673.354	0.0176583
673.433	0.0176759
673.511	0.0176579
673.589	0.0177670
673.667	0.0176670
673.745	0.0176839
673.823	0.0177035
673.901	0.0176588
673.979	0.0177074
674.058	0.0177370
674.136	0.0176566
674.214	0.0176176
674.292	0.0176766
674.370	0.0176771
674.448	0.0177010
674.526	0.0178342
674.604	0.0176103
674.683	0.0177123
674.761	0.0176475
674.839	0.0178126
674.917	0.0177007
674.995	0.0176727
675.073	0.0177438
675.151	0.0176115
675.229	0.0176968
675.308	0.0178185
675.386	0.0177160
675.464	0.0177809
675.542	0.0176929
675.620	0.0177345
675.698	0.0177624
675.776	0.0176324
675.854	0.0178331
675.933	0.0177646
676.011	0.0176263
676.089	0.0176411
676.167	0.0176749
676.245	0.0177705
676.323	0.0176380
676.401	0.0177934
676.479	0.0177515
676.558	0.0177580
676.636	0.0177327
676.714	0.0176639
676.792	0.0178046
676.870	0.0176568
676.948	0.0178147
677.026	0.0176497
677.104	0.0177776
677.183	0.0177805
677.261	0.0177471
677.339	0.0177170
677.417	0.0177112
677.495	0.0178082
677.573	0.0178733
677.651	0.0177835
677.729	0.0176460
677.808	0.0176489
677.886	0.0177290
677.964	0.0177232
678.042	0.0178322
678.120	0.0178335
678.198	0.0176408
678.276	0.0176733
678.354	0.0177596
678.433	0.0178792
678.511	0.0177561
678.589	0.0177390
678.667	0.0177007
678.745	0.0176884
678.823	0.0177383
678.901	0.0177189
678.979	0.0177471
679.058	0.0176577
679.136	0.0177174
679.214	0.0177221
679.292	0.0177100
679.370	0.0176096
679.448	0.0177949
679.526	0.0178173
679.604	0.0177383
679.683	0.0177294
679.761	0.0177997
679.839	0.0178551
679.917	0.0177061
679.995	0.0177290
680.073	0.0175748
680.151	0.0176418
680.229	0.0176628
680.308	0.0177630
680.386	0.0176575
680.464	0.0176733
680.542	0.0177353
680.620	0.0177224
680.698	0.0177437
680.776	0.0177676
680.854	0.0176939
680.933	0.0177030
681.011	0.0177706
681.089	0.0175327
681.167	0.0176957
681.245	0.0177511
681.323	0.0175452
681.401	0.0177139
681.479	0.0176279
681.558	0.0176737
681.636	0.0175571
681.714	0.0177731
681.792	0.0177168
681.870	0.0177126
681.948	0.0176344
682.026	0.0176137
682.104	0.0178452
682.183	0.0179228
682.261	0.0177470
682.339	0.0175310
682.417	0.0177253
682.495	0.0177438
682.573	0.0177663
682.651	0.0176789
682.729	0.0176557
682.808	0.0176501
682.886	0.0177109
682.964	0.0177061
683.042	0.0177431
683.120	0.0177051
683.198	0.0175607
683.276	0.0175641
683.354	0.0176521
683.433	0.0177261
683.511	0.0177473
683.589	0.0177328
683.667	0.0177239
683.745	0.0178468
683.823	0.0176758
683.901	0.0176276
683.979	0.0176589
684.058	0.0176688
684.136	0.0177349
684.214	0.0176741
684.292	0.0177169
684.370	0.0177300
684.448	0.0176495
684.526	0.0177288
684.604	0.0175951
684.683	0.0176946
684.761	0.0177190
684.839	0.0177139
684.917	0.0176916
684.995	0.0176482
685.073	0.0177091
685.151	0.0176410
685.229	0.0177061
685.308	0.0177002
685.386	0.0176141
685.464	0.0175982
685.542	0.0177735
685.620	0.0175710
685.698	0.0177157
685.776	0.0176244
685.854	0.0176153
685.933	0.0176665
686.011	0.0176398
686.089	0.0175903
686.167	0.0174173
686.245	0.0174706
686.323	0.0176048
686.401	0.0175889
686.479	0.0175643
686.558	0.0176186
686.636	0.0175311
686.714	0.0176465
686.792	0.0176643
686.870	0.0177311
686.948	0.0177238
687.026	0.0177928
687.104	0.0174472
687.183	0.0176228
687.261	0.0176851
687.339	0.0175455
687.417	0.0175389
687.495	0.0175919
687.573	0.0176884
687.651	0.0175159
687.729	0.0176386
687.808	0.0178423
687.886	0.0176540
687.964	0.0175679
688.042	0.0176057
688.120	0.0176349
688.198	0.0176141
688.276	0.0175670
688.354	0.0175646
688.433	0.0176322
688.511	0.0176493
688.589	0.0175461
688.667	0.0176818
688.745	0.0176645
688.823	0.0178074
688.901	0.0176239
688.979	0.0177054
689.058	0.0176056
689.136	0.0174828
689.214	0.0177432
689.292	0.0175352
689.370	0.0174745
689.448	0.0175426
689.526	0.0175250
689.604	0.0175497
689.683	0.0176743
689.761	0.0174865
689.839	0.0176773
689.917	0.0177174
689.995	0.0176292
690.073	0.0177147
690.151	0.0177341
690.229	0.0177809
690.308	0.0178936
690.386	0.0177633
690.464	0.0178118
690.542	0.0178261
690.620	0.0179053
690.698	0.0178974
690.776	0.0178986
690.854	0.0177650
690.933	0.0176808
691.011	0.0174781
691.089	0.0175241
691.167	0.0174110
691.245	0.0174506
691.323	0.0172980
691.401	0.0173311
691.479	0.0173877
691.558	0.0175317
691.636	0.0176231
691.714	0.0176857
691.792	0.0178530
691.870	0.0179356
691.948	0.0179769
692.026	0.0179927
692.104	0.0180408
692.183	0.0180626
692.261	0.0180350
692.339	0.0179588
692.417	0.0178424
692.495	0.0175747
692.573	0.0176189
692.651	0.0175322
692.729	0.0175831
692.808	0.0174799
692.886	0.0173680
692.964	0.0174432
693.042	0.0172478
693.120	0.0172565
693.198	0.0173246
693.276	0.0173421
693.354	0.0174619
693.433	0.0176205
693.511	0.0177970
693.589	0.0180054
693.667	0.0182415
693.745	0.0182864
693.823	0.0183050
693.901	0.0184245
693.979	0.0183363
694.058	0.0180777
694.136	0.0179267
694.214	0.0179279
694.292	0.0175417
694.370	0.0172952
694.448	0.0168860
694.526	0.0168569
694.604	0.0165863
694.683	0.0163644
694.761	0.0164027
694.839	0.0163178
694.917	0.0165836
694.995	0.0166252
695.073	0.0165818
695.151	0.0167848
695.229	0.0168492
695.308	0.0173476
695.386	0.0178608
695.464	0.0182790
695.542	0.0185813
695.620	0.0190404
695.698	0.0194609
695.776	0.0196114
695.854	0.0198601
695.933	0.0201344
696.011	0.0200553
696.089	0.0199198
696.167	0.0195890
696.245	0.0192854
696.323	0.0187466
696.401	0.0183156
696.479	0.0177195
696.558	0.0172330
696.636	0.0167022
696.714	0.0160902
696.792	0.0158559
696.870	0.0156132
696.948	0.0154306
697.026	0.0153575
697.104	0.0154932
697.183	0.0154962
697.261	0.0156081
697.339	0.0159007
697.417	0.0158965
697.495	0.0161015
697.573	0.0164159
697.651	0.0165455
697.729	0.0166981
697.808	0.0169878
697.886	0.0170554
697.964	0.0173406
698.042	0.0176753
698.120	0.0181313
698.198	0.0183506
698.276	0.0187014
698.354	0.0190714
698.433	0.0191596
698.511	0.0193439
698.589	0.0193330
698.667	0.0195497
698.745	0.0194831
698.823	0.0193570
698.901	0.0194852
698.979	0.0195108
699.058	0.0195047
699.136	0.0198808
699.214	0.0200367
699.292	0.0200699
699.370	0.0201987
699.448	0.0203425
699.526	0.0203287
699.604	0.0200916
699.683	0.0197355
699.761	0.0194038
699.839	0.0189761
699.917	0.0182926
699.995	0.0175092
700.073	0.0168360
700.151	0.0162630
700.229	0.0155555
700.308	0.0148094
700.386	0.0142233
700.464	0.0137663
700.542	0.0131234
700.620	0.0126346
700.698	0.0121692
700.776	0.0120732
700.854	0.0119427
700.933	0.0120729
701.011	0.0122648
701.089	0.0126862
701.167	0.0133325
701.245	0.0141042
701.323	0.0153683
701.401	0.0163853
701.479	0.0175808
701.558	0.0188208
701.636	0.0200459
701.714	0.0211686
701.792	0.0220100
701.870	0.0228021
701.948	0.0232763
702.026	0.0236012
702.104	0.0237531
702.183	0.0234713
702.261	0.0231700
702.339	0.0228010
702.417	0.0222289
702.495	0.0215705
702.573	0.0209963
702.651	0.0205035
702.729	0.0200383
702.808	0.0194977
702.886	0.0192355
702.964	0.0189534
703.042	0.0188691
703.120	0.0187368
703.198	0.0185557
703.276	0.0183236
703.354	0.0183024
703.433	0.0181380
703.511	0.0180462
703.589	0.0178999
703.667	0.0175424
703.745	0.0172613
703.823	0.0169443
703.901	0.0166515
703.979	0.0161160
704.058	0.0151868
704.136	0.0144697
704.214	0.0137102
704.292	0.0129526
704.370	0.0120805
704.448	0.0114709
704.526	0.0109241
704.604	0.0105643
704.683	0.0103227
704.761	0.0107700
704.839	0.0111022
704.917	0.0116198
704.995	0.0124969
705.073	0.0136094
705.151	0.0148171
705.229	0.0158309
705.308	0.0167324
705.386	0.0178258
705.464	0.0187978
705.542	0.0197587
705.620	0.0204493
705.698	0.0210697
705.776	0.0219364
705.854	0.0224623
705.933	0.0230060
706.011	0.0236489
706.089	0.0239999
706.167	0.0244098
706.245	0.0245651
706.323	0.0246847
706.401	0.0246658
706.479	0.0245253
706.558	0.0242979
706.636	0.0240318
706.714	0.0237611
706.792	0.0231173
706.870	0.0226904
706.948	0.0221004
707.026	0.0212293
707.104	0.0203455
707.183	0.0195889
707.261	0.0187269
707.339	0.0179107
707.417	0.0168360
707.495	0.0158540
707.573	0.0148924
707.651	0.0138799
707.729	0.0129041
707.808	0.0118966
707.886	0.0106654
707.964	0.00980179
708.042	0.00889694
708.120	0.00826614
708.198	0.00796410
708.276	0.00759293
708.354	0.00779938
708.433	0.00820099
708.511	0.00888107
708.589	0.00995316
708.667	0.0110522
708.745	0.0123748
708.823	0.0140892
708.901	0.0155968
708.979	0.0171520
709.058	0.0184808
709.136	0.0198295
709.214	0.0211472
709.292	0.0223222
709.370	0.0233886
709.448	0.0241488
709.526	0.0248554
709.604	0.0253447
709.683	0.0255257
709.761	0.0257867
709.839	0.0256940
709.917	0.0256500
709.995	0.0252132
710.073	0.0246745
710.151	0.0240578
710.229	0.0232233
710.308	0.0223060
710.386	0.0213551
710.464	0.0206216
710.542	0.0197415
710.620	0.0191969
710.698	0.0182756
710.776	0.0176362
710.854	0.0171292
710.933	0.0165597
711.011	0.0160674
711.089	0.0154187
711.167	0.0147578
711.245	0.0140327
711.323	0.0133830
711.401	0.0128003
711.479	0.0119399
711.558	0.0114644
711.636	0.0109760
711.714	0.0107365
711.792	0.0104900
711.870	0.0105507
711.948	0.0108691
712.026	0.0113414
712.104	0.0120759
712.183	0.0129092
712.261	0.0138212
712.339	0.0148604
712.417	0.0157559
712.495	0.0171368
712.573	0.0182126
712.651	0.0189791
712.729	0.0198527
712.808	0.0208257
712.886	0.0214209
712.964	0.0221603
713.042	0.0224967
713.120	0.0230374
713.198	0.0233857
713.276	0.0235761
713.354	0.0235448
713.433	0.0237345
713.511	0.0234051
713.589	0.0231574
713.667	0.0229651
713.745	0.0225578
713.823	0.0223727
713.901	0.0219561
713.979	0.0215168
714.058	0.0210760
714.136	0.0206218
714.214	0.0199667
714.292	0.0192102
714.370	0.0184172
714.448	0.0174607
714.526	0.0163447
714.604	0.0152139
714.683	0.0140810
714.761	0.0129588
714.839	0.0118811
714.917	0.0108905
714.995	0.0100996
715.073	0.00951019
715.151	0.00934097
715.229	0.00938950
715.308	0.00974480
715.386	0.0102813
715.464	0.0109492
715.542	0.0119375
715.620	0.0130558
715.698	0.0141467
715.776	0.0152638
715.854	0.0164563
715.933	0.0175386
716.011	0.0187196
716.089	0.0197192
716.167	0.0202708
716.245	0.0211520
716.323	0.0217806
716.401	0.0220931
716.479	0.0224319
716.558	0.0225876
716.636	0.0225632
716.714	0.0224162
716.792	0.0222922
716.870	0.0221204
716.948	0.0220026
717.026	0.0219022
717.104	0.0216407
717.183	0.0214014
717.261	0.0212878
717.339	0.0211678
717.417	0.0207434
717.495	0.0203441
717.573	0.0201067
717.651	0.0196896
717.729	0.0193353
717.808	0.0188560
717.886	0.0182901
717.964	0.0177606
718.042	0.0171300
718.120	0.0164666
718.198	0.0159610
718.276	0.0154222
718.354	0.0146555
718.433	0.0142800
718.511	0.0138155
718.589	0.0134779
718.667	0.0130762
718.745	0.0129652
718.823	0.0129416
718.901	0.0130190
718.979	0.0131737
719.058	0.0134550
719.136	0.0137029
719.214	0.0141489
719.292	0.0147704
719.370	0.0153745
719.448	0.0157301
719.526	0.0163257
719.604	0.0169227
719.683	0.0174837
719.761	0.0178886
719.839	0.0183796
719.917	0.0188155
719.995	0.0190253
720.073	0.0192992
720.151	0.0197129
720.229	0.0196850
720.308	0.0198090
720.386	0.0197257
720.464	0.0199492
720.542	0.0199949
720.620	0.0200723
720.698	0.0201311
720.776	0.0203950
720.854	0.0204436
720.933	0.0204369
721.011	0.0206754
721.089	0.0206617
721.167	0.0205244
721.245	0.0203377
721.323	0.0200923
721.401	0.0198398
721.479	0.0193913
721.558	0.0190195
721.636	0.0182193
721.714	0.0177225
721.792	0.0171416
721.870	0.0165424
721.948	0.0158200
722.026	0.0153765
722.104	0.0149615
722.183	0.0148656
722.261	0.0146323
722.339	0.0145346
722.417	0.0147218
722.495	0.0148264
722.573	0.0150661
722.651	0.0155675
722.729	0.0160362
722.808	0.0164223
722.886	0.0168630
722.964	0.0171226
723.042	0.0174995
723.120	0.0177621
723.198	0.0178762
723.276	0.0178880
723.354	0.0181062
723.433	0.0181885
723.511	0.0181644
723.589	0.0181969
723.667	0.0181482
723.745	0.0180968
723.823	0.0180514
723.901	0.0179812
723.979	0.0179894
724.058	0.0179446
724.136	0.0180463
724.214	0.0180895
724.292	0.0181802
724.370	0.0183916
724.448	0.0185375
724.526	0.0186949
724.604	0.0189038
724.683	0.0191170
724.761	0.0190222
724.839	0.0190162
724.917	0.0191074
724.995	0.0188533
725.073	0.0186326
725.151	0.0184312
725.229	0.0179467
725.308	0.0176044
725.386	0.0172604
725.464	0.0170113
725.542	0.0167991
725.620	0.0163957
725.698	0.0163142
725.776	0.0162728
725.854	0.0161061
725.933	0.0160883
726.011	0.0163595
726.089	0.0164895
726.167	0.0165909
726.245	0.0167434
726.323	0.0168891
726.401	0.0169204
726.479	0.0170558
726.558	0.0171692
726.636	0.0173172
726.714	0.0173854
726.792	0.0175197
726.870	0.0178179
726.948	0.0178014
727.026	0.0180775
727.104	0.0182123
727.183	0.0182604
727.261	0.0183390
727.339	0.0184347
727.417	0.0184737
727.495	0.0186698
727.573	0.0186675
727.651	0.0187537
727.729	0.0189137
727.808	0.0187014
727.886	0.0188818
727.964	0.0188663
728.042	0.0188692
728.120	0.0187460
728.198	0.0188312
728.276	0.0186182
728.354	0.0184502
728.433	0.0182996
728.511	0.0180396
728.589	0.0178884
728.667	0.0176551
728.745	0.0174640
728.823	0.0172019
728.901	0.0171798
728.979	0.0167295
729.058	0.0165171
729.136	0.0166161
729.214	0.0164568
729.292	0.0163319
729.370	0.0163770
729.448	0.0164442
729.526	0.0164265
729.604	0.0164995
729.683	0.0164513
729.761	0.0165506
729.839	0.0167178
729.917	0.0167284
729.995	0.0165939
730.073	0.0168312
730.151	0.0168770
730.229	0.0168347
730.308	0.0168573
730.386	0.0170564
730.464	0.0172173
730.542	0.0174414
730.620	0.0175861
730.698	0.0178961
730.776	0.0182610
730.854	0.0183927
730.933	0.0186160
731.011	0.0189384
731.089	0.0192017
731.167	0.0192485
731.245	0.0194629
731.323	0.0193954
731.401	0.0195415
731.479	0.0196172
731.558	0.0197192
731.636	0.0194779
731.714	0.0192574
731.792	0.0191310
731.870	0.0189521
731.948	0.0185532
732.026	0.0182397
732.104	0.0179817
732.183	0.0178407
732.261	0.0175292
732.339	0.0173809
732.417	0.0171247
732.495	0.0171302
732.573	0.0168821
732.651	0.0169384
732.729	0.0168443
732.808	0.0169595
732.886	0.0168181
732.964	0.0168959
733.042	0.0170457
733.120	0.0171011
733.198	0.0172575
733.276	0.0171552
733.354	0.0170177
733.433	0.0170795
733.511	0.0170556
733.589	0.0169262
733.667	0.0167637
733.745	0.0168153
733.823	0.0167509
733.901	0.0167696
733.979	0.0166357
734.058	0.0165076
734.136	0.0166728
734.214	0.0167732
734.292	0.0167954
734.370	0.0168285
734.448	0.0169861
734.526	0.0173933
734.604	0.0176241
734.683	0.0178269
734.761	0.0182141
734.839	0.0184827
734.917	0.0186095
734.995	0.0188098
735.073	0.0189439
735.151	0.0191220
735.229	0.0192383
735.308	0.0191544
735.386	0.0189997
735.464	0.0190608
735.542	0.0185810
735.620	0.0184222
735.698	0.0182422
735.776	0.0180156
735.854	0.0178445
735.933	0.0175183
736.011	0.0174675
736.089	0.0174295
736.167	0.0173826
736.245	0.0174616
736.323	0.0174334
736.401	0.0174281
736.479	0.0175546
736.558	0.0175629
736.636	0.0175406
736.714	0.0176638
736.792	0.0176417
736.870	0.0177680
736.948	0.0176633
737.026	0.0176867
737.104	0.0175705
737.183	0.0174210
737.261	0.0173014
737.339	0.0172126
737.417	0.0170462
737.495	0.0168406
737.573	0.0168005
737.651	0.0168318
737.729	0.0167813
737.808	0.0168617
737.886	0.0170448
737.964	0.0171706
738.042	0.0170940
738.120	0.0175464
738.198	0.0178745
738.276	0.0180551
738.354	0.0183820
738.433	0.0185355
738.511	0.0187897
738.589	0.0188856
738.667	0.0189127
738.745	0.0189258
738.823	0.0189366
738.901	0.0189515
738.979	0.0186609
739.058	0.0184776
739.136	0.0184085
739.214	0.0182245
739.292	0.0180710
739.370	0.0178683
739.448	0.0176756
739.526	0.0176531
739.604	0.0173499
739.683	0.0172633
739.761	0.0172404
739.839	0.0171788
739.917	0.0170770
739.995	0.0170885
740.073	0.0170319
740.151	0.0168758
740.229	0.0170312
740.308	0.0168960
740.386	0.0168680
740.464	0.0169238
740.542	0.0167612
740.620	0.0168005
740.698	0.0167252
740.776	0.0167355
740.854	0.0167024
740.933	0.0165678
741.011	0.0165339
741.089	0.0166690
741.167	0.0167382
741.245	0.0168800
741.323	0.0172033
741.401	0.0173161
741.479	0.0177089
741.558	0.0177805
741.636	0.0180909
741.714	0.0185826
741.792	0.0187896
741.870	0.0189770
741.948	0.0192976
742.026	0.0194541
742.104	0.0194027
742.183	0.0194937
742.261	0.0194103
742.339	0.0194036
742.417	0.0190722
742.495	0.0188190
742.573	0.0186577
742.651	0.0185419
742.729	0.0183279
742.808	0.0180984
742.886	0.0179544
742.964	0.0176952
743.042	0.0175092
743.120	0.0174578
743.198	0.0173740
743.276	0.0175407
743.354	0.0174525
743.433	0.0173670
743.511	0.0171766
743.589	0.0174520
743.667	0.0172069
743.745	0.0172617
743.823	0.0172049
743.901	0.0171093
743.979	0.0168944
744.058	0.0170780
744.136	0.0169234
744.214	0.0166787
744.292	0.0167356
744.370	0.0165634
744.448	0.0166215
744.526	0.0166038
744.604	0.0165726
744.683	0.0165722
744.761	0.0165954
744.839	0.0167698
744.917	0.0169200
744.995	0.0170783
745.073	0.0171633
745.151	0.0173740
745.229	0.0174928
745.308	0.0177343
745.386	0.0181559
745.464	0.0182553
745.542	0.0185258
745.620	0.0185671
745.698	0.0187450
745.776	0.0188321
745.854	0.0189439
745.933	0.0189143
746.011	0.0188828
746.089	0.0189326
746.167	0.0188071
746.245	0.0186807
746.323	0.0186475
746.401	0.0183771
746.479	0.0181818
746.558	0.0183204
746.636	0.0182092
746.714	0.0181310
746.792	0.0179379
746.870	0.0178264
746.948	0.0179955
747.026	0.0179372
747.104	0.0178513
747.183	0.0175538
747.261	0.0176578
747.339	0.0176296
747.417	0.0176862
747.495	0.0174281
747.573	0.0171469
747.651	0.0172693
747.729	0.0170274
747.808	0.0168842
747.886	0.0166216
747.964	0.0164936
748.042	0.0165085
748.120	0.0162923
748.198	0.0160731
748.276	0.0159800
748.354	0.0160276
748.433	0.0158320
748.511	0.0159447
748.589	0.0160805
748.667	0.0161488
748.745	0.0163040
748.823	0.0166101
748.901	0.0167904
748.979	0.0171777
749.058	0.0174908
749.136	0.0178230
749.214	0.0181870
749.292	0.0184376
749.370	0.0185816
749.448	0.0187641
749.526	0.0189941
749.604	0.0190179
749.683	0.0189978
749.761	0.0190366
749.839	0.0190166
749.917	0.0191208
749.995	0.0190446
750.073	0.0189244
750.151	0.0188057
750.229	0.0187846
750.308	0.0187085
750.386	0.0187140
750.464	0.0187589
750.542	0.0183815
750.620	0.0183913
750.698	0.0180830
750.776	0.0180741
750.854	0.0180903
750.933	0.0179630
751.011	0.0177139
751.089	0.0175410
751.167	0.0175852
751.245	0.0173145
751.323	0.0170080
751.401	0.0168327
751.479	0.0166210
751.558	0.0165298
751.636	0.0163043
751.714	0.0163356
751.792	0.0162023
751.870	0.0161786
751.948	0.0161193
752.026	0.0161137
752.104	0.0163089
752.183	0.0163416
752.261	0.0164092
752.339	0.0165883
752.417	0.0167901
752.495	0.0170419
752.573	0.0171093
752.651	0.0174088
752.729	0.0175526
752.808	0.0176186
752.886	0.0178856
752.964	0.0180080
753.042	0.0179981
753.120	0.0180415
753.198	0.0182381
753.276	0.0184934
753.354	0.0183673
753.433	0.0183266
753.511	0.0183998
753.589	0.0182749
753.667	0.0182698
753.745	0.0184670
753.823	0.0182403
753.901	0.0182862
753.979	0.0184939
754.058	0.0182722
754.136	0.0182120
754.214	0.0182258
754.292	0.0180920
754.370	0.0182185
754.448	0.0182269
754.526	0.0181823
754.604	0.0180667
754.683	0.0179665
754.761	0.0180492
754.839	0.0179169
754.917	0.0179507
754.995	0.0178147
755.073	0.0176677
755.151	0.0174753
755.229	0.0174007
755.308	0.0172858
755.386	0.0171293
755.464	0.0168851
755.542	0.0169779
755.620	0.0168460
755.698	0.0168011
755.776	0.0167648
755.854	0.0166700
755.933	0.0168612
756.011	0.0167770
756.089	0.0167953
756.167	0.0169077
756.245	0.0169158
756.323	0.0168398
756.401	0.0169846
756.479	0.0171172
756.558	0.0171268
756.636	0.0171624
756.714	0.0173656
756.792	0.0173438
756.870	0.0175075
756.948	0.0175844
757.026	0.0175890
757.104	0.0176987
757.183	0.0179287
757.261	0.0178813
757.339	0.0180780
757.417	0.0180725
757.495	0.0180700
757.573	0.0182402
757.651	0.0185590
757.729	0.0186555
757.808	0.0185315
757.886	0.0186607
757.964	0.0186068
758.042	0.0186235
758.120	0.0186875
758.198	0.0185979
758.276	0.0185801
758.354	0.0186401
758.433	0.0186369
758.511	0.0184046
758.589	0.0181950
758.667	0.0180585
758.745	0.0179358
758.823	0.0176542
758.901	0.0175842
758.979	0.0174329
759.058	0.0173014
759.136	0.0172175
759.214	0.0170887
759.292	0.0170430
759.370	0.0168596
759.448	0.0168690
759.526	0.0169372
759.604	0.0169296
759.683	0.0169883
759.761	0.0168751
759.839	0.0169444
759.917	0.0170354
759.995	0.0170535
760.073	0.0172733
760.151	0.0171541
760.229	0.0171590
760.308	0.0173322
760.386	0.0173460
760.464	0.0173936
760.542	0.0173186
760.620	0.0174547
760.698	0.0174476
760.776	0.0176451
760.854	0.0176405
760.933	0.0176225
761.011	0.0178741
761.089	0.0178024
761.167	0.0177757
761.245	0.0180278
761.323	0.0181065
761.401	0.0180331
761.479	0.0180940
761.558	0.0181660
761.636	0.0182507
761.714	0.0185420
761.792	0.0185442
761.870	0.0183236
761.948	0.0183437
762.026	0.0184191
762.104	0.0183260
762.183	0.0182713
762.261	0.0181622
762.339	0.0181641
762.417	0.0180868
762.495	0.0180436
762.573	0.0177783
762.651	0.0176755
762.729	0.0176152
762.808	0.0175172
762.886	0.0174718
762.964	0.0173398
763.042	0.0173550
763.120	0.0173254
763.198	0.0171501
763.276	0.0171724
763.354	0.0173021
763.433	0.0174493
763.511	0.0172961
763.589	0.0172367
763.667	0.0174524
763.745	0.0176724
763.823	0.0174047
763.901	0.0175455
763.979	0.0175224
764.058	0.0177077
764.136	0.0176955
764.214	0.0176048
764.292	0.0176600
764.370	0.0176144
764.448	0.0177127
764.526	0.0174637
764.604	0.0175813
764.683	0.0175660
764.761	0.0175719
764.839	0.0176460
764.917	0.0176933
764.995	0.0177103
765.073	0.0177921
765.151	0.0179155
765.229	0.0180447
765.308	0.0178699
765.386	0.0180103
765.464	0.0180165
765.542	0.0180196
765.620	0.0181706
765.698	0.0182662
765.776	0.0183055
765.854	0.0181870
765.933	0.0182950
766.011	0.0181667
766.089	0.0181807
766.167	0.0182043
766.245	0.0180921
766.323	0.0180342
766.401	0.0181765
766.479	0.0181808
766.558	0.0179504
766.636	0.0179502
766.714	0.0179798
766.792	0.0180201
766.870	0.0179489
766.948	0.0178401
767.026	0.0178205
767.104	0.0177807
767.183	0.0178172
767.261	0.0176507
767.339	0.0175650
767.417	0.0174941
767.495	0.0174135
767.573	0.0173652
767.651	0.0173403
767.729	0.0172254
767.808	0.0171246
767.886	0.0171378
767.964	0.0170373
768.042	0.0171294
768.120	0.0171815
768.198	0.0171115
768.276	0.0171703
768.354	0.0172576
768.433	0.0171622
768.511	0.0172266
768.589	0.0172810
768.667	0.0173714
768.745	0.0175429
768.823	0.0174748
768.901	0.0174885
768.979	0.0176768
769.058	0.0176846
769.136	0.0176747
769.214	0.0176841
769.292	0.0178946
769.370	0.0178213
769.448	0.0178583
769.526	0.0179792
769.604	0.0179776
769.683	0.0179269
769.761	0.0181164
769.839	0.0180060
769.917	0.0180906
769.995	0.0181629
770.073	0.0180491
770.151	0.0179942
770.229	0.0180627
770.308	0.0181801
770.386	0.0181660
770.464	0.0181571
770.542	0.0180641
770.620	0.0180172
770.698	0.0180704
770.776	0.0179816
770.854	0.0179080
770.933	0.0178333
771.011	0.0177686
771.089	0.0177073
771.167	0.0176872
771.245	0.0176444
771.323	0.0174596
771.401	0.0174883
771.479	0.0175108
771.558	0.0172649
771.636	0.0171743
771.714	0.0171172
771.792	0.0171651
771.870	0.0171594
771.948	0.0172202
772.026	0.0171276
772.104	0.0171999
772.183	0.0171444
772.261	0.0173419
772.339	0.0173867
772.417	0.0173565
772.495	0.0175115
772.573	0.0175974
772.651	0.0176159
772.729	0.0177753
772.808	0.0177464
772.886	0.0177718
772.964	0.0178696
773.042	0.0178538
773.120	0.0179025
773.198	0.0179082
773.276	0.0178031
773.354	0.0180534
773.433	0.0179198
773.511	0.0179286
773.589	0.0178158
773.667	0.0178914
773.745	0.0178654
773.823	0.0178929
773.901	0.0177802
773.979	0.0177723
774.058	0.0177873
774.136	0.0177879
774.214	0.0177535
774.292	0.0177706
774.370	0.0178966
774.448	0.0179562
774.526	0.0177457
774.604	0.0178437
774.683	0.0179663
774.761	0.0178010
774.839	0.0176304
774.917	0.0176806
774.995	0.0177451
775.073	0.0174416
775.151	0.0174941
775.229	0.0174416
775.308	0.0173530
775.386	0.0172063
775.464	0.0171387
775.542	0.0172120
775.620	0.0169374
775.698	0.0171116
775.776	0.0170213
775.854	0.0169884
775.933	0.0169669
776.011	0.0170242
776.089	0.0170628
776.167	0.0171490
776.245	0.0172753
776.323	0.0173556
776.401	0.0173528
776.479	0.0173569
776.558	0.0174265
776.636	0.0174886
776.714	0.0176659
776.792	0.0175845
776.870	0.0176331
776.948	0.0176664
777.026	0.0177746
777.104	0.0179593
777.183	0.0180248
777.261	0.0179549
777.339	0.0180880
777.417	0.0181653
777.495	0.0181423
777.573	0.0181993
777.651	0.0182091
777.729	0.0183604
777.808	0.0182919
777.886	0.0182166
777.964	0.0182109
778.042	0.0183797
778.120	0.0182598
778.198	0.0182569
778.276	0.0181608
778.354	0.0180359
778.433	0.0178681
778.511	0.0178346
778.589	0.0176908
778.667	0.0176434
778.745	0.0177159
778.823	0.0174799
778.901	0.0173551
778.979	0.0174640
779.058	0.0173750
779.136	0.0172586
779.214	0.0171401
779.292	0.0171333
779.370	0.0171627
779.448	0.0171404
779.526	0.0171154
779.604	0.0170123
779.683	0.0171155
779.761	0.0170354
779.839	0.0171501
779.917	0.0171563
779.995	0.0171485
780.073	0.0170456
780.151	0.0170590
780.229	0.0173000
780.308	0.0174233
780.386	0.0173303
780.464	0.0172640
780.542	0.0175687
780.620	0.0177876
780.698	0.0178102
780.776	0.0179072
780.854	0.0179599
780.933	0.0180817
781.011	0.0180444
781.089	0.0181796
781.167	0.0181139
781.245	0.0183666
781.323	0.0183770
781.401	0.0184010
781.479	0.0182825
781.558	0.0182845
781.636	0.0182678
781.714	0.0181544
781.792	0.0182014
781.870	0.0178859
781.948	0.0178085
782.026	0.0178121
782.104	0.0177008
782.183	0.0174501
782.261	0.0174335
782.339	0.0175173
782.417	0.0175035
782.495	0.0172303
782.573	0.0172537
782.651	0.0172520
782.729	0.0172600
782.808	0.0172515
782.886	0.0172239
782.964	0.0172540
783.042	0.0171769
783.120	0.0171373
783.198	0.0172578
783.276	0.0172641
783.354	0.0173365
783.433	0.0172896
783.511	0.0173892
783.589	0.0174281
783.667	0.0173621
783.745	0.0173734
783.823	0.0174979
783.901	0.0174806
783.979	0.0176266
784.058	0.0176192
784.136	0.0175493
784.214	0.0177116
784.292	0.0177500
784.370	0.0177801
784.448	0.0178642
784.526	0.0179220
784.604	0.0179643
784.683	0.0180833
784.761	0.0181924
784.839	0.0181471
784.917	0.0183812
784.995	0.0183237
785.073	0.0184320
785.151	0.0183836
785.229	0.0183835
785.308	0.0183580
785.386	0.0183011
785.464	0.0184431
785.542	0.0182385
785.620	0.0181643
785.698	0.0180204
785.776	0.0180889
785.854	0.0180663
785.933	0.0180742
786.011	0.0177922
786.089	0.0177269
786.167	0.0176671
786.245	0.0175532
786.323	0.0174657
786.401	0.0175041
786.479	0.0174989
786.558	0.0173440
786.636	0.0172432
786.714	0.0173213
786.792	0.0173272
786.870	0.0173161
786.948	0.0171500
787.026	0.0171426
787.104	0.0171889
787.183	0.0170650
787.261	0.0171467
787.339	0.0171864
787.417	0.0172021
787.495	0.0173557
787.573	0.0172616
787.651	0.0174124
787.729	0.0173613
787.808	0.0172263
787.886	0.0175015
787.964	0.0175179
788.042	0.0177170
788.120	0.0176594
788.198	0.0177594
788.276	0.0179189
788.354	0.0178242
788.433	0.0179571
788.511	0.0181523
788.589	0.0179703
788.667	0.0181705
788.745	0.0182825
788.823	0.0182289
788.901	0.0183218
788.979	0.0182714
789.058	0.0182632
789.136	0.0182172
789.214	0.0182899
789.292	0.0183675
789.370	0.0183563
789.448	0.0181690
789.526	0.0181325
789.604	0.0180252
789.683	0.0180677
789.761	0.0179327
789.839	0.0178259
789.917	0.0176779
789.995	0.0174652
790.073	0.0175185
790.151	0.0173278
790.229	0.0174093
790.308	0.0173943
790.386	0.0172212
790.464	0.0170467
790.542	0.0171011
790.620	0.0170734
790.698	0.0170319
790.776	0.0170510
790.854	0.0171621
790.933	0.0169324
791.011	0.0171284
791.089	0.0172047
791.167	0.0173528
791.245	0.0174112
791.323	0.0175198
791.401	0.0175800
791.479	0.0176974
791.558	0.0178562
791.636	0.0177270
791.714	0.0178942
791.792	0.0180079
791.870	0.0181305
791.948	0.0179990
792.026	0.0181840
792.104	0.0182317
792.183	0.0181070
792.261	0.0181370
792.339	0.0181099
792.417	0.0182522
792.495	0.0181348
792.573	0.0180441
792.651	0.0179446
792.729	0.0179232
792.808	0.0179047
792.886	0.0179379
792.964	0.0178182
793.042	0.0178088
793.120	0.0179237
793.198	0.0177852
793.276	0.0179000
793.354	0.0178442
793.433	0.0177937
793.511	0.0176055
793.589	0.0176531
793.667	0.0176646
793.745	0.0174995
793.823	0.0174812
793.901	0.0174498
793.979	0.0174084
794.058	0.0172388
794.136	0.0173499
794.214	0.0172992
794.292	0.0172511
794.370	0.0172437
794.448	0.0170859
794.526	0.0171729
794.604	0.0171655
794.683	0.0172410
794.761	0.0173888
794.839	0.0173273
794.917	0.0173648
794.995	0.0174899
795.073	0.0174905
795.151	0.0177225
795.229	0.0177237
795.308	0.0177110
795.386	0.0178707
795.464	0.0180624
795.542	0.0180221
795.620	0.0181094
795.698	0.0179330
795.776	0.0181510
795.854	0.0182355
795.933	0.0181341
796.011	0.0180121
796.089	0.0179493
796.167	0.0179919
796.245	0.0180592
796.323	0.0178307
796.401	0.0178862
796.479	0.0177269
796.558	0.0176517
796.636	0.0175757
796.714	0.0175393
796.792	0.0176489
796.870	0.0175687
796.948	0.0175528
797.026	0.0172723
797.104	0.0172236
797.183	0.0175095
797.261	0.0173749
797.339	0.0172739
797.417	0.0174158
797.495	0.0173244
797.573	0.0173321
797.651	0.0173901
797.729	0.0173883
797.808	0.0173335
797.886	0.0172826
797.964	0.0173439
798.042	0.0175139
798.120	0.0173086
798.198	0.0174179
798.276	0.0174018
798.354	0.0173734
798.433	0.0173100
798.511	0.0175435
798.589	0.0175381
798.667	0.0173766
798.745	0.0175724
798.823	0.0175281
798.901	0.0177934
798.979	0.0179168
799.058	0.0179201
799.136	0.0178127
799.214	0.0180138
799.292	0.0181326
799.370	0.0181689
799.448	0.0179927
799.526	0.0180814
799.604	0.0181187
799.683	0.0181249
799.761	0.0181548
799.839	0.0180832
799.917	0.0182021
799.995	0.0180756
800.073	0.0180993
800.151	0.0178874
800.229	0.0180072
800.308	0.0178828
800.386	0.0177678
800.464	0.0175260
800.542	0.0176418
800.620	0.0175357
800.698	0.0174685
800.776	0.0173438
800.854	0.0172163
800.933	0.0172614
801.011	0.0171320
801.089	0.0171875
801.167	0.0172752
801.245	0.0172047
801.323	0.0171682
801.401	0.0171751
801.479	0.0169736
801.558	0.0171959
801.636	0.0172605
801.714	0.0171188
801.792	0.0171967
801.870	0.0173015
801.948	0.0172010
802.026	0.0172771
802.104	0.0173392
802.183	0.0173431
802.261	0.0174693
802.339	0.0174912
802.417	0.0175220
802.495	0.0177156
802.573	0.0177448
802.651	0.0178652
802.729	0.0178539
802.808	0.0179929
802.886	0.0179898
802.964	0.0179118
803.042	0.0180533
803.120	0.0182191
803.198	0.0182231
803.276	0.0181733
803.354	0.0182745
803.433	0.0180956
803.511	0.0181601
803.589	0.0181406
803.667	0.0179118
803.745	0.0179005
803.823	0.0178551
803.901	0.0178815
803.979	0.0177965
804.058	0.0176740
804.136	0.0174693
804.214	0.0173616
804.292	0.0173134
804.370	0.0171798
804.448	0.0170117
804.526	0.0170053
804.604	0.0170257
804.683	0.0169540
804.761	0.0170628
804.839	0.0170317
804.917	0.0170482
804.995	0.0171690
805.073	0.0171117
805.151	0.0172137
805.229	0.0174312
805.308	0.0175236
805.386	0.0174976
805.464	0.0174979
805.542	0.0175845
805.620	0.0176840
805.698	0.0176427
805.776	0.0177543
805.854	0.0177108
805.933	0.0176998
806.011	0.0178346
806.089	0.0178168
806.167	0.0178742
806.245	0.0179332
806.323	0.0178957
806.401	0.0179919
806.479	0.0180714
806.558	0.0180566
806.636	0.0179835
806.714	0.0180976
806.792	0.0179626
806.870	0.0179222
806.948	0.0179453
807.026	0.0179156
807.104	0.0177695
807.183	0.0177711
807.261	0.0178452
807.339	0.0180338
807.417	0.0178013
807.495	0.0178701
807.573	0.0178641
807.651	0.0176868
807.729	0.0175671
807.808	0.0176576
807.886	0.0176013
807.964	0.0174448
808.042	0.0174632
808.120	0.0174365
808.198	0.0175502
808.276	0.0173865
808.354	0.0173803
808.433	0.0174384
808.511	0.0174583
808.589	0.0174645
808.667	0.0174628
808.745	0.0174854
808.823	0.0173849
808.901	0.0175594
808.979	0.0175196
809.058	0.0174255
809.136	0.0176239
809.214	0.0178065
809.292	0.0177422
809.370	0.0176353
809.448	0.0176472
809.526	0.0177990
809.604	0.0177996
809.683	0.0176990
809.761	0.0178921
809.839	0.0178441
809.917	0.0178748
809.995	0.0177780
810.073	0.0178040
810.151	0.0178439
810.229	0.0177242
810.308	0.0178762
810.386	0.0175837
810.464	0.0175365
810.542	0.0177575
810.620	0.0176305
810.698	0.0176314
810.776	0.0174474
810.854	0.0174918
810.933	0.0174806
811.011	0.0174678
811.089	0.0173971
811.167	0.0174751
811.245	0.0175088
811.323	0.0174367
811.401	0.0175668
811.479	0.0176165
811.558	0.0176184
811.636	0.0176097
811.714	0.0176524
811.792	0.0176961
811.870	0.0177522
811.948	0.0178384
812.026	0.0179028
812.104	0.0179492
812.183	0.0179411
812.261	0.0180216
812.339	0.0179045
812.417	0.0178808
812.495	0.0179471
812.573	0.0178893
812.651	0.0178835
812.729	0.0179316
812.808	0.0179666
812.886	0.0178269
812.964	0.0178803
813.042	0.0178430
813.120	0.0178803
813.198	0.0178145
813.276	0.0178864
813.354	0.0178533
813.433	0.0177242
813.511	0.0177592
813.589	0.0179762
813.667	0.0177338
813.745	0.0178429
813.823	0.0176673
813.901	0.0176855
813.979	0.0177592
814.058	0.0175196
814.136	0.0175674
814.214	0.0174957
814.292	0.0175343
814.370	0.0174049
814.448	0.0176839
814.526	0.0175299
814.604	0.0174452
814.683	0.0173586
814.761	0.0173380
814.839	0.0173214
814.917	0.0173862
814.995	0.0174164
815.073	0.0174030
815.151	0.0174004
815.229	0.0172334
815.308	0.0172790
815.386	0.0174443
815.464	0.0175115
815.542	0.0174328
815.620	0.0174697
815.698	0.0176051
815.776	0.0175745
815.854	0.0177074
815.933	0.0177039
816.011	0.0176578
816.089	0.0177589
816.167	0.0178825
816.245	0.0178399
816.323	0.0178799
816.401	0.0179868
816.479	0.0179562
816.558	0.0180642
816.636	0.0181032
816.714	0.0180403
816.792	0.0181312
816.870	0.0182269
816.948	0.0181126
817.026	0.0180692
817.104	0.0179590
817.183	0.0180999
817.261	0.0179914
817.339	0.0179192
817.417	0.0177520
817.495	0.0177313
817.573	0.0176624
817.651	0.0175414
817.729	0.0174377
817.808	0.0174468
817.886	0.0173786
817.964	0.0173644
818.042	0.0173004
818.120	0.0172961
818.198	0.0172019
818.276	0.0172720
818.354	0.0171475
818.433	0.0172742
818.511	0.0172373
818.589	0.0172911
818.667	0.0173222
818.745	0.0173540
818.823	0.0174270
818.901	0.0174594
818.979	0.0174889
819.058	0.0174557
819.136	0.0175800
819.214	0.0175319
819.292	0.0177634
819.370	0.0178668
819.448	0.0175688
819.526	0.0178323
819.604	0.0179034
819.683	0.0178585
819.761	0.0178007
819.839	0.0179267
819.917	0.0180170
819.995	0.0179300
820.073	0.0180444
820.151	0.0180318
820.229	0.0180056
820.308	0.0181884
820.386	0.0181031
820.464	0.0180721
820.542	0.0181006
820.620	0.0180047
820.698	0.0179785
820.776	0.0179027
820.854	0.0179507
820.933	0.0178053
821.011	0.0176451
821.089	0.0176945
821.167	0.0174707
821.245	0.0173143
821.323	0.0173447
821.401	0.0173158
821.479	0.0172038
821.558	0.0170944
821.636	0.0171352
821.714	0.0171252
821.792	0.0169301
821.870	0.0169637
821.948	0.0169420
822.026	0.0170694
822.104	0.0170935
822.183	0.0170176
822.261	0.0172096
822.339	0.0172963
822.417	0.0173067
822.495	0.0175016
822.573	0.0175054
822.651	0.0175043
822.729	0.0176428
822.808	0.0177310
822.886	0.0177476
822.964	0.0177983
823.042	0.0178806
823.120	0.0178802
823.198	0.0180310
823.276	0.0178554
823.354	0.0178803
823.433	0.0178168
823.511	0.0179390
823.589	0.0180186
823.667	0.0179198
823.745	0.0179692
823.823	0.0179897
823.901	0.0179559
823.979	0.0181020
824.058	0.0181382
824.136	0.0181230
824.214	0.0183138
824.292	0.0181561
824.370	0.0180690
824.448	0.0182065
824.526	0.0180602
824.604	0.0181046
824.683	0.0179382
824.761	0.0179807
824.839	0.0179198
824.917	0.0178021
824.995	0.0175012
825.073	0.0176556
825.151	0.0174702
825.229	0.0174658
825.308	0.0172733
825.386	0.0172164
825.464	0.0172867
825.542	0.0172203
825.620	0.0172152
825.698	0.0171182
825.776	0.0171274
825.854	0.0171935
825.933	0.0171323
826.011	0.0171167
826.089	0.0171181
826.167	0.0172650
826.245	0.0173412
826.323	0.0172310
826.401	0.0172603
826.479	0.0172738
826.558	0.0173335
826.636	0.0174744
826.714	0.0173450
826.792	0.0173657
826.870	0.0174698
826.948	0.0175549
827.026	0.0176259
827.104	0.0176877
827.183	0.0177699
827.261	0.0178182
827.339	0.0178917
827.417	0.0179109
827.495	0.0180901
827.573	0.0180215
827.651	0.0180972
827.729	0.0181624
827.808	0.0182919
827.886	0.0181875
827.964	0.0180933
828.042	0.0181788
828.120	0.0181487
828.198	0.0182026
828.276	0.0181997
828.354	0.0180284
828.433	0.0180202
828.511	0.0180939
828.589	0.0180455
828.667	0.0180805
828.745	0.0178766
828.823	0.0177731
828.901	0.0176737
828.979	0.0176013
829.058	0.0174851
829.136	0.0174335
829.214	0.0174625
829.292	0.0171893
829.370	0.0173469
829.448	0.0173673
829.526	0.0173160
829.604	0.0170339
829.683	0.0171832
829.761	0.0174558
829.839	0.0172305
829.917	0.0170907
829.995	0.0171209
830.073	0.0173047
830.151	0.0172768
830.229	0.0174260
830.308	0.0175629
830.386	0.0174863
830.464	0.0175415
830.542	0.0176163
830.620	0.0176782
830.698	0.0176741
830.776	0.0176707
830.854	0.0178841
830.933	0.0178091
831.011	0.0177364
831.089	0.0178065
831.167	0.0177713
831.245	0.0179478
831.323	0.0177563
831.401	0.0178033
831.479	0.0177650
831.558	0.0179083
831.636	0.0178369
831.714	0.0178712
831.792	0.0178498
831.870	0.0179567
831.948	0.0178839
832.026	0.0178242
832.104	0.0178893
832.183	0.0178309
832.261	0.0178447
832.339	0.0177251
832.417	0.0178762
832.495	0.0177301
832.573	0.0177689
832.651	0.0177026
832.729	0.0178561
832.808	0.0178383
832.886	0.0178413
832.964	0.0178996
833.042	0.0177882
833.120	0.0178185
833.198	0.0177788
833.276	0.0180042
833.354	0.0177306
833.433	0.0178101
833.511	0.0178270
833.589	0.0177251
833.667	0.0177368
833.745	0.0178011
833.823	0.0178530
833.901	0.0177255
833.979	0.0176996
834.058	0.0176888
834.136	0.0176569
834.214	0.0175855
834.292	0.0176192
834.370	0.0175735
834.448	0.0175565
834.526	0.0175775
834.604	0.0174265
834.683	0.0174820
834.761	0.0174919
834.839	0.0174464
834.917	0.0176920
834.995	0.0173663
835.073	0.0174674
835.151	0.0176553
835.229	0.0176707
835.308	0.0177222
835.386	0.0177811
835.464	0.0177420
835.542	0.0178599
835.620	0.0179012
835.698	0.0178159
835.776	0.0179263
835.854	0.0179570
835.933	0.0178631
836.011	0.0179139
836.089	0.0180245
836.167	0.0178961
836.245	0.0179633
836.323	0.0179852
836.401	0.0180035
836.479	0.0179751
836.558	0.0180433
836.636	0.0180122
836.714	0.0179263
836.792	0.0179701
836.870	0.0179105
836.948	0.0178590
837.026	0.0177630
837.104	0.0179202
837.183	0.0176839
837.261	0.0176172
837.339	0.0177050
837.417	0.0176636
837.495	0.0175212
837.573	0.0175153
837.651	0.0174955
837.729	0.0173949
837.808	0.0173987
837.886	0.0172616
837.964	0.0172270
838.042	0.0172703
838.120	0.0172089
838.198	0.0172023
838.276	0.0172807
838.354	0.0173987
838.433	0.0173215
838.511	0.0173908
838.589	0.0173229
838.667	0.0173189
838.745	0.0174231
838.823	0.0174884
838.901	0.0175032
838.979	0.0175481
839.058	0.0176583
839.136	0.0177059
839.214	0.0178474
839.292	0.0179974
839.370	0.0180270
839.448	0.0181110
839.526	0.0181342
839.604	0.0181059
839.683	0.0182385
839.761	0.0182034
839.839	0.0183498
839.917	0.0182858
839.995	0.0181417
840.073	0.0183102
840.151	0.0181837
840.229	0.0181134
840.308	0.0181225
840.386	0.0180766
840.464	0.0179327
840.542	0.0178095
840.620	0.0179649
840.698	0.0179331
840.776	0.0178199
840.854	0.0176443
840.933	0.0176480
841.011	0.0175806
841.089	0.0176069
841.167	0.0175211
841.245	0.0173829
841.323	0.0174196
841.401	0.0174683
841.479	0.0173460
841.558	0.0172637
841.636	0.0173719
841.714	0.0173143
841.792	0.0174307
841.870	0.0173609
841.948	0.0173792
842.026	0.0173382
842.104	0.0173695
842.183	0.0173894
842.261	0.0172857
842.339	0.0173125
842.417	0.0174379
842.495	0.0174327
842.573	0.0174741
842.651	0.0175660
842.729	0.0173954
842.808	0.0175310
842.886	0.0176772
842.964	0.0176754
843.042	0.0177489
843.120	0.0178479
843.198	0.0178300
843.276	0.0179028
843.354	0.0178762
843.433	0.0177729
843.511	0.0179175
843.589	0.0180003
843.667	0.0179632
843.745	0.0179752
843.823	0.0180145
843.901	0.0180183
843.979	0.0180054
844.058	0.0179989
844.136	0.0179787
844.214	0.0180151
844.292	0.0178859
844.370	0.0177940
844.448	0.0178968
844.526	0.0178217
844.604	0.0177071
844.683	0.0177005
844.761	0.0176692
844.839	0.0177393
844.917	0.0176689
844.995	0.0177002
845.073	0.0176263
845.151	0.0176222
845.229	0.0174275
845.308	0.0174253
845.386	0.0174912
845.464	0.0175175
845.542	0.0173882
845.620	0.0174552
845.698	0.0173177
845.776	0.0172897
845.854	0.0174184
845.933	0.0174276
846.011	0.0172682
846.089	0.0172911
846.167	0.0172765
846.245	0.0174155
846.323	0.0173375
846.401	0.0174324
846.479	0.0172194
846.558	0.0173565
846.636	0.0174813
846.714	0.0174373
846.792	0.0175835
846.870	0.0176131
846.948	0.0175143
847.026	0.0176569
847.104	0.0178618
847.183	0.0177862
847.261	0.0178338
847.339	0.0179149
847.417	0.0178535
847.495	0.0179292
847.573	0.0181200
847.651	0.0180417
847.729	0.0180562
847.808	0.0180569
847.886	0.0181769
847.964	0.0181494
848.042	0.0180339
848.120	0.0180791
848.198	0.0180494
848.276	0.0179384
848.354	0.0179977
848.433	0.0178977
848.511	0.0178983
848.589	0.0177964
848.667	0.0179411
848.745	0.0177569
848.823	0.0176267
848.901	0.0177086
848.979	0.0176804
849.058	0.0174879
849.136	0.0173663
849.214	0.0173515
849.292	0.0173039
849.370	0.0173930
849.448	0.0173032
849.526	0.0172486
849.604	0.0173448
849.683	0.0172566
849.761	0.0172853
849.839	0.0174010
849.917	0.0174477
849.995	0.0173098
850.073	0.0173910
850.151	0.0175664
850.229	0.0173502
850.308	0.0174229
850.386	0.0175455
850.464	0.0174926
850.542	0.0175352
850.620	0.0174426
850.698	0.0176377
850.776	0.0177361
850.854	0.0176386
850.933	0.0177058
851.011	0.0176385
851.089	0.0177007
851.167	0.0179225
851.245	0.0179340
851.323	0.0179101
851.401	0.0179811
851.479	0.0179301
851.558	0.0179989
851.636	0.0179314
851.714	0.0180178
851.792	0.0180801
851.870	0.0180080
851.948	0.0180344
852.026	0.0179153
852.104	0.0180560
852.183	0.0179882
852.261	0.0179350
852.339	0.0178725
852.417	0.0179142
852.495	0.0179038
852.573	0.0178175
852.651	0.0176752
852.729	0.0176507
852.808	0.0178139
852.886	0.0176018
852.964	0.0174472
853.042	0.0174877
853.120	0.0175014
853.198	0.0174382
853.276	0.0175818
853.354	0.0173949
853.433	0.0174113
853.511	0.0174404
853.589	0.0174513
853.667	0.0174637
853.745	0.0175657
853.823	0.0174545
853.901	0.0173545
853.979	0.0175078
854.058	0.0174454
854.136	0.0175015
854.214	0.0173769
854.292	0.0174715
854.370	0.0175615
854.448	0.0173415
854.526	0.0175287
854.604	0.0176585
854.683	0.0176433
854.761	0.0175164
854.839	0.0175854
854.917	0.0177550
854.995	0.0176700
855.073	0.0177478
855.151	0.0177655
855.229	0.0178511
855.308	0.0177492
855.386	0.0178561
855.464	0.0180443
855.542	0.0178799
855.620	0.0178908
855.698	0.0180650
855.776	0.0180058
855.854	0.0179492
855.933	0.0180132
856.011	0.0180287
856.089	0.0180213
856.167	0.0179021
856.245	0.0178560
856.323	0.0178983
856.401	0.0178658
856.479	0.0179271
856.558	0.0177583
856.636	0.0178289
856.714	0.0177818
856.792	0.0178402
856.870	0.0178493
856.948	0.0177809
857.026	0.0176271
857.104	0.0176366
857.183	0.0175539
857.261	0.0176052
857.339	0.0175278
857.417	0.0175809
857.495	0.0177068
857.573	0.0176832
857.651	0.0176447
857.729	0.0176041
857.808	0.0175986
857.886	0.0175810
857.964	0.0176482
858.042	0.0177393
858.120	0.0175391
858.198	0.0175927
858.276	0.0176413
858.354	0.0177257
858.433	0.0177402
858.511	0.0178328
858.589	0.0178716
858.667	0.0176562
858.745	0.0176484
858.823	0.0178329
858.901	0.0176936
858.979	0.0179205
859.058	0.0177473
859.136	0.0176628
859.214	0.0177547
859.292	0.0177863
859.370	0.0178866
859.448	0.0176935
859.526	0.0177123
859.604	0.0176627
859.683	0.0177460
859.761	0.0179596
859.839	0.0178025
859.917	0.0176730
859.995	0.0177814
860.073	0.0178503
860.151	0.0178654
860.229	0.0178671
860.308	0.0177764
860.386	0.0178281
860.464	0.0179164
860.542	0.0177460
860.620	0.0176955
860.698	0.0176004
860.776	0.0176975
860.854	0.0177580
860.933	0.0178410
861.011	0.0178159
861.089	0.0177350
861.167	0.0176551
861.245	0.0176616
861.323	0.0177788
861.401	0.0176997
861.479	0.0176323
861.558	0.0175880
861.636	0.0176672
861.714	0.0177031
861.792	0.0177399
861.870	0.0175457
861.948	0.0175092
862.026	0.0174975
862.104	0.0176839
862.183	0.0174913
862.261	0.0177277
862.339	0.0174581
862.417	0.0176157
862.495	0.0175676
862.573	0.0176160
862.651	0.0176628
862.729	0.0176778
862.808	0.0176588
862.886	0.0176546
862.964	0.0175276
863.042	0.0177005
863.120	0.0177403
863.198	0.0177950
863.276	0.0178593
863.354	0.0177995
863.433	0.0178592
863.511	0.0177246
863.589	0.0177998
863.667	0.0177986
863.745	0.0177962
863.823	0.0176505
863.901	0.0178056
863.979	0.0177766
864.058	0.0177267
864.136	0.0176883
864.214	0.0178389
864.292	0.0176307
864.370	0.0177346
864.448	0.0176492
864.526	0.0176960
864.604	0.0176865
864.683	0.0177563
864.761	0.0176935
864.839	0.0177036
864.917	0.0177494
864.995	0.0177382
865.073	0.0176764
865.151	0.0176567
865.229	0.0177059
865.308	0.0176427
865.386	0.0177443
865.464	0.0177292
865.542	0.0176238
865.620	0.0176558
865.698	0.0177216
865.776	0.0177728
865.854	0.0174792
865.933	0.0174292
866.011	0.0176127
866.089	0.0176756
866.167	0.0176682
866.245	0.0176733
866.323	0.0175247
866.401	0.0176639
866.479	0.0175983
866.558	0.0176098
866.636	0.0176919
866.714	0.0177210
866.792	0.0176726
866.870	0.0176704
866.948	0.0176122
867.026	0.0176645
867.104	0.0176106
867.183	0.0175974
867.261	0.0176731
867.339	0.0175944
867.417	0.0175299
867.495	0.0174827
867.573	0.0175327
867.651	0.0174716
867.729	0.0174577
867.808	0.0174619
867.886	0.0174929
867.964	0.0174316
868.042	0.0174207
868.120	0.0175521
868.198	0.0176192
868.276	0.0175181
868.354	0.0175127
868.433	0.0176620
868.511	0.0175716
868.589	0.0175414
868.667	0.0176560
868.745	0.0177063
868.823	0.0175798
868.901	0.0176669
868.979	0.0177462
869.058	0.0176944
869.136	0.0176720
869.214	0.0177438
869.292	0.0178097
869.370	0.0177393
869.448	0.0176793
869.526	0.0177162
869.604	0.0177305
869.683	0.0177447
869.761	0.0178209
869.839	0.0178208
869.917	0.0178423
869.995	0.0177588
870.073	0.0178663
870.151	0.0178500
870.229	0.0177230
870.308	0.0177161
870.386	0.0176762
870.464	0.0176541
870.542	0.0176844
870.620	0.0176014
870.698	0.0175342
870.776	0.0175146
870.854	0.0176206
870.933	0.0174566
871.011	0.0174989
871.089	0.0175921
871.167	0.0175305
871.245	0.0174718
871.323	0.0174238
871.401	0.0175391
871.479	0.0174868
871.558	0.0175490
871.636	0.0175571
871.714	0.0176017
871.792	0.0175957
871.870	0.0175727
871.948	0.0175407
872.026	0.0175961
872.104	0.0176449
872.183	0.0175042
872.261	0.0175734
872.339	0.0175079
872.417	0.0176237
872.495	0.0175265
872.573	0.0175603
872.651	0.0175552
872.729	0.0176812
872.808	0.0174750
872.886	0.0174796
872.964	0.0177035
873.042	0.0177309
873.120	0.0175979
873.198	0.0174944
873.276	0.0175085
873.354	0.0176518
873.433	0.0177276
873.511	0.0177254
873.589	0.0177025
873.667	0.0176168
873.745	0.0177102
873.823	0.0175551
873.901	0.0176916
873.979	0.0175482
874.058	0.0177470
874.136	0.0176312
874.214	0.0175781
874.292	0.0176479
874.370	0.0176249
874.448	0.0176460
874.526	0.0177229
874.604	0.0176624
874.683	0.0176704
874.761	0.0175838
874.839	0.0177036
874.917	0.0177370
874.995	0.0177726
875.073	0.0176404
875.151	0.0175877
875.229	0.0175652
875.308	0.0175592
875.386	0.0175866
875.464	0.0175201
875.542	0.0174343
875.620	0.0174677
875.698	0.0172810
875.776	0.0174355
875.854	0.0173514
875.933	0.0173496
876.011	0.0174007
876.089	0.0172861
876.167	0.0172568
876.245	0.0174234
876.323	0.0174422
876.401	0.0174628
876.479	0.0174775
876.558	0.0175130
876.636	0.0175788
876.714	0.0175983
876.792	0.0178149
876.870	0.0177612
876.948	0.0176569
877.026	0.0177795
877.104	0.0179235
877.183	0.0179792
877.261	0.0179078
877.339	0.0180227
877.417	0.0179820
877.495	0.0177760
877.573	0.0179006
877.651	0.0177984
877.729	0.0177509
877.808	0.0178280
877.886	0.0177309
877.964	0.0177993
878.042	0.0177324
878.120	0.0176849
878.198	0.0176051
878.276	0.0175336
878.354	0.0175943
878.433	0.0177368
878.511	0.0176179
878.589	0.0175803
878.667	0.0175880
878.745	0.0176100
878.823	0.0176502
878.901	0.0175775
878.979	0.0174503
879.058	0.0175510
879.136	0.0173877
879.214	0.0173955
879.292	0.0174807
879.370	0.0175190
879.448	0.0176550
879.526	0.0175006
879.604	0.0173949
879.683	0.0173260
879.761	0.0173424
879.839	0.0173322
879.917	0.0175865
879.995	0.0174712
880.073	0.0175118
880.151	0.0173776
880.229	0.0175642
880.308	0.0175974
880.386	0.0175770
880.464	0.0174386
880.542	0.0176731
880.620	0.0175960
880.698	0.0175925
880.776	0.0176349
880.854	0.0176389
880.933	0.0176295
881.011	0.0174852
881.089	0.0178909
881.167	0.0177418
881.245	0.0175732
881.323	0.0177568
881.401	0.0178348
881.479	0.0178041
881.558	0.0178553
881.636	0.0177771
881.714	0.0177994
881.792	0.0176922
881.870	0.0178611
881.948	0.0179482
882.026	0.0179105
882.104	0.0179240
882.183	0.0178436
882.261	0.0179901
882.339	0.0178699
882.417	0.0177065
882.495	0.0177110
882.573	0.0176421
882.651	0.0177213
882.729	0.0176771
882.808	0.0176287
882.886	0.0174843
882.964	0.0175302
883.042	0.0174189
883.120	0.0174517
883.198	0.0174390
883.276	0.0175225
883.354	0.0175124
883.433	0.0174850
883.511	0.0175865
883.589	0.0175759
883.667	0.0175535
883.745	0.0175732
883.823	0.0173997
883.901	0.0174382
883.979	0.0175834
884.058	0.0174731
884.136	0.0175497
884.214	0.0175182
884.292	0.0174691
884.370	0.0175345
884.448	0.0175230
884.526	0.0176067
884.604	0.0176076
884.683	0.0176698
884.761	0.0176662
884.839	0.0176109
884.917	0.0177811
884.995	0.0178220
885.073	0.0177197
885.151	0.0178641
885.229	0.0179798
885.308	0.0179758
885.386	0.0180818
885.464	0.0179328
885.542	0.0179424
885.620	0.0180741
885.698	0.0179134
885.776	0.0179658
885.854	0.0179388
885.933	0.0178169
886.011	0.0178067
886.089	0.0178922
886.167	0.0177272
886.245	0.0176762
886.323	0.0175893
886.401	0.0176208
886.479	0.0174336
886.558	0.0174149
886.636	0.0174693
886.714	0.0174429
886.792	0.0175357
886.870	0.0174599
886.948	0.0174976
887.026	0.0174508
887.104	0.0174915
887.183	0.0174501
887.261	0.0174229
887.339	0.0174933
887.417	0.0175953
887.495	0.0174570
887.573	0.0174732
887.651	0.0176887
887.729	0.0176727
887.808	0.0174654
887.886	0.0175696
887.964	0.0175761
888.042	0.0176659
888.120	0.0176143
888.198	0.0174967
888.276	0.0175068
888.354	0.0175203
888.433	0.0176609
888.511	0.0176256
888.589	0.0176131
888.667	0.0176925
888.745	0.0175790
888.823	0.0176359
888.901	0.0176764
888.979	0.0178054
889.058	0.0177070
889.136	0.0176401
889.214	0.0175725
889.292	0.0177361
889.370	0.0178339
889.448	0.0176318
889.526	0.0176920
889.604	0.0177814
889.683	0.0178456
889.761	0.0177567
889.839	0.0178074
889.917	0.0178685
889.995	0.0179196
890.073	0.0177229
890.151	0.0177576
890.229	0.0178205
890.308	0.0176561
890.386	0.0177221
890.464	0.0177347
890.542	0.0175847
890.620	0.0175488
890.698	0.0177278
890.776	0.0177841
890.854	0.0176325
890.933	0.0175779
891.011	0.0177672
891.089	0.0177405
891.167	0.0178443
891.245	0.0176154
891.323	0.0176897
891.401	0.0176463
891.479	0.0175777
891.558	0.0175652
891.636	0.0174342
891.714	0.0172835
891.792	0.0173821
891.870	0.0173196
891.948	0.0173413
892.026	0.0171651
892.104	0.0171812
892.183	0.0171648
892.261	0.0170951
892.339	0.0172419
892.417	0.0172245
892.495	0.0172049
892.573	0.0172153
892.651	0.0173490
892.729	0.0174212
892.808	0.0175190
892.886	0.0174968
892.964	0.0177554
893.042	0.0178042
893.120	0.0178528
893.198	0.0179345
893.276	0.0180819
893.354	0.0181577
893.433	0.0182103
893.511	0.0181858
893.589	0.0181828
893.667	0.0180657
893.745	0.0183063
893.823	0.0181857
893.901	0.0178519
893.979	0.0179956
894.058	0.0179958
894.136	0.0175785
894.214	0.0177238
894.292	0.0177496
894.370	0.0175374
894.448	0.0176047
894.526	0.0175049
894.604	0.0174920
894.683	0.0174966
894.761	0.0174999
894.839	0.0174099
894.917	0.0174117
894.995	0.0174947
895.073	0.0175330
895.151	0.0175498
895.229	0.0175432
895.308	0.0175826
895.386	0.0175136
895.464	0.0176004
895.542	0.0175477
895.620	0.0176153
895.698	0.0175129
895.776	0.0175692
895.854	0.0174966
895.933	0.0174651
896.011	0.0173179
896.089	0.0172845
896.167	0.0173171
896.245	0.0171869
896.323	0.0171651
896.401	0.0172414
896.479	0.0172211
896.558	0.0173787
896.636	0.0174729
896.714	0.0174788
896.792	0.0175568
896.870	0.0177906
896.948	0.0177397
897.026	0.0178770
897.104	0.0180110
897.183	0.0180391
897.261	0.0181204
897.339	0.0180125
897.417	0.0181099
897.495	0.0181561
897.573	0.0180336
897.651	0.0181184
897.729	0.0180627
897.808	0.0180182
897.886	0.0182042
897.964	0.0181158
898.042	0.0182024
898.120	0.0182028
898.198	0.0180463
898.276	0.0179176
898.354	0.0179256
898.433	0.0178356
898.511	0.0176752
898.589	0.0176688
898.667	0.0176791
898.745	0.0175657
898.823	0.0174654
898.901	0.0174129
898.979	0.0171798
899.058	0.0173515
899.136	0.0170374
899.214	0.0169394
899.292	0.0169442
899.370	0.0168623
899.448	0.0167050
899.526	0.0167875
899.604	0.0168102
899.683	0.0167365
899.761	0.0167586
899.839	0.0168541
899.917	0.0170023
899.995	0.0169203
900.073	0.0170285
900.151	0.0172478
900.229	0.0172320
900.308	0.0174068
900.386	0.0177779
900.464	0.0177908
900.542	0.0179008
900.620	0.0181707
900.698	0.0183109
900.776	0.0182315
900.854	0.0183674
900.933	0.0184528
901.011	0.0183846
901.089	0.0186426
901.167	0.0184884
901.245	0.0185356
901.323	0.0184443
901.401	0.0183405
901.479	0.0183044
901.558	0.0182120
901.636	0.0180834
901.714	0.0180466
901.792	0.0179884
901.870	0.0179056
901.948	0.0177339
902.026	0.0174130
902.104	0.0173779
902.183	0.0172755
902.261	0.0173955
902.339	0.0170789
902.417	0.0171583
902.495	0.0172774
902.573	0.0172054
902.651	0.0170880
902.729	0.0173072
902.808	0.0172970
902.886	0.0172437
902.964	0.0171473
903.042	0.0172115
903.120	0.0172373
903.198	0.0171751
903.276	0.0171524
903.354	0.0171892
903.433	0.0173219
903.511	0.0173611
903.589	0.0173758
903.667	0.0173378
903.745	0.0174243
903.823	0.0176096
903.901	0.0176644
903.979	0.0177811
904.058	0.0178709
904.136	0.0179639
904.214	0.0181589
904.292	0.0181936
904.370	0.0182186
904.448	0.0183340
904.526	0.0183578
904.604	0.0184104
904.683	0.0183018
904.761	0.0181990
904.839	0.0180939
904.917	0.0179874
904.995	0.0179658
905.073	0.0178210
905.151	0.0178372
905.229	0.0177464
905.308	0.0176311
905.386	0.0175508
905.464	0.0174767
905.542	0.0174951
905.620	0.0175147
905.698	0.0176178
905.776	0.0174473
905.854	0.0176173
905.933	0.0174348
906.011	0.0173695
906.089	0.0175153
906.167	0.0175007
906.245	0.0173335
906.323	0.0173470
906.401	0.0173680
906.479	0.0173531
906.558	0.0173002
906.636	0.0173392
906.714	0.0173375
906.792	0.0172006
906.870	0.0172361
906.948	0.0173324
907.026	0.0173622
907.104	0.0172714
907.183	0.0174329
907.261	0.0176012
907.339	0.0177493
907.417	0.0177858
907.495	0.0178448
907.573	0.0177255
907.651	0.0177859
907.729	0.0179205
907.808	0.0179841
907.886	0.0179918
907.964	0.0179455
908.042	0.0179431
908.120	0.0180115
908.198	0.0180468
908.276	0.0179425
908.354	0.0179361
908.433	0.0178025
908.511	0.0177496
908.589	0.0177803
908.667	0.0177615
908.745	0.0176864
908.823	0.0175748
908.901	0.0176666
908.979	0.0177457
909.058	0.0177422
909.136	0.0176311
909.214	0.0176692
909.292	0.0176756
909.370	0.0176981
909.448	0.0176839
909.526	0.0177305
909.604	0.0177103
909.683	0.0177586
909.761	0.0176894
909.839	0.0176719
909.917	0.0177261
909.995	0.0177891
910.073	0.0177026
910.151	0.0177931
910.229	0.0177552
910.308	0.0176003
910.386	0.0173674
910.464	0.0174081
910.542	0.0174242
910.620	0.0172600
910.698	0.0174210
910.776	0.0173665
910.854	0.0173965
910.933	0.0175680
911.011	0.0174256
911.089	0.0174168
911.167	0.0174993
911.245	0.0176402
911.323	0.0176223
911.401	0.0177185
911.479	0.0177633
911.558	0.0176614
911.636	0.0177090
911.714	0.0176526
911.792	0.0178107
911.870	0.0177933
911.948	0.0177896
912.026	0.0176933
912.104	0.0177634
912.183	0.0177735
912.261	0.0178375
912.339	0.0178916
912.417	0.0177148
912.495	0.0177814
912.573	0.0178221
912.651	0.0177399
912.729	0.0179011
912.808	0.0178709
912.886	0.0178131
912.964	0.0177692
913.042	0.0177606
913.120	0.0177641
913.198	0.0178109
913.276	0.0178229
913.354	0.0176949
913.433	0.0174810
913.511	0.0176121
913.589	0.0175238
913.667	0.0175948
913.745	0.0174152
913.823	0.0174020
913.901	0.0173877
913.979	0.0174236
914.058	0.0174583
914.136	0.0174231
914.214	0.0175500
914.292	0.0174963
914.370	0.0175613
914.448	0.0175790
914.526	0.0176505
914.604	0.0175568
914.683	0.0175954
914.761	0.0177295
914.839	0.0176345
914.917	0.0176685
914.995	0.0176862
915.073	0.0176882
915.151	0.0176995
915.229	0.0175255
915.308	0.0176581
915.386	0.0175551
915.464	0.0176190
915.542	0.0176468
915.620	0.0176245
915.698	0.0176453
915.776	0.0177129
915.854	0.0175736
915.933	0.0176399
916.011	0.0177445
916.089	0.0179077
916.167	0.0178515
916.245	0.0178358
916.323	0.0176579
916.401	0.0176292
916.479	0.0177724
916.558	0.0178256
916.636	0.0178847
916.714	0.0178679
916.792	0.0177232
916.870	0.0176437
916.948	0.0176183
917.026	0.0178811
917.104	0.0177180
917.183	0.0178074
917.261	0.0178573
917.339	0.0177354
917.417	0.0177057
917.495	0.0177403
917.573	0.0177847
917.651	0.0177586
917.729	0.0177570
917.808	0.0177329
917.886	0.0176521
917.964	0.0177872
918.042	0.0178242
918.120	0.0178938
918.198	0.0177483
918.276	0.0176955
918.354	0.0177177
918.433	0.0177731
918.511	0.0177068
918.589	0.0177090
918.667	0.0175610
918.745	0.0176240
918.823	0.0174732
918.901	0.0175597
918.979	0.0175475
919.058	0.0175396
919.136	0.0173697
919.214	0.0174899
919.292	0.0174918
919.370	0.0176927
919.448	0.0175824
919.526	0.0176226
919.604	0.0174937
919.683	0.0175755
919.761	0.0176496
919.839	0.0176318
919.917	0.0177447
