06/03/2022	18:13:03	Ver.	4.1	UNKNOWN
Optical Delay	599.995081	Delta X		0.078125	Sweeps	1	Scan Rate	0/0
Coordinates	Axis 1	NaN	Axis 2	NaN	Axis 3	NaN	Axis 4	NaN	Axis 5	NaN	Axis 6	0.000000
TX Power	0.000000	RX Power	0.000000

599.995	0.0173373
600.073	0.0173705
600.151	0.0172831
600.229	0.0172512
600.308	0.0172868
600.386	0.0173844
600.464	0.0173631
600.542	0.0172775
600.620	0.0174321
600.698	0.0172923
600.776	0.0172474
600.854	0.0174392
600.933	0.0173750
601.011	0.0172876
601.089	0.0172622
601.167	0.0173441
601.245	0.0173431
601.323	0.0173663
601.401	0.0172782
601.479	0.0173144
601.558	0.0173013
601.636	0.0173774
601.714	0.0172998
601.792	0.0171503
601.870	0.0173396
601.948	0.0173222
602.026	0.0172985
602.104	0.0173151
602.183	0.0174210
602.261	0.0172926
602.339	0.0173045
602.417	0.0173801
602.495	0.0172713
602.573	0.0174044
602.651	0.0172865
602.729	0.0174419
602.808	0.0172285
602.886	0.0172908
602.964	0.0173067
603.042	0.0173089
603.120	0.0171863
603.198	0.0172380
603.276	0.0172927
603.354	0.0172799
603.433	0.0173399
603.511	0.0174734
603.589	0.0173026
603.667	0.0173707
603.745	0.0174694
603.823	0.0172859
603.901	0.0172757
603.979	0.0173495
604.058	0.0172239
604.136	0.0172796
604.214	0.0172238
604.292	0.0173225
604.370	0.0174352
604.448	0.0172670
604.526	0.0173567
604.604	0.0172973
604.683	0.0171605
604.761	0.0173351
604.839	0.0174231
604.917	0.0173883
604.995	0.0173208
605.073	0.0172925
605.151	0.0171976
605.229	0.0173253
605.308	0.0172659
605.386	0.0172309
605.464	0.0172253
605.542	0.0172890
605.620	0.0173761
605.698	0.0174863
605.776	0.0174788
605.854	0.0174249
605.933	0.0173800
606.011	0.0174371
606.089	0.0172490
606.167	0.0173472
606.245	0.0173035
606.323	0.0172453
606.401	0.0173066
606.479	0.0173165
606.558	0.0173997
606.636	0.0171741
606.714	0.0172174
606.792	0.0173522
606.870	0.0174696
606.948	0.0173654
607.026	0.0172961
607.104	0.0171812
607.183	0.0172983
607.261	0.0172436
607.339	0.0173807
607.417	0.0173479
607.495	0.0172581
607.573	0.0173282
607.651	0.0173433
607.729	0.0173281
607.808	0.0173864
607.886	0.0173132
607.964	0.0172812
608.042	0.0172877
608.120	0.0174056
608.198	0.0173393
608.276	0.0172369
608.354	0.0172492
608.433	0.0172678
608.511	0.0172818
608.589	0.0173212
608.667	0.0173768
608.745	0.0172346
608.823	0.0173351
608.901	0.0172424
608.979	0.0173255
609.058	0.0173453
609.136	0.0173978
609.214	0.0173693
609.292	0.0173404
609.370	0.0171695
609.448	0.0172440
609.526	0.0172533
609.604	0.0174151
609.683	0.0173952
609.761	0.0172879
609.839	0.0172290
609.917	0.0173666
609.995	0.0172573
610.073	0.0173396
610.151	0.0173759
610.229	0.0173857
610.308	0.0174722
610.386	0.0173306
610.464	0.0173061
610.542	0.0173710
610.620	0.0173077
610.698	0.0173560
610.776	0.0174249
610.854	0.0172179
610.933	0.0173035
611.011	0.0173630
611.089	0.0173730
611.167	0.0172772
611.245	0.0171714
611.323	0.0172756
611.401	0.0172538
611.479	0.0173540
611.558	0.0173971
611.636	0.0172645
611.714	0.0174410
611.792	0.0173519
611.870	0.0173494
611.948	0.0172937
612.026	0.0172135
612.104	0.0174262
612.183	0.0171733
612.261	0.0173856
612.339	0.0174301
612.417	0.0174493
612.495	0.0171902
612.573	0.0171347
612.651	0.0173318
612.729	0.0172972
612.808	0.0172878
612.886	0.0174122
612.964	0.0174815
613.042	0.0172246
613.120	0.0173847
613.198	0.0173286
613.276	0.0172300
613.354	0.0173375
613.433	0.0172182
613.511	0.0172717
613.589	0.0173048
613.667	0.0172747
613.745	0.0173128
613.823	0.0172909
613.901	0.0173104
613.979	0.0173612
614.058	0.0173216
614.136	0.0173328
614.214	0.0173459
614.292	0.0173605
614.370	0.0174224
614.448	0.0173735
614.526	0.0174142
614.604	0.0172631
614.683	0.0172489
614.761	0.0173927
614.839	0.0173521
614.917	0.0174957
614.995	0.0173756
615.073	0.0174821
615.151	0.0173520
615.229	0.0173053
615.308	0.0171947
615.386	0.0172693
615.464	0.0172973
615.542	0.0172666
615.620	0.0173576
615.698	0.0174483
615.776	0.0172921
615.854	0.0173237
615.933	0.0172852
616.011	0.0172196
616.089	0.0173020
616.167	0.0172768
616.245	0.0173903
616.323	0.0171277
616.401	0.0173628
616.479	0.0172993
616.558	0.0172604
616.636	0.0172927
616.714	0.0173769
616.792	0.0173373
616.870	0.0172240
616.948	0.0173969
617.026	0.0173166
617.104	0.0173188
617.183	0.0173244
617.261	0.0173042
617.339	0.0173481
617.417	0.0173547
617.495	0.0174034
617.573	0.0174036
617.651	0.0174712
617.729	0.0174324
617.808	0.0173124
617.886	0.0174971
617.964	0.0174846
618.042	0.0172565
618.120	0.0172441
618.198	0.0172663
618.276	0.0173516
618.354	0.0173804
618.433	0.0174004
618.511	0.0173514
618.589	0.0173091
618.667	0.0174415
618.745	0.0174111
618.823	0.0173840
618.901	0.0172676
618.979	0.0174470
619.058	0.0172475
619.136	0.0173378
619.214	0.0173384
619.292	0.0171909
619.370	0.0174202
619.448	0.0173888
619.526	0.0173283
619.604	0.0171469
619.683	0.0173280
619.761	0.0174524
619.839	0.0173491
619.917	0.0173929
619.995	0.0173013
620.073	0.0172922
620.151	0.0172791
620.229	0.0172618
620.308	0.0174349
620.386	0.0173074
620.464	0.0173569
620.542	0.0173927
620.620	0.0172837
620.698	0.0173338
620.776	0.0173479
620.854	0.0172809
620.933	0.0172300
621.011	0.0173765
621.089	0.0173445
621.167	0.0172792
621.245	0.0172671
621.323	0.0173299
621.401	0.0174015
621.479	0.0173429
621.558	0.0174001
621.636	0.0173794
621.714	0.0174097
621.792	0.0175449
621.870	0.0173868
621.948	0.0174214
622.026	0.0172936
622.104	0.0173927
622.183	0.0172678
622.261	0.0173793
622.339	0.0174844
622.417	0.0173931
622.495	0.0173114
622.573	0.0171869
622.651	0.0174190
622.729	0.0174688
622.808	0.0172295
622.886	0.0172897
622.964	0.0174190
623.042	0.0173514
623.120	0.0173491
623.198	0.0173779
623.276	0.0173314
623.354	0.0173502
623.433	0.0172810
623.511	0.0172570
623.589	0.0172303
623.667	0.0173615
623.745	0.0174330
623.823	0.0173183
623.901	0.0172670
623.979	0.0173818
624.058	0.0173211
624.136	0.0173945
624.214	0.0173207
624.292	0.0173284
624.370	0.0173807
624.448	0.0173522
624.526	0.0174811
624.604	0.0172672
624.683	0.0172748
624.761	0.0171325
624.839	0.0174091
624.917	0.0173325
624.995	0.0173324
625.073	0.0172771
625.151	0.0173679
625.229	0.0173547
625.308	0.0172811
625.386	0.0174268
625.464	0.0173719
625.542	0.0173642
625.620	0.0174379
625.698	0.0174158
625.776	0.0173687
625.854	0.0173936
625.933	0.0173292
626.011	0.0171899
626.089	0.0172881
626.167	0.0174442
626.245	0.0172919
626.323	0.0171886
626.401	0.0172902
626.479	0.0173488
626.558	0.0171941
626.636	0.0174560
626.714	0.0174185
626.792	0.0172285
626.870	0.0172949
626.948	0.0173310
627.026	0.0172078
627.104	0.0172306
627.183	0.0173885
627.261	0.0173167
627.339	0.0172408
627.417	0.0173174
627.495	0.0172071
627.573	0.0172527
627.651	0.0173668
627.729	0.0171497
627.808	0.0172862
627.886	0.0173433
627.964	0.0171569
628.042	0.0173894
628.120	0.0174017
628.198	0.0173448
628.276	0.0174481
628.354	0.0173754
628.433	0.0173435
628.511	0.0172150
628.589	0.0173764
628.667	0.0173616
628.745	0.0174618
628.823	0.0173208
628.901	0.0173939
628.979	0.0172667
629.058	0.0173660
629.136	0.0174066
629.214	0.0173661
629.292	0.0173059
629.370	0.0173170
629.448	0.0173031
629.526	0.0172871
629.604	0.0172343
629.683	0.0172531
629.761	0.0173344
629.839	0.0172548
629.917	0.0173530
629.995	0.0173022
630.073	0.0171285
630.151	0.0173986
630.229	0.0173547
630.308	0.0173057
630.386	0.0173638
630.464	0.0174317
630.542	0.0172447
630.620	0.0172087
630.698	0.0173588
630.776	0.0173089
630.854	0.0172803
630.933	0.0172620
631.011	0.0173058
631.089	0.0172608
631.167	0.0174088
631.245	0.0174149
631.323	0.0172811
631.401	0.0173486
631.479	0.0173446
631.558	0.0172966
631.636	0.0173141
631.714	0.0173260
631.792	0.0172571
631.870	0.0173138
631.948	0.0173606
632.026	0.0173006
632.104	0.0172588
632.183	0.0173277
632.261	0.0174031
632.339	0.0173632
632.417	0.0174032
632.495	0.0173865
632.573	0.0172728
632.651	0.0173457
632.729	0.0172598
632.808	0.0173841
632.886	0.0172700
632.964	0.0172707
633.042	0.0172464
633.120	0.0174273
633.198	0.0174384
633.276	0.0172379
633.354	0.0173029
633.433	0.0173846
633.511	0.0172239
633.589	0.0172213
633.667	0.0174222
633.745	0.0173686
633.823	0.0173260
633.901	0.0172626
633.979	0.0173606
634.058	0.0173930
634.136	0.0174088
634.214	0.0174366
634.292	0.0174667
634.370	0.0173812
634.448	0.0172771
634.526	0.0174283
634.604	0.0173097
634.683	0.0174214
634.761	0.0174577
634.839	0.0173225
634.917	0.0172957
634.995	0.0173995
635.073	0.0172463
635.151	0.0174004
635.229	0.0171213
635.308	0.0172961
635.386	0.0175378
635.464	0.0175793
635.542	0.0172659
635.620	0.0174004
635.698	0.0173491
635.776	0.0172918
635.854	0.0173373
635.933	0.0173988
636.011	0.0173421
636.089	0.0172883
636.167	0.0174123
636.245	0.0173842
636.323	0.0173218
636.401	0.0172691
636.479	0.0173790
636.558	0.0173431
636.636	0.0174099
636.714	0.0172540
636.792	0.0173470
636.870	0.0173104
636.948	0.0173610
637.026	0.0172792
637.104	0.0173173
637.183	0.0172522
637.261	0.0171776
637.339	0.0172511
637.417	0.0173181
637.495	0.0173374
637.573	0.0172572
637.651	0.0172585
637.729	0.0172950
637.808	0.0173663
637.886	0.0173757
637.964	0.0172281
638.042	0.0172900
638.120	0.0175318
638.198	0.0173278
638.276	0.0172984
638.354	0.0173620
638.433	0.0174025
638.511	0.0173789
638.589	0.0173652
638.667	0.0173092
638.745	0.0172864
638.823	0.0174297
638.901	0.0174158
638.979	0.0172918
639.058	0.0173225
639.136	0.0172911
639.214	0.0174789
639.292	0.0173763
639.370	0.0173856
639.448	0.0174229
639.526	0.0174445
639.604	0.0173425
639.683	0.0173544
639.761	0.0173994
639.839	0.0172831
639.917	0.0173012
639.995	0.0173506
640.073	0.0172768
640.151	0.0174584
640.229	0.0174459
640.308	0.0173630
640.386	0.0173478
640.464	0.0173399
640.542	0.0172972
640.620	0.0172057
640.698	0.0173156
640.776	0.0173238
640.854	0.0173288
640.933	0.0173151
641.011	0.0173374
641.089	0.0172645
641.167	0.0172096
641.245	0.0172090
641.323	0.0171734
641.401	0.0173392
641.479	0.0173290
641.558	0.0174313
641.636	0.0172694
641.714	0.0171910
641.792	0.0173674
641.870	0.0173515
641.948	0.0172039
642.026	0.0172186
642.104	0.0172979
642.183	0.0172237
642.261	0.0172168
642.339	0.0174257
642.417	0.0172952
642.495	0.0174402
642.573	0.0173353
642.651	0.0173743
642.729	0.0172346
642.808	0.0174491
642.886	0.0174594
642.964	0.0173115
643.042	0.0173474
643.120	0.0172949
643.198	0.0171989
643.276	0.0172213
643.354	0.0172610
643.433	0.0173864
643.511	0.0173673
643.589	0.0174028
643.667	0.0174001
643.745	0.0172546
643.823	0.0172706
643.901	0.0173411
643.979	0.0173959
644.058	0.0173850
644.136	0.0172823
644.214	0.0172592
644.292	0.0174160
644.370	0.0173308
644.448	0.0172992
644.526	0.0173287
644.604	0.0172379
644.683	0.0172996
644.761	0.0174854
644.839	0.0175031
644.917	0.0172492
644.995	0.0174065
645.073	0.0173802
645.151	0.0171792
645.229	0.0173590
645.308	0.0172942
645.386	0.0173406
645.464	0.0172910
645.542	0.0173453
645.620	0.0173788
645.698	0.0173448
645.776	0.0173153
645.854	0.0173180
645.933	0.0173207
646.011	0.0173058
646.089	0.0174864
646.167	0.0174744
646.245	0.0172987
646.323	0.0173740
646.401	0.0173510
646.479	0.0172841
646.558	0.0173574
646.636	0.0172044
646.714	0.0172834
646.792	0.0173509
646.870	0.0172959
646.948	0.0173327
647.026	0.0174040
647.104	0.0173801
647.183	0.0173689
647.261	0.0174100
647.339	0.0173139
647.417	0.0174058
647.495	0.0174001
647.573	0.0172594
647.651	0.0172523
647.729	0.0173549
647.808	0.0173307
647.886	0.0172995
647.964	0.0172783
648.042	0.0173810
648.120	0.0174107
648.198	0.0173978
648.276	0.0173963
648.354	0.0173341
648.433	0.0171871
648.511	0.0173263
648.589	0.0173695
648.667	0.0172438
648.745	0.0172946
648.823	0.0173334
648.901	0.0174207
648.979	0.0172829
649.058	0.0172495
649.136	0.0172916
649.214	0.0173858
649.292	0.0174200
649.370	0.0174069
649.448	0.0173116
649.526	0.0173531
649.604	0.0174319
649.683	0.0173862
649.761	0.0172370
649.839	0.0174595
649.917	0.0173129
649.995	0.0173573
650.073	0.0174012
650.151	0.0172242
650.229	0.0173788
650.308	0.0174280
650.386	0.0174183
650.464	0.0174833
650.542	0.0173380
650.620	0.0171619
650.698	0.0173594
650.776	0.0173607
650.854	0.0173186
650.933	0.0172327
651.011	0.0173552
651.089	0.0174042
651.167	0.0173724
651.245	0.0172757
651.323	0.0172513
651.401	0.0173406
651.479	0.0174342
651.558	0.0174777
651.636	0.0171359
651.714	0.0173284
651.792	0.0172998
651.870	0.0172406
651.948	0.0173759
652.026	0.0174393
652.104	0.0173321
652.183	0.0173698
652.261	0.0172742
652.339	0.0173957
652.417	0.0173545
652.495	0.0174445
652.573	0.0173203
652.651	0.0173958
652.729	0.0173447
652.808	0.0173177
652.886	0.0173096
652.964	0.0173192
653.042	0.0172880
653.120	0.0172758
653.198	0.0174122
653.276	0.0174150
653.354	0.0173957
653.433	0.0174116
653.511	0.0173485
653.589	0.0173113
653.667	0.0172655
653.745	0.0172817
653.823	0.0174474
653.901	0.0172762
653.979	0.0171825
654.058	0.0171903
654.136	0.0172933
654.214	0.0173648
654.292	0.0174256
654.370	0.0173218
654.448	0.0172752
654.526	0.0172189
654.604	0.0174236
654.683	0.0173007
654.761	0.0173935
654.839	0.0173031
654.917	0.0173914
654.995	0.0173682
655.073	0.0173161
655.151	0.0173150
655.229	0.0173595
655.308	0.0172236
655.386	0.0173690
655.464	0.0173985
655.542	0.0172995
655.620	0.0173428
655.698	0.0174664
655.776	0.0173181
655.854	0.0173116
655.933	0.0173736
656.011	0.0173547
656.089	0.0172621
656.167	0.0173627
656.245	0.0173271
656.323	0.0172277
656.401	0.0174677
656.479	0.0173492
656.558	0.0175674
656.636	0.0174017
656.714	0.0172964
656.792	0.0173157
656.870	0.0174342
656.948	0.0173096
657.026	0.0173389
657.104	0.0174706
657.183	0.0173861
657.261	0.0173642
657.339	0.0173721
657.417	0.0172889
657.495	0.0174216
657.573	0.0173804
657.651	0.0174059
657.729	0.0172938
657.808	0.0173465
657.886	0.0173116
657.964	0.0172976
658.042	0.0172723
658.120	0.0172781
658.198	0.0173080
658.276	0.0172998
658.354	0.0174222
658.433	0.0175832
658.511	0.0174080
658.589	0.0173488
658.667	0.0174140
658.745	0.0173713
658.823	0.0173697
658.901	0.0173334
658.979	0.0173746
659.058	0.0173914
659.136	0.0172829
659.214	0.0173286
659.292	0.0173714
659.370	0.0173914
659.448	0.0174036
659.526	0.0173895
659.604	0.0173427
659.683	0.0173801
659.761	0.0173355
659.839	0.0173415
659.917	0.0173104
659.995	0.0173777
660.073	0.0173190
660.151	0.0173664
660.229	0.0174124
660.308	0.0174625
660.386	0.0172369
660.464	0.0172578
660.542	0.0173332
660.620	0.0174549
660.698	0.0173851
660.776	0.0174017
660.854	0.0173519
660.933	0.0172974
661.011	0.0175150
661.089	0.0173984
661.167	0.0172588
661.245	0.0173814
661.323	0.0173315
661.401	0.0173108
661.479	0.0172945
661.558	0.0173788
661.636	0.0174054
661.714	0.0173161
661.792	0.0172920
661.870	0.0172827
661.948	0.0173023
662.026	0.0173960
662.104	0.0173406
662.183	0.0173824
662.261	0.0173466
662.339	0.0172813
662.417	0.0172022
662.495	0.0174021
662.573	0.0172764
662.651	0.0172684
662.729	0.0172864
662.808	0.0173537
662.886	0.0173820
662.964	0.0172588
663.042	0.0174519
663.120	0.0173667
663.198	0.0173728
663.276	0.0172829
663.354	0.0173412
663.433	0.0174380
663.511	0.0173489
663.589	0.0173486
663.667	0.0172621
663.745	0.0173763
663.823	0.0174723
663.901	0.0171311
663.979	0.0173453
664.058	0.0174673
664.136	0.0172625
664.214	0.0171790
664.292	0.0171522
664.370	0.0172081
664.448	0.0173485
664.526	0.0173289
664.604	0.0172771
664.683	0.0173089
664.761	0.0172523
664.839	0.0174072
664.917	0.0172506
664.995	0.0173553
665.073	0.0172337
665.151	0.0172753
665.229	0.0173559
665.308	0.0172666
665.386	0.0173186
665.464	0.0173918
665.542	0.0173837
665.620	0.0174454
665.698	0.0173744
665.776	0.0173045
665.854	0.0173434
665.933	0.0171561
666.011	0.0173579
666.089	0.0174094
666.167	0.0173566
666.245	0.0174252
666.323	0.0173215
666.401	0.0172929
666.479	0.0173757
666.558	0.0173378
666.636	0.0171848
666.714	0.0172327
666.792	0.0173586
666.870	0.0174243
666.948	0.0173006
667.026	0.0174275
667.104	0.0172562
667.183	0.0172594
667.261	0.0173127
667.339	0.0173793
667.417	0.0174145
667.495	0.0172582
667.573	0.0172904
667.651	0.0174020
667.729	0.0174128
667.808	0.0173509
667.886	0.0172787
667.964	0.0173737
668.042	0.0172684
668.120	0.0170947
668.198	0.0173269
668.276	0.0174573
668.354	0.0173758
668.433	0.0173415
668.511	0.0172859
668.589	0.0173018
668.667	0.0173327
668.745	0.0173462
668.823	0.0174890
668.901	0.0173501
668.979	0.0172211
669.058	0.0174036
669.136	0.0173309
669.214	0.0172298
669.292	0.0173621
669.370	0.0173484
669.448	0.0173423
669.526	0.0172798
669.604	0.0174121
669.683	0.0174505
669.761	0.0175250
669.839	0.0173637
669.917	0.0173811
669.995	0.0173985
670.073	0.0173026
670.151	0.0174394
670.229	0.0172914
670.308	0.0171785
670.386	0.0174480
670.464	0.0173557
670.542	0.0173753
670.620	0.0175303
670.698	0.0173262
670.776	0.0174054
670.854	0.0173222
670.933	0.0173133
671.011	0.0172729
671.089	0.0173737
671.167	0.0174399
671.245	0.0174151
671.323	0.0174011
671.401	0.0174351
671.479	0.0172404
671.558	0.0174300
671.636	0.0174110
671.714	0.0174260
671.792	0.0174841
671.870	0.0173382
671.948	0.0174438
672.026	0.0173586
672.104	0.0173723
672.183	0.0173993
672.261	0.0172924
672.339	0.0173368
672.417	0.0173425
672.495	0.0173987
672.573	0.0173926
672.651	0.0173354
672.729	0.0172614
672.808	0.0174220
672.886	0.0172688
672.964	0.0173582
673.042	0.0172942
673.120	0.0173281
673.198	0.0174050
673.276	0.0173685
673.354	0.0171695
673.433	0.0174209
673.511	0.0173962
673.589	0.0174050
673.667	0.0173641
673.745	0.0173215
673.823	0.0172369
673.901	0.0173524
673.979	0.0173552
674.058	0.0174041
674.136	0.0174313
674.214	0.0174252
674.292	0.0173575
674.370	0.0173066
674.448	0.0174361
674.526	0.0173004
674.604	0.0173698
674.683	0.0174916
674.761	0.0174345
674.839	0.0174134
674.917	0.0172924
674.995	0.0172590
675.073	0.0172577
675.151	0.0174226
675.229	0.0173226
675.308	0.0173711
675.386	0.0173001
675.464	0.0173647
675.542	0.0173365
675.620	0.0172430
675.698	0.0173825
675.776	0.0174037
675.854	0.0173455
675.933	0.0173265
676.011	0.0173915
676.089	0.0174246
676.167	0.0174280
676.245	0.0172474
676.323	0.0172932
676.401	0.0172725
676.479	0.0175159
676.558	0.0172118
676.636	0.0174117
676.714	0.0173885
676.792	0.0173485
676.870	0.0173265
676.948	0.0172462
677.026	0.0171910
677.104	0.0173028
677.183	0.0173859
677.261	0.0173310
677.339	0.0172765
677.417	0.0174006
677.495	0.0175615
677.573	0.0174355
677.651	0.0173991
677.729	0.0174365
677.808	0.0173122
677.886	0.0172829
677.964	0.0172831
678.042	0.0172933
678.120	0.0174015
678.198	0.0173383
678.276	0.0173413
678.354	0.0173824
678.433	0.0172241
678.511	0.0173293
678.589	0.0171640
678.667	0.0173459
678.745	0.0172474
678.823	0.0173404
678.901	0.0173790
678.979	0.0173837
679.058	0.0171430
679.136	0.0172073
679.214	0.0174339
679.292	0.0173174
679.370	0.0174124
679.448	0.0174078
679.526	0.0174488
679.604	0.0172372
679.683	0.0172956
679.761	0.0173481
679.839	0.0174319
679.917	0.0173486
679.995	0.0172367
680.073	0.0172831
680.151	0.0173673
680.229	0.0172337
680.308	0.0173805
680.386	0.0173061
680.464	0.0172686
680.542	0.0173131
680.620	0.0172973
680.698	0.0173286
680.776	0.0173503
680.854	0.0172094
680.933	0.0173071
681.011	0.0172163
681.089	0.0174068
681.167	0.0174846
681.245	0.0172670
681.323	0.0171439
681.401	0.0173395
681.479	0.0172585
681.558	0.0174001
681.636	0.0173962
681.714	0.0173998
681.792	0.0173473
681.870	0.0173203
681.948	0.0173163
682.026	0.0172858
682.104	0.0172837
682.183	0.0172563
682.261	0.0172457
682.339	0.0173251
682.417	0.0172968
682.495	0.0173320
682.573	0.0173224
682.651	0.0172325
682.729	0.0170805
682.808	0.0173019
682.886	0.0173905
682.964	0.0173739
683.042	0.0174445
683.120	0.0173302
683.198	0.0173888
683.276	0.0173451
683.354	0.0172786
683.433	0.0174743
683.511	0.0172932
683.589	0.0171857
683.667	0.0173895
683.745	0.0173359
683.823	0.0173696
683.901	0.0172649
683.979	0.0172504
684.058	0.0173752
684.136	0.0173572
684.214	0.0172315
684.292	0.0172664
684.370	0.0173232
684.448	0.0172195
684.526	0.0173373
684.604	0.0172237
684.683	0.0174331
684.761	0.0174727
684.839	0.0172542
684.917	0.0173627
684.995	0.0173617
685.073	0.0173931
685.151	0.0172699
685.229	0.0172515
685.308	0.0172762
685.386	0.0171731
685.464	0.0172205
685.542	0.0172566
685.620	0.0171873
685.698	0.0173013
685.776	0.0173446
685.854	0.0173620
685.933	0.0172762
686.011	0.0174115
686.089	0.0173454
686.167	0.0174017
686.245	0.0174749
686.323	0.0173781
686.401	0.0173893
686.479	0.0175794
686.558	0.0176791
686.636	0.0175244
686.714	0.0173145
686.792	0.0173516
686.870	0.0172341
686.948	0.0172942
687.026	0.0171667
687.104	0.0170721
687.183	0.0169164
687.261	0.0170775
687.339	0.0172395
687.417	0.0171475
687.495	0.0171255
687.573	0.0173488
687.651	0.0174584
687.729	0.0174774
687.808	0.0175324
687.886	0.0177665
687.964	0.0177891
688.042	0.0176481
688.120	0.0176321
688.198	0.0173640
688.276	0.0174672
688.354	0.0174609
688.433	0.0173216
688.511	0.0172916
688.589	0.0173589
688.667	0.0171658
688.745	0.0169730
688.823	0.0170376
688.901	0.0169511
688.979	0.0168661
689.058	0.0167810
689.136	0.0167110
689.214	0.0170506
689.292	0.0170097
689.370	0.0169895
689.448	0.0171777
689.526	0.0173628
689.604	0.0175497
689.683	0.0176260
689.761	0.0176551
689.839	0.0177533
689.917	0.0176556
689.995	0.0175991
690.073	0.0177580
690.151	0.0175514
690.229	0.0175021
690.308	0.0172337
690.386	0.0171728
690.464	0.0170085
690.542	0.0169806
690.620	0.0168847
690.698	0.0168087
690.776	0.0168127
690.854	0.0166742
690.933	0.0168022
691.011	0.0168528
691.089	0.0167834
691.167	0.0169218
691.245	0.0170948
691.323	0.0174170
691.401	0.0175867
691.479	0.0176973
691.558	0.0178530
691.636	0.0180467
691.714	0.0181873
691.792	0.0180768
691.870	0.0180216
691.948	0.0180283
692.026	0.0177419
692.104	0.0175260
692.183	0.0175608
692.261	0.0171674
692.339	0.0169949
692.417	0.0168868
692.495	0.0166192
692.573	0.0162936
692.651	0.0162228
692.729	0.0162040
692.808	0.0162397
692.886	0.0163891
692.964	0.0165665
693.042	0.0168549
693.120	0.0167711
693.198	0.0170000
693.276	0.0172253
693.354	0.0171439
693.433	0.0173965
693.511	0.0174850
693.589	0.0174208
693.667	0.0176434
693.745	0.0176878
693.823	0.0178155
693.901	0.0179492
693.979	0.0179565
694.058	0.0181693
694.136	0.0183163
694.214	0.0182969
694.292	0.0184200
694.370	0.0182996
694.448	0.0180890
694.526	0.0180193
694.604	0.0176508
694.683	0.0174771
694.761	0.0172355
694.839	0.0170863
694.917	0.0169421
694.995	0.0170090
695.073	0.0169341
695.151	0.0168804
695.229	0.0167975
695.308	0.0167841
695.386	0.0166733
695.464	0.0167973
695.542	0.0167567
695.620	0.0167640
695.698	0.0167426
695.776	0.0167701
695.854	0.0165826
695.933	0.0165376
696.011	0.0163721
696.089	0.0163970
696.167	0.0164398
696.245	0.0164615
696.323	0.0166246
696.401	0.0166470
696.479	0.0168741
696.558	0.0169687
696.636	0.0169978
696.714	0.0173534
696.792	0.0174432
696.870	0.0176008
696.948	0.0178609
697.026	0.0178568
697.104	0.0178992
697.183	0.0181689
697.261	0.0181994
697.339	0.0184172
697.417	0.0185027
697.495	0.0185963
697.573	0.0186505
697.651	0.0187309
697.729	0.0190076
697.808	0.0190356
697.886	0.0188822
697.964	0.0190043
698.042	0.0188096
698.120	0.0186788
698.198	0.0186179
698.276	0.0184507
698.354	0.0184460
698.433	0.0182758
698.511	0.0180566
698.589	0.0178686
698.667	0.0177417
698.745	0.0174759
698.823	0.0170362
698.901	0.0168320
698.979	0.0164682
699.058	0.0159401
699.136	0.0154594
699.214	0.0149900
699.292	0.0144236
699.370	0.0139799
699.448	0.0137649
699.526	0.0133938
699.604	0.0135497
699.683	0.0136051
699.761	0.0138819
699.839	0.0141177
699.917	0.0146240
699.995	0.0151059
700.073	0.0157133
700.151	0.0161845
700.229	0.0167754
700.308	0.0173849
700.386	0.0179743
700.464	0.0186047
700.542	0.0191327
700.620	0.0196838
700.698	0.0200784
700.776	0.0204971
700.854	0.0208318
700.933	0.0209332
701.011	0.0211317
701.089	0.0210909
701.167	0.0209660
701.245	0.0206979
701.323	0.0203402
701.401	0.0200026
701.479	0.0196752
701.558	0.0193173
701.636	0.0190599
701.714	0.0189407
701.792	0.0189081
701.870	0.0186268
701.948	0.0183556
702.026	0.0183310
702.104	0.0182357
702.183	0.0179047
702.261	0.0176709
702.339	0.0175630
702.417	0.0172955
702.495	0.0169093
702.573	0.0165071
702.651	0.0163019
702.729	0.0158193
702.808	0.0156181
702.886	0.0151740
702.964	0.0149590
703.042	0.0145961
703.120	0.0144792
703.198	0.0142278
703.276	0.0140359
703.354	0.0139150
703.433	0.0137447
703.511	0.0136911
703.589	0.0135374
703.667	0.0138208
703.745	0.0139511
703.823	0.0140488
703.901	0.0141000
703.979	0.0143935
704.058	0.0146385
704.136	0.0149626
704.214	0.0154217
704.292	0.0159660
704.370	0.0166179
704.448	0.0171244
704.526	0.0178560
704.604	0.0186308
704.683	0.0191779
704.761	0.0199657
704.839	0.0204373
704.917	0.0208049
704.995	0.0210820
705.073	0.0214212
705.151	0.0218449
705.229	0.0217843
705.308	0.0217757
705.386	0.0217541
705.464	0.0215267
705.542	0.0213837
705.620	0.0208070
705.698	0.0205300
705.776	0.0200693
705.854	0.0194169
705.933	0.0188533
706.011	0.0186524
706.089	0.0181904
706.167	0.0176394
706.245	0.0174277
706.323	0.0171902
706.401	0.0168805
706.479	0.0169270
706.558	0.0169827
706.636	0.0171019
706.714	0.0170219
706.792	0.0172170
706.870	0.0172218
706.948	0.0172426
707.026	0.0172334
707.104	0.0169427
707.183	0.0167788
707.261	0.0165752
707.339	0.0163119
707.417	0.0157290
707.495	0.0152984
707.573	0.0147659
707.651	0.0144138
707.729	0.0137701
707.808	0.0134747
707.886	0.0131559
707.964	0.0129980
708.042	0.0128122
708.120	0.0128304
708.198	0.0129803
708.276	0.0132684
708.354	0.0136811
708.433	0.0139590
708.511	0.0143640
708.589	0.0146000
708.667	0.0150984
708.745	0.0155654
708.823	0.0158171
708.901	0.0159853
708.979	0.0165510
709.058	0.0167793
709.136	0.0172175
709.214	0.0178024
709.292	0.0180010
709.370	0.0187390
709.448	0.0193307
709.526	0.0199261
709.604	0.0204707
709.683	0.0210754
709.761	0.0217873
709.839	0.0221567
709.917	0.0226447
709.995	0.0229271
710.073	0.0233050
710.151	0.0231489
710.229	0.0232072
710.308	0.0230872
710.386	0.0229694
710.464	0.0228144
710.542	0.0225289
710.620	0.0221405
710.698	0.0218929
710.776	0.0214560
710.854	0.0209483
710.933	0.0203195
711.011	0.0198332
711.089	0.0192257
711.167	0.0184196
711.245	0.0176624
711.323	0.0167922
711.401	0.0159568
711.479	0.0150344
711.558	0.0142861
711.636	0.0135961
711.714	0.0127824
711.792	0.0118565
711.870	0.0111703
711.948	0.0106775
712.026	0.0102905
712.104	0.00971786
712.183	0.00948151
712.261	0.00955933
712.339	0.00956039
712.417	0.00978973
712.495	0.0101855
712.573	0.0107807
712.651	0.0114446
712.729	0.0121849
712.808	0.0130400
712.886	0.0139114
712.964	0.0150079
713.042	0.0159008
713.120	0.0166738
713.198	0.0174176
713.276	0.0182603
713.354	0.0189487
713.433	0.0194795
713.511	0.0199769
713.589	0.0204939
713.667	0.0212831
713.745	0.0214761
713.823	0.0218484
713.901	0.0223979
713.979	0.0225336
714.058	0.0229858
714.136	0.0232795
714.214	0.0234099
714.292	0.0236826
714.370	0.0237852
714.448	0.0236478
714.526	0.0232887
714.604	0.0231862
714.683	0.0228587
714.761	0.0223698
714.839	0.0218699
714.917	0.0212522
714.995	0.0206016
715.073	0.0199016
715.151	0.0192620
715.229	0.0185080
715.308	0.0177108
715.386	0.0168346
715.464	0.0161964
715.542	0.0154505
715.620	0.0146958
715.698	0.0138451
715.776	0.0131930
715.854	0.0125822
715.933	0.0120499
716.011	0.0116028
716.089	0.0111596
716.167	0.0109082
716.245	0.0108162
716.323	0.0107275
716.401	0.0111773
716.479	0.0112969
716.558	0.0116770
716.636	0.0122388
716.714	0.0128756
716.792	0.0134226
716.870	0.0142623
716.948	0.0151031
717.026	0.0158309
717.104	0.0165608
717.183	0.0171443
717.261	0.0178953
717.339	0.0182229
717.417	0.0186266
717.495	0.0190505
717.573	0.0193254
717.651	0.0193647
717.729	0.0197092
717.808	0.0198509
717.886	0.0200053
717.964	0.0200918
718.042	0.0202762
718.120	0.0204252
718.198	0.0204110
718.276	0.0205733
718.354	0.0206340
718.433	0.0208833
718.511	0.0208279
718.589	0.0211104
718.667	0.0211953
718.745	0.0211134
718.823	0.0212055
718.901	0.0211642
718.979	0.0208418
719.058	0.0205559
719.136	0.0202088
719.214	0.0196780
719.292	0.0191521
719.370	0.0184728
719.448	0.0178244
719.526	0.0171149
719.604	0.0165788
719.683	0.0160320
719.761	0.0155934
719.839	0.0149267
719.917	0.0143925
719.995	0.0139055
720.073	0.0133443
720.151	0.0129764
720.229	0.0128735
720.308	0.0126908
720.386	0.0125323
720.464	0.0127009
720.542	0.0130279
720.620	0.0133248
720.698	0.0136650
720.776	0.0141718
720.854	0.0146687
720.933	0.0154655
721.011	0.0159739
721.089	0.0167267
721.167	0.0170748
721.245	0.0174655
721.323	0.0178717
721.401	0.0180203
721.479	0.0181449
721.558	0.0181911
721.636	0.0182275
721.714	0.0182986
721.792	0.0182842
721.870	0.0182255
721.948	0.0184327
722.026	0.0185070
722.104	0.0186623
722.183	0.0187808
722.261	0.0189089
722.339	0.0191562
722.417	0.0193506
722.495	0.0195906
722.573	0.0198246
722.651	0.0197379
722.729	0.0199403
722.808	0.0200249
722.886	0.0200365
722.964	0.0200981
723.042	0.0200194
723.120	0.0197262
723.198	0.0195055
723.276	0.0193082
723.354	0.0188715
723.433	0.0183992
723.511	0.0180626
723.589	0.0177299
723.667	0.0172550
723.745	0.0169707
723.823	0.0165678
723.901	0.0161497
723.979	0.0158299
724.058	0.0155404
724.136	0.0153348
724.214	0.0150856
724.292	0.0150093
724.370	0.0150368
724.448	0.0148442
724.526	0.0150344
724.604	0.0151649
724.683	0.0152554
724.761	0.0152563
724.839	0.0154768
724.917	0.0157393
724.995	0.0160442
725.073	0.0163133
725.151	0.0164325
725.229	0.0168611
725.308	0.0169949
725.386	0.0171571
725.464	0.0173569
725.542	0.0174001
725.620	0.0172962
725.698	0.0171656
725.776	0.0172205
725.854	0.0172099
725.933	0.0171094
726.011	0.0171021
726.089	0.0169186
726.167	0.0169884
726.245	0.0171819
726.323	0.0172622
726.401	0.0173827
726.479	0.0176737
726.558	0.0178770
726.636	0.0182763
726.714	0.0183064
726.792	0.0185849
726.870	0.0189046
726.948	0.0190405
727.026	0.0189767
727.104	0.0189531
727.183	0.0191551
727.261	0.0190794
727.339	0.0190450
727.417	0.0190155
727.495	0.0189637
727.573	0.0187984
727.651	0.0187461
727.729	0.0185133
727.808	0.0183098
727.886	0.0182693
727.964	0.0178628
728.042	0.0175569
728.120	0.0174367
728.198	0.0172781
728.276	0.0169835
728.354	0.0168147
728.433	0.0167228
728.511	0.0165352
728.589	0.0164096
728.667	0.0164868
728.745	0.0164669
728.823	0.0164912
728.901	0.0163669
728.979	0.0164182
729.058	0.0165211
729.136	0.0165687
729.214	0.0167452
729.292	0.0167202
729.370	0.0167745
729.448	0.0167933
729.526	0.0168250
729.604	0.0167837
729.683	0.0168639
729.761	0.0168617
729.839	0.0167128
729.917	0.0165775
729.995	0.0165996
730.073	0.0164400
730.151	0.0166302
730.229	0.0166849
730.308	0.0166313
730.386	0.0166225
730.464	0.0166209
730.542	0.0167546
730.620	0.0168723
730.698	0.0167935
730.776	0.0170246
730.854	0.0171484
730.933	0.0174242
731.011	0.0175777
731.089	0.0176174
731.167	0.0178940
731.245	0.0178572
731.323	0.0180549
731.401	0.0181915
731.479	0.0182055
731.558	0.0182935
731.636	0.0184500
731.714	0.0185007
731.792	0.0182730
731.870	0.0181171
731.948	0.0182399
732.026	0.0181671
732.104	0.0180579
732.183	0.0182148
732.261	0.0182431
732.339	0.0181232
732.417	0.0179015
732.495	0.0178851
732.573	0.0178496
732.651	0.0176686
732.729	0.0175406
732.808	0.0175490
732.886	0.0174510
732.964	0.0173806
733.042	0.0174503
733.120	0.0174835
733.198	0.0173668
733.276	0.0173426
733.354	0.0175777
733.433	0.0174622
733.511	0.0174579
733.589	0.0174277
733.667	0.0174774
733.745	0.0173679
733.823	0.0174558
733.901	0.0174428
733.979	0.0175032
734.058	0.0172431
734.136	0.0171644
734.214	0.0170959
734.292	0.0169130
734.370	0.0167875
734.448	0.0165564
734.526	0.0164764
734.604	0.0164040
734.683	0.0163893
734.761	0.0161790
734.839	0.0161614
734.917	0.0160341
734.995	0.0160810
735.073	0.0161817
735.151	0.0163079
735.229	0.0164381
735.308	0.0163776
735.386	0.0166836
735.464	0.0168562
735.542	0.0171568
735.620	0.0173317
735.698	0.0176749
735.776	0.0178568
735.854	0.0178506
735.933	0.0179503
736.011	0.0180397
736.089	0.0179945
736.167	0.0180808
736.245	0.0181603
736.323	0.0179065
736.401	0.0179603
736.479	0.0179477
736.558	0.0176826
736.636	0.0176868
736.714	0.0175898
736.792	0.0177283
736.870	0.0175920
736.948	0.0177551
737.026	0.0177505
737.104	0.0178316
737.183	0.0179665
737.261	0.0179729
737.339	0.0180589
737.417	0.0180659
737.495	0.0182576
737.573	0.0182018
737.651	0.0181586
737.729	0.0181116
737.808	0.0182926
737.886	0.0181321
737.964	0.0180484
738.042	0.0178816
738.120	0.0177470
738.198	0.0175440
738.276	0.0174089
738.354	0.0172784
738.433	0.0169750
738.511	0.0166792
738.589	0.0166156
738.667	0.0166091
738.745	0.0164664
738.823	0.0163975
738.901	0.0162916
738.979	0.0163194
739.058	0.0164617
739.136	0.0165125
739.214	0.0164509
739.292	0.0165936
739.370	0.0165951
739.448	0.0167715
739.526	0.0166074
739.604	0.0167965
739.683	0.0167029
739.761	0.0168841
739.839	0.0168062
739.917	0.0169237
739.995	0.0170081
740.073	0.0170500
740.151	0.0171347
740.229	0.0171247
740.308	0.0173112
740.386	0.0173656
740.464	0.0172978
740.542	0.0172619
740.620	0.0172210
740.698	0.0175583
740.776	0.0175379
740.854	0.0172408
740.933	0.0172655
741.011	0.0172334
741.089	0.0172415
741.167	0.0172424
741.245	0.0172605
741.323	0.0172536
741.401	0.0173591
741.479	0.0175095
741.558	0.0174072
741.636	0.0177053
741.714	0.0178030
741.792	0.0179313
741.870	0.0179050
741.948	0.0179267
742.026	0.0179581
742.104	0.0182521
742.183	0.0182705
742.261	0.0182701
742.339	0.0184470
742.417	0.0184814
742.495	0.0182634
742.573	0.0185266
742.651	0.0183553
742.729	0.0185298
742.808	0.0182919
742.886	0.0181106
742.964	0.0180524
743.042	0.0179348
743.120	0.0176411
743.198	0.0175053
743.276	0.0170689
743.354	0.0170380
743.433	0.0169305
743.511	0.0165901
743.589	0.0162618
743.667	0.0162248
743.745	0.0162191
743.823	0.0161198
743.901	0.0161581
743.979	0.0161141
744.058	0.0160865
744.136	0.0160561
744.214	0.0160138
744.292	0.0161938
744.370	0.0162112
744.448	0.0163891
744.526	0.0165399
744.604	0.0166611
744.683	0.0167641
744.761	0.0169177
744.839	0.0169984
744.917	0.0171568
744.995	0.0173849
745.073	0.0175632
745.151	0.0175602
745.229	0.0177478
745.308	0.0178798
745.386	0.0178239
745.464	0.0179841
745.542	0.0179382
745.620	0.0180194
745.698	0.0179823
745.776	0.0179402
745.854	0.0179181
745.933	0.0180526
746.011	0.0182164
746.089	0.0180709
746.167	0.0180316
746.245	0.0181879
746.323	0.0181961
746.401	0.0181432
746.479	0.0180246
746.558	0.0179609
746.636	0.0180141
746.714	0.0179898
746.792	0.0178114
746.870	0.0176807
746.948	0.0176546
747.026	0.0175110
747.104	0.0173808
747.183	0.0173366
747.261	0.0171850
747.339	0.0170254
747.417	0.0167825
747.495	0.0167584
747.573	0.0167983
747.651	0.0165658
747.729	0.0164235
747.808	0.0165665
747.886	0.0166728
747.964	0.0163979
748.042	0.0163372
748.120	0.0163358
748.198	0.0164496
748.276	0.0165045
748.354	0.0165708
748.433	0.0165248
748.511	0.0166534
748.589	0.0166126
748.667	0.0166314
748.745	0.0166568
748.823	0.0166960
748.901	0.0169481
748.979	0.0169169
749.058	0.0171015
749.136	0.0172299
749.214	0.0173940
749.292	0.0175893
749.370	0.0176160
749.448	0.0177482
749.526	0.0180647
749.604	0.0180652
749.683	0.0183155
749.761	0.0184200
749.839	0.0183144
749.917	0.0184122
749.995	0.0184946
750.073	0.0185880
750.151	0.0185185
750.229	0.0185132
750.308	0.0184722
750.386	0.0184229
750.464	0.0182855
750.542	0.0184212
750.620	0.0183575
750.698	0.0182161
750.776	0.0182862
750.854	0.0181510
750.933	0.0181176
751.011	0.0178587
751.089	0.0178912
751.167	0.0177023
751.245	0.0175106
751.323	0.0172472
751.401	0.0170426
751.479	0.0168891
751.558	0.0166708
751.636	0.0164140
751.714	0.0163132
751.792	0.0161343
751.870	0.0161535
751.948	0.0159603
752.026	0.0158035
752.104	0.0158353
752.183	0.0157227
752.261	0.0156570
752.339	0.0157544
752.417	0.0157040
752.495	0.0158127
752.573	0.0159152
752.651	0.0159695
752.729	0.0162273
752.808	0.0162439
752.886	0.0164961
752.964	0.0165653
753.042	0.0167729
753.120	0.0169782
753.198	0.0171590
753.276	0.0173794
753.354	0.0176014
753.433	0.0178275
753.511	0.0178316
753.589	0.0180829
753.667	0.0181917
753.745	0.0183034
753.823	0.0184868
753.901	0.0186641
753.979	0.0186346
754.058	0.0187715
754.136	0.0188139
754.214	0.0189267
754.292	0.0188585
754.370	0.0188534
754.448	0.0188267
754.526	0.0187418
754.604	0.0185893
754.683	0.0187177
754.761	0.0186583
754.839	0.0185196
754.917	0.0182222
754.995	0.0180315
755.073	0.0180291
755.151	0.0179462
755.229	0.0176923
755.308	0.0174371
755.386	0.0173550
755.464	0.0171583
755.542	0.0168104
755.620	0.0166109
755.698	0.0164538
755.776	0.0165024
755.854	0.0161972
755.933	0.0160525
756.011	0.0159779
756.089	0.0160117
756.167	0.0159763
756.245	0.0157767
756.323	0.0158241
756.401	0.0159818
756.479	0.0161215
756.558	0.0160742
756.636	0.0160612
756.714	0.0160360
756.792	0.0163284
756.870	0.0163691
756.948	0.0164491
757.026	0.0165612
757.104	0.0166243
757.183	0.0169156
757.261	0.0171955
757.339	0.0171549
757.417	0.0174082
757.495	0.0175203
757.573	0.0177321
757.651	0.0178662
757.729	0.0180659
757.808	0.0182281
757.886	0.0182841
757.964	0.0185046
758.042	0.0186159
758.120	0.0186205
758.198	0.0185623
758.276	0.0187021
758.354	0.0188676
758.433	0.0186819
758.511	0.0187280
758.589	0.0187799
758.667	0.0186338
758.745	0.0184612
758.823	0.0185642
758.901	0.0184605
758.979	0.0183643
759.058	0.0182843
759.136	0.0180145
759.214	0.0177891
759.292	0.0176479
759.370	0.0175355
759.448	0.0173593
759.526	0.0170889
759.604	0.0169333
759.683	0.0167609
759.761	0.0167283
759.839	0.0165431
759.917	0.0164574
759.995	0.0161526
760.073	0.0160851
760.151	0.0161483
760.229	0.0160545
760.308	0.0159084
760.386	0.0157962
760.464	0.0160195
760.542	0.0159998
760.620	0.0159852
760.698	0.0161108
760.776	0.0160778
760.854	0.0161680
760.933	0.0164386
761.011	0.0165029
761.089	0.0166733
761.167	0.0166225
761.245	0.0167664
761.323	0.0173057
761.401	0.0172235
761.479	0.0173260
761.558	0.0174898
761.636	0.0176409
761.714	0.0178750
761.792	0.0179371
761.870	0.0183250
761.948	0.0183590
762.026	0.0184770
762.104	0.0185018
762.183	0.0186359
762.261	0.0188716
762.339	0.0188807
762.417	0.0189138
762.495	0.0189742
762.573	0.0188949
762.651	0.0189705
762.729	0.0188844
762.808	0.0186991
762.886	0.0186536
762.964	0.0187016
763.042	0.0184077
763.120	0.0181670
763.198	0.0180447
763.276	0.0177962
763.354	0.0176747
763.433	0.0175185
763.511	0.0173453
763.589	0.0169287
763.667	0.0168174
763.745	0.0167564
763.823	0.0165791
763.901	0.0164880
763.979	0.0161097
764.058	0.0162318
764.136	0.0161845
764.214	0.0161073
764.292	0.0160197
764.370	0.0159543
764.448	0.0159824
764.526	0.0159822
764.604	0.0160382
764.683	0.0161175
764.761	0.0162188
764.839	0.0162848
764.917	0.0164400
764.995	0.0166168
765.073	0.0167784
765.151	0.0168689
765.229	0.0171373
765.308	0.0172470
765.386	0.0173913
765.464	0.0174364
765.542	0.0174725
765.620	0.0175510
765.698	0.0178377
765.776	0.0179391
765.854	0.0179746
765.933	0.0180976
766.011	0.0182511
766.089	0.0182910
766.167	0.0183034
766.245	0.0182523
766.323	0.0182563
766.401	0.0183209
766.479	0.0184017
766.558	0.0182938
766.636	0.0183218
766.714	0.0182970
766.792	0.0182801
766.870	0.0181423
766.948	0.0180714
767.026	0.0179218
767.104	0.0179384
767.183	0.0176743
767.261	0.0175954
767.339	0.0176020
767.417	0.0172813
767.495	0.0172203
767.573	0.0171450
767.651	0.0168600
767.729	0.0169159
767.808	0.0168426
767.886	0.0167114
767.964	0.0164635
768.042	0.0164524
768.120	0.0165323
768.198	0.0163328
768.276	0.0162978
768.354	0.0163174
768.433	0.0163808
768.511	0.0166474
768.589	0.0164833
768.667	0.0167010
768.745	0.0166191
768.823	0.0166444
768.901	0.0167975
768.979	0.0169206
769.058	0.0170779
769.136	0.0169723
769.214	0.0171934
769.292	0.0172676
769.370	0.0173067
769.448	0.0173452
769.526	0.0175374
769.604	0.0175962
769.683	0.0177016
769.761	0.0177303
769.839	0.0177654
769.917	0.0178228
769.995	0.0180663
770.073	0.0180380
770.151	0.0180978
770.229	0.0180939
770.308	0.0181505
770.386	0.0181430
770.464	0.0181370
770.542	0.0182224
770.620	0.0180875
770.698	0.0180709
770.776	0.0180679
770.854	0.0180869
770.933	0.0179332
771.011	0.0179582
771.089	0.0178186
771.167	0.0177704
771.245	0.0176545
771.323	0.0176407
771.401	0.0174729
771.479	0.0173951
771.558	0.0172365
771.636	0.0173064
771.714	0.0170774
771.792	0.0170922
771.870	0.0169483
771.948	0.0168675
772.026	0.0166757
772.104	0.0167551
772.183	0.0166364
772.261	0.0166522
772.339	0.0164398
772.417	0.0164304
772.495	0.0163834
772.573	0.0164342
772.651	0.0164131
772.729	0.0163573
772.808	0.0165154
772.886	0.0166525
772.964	0.0165472
773.042	0.0167788
773.120	0.0169135
773.198	0.0169144
773.276	0.0170879
773.354	0.0173368
773.433	0.0173426
773.511	0.0174941
773.589	0.0175097
773.667	0.0176229
773.745	0.0178696
773.823	0.0180230
773.901	0.0179144
773.979	0.0180025
774.058	0.0179886
774.136	0.0182487
774.214	0.0180260
774.292	0.0179426
774.370	0.0180730
774.448	0.0180150
774.526	0.0180164
774.604	0.0179781
774.683	0.0180289
774.761	0.0178836
774.839	0.0179449
774.917	0.0177737
774.995	0.0178313
775.073	0.0177009
775.151	0.0175669
775.229	0.0176399
775.308	0.0175987
775.386	0.0174287
775.464	0.0173869
775.542	0.0172470
775.620	0.0171474
775.698	0.0170840
775.776	0.0169490
775.854	0.0170238
775.933	0.0168864
776.011	0.0168485
776.089	0.0168793
776.167	0.0168237
776.245	0.0167548
776.323	0.0168337
776.401	0.0167812
776.479	0.0166101
776.558	0.0167744
776.636	0.0166494
776.714	0.0168383
776.792	0.0167921
776.870	0.0168082
776.948	0.0167374
777.026	0.0168204
777.104	0.0168610
777.183	0.0169587
777.261	0.0170016
777.339	0.0170755
777.417	0.0171131
777.495	0.0171776
777.573	0.0172665
777.651	0.0173713
777.729	0.0172678
777.808	0.0174315
777.886	0.0174259
777.964	0.0174969
778.042	0.0174789
778.120	0.0175769
778.198	0.0175696
778.276	0.0175191
778.354	0.0174335
778.433	0.0177389
778.511	0.0175608
778.589	0.0175471
778.667	0.0177145
778.745	0.0176167
778.823	0.0177431
778.901	0.0176667
778.979	0.0176612
779.058	0.0176932
779.136	0.0176475
779.214	0.0176978
779.292	0.0177245
779.370	0.0177615
779.448	0.0175818
779.526	0.0175943
779.604	0.0175500
779.683	0.0175398
779.761	0.0175157
779.839	0.0174812
779.917	0.0174554
779.995	0.0171962
780.073	0.0171522
780.151	0.0173011
780.229	0.0170977
780.308	0.0170714
780.386	0.0171169
780.464	0.0169564
780.542	0.0170144
780.620	0.0168801
780.698	0.0168172
780.776	0.0165956
780.854	0.0166785
780.933	0.0169035
781.011	0.0169683
781.089	0.0168665
781.167	0.0168608
781.245	0.0168864
781.323	0.0169796
781.401	0.0170251
781.479	0.0171602
781.558	0.0172832
781.636	0.0173273
781.714	0.0173383
781.792	0.0173915
781.870	0.0173864
781.948	0.0175423
782.026	0.0176628
782.104	0.0177068
782.183	0.0176780
782.261	0.0176022
782.339	0.0176927
782.417	0.0176027
782.495	0.0176539
782.573	0.0175855
782.651	0.0176171
782.729	0.0176346
782.808	0.0175255
782.886	0.0176035
782.964	0.0175217
783.042	0.0175365
783.120	0.0175941
783.198	0.0174358
783.276	0.0175211
783.354	0.0174063
783.433	0.0173415
783.511	0.0175124
783.589	0.0174282
783.667	0.0171901
783.745	0.0172236
783.823	0.0170860
783.901	0.0172015
783.979	0.0171259
784.058	0.0171277
784.136	0.0169941
784.214	0.0170510
784.292	0.0172074
784.370	0.0170249
784.448	0.0169998
784.526	0.0170238
784.604	0.0169603
784.683	0.0172726
784.761	0.0170554
784.839	0.0170951
784.917	0.0172004
784.995	0.0172585
785.073	0.0171663
785.151	0.0172601
785.229	0.0173353
785.308	0.0173698
785.386	0.0174863
785.464	0.0174221
785.542	0.0174677
785.620	0.0173381
785.698	0.0176014
785.776	0.0173831
785.854	0.0174320
785.933	0.0175828
786.011	0.0175830
786.089	0.0175610
786.167	0.0177175
786.245	0.0175460
786.323	0.0175259
786.401	0.0174669
786.479	0.0175436
786.558	0.0175033
786.636	0.0174074
786.714	0.0173856
786.792	0.0174004
786.870	0.0173450
786.948	0.0173563
787.026	0.0174167
787.104	0.0172523
787.183	0.0172568
787.261	0.0172915
787.339	0.0173086
787.417	0.0172743
787.495	0.0172890
787.573	0.0172121
787.651	0.0172385
787.729	0.0172243
787.808	0.0171259
787.886	0.0171974
787.964	0.0172153
788.042	0.0172185
788.120	0.0171025
788.198	0.0171931
788.276	0.0170801
788.354	0.0171989
788.433	0.0171912
788.511	0.0172016
788.589	0.0172190
788.667	0.0171992
788.745	0.0171022
788.823	0.0171239
788.901	0.0171964
788.979	0.0172920
789.058	0.0172559
789.136	0.0171530
789.214	0.0173945
789.292	0.0174330
789.370	0.0174690
789.448	0.0174506
789.526	0.0174794
789.604	0.0174585
789.683	0.0174458
789.761	0.0174976
789.839	0.0175838
789.917	0.0175945
789.995	0.0175893
790.073	0.0175658
790.151	0.0176028
790.229	0.0175220
790.308	0.0176175
790.386	0.0175667
790.464	0.0174052
790.542	0.0174845
790.620	0.0174850
790.698	0.0174866
790.776	0.0174529
790.854	0.0175007
790.933	0.0173709
791.011	0.0172667
791.089	0.0173575
791.167	0.0174616
791.245	0.0173380
791.323	0.0173117
791.401	0.0172185
791.479	0.0172791
791.558	0.0171830
791.636	0.0172455
791.714	0.0172842
791.792	0.0173845
791.870	0.0172724
791.948	0.0174901
792.026	0.0173267
792.104	0.0173468
792.183	0.0174378
792.261	0.0174225
792.339	0.0173080
792.417	0.0174592
792.495	0.0174969
792.573	0.0175105
792.651	0.0172895
792.729	0.0174136
792.808	0.0173167
792.886	0.0174830
792.964	0.0172913
793.042	0.0173084
793.120	0.0172713
793.198	0.0173539
793.276	0.0173946
793.354	0.0174100
793.433	0.0173733
793.511	0.0172405
793.589	0.0174154
793.667	0.0174329
793.745	0.0172143
793.823	0.0173425
793.901	0.0173572
793.979	0.0175439
794.058	0.0173010
794.136	0.0173913
794.214	0.0173437
794.292	0.0172415
794.370	0.0172958
794.448	0.0173103
794.526	0.0171329
794.604	0.0171464
794.683	0.0172232
794.761	0.0172407
794.839	0.0170531
794.917	0.0171732
794.995	0.0172105
795.073	0.0171100
795.151	0.0170930
795.229	0.0170138
795.308	0.0170063
795.386	0.0173131
795.464	0.0169118
795.542	0.0169115
795.620	0.0170784
795.698	0.0170309
795.776	0.0171290
795.854	0.0170019
795.933	0.0170727
796.011	0.0171438
796.089	0.0172059
796.167	0.0173079
796.245	0.0174642
796.323	0.0174651
796.401	0.0174345
796.479	0.0175536
796.558	0.0174879
796.636	0.0175543
796.714	0.0175764
796.792	0.0176101
796.870	0.0176952
796.948	0.0175121
797.026	0.0175798
797.104	0.0175805
797.183	0.0175916
797.261	0.0176952
797.339	0.0176142
797.417	0.0174702
797.495	0.0174679
797.573	0.0174489
797.651	0.0174859
797.729	0.0174179
797.808	0.0172592
797.886	0.0174728
797.964	0.0173582
798.042	0.0173018
798.120	0.0172405
798.198	0.0175017
798.276	0.0173404
798.354	0.0172604
798.433	0.0174056
798.511	0.0172278
798.589	0.0172330
798.667	0.0172721
798.745	0.0173231
798.823	0.0172948
798.901	0.0172228
798.979	0.0170887
799.058	0.0171718
799.136	0.0171442
799.214	0.0170454
799.292	0.0170750
799.370	0.0170236
799.448	0.0169678
799.526	0.0170255
799.604	0.0170372
799.683	0.0169591
799.761	0.0168935
799.839	0.0168818
799.917	0.0170556
799.995	0.0171387
800.073	0.0170009
800.151	0.0170337
800.229	0.0171011
800.308	0.0171455
800.386	0.0170818
800.464	0.0173609
800.542	0.0174215
800.620	0.0172955
800.698	0.0172961
800.776	0.0173889
800.854	0.0176062
800.933	0.0175835
801.011	0.0177230
801.089	0.0177266
801.167	0.0176507
801.245	0.0177209
801.323	0.0176348
801.401	0.0176165
801.479	0.0176355
801.558	0.0176884
801.636	0.0176614
801.714	0.0174502
801.792	0.0175232
801.870	0.0174519
801.948	0.0174000
802.026	0.0172549
802.104	0.0172208
802.183	0.0171857
802.261	0.0172870
802.339	0.0171404
802.417	0.0171082
802.495	0.0171159
802.573	0.0171643
802.651	0.0171823
802.729	0.0170522
802.808	0.0169827
802.886	0.0170927
802.964	0.0170714
803.042	0.0171361
803.120	0.0170732
803.198	0.0170515
803.276	0.0171523
803.354	0.0172344
803.433	0.0172344
803.511	0.0170969
803.589	0.0172092
803.667	0.0170625
803.745	0.0171609
803.823	0.0173302
803.901	0.0173432
803.979	0.0172710
804.058	0.0173177
804.136	0.0172769
804.214	0.0173108
804.292	0.0173552
804.370	0.0173265
804.448	0.0173109
804.526	0.0173627
804.604	0.0173119
804.683	0.0174480
804.761	0.0173814
804.839	0.0174075
804.917	0.0174609
804.995	0.0174346
805.073	0.0173661
805.151	0.0173454
805.229	0.0173884
805.308	0.0172095
805.386	0.0171982
805.464	0.0172221
805.542	0.0170669
805.620	0.0170936
805.698	0.0173105
805.776	0.0170271
805.854	0.0171229
805.933	0.0170998
806.011	0.0171072
806.089	0.0171288
806.167	0.0171414
806.245	0.0171227
806.323	0.0172540
806.401	0.0173282
806.479	0.0173073
806.558	0.0172887
806.636	0.0173434
806.714	0.0175944
806.792	0.0175748
806.870	0.0176422
806.948	0.0176516
807.026	0.0178009
807.104	0.0178658
807.183	0.0178259
807.261	0.0176787
807.339	0.0178848
807.417	0.0177640
807.495	0.0177481
807.573	0.0178048
807.651	0.0179035
807.729	0.0176393
807.808	0.0176351
807.886	0.0176572
807.964	0.0175828
808.042	0.0174211
808.120	0.0172284
808.198	0.0172428
808.276	0.0173524
808.354	0.0170932
808.433	0.0170741
808.511	0.0171360
808.589	0.0169855
808.667	0.0168161
808.745	0.0170143
808.823	0.0170175
808.901	0.0167111
808.979	0.0168546
809.058	0.0168126
809.136	0.0167651
809.214	0.0168505
809.292	0.0168919
809.370	0.0170530
809.448	0.0169461
809.526	0.0171413
809.604	0.0169202
809.683	0.0170518
809.761	0.0170502
809.839	0.0170026
809.917	0.0170351
809.995	0.0171037
810.073	0.0171731
810.151	0.0172488
810.229	0.0173489
810.308	0.0174212
810.386	0.0174874
810.464	0.0175240
810.542	0.0174644
810.620	0.0176074
810.698	0.0173975
810.776	0.0175993
810.854	0.0178198
810.933	0.0178247
811.011	0.0178590
811.089	0.0178404
811.167	0.0178477
811.245	0.0177966
811.323	0.0177505
811.401	0.0178564
811.479	0.0178642
811.558	0.0179069
811.636	0.0179813
811.714	0.0178642
811.792	0.0176417
811.870	0.0177204
811.948	0.0178680
812.026	0.0177733
812.104	0.0176941
812.183	0.0175203
812.261	0.0176888
812.339	0.0174821
812.417	0.0176517
812.495	0.0174520
812.573	0.0173705
812.651	0.0173569
812.729	0.0173553
812.808	0.0173334
812.886	0.0172984
812.964	0.0171861
813.042	0.0172308
813.120	0.0170938
813.198	0.0170284
813.276	0.0170372
813.354	0.0170890
813.433	0.0170751
813.511	0.0170142
813.589	0.0168864
813.667	0.0167508
813.745	0.0168884
813.823	0.0169628
813.901	0.0166599
813.979	0.0167603
814.058	0.0167309
814.136	0.0167611
814.214	0.0166602
814.292	0.0168281
814.370	0.0168566
814.448	0.0168726
814.526	0.0169006
814.604	0.0169374
814.683	0.0171255
814.761	0.0170846
814.839	0.0172503
814.917	0.0175871
814.995	0.0174516
815.073	0.0174387
815.151	0.0176557
815.229	0.0176221
815.308	0.0178145
815.386	0.0180030
815.464	0.0178537
815.542	0.0180013
815.620	0.0181193
815.698	0.0181731
815.776	0.0180421
815.854	0.0179654
815.933	0.0179567
816.011	0.0179755
816.089	0.0178384
816.167	0.0179329
816.245	0.0178236
816.323	0.0176887
816.401	0.0176378
816.479	0.0176246
816.558	0.0175285
816.636	0.0174281
816.714	0.0175726
816.792	0.0172357
816.870	0.0172470
816.948	0.0172385
817.026	0.0171066
817.104	0.0171909
817.183	0.0172798
817.261	0.0170937
817.339	0.0169940
817.417	0.0170663
817.495	0.0170853
817.573	0.0170287
817.651	0.0170877
817.729	0.0169408
817.808	0.0169811
817.886	0.0169656
817.964	0.0168804
818.042	0.0169720
818.120	0.0169498
818.198	0.0168161
818.276	0.0168974
818.354	0.0168064
818.433	0.0167629
818.511	0.0168689
818.589	0.0170324
818.667	0.0170413
818.745	0.0170840
818.823	0.0171523
818.901	0.0172569
818.979	0.0172860
819.058	0.0173920
819.136	0.0175651
819.214	0.0176059
819.292	0.0175568
819.370	0.0176559
819.448	0.0177293
819.526	0.0178114
819.604	0.0177586
819.683	0.0178614
819.761	0.0179387
819.839	0.0178185
819.917	0.0178571
819.995	0.0179282
820.073	0.0177583
820.151	0.0175719
820.229	0.0176540
820.308	0.0176298
820.386	0.0175247
820.464	0.0175744
820.542	0.0174990
820.620	0.0172171
820.698	0.0172795
820.776	0.0172311
820.854	0.0171731
820.933	0.0172630
821.011	0.0172994
821.089	0.0172153
821.167	0.0172618
821.245	0.0172868
821.323	0.0171643
821.401	0.0174374
821.479	0.0173423
821.558	0.0172298
821.636	0.0173347
821.714	0.0172870
821.792	0.0172832
821.870	0.0173268
821.948	0.0172816
822.026	0.0171565
822.104	0.0170905
822.183	0.0170917
822.261	0.0170919
822.339	0.0169223
822.417	0.0169090
822.495	0.0168265
822.573	0.0168981
822.651	0.0169530
822.729	0.0169442
822.808	0.0170641
822.886	0.0168777
822.964	0.0171001
823.042	0.0173434
823.120	0.0173747
823.198	0.0173470
823.276	0.0174111
823.354	0.0174247
823.433	0.0175378
823.511	0.0175850
823.589	0.0175500
823.667	0.0176549
823.745	0.0176953
823.823	0.0176930
823.901	0.0177660
823.979	0.0176816
824.058	0.0176745
824.136	0.0177180
824.214	0.0178062
824.292	0.0176360
824.370	0.0177686
824.448	0.0174636
824.526	0.0174525
824.604	0.0176494
824.683	0.0174575
824.761	0.0175428
824.839	0.0174497
824.917	0.0174368
824.995	0.0174323
825.073	0.0173793
825.151	0.0172935
825.229	0.0172130
825.308	0.0173251
825.386	0.0173037
825.464	0.0172533
825.542	0.0174310
825.620	0.0172770
825.698	0.0172333
825.776	0.0172431
825.854	0.0171461
825.933	0.0171799
826.011	0.0171098
826.089	0.0170260
826.167	0.0171137
826.245	0.0170005
826.323	0.0168877
826.401	0.0169326
826.479	0.0169842
826.558	0.0167974
826.636	0.0167504
826.714	0.0169674
826.792	0.0168848
826.870	0.0169305
826.948	0.0170231
827.026	0.0169761
827.104	0.0169183
827.183	0.0170650
827.261	0.0171859
827.339	0.0172906
827.417	0.0174249
827.495	0.0174834
827.573	0.0176266
827.651	0.0177189
827.729	0.0177828
827.808	0.0178608
827.886	0.0178751
827.964	0.0178237
828.042	0.0178555
828.120	0.0178482
828.198	0.0179985
828.276	0.0179913
828.354	0.0179784
828.433	0.0177759
828.511	0.0177193
828.589	0.0175639
828.667	0.0176772
828.745	0.0176254
828.823	0.0174997
828.901	0.0174140
828.979	0.0173927
829.058	0.0173568
829.136	0.0171465
829.214	0.0172920
829.292	0.0173296
829.370	0.0171201
829.448	0.0170855
829.526	0.0170695
829.604	0.0170428
829.683	0.0171217
829.761	0.0169881
829.839	0.0169598
829.917	0.0169018
829.995	0.0170643
830.073	0.0172333
830.151	0.0170082
830.229	0.0169652
830.308	0.0168929
830.386	0.0169349
830.464	0.0169392
830.542	0.0170705
830.620	0.0170225
830.698	0.0169746
830.776	0.0170705
830.854	0.0171081
830.933	0.0169837
831.011	0.0172073
831.089	0.0171563
831.167	0.0172572
831.245	0.0173930
831.323	0.0173349
831.401	0.0174313
831.479	0.0174815
831.558	0.0174245
831.636	0.0175877
831.714	0.0176891
831.792	0.0178307
831.870	0.0177657
831.948	0.0178569
832.026	0.0179478
832.104	0.0179064
832.183	0.0178910
832.261	0.0179806
832.339	0.0180787
832.417	0.0178915
832.495	0.0180038
832.573	0.0178865
832.651	0.0178544
832.729	0.0177119
832.808	0.0178221
832.886	0.0176794
832.964	0.0174507
833.042	0.0173936
833.120	0.0172727
833.198	0.0172448
833.276	0.0174883
833.354	0.0172756
833.433	0.0171676
833.511	0.0170174
833.589	0.0171140
833.667	0.0170662
833.745	0.0169926
833.823	0.0170561
833.901	0.0170502
833.979	0.0170367
834.058	0.0169391
834.136	0.0171860
834.214	0.0172157
834.292	0.0169505
834.370	0.0169484
834.448	0.0170016
834.526	0.0170597
834.604	0.0170255
834.683	0.0170013
834.761	0.0169376
834.839	0.0170189
834.917	0.0169836
834.995	0.0170497
835.073	0.0170640
835.151	0.0171697
835.229	0.0172271
835.308	0.0172269
835.386	0.0172433
835.464	0.0173323
835.542	0.0175305
835.620	0.0175082
835.698	0.0174461
835.776	0.0175680
835.854	0.0176148
835.933	0.0178030
836.011	0.0177964
836.089	0.0176978
836.167	0.0176888
836.245	0.0177504
836.323	0.0178024
836.401	0.0178286
836.479	0.0177788
836.558	0.0176655
836.636	0.0178026
836.714	0.0175699
836.792	0.0177073
836.870	0.0177151
836.948	0.0175518
837.026	0.0174865
837.104	0.0174743
837.183	0.0173905
837.261	0.0174203
837.339	0.0173295
837.417	0.0172158
837.495	0.0171438
837.573	0.0171443
837.651	0.0170792
837.729	0.0172125
837.808	0.0171375
837.886	0.0170690
837.964	0.0169472
838.042	0.0171097
838.120	0.0170273
838.198	0.0170073
838.276	0.0169631
838.354	0.0169377
838.433	0.0170088
838.511	0.0170952
838.589	0.0171502
838.667	0.0169569
838.745	0.0169179
838.823	0.0171042
838.901	0.0170638
838.979	0.0171910
839.058	0.0171457
839.136	0.0171549
839.214	0.0172459
839.292	0.0170524
839.370	0.0173287
839.448	0.0174694
839.526	0.0174044
839.604	0.0175297
839.683	0.0175195
839.761	0.0175378
839.839	0.0175311
839.917	0.0175791
839.995	0.0177224
840.073	0.0178356
840.151	0.0176678
840.229	0.0178462
840.308	0.0178893
840.386	0.0178407
840.464	0.0178025
840.542	0.0178362
840.620	0.0177652
840.698	0.0177030
840.776	0.0175501
840.854	0.0175140
840.933	0.0175658
841.011	0.0176053
841.089	0.0174380
841.167	0.0174242
841.245	0.0173567
841.323	0.0172813
841.401	0.0172135
841.479	0.0172173
841.558	0.0171082
841.636	0.0170069
841.714	0.0170467
841.792	0.0169992
841.870	0.0170513
841.948	0.0170146
842.026	0.0169418
842.104	0.0166993
842.183	0.0169818
842.261	0.0170110
842.339	0.0169531
842.417	0.0168945
842.495	0.0169733
842.573	0.0168890
842.651	0.0169798
842.729	0.0170090
842.808	0.0170596
842.886	0.0171474
842.964	0.0171233
843.042	0.0172601
843.120	0.0172367
843.198	0.0173489
843.276	0.0173881
843.354	0.0173610
843.433	0.0175943
843.511	0.0174985
843.589	0.0176017
843.667	0.0177078
843.745	0.0178302
843.823	0.0176467
843.901	0.0177475
843.979	0.0178435
844.058	0.0178745
844.136	0.0178195
844.214	0.0177790
844.292	0.0177658
844.370	0.0177460
844.448	0.0176857
844.526	0.0177237
844.604	0.0177554
844.683	0.0176662
844.761	0.0176414
844.839	0.0175269
844.917	0.0174436
844.995	0.0173696
845.073	0.0172571
845.151	0.0173886
845.229	0.0172695
845.308	0.0172060
845.386	0.0171004
845.464	0.0171004
845.542	0.0170200
845.620	0.0170152
845.698	0.0168818
845.776	0.0169208
845.854	0.0169362
845.933	0.0169154
846.011	0.0167213
846.089	0.0167986
846.167	0.0167603
846.245	0.0167553
846.323	0.0166755
846.401	0.0167651
846.479	0.0168195
846.558	0.0168542
846.636	0.0168900
846.714	0.0169701
846.792	0.0169073
846.870	0.0171140
846.948	0.0171361
847.026	0.0171854
847.104	0.0173489
847.183	0.0173553
847.261	0.0174754
847.339	0.0175116
847.417	0.0177092
847.495	0.0177967
847.573	0.0177808
847.651	0.0178159
847.729	0.0177109
847.808	0.0177659
847.886	0.0178507
847.964	0.0179358
848.042	0.0178374
848.120	0.0179247
848.198	0.0178714
848.276	0.0177211
848.354	0.0176828
848.433	0.0175958
848.511	0.0176183
848.589	0.0177052
848.667	0.0175591
848.745	0.0176961
848.823	0.0175848
848.901	0.0176364
848.979	0.0175470
849.058	0.0174911
849.136	0.0174105
849.214	0.0172594
849.292	0.0173569
849.370	0.0172598
849.448	0.0171969
849.526	0.0171093
849.604	0.0170717
849.683	0.0169342
849.761	0.0169011
849.839	0.0168102
849.917	0.0167835
849.995	0.0167793
850.073	0.0166041
850.151	0.0166808
850.229	0.0166306
850.308	0.0165243
850.386	0.0165128
850.464	0.0164391
850.542	0.0165102
850.620	0.0166247
850.698	0.0166666
850.776	0.0166944
850.854	0.0167789
850.933	0.0168425
851.011	0.0168671
851.089	0.0169997
851.167	0.0172166
851.245	0.0172620
851.323	0.0173545
851.401	0.0174389
851.479	0.0174702
851.558	0.0175172
851.636	0.0176845
851.714	0.0177914
851.792	0.0177676
851.870	0.0177195
851.948	0.0178518
852.026	0.0179487
852.104	0.0178638
852.183	0.0179541
852.261	0.0179579
852.339	0.0179601
852.417	0.0180283
852.495	0.0180064
852.573	0.0179679
852.651	0.0178604
852.729	0.0178699
852.808	0.0177222
852.886	0.0176614
852.964	0.0177871
853.042	0.0176334
853.120	0.0175060
853.198	0.0174362
853.276	0.0175228
853.354	0.0174957
853.433	0.0172813
853.511	0.0173532
853.589	0.0173667
853.667	0.0171172
853.745	0.0169518
853.823	0.0169243
853.901	0.0168672
853.979	0.0169094
854.058	0.0167454
854.136	0.0168706
854.214	0.0168241
854.292	0.0167825
854.370	0.0167661
854.448	0.0168771
854.526	0.0167261
854.604	0.0167985
854.683	0.0167004
854.761	0.0167840
854.839	0.0168806
854.917	0.0169060
854.995	0.0169109
855.073	0.0169376
855.151	0.0169556
855.229	0.0170905
855.308	0.0171458
855.386	0.0172363
855.464	0.0173911
855.542	0.0174653
855.620	0.0174268
855.698	0.0174821
855.776	0.0176231
855.854	0.0176512
855.933	0.0175996
856.011	0.0176825
856.089	0.0178391
856.167	0.0177726
856.245	0.0177788
856.323	0.0178106
856.401	0.0178569
856.479	0.0179888
856.558	0.0178135
856.636	0.0177398
856.714	0.0178658
856.792	0.0178785
856.870	0.0177303
856.948	0.0177470
857.026	0.0177544
857.104	0.0176568
857.183	0.0176511
857.261	0.0176161
857.339	0.0174848
857.417	0.0173166
857.495	0.0172787
857.573	0.0173826
857.651	0.0171500
857.729	0.0171862
857.808	0.0170613
857.886	0.0170837
857.964	0.0170090
858.042	0.0169885
858.120	0.0170219
858.198	0.0170259
858.276	0.0168619
858.354	0.0167896
858.433	0.0169120
858.511	0.0167784
858.589	0.0168388
858.667	0.0168352
858.745	0.0169355
858.823	0.0171575
858.901	0.0167942
858.979	0.0168698
859.058	0.0171090
859.136	0.0170823
859.214	0.0172483
859.292	0.0172137
859.370	0.0172036
859.448	0.0172067
859.526	0.0172034
859.604	0.0173230
859.683	0.0175327
859.761	0.0174841
859.839	0.0175230
859.917	0.0175711
859.995	0.0175266
860.073	0.0176428
860.151	0.0176149
860.229	0.0176162
860.308	0.0178178
860.386	0.0177599
860.464	0.0177808
860.542	0.0177589
860.620	0.0176921
860.698	0.0175960
860.776	0.0177230
860.854	0.0178049
860.933	0.0178526
861.011	0.0177410
861.089	0.0177036
861.167	0.0176228
861.245	0.0177422
861.323	0.0177352
861.401	0.0176958
861.479	0.0177122
861.558	0.0173567
861.636	0.0174742
861.714	0.0175489
861.792	0.0173864
861.870	0.0172998
861.948	0.0172034
862.026	0.0171210
862.104	0.0170618
862.183	0.0169685
862.261	0.0170759
862.339	0.0169249
862.417	0.0168183
862.495	0.0170050
862.573	0.0170184
862.651	0.0168478
862.729	0.0168208
862.808	0.0167601
862.886	0.0168957
862.964	0.0168135
863.042	0.0168257
863.120	0.0168913
863.198	0.0168600
863.276	0.0169905
863.354	0.0170366
863.433	0.0170245
863.511	0.0170676
863.589	0.0170024
863.667	0.0172818
863.745	0.0173311
863.823	0.0173582
863.901	0.0173485
863.979	0.0175100
864.058	0.0175136
864.136	0.0175443
864.214	0.0177084
864.292	0.0176101
864.370	0.0176384
864.448	0.0176145
864.526	0.0176960
864.604	0.0177387
864.683	0.0177134
864.761	0.0177239
864.839	0.0177795
864.917	0.0178424
864.995	0.0178359
865.073	0.0176482
865.151	0.0176387
865.229	0.0176865
865.308	0.0177837
865.386	0.0176163
865.464	0.0176827
865.542	0.0175922
865.620	0.0176456
865.698	0.0174164
865.776	0.0175395
865.854	0.0177043
865.933	0.0174042
866.011	0.0173855
866.089	0.0172709
866.167	0.0171714
866.245	0.0172227
866.323	0.0172598
866.401	0.0170725
866.479	0.0169112
866.558	0.0169729
866.636	0.0168204
866.714	0.0168307
866.792	0.0167978
866.870	0.0167912
866.948	0.0167993
867.026	0.0167871
867.104	0.0167550
867.183	0.0168166
867.261	0.0169520
867.339	0.0168935
867.417	0.0169751
867.495	0.0169888
867.573	0.0170126
867.651	0.0170287
867.729	0.0171461
867.808	0.0172417
867.886	0.0171947
867.964	0.0172076
868.042	0.0172971
868.120	0.0173128
868.198	0.0176021
868.276	0.0173300
868.354	0.0174329
868.433	0.0174953
868.511	0.0174535
868.589	0.0175083
868.667	0.0174781
868.745	0.0176070
868.823	0.0174647
868.901	0.0175644
868.979	0.0175709
869.058	0.0175261
869.136	0.0175343
869.214	0.0176549
869.292	0.0177639
869.370	0.0176288
869.448	0.0176814
869.526	0.0176817
869.604	0.0176927
869.683	0.0176488
869.761	0.0176060
869.839	0.0176275
869.917	0.0176692
869.995	0.0177325
870.073	0.0175250
870.151	0.0175540
870.229	0.0173877
870.308	0.0173325
870.386	0.0173243
870.464	0.0170688
870.542	0.0170436
870.620	0.0171339
870.698	0.0171585
870.776	0.0168231
870.854	0.0168966
870.933	0.0169585
871.011	0.0168584
871.089	0.0167749
871.167	0.0168227
871.245	0.0168908
871.323	0.0167177
871.401	0.0168485
871.479	0.0168897
871.558	0.0169559
871.636	0.0170445
871.714	0.0169552
871.792	0.0170557
871.870	0.0170914
871.948	0.0172645
872.026	0.0172558
872.104	0.0172889
872.183	0.0174496
872.261	0.0175381
872.339	0.0173889
872.417	0.0174904
872.495	0.0175153
872.573	0.0174503
872.651	0.0175493
872.729	0.0176621
872.808	0.0175867
872.886	0.0175774
872.964	0.0177114
873.042	0.0177271
873.120	0.0175139
873.198	0.0176022
873.276	0.0176366
873.354	0.0175919
873.433	0.0175510
873.511	0.0176500
873.589	0.0178085
873.667	0.0176025
873.745	0.0176267
873.823	0.0177134
873.901	0.0175163
873.979	0.0174199
874.058	0.0173804
874.136	0.0174919
874.214	0.0172446
874.292	0.0172479
874.370	0.0172696
874.448	0.0171992
874.526	0.0171785
874.604	0.0170986
874.683	0.0169875
874.761	0.0168972
874.839	0.0168520
874.917	0.0168990
874.995	0.0167479
875.073	0.0166997
875.151	0.0166665
875.229	0.0166444
875.308	0.0167486
875.386	0.0168140
875.464	0.0167461
875.542	0.0168112
875.620	0.0166749
875.698	0.0168420
875.776	0.0169527
875.854	0.0170091
875.933	0.0172255
876.011	0.0171822
876.089	0.0171014
876.167	0.0171422
876.245	0.0173294
876.323	0.0174724
876.401	0.0173408
876.479	0.0174590
876.558	0.0174676
876.636	0.0175602
876.714	0.0174647
876.792	0.0176411
876.870	0.0176382
876.948	0.0176201
877.026	0.0176273
877.104	0.0176196
877.183	0.0177396
877.261	0.0177032
877.339	0.0177808
877.417	0.0177769
877.495	0.0178058
877.573	0.0178181
877.651	0.0176830
877.729	0.0178511
877.808	0.0177356
877.886	0.0177184
877.964	0.0178059
878.042	0.0177279
878.120	0.0176721
878.198	0.0176375
878.276	0.0174922
878.354	0.0175484
878.433	0.0173191
878.511	0.0171011
878.589	0.0172350
878.667	0.0171069
878.745	0.0170742
878.823	0.0169135
878.901	0.0168543
878.979	0.0169090
879.058	0.0167467
879.136	0.0167332
879.214	0.0168459
879.292	0.0167277
879.370	0.0167516
879.448	0.0168848
879.526	0.0166435
879.604	0.0167948
879.683	0.0168815
879.761	0.0168883
879.839	0.0170598
879.917	0.0170008
879.995	0.0169261
880.073	0.0170205
880.151	0.0171423
880.229	0.0172336
880.308	0.0174044
880.386	0.0173302
880.464	0.0174129
880.542	0.0174292
880.620	0.0175200
880.698	0.0176145
880.776	0.0175273
880.854	0.0174449
880.933	0.0175382
881.011	0.0175410
881.089	0.0177353
881.167	0.0176167
881.245	0.0177066
881.323	0.0177291
881.401	0.0177185
881.479	0.0176343
881.558	0.0177187
881.636	0.0177930
881.714	0.0177153
881.792	0.0176585
881.870	0.0175756
881.948	0.0176448
882.026	0.0177061
882.104	0.0175784
882.183	0.0175362
882.261	0.0173373
882.339	0.0174195
882.417	0.0173250
882.495	0.0173808
882.573	0.0173808
882.651	0.0172424
882.729	0.0172238
882.808	0.0170898
882.886	0.0169530
882.964	0.0170274
883.042	0.0170153
883.120	0.0169630
883.198	0.0169606
883.276	0.0168044
883.354	0.0168573
883.433	0.0170267
883.511	0.0168477
883.589	0.0167902
883.667	0.0167982
883.745	0.0168757
883.823	0.0168594
883.901	0.0169324
883.979	0.0169419
884.058	0.0170218
884.136	0.0170329
884.214	0.0171698
884.292	0.0171807
884.370	0.0172750
884.448	0.0173563
884.526	0.0174551
884.604	0.0173878
884.683	0.0176222
884.761	0.0175260
884.839	0.0174548
884.917	0.0175658
884.995	0.0175604
885.073	0.0176344
885.151	0.0177393
885.229	0.0176441
885.308	0.0177705
885.386	0.0177370
885.464	0.0176339
885.542	0.0177249
885.620	0.0178552
885.698	0.0177682
885.776	0.0178650
885.854	0.0178754
885.933	0.0179028
886.011	0.0178593
886.089	0.0178647
886.167	0.0180397
886.245	0.0176177
886.323	0.0176031
886.401	0.0177697
886.479	0.0175228
886.558	0.0174238
886.636	0.0173468
886.714	0.0173835
886.792	0.0173593
886.870	0.0172105
886.948	0.0171564
887.026	0.0171067
887.104	0.0169704
887.183	0.0170532
887.261	0.0170931
887.339	0.0168519
887.417	0.0168271
887.495	0.0168288
887.573	0.0166940
887.651	0.0167036
887.729	0.0166891
887.808	0.0167335
887.886	0.0167316
887.964	0.0167255
888.042	0.0168391
888.120	0.0168421
888.198	0.0168806
888.276	0.0168741
888.354	0.0170644
888.433	0.0170394
888.511	0.0171295
888.589	0.0170929
888.667	0.0172134
888.745	0.0173154
888.823	0.0172995
888.901	0.0172685
888.979	0.0173939
889.058	0.0175984
889.136	0.0176093
889.214	0.0175740
889.292	0.0177130
889.370	0.0177006
889.448	0.0177571
889.526	0.0178175
889.604	0.0178228
889.683	0.0177390
889.761	0.0178860
889.839	0.0178300
889.917	0.0178070
889.995	0.0177415
890.073	0.0178816
890.151	0.0177307
890.229	0.0177740
890.308	0.0176974
890.386	0.0176960
890.464	0.0174773
890.542	0.0174532
890.620	0.0174813
890.698	0.0172604
890.776	0.0171803
890.854	0.0170578
890.933	0.0171667
891.011	0.0169656
891.089	0.0167938
891.167	0.0169067
891.245	0.0169677
891.323	0.0168609
891.401	0.0169717
891.479	0.0167588
891.558	0.0167625
891.636	0.0168553
891.714	0.0170163
891.792	0.0169675
891.870	0.0170132
891.948	0.0170884
892.026	0.0169387
892.104	0.0169400
892.183	0.0170288
892.261	0.0171169
892.339	0.0172061
892.417	0.0171893
892.495	0.0173573
892.573	0.0174360
892.651	0.0173468
892.729	0.0173832
892.808	0.0175074
892.886	0.0174511
892.964	0.0174474
893.042	0.0176619
893.120	0.0175983
893.198	0.0175203
893.276	0.0176335
893.354	0.0176529
893.433	0.0177473
893.511	0.0178638
893.589	0.0179855
893.667	0.0176688
893.745	0.0177586
893.823	0.0177915
893.901	0.0179166
893.979	0.0179037
894.058	0.0178238
894.136	0.0176785
894.214	0.0176313
894.292	0.0176545
894.370	0.0174654
894.448	0.0174472
894.526	0.0174249
894.604	0.0173555
894.683	0.0173023
894.761	0.0171486
894.839	0.0171648
894.917	0.0171259
894.995	0.0171077
895.073	0.0170628
895.151	0.0169979
895.229	0.0169673
895.308	0.0170184
895.386	0.0167922
895.464	0.0169791
895.542	0.0168967
895.620	0.0170876
895.698	0.0168279
895.776	0.0168578
895.854	0.0168362
895.933	0.0169877
896.011	0.0169925
896.089	0.0169669
896.167	0.0169759
896.245	0.0170077
896.323	0.0171518
896.401	0.0171800
896.479	0.0173157
896.558	0.0172031
896.636	0.0173450
896.714	0.0173573
896.792	0.0174509
896.870	0.0174575
896.948	0.0174982
897.026	0.0175816
897.104	0.0176190
897.183	0.0176063
897.261	0.0177210
897.339	0.0177366
897.417	0.0177622
897.495	0.0176867
897.573	0.0176569
897.651	0.0176038
897.729	0.0177139
897.808	0.0176143
897.886	0.0177052
897.964	0.0176187
898.042	0.0176866
898.120	0.0174699
898.198	0.0176673
898.276	0.0176079
898.354	0.0176910
898.433	0.0176628
898.511	0.0175598
898.589	0.0177678
898.667	0.0175649
898.745	0.0175652
898.823	0.0175274
898.901	0.0175001
898.979	0.0175016
899.058	0.0175148
899.136	0.0171939
899.214	0.0171828
899.292	0.0170468
899.370	0.0169741
899.448	0.0168860
899.526	0.0167754
899.604	0.0168687
899.683	0.0167221
899.761	0.0167281
899.839	0.0166996
899.917	0.0166761
899.995	0.0165860
900.073	0.0167624
900.151	0.0166830
900.229	0.0166069
900.308	0.0166177
900.386	0.0167228
900.464	0.0169442
900.542	0.0169524
900.620	0.0170524
900.698	0.0169320
900.776	0.0172614
900.854	0.0173452
900.933	0.0173523
901.011	0.0175362
901.089	0.0176001
901.167	0.0178039
901.245	0.0177808
901.323	0.0179875
901.401	0.0180531
901.479	0.0181858
901.558	0.0181503
901.636	0.0181100
901.714	0.0181760
901.792	0.0181535
901.870	0.0181110
901.948	0.0180350
902.026	0.0179059
902.104	0.0178702
902.183	0.0177959
902.261	0.0177846
902.339	0.0177606
902.417	0.0177212
902.495	0.0175823
902.573	0.0174258
902.651	0.0174155
902.729	0.0173403
902.808	0.0173459
902.886	0.0172932
902.964	0.0172138
903.042	0.0171525
903.120	0.0171410
903.198	0.0171237
903.276	0.0171043
903.354	0.0170553
903.433	0.0168088
903.511	0.0168793
903.589	0.0168124
903.667	0.0170523
903.745	0.0168719
903.823	0.0168257
903.901	0.0167150
903.979	0.0166934
904.058	0.0166839
904.136	0.0167893
904.214	0.0168501
904.292	0.0167535
904.370	0.0167773
904.448	0.0168771
904.526	0.0172382
904.604	0.0172323
904.683	0.0172273
904.761	0.0175146
904.839	0.0174969
904.917	0.0177331
904.995	0.0177378
905.073	0.0179179
905.151	0.0180897
905.229	0.0179613
905.308	0.0179758
905.386	0.0179793
905.464	0.0179588
905.542	0.0179505
905.620	0.0179349
905.698	0.0177138
905.776	0.0177366
905.854	0.0177961
905.933	0.0177074
906.011	0.0176093
906.089	0.0175681
906.167	0.0176194
906.245	0.0175017
906.323	0.0176170
906.401	0.0175314
906.479	0.0175308
906.558	0.0174125
906.636	0.0174238
906.714	0.0175835
906.792	0.0174045
906.870	0.0174024
906.948	0.0173676
907.026	0.0173930
907.104	0.0173039
907.183	0.0172211
907.261	0.0172695
907.339	0.0171526
907.417	0.0170556
907.495	0.0171024
907.573	0.0171487
907.651	0.0168547
907.729	0.0168649
907.808	0.0169341
907.886	0.0168854
907.964	0.0169494
908.042	0.0169783
908.120	0.0169676
908.198	0.0169149
908.276	0.0168785
908.354	0.0170779
908.433	0.0169636
908.511	0.0171346
908.589	0.0171175
908.667	0.0172687
908.745	0.0172262
908.823	0.0173648
908.901	0.0175631
908.979	0.0176099
909.058	0.0175793
909.136	0.0175909
909.214	0.0177162
909.292	0.0177556
909.370	0.0177966
909.448	0.0176868
909.526	0.0178046
909.604	0.0177625
909.683	0.0176682
909.761	0.0177044
909.839	0.0176399
909.917	0.0175539
909.995	0.0174654
910.073	0.0175959
910.151	0.0176364
910.229	0.0176309
910.308	0.0176412
910.386	0.0175941
910.464	0.0175362
910.542	0.0174454
910.620	0.0175371
910.698	0.0176677
910.776	0.0174863
910.854	0.0174426
910.933	0.0175378
911.011	0.0173472
911.089	0.0173226
911.167	0.0173127
911.245	0.0171268
911.323	0.0171229
911.401	0.0171082
911.479	0.0171759
911.558	0.0169387
911.636	0.0171232
911.714	0.0169658
911.792	0.0169808
911.870	0.0170042
911.948	0.0170127
912.026	0.0171164
912.104	0.0170976
912.183	0.0170350
912.261	0.0169953
912.339	0.0169741
912.417	0.0170634
912.495	0.0171630
912.573	0.0172180
912.651	0.0171784
912.729	0.0173494
912.808	0.0173285
912.886	0.0174580
912.964	0.0174236
913.042	0.0175469
913.120	0.0176077
913.198	0.0175150
913.276	0.0175096
913.354	0.0174960
913.433	0.0175542
913.511	0.0175414
913.589	0.0174352
913.667	0.0173859
913.745	0.0174537
913.823	0.0174524
913.901	0.0175082
913.979	0.0174180
914.058	0.0175867
914.136	0.0174548
914.214	0.0174351
914.292	0.0175275
914.370	0.0174249
914.448	0.0173236
914.526	0.0173885
914.604	0.0174363
914.683	0.0173579
914.761	0.0171526
914.839	0.0172693
914.917	0.0173718
914.995	0.0174380
915.073	0.0173979
915.151	0.0174210
915.229	0.0174512
915.308	0.0175062
915.386	0.0173753
915.464	0.0174027
915.542	0.0174030
915.620	0.0174422
915.698	0.0173066
915.776	0.0172566
915.854	0.0172598
915.933	0.0172687
916.011	0.0172756
916.089	0.0173231
916.167	0.0172921
916.245	0.0172713
916.323	0.0172287
916.401	0.0172992
916.479	0.0171866
916.558	0.0172270
916.636	0.0173243
916.714	0.0172356
916.792	0.0172092
916.870	0.0172614
916.948	0.0175769
917.026	0.0173678
917.104	0.0172961
917.183	0.0173148
917.261	0.0175022
917.339	0.0173849
917.417	0.0173470
917.495	0.0173479
917.573	0.0175224
917.651	0.0172155
917.729	0.0173235
917.808	0.0172933
917.886	0.0172008
917.964	0.0172955
918.042	0.0172796
918.120	0.0172449
918.198	0.0173170
918.276	0.0173894
918.354	0.0173143
918.433	0.0174581
918.511	0.0173664
918.589	0.0173008
918.667	0.0173777
918.745	0.0172374
918.823	0.0173260
918.901	0.0173422
918.979	0.0175832
919.058	0.0175468
919.136	0.0174112
919.214	0.0174429
919.292	0.0176035
919.370	0.0176330
919.448	0.0174704
919.526	0.0175725
919.604	0.0176993
919.683	0.0176974
919.761	0.0176231
919.839	0.0175515
919.917	0.0176353
