06/03/2022	18:18:43	Ver.	4.1	UNKNOWN
Optical Delay	599.995081	Delta X		0.078125	Sweeps	1	Scan Rate	0/0
Coordinates	Axis 1	NaN	Axis 2	NaN	Axis 3	NaN	Axis 4	NaN	Axis 5	NaN	Axis 6	0.000000
TX Power	0.000000	RX Power	0.000000

599.995	0.0180907
600.073	0.0181165
600.151	0.0181461
600.229	0.0180273
600.308	0.0181066
600.386	0.0181741
600.464	0.0181342
600.542	0.0181469
600.620	0.0181483
600.698	0.0180699
600.776	0.0180351
600.854	0.0180902
600.933	0.0181464
601.011	0.0181013
601.089	0.0180783
601.167	0.0179964
601.245	0.0181596
601.323	0.0180701
601.401	0.0179917
601.479	0.0181602
601.558	0.0181371
601.636	0.0181417
601.714	0.0180955
601.792	0.0181462
601.870	0.0180425
601.948	0.0180563
602.026	0.0180785
602.104	0.0180428
602.183	0.0180131
602.261	0.0180919
602.339	0.0180972
602.417	0.0180900
602.495	0.0180843
602.573	0.0180376
602.651	0.0181048
602.729	0.0181492
602.808	0.0180963
602.886	0.0181116
602.964	0.0181325
603.042	0.0182375
603.120	0.0180592
603.198	0.0180180
603.276	0.0180425
603.354	0.0180653
603.433	0.0180308
603.511	0.0179473
603.589	0.0182045
603.667	0.0182063
603.745	0.0180284
603.823	0.0181104
603.901	0.0180450
603.979	0.0181989
604.058	0.0181337
604.136	0.0180919
604.214	0.0178780
604.292	0.0180904
604.370	0.0181352
604.448	0.0180302
604.526	0.0181704
604.604	0.0180595
604.683	0.0180172
604.761	0.0180096
604.839	0.0180817
604.917	0.0180145
604.995	0.0181765
605.073	0.0180686
605.151	0.0181802
605.229	0.0180894
605.308	0.0182039
605.386	0.0181558
605.464	0.0180901
605.542	0.0181926
605.620	0.0181107
605.698	0.0180322
605.776	0.0182120
605.854	0.0181914
605.933	0.0181242
606.011	0.0180999
606.089	0.0179719
606.167	0.0181644
606.245	0.0182372
606.323	0.0179903
606.401	0.0180170
606.479	0.0181084
606.558	0.0180025
606.636	0.0180676
606.714	0.0181567
606.792	0.0180999
606.870	0.0180135
606.948	0.0180888
607.026	0.0181261
607.104	0.0180032
607.183	0.0180976
607.261	0.0182063
607.339	0.0180570
607.417	0.0182041
607.495	0.0181499
607.573	0.0180223
607.651	0.0181251
607.729	0.0180913
607.808	0.0180119
607.886	0.0179433
607.964	0.0180289
608.042	0.0182354
608.120	0.0180389
608.198	0.0180819
608.276	0.0180575
608.354	0.0179844
608.433	0.0180782
608.511	0.0180782
608.589	0.0179947
608.667	0.0181119
608.745	0.0180916
608.823	0.0180790
608.901	0.0180867
608.979	0.0180939
609.058	0.0180373
609.136	0.0181433
609.214	0.0180067
609.292	0.0180772
609.370	0.0180413
609.448	0.0182035
609.526	0.0180433
609.604	0.0181079
609.683	0.0180031
609.761	0.0181272
609.839	0.0181371
609.917	0.0180692
609.995	0.0180292
610.073	0.0179681
610.151	0.0179984
610.229	0.0182394
610.308	0.0180294
610.386	0.0180722
610.464	0.0180634
610.542	0.0181255
610.620	0.0180492
610.698	0.0180986
610.776	0.0180135
610.854	0.0180370
610.933	0.0180890
611.011	0.0180860
611.089	0.0181252
611.167	0.0181410
611.245	0.0181620
611.323	0.0180124
611.401	0.0182356
611.479	0.0180672
611.558	0.0180145
611.636	0.0181962
611.714	0.0181458
611.792	0.0181055
611.870	0.0182462
611.948	0.0180148
612.026	0.0179958
612.104	0.0181039
612.183	0.0181188
612.261	0.0180534
612.339	0.0181059
612.417	0.0181201
612.495	0.0181345
612.573	0.0180222
612.651	0.0181078
612.729	0.0180447
612.808	0.0180736
612.886	0.0182333
612.964	0.0180391
613.042	0.0180236
613.120	0.0181428
613.198	0.0181781
613.276	0.0180612
613.354	0.0180364
613.433	0.0180540
613.511	0.0180044
613.589	0.0180172
613.667	0.0182055
613.745	0.0180795
613.823	0.0180894
613.901	0.0180555
613.979	0.0179985
614.058	0.0182423
614.136	0.0180569
614.214	0.0180177
614.292	0.0180594
614.370	0.0181437
614.448	0.0180804
614.526	0.0180840
614.604	0.0180609
614.683	0.0181466
614.761	0.0182149
614.839	0.0182230
614.917	0.0181137
614.995	0.0179887
615.073	0.0181741
615.151	0.0179541
615.229	0.0181085
615.308	0.0180315
615.386	0.0181509
615.464	0.0181921
615.542	0.0181189
615.620	0.0180269
615.698	0.0181112
615.776	0.0182944
615.854	0.0181633
615.933	0.0180311
616.011	0.0180733
616.089	0.0181882
616.167	0.0181142
616.245	0.0180610
616.323	0.0181105
616.401	0.0181091
616.479	0.0181454
616.558	0.0182277
616.636	0.0181747
616.714	0.0181730
616.792	0.0180330
616.870	0.0181687
616.948	0.0182257
617.026	0.0181631
617.104	0.0180168
617.183	0.0180710
617.261	0.0181292
617.339	0.0182490
617.417	0.0180555
617.495	0.0180257
617.573	0.0180004
617.651	0.0180535
617.729	0.0180835
617.808	0.0181937
617.886	0.0182021
617.964	0.0180984
618.042	0.0181964
618.120	0.0180635
618.198	0.0181025
618.276	0.0180997
618.354	0.0181069
618.433	0.0181829
618.511	0.0180446
618.589	0.0179171
618.667	0.0180344
618.745	0.0182270
618.823	0.0182134
618.901	0.0180977
618.979	0.0180447
619.058	0.0182060
619.136	0.0181818
619.214	0.0179379
619.292	0.0181558
619.370	0.0182198
619.448	0.0180029
619.526	0.0180277
619.604	0.0180254
619.683	0.0180425
619.761	0.0180379
619.839	0.0180923
619.917	0.0180564
619.995	0.0181070
620.073	0.0181693
620.151	0.0179874
620.229	0.0180145
620.308	0.0180846
620.386	0.0181481
620.464	0.0180244
620.542	0.0181709
620.620	0.0179956
620.698	0.0180978
620.776	0.0181827
620.854	0.0181230
620.933	0.0180983
621.011	0.0181190
621.089	0.0181726
621.167	0.0180270
621.245	0.0180928
621.323	0.0181018
621.401	0.0181607
621.479	0.0181095
621.558	0.0180878
621.636	0.0180458
621.714	0.0179945
621.792	0.0179787
621.870	0.0181258
621.948	0.0181823
622.026	0.0181060
622.104	0.0179755
622.183	0.0181255
622.261	0.0180797
622.339	0.0180367
622.417	0.0181064
622.495	0.0181175
622.573	0.0182090
622.651	0.0180559
622.729	0.0179785
622.808	0.0180407
622.886	0.0181938
622.964	0.0182272
623.042	0.0180315
623.120	0.0180395
623.198	0.0180614
623.276	0.0179971
623.354	0.0180276
623.433	0.0181181
623.511	0.0180367
623.589	0.0181039
623.667	0.0181541
623.745	0.0180009
623.823	0.0179787
623.901	0.0180484
623.979	0.0180695
624.058	0.0180181
624.136	0.0180194
624.214	0.0179879
624.292	0.0181042
624.370	0.0181083
624.448	0.0179575
624.526	0.0180979
624.604	0.0180982
624.683	0.0179408
624.761	0.0180027
624.839	0.0179782
624.917	0.0179610
624.995	0.0180028
625.073	0.0179405
625.151	0.0179924
625.229	0.0179607
625.308	0.0181914
625.386	0.0179153
625.464	0.0179089
625.542	0.0179656
625.620	0.0179492
625.698	0.0181026
625.776	0.0181592
625.854	0.0180657
625.933	0.0181600
626.011	0.0179661
626.089	0.0180164
626.167	0.0182043
626.245	0.0180133
626.323	0.0181146
626.401	0.0179208
626.479	0.0179710
626.558	0.0179950
626.636	0.0180441
626.714	0.0180495
626.792	0.0180715
626.870	0.0180366
626.948	0.0181034
627.026	0.0179521
627.104	0.0180042
627.183	0.0180227
627.261	0.0181078
627.339	0.0180273
627.417	0.0180324
627.495	0.0179829
627.573	0.0179094
627.651	0.0179958
627.729	0.0180558
627.808	0.0179752
627.886	0.0180351
627.964	0.0180645
628.042	0.0180597
628.120	0.0179851
628.198	0.0179523
628.276	0.0181081
628.354	0.0180960
628.433	0.0179315
628.511	0.0180381
628.589	0.0181384
628.667	0.0180129
628.745	0.0180861
628.823	0.0181232
628.901	0.0182014
628.979	0.0180753
629.058	0.0179063
629.136	0.0180234
629.214	0.0181442
629.292	0.0179764
629.370	0.0180872
629.448	0.0180513
629.526	0.0181715
629.604	0.0180462
629.683	0.0179398
629.761	0.0181055
629.839	0.0182409
629.917	0.0179821
629.995	0.0181165
630.073	0.0180755
630.151	0.0180728
630.229	0.0180678
630.308	0.0180786
630.386	0.0180937
630.464	0.0180547
630.542	0.0180413
630.620	0.0181296
630.698	0.0181749
630.776	0.0181005
630.854	0.0181513
630.933	0.0182325
631.011	0.0181637
631.089	0.0180299
631.167	0.0181462
631.245	0.0182181
631.323	0.0181749
631.401	0.0181465
631.479	0.0181372
631.558	0.0181285
631.636	0.0179768
631.714	0.0179795
631.792	0.0181104
631.870	0.0182555
631.948	0.0181322
632.026	0.0182137
632.104	0.0180702
632.183	0.0180567
632.261	0.0181762
632.339	0.0181844
632.417	0.0181525
632.495	0.0182040
632.573	0.0182807
632.651	0.0181686
632.729	0.0180534
632.808	0.0180865
632.886	0.0181223
632.964	0.0180445
633.042	0.0181729
633.120	0.0181537
633.198	0.0182677
633.276	0.0182048
633.354	0.0181834
633.433	0.0182142
633.511	0.0181488
633.589	0.0180366
633.667	0.0180686
633.745	0.0181357
633.823	0.0180954
633.901	0.0180941
633.979	0.0181304
634.058	0.0180910
634.136	0.0181340
634.214	0.0181783
634.292	0.0181541
634.370	0.0180236
634.448	0.0182736
634.526	0.0182275
634.604	0.0181334
634.683	0.0182342
634.761	0.0181757
634.839	0.0180424
634.917	0.0182208
634.995	0.0181672
635.073	0.0180460
635.151	0.0180552
635.229	0.0179878
635.308	0.0181429
635.386	0.0181420
635.464	0.0180499
635.542	0.0180400
635.620	0.0182098
635.698	0.0180854
635.776	0.0182005
635.854	0.0181019
635.933	0.0180267
636.011	0.0181231
636.089	0.0181035
636.167	0.0181152
636.245	0.0181274
636.323	0.0180921
636.401	0.0181635
636.479	0.0182082
636.558	0.0180975
636.636	0.0181538
636.714	0.0181152
636.792	0.0180914
636.870	0.0181908
636.948	0.0181760
637.026	0.0181911
637.104	0.0178883
637.183	0.0181474
637.261	0.0181843
637.339	0.0179635
637.417	0.0181840
637.495	0.0181440
637.573	0.0180951
637.651	0.0181839
637.729	0.0181164
637.808	0.0181322
637.886	0.0180125
637.964	0.0179936
638.042	0.0180972
638.120	0.0182171
638.198	0.0181474
638.276	0.0181911
638.354	0.0181020
638.433	0.0180484
638.511	0.0180656
638.589	0.0181471
638.667	0.0182463
638.745	0.0180302
638.823	0.0179141
638.901	0.0180059
638.979	0.0181377
639.058	0.0182053
639.136	0.0181060
639.214	0.0180804
639.292	0.0181160
639.370	0.0181561
639.448	0.0182294
639.526	0.0180992
639.604	0.0181828
639.683	0.0179954
639.761	0.0182075
639.839	0.0180444
639.917	0.0181283
639.995	0.0182462
640.073	0.0181369
640.151	0.0180215
640.229	0.0180957
640.308	0.0180206
640.386	0.0180723
640.464	0.0181633
640.542	0.0182191
640.620	0.0181860
640.698	0.0181660
640.776	0.0181486
640.854	0.0181380
640.933	0.0181851
641.011	0.0181258
641.089	0.0181669
641.167	0.0181620
641.245	0.0180631
641.323	0.0180846
641.401	0.0181189
641.479	0.0180466
641.558	0.0180736
641.636	0.0181205
641.714	0.0181345
641.792	0.0180665
641.870	0.0181187
641.948	0.0180238
642.026	0.0181345
642.104	0.0179628
642.183	0.0182220
642.261	0.0181199
642.339	0.0181583
642.417	0.0179986
642.495	0.0179644
642.573	0.0181485
642.651	0.0179874
642.729	0.0181004
642.808	0.0181258
642.886	0.0181060
642.964	0.0179688
643.042	0.0181730
643.120	0.0181530
643.198	0.0181704
643.276	0.0180513
643.354	0.0180997
643.433	0.0181671
643.511	0.0180533
643.589	0.0180370
643.667	0.0180958
643.745	0.0180983
643.823	0.0179949
643.901	0.0180571
643.979	0.0180513
644.058	0.0180197
644.136	0.0180927
644.214	0.0181127
644.292	0.0181966
644.370	0.0180602
644.448	0.0180976
644.526	0.0181824
644.604	0.0181402
644.683	0.0181848
644.761	0.0182395
644.839	0.0181580
644.917	0.0180647
644.995	0.0182075
645.073	0.0180383
645.151	0.0179801
645.229	0.0180969
645.308	0.0182619
645.386	0.0181004
645.464	0.0180512
645.542	0.0180742
645.620	0.0181596
645.698	0.0182487
645.776	0.0181514
645.854	0.0181670
645.933	0.0180387
646.011	0.0180555
646.089	0.0180313
646.167	0.0180274
646.245	0.0180564
646.323	0.0180932
646.401	0.0180990
646.479	0.0181764
646.558	0.0180143
646.636	0.0181510
646.714	0.0181909
646.792	0.0181074
646.870	0.0181833
646.948	0.0181391
647.026	0.0180179
647.104	0.0178925
647.183	0.0180894
647.261	0.0181776
647.339	0.0182484
647.417	0.0181173
647.495	0.0181452
647.573	0.0181457
647.651	0.0180976
647.729	0.0180030
647.808	0.0180201
647.886	0.0182093
647.964	0.0180772
648.042	0.0180496
648.120	0.0180925
648.198	0.0180917
648.276	0.0180992
648.354	0.0179651
648.433	0.0180743
648.511	0.0179647
648.589	0.0180978
648.667	0.0181153
648.745	0.0181007
648.823	0.0179991
648.901	0.0181471
648.979	0.0180087
649.058	0.0181551
649.136	0.0181970
649.214	0.0179982
649.292	0.0180794
649.370	0.0179918
649.448	0.0180875
649.526	0.0180868
649.604	0.0181249
649.683	0.0181685
649.761	0.0181337
649.839	0.0181837
649.917	0.0179451
649.995	0.0179989
650.073	0.0181587
650.151	0.0179421
650.229	0.0179669
650.308	0.0180365
650.386	0.0179750
650.464	0.0180037
650.542	0.0179742
650.620	0.0181326
650.698	0.0180746
650.776	0.0180672
650.854	0.0179913
650.933	0.0180389
651.011	0.0180976
651.089	0.0180087
651.167	0.0181604
651.245	0.0180384
651.323	0.0180750
651.401	0.0180888
651.479	0.0181688
651.558	0.0180875
651.636	0.0181366
651.714	0.0181560
651.792	0.0180667
651.870	0.0180976
651.948	0.0180732
652.026	0.0181145
652.104	0.0181934
652.183	0.0180489
652.261	0.0180830
652.339	0.0182056
652.417	0.0181872
652.495	0.0180498
652.573	0.0180585
652.651	0.0181211
652.729	0.0180231
652.808	0.0180310
652.886	0.0179974
652.964	0.0181184
653.042	0.0181821
653.120	0.0180554
653.198	0.0180000
653.276	0.0180934
653.354	0.0180649
653.433	0.0179390
653.511	0.0180614
653.589	0.0182040
653.667	0.0180637
653.745	0.0180676
653.823	0.0180402
653.901	0.0181178
653.979	0.0181647
654.058	0.0180565
654.136	0.0180191
654.214	0.0180505
654.292	0.0179977
654.370	0.0181398
654.448	0.0181239
654.526	0.0181816
654.604	0.0180966
654.683	0.0180379
654.761	0.0181406
654.839	0.0180438
654.917	0.0180900
654.995	0.0180451
655.073	0.0181767
655.151	0.0181151
655.229	0.0180637
655.308	0.0181339
655.386	0.0181550
655.464	0.0180883
655.542	0.0180215
655.620	0.0180093
655.698	0.0179956
655.776	0.0180610
655.854	0.0182126
655.933	0.0180958
656.011	0.0180751
656.089	0.0180916
656.167	0.0181905
656.245	0.0181342
656.323	0.0181595
656.401	0.0180060
656.479	0.0180570
656.558	0.0181340
656.636	0.0180232
656.714	0.0180303
656.792	0.0179188
656.870	0.0180993
656.948	0.0181499
657.026	0.0179747
657.104	0.0180039
657.183	0.0182248
657.261	0.0181551
657.339	0.0179720
657.417	0.0182066
657.495	0.0179444
657.573	0.0180299
657.651	0.0181435
657.729	0.0181291
657.808	0.0180350
657.886	0.0178889
657.964	0.0180398
658.042	0.0180287
658.120	0.0181329
658.198	0.0180733
658.276	0.0180972
658.354	0.0181300
658.433	0.0181261
658.511	0.0181380
658.589	0.0182159
658.667	0.0182199
658.745	0.0180780
658.823	0.0180601
658.901	0.0179765
658.979	0.0181932
659.058	0.0181919
659.136	0.0181756
659.214	0.0179892
659.292	0.0180444
659.370	0.0182838
659.448	0.0181712
659.526	0.0181042
659.604	0.0180872
659.683	0.0181620
659.761	0.0181861
659.839	0.0182528
659.917	0.0179501
659.995	0.0181190
660.073	0.0181472
660.151	0.0181751
660.229	0.0182573
660.308	0.0180920
660.386	0.0181425
660.464	0.0181632
660.542	0.0181123
660.620	0.0181792
660.698	0.0180291
660.776	0.0180711
660.854	0.0180531
660.933	0.0181636
661.011	0.0180370
661.089	0.0180127
661.167	0.0182208
661.245	0.0181523
661.323	0.0181121
661.401	0.0181839
661.479	0.0181461
661.558	0.0182162
661.636	0.0180136
661.714	0.0180665
661.792	0.0181026
661.870	0.0181383
661.948	0.0180750
662.026	0.0182378
662.104	0.0180762
662.183	0.0181462
662.261	0.0181295
662.339	0.0182619
662.417	0.0180958
662.495	0.0181364
662.573	0.0181123
662.651	0.0180192
662.729	0.0181007
662.808	0.0181082
662.886	0.0181299
662.964	0.0181411
663.042	0.0181177
663.120	0.0179776
663.198	0.0181342
663.276	0.0181217
663.354	0.0181179
663.433	0.0181572
663.511	0.0181163
663.589	0.0181936
663.667	0.0182185
663.745	0.0179919
663.823	0.0180151
663.901	0.0181021
663.979	0.0181947
664.058	0.0181937
664.136	0.0181875
664.214	0.0182143
664.292	0.0180737
664.370	0.0181348
664.448	0.0181256
664.526	0.0182157
664.604	0.0180966
664.683	0.0181001
664.761	0.0180570
664.839	0.0181395
664.917	0.0180202
664.995	0.0180819
665.073	0.0181198
665.151	0.0181456
665.229	0.0180450
665.308	0.0181095
665.386	0.0178952
665.464	0.0180467
665.542	0.0182621
665.620	0.0181474
665.698	0.0181962
665.776	0.0182494
665.854	0.0183118
665.933	0.0183025
666.011	0.0182272
666.089	0.0181017
666.167	0.0182496
666.245	0.0181415
666.323	0.0180527
666.401	0.0182620
666.479	0.0181249
666.558	0.0179244
666.636	0.0176676
666.714	0.0178189
666.792	0.0178352
666.870	0.0178306
666.948	0.0179155
667.026	0.0179721
667.104	0.0180688
667.183	0.0181356
667.261	0.0183274
667.339	0.0183602
667.417	0.0184459
667.495	0.0184089
667.573	0.0185229
667.651	0.0182714
667.729	0.0182379
667.808	0.0181804
667.886	0.0181358
667.964	0.0180297
668.042	0.0180506
668.120	0.0180797
668.198	0.0180166
668.276	0.0179679
668.354	0.0179662
668.433	0.0178671
668.511	0.0178548
668.589	0.0178264
668.667	0.0178221
668.745	0.0178367
668.823	0.0178059
668.901	0.0178993
668.979	0.0180543
669.058	0.0181322
669.136	0.0182518
669.214	0.0182476
669.292	0.0182906
669.370	0.0185165
669.448	0.0185033
669.526	0.0185249
669.604	0.0185107
669.683	0.0185513
669.761	0.0183656
669.839	0.0182273
669.917	0.0181956
669.995	0.0180001
670.073	0.0179931
670.151	0.0176659
670.229	0.0176553
670.308	0.0176939
670.386	0.0175376
670.464	0.0174493
670.542	0.0175681
670.620	0.0176352
670.698	0.0177173
670.776	0.0178433
670.854	0.0180409
670.933	0.0182316
671.011	0.0182880
671.089	0.0183137
671.167	0.0183960
671.245	0.0184329
671.323	0.0184523
671.401	0.0184614
671.479	0.0185524
671.558	0.0184797
671.636	0.0183851
671.714	0.0184019
671.792	0.0181964
671.870	0.0181928
671.948	0.0179124
672.026	0.0179382
672.104	0.0177012
672.183	0.0174879
672.261	0.0177052
672.339	0.0175565
672.417	0.0177868
672.495	0.0176987
672.573	0.0177328
672.651	0.0177217
672.729	0.0178617
672.808	0.0180353
672.886	0.0181882
672.964	0.0182308
673.042	0.0182849
673.120	0.0184946
673.198	0.0182947
673.276	0.0183611
673.354	0.0185057
673.433	0.0184534
673.511	0.0184175
673.589	0.0182319
673.667	0.0183111
673.745	0.0183218
673.823	0.0182347
673.901	0.0182569
673.979	0.0181647
674.058	0.0180329
674.136	0.0178555
674.214	0.0177309
674.292	0.0175581
674.370	0.0175536
674.448	0.0175092
674.526	0.0174873
674.604	0.0175134
674.683	0.0176299
674.761	0.0177284
674.839	0.0178909
674.917	0.0181255
674.995	0.0181013
675.073	0.0183450
675.151	0.0184184
675.229	0.0185583
675.308	0.0188145
675.386	0.0187856
675.464	0.0186665
675.542	0.0185607
675.620	0.0184159
675.698	0.0181233
675.776	0.0178971
675.854	0.0179109
675.933	0.0178506
676.011	0.0178538
676.089	0.0176112
676.167	0.0175262
676.245	0.0175924
676.323	0.0177679
676.401	0.0178233
676.479	0.0177357
676.558	0.0180193
676.636	0.0179687
676.714	0.0180031
676.792	0.0180463
676.870	0.0180199
676.948	0.0182018
677.026	0.0181051
677.104	0.0182328
677.183	0.0182662
677.261	0.0183009
677.339	0.0182343
677.417	0.0184445
677.495	0.0183361
677.573	0.0181788
677.651	0.0183308
677.729	0.0182253
677.808	0.0182303
677.886	0.0180180
677.964	0.0180602
678.042	0.0181690
678.120	0.0177984
678.198	0.0176839
678.276	0.0178612
678.354	0.0177906
678.433	0.0179048
678.511	0.0177705
678.589	0.0178990
678.667	0.0180333
678.745	0.0180923
678.823	0.0181858
678.901	0.0181170
678.979	0.0181287
679.058	0.0181798
679.136	0.0182291
679.214	0.0184188
679.292	0.0181741
679.370	0.0180989
679.448	0.0182711
679.526	0.0183041
679.604	0.0182133
679.683	0.0181473
679.761	0.0180836
679.839	0.0180654
679.917	0.0180587
679.995	0.0179045
680.073	0.0178817
680.151	0.0176839
680.229	0.0180016
680.308	0.0179951
680.386	0.0180247
680.464	0.0179174
680.542	0.0179794
680.620	0.0180320
680.698	0.0180968
680.776	0.0180795
680.854	0.0180615
680.933	0.0181975
681.011	0.0182521
681.089	0.0181426
681.167	0.0181326
681.245	0.0181039
681.323	0.0182899
681.401	0.0183446
681.479	0.0182323
681.558	0.0182761
681.636	0.0182404
681.714	0.0182783
681.792	0.0181930
681.870	0.0182385
681.948	0.0182138
682.026	0.0181954
682.104	0.0181913
682.183	0.0180093
682.261	0.0179884
682.339	0.0180444
682.417	0.0179214
682.495	0.0179280
682.573	0.0179086
682.651	0.0178943
682.729	0.0178525
682.808	0.0180278
682.886	0.0179524
682.964	0.0181045
683.042	0.0181458
683.120	0.0182335
683.198	0.0183737
683.276	0.0182857
683.354	0.0183273
683.433	0.0184120
683.511	0.0183442
683.589	0.0182433
683.667	0.0183787
683.745	0.0182450
683.823	0.0181200
683.901	0.0179788
683.979	0.0180466
684.058	0.0181584
684.136	0.0180190
684.214	0.0178893
684.292	0.0179298
684.370	0.0180055
684.448	0.0179772
684.526	0.0179468
684.604	0.0179292
684.683	0.0179686
684.761	0.0182172
684.839	0.0182269
684.917	0.0183453
684.995	0.0186503
685.073	0.0183857
685.151	0.0185970
685.229	0.0185517
685.308	0.0186497
685.386	0.0185561
685.464	0.0184741
685.542	0.0182620
685.620	0.0182062
685.698	0.0180556
685.776	0.0179784
685.854	0.0179051
685.933	0.0178378
686.011	0.0177771
686.089	0.0175906
686.167	0.0175539
686.245	0.0176373
686.323	0.0176125
686.401	0.0175681
686.479	0.0177438
686.558	0.0177275
686.636	0.0179123
686.714	0.0178333
686.792	0.0178507
686.870	0.0180219
686.948	0.0180694
687.026	0.0182520
687.104	0.0181272
687.183	0.0181644
687.261	0.0182729
687.339	0.0183942
687.417	0.0182923
687.495	0.0183266
687.573	0.0183050
687.651	0.0184344
687.729	0.0183144
687.808	0.0183088
687.886	0.0182925
687.964	0.0184949
688.042	0.0184330
688.120	0.0181911
688.198	0.0181104
688.276	0.0183675
688.354	0.0182163
688.433	0.0179931
688.511	0.0182438
688.589	0.0181226
688.667	0.0179893
688.745	0.0179412
688.823	0.0179685
688.901	0.0179017
688.979	0.0180080
689.058	0.0180723
689.136	0.0181244
689.214	0.0181951
689.292	0.0181984
689.370	0.0183491
689.448	0.0183571
689.526	0.0184286
689.604	0.0182919
689.683	0.0181915
689.761	0.0181062
689.839	0.0179771
689.917	0.0179434
689.995	0.0178308
690.073	0.0177366
690.151	0.0175455
690.229	0.0176579
690.308	0.0174053
690.386	0.0174560
690.464	0.0173711
690.542	0.0175845
690.620	0.0175391
690.698	0.0175908
690.776	0.0177296
690.854	0.0177779
690.933	0.0178367
691.011	0.0180061
691.089	0.0180375
691.167	0.0181544
691.245	0.0183506
691.323	0.0182625
691.401	0.0183519
691.479	0.0182561
691.558	0.0184183
691.636	0.0183424
691.714	0.0182223
691.792	0.0183549
691.870	0.0184237
691.948	0.0184484
692.026	0.0184545
692.104	0.0182954
692.183	0.0183981
692.261	0.0183083
692.339	0.0183325
692.417	0.0183291
692.495	0.0183827
692.573	0.0182188
692.651	0.0183927
692.729	0.0183097
692.808	0.0182725
692.886	0.0183829
692.964	0.0184023
693.042	0.0184699
693.120	0.0185342
693.198	0.0183693
693.276	0.0182802
693.354	0.0182868
693.433	0.0182603
693.511	0.0183076
693.589	0.0181180
693.667	0.0181390
693.745	0.0181158
693.823	0.0179479
693.901	0.0177863
693.979	0.0178066
694.058	0.0176323
694.136	0.0175612
694.214	0.0175217
694.292	0.0175551
694.370	0.0174498
694.448	0.0174700
694.526	0.0175282
694.604	0.0175130
694.683	0.0173477
694.761	0.0176202
694.839	0.0176734
694.917	0.0177278
694.995	0.0177550
695.073	0.0179742
695.151	0.0179883
695.229	0.0180550
695.308	0.0179430
695.386	0.0180843
695.464	0.0181998
695.542	0.0180526
695.620	0.0180115
695.698	0.0179202
695.776	0.0178751
695.854	0.0177984
695.933	0.0178313
696.011	0.0177429
696.089	0.0178615
696.167	0.0178225
696.245	0.0178651
696.323	0.0180068
696.401	0.0180602
696.479	0.0179177
696.558	0.0181654
696.636	0.0183369
696.714	0.0183600
696.792	0.0185670
696.870	0.0184615
696.948	0.0187489
697.026	0.0186684
697.104	0.0186015
697.183	0.0186671
697.261	0.0186452
697.339	0.0187063
697.417	0.0187817
697.495	0.0186447
697.573	0.0184974
697.651	0.0185458
697.729	0.0184416
697.808	0.0184727
697.886	0.0186026
697.964	0.0184813
698.042	0.0185920
698.120	0.0184921
698.198	0.0185295
698.276	0.0185087
698.354	0.0184192
698.433	0.0183537
698.511	0.0182491
698.589	0.0183462
698.667	0.0183908
698.745	0.0182894
698.823	0.0181612
698.901	0.0179715
698.979	0.0180364
699.058	0.0179691
699.136	0.0177972
699.214	0.0176913
699.292	0.0175918
699.370	0.0175798
699.448	0.0174493
699.526	0.0175770
699.604	0.0175622
699.683	0.0173192
699.761	0.0172945
699.839	0.0171709
699.917	0.0171255
699.995	0.0170894
700.073	0.0172507
700.151	0.0172239
700.229	0.0172192
700.308	0.0173139
700.386	0.0173698
700.464	0.0173280
700.542	0.0173001
700.620	0.0174194
700.698	0.0176603
700.776	0.0177126
700.854	0.0177439
700.933	0.0179384
701.011	0.0180429
701.089	0.0180101
701.167	0.0181992
701.245	0.0183912
701.323	0.0183683
701.401	0.0184237
701.479	0.0184311
701.558	0.0184841
701.636	0.0184531
701.714	0.0186165
701.792	0.0185728
701.870	0.0186034
701.948	0.0185752
702.026	0.0185099
702.104	0.0184402
702.183	0.0184711
702.261	0.0185654
702.339	0.0185285
702.417	0.0186237
702.495	0.0186589
702.573	0.0187155
702.651	0.0188672
702.729	0.0189096
702.808	0.0190128
702.886	0.0189734
702.964	0.0189359
703.042	0.0190488
703.120	0.0191396
703.198	0.0190072
703.276	0.0189256
703.354	0.0188671
703.433	0.0189573
703.511	0.0190213
703.589	0.0187809
703.667	0.0188530
703.745	0.0187341
703.823	0.0186385
703.901	0.0185136
703.979	0.0183899
704.058	0.0183955
704.136	0.0183088
704.214	0.0181616
704.292	0.0180302
704.370	0.0180300
704.448	0.0179735
704.526	0.0177718
704.604	0.0174754
704.683	0.0171764
704.761	0.0171014
704.839	0.0169509
704.917	0.0168150
704.995	0.0165258
705.073	0.0165097
705.151	0.0163713
705.229	0.0163284
705.308	0.0163297
705.386	0.0163273
705.464	0.0164202
705.542	0.0164972
705.620	0.0163672
705.698	0.0167162
705.776	0.0168805
705.854	0.0170827
705.933	0.0172519
706.011	0.0174033
706.089	0.0176214
706.167	0.0176884
706.245	0.0177633
706.323	0.0178934
706.401	0.0181809
706.479	0.0182338
706.558	0.0183720
706.636	0.0185937
706.714	0.0187185
706.792	0.0187405
706.870	0.0189277
706.948	0.0191920
707.026	0.0192568
707.104	0.0193029
707.183	0.0192887
707.261	0.0193895
707.339	0.0194437
707.417	0.0194096
707.495	0.0192554
707.573	0.0192159
707.651	0.0191183
707.729	0.0190443
707.808	0.0190350
707.886	0.0187878
707.964	0.0185958
708.042	0.0185810
708.120	0.0184265
708.198	0.0184137
708.276	0.0183360
708.354	0.0184382
708.433	0.0183988
708.511	0.0184969
708.589	0.0185280
708.667	0.0184949
708.745	0.0184917
708.823	0.0186749
708.901	0.0187797
708.979	0.0187475
709.058	0.0188382
709.136	0.0187340
709.214	0.0187915
709.292	0.0188669
709.370	0.0188106
709.448	0.0187796
709.526	0.0187303
709.604	0.0186225
709.683	0.0185529
709.761	0.0184301
709.839	0.0182533
709.917	0.0179951
709.995	0.0178760
710.073	0.0174451
710.151	0.0171455
710.229	0.0170420
710.308	0.0166669
710.386	0.0166458
710.464	0.0163768
710.542	0.0163941
710.620	0.0163655
710.698	0.0163544
710.776	0.0164734
710.854	0.0163676
710.933	0.0166000
711.011	0.0165157
711.089	0.0166502
711.167	0.0167338
711.245	0.0168330
711.323	0.0169528
711.401	0.0171083
711.479	0.0172675
711.558	0.0174159
711.636	0.0175922
711.714	0.0176991
711.792	0.0177989
711.870	0.0180518
711.948	0.0181130
712.026	0.0181630
712.104	0.0182642
712.183	0.0182046
712.261	0.0183627
712.339	0.0180847
712.417	0.0181292
712.495	0.0182549
712.573	0.0179516
712.651	0.0179641
712.729	0.0180597
712.808	0.0180470
712.886	0.0181893
712.964	0.0183698
713.042	0.0186082
713.120	0.0187660
713.198	0.0191741
713.276	0.0193683
713.354	0.0197080
713.433	0.0198430
713.511	0.0201657
713.589	0.0202065
713.667	0.0201568
713.745	0.0202141
713.823	0.0202197
713.901	0.0201093
713.979	0.0197079
714.058	0.0194769
714.136	0.0192629
714.214	0.0189803
714.292	0.0188433
714.370	0.0186938
714.448	0.0183316
714.526	0.0182410
714.604	0.0182297
714.683	0.0182230
714.761	0.0182111
714.839	0.0180704
714.917	0.0180297
714.995	0.0179264
715.073	0.0179263
715.151	0.0180257
715.229	0.0178197
715.308	0.0176965
715.386	0.0174542
715.464	0.0175096
715.542	0.0171406
715.620	0.0172090
715.698	0.0171058
715.776	0.0169888
715.854	0.0171428
715.933	0.0169843
716.011	0.0171622
716.089	0.0170991
716.167	0.0172369
716.245	0.0172765
716.323	0.0174406
716.401	0.0174716
716.479	0.0175369
716.558	0.0176252
716.636	0.0176680
716.714	0.0177110
716.792	0.0175934
716.870	0.0176523
716.948	0.0178146
717.026	0.0177550
717.104	0.0176094
717.183	0.0178169
717.261	0.0178485
717.339	0.0177553
717.417	0.0178430
717.495	0.0178915
717.573	0.0178588
717.651	0.0178687
717.729	0.0178139
717.808	0.0178848
717.886	0.0175896
717.964	0.0174673
718.042	0.0174515
718.120	0.0174178
718.198	0.0174039
718.276	0.0173863
718.354	0.0173283
718.433	0.0174825
718.511	0.0175634
718.589	0.0176447
718.667	0.0175876
718.745	0.0177532
718.823	0.0179454
718.901	0.0180991
718.979	0.0180087
719.058	0.0182620
719.136	0.0182401
719.214	0.0184462
719.292	0.0184469
719.370	0.0187092
719.448	0.0187448
719.526	0.0189114
719.604	0.0191494
719.683	0.0192238
719.761	0.0193682
719.839	0.0194337
719.917	0.0196555
719.995	0.0197642
720.073	0.0199099
720.151	0.0198132
720.229	0.0198988
720.308	0.0199991
720.386	0.0200826
720.464	0.0200842
720.542	0.0199806
720.620	0.0197606
720.698	0.0196825
720.776	0.0196642
720.854	0.0193011
720.933	0.0191667
721.011	0.0188876
721.089	0.0187638
721.167	0.0185413
721.245	0.0183791
721.323	0.0181551
721.401	0.0181222
721.479	0.0178359
721.558	0.0177084
721.636	0.0176325
721.714	0.0174309
721.792	0.0172263
721.870	0.0171639
721.948	0.0171867
722.026	0.0170876
722.104	0.0169006
722.183	0.0166935
722.261	0.0165353
722.339	0.0164507
722.417	0.0163234
722.495	0.0161914
722.573	0.0160336
722.651	0.0160087
722.729	0.0159039
722.808	0.0160851
722.886	0.0160841
722.964	0.0162405
723.042	0.0164175
723.120	0.0165022
723.198	0.0165285
723.276	0.0168423
723.354	0.0170420
723.433	0.0172583
723.511	0.0173348
723.589	0.0174068
723.667	0.0177595
723.745	0.0179350
723.823	0.0182022
723.901	0.0183087
723.979	0.0185008
724.058	0.0185892
724.136	0.0186493
724.214	0.0186452
724.292	0.0188006
724.370	0.0187825
724.448	0.0188651
724.526	0.0188433
724.604	0.0188492
724.683	0.0187823
724.761	0.0187521
724.839	0.0189113
724.917	0.0190923
724.995	0.0190696
725.073	0.0192336
725.151	0.0193002
725.229	0.0193501
725.308	0.0191765
725.386	0.0192347
725.464	0.0191038
725.542	0.0190269
725.620	0.0189195
725.698	0.0190395
725.776	0.0191173
725.854	0.0190687
725.933	0.0188329
726.011	0.0189176
726.089	0.0190972
726.167	0.0188857
726.245	0.0188900
726.323	0.0190334
726.401	0.0190490
726.479	0.0189833
726.558	0.0188026
726.636	0.0187405
726.714	0.0188439
726.792	0.0186651
726.870	0.0185513
726.948	0.0186231
727.026	0.0184618
727.104	0.0183005
727.183	0.0182889
727.261	0.0179940
727.339	0.0178439
727.417	0.0177757
727.495	0.0175580
727.573	0.0174104
727.651	0.0175475
727.729	0.0173688
727.808	0.0175310
727.886	0.0174249
727.964	0.0173435
728.042	0.0175475
728.120	0.0176367
728.198	0.0177686
728.276	0.0177310
728.354	0.0178371
728.433	0.0178708
728.511	0.0177048
728.589	0.0176306
728.667	0.0174551
728.745	0.0172280
728.823	0.0170300
728.901	0.0169651
728.979	0.0168420
729.058	0.0165265
729.136	0.0163532
729.214	0.0162365
729.292	0.0164521
729.370	0.0166025
729.448	0.0166236
729.526	0.0169510
729.604	0.0169178
729.683	0.0172086
729.761	0.0175911
729.839	0.0178216
729.917	0.0181326
729.995	0.0183878
730.073	0.0184410
730.151	0.0185755
730.229	0.0186921
730.308	0.0187505
730.386	0.0187431
730.464	0.0186026
730.542	0.0184261
730.620	0.0185354
730.698	0.0183369
730.776	0.0183533
730.854	0.0181882
730.933	0.0182872
731.011	0.0181946
731.089	0.0181269
731.167	0.0183038
731.245	0.0182612
731.323	0.0183438
731.401	0.0185527
731.479	0.0186031
731.558	0.0186513
731.636	0.0188541
731.714	0.0187825
731.792	0.0189375
731.870	0.0189699
731.948	0.0190180
732.026	0.0191278
732.104	0.0190763
732.183	0.0192380
732.261	0.0189574
732.339	0.0189000
732.417	0.0189345
732.495	0.0187090
732.573	0.0186262
732.651	0.0186243
732.729	0.0184844
732.808	0.0184890
732.886	0.0184708
732.964	0.0185570
733.042	0.0186378
733.120	0.0185038
733.198	0.0187469
733.276	0.0186545
733.354	0.0186936
733.433	0.0187469
733.511	0.0187552
733.589	0.0187021
733.667	0.0187158
733.745	0.0185789
733.823	0.0183718
733.901	0.0184330
733.979	0.0185604
734.058	0.0181900
734.136	0.0179896
734.214	0.0179551
734.292	0.0178824
734.370	0.0176410
734.448	0.0173891
734.526	0.0173202
734.604	0.0173180
734.683	0.0171133
734.761	0.0167953
734.839	0.0169127
734.917	0.0166463
734.995	0.0167258
735.073	0.0166558
735.151	0.0165850
735.229	0.0165588
735.308	0.0165842
735.386	0.0166571
735.464	0.0166573
735.542	0.0165515
735.620	0.0166445
735.698	0.0167779
735.776	0.0168484
735.854	0.0170364
735.933	0.0170514
736.011	0.0170659
736.089	0.0170912
736.167	0.0172576
736.245	0.0174228
736.323	0.0176206
736.401	0.0174540
736.479	0.0178306
736.558	0.0178183
736.636	0.0177306
736.714	0.0178072
736.792	0.0179025
736.870	0.0181448
736.948	0.0182626
737.026	0.0182481
737.104	0.0183717
737.183	0.0186639
737.261	0.0187463
737.339	0.0188021
737.417	0.0188927
737.495	0.0189946
737.573	0.0190358
737.651	0.0191959
737.729	0.0194158
737.808	0.0194344
737.886	0.0193561
737.964	0.0195125
738.042	0.0194664
738.120	0.0195358
738.198	0.0194952
738.276	0.0195449
738.354	0.0195092
738.433	0.0193488
738.511	0.0194864
738.589	0.0193297
738.667	0.0192259
738.745	0.0191975
738.823	0.0190658
738.901	0.0190582
738.979	0.0189492
739.058	0.0188846
739.136	0.0188241
739.214	0.0187257
739.292	0.0186865
739.370	0.0185392
739.448	0.0186266
739.526	0.0185487
739.604	0.0185583
739.683	0.0184061
739.761	0.0185205
739.839	0.0184966
739.917	0.0181942
739.995	0.0180313
740.073	0.0180927
740.151	0.0178806
740.229	0.0176706
740.308	0.0175230
740.386	0.0176493
740.464	0.0172891
740.542	0.0171081
740.620	0.0169285
740.698	0.0169952
740.776	0.0168353
740.854	0.0165919
740.933	0.0165361
741.011	0.0163110
741.089	0.0163596
741.167	0.0163589
741.245	0.0162021
741.323	0.0162539
741.401	0.0161710
741.479	0.0163504
741.558	0.0164391
741.636	0.0164843
741.714	0.0164859
741.792	0.0165672
741.870	0.0166434
741.948	0.0168162
742.026	0.0169692
742.104	0.0169637
742.183	0.0171992
742.261	0.0173354
742.339	0.0174379
742.417	0.0174908
742.495	0.0178648
742.573	0.0180145
742.651	0.0180395
742.729	0.0182135
742.808	0.0184521
742.886	0.0185801
742.964	0.0186507
743.042	0.0187404
743.120	0.0189906
743.198	0.0190759
743.276	0.0189583
743.354	0.0191463
743.433	0.0194158
743.511	0.0194983
743.589	0.0194798
743.667	0.0195713
743.745	0.0195602
743.823	0.0197321
743.901	0.0196418
743.979	0.0197346
744.058	0.0198293
744.136	0.0197615
744.214	0.0196731
744.292	0.0195500
744.370	0.0194995
744.448	0.0194982
744.526	0.0193749
744.604	0.0192236
744.683	0.0192771
744.761	0.0192782
744.839	0.0190356
744.917	0.0190109
744.995	0.0188875
745.073	0.0188412
745.151	0.0187148
745.229	0.0186508
745.308	0.0186669
745.386	0.0185869
745.464	0.0184590
745.542	0.0182921
745.620	0.0183107
745.698	0.0182237
745.776	0.0181125
745.854	0.0180340
745.933	0.0177428
746.011	0.0176274
746.089	0.0175787
746.167	0.0174190
746.245	0.0173981
746.323	0.0171406
746.401	0.0169821
746.479	0.0169209
746.558	0.0169424
746.636	0.0166487
746.714	0.0165372
746.792	0.0163895
746.870	0.0165988
746.948	0.0164899
747.026	0.0165343
747.104	0.0164964
747.183	0.0165981
747.261	0.0166057
747.339	0.0166958
747.417	0.0167556
747.495	0.0168148
747.573	0.0168736
747.651	0.0169697
747.729	0.0170074
747.808	0.0171352
747.886	0.0171903
747.964	0.0173968
748.042	0.0174385
748.120	0.0173782
748.198	0.0174331
748.276	0.0176669
748.354	0.0176688
748.433	0.0178861
748.511	0.0179459
748.589	0.0180986
748.667	0.0182629
748.745	0.0184776
748.823	0.0185791
748.901	0.0188619
748.979	0.0188950
749.058	0.0189587
749.136	0.0190932
749.214	0.0190725
749.292	0.0191453
749.370	0.0192565
749.448	0.0192416
749.526	0.0192883
749.604	0.0193406
749.683	0.0191464
749.761	0.0191848
749.839	0.0191994
749.917	0.0192048
749.995	0.0191752
750.073	0.0193235
750.151	0.0194115
750.229	0.0194160
750.308	0.0193311
750.386	0.0192514
750.464	0.0192682
750.542	0.0192292
750.620	0.0192075
750.698	0.0190327
750.776	0.0191121
750.854	0.0190202
750.933	0.0188612
751.011	0.0188295
751.089	0.0187179
751.167	0.0185575
751.245	0.0184312
751.323	0.0183524
751.401	0.0181013
751.479	0.0181129
751.558	0.0178752
751.636	0.0177402
751.714	0.0175335
751.792	0.0174028
751.870	0.0172482
751.948	0.0172629
752.026	0.0170999
752.104	0.0169589
752.183	0.0169167
752.261	0.0169409
752.339	0.0169622
752.417	0.0169884
752.495	0.0171709
752.573	0.0171082
752.651	0.0171264
752.729	0.0173579
752.808	0.0173102
752.886	0.0176534
752.964	0.0176175
753.042	0.0173683
753.120	0.0175962
753.198	0.0175236
753.276	0.0175262
753.354	0.0174136
753.433	0.0174137
753.511	0.0173732
753.589	0.0173494
753.667	0.0172382
753.745	0.0172800
753.823	0.0172824
753.901	0.0173275
753.979	0.0173962
754.058	0.0173454
754.136	0.0174578
754.214	0.0174030
754.292	0.0174414
754.370	0.0176616
754.448	0.0176911
754.526	0.0177991
754.604	0.0180627
754.683	0.0179489
754.761	0.0182563
754.839	0.0184426
754.917	0.0184879
754.995	0.0186294
755.073	0.0188383
755.151	0.0190534
755.229	0.0189738
755.308	0.0190141
755.386	0.0191786
755.464	0.0191493
755.542	0.0191805
755.620	0.0192480
755.698	0.0191113
755.776	0.0191314
755.854	0.0191261
755.933	0.0190083
756.011	0.0189997
756.089	0.0188571
756.167	0.0190019
756.245	0.0189551
756.323	0.0188372
756.401	0.0189602
756.479	0.0187893
756.558	0.0188033
756.636	0.0189371
756.714	0.0188232
756.792	0.0188582
756.870	0.0187435
756.948	0.0186617
757.026	0.0186348
757.104	0.0184378
757.183	0.0183579
757.261	0.0182401
757.339	0.0180292
757.417	0.0179333
757.495	0.0177835
757.573	0.0175267
757.651	0.0175236
757.729	0.0174874
757.808	0.0173597
757.886	0.0171059
757.964	0.0170740
758.042	0.0171293
758.120	0.0171915
758.198	0.0173024
758.276	0.0173648
758.354	0.0175121
758.433	0.0174734
758.511	0.0175782
758.589	0.0177280
758.667	0.0177533
758.745	0.0177402
758.823	0.0178176
758.901	0.0179068
758.979	0.0180068
759.058	0.0180946
759.136	0.0181569
759.214	0.0181586
759.292	0.0180147
759.370	0.0179842
759.448	0.0179585
759.526	0.0179279
759.604	0.0180631
759.683	0.0177860
759.761	0.0176184
759.839	0.0175139
759.917	0.0174536
759.995	0.0173580
760.073	0.0173712
760.151	0.0172771
760.229	0.0172079
760.308	0.0173254
760.386	0.0171580
760.464	0.0172678
760.542	0.0175660
760.620	0.0175669
760.698	0.0178680
760.776	0.0178899
760.854	0.0180522
760.933	0.0182083
761.011	0.0184836
761.089	0.0185765
761.167	0.0185532
761.245	0.0187750
761.323	0.0187203
761.401	0.0189600
761.479	0.0189546
761.558	0.0189367
761.636	0.0189265
761.714	0.0190403
761.792	0.0187675
761.870	0.0188308
761.948	0.0189280
762.026	0.0187139
762.104	0.0185112
762.183	0.0184088
762.261	0.0184484
762.339	0.0181831
762.417	0.0182843
762.495	0.0182230
762.573	0.0181694
762.651	0.0182146
762.729	0.0182664
762.808	0.0182569
762.886	0.0180351
762.964	0.0179984
763.042	0.0180605
763.120	0.0180428
763.198	0.0179690
763.276	0.0178726
763.354	0.0179008
763.433	0.0176942
763.511	0.0176157
763.589	0.0175137
763.667	0.0174450
763.745	0.0176292
763.823	0.0174218
763.901	0.0174548
763.979	0.0176321
764.058	0.0176258
764.136	0.0176220
764.214	0.0178638
764.292	0.0180468
764.370	0.0182284
764.448	0.0183624
764.526	0.0184317
764.604	0.0185381
764.683	0.0187527
764.761	0.0187968
764.839	0.0187605
764.917	0.0188255
764.995	0.0189111
765.073	0.0188564
765.151	0.0189176
765.229	0.0188109
765.308	0.0185073
765.386	0.0183413
765.464	0.0184098
765.542	0.0181258
765.620	0.0179483
765.698	0.0176529
765.776	0.0174439
765.854	0.0173707
765.933	0.0173613
766.011	0.0171325
766.089	0.0171715
766.167	0.0170834
766.245	0.0169769
766.323	0.0170895
766.401	0.0172488
766.479	0.0170529
766.558	0.0173235
766.636	0.0173306
766.714	0.0173575
766.792	0.0173815
766.870	0.0174118
766.948	0.0176098
767.026	0.0175479
767.104	0.0177122
767.183	0.0179828
767.261	0.0180497
767.339	0.0180865
767.417	0.0182930
767.495	0.0183826
767.573	0.0182564
767.651	0.0182363
767.729	0.0183144
767.808	0.0184048
767.886	0.0184955
767.964	0.0184120
768.042	0.0182224
768.120	0.0182743
768.198	0.0183747
768.276	0.0183349
768.354	0.0182548
768.433	0.0183849
768.511	0.0184600
768.589	0.0185114
768.667	0.0184953
768.745	0.0185939
768.823	0.0185903
768.901	0.0186469
768.979	0.0187705
769.058	0.0185925
769.136	0.0185474
769.214	0.0185057
769.292	0.0184076
769.370	0.0182466
769.448	0.0182431
769.526	0.0180689
769.604	0.0179170
769.683	0.0178038
769.761	0.0178048
769.839	0.0178699
769.917	0.0177694
769.995	0.0178287
770.073	0.0178160
770.151	0.0177898
770.229	0.0179009
770.308	0.0180801
770.386	0.0179767
770.464	0.0181613
770.542	0.0181960
770.620	0.0181964
770.698	0.0184644
770.776	0.0183723
770.854	0.0183997
770.933	0.0184306
771.011	0.0183434
771.089	0.0184131
771.167	0.0186330
771.245	0.0183330
771.323	0.0181678
771.401	0.0179041
771.479	0.0179615
771.558	0.0178339
771.636	0.0176187
771.714	0.0176173
771.792	0.0174650
771.870	0.0173920
771.948	0.0172981
772.026	0.0174234
772.104	0.0174368
772.183	0.0175323
772.261	0.0173692
772.339	0.0175682
772.417	0.0176144
772.495	0.0176496
772.573	0.0177045
772.651	0.0177147
772.729	0.0177704
772.808	0.0178433
772.886	0.0179092
772.964	0.0180605
773.042	0.0180196
773.120	0.0180562
773.198	0.0180827
773.276	0.0183587
773.354	0.0183746
773.433	0.0183849
773.511	0.0183269
773.589	0.0184554
773.667	0.0183778
773.745	0.0184202
773.823	0.0183941
773.901	0.0182590
773.979	0.0183837
774.058	0.0183863
774.136	0.0184163
774.214	0.0182045
774.292	0.0181635
774.370	0.0182616
774.448	0.0181450
774.526	0.0181178
774.604	0.0181819
774.683	0.0181953
774.761	0.0182352
774.839	0.0180737
774.917	0.0182653
774.995	0.0183926
775.073	0.0184414
775.151	0.0182027
775.229	0.0181976
775.308	0.0183968
775.386	0.0182270
775.464	0.0181875
775.542	0.0181670
775.620	0.0181228
775.698	0.0180437
775.776	0.0180539
775.854	0.0180283
775.933	0.0180014
776.011	0.0181152
776.089	0.0180794
776.167	0.0180969
776.245	0.0180443
776.323	0.0181750
776.401	0.0182542
776.479	0.0182421
776.558	0.0185011
776.636	0.0183830
776.714	0.0184097
776.792	0.0183759
776.870	0.0185881
776.948	0.0184151
777.026	0.0184895
777.104	0.0184050
777.183	0.0182962
777.261	0.0185226
777.339	0.0184489
777.417	0.0182506
777.495	0.0182542
777.573	0.0183150
777.651	0.0180885
777.729	0.0178539
777.808	0.0179182
777.886	0.0179301
777.964	0.0178607
778.042	0.0178703
778.120	0.0178042
778.198	0.0176764
778.276	0.0175268
778.354	0.0175358
778.433	0.0174484
778.511	0.0174012
778.589	0.0173209
778.667	0.0175159
778.745	0.0173962
778.823	0.0174725
778.901	0.0174271
778.979	0.0174522
779.058	0.0174481
779.136	0.0177161
779.214	0.0177686
779.292	0.0177299
779.370	0.0179259
779.448	0.0180044
779.526	0.0180908
779.604	0.0181538
779.683	0.0180746
779.761	0.0183067
779.839	0.0182719
779.917	0.0182191
779.995	0.0182540
780.073	0.0182225
780.151	0.0182339
780.229	0.0181469
780.308	0.0180782
780.386	0.0181942
780.464	0.0183333
780.542	0.0180911
780.620	0.0181306
780.698	0.0182238
780.776	0.0182491
780.854	0.0182542
780.933	0.0181814
781.011	0.0182327
781.089	0.0183597
781.167	0.0182930
781.245	0.0182757
781.323	0.0183646
781.401	0.0182850
781.479	0.0183219
781.558	0.0184336
781.636	0.0183289
781.714	0.0182732
781.792	0.0181977
781.870	0.0182584
781.948	0.0182681
782.026	0.0182252
782.104	0.0183656
782.183	0.0182726
782.261	0.0182236
782.339	0.0183849
782.417	0.0182304
782.495	0.0180573
782.573	0.0181396
782.651	0.0181957
782.729	0.0179795
782.808	0.0178863
782.886	0.0179757
782.964	0.0180339
783.042	0.0179844
783.120	0.0180540
783.198	0.0180231
783.276	0.0180381
783.354	0.0180056
783.433	0.0182051
783.511	0.0181410
783.589	0.0182269
783.667	0.0182953
783.745	0.0182115
783.823	0.0183146
783.901	0.0181548
783.979	0.0178877
784.058	0.0180970
784.136	0.0179778
784.214	0.0178748
784.292	0.0177333
784.370	0.0177028
784.448	0.0175311
784.526	0.0174857
784.604	0.0175201
784.683	0.0174009
784.761	0.0174045
784.839	0.0174058
784.917	0.0174668
784.995	0.0174993
785.073	0.0174051
785.151	0.0175188
785.229	0.0178339
785.308	0.0178011
785.386	0.0179124
785.464	0.0179428
785.542	0.0181275
785.620	0.0184524
785.698	0.0181943
785.776	0.0183677
785.854	0.0183208
785.933	0.0183856
786.011	0.0183530
786.089	0.0181741
786.167	0.0182728
786.245	0.0181094
786.323	0.0181065
786.401	0.0180576
786.479	0.0179435
786.558	0.0179793
786.636	0.0180685
786.714	0.0180064
786.792	0.0180534
786.870	0.0181860
786.948	0.0179768
787.026	0.0180342
787.104	0.0180566
787.183	0.0180746
787.261	0.0181332
787.339	0.0183308
787.417	0.0181516
787.495	0.0181104
787.573	0.0182259
787.651	0.0181808
787.729	0.0182156
787.808	0.0183115
787.886	0.0183259
787.964	0.0181782
788.042	0.0181799
788.120	0.0182801
788.198	0.0181477
788.276	0.0181755
788.354	0.0179944
788.433	0.0180762
788.511	0.0180182
788.589	0.0179556
788.667	0.0180018
788.745	0.0181602
788.823	0.0180280
788.901	0.0181258
788.979	0.0180810
789.058	0.0182471
789.136	0.0181696
789.214	0.0182328
789.292	0.0183218
789.370	0.0182392
789.448	0.0182494
789.526	0.0184295
789.604	0.0184278
789.683	0.0183909
789.761	0.0183100
789.839	0.0181728
789.917	0.0181255
789.995	0.0180522
790.073	0.0180006
790.151	0.0178753
790.229	0.0177567
790.308	0.0177630
790.386	0.0177795
790.464	0.0176557
790.542	0.0176396
790.620	0.0176385
790.698	0.0175484
790.776	0.0175175
790.854	0.0174039
790.933	0.0174718
791.011	0.0175349
791.089	0.0175643
791.167	0.0176850
791.245	0.0176617
791.323	0.0178040
791.401	0.0175594
791.479	0.0178407
791.558	0.0179341
791.636	0.0178632
791.714	0.0179124
791.792	0.0179399
791.870	0.0179951
791.948	0.0180299
792.026	0.0181484
792.104	0.0182149
792.183	0.0180108
792.261	0.0181246
792.339	0.0182240
792.417	0.0182630
792.495	0.0183577
792.573	0.0182874
792.651	0.0182137
792.729	0.0182419
792.808	0.0183971
792.886	0.0184026
792.964	0.0182831
793.042	0.0183068
793.120	0.0183073
793.198	0.0181802
793.276	0.0181906
793.354	0.0182777
793.433	0.0183674
793.511	0.0182973
793.589	0.0181819
793.667	0.0181763
793.745	0.0182684
793.823	0.0181739
793.901	0.0181829
793.979	0.0181815
794.058	0.0181475
794.136	0.0181581
794.214	0.0180356
794.292	0.0180102
794.370	0.0181519
794.448	0.0179441
794.526	0.0179375
794.604	0.0179931
794.683	0.0180765
794.761	0.0180904
794.839	0.0180192
794.917	0.0181508
794.995	0.0180927
795.073	0.0180087
795.151	0.0180695
795.229	0.0181425
795.308	0.0182193
795.386	0.0181457
795.464	0.0182459
795.542	0.0183521
795.620	0.0182870
795.698	0.0183189
795.776	0.0182402
795.854	0.0181968
795.933	0.0181335
796.011	0.0180926
796.089	0.0181109
796.167	0.0180753
796.245	0.0180901
796.323	0.0180587
796.401	0.0179800
796.479	0.0179261
796.558	0.0179664
796.636	0.0178410
796.714	0.0179189
796.792	0.0178394
796.870	0.0177767
796.948	0.0179708
797.026	0.0176204
797.104	0.0178259
797.183	0.0178377
797.261	0.0175808
797.339	0.0177680
797.417	0.0178833
797.495	0.0178519
797.573	0.0178647
797.651	0.0179865
797.729	0.0179872
797.808	0.0179935
797.886	0.0180116
797.964	0.0181057
798.042	0.0179707
798.120	0.0181091
798.198	0.0181886
798.276	0.0181592
798.354	0.0182922
798.433	0.0181973
798.511	0.0184076
798.589	0.0183436
798.667	0.0181876
798.745	0.0183250
798.823	0.0183720
798.901	0.0181949
798.979	0.0182052
799.058	0.0182383
799.136	0.0183428
799.214	0.0182038
799.292	0.0181119
799.370	0.0182804
799.448	0.0180868
799.526	0.0180730
799.604	0.0179972
799.683	0.0180447
799.761	0.0180219
799.839	0.0177886
799.917	0.0179018
799.995	0.0179331
800.073	0.0178979
800.151	0.0178591
800.229	0.0179418
800.308	0.0179705
800.386	0.0181050
800.464	0.0179935
800.542	0.0183012
800.620	0.0181775
800.698	0.0182523
800.776	0.0181656
800.854	0.0181262
800.933	0.0182110
801.011	0.0183546
801.089	0.0182108
801.167	0.0182918
801.245	0.0180797
801.323	0.0180896
801.401	0.0181078
801.479	0.0180130
801.558	0.0179375
801.636	0.0180227
801.714	0.0181730
801.792	0.0179344
801.870	0.0178806
801.948	0.0179892
802.026	0.0177805
802.104	0.0179242
802.183	0.0178492
802.261	0.0178970
802.339	0.0179313
802.417	0.0177470
802.495	0.0179113
802.573	0.0179302
802.651	0.0179207
802.729	0.0178021
802.808	0.0179966
802.886	0.0178842
802.964	0.0178896
803.042	0.0179156
803.120	0.0178851
803.198	0.0179278
803.276	0.0179357
803.354	0.0178935
803.433	0.0179652
803.511	0.0179804
803.589	0.0179292
803.667	0.0180676
803.745	0.0182262
803.823	0.0181839
803.901	0.0180987
803.979	0.0181625
804.058	0.0181779
804.136	0.0183173
804.214	0.0182190
804.292	0.0181741
804.370	0.0182304
804.448	0.0183409
804.526	0.0182216
804.604	0.0181591
804.683	0.0181934
804.761	0.0182529
804.839	0.0181206
804.917	0.0181725
804.995	0.0180600
805.073	0.0181853
805.151	0.0180633
805.229	0.0180662
805.308	0.0180627
805.386	0.0180302
805.464	0.0179209
805.542	0.0180097
805.620	0.0180738
805.698	0.0178249
805.776	0.0180004
805.854	0.0179838
805.933	0.0178809
806.011	0.0180489
806.089	0.0179561
806.167	0.0178556
806.245	0.0179404
806.323	0.0180215
806.401	0.0180343
806.479	0.0180901
806.558	0.0180601
806.636	0.0182155
806.714	0.0182671
806.792	0.0181571
806.870	0.0182417
806.948	0.0182669
807.026	0.0182120
807.104	0.0182672
807.183	0.0181474
807.261	0.0181697
807.339	0.0179907
807.417	0.0180240
807.495	0.0180887
807.573	0.0179882
807.651	0.0179166
807.729	0.0179394
807.808	0.0178235
807.886	0.0179537
807.964	0.0178503
808.042	0.0178167
808.120	0.0178410
808.198	0.0177750
808.276	0.0178702
808.354	0.0179140
808.433	0.0179005
808.511	0.0179095
808.589	0.0178951
808.667	0.0178599
808.745	0.0178897
808.823	0.0179241
808.901	0.0179333
808.979	0.0178450
809.058	0.0179397
809.136	0.0178368
809.214	0.0182185
809.292	0.0180785
809.370	0.0181072
809.448	0.0182295
809.526	0.0183467
809.604	0.0182990
809.683	0.0182816
809.761	0.0183196
809.839	0.0182702
809.917	0.0182507
809.995	0.0183289
810.073	0.0180797
810.151	0.0181409
810.229	0.0182487
810.308	0.0181031
810.386	0.0182393
810.464	0.0182125
810.542	0.0182745
810.620	0.0182301
810.698	0.0182070
810.776	0.0181597
810.854	0.0180876
810.933	0.0181691
811.011	0.0180203
811.089	0.0180907
811.167	0.0181935
811.245	0.0181299
811.323	0.0181645
811.401	0.0182368
811.479	0.0181755
811.558	0.0181475
811.636	0.0181436
811.714	0.0182169
811.792	0.0182415
811.870	0.0182011
811.948	0.0180951
812.026	0.0181366
812.104	0.0181017
812.183	0.0181213
812.261	0.0181747
812.339	0.0179082
812.417	0.0180389
812.495	0.0181257
812.573	0.0180955
812.651	0.0180027
812.729	0.0179627
812.808	0.0178367
812.886	0.0179193
812.964	0.0178044
813.042	0.0178102
813.120	0.0178281
813.198	0.0177586
813.276	0.0177692
813.354	0.0176633
813.433	0.0176778
813.511	0.0177330
813.589	0.0179491
813.667	0.0178520
813.745	0.0178709
813.823	0.0179133
813.901	0.0178121
813.979	0.0179612
814.058	0.0178394
814.136	0.0178636
814.214	0.0180099
814.292	0.0179005
814.370	0.0180119
814.448	0.0179951
814.526	0.0180755
814.604	0.0180029
814.683	0.0181488
814.761	0.0181344
814.839	0.0180309
814.917	0.0179962
814.995	0.0180977
815.073	0.0180978
815.151	0.0181464
815.229	0.0181503
815.308	0.0183635
815.386	0.0183003
815.464	0.0180862
815.542	0.0182215
815.620	0.0181818
815.698	0.0180402
815.776	0.0178841
815.854	0.0179779
815.933	0.0181339
816.011	0.0179375
816.089	0.0179774
816.167	0.0179062
816.245	0.0179250
816.323	0.0178934
816.401	0.0179884
816.479	0.0178833
816.558	0.0179223
816.636	0.0179922
816.714	0.0180744
816.792	0.0181837
816.870	0.0181081
816.948	0.0181489
817.026	0.0179643
817.104	0.0183109
817.183	0.0183382
817.261	0.0182008
817.339	0.0183430
817.417	0.0182739
817.495	0.0181900
817.573	0.0182982
817.651	0.0183417
817.729	0.0181651
817.808	0.0180936
817.886	0.0183791
817.964	0.0182188
818.042	0.0182735
818.120	0.0182069
818.198	0.0182542
818.276	0.0180126
818.354	0.0181338
818.433	0.0180953
818.511	0.0181076
818.589	0.0180721
818.667	0.0180238
818.745	0.0180247
818.823	0.0179442
818.901	0.0178479
818.979	0.0177983
819.058	0.0177502
819.136	0.0178776
819.214	0.0178141
819.292	0.0178336
819.370	0.0178184
819.448	0.0177596
819.526	0.0177834
819.604	0.0177837
819.683	0.0179323
819.761	0.0177326
819.839	0.0178367
819.917	0.0178551
819.995	0.0178836
820.073	0.0178761
820.151	0.0178587
820.229	0.0179745
820.308	0.0180856
820.386	0.0180428
820.464	0.0179324
820.542	0.0180920
820.620	0.0181112
820.698	0.0181145
820.776	0.0180441
820.854	0.0180219
820.933	0.0180386
821.011	0.0180077
821.089	0.0181248
821.167	0.0182549
821.245	0.0181612
821.323	0.0180982
821.401	0.0182589
821.479	0.0181100
821.558	0.0181902
821.636	0.0182453
821.714	0.0183331
821.792	0.0183041
821.870	0.0182336
821.948	0.0181358
822.026	0.0180465
822.104	0.0181074
822.183	0.0182961
822.261	0.0183014
822.339	0.0182276
822.417	0.0182675
822.495	0.0181772
822.573	0.0181385
822.651	0.0181409
822.729	0.0182281
822.808	0.0181483
822.886	0.0182028
822.964	0.0182670
823.042	0.0181110
823.120	0.0181291
823.198	0.0183304
823.276	0.0181017
823.354	0.0182124
823.433	0.0182384
823.511	0.0182723
823.589	0.0184203
823.667	0.0182567
823.745	0.0181284
823.823	0.0182351
823.901	0.0181317
823.979	0.0181895
824.058	0.0182752
824.136	0.0181223
824.214	0.0181062
824.292	0.0179959
824.370	0.0181060
824.448	0.0179678
824.526	0.0179436
824.604	0.0179980
824.683	0.0178236
824.761	0.0179776
824.839	0.0179034
824.917	0.0177095
824.995	0.0177559
825.073	0.0178680
825.151	0.0178362
825.229	0.0175906
825.308	0.0176704
825.386	0.0176981
825.464	0.0177351
825.542	0.0177996
825.620	0.0178385
825.698	0.0178024
825.776	0.0178671
825.854	0.0178289
825.933	0.0179253
826.011	0.0179104
826.089	0.0179496
826.167	0.0178471
826.245	0.0180430
826.323	0.0181109
826.401	0.0180540
826.479	0.0180277
826.558	0.0182128
826.636	0.0182619
826.714	0.0181406
826.792	0.0181494
826.870	0.0181612
826.948	0.0181462
827.026	0.0182123
827.104	0.0183157
827.183	0.0180638
827.261	0.0181678
827.339	0.0183093
827.417	0.0181244
827.495	0.0181599
827.573	0.0181963
827.651	0.0181480
827.729	0.0180781
827.808	0.0182236
827.886	0.0182132
827.964	0.0181589
828.042	0.0182166
828.120	0.0181497
828.198	0.0181814
828.276	0.0181680
828.354	0.0183646
828.433	0.0182862
828.511	0.0181858
828.589	0.0182456
828.667	0.0182710
828.745	0.0182488
828.823	0.0180925
828.901	0.0181859
828.979	0.0182568
829.058	0.0182664
829.136	0.0179794
829.214	0.0182061
829.292	0.0182040
829.370	0.0180709
829.448	0.0180346
829.526	0.0181353
829.604	0.0180706
829.683	0.0181932
829.761	0.0182867
829.839	0.0181921
829.917	0.0181292
829.995	0.0181422
830.073	0.0181421
830.151	0.0180404
830.229	0.0183385
830.308	0.0180930
830.386	0.0180852
830.464	0.0181549
830.542	0.0180573
830.620	0.0180345
830.698	0.0180136
830.776	0.0178937
830.854	0.0178900
830.933	0.0178955
831.011	0.0177756
831.089	0.0176662
831.167	0.0178596
831.245	0.0179114
831.323	0.0178487
831.401	0.0178233
831.479	0.0178828
831.558	0.0177673
831.636	0.0177729
831.714	0.0179120
831.792	0.0177947
831.870	0.0176658
831.948	0.0177096
832.026	0.0177380
832.104	0.0179102
832.183	0.0178010
832.261	0.0178685
832.339	0.0178020
832.417	0.0177448
832.495	0.0178503
832.573	0.0178326
832.651	0.0179591
832.729	0.0178937
832.808	0.0180340
832.886	0.0179985
832.964	0.0178757
833.042	0.0180035
833.120	0.0180839
833.198	0.0181434
833.276	0.0181939
833.354	0.0180267
833.433	0.0179446
833.511	0.0182040
833.589	0.0181264
833.667	0.0181962
833.745	0.0182487
833.823	0.0181989
833.901	0.0182362
833.979	0.0183685
834.058	0.0182700
834.136	0.0181822
834.214	0.0183968
834.292	0.0184016
834.370	0.0183433
834.448	0.0184363
834.526	0.0184712
834.604	0.0186459
834.683	0.0184911
834.761	0.0184601
834.839	0.0185257
834.917	0.0184973
834.995	0.0185568
835.073	0.0184038
835.151	0.0184090
835.229	0.0183759
835.308	0.0183797
835.386	0.0182707
835.464	0.0183222
835.542	0.0182941
835.620	0.0182526
835.698	0.0181628
835.776	0.0182206
835.854	0.0181325
835.933	0.0182458
836.011	0.0180731
836.089	0.0179857
836.167	0.0181094
836.245	0.0180313
836.323	0.0179144
836.401	0.0179398
836.479	0.0179798
836.558	0.0179908
836.636	0.0177656
836.714	0.0176718
836.792	0.0178342
836.870	0.0177949
836.948	0.0176585
837.026	0.0178417
837.104	0.0177697
837.183	0.0176068
837.261	0.0176315
837.339	0.0176443
837.417	0.0175848
837.495	0.0177877
837.573	0.0175848
837.651	0.0176461
837.729	0.0175932
837.808	0.0177946
837.886	0.0177065
837.964	0.0177738
838.042	0.0178159
838.120	0.0179234
838.198	0.0177599
838.276	0.0179237
838.354	0.0179996
838.433	0.0180917
838.511	0.0181576
838.589	0.0180952
838.667	0.0181290
838.745	0.0181128
838.823	0.0182388
838.901	0.0183324
838.979	0.0183353
839.058	0.0182822
839.136	0.0183585
839.214	0.0183107
839.292	0.0183427
839.370	0.0182915
839.448	0.0183992
839.526	0.0183764
839.604	0.0184710
839.683	0.0183338
839.761	0.0184565
839.839	0.0183833
839.917	0.0183192
839.995	0.0182862
840.073	0.0183452
840.151	0.0184502
840.229	0.0182974
840.308	0.0183704
840.386	0.0184761
840.464	0.0182384
840.542	0.0184571
840.620	0.0183207
840.698	0.0183380
840.776	0.0183194
840.854	0.0183900
840.933	0.0181997
841.011	0.0181778
841.089	0.0182365
841.167	0.0180444
841.245	0.0181582
841.323	0.0180611
841.401	0.0181837
841.479	0.0181699
841.558	0.0181174
841.636	0.0181080
841.714	0.0182281
841.792	0.0181322
841.870	0.0181193
841.948	0.0182293
842.026	0.0181036
842.104	0.0178858
842.183	0.0180313
842.261	0.0179888
842.339	0.0178265
842.417	0.0179122
842.495	0.0178609
842.573	0.0179018
842.651	0.0178428
842.729	0.0179123
842.808	0.0178298
842.886	0.0178409
842.964	0.0176900
843.042	0.0177669
843.120	0.0176869
843.198	0.0177742
843.276	0.0178304
843.354	0.0177462
843.433	0.0177762
843.511	0.0177961
843.589	0.0177144
843.667	0.0177702
843.745	0.0179345
843.823	0.0178658
843.901	0.0178167
843.979	0.0178011
844.058	0.0178457
844.136	0.0178669
844.214	0.0178146
844.292	0.0177550
844.370	0.0181216
844.448	0.0179752
844.526	0.0178957
844.604	0.0180225
844.683	0.0180650
844.761	0.0181011
844.839	0.0180438
844.917	0.0181046
844.995	0.0179257
845.073	0.0181190
845.151	0.0181435
845.229	0.0181959
845.308	0.0182880
845.386	0.0180593
845.464	0.0181785
845.542	0.0182719
845.620	0.0183402
845.698	0.0182861
845.776	0.0181752
845.854	0.0182583
845.933	0.0183720
846.011	0.0182261
846.089	0.0183003
846.167	0.0183654
846.245	0.0183408
846.323	0.0183877
846.401	0.0183950
846.479	0.0185078
846.558	0.0183705
846.636	0.0183832
846.714	0.0184122
846.792	0.0184480
846.870	0.0183558
846.948	0.0183597
847.026	0.0183372
847.104	0.0182878
847.183	0.0184069
847.261	0.0183415
847.339	0.0182932
847.417	0.0181541
847.495	0.0182301
847.573	0.0182090
847.651	0.0181272
847.729	0.0180022
847.808	0.0179524
847.886	0.0179669
847.964	0.0180181
848.042	0.0179292
848.120	0.0178150
848.198	0.0178552
848.276	0.0178436
848.354	0.0177190
848.433	0.0177805
848.511	0.0177358
848.589	0.0178127
848.667	0.0176328
848.745	0.0177319
848.823	0.0176404
848.901	0.0176836
848.979	0.0177265
849.058	0.0177171
849.136	0.0177890
849.214	0.0176895
849.292	0.0178658
849.370	0.0176354
849.448	0.0178779
849.526	0.0179086
849.604	0.0176447
849.683	0.0178252
849.761	0.0179010
849.839	0.0179881
849.917	0.0177892
849.995	0.0179299
850.073	0.0180417
850.151	0.0181248
850.229	0.0179465
850.308	0.0180206
850.386	0.0181303
850.464	0.0180989
850.542	0.0181747
850.620	0.0181992
850.698	0.0180502
850.776	0.0182043
850.854	0.0183308
850.933	0.0183713
851.011	0.0183000
851.089	0.0182948
851.167	0.0182718
851.245	0.0182042
851.323	0.0182285
851.401	0.0183466
851.479	0.0182626
851.558	0.0182395
851.636	0.0182050
851.714	0.0180684
851.792	0.0183031
851.870	0.0182300
851.948	0.0182883
852.026	0.0182743
852.104	0.0183170
852.183	0.0182580
852.261	0.0182153
852.339	0.0182526
852.417	0.0184608
852.495	0.0184208
852.573	0.0182457
852.651	0.0183530
852.729	0.0182646
852.808	0.0180890
852.886	0.0182274
852.964	0.0181872
853.042	0.0181059
853.120	0.0180298
853.198	0.0180314
853.276	0.0179560
853.354	0.0179766
853.433	0.0180376
853.511	0.0180219
853.589	0.0180459
853.667	0.0178899
853.745	0.0179033
853.823	0.0180015
853.901	0.0180175
853.979	0.0179996
854.058	0.0180706
854.136	0.0178722
854.214	0.0179868
854.292	0.0180003
854.370	0.0180211
854.448	0.0180518
854.526	0.0179964
854.604	0.0180170
854.683	0.0179961
854.761	0.0180635
854.839	0.0180292
854.917	0.0179892
854.995	0.0181020
855.073	0.0180011
855.151	0.0179051
855.229	0.0180518
855.308	0.0180416
855.386	0.0179577
855.464	0.0182102
855.542	0.0180379
855.620	0.0180186
855.698	0.0180762
855.776	0.0180212
855.854	0.0180344
855.933	0.0181628
856.011	0.0181059
856.089	0.0179742
856.167	0.0180344
856.245	0.0179810
856.323	0.0179468
856.401	0.0179175
856.479	0.0179115
856.558	0.0178952
856.636	0.0179771
856.714	0.0179326
856.792	0.0179718
856.870	0.0180631
856.948	0.0179022
857.026	0.0178412
857.104	0.0181474
857.183	0.0180032
857.261	0.0180470
857.339	0.0180691
857.417	0.0180661
857.495	0.0180546
857.573	0.0179806
857.651	0.0181139
857.729	0.0180782
857.808	0.0181669
857.886	0.0181250
857.964	0.0183430
858.042	0.0182677
858.120	0.0183063
858.198	0.0182998
858.276	0.0181101
858.354	0.0182183
858.433	0.0182522
858.511	0.0182549
858.589	0.0182443
858.667	0.0183212
858.745	0.0184405
858.823	0.0182828
858.901	0.0182169
858.979	0.0182381
859.058	0.0182251
859.136	0.0183438
859.214	0.0181765
859.292	0.0181358
859.370	0.0182056
859.448	0.0181529
859.526	0.0180955
859.604	0.0181168
859.683	0.0180658
859.761	0.0181245
859.839	0.0179714
859.917	0.0179919
859.995	0.0178675
860.073	0.0179525
860.151	0.0178595
860.229	0.0179649
860.308	0.0179898
860.386	0.0179334
860.464	0.0180801
860.542	0.0178722
860.620	0.0179985
860.698	0.0179382
860.776	0.0179366
860.854	0.0180495
860.933	0.0179674
861.011	0.0179354
861.089	0.0178848
861.167	0.0180566
861.245	0.0180506
861.323	0.0179931
861.401	0.0178518
861.479	0.0179037
861.558	0.0179475
861.636	0.0178770
861.714	0.0178737
861.792	0.0179343
861.870	0.0179153
861.948	0.0179266
862.026	0.0179178
862.104	0.0180169
862.183	0.0179763
862.261	0.0180163
862.339	0.0180964
862.417	0.0181105
862.495	0.0180057
862.573	0.0181304
862.651	0.0180792
862.729	0.0181974
862.808	0.0181845
862.886	0.0181640
862.964	0.0181590
863.042	0.0180435
863.120	0.0180864
863.198	0.0183093
863.276	0.0182510
863.354	0.0180521
863.433	0.0180688
863.511	0.0181393
863.589	0.0182027
863.667	0.0180735
863.745	0.0180354
863.823	0.0181207
863.901	0.0181404
863.979	0.0179932
864.058	0.0180697
864.136	0.0181104
864.214	0.0181111
864.292	0.0181555
864.370	0.0181580
864.448	0.0181744
864.526	0.0181317
864.604	0.0181100
864.683	0.0181601
864.761	0.0182195
864.839	0.0182653
864.917	0.0181454
864.995	0.0182627
865.073	0.0182303
865.151	0.0183049
865.229	0.0182407
865.308	0.0182639
865.386	0.0182607
865.464	0.0182116
865.542	0.0181238
865.620	0.0182140
865.698	0.0181295
865.776	0.0181155
865.854	0.0179656
865.933	0.0181339
866.011	0.0182339
866.089	0.0180291
866.167	0.0180068
866.245	0.0179752
866.323	0.0180212
866.401	0.0180671
866.479	0.0181651
866.558	0.0180849
866.636	0.0181884
866.714	0.0180572
866.792	0.0181171
866.870	0.0180863
866.948	0.0180975
867.026	0.0182546
867.104	0.0180315
867.183	0.0179494
867.261	0.0180658
867.339	0.0181026
867.417	0.0180511
867.495	0.0180959
867.573	0.0180402
867.651	0.0180592
867.729	0.0180163
867.808	0.0180144
867.886	0.0180614
867.964	0.0180676
868.042	0.0180293
868.120	0.0179642
868.198	0.0180428
868.276	0.0179778
868.354	0.0179947
868.433	0.0179238
868.511	0.0181277
868.589	0.0180695
868.667	0.0180026
868.745	0.0181086
868.823	0.0180651
868.901	0.0181402
868.979	0.0181915
869.058	0.0181345
869.136	0.0181129
869.214	0.0181015
869.292	0.0179908
869.370	0.0181409
869.448	0.0180441
869.526	0.0180685
869.604	0.0180679
869.683	0.0180175
869.761	0.0179288
869.839	0.0179803
869.917	0.0180280
869.995	0.0179897
870.073	0.0178540
870.151	0.0179303
870.229	0.0180509
870.308	0.0182333
870.386	0.0181906
870.464	0.0180394
870.542	0.0180941
870.620	0.0182025
870.698	0.0182368
870.776	0.0183200
870.854	0.0183122
870.933	0.0183315
871.011	0.0184702
871.089	0.0183308
871.167	0.0183477
871.245	0.0182434
871.323	0.0181214
871.401	0.0181732
871.479	0.0181235
871.558	0.0183503
871.636	0.0181097
871.714	0.0181587
871.792	0.0181940
871.870	0.0180240
871.948	0.0181218
872.026	0.0180315
872.104	0.0180930
872.183	0.0180857
872.261	0.0180852
872.339	0.0180918
872.417	0.0181031
872.495	0.0181373
872.573	0.0180554
872.651	0.0179319
872.729	0.0180769
872.808	0.0181886
872.886	0.0181820
872.964	0.0182098
873.042	0.0180979
873.120	0.0181242
873.198	0.0180421
873.276	0.0180589
873.354	0.0180392
873.433	0.0180446
873.511	0.0179975
873.589	0.0179343
873.667	0.0180626
873.745	0.0180501
873.823	0.0181525
873.901	0.0180839
873.979	0.0180505
874.058	0.0180853
874.136	0.0180786
874.214	0.0180856
874.292	0.0181255
874.370	0.0182362
874.448	0.0180109
874.526	0.0182048
874.604	0.0180358
874.683	0.0182034
874.761	0.0182294
874.839	0.0182115
874.917	0.0181503
874.995	0.0181888
875.073	0.0181241
875.151	0.0182050
875.229	0.0181261
875.308	0.0180436
875.386	0.0180753
875.464	0.0181529
875.542	0.0180149
875.620	0.0179727
875.698	0.0181168
875.776	0.0180004
875.854	0.0180308
875.933	0.0180714
876.011	0.0181425
876.089	0.0180361
876.167	0.0180453
876.245	0.0180315
876.323	0.0180891
876.401	0.0179665
876.479	0.0181249
876.558	0.0182722
876.636	0.0183374
876.714	0.0182130
876.792	0.0182178
876.870	0.0183327
876.948	0.0183749
877.026	0.0182506
877.104	0.0182841
877.183	0.0183578
877.261	0.0180569
877.339	0.0182552
877.417	0.0181522
877.495	0.0181438
877.573	0.0180175
877.651	0.0180676
877.729	0.0181298
877.808	0.0180373
877.886	0.0179865
877.964	0.0180375
878.042	0.0180337
878.120	0.0181818
878.198	0.0181034
878.276	0.0180926
878.354	0.0180401
878.433	0.0180103
878.511	0.0180260
878.589	0.0180949
878.667	0.0179591
878.745	0.0180366
878.823	0.0181111
878.901	0.0180859
878.979	0.0180505
879.058	0.0181702
879.136	0.0181701
879.214	0.0180989
879.292	0.0180727
879.370	0.0181564
879.448	0.0181081
879.526	0.0181561
879.604	0.0181737
879.683	0.0180215
879.761	0.0182876
879.839	0.0181377
879.917	0.0181469
879.995	0.0181564
880.073	0.0181404
880.151	0.0180683
880.229	0.0180123
880.308	0.0180631
880.386	0.0181305
880.464	0.0180573
880.542	0.0180128
880.620	0.0181492
880.698	0.0181275
880.776	0.0180779
880.854	0.0181719
880.933	0.0181461
881.011	0.0181487
881.089	0.0179050
881.167	0.0180807
881.245	0.0180206
881.323	0.0180058
881.401	0.0180349
881.479	0.0179755
881.558	0.0179518
881.636	0.0180122
881.714	0.0179655
881.792	0.0178165
881.870	0.0179865
881.948	0.0180547
882.026	0.0180563
882.104	0.0180562
882.183	0.0180785
882.261	0.0179619
882.339	0.0181737
882.417	0.0179525
882.495	0.0181092
882.573	0.0182022
882.651	0.0182185
882.729	0.0182804
882.808	0.0180757
882.886	0.0180804
882.964	0.0181065
883.042	0.0180923
883.120	0.0179997
883.198	0.0181036
883.276	0.0180350
883.354	0.0180486
883.433	0.0180884
883.511	0.0181654
883.589	0.0180912
883.667	0.0179967
883.745	0.0180633
883.823	0.0180713
883.901	0.0180836
883.979	0.0182145
884.058	0.0181528
884.136	0.0181636
884.214	0.0182195
884.292	0.0181128
884.370	0.0181231
884.448	0.0182691
884.526	0.0181253
884.604	0.0181678
884.683	0.0182104
884.761	0.0180853
884.839	0.0182957
884.917	0.0181595
884.995	0.0181504
885.073	0.0181097
885.151	0.0180784
885.229	0.0181150
885.308	0.0179964
885.386	0.0181178
885.464	0.0179808
885.542	0.0179082
885.620	0.0179741
885.698	0.0180424
885.776	0.0178600
885.854	0.0179749
885.933	0.0180266
886.011	0.0178632
886.089	0.0179031
886.167	0.0179473
886.245	0.0180033
886.323	0.0179066
886.401	0.0181392
886.479	0.0181371
886.558	0.0181451
886.636	0.0181133
886.714	0.0180267
886.792	0.0180884
886.870	0.0181596
886.948	0.0180872
887.026	0.0180673
887.104	0.0179842
887.183	0.0181437
887.261	0.0181687
887.339	0.0180729
887.417	0.0180846
887.495	0.0180625
887.573	0.0181685
887.651	0.0182131
887.729	0.0181350
887.808	0.0180283
887.886	0.0181132
887.964	0.0183831
888.042	0.0182856
888.120	0.0183083
888.198	0.0182500
888.276	0.0181818
888.354	0.0183038
888.433	0.0182621
888.511	0.0181898
888.589	0.0181766
888.667	0.0181606
888.745	0.0183883
888.823	0.0183363
888.901	0.0183567
888.979	0.0182417
889.058	0.0180882
889.136	0.0181927
889.214	0.0182319
889.292	0.0183057
889.370	0.0181710
889.448	0.0181488
889.526	0.0181234
889.604	0.0182731
889.683	0.0181513
889.761	0.0182199
889.839	0.0182436
889.917	0.0180627
889.995	0.0179828
890.073	0.0180375
890.151	0.0181013
890.229	0.0180884
890.308	0.0180953
890.386	0.0181000
890.464	0.0180468
890.542	0.0179810
890.620	0.0180056
890.698	0.0179699
890.776	0.0180190
890.854	0.0181203
890.933	0.0178921
891.011	0.0178870
891.089	0.0180186
891.167	0.0179861
891.245	0.0180058
891.323	0.0180040
891.401	0.0179932
891.479	0.0180406
891.558	0.0179386
891.636	0.0178889
891.714	0.0179451
891.792	0.0179710
891.870	0.0180573
891.948	0.0180386
892.026	0.0180582
892.104	0.0180900
892.183	0.0181203
892.261	0.0181421
892.339	0.0181830
892.417	0.0182153
892.495	0.0182899
892.573	0.0183597
892.651	0.0183749
892.729	0.0183050
892.808	0.0182183
892.886	0.0181210
892.964	0.0183150
893.042	0.0183730
893.120	0.0182618
893.198	0.0182925
893.276	0.0181720
893.354	0.0182365
893.433	0.0181049
893.511	0.0181947
893.589	0.0180582
893.667	0.0182334
893.745	0.0181666
893.823	0.0182328
893.901	0.0181636
893.979	0.0181861
894.058	0.0180266
894.136	0.0181188
894.214	0.0179406
894.292	0.0181734
894.370	0.0181277
894.448	0.0182001
894.526	0.0180255
894.604	0.0181168
894.683	0.0180743
894.761	0.0181039
894.839	0.0180672
894.917	0.0181211
894.995	0.0181300
895.073	0.0180489
895.151	0.0180867
895.229	0.0181577
895.308	0.0182185
895.386	0.0181722
895.464	0.0180901
895.542	0.0180831
895.620	0.0181516
895.698	0.0180338
895.776	0.0182462
895.854	0.0181048
895.933	0.0179796
896.011	0.0180370
896.089	0.0180994
896.167	0.0180741
896.245	0.0180343
896.323	0.0180756
896.401	0.0180647
896.479	0.0180275
896.558	0.0179954
896.636	0.0178899
896.714	0.0178902
896.792	0.0177986
896.870	0.0176961
896.948	0.0177219
897.026	0.0179176
897.104	0.0178255
897.183	0.0178567
897.261	0.0177357
897.339	0.0177918
897.417	0.0178946
897.495	0.0178957
897.573	0.0179247
897.651	0.0179755
897.729	0.0180140
897.808	0.0181230
897.886	0.0182393
897.964	0.0181247
898.042	0.0182435
898.120	0.0182831
898.198	0.0182845
898.276	0.0183495
898.354	0.0183659
898.433	0.0182759
898.511	0.0183280
898.589	0.0182608
898.667	0.0182850
898.745	0.0183447
898.823	0.0184600
898.901	0.0182755
898.979	0.0181689
899.058	0.0182650
899.136	0.0181467
899.214	0.0182394
899.292	0.0181017
899.370	0.0181879
899.448	0.0181434
899.526	0.0181415
899.604	0.0181168
899.683	0.0179830
899.761	0.0180365
899.839	0.0179900
899.917	0.0181109
899.995	0.0180959
900.073	0.0180561
900.151	0.0181834
900.229	0.0182391
900.308	0.0180928
900.386	0.0181026
900.464	0.0182249
900.542	0.0182189
900.620	0.0183436
900.698	0.0182925
900.776	0.0184328
900.854	0.0181916
900.933	0.0182243
901.011	0.0182468
901.089	0.0181007
901.167	0.0179964
901.245	0.0181352
901.323	0.0182928
901.401	0.0179436
901.479	0.0179916
901.558	0.0180431
901.636	0.0179693
901.714	0.0180006
901.792	0.0180268
901.870	0.0178648
901.948	0.0178772
902.026	0.0179705
902.104	0.0179787
902.183	0.0178804
902.261	0.0181084
902.339	0.0180355
902.417	0.0178049
902.495	0.0179749
902.573	0.0178265
902.651	0.0180622
902.729	0.0177899
902.808	0.0179720
902.886	0.0178714
902.964	0.0178781
903.042	0.0179278
903.120	0.0179824
903.198	0.0180677
903.276	0.0179192
903.354	0.0180244
903.433	0.0179732
903.511	0.0180420
903.589	0.0180152
903.667	0.0181992
903.745	0.0181927
903.823	0.0181528
903.901	0.0180872
903.979	0.0182001
904.058	0.0182456
904.136	0.0182655
904.214	0.0181467
904.292	0.0180241
904.370	0.0181929
904.448	0.0181677
904.526	0.0181230
904.604	0.0181488
904.683	0.0182388
904.761	0.0180260
904.839	0.0182206
904.917	0.0182650
904.995	0.0181136
905.073	0.0181538
905.151	0.0182634
905.229	0.0182444
905.308	0.0182581
905.386	0.0183183
905.464	0.0182426
905.542	0.0182628
905.620	0.0182743
905.698	0.0182323
905.776	0.0181693
905.854	0.0181786
905.933	0.0182398
906.011	0.0181065
906.089	0.0179076
906.167	0.0180418
906.245	0.0179672
906.323	0.0179817
906.401	0.0180106
906.479	0.0180045
906.558	0.0180740
906.636	0.0181443
906.714	0.0181371
906.792	0.0179464
906.870	0.0181089
906.948	0.0181294
907.026	0.0181403
907.104	0.0181149
907.183	0.0181014
907.261	0.0180096
907.339	0.0180341
907.417	0.0180427
907.495	0.0180397
907.573	0.0178999
907.651	0.0181303
907.729	0.0181403
907.808	0.0181416
907.886	0.0182207
907.964	0.0181723
908.042	0.0180655
908.120	0.0179849
908.198	0.0181778
908.276	0.0180974
908.354	0.0183314
908.433	0.0181717
908.511	0.0182571
908.589	0.0180910
908.667	0.0179751
908.745	0.0181215
908.823	0.0181832
908.901	0.0181467
908.979	0.0180059
909.058	0.0179701
909.136	0.0180781
909.214	0.0180986
909.292	0.0180265
909.370	0.0179639
909.448	0.0179041
909.526	0.0179056
909.604	0.0178865
909.683	0.0178287
909.761	0.0178201
909.839	0.0178359
909.917	0.0179726
909.995	0.0178591
910.073	0.0178933
910.151	0.0179056
910.229	0.0179077
910.308	0.0179734
910.386	0.0181120
910.464	0.0181393
910.542	0.0181130
910.620	0.0181181
910.698	0.0180666
910.776	0.0180925
910.854	0.0181111
910.933	0.0182000
911.011	0.0182461
911.089	0.0180995
911.167	0.0181070
911.245	0.0181139
911.323	0.0181598
911.401	0.0181285
911.479	0.0182429
911.558	0.0181380
911.636	0.0181987
911.714	0.0181393
911.792	0.0183159
911.870	0.0182036
911.948	0.0181795
912.026	0.0182885
912.104	0.0181917
912.183	0.0182874
912.261	0.0182665
912.339	0.0182038
912.417	0.0180633
912.495	0.0180691
912.573	0.0180555
912.651	0.0179276
912.729	0.0179227
912.808	0.0180609
912.886	0.0179218
912.964	0.0179939
913.042	0.0180235
913.120	0.0179551
913.198	0.0180961
913.276	0.0181209
913.354	0.0179784
913.433	0.0179493
913.511	0.0181716
913.589	0.0181220
913.667	0.0181490
913.745	0.0181538
913.823	0.0181700
913.901	0.0180123
913.979	0.0180367
914.058	0.0181995
914.136	0.0180931
914.214	0.0180475
914.292	0.0180578
914.370	0.0181686
914.448	0.0180489
914.526	0.0180664
914.604	0.0180782
914.683	0.0180390
914.761	0.0181314
914.839	0.0181032
914.917	0.0179964
914.995	0.0181933
915.073	0.0181985
915.151	0.0182217
915.229	0.0181909
915.308	0.0182198
915.386	0.0181638
915.464	0.0183003
915.542	0.0182492
915.620	0.0181020
915.698	0.0181330
915.776	0.0182666
915.854	0.0182317
915.933	0.0182231
916.011	0.0181564
916.089	0.0180230
916.167	0.0180633
916.245	0.0180152
916.323	0.0180209
916.401	0.0179649
916.479	0.0180698
916.558	0.0181263
916.636	0.0181614
916.714	0.0181011
916.792	0.0181771
916.870	0.0180219
916.948	0.0179653
917.026	0.0181062
917.104	0.0181080
917.183	0.0181124
917.261	0.0180367
917.339	0.0181194
917.417	0.0181298
917.495	0.0181887
917.573	0.0181057
917.651	0.0180569
917.729	0.0180988
917.808	0.0180527
917.886	0.0181386
917.964	0.0180000
918.042	0.0180080
918.120	0.0181293
918.198	0.0180147
918.276	0.0178423
918.354	0.0181789
918.433	0.0178481
918.511	0.0180827
918.589	0.0180680
918.667	0.0179790
918.745	0.0180812
918.823	0.0179905
918.901	0.0180698
918.979	0.0181950
919.058	0.0182326
919.136	0.0181164
919.214	0.0180606
919.292	0.0181952
919.370	0.0181983
919.448	0.0180426
919.526	0.0180658
919.604	0.0181099
919.683	0.0181390
919.761	0.0182727
919.839	0.0183118
919.917	0.0180592
