06/03/2022	18:19:08	Ver.	4.1	UNKNOWN
Optical Delay	599.995081	Delta X		0.078125	Sweeps	1	Scan Rate	0/0
Coordinates	Axis 1	NaN	Axis 2	NaN	Axis 3	NaN	Axis 4	NaN	Axis 5	NaN	Axis 6	0.000000
TX Power	0.000000	RX Power	0.000000

599.995	0.0180367
600.073	0.0179897
600.151	0.0180726
600.229	0.0179951
600.308	0.0180058
600.386	0.0180173
600.464	0.0180725
600.542	0.0180785
600.620	0.0179448
600.698	0.0179788
600.776	0.0181206
600.854	0.0180927
600.933	0.0180823
601.011	0.0179889
601.089	0.0179545
601.167	0.0180922
601.245	0.0180030
601.323	0.0180276
601.401	0.0181660
601.479	0.0178994
601.558	0.0179946
601.636	0.0180118
601.714	0.0181386
601.792	0.0180895
601.870	0.0181071
601.948	0.0180238
602.026	0.0180993
602.104	0.0181110
602.183	0.0180093
602.261	0.0180031
602.339	0.0181264
602.417	0.0180682
602.495	0.0181078
602.573	0.0180034
602.651	0.0179660
602.729	0.0179006
602.808	0.0179435
602.886	0.0179238
602.964	0.0181723
603.042	0.0180695
603.120	0.0179256
603.198	0.0179938
603.276	0.0180454
603.354	0.0182228
603.433	0.0180121
603.511	0.0178435
603.589	0.0179715
603.667	0.0180769
603.745	0.0180622
603.823	0.0181088
603.901	0.0180042
603.979	0.0179375
604.058	0.0179463
604.136	0.0181252
604.214	0.0180233
604.292	0.0179964
604.370	0.0180650
604.448	0.0179985
604.526	0.0180772
604.604	0.0178594
604.683	0.0179410
604.761	0.0180590
604.839	0.0179104
604.917	0.0179396
604.995	0.0180784
605.073	0.0179520
605.151	0.0181112
605.229	0.0179995
605.308	0.0180380
605.386	0.0180312
605.464	0.0180423
605.542	0.0180322
605.620	0.0179696
605.698	0.0180768
605.776	0.0179421
605.854	0.0179291
605.933	0.0181232
606.011	0.0180660
606.089	0.0180437
606.167	0.0179667
606.245	0.0180430
606.323	0.0181293
606.401	0.0180270
606.479	0.0179559
606.558	0.0180983
606.636	0.0181364
606.714	0.0179733
606.792	0.0180956
606.870	0.0180213
606.948	0.0180465
607.026	0.0181294
607.104	0.0180888
607.183	0.0180597
607.261	0.0179139
607.339	0.0180325
607.417	0.0180979
607.495	0.0180347
607.573	0.0181683
607.651	0.0179163
607.729	0.0178790
607.808	0.0179660
607.886	0.0180920
607.964	0.0179222
608.042	0.0181918
608.120	0.0179633
608.198	0.0180837
608.276	0.0181057
608.354	0.0180037
608.433	0.0179683
608.511	0.0181128
608.589	0.0180294
608.667	0.0180172
608.745	0.0180232
608.823	0.0180238
608.901	0.0181100
608.979	0.0179156
609.058	0.0180251
609.136	0.0181048
609.214	0.0179850
609.292	0.0181247
609.370	0.0180534
609.448	0.0179914
609.526	0.0181168
609.604	0.0180540
609.683	0.0180516
609.761	0.0179789
609.839	0.0179665
609.917	0.0180711
609.995	0.0180753
610.073	0.0180087
610.151	0.0179634
610.229	0.0179710
610.308	0.0181059
610.386	0.0181044
610.464	0.0180610
610.542	0.0179017
610.620	0.0180769
610.698	0.0180975
610.776	0.0180436
610.854	0.0179557
610.933	0.0179367
611.011	0.0181051
611.089	0.0180627
611.167	0.0180958
611.245	0.0180011
611.323	0.0180579
611.401	0.0180854
611.479	0.0179485
611.558	0.0180441
611.636	0.0180715
611.714	0.0180286
611.792	0.0179371
611.870	0.0179868
611.948	0.0180846
612.026	0.0180035
612.104	0.0180135
612.183	0.0180796
612.261	0.0179965
612.339	0.0179537
612.417	0.0179533
612.495	0.0180679
612.573	0.0180504
612.651	0.0180936
612.729	0.0179195
612.808	0.0180966
612.886	0.0180696
612.964	0.0180480
613.042	0.0180076
613.120	0.0179884
613.198	0.0180368
613.276	0.0180227
613.354	0.0179589
613.433	0.0181052
613.511	0.0180707
613.589	0.0178741
613.667	0.0181065
613.745	0.0179159
613.823	0.0180700
613.901	0.0180994
613.979	0.0179154
614.058	0.0179442
614.136	0.0180164
614.214	0.0179589
614.292	0.0180119
614.370	0.0179736
614.448	0.0180779
614.526	0.0180685
614.604	0.0179697
614.683	0.0180772
614.761	0.0181488
614.839	0.0180352
614.917	0.0180085
614.995	0.0181010
615.073	0.0180474
615.151	0.0180888
615.229	0.0179785
615.308	0.0180730
615.386	0.0179658
615.464	0.0179754
615.542	0.0180841
615.620	0.0179644
615.698	0.0181108
615.776	0.0180538
615.854	0.0180685
615.933	0.0180281
616.011	0.0181005
616.089	0.0179832
616.167	0.0179906
616.245	0.0181957
616.323	0.0180661
616.401	0.0179127
616.479	0.0181004
616.558	0.0180238
616.636	0.0180655
616.714	0.0178576
616.792	0.0180122
616.870	0.0178960
616.948	0.0179873
617.026	0.0180206
617.104	0.0179627
617.183	0.0179729
617.261	0.0181318
617.339	0.0179823
617.417	0.0180441
617.495	0.0180193
617.573	0.0179897
617.651	0.0179464
617.729	0.0181551
617.808	0.0179598
617.886	0.0179290
617.964	0.0180438
618.042	0.0181034
618.120	0.0180436
618.198	0.0179952
618.276	0.0180696
618.354	0.0181174
618.433	0.0180024
618.511	0.0180869
618.589	0.0179669
618.667	0.0178568
618.745	0.0179173
618.823	0.0180088
618.901	0.0180344
618.979	0.0179935
619.058	0.0178941
619.136	0.0179987
619.214	0.0180109
619.292	0.0179350
619.370	0.0180219
619.448	0.0180067
619.526	0.0180933
619.604	0.0179417
619.683	0.0181346
619.761	0.0180634
619.839	0.0179448
619.917	0.0181041
619.995	0.0180698
620.073	0.0180081
620.151	0.0180869
620.229	0.0180919
620.308	0.0180582
620.386	0.0179294
620.464	0.0179664
620.542	0.0179187
620.620	0.0178474
620.698	0.0179308
620.776	0.0179342
620.854	0.0180157
620.933	0.0180468
621.011	0.0180910
621.089	0.0179626
621.167	0.0179627
621.245	0.0179372
621.323	0.0180166
621.401	0.0180675
621.479	0.0179568
621.558	0.0180870
621.636	0.0180819
621.714	0.0178462
621.792	0.0179807
621.870	0.0179887
621.948	0.0179574
622.026	0.0180053
622.104	0.0180404
622.183	0.0179985
622.261	0.0179976
622.339	0.0180421
622.417	0.0179710
622.495	0.0180884
622.573	0.0180028
622.651	0.0182130
622.729	0.0179980
622.808	0.0180904
622.886	0.0180550
622.964	0.0179818
623.042	0.0180264
623.120	0.0179613
623.198	0.0180157
623.276	0.0180887
623.354	0.0180997
623.433	0.0179855
623.511	0.0177997
623.589	0.0179873
623.667	0.0181329
623.745	0.0182056
623.823	0.0180964
623.901	0.0180050
623.979	0.0179985
624.058	0.0180120
624.136	0.0179957
624.214	0.0179726
624.292	0.0179444
624.370	0.0180587
624.448	0.0180893
624.526	0.0178200
624.604	0.0181106
624.683	0.0180402
624.761	0.0180173
624.839	0.0179382
624.917	0.0180575
624.995	0.0181257
625.073	0.0179994
625.151	0.0182276
625.229	0.0179776
625.308	0.0180002
625.386	0.0179925
625.464	0.0180553
625.542	0.0180926
625.620	0.0179226
625.698	0.0180225
625.776	0.0180827
625.854	0.0179942
625.933	0.0180160
626.011	0.0182062
626.089	0.0180112
626.167	0.0180852
626.245	0.0179765
626.323	0.0179035
626.401	0.0178886
626.479	0.0180186
626.558	0.0180704
626.636	0.0179637
626.714	0.0180985
626.792	0.0180621
626.870	0.0180602
626.948	0.0181052
627.026	0.0181815
627.104	0.0180100
627.183	0.0179791
627.261	0.0180403
627.339	0.0179516
627.417	0.0178661
627.495	0.0180821
627.573	0.0180234
627.651	0.0180228
627.729	0.0180872
627.808	0.0180077
627.886	0.0180069
627.964	0.0180325
628.042	0.0180553
628.120	0.0180127
628.198	0.0180683
628.276	0.0181295
628.354	0.0182554
628.433	0.0180736
628.511	0.0181164
628.589	0.0179510
628.667	0.0180185
628.745	0.0180711
628.823	0.0181097
628.901	0.0180553
628.979	0.0179569
629.058	0.0181381
629.136	0.0181773
629.214	0.0179693
629.292	0.0180614
629.370	0.0181354
629.448	0.0179615
629.526	0.0180957
629.604	0.0180814
629.683	0.0180534
629.761	0.0179741
629.839	0.0180369
629.917	0.0179961
629.995	0.0179842
630.073	0.0181020
630.151	0.0181626
630.229	0.0180859
630.308	0.0181174
630.386	0.0181693
630.464	0.0179379
630.542	0.0180444
630.620	0.0181411
630.698	0.0178806
630.776	0.0181326
630.854	0.0181460
630.933	0.0180555
631.011	0.0180830
631.089	0.0181906
631.167	0.0180185
631.245	0.0180514
631.323	0.0180344
631.401	0.0180973
631.479	0.0179711
631.558	0.0179506
631.636	0.0180868
631.714	0.0180449
631.792	0.0181181
631.870	0.0180892
631.948	0.0180613
632.026	0.0180800
632.104	0.0180035
632.183	0.0179894
632.261	0.0180012
632.339	0.0180838
632.417	0.0180912
632.495	0.0180939
632.573	0.0180228
632.651	0.0180294
632.729	0.0179862
632.808	0.0179219
632.886	0.0179134
632.964	0.0180128
633.042	0.0180295
633.120	0.0179581
633.198	0.0179536
633.276	0.0180102
633.354	0.0180628
633.433	0.0179392
633.511	0.0180785
633.589	0.0180453
633.667	0.0181573
633.745	0.0180330
633.823	0.0180264
633.901	0.0180356
633.979	0.0178185
634.058	0.0179860
634.136	0.0181293
634.214	0.0180544
634.292	0.0179319
634.370	0.0180081
634.448	0.0180927
634.526	0.0179871
634.604	0.0181832
634.683	0.0179773
634.761	0.0179536
634.839	0.0180795
634.917	0.0181519
634.995	0.0179043
635.073	0.0181468
635.151	0.0181088
635.229	0.0179871
635.308	0.0180228
635.386	0.0179861
635.464	0.0179301
635.542	0.0179380
635.620	0.0179754
635.698	0.0180193
635.776	0.0180980
635.854	0.0181447
635.933	0.0181255
636.011	0.0181166
636.089	0.0180058
636.167	0.0180145
636.245	0.0180278
636.323	0.0178838
636.401	0.0180079
636.479	0.0181062
636.558	0.0180326
636.636	0.0179754
636.714	0.0180255
636.792	0.0179694
636.870	0.0179498
636.948	0.0180861
637.026	0.0179795
637.104	0.0179890
637.183	0.0179979
637.261	0.0179404
637.339	0.0179675
637.417	0.0180805
637.495	0.0179581
637.573	0.0179939
637.651	0.0180307
637.729	0.0179827
637.808	0.0180026
637.886	0.0179837
637.964	0.0180183
638.042	0.0179862
638.120	0.0180345
638.198	0.0180265
638.276	0.0181311
638.354	0.0179562
638.433	0.0179955
638.511	0.0180548
638.589	0.0180972
638.667	0.0179098
638.745	0.0180089
638.823	0.0180894
638.901	0.0180237
638.979	0.0180856
639.058	0.0180894
639.136	0.0180826
639.214	0.0180505
639.292	0.0179865
639.370	0.0180641
639.448	0.0179791
639.526	0.0181183
639.604	0.0181288
639.683	0.0179516
639.761	0.0180468
639.839	0.0180801
639.917	0.0179774
639.995	0.0179047
640.073	0.0179892
640.151	0.0180897
640.229	0.0181009
640.308	0.0179743
640.386	0.0180597
640.464	0.0180090
640.542	0.0178814
640.620	0.0180111
640.698	0.0180569
640.776	0.0179985
640.854	0.0179044
640.933	0.0179974
641.011	0.0180324
641.089	0.0181213
641.167	0.0179844
641.245	0.0179758
641.323	0.0179051
641.401	0.0179619
641.479	0.0180490
641.558	0.0181173
641.636	0.0180447
641.714	0.0179989
641.792	0.0180634
641.870	0.0180508
641.948	0.0179778
642.026	0.0180666
642.104	0.0179039
642.183	0.0179621
642.261	0.0181001
642.339	0.0180373
642.417	0.0179749
642.495	0.0180175
642.573	0.0179672
642.651	0.0179077
642.729	0.0178689
642.808	0.0181153
642.886	0.0179697
642.964	0.0180106
643.042	0.0179830
643.120	0.0180499
643.198	0.0180450
643.276	0.0179218
643.354	0.0180061
643.433	0.0180750
643.511	0.0179135
643.589	0.0181127
643.667	0.0180124
643.745	0.0180773
643.823	0.0180438
643.901	0.0179794
643.979	0.0179295
644.058	0.0180114
644.136	0.0179260
644.214	0.0178935
644.292	0.0179729
644.370	0.0179835
644.448	0.0180037
644.526	0.0181209
644.604	0.0179666
644.683	0.0181012
644.761	0.0181808
644.839	0.0180540
644.917	0.0178989
644.995	0.0180161
645.073	0.0181419
645.151	0.0181068
645.229	0.0180063
645.308	0.0180268
645.386	0.0180087
645.464	0.0178433
645.542	0.0179562
645.620	0.0181489
645.698	0.0179382
645.776	0.0180772
645.854	0.0179753
645.933	0.0181978
646.011	0.0180534
646.089	0.0179760
646.167	0.0180722
646.245	0.0180382
646.323	0.0181142
646.401	0.0179827
646.479	0.0180490
646.558	0.0180769
646.636	0.0180338
646.714	0.0179873
646.792	0.0180273
646.870	0.0179024
646.948	0.0179633
647.026	0.0179649
647.104	0.0179839
647.183	0.0178808
647.261	0.0181017
647.339	0.0180756
647.417	0.0179796
647.495	0.0181211
647.573	0.0179797
647.651	0.0180264
647.729	0.0178784
647.808	0.0179480
647.886	0.0180037
647.964	0.0180421
648.042	0.0179731
648.120	0.0180424
648.198	0.0179285
648.276	0.0180390
648.354	0.0179712
648.433	0.0180313
648.511	0.0179504
648.589	0.0179288
648.667	0.0180662
648.745	0.0180559
648.823	0.0181197
648.901	0.0179593
648.979	0.0180119
649.058	0.0179021
649.136	0.0179003
649.214	0.0179350
649.292	0.0178685
649.370	0.0180589
649.448	0.0180976
649.526	0.0180990
649.604	0.0181469
649.683	0.0179151
649.761	0.0180231
649.839	0.0179851
649.917	0.0179480
649.995	0.0179107
650.073	0.0180274
650.151	0.0181384
650.229	0.0181326
650.308	0.0180220
650.386	0.0180490
650.464	0.0179189
650.542	0.0180679
650.620	0.0179638
650.698	0.0180544
650.776	0.0179194
650.854	0.0181255
650.933	0.0180433
651.011	0.0179465
651.089	0.0181270
651.167	0.0180624
651.245	0.0180680
651.323	0.0180758
651.401	0.0179514
651.479	0.0180264
651.558	0.0180454
651.636	0.0180917
651.714	0.0179983
651.792	0.0180022
651.870	0.0182393
651.948	0.0180344
652.026	0.0180753
652.104	0.0180585
652.183	0.0181508
652.261	0.0181889
652.339	0.0181175
652.417	0.0179688
652.495	0.0180147
652.573	0.0180037
652.651	0.0180160
652.729	0.0180408
652.808	0.0179816
652.886	0.0180353
652.964	0.0180870
653.042	0.0180550
653.120	0.0181155
653.198	0.0181109
653.276	0.0180725
653.354	0.0180347
653.433	0.0178969
653.511	0.0181374
653.589	0.0180821
653.667	0.0181271
653.745	0.0180559
653.823	0.0181739
653.901	0.0180245
653.979	0.0180158
654.058	0.0180379
654.136	0.0180929
654.214	0.0181348
654.292	0.0180106
654.370	0.0179120
654.448	0.0180809
654.526	0.0180936
654.604	0.0180643
654.683	0.0181116
654.761	0.0180414
654.839	0.0180482
654.917	0.0180868
654.995	0.0180045
655.073	0.0182043
655.151	0.0180634
655.229	0.0180237
655.308	0.0179270
655.386	0.0181008
655.464	0.0180257
655.542	0.0179991
655.620	0.0179181
655.698	0.0179675
655.776	0.0180751
655.854	0.0181013
655.933	0.0180013
656.011	0.0181089
656.089	0.0181290
656.167	0.0181779
656.245	0.0181349
656.323	0.0180044
656.401	0.0179336
656.479	0.0181651
656.558	0.0181407
656.636	0.0180788
656.714	0.0180013
656.792	0.0180814
656.870	0.0181025
656.948	0.0181220
657.026	0.0180202
657.104	0.0180737
657.183	0.0180824
657.261	0.0180434
657.339	0.0180483
657.417	0.0180708
657.495	0.0180770
657.573	0.0180191
657.651	0.0182083
657.729	0.0179640
657.808	0.0180923
657.886	0.0181285
657.964	0.0181193
658.042	0.0181085
658.120	0.0179601
658.198	0.0179577
658.276	0.0180675
658.354	0.0180196
658.433	0.0180707
658.511	0.0180735
658.589	0.0180750
658.667	0.0180294
658.745	0.0180566
658.823	0.0179848
658.901	0.0181079
658.979	0.0181400
659.058	0.0179925
659.136	0.0179882
659.214	0.0179605
659.292	0.0180521
659.370	0.0179176
659.448	0.0180421
659.526	0.0179455
659.604	0.0180570
659.683	0.0180604
659.761	0.0180363
659.839	0.0181118
659.917	0.0180906
659.995	0.0179622
660.073	0.0181207
660.151	0.0180116
660.229	0.0180240
660.308	0.0180584
660.386	0.0180537
660.464	0.0179648
660.542	0.0179043
660.620	0.0181529
660.698	0.0181609
660.776	0.0180205
660.854	0.0180983
660.933	0.0180141
661.011	0.0179311
661.089	0.0180159
661.167	0.0180720
661.245	0.0180834
661.323	0.0181060
661.401	0.0179475
661.479	0.0180827
661.558	0.0181265
661.636	0.0180197
661.714	0.0179757
661.792	0.0179834
661.870	0.0180133
661.948	0.0179904
662.026	0.0179724
662.104	0.0180378
662.183	0.0179350
662.261	0.0180109
662.339	0.0180120
662.417	0.0180428
662.495	0.0179325
662.573	0.0181216
662.651	0.0179871
662.729	0.0181343
662.808	0.0181469
662.886	0.0179979
662.964	0.0179209
663.042	0.0177593
663.120	0.0179476
663.198	0.0180789
663.276	0.0179225
663.354	0.0180149
663.433	0.0180307
663.511	0.0179182
663.589	0.0180420
663.667	0.0180978
663.745	0.0180273
663.823	0.0179974
663.901	0.0180210
663.979	0.0181616
664.058	0.0180542
664.136	0.0179203
664.214	0.0179917
664.292	0.0180054
664.370	0.0181891
664.448	0.0180651
664.526	0.0179790
664.604	0.0179788
664.683	0.0178951
664.761	0.0178570
664.839	0.0179871
664.917	0.0179892
664.995	0.0178918
665.073	0.0179140
665.151	0.0178811
665.229	0.0180689
665.308	0.0180597
665.386	0.0179955
665.464	0.0181458
665.542	0.0182199
665.620	0.0182662
665.698	0.0181611
665.776	0.0180736
665.854	0.0180427
665.933	0.0179954
666.011	0.0179101
666.089	0.0179633
666.167	0.0180082
666.245	0.0179300
666.323	0.0178510
666.401	0.0178968
666.479	0.0179739
666.558	0.0179869
666.636	0.0180475
666.714	0.0180952
666.792	0.0180853
666.870	0.0181194
666.948	0.0179330
667.026	0.0179560
667.104	0.0179396
667.183	0.0179805
667.261	0.0179618
667.339	0.0179196
667.417	0.0180176
667.495	0.0180872
667.573	0.0182365
667.651	0.0180228
667.729	0.0180712
667.808	0.0180695
667.886	0.0180606
667.964	0.0180225
668.042	0.0179382
668.120	0.0179371
668.198	0.0178064
668.276	0.0179016
668.354	0.0179203
668.433	0.0178111
668.511	0.0178555
668.589	0.0178291
668.667	0.0179048
668.745	0.0178173
668.823	0.0180219
668.901	0.0179678
668.979	0.0180048
669.058	0.0179263
669.136	0.0179449
669.214	0.0179236
669.292	0.0179868
669.370	0.0181268
669.448	0.0180289
669.526	0.0180366
669.604	0.0179899
669.683	0.0179721
669.761	0.0178342
669.839	0.0180096
669.917	0.0179957
669.995	0.0179815
670.073	0.0178331
670.151	0.0178952
670.229	0.0180588
670.308	0.0179664
670.386	0.0180228
670.464	0.0179462
670.542	0.0180357
670.620	0.0179432
670.698	0.0180783
670.776	0.0181173
670.854	0.0180181
670.933	0.0179647
671.011	0.0179784
671.089	0.0181217
671.167	0.0180708
671.245	0.0180608
671.323	0.0181167
671.401	0.0180025
671.479	0.0178886
671.558	0.0179436
671.636	0.0181192
671.714	0.0178441
671.792	0.0179302
671.870	0.0179758
671.948	0.0180460
672.026	0.0179916
672.104	0.0181423
672.183	0.0181182
672.261	0.0180113
672.339	0.0179595
672.417	0.0181689
672.495	0.0180064
672.573	0.0179612
672.651	0.0179325
672.729	0.0177463
672.808	0.0179166
672.886	0.0180435
672.964	0.0179906
673.042	0.0178648
673.120	0.0180366
673.198	0.0180936
673.276	0.0180720
673.354	0.0182335
673.433	0.0182936
673.511	0.0180710
673.589	0.0182132
673.667	0.0180590
673.745	0.0178915
673.823	0.0179202
673.901	0.0178510
673.979	0.0177198
674.058	0.0178036
674.136	0.0178883
674.214	0.0178628
674.292	0.0179755
674.370	0.0180721
674.448	0.0180400
674.526	0.0180088
674.604	0.0181903
674.683	0.0182694
674.761	0.0181969
674.839	0.0182472
674.917	0.0182169
674.995	0.0180589
675.073	0.0180043
675.151	0.0180681
675.229	0.0180719
675.308	0.0179146
675.386	0.0179470
675.464	0.0179654
675.542	0.0180629
675.620	0.0178775
675.698	0.0180547
675.776	0.0181638
675.854	0.0181036
675.933	0.0179950
676.011	0.0181799
676.089	0.0181615
676.167	0.0180180
676.245	0.0181118
676.323	0.0179694
676.401	0.0179493
676.479	0.0180044
676.558	0.0179214
676.636	0.0180897
676.714	0.0179843
676.792	0.0181319
676.870	0.0179697
676.948	0.0180880
677.026	0.0182584
677.104	0.0181932
677.183	0.0180669
677.261	0.0180901
677.339	0.0181231
677.417	0.0180367
677.495	0.0181471
677.573	0.0180849
677.651	0.0180358
677.729	0.0180688
677.808	0.0180470
677.886	0.0179006
677.964	0.0181071
678.042	0.0179987
678.120	0.0179961
678.198	0.0180403
678.276	0.0180000
678.354	0.0179465
678.433	0.0180658
678.511	0.0180206
678.589	0.0181091
678.667	0.0180736
678.745	0.0180696
678.823	0.0180567
678.901	0.0179748
678.979	0.0181360
679.058	0.0181398
679.136	0.0180060
679.214	0.0180359
679.292	0.0180215
679.370	0.0179868
679.448	0.0179595
679.526	0.0179163
679.604	0.0180309
679.683	0.0181122
679.761	0.0180528
679.839	0.0180453
679.917	0.0180139
679.995	0.0180354
680.073	0.0181187
680.151	0.0182137
680.229	0.0179768
680.308	0.0179780
680.386	0.0180586
680.464	0.0180174
680.542	0.0179702
680.620	0.0179704
680.698	0.0179422
680.776	0.0179427
680.854	0.0180026
680.933	0.0179639
681.011	0.0179984
681.089	0.0180171
681.167	0.0180698
681.245	0.0182240
681.323	0.0181409
681.401	0.0180630
681.479	0.0182263
681.558	0.0181443
681.636	0.0181245
681.714	0.0179613
681.792	0.0180742
681.870	0.0180588
681.948	0.0179446
682.026	0.0180735
682.104	0.0180039
682.183	0.0180112
682.261	0.0179716
682.339	0.0179661
682.417	0.0178387
682.495	0.0179039
682.573	0.0179399
682.651	0.0181265
682.729	0.0178624
682.808	0.0179057
682.886	0.0180085
682.964	0.0179895
683.042	0.0180772
683.120	0.0180226
683.198	0.0180000
683.276	0.0180650
683.354	0.0180362
683.433	0.0181666
683.511	0.0182132
683.589	0.0180006
683.667	0.0179961
683.745	0.0180264
683.823	0.0180086
683.901	0.0180376
683.979	0.0179858
684.058	0.0179597
684.136	0.0180363
684.214	0.0181670
684.292	0.0181493
684.370	0.0182615
684.448	0.0182237
684.526	0.0182482
684.604	0.0181229
684.683	0.0182303
684.761	0.0182059
684.839	0.0178782
684.917	0.0179699
684.995	0.0180154
685.073	0.0180319
685.151	0.0179333
685.229	0.0178500
685.308	0.0179498
685.386	0.0176626
685.464	0.0176855
685.542	0.0178648
685.620	0.0178037
685.698	0.0177149
685.776	0.0178468
685.854	0.0179247
685.933	0.0178504
686.011	0.0178748
686.089	0.0178316
686.167	0.0179839
686.245	0.0179408
686.323	0.0181089
686.401	0.0180022
686.479	0.0178812
686.558	0.0180164
686.636	0.0181130
686.714	0.0181213
686.792	0.0180312
686.870	0.0179272
686.948	0.0180898
687.026	0.0179762
687.104	0.0181945
687.183	0.0181831
687.261	0.0181291
687.339	0.0182323
687.417	0.0181805
687.495	0.0180719
687.573	0.0182820
687.651	0.0180885
687.729	0.0183572
687.808	0.0183298
687.886	0.0182212
687.964	0.0183142
688.042	0.0183558
688.120	0.0181239
688.198	0.0181750
688.276	0.0180593
688.354	0.0180901
688.433	0.0180490
688.511	0.0179564
688.589	0.0180461
688.667	0.0180450
688.745	0.0178494
688.823	0.0179794
688.901	0.0180331
688.979	0.0179768
689.058	0.0179529
689.136	0.0179771
689.214	0.0177614
689.292	0.0176937
689.370	0.0176509
689.448	0.0178015
689.526	0.0176848
689.604	0.0174877
689.683	0.0175967
689.761	0.0175057
689.839	0.0174834
689.917	0.0176724
689.995	0.0175246
690.073	0.0177480
690.151	0.0177972
690.229	0.0177019
690.308	0.0178831
690.386	0.0178700
690.464	0.0178768
690.542	0.0180113
690.620	0.0181223
690.698	0.0180884
690.776	0.0181330
690.854	0.0181118
690.933	0.0181582
691.011	0.0182197
691.089	0.0181429
691.167	0.0180863
691.245	0.0182801
691.323	0.0181837
691.401	0.0182395
691.479	0.0182967
691.558	0.0181947
691.636	0.0182051
691.714	0.0183058
691.792	0.0183058
691.870	0.0183571
691.948	0.0182231
692.026	0.0182678
692.104	0.0182323
692.183	0.0181805
692.261	0.0183410
692.339	0.0183731
692.417	0.0182845
692.495	0.0183118
692.573	0.0182155
692.651	0.0182691
692.729	0.0182433
692.808	0.0182664
692.886	0.0182270
692.964	0.0181010
693.042	0.0179383
693.120	0.0181565
693.198	0.0179588
693.276	0.0179245
693.354	0.0179090
693.433	0.0177315
693.511	0.0177393
693.589	0.0176839
693.667	0.0176694
693.745	0.0175448
693.823	0.0175664
693.901	0.0175017
693.979	0.0173854
694.058	0.0172768
694.136	0.0174548
694.214	0.0176235
694.292	0.0175339
694.370	0.0175368
694.448	0.0175890
694.526	0.0178820
694.604	0.0177390
694.683	0.0176384
694.761	0.0179208
694.839	0.0179630
694.917	0.0178683
694.995	0.0180395
695.073	0.0179807
695.151	0.0179968
695.229	0.0180943
695.308	0.0181087
695.386	0.0180444
695.464	0.0179736
695.542	0.0179550
695.620	0.0180038
695.698	0.0180135
695.776	0.0180235
695.854	0.0180102
695.933	0.0181300
696.011	0.0181721
696.089	0.0181766
696.167	0.0181691
696.245	0.0183871
696.323	0.0184422
696.401	0.0185124
696.479	0.0184031
696.558	0.0185420
696.636	0.0185218
696.714	0.0184698
696.792	0.0184851
696.870	0.0183438
696.948	0.0183192
697.026	0.0183524
697.104	0.0183971
697.183	0.0182887
697.261	0.0182038
697.339	0.0181651
697.417	0.0182679
697.495	0.0181329
697.573	0.0182404
697.651	0.0181695
697.729	0.0182327
697.808	0.0182487
697.886	0.0182025
697.964	0.0182326
698.042	0.0181681
698.120	0.0181612
698.198	0.0181784
698.276	0.0182778
698.354	0.0183558
698.433	0.0181507
698.511	0.0182818
698.589	0.0181494
698.667	0.0181049
698.745	0.0180957
698.823	0.0178923
698.901	0.0177520
698.979	0.0176478
699.058	0.0176421
699.136	0.0176140
699.214	0.0174842
699.292	0.0172171
699.370	0.0172819
699.448	0.0172308
699.526	0.0171239
699.604	0.0172145
699.683	0.0171853
699.761	0.0172396
699.839	0.0172646
699.917	0.0172453
699.995	0.0172276
700.073	0.0174203
700.151	0.0174751
700.229	0.0175413
700.308	0.0175381
700.386	0.0176410
700.464	0.0177190
700.542	0.0178185
700.620	0.0179213
700.698	0.0180751
700.776	0.0182428
700.854	0.0181064
700.933	0.0181159
701.011	0.0181631
701.089	0.0182668
701.167	0.0182330
701.245	0.0183138
701.323	0.0183460
701.401	0.0182899
701.479	0.0184584
701.558	0.0185555
701.636	0.0187115
701.714	0.0186860
701.792	0.0187557
701.870	0.0189778
701.948	0.0190421
702.026	0.0191448
702.104	0.0191228
702.183	0.0190841
702.261	0.0191799
702.339	0.0191216
702.417	0.0190990
702.495	0.0190977
702.573	0.0188295
702.651	0.0188962
702.729	0.0187366
702.808	0.0186661
702.886	0.0186628
702.964	0.0184399
703.042	0.0184460
703.120	0.0183196
703.198	0.0179752
703.276	0.0179250
703.354	0.0180524
703.433	0.0179306
703.511	0.0176775
703.589	0.0176474
703.667	0.0175510
703.745	0.0176018
703.823	0.0175459
703.901	0.0175363
703.979	0.0176518
704.058	0.0178391
704.136	0.0177580
704.214	0.0176759
704.292	0.0176978
704.370	0.0176787
704.448	0.0177856
704.526	0.0178396
704.604	0.0176405
704.683	0.0175339
704.761	0.0175638
704.839	0.0174942
704.917	0.0171315
704.995	0.0171139
705.073	0.0171172
705.151	0.0167998
705.229	0.0167868
705.308	0.0167504
705.386	0.0168633
705.464	0.0166344
705.542	0.0165945
705.620	0.0166889
705.698	0.0168214
705.776	0.0170000
705.854	0.0170822
705.933	0.0171210
706.011	0.0173145
706.089	0.0175357
706.167	0.0176723
706.245	0.0179402
706.323	0.0182188
706.401	0.0183427
706.479	0.0186510
706.558	0.0189046
706.636	0.0189723
706.714	0.0192234
706.792	0.0194592
706.870	0.0195062
706.948	0.0195738
707.026	0.0197792
707.104	0.0197355
707.183	0.0197823
707.261	0.0195991
707.339	0.0195059
707.417	0.0194292
707.495	0.0192238
707.573	0.0189300
707.651	0.0189709
707.729	0.0188194
707.808	0.0186360
707.886	0.0187129
707.964	0.0185368
708.042	0.0184145
708.120	0.0183544
708.198	0.0185193
708.276	0.0183806
708.354	0.0183338
708.433	0.0183378
708.511	0.0182301
708.589	0.0183595
708.667	0.0182341
708.745	0.0182410
708.823	0.0182374
708.901	0.0181023
708.979	0.0181839
709.058	0.0179887
709.136	0.0176991
709.214	0.0177637
709.292	0.0175755
709.370	0.0175832
709.448	0.0172412
709.526	0.0171735
709.604	0.0173296
709.683	0.0170777
709.761	0.0173092
709.839	0.0172717
709.917	0.0170385
709.995	0.0170233
710.073	0.0172021
710.151	0.0170714
710.229	0.0170129
710.308	0.0170097
710.386	0.0172225
710.464	0.0171394
710.542	0.0171724
710.620	0.0172227
710.698	0.0172390
710.776	0.0171370
710.854	0.0173851
710.933	0.0174139
711.011	0.0174844
711.089	0.0174716
711.167	0.0176031
711.245	0.0176714
711.323	0.0177632
711.401	0.0178187
711.479	0.0178969
711.558	0.0178144
711.636	0.0179056
711.714	0.0179382
711.792	0.0181394
711.870	0.0181430
711.948	0.0180763
712.026	0.0181397
712.104	0.0181204
712.183	0.0181450
712.261	0.0180859
712.339	0.0182440
712.417	0.0183112
712.495	0.0183930
712.573	0.0184093
712.651	0.0184360
712.729	0.0184389
712.808	0.0185821
712.886	0.0185992
712.964	0.0186765
713.042	0.0186843
713.120	0.0188534
713.198	0.0190311
713.276	0.0189762
713.354	0.0190805
713.433	0.0190197
713.511	0.0191285
713.589	0.0193444
713.667	0.0193426
713.745	0.0192238
713.823	0.0193887
713.901	0.0194561
713.979	0.0193629
714.058	0.0193085
714.136	0.0194271
714.214	0.0192364
714.292	0.0191244
714.370	0.0189584
714.448	0.0188740
714.526	0.0187510
714.604	0.0185842
714.683	0.0184403
714.761	0.0183350
714.839	0.0182634
714.917	0.0181000
714.995	0.0179436
715.073	0.0178783
715.151	0.0178179
715.229	0.0176536
715.308	0.0174140
715.386	0.0172518
715.464	0.0169254
715.542	0.0167697
715.620	0.0167365
715.698	0.0164732
715.776	0.0160664
715.854	0.0158477
715.933	0.0157159
716.011	0.0156818
716.089	0.0157194
716.167	0.0157209
716.245	0.0156881
716.323	0.0159843
716.401	0.0163956
716.479	0.0168580
716.558	0.0170755
716.636	0.0173106
716.714	0.0177241
716.792	0.0180787
716.870	0.0183887
716.948	0.0183897
717.026	0.0187295
717.104	0.0188888
717.183	0.0188692
717.261	0.0187965
717.339	0.0189015
717.417	0.0187691
717.495	0.0186283
717.573	0.0187111
717.651	0.0186275
717.729	0.0186347
717.808	0.0186124
717.886	0.0186110
717.964	0.0184740
718.042	0.0184913
718.120	0.0183779
718.198	0.0181402
718.276	0.0181319
718.354	0.0180692
718.433	0.0180303
718.511	0.0179295
718.589	0.0177610
718.667	0.0175814
718.745	0.0175473
718.823	0.0176369
718.901	0.0175759
718.979	0.0175850
719.058	0.0177092
719.136	0.0176506
719.214	0.0178136
719.292	0.0178422
719.370	0.0178572
719.448	0.0181459
719.526	0.0181966
719.604	0.0182383
719.683	0.0183065
719.761	0.0186823
719.839	0.0186868
719.917	0.0188138
719.995	0.0189639
720.073	0.0189304
720.151	0.0189672
720.229	0.0191919
720.308	0.0192738
720.386	0.0193799
720.464	0.0195039
720.542	0.0194891
720.620	0.0195449
720.698	0.0196389
720.776	0.0195602
720.854	0.0195854
720.933	0.0193781
721.011	0.0193600
721.089	0.0191678
721.167	0.0189771
721.245	0.0188038
721.323	0.0185937
721.401	0.0183855
721.479	0.0180239
721.558	0.0178083
721.636	0.0175622
721.714	0.0174253
721.792	0.0171142
721.870	0.0169714
721.948	0.0168143
722.026	0.0167416
722.104	0.0165344
722.183	0.0164944
722.261	0.0162167
722.339	0.0160253
722.417	0.0159309
722.495	0.0158392
722.573	0.0158018
722.651	0.0155501
722.729	0.0155520
722.808	0.0156562
722.886	0.0158167
722.964	0.0158354
723.042	0.0161302
723.120	0.0162034
723.198	0.0164634
723.276	0.0167428
723.354	0.0169810
723.433	0.0172191
723.511	0.0175163
723.589	0.0178153
723.667	0.0181153
723.745	0.0183511
723.823	0.0185993
723.901	0.0187815
723.979	0.0190974
724.058	0.0192529
724.136	0.0193145
724.214	0.0195065
724.292	0.0193678
724.370	0.0193959
724.448	0.0194353
724.526	0.0195061
724.604	0.0193703
724.683	0.0192738
724.761	0.0191117
724.839	0.0189391
724.917	0.0188976
724.995	0.0189948
725.073	0.0187520
725.151	0.0188466
725.229	0.0188397
725.308	0.0185807
725.386	0.0187786
725.464	0.0188721
725.542	0.0188140
725.620	0.0189514
725.698	0.0189389
725.776	0.0187873
725.854	0.0189267
725.933	0.0189909
726.011	0.0188793
726.089	0.0188062
726.167	0.0187582
726.245	0.0184492
726.323	0.0186259
726.401	0.0186674
726.479	0.0184570
726.558	0.0183244
726.636	0.0182266
726.714	0.0182543
726.792	0.0181884
726.870	0.0181204
726.948	0.0181031
727.026	0.0181081
727.104	0.0179733
727.183	0.0179211
727.261	0.0179414
727.339	0.0179739
727.417	0.0179807
727.495	0.0179816
727.573	0.0177645
727.651	0.0177458
727.729	0.0176132
727.808	0.0175095
727.886	0.0173410
727.964	0.0171787
728.042	0.0170898
728.120	0.0168980
728.198	0.0167501
728.276	0.0165966
728.354	0.0165526
728.433	0.0165920
728.511	0.0165739
728.589	0.0165229
728.667	0.0164898
728.745	0.0166807
728.823	0.0167871
728.901	0.0167756
728.979	0.0168776
729.058	0.0167968
729.136	0.0168642
729.214	0.0170079
729.292	0.0169765
729.370	0.0170963
729.448	0.0173792
729.526	0.0172009
729.604	0.0174017
729.683	0.0175751
729.761	0.0178183
729.839	0.0180321
729.917	0.0181507
729.995	0.0183819
730.073	0.0186310
730.151	0.0186568
730.229	0.0188217
730.308	0.0189876
730.386	0.0192031
730.464	0.0191233
730.542	0.0192441
730.620	0.0192899
730.698	0.0194659
730.776	0.0192983
730.854	0.0191694
730.933	0.0190867
731.011	0.0190404
731.089	0.0186905
731.167	0.0185656
731.245	0.0184692
731.323	0.0183331
731.401	0.0183687
731.479	0.0181441
731.558	0.0182210
731.636	0.0182118
731.714	0.0181641
731.792	0.0182768
731.870	0.0182523
731.948	0.0183588
732.026	0.0183546
732.104	0.0183790
732.183	0.0183829
732.261	0.0184621
732.339	0.0184565
732.417	0.0184939
732.495	0.0184647
732.573	0.0185354
732.651	0.0184441
732.729	0.0181952
732.808	0.0181514
732.886	0.0180730
732.964	0.0182224
733.042	0.0179719
733.120	0.0181404
733.198	0.0181649
733.276	0.0180676
733.354	0.0182607
733.433	0.0182930
733.511	0.0181750
733.589	0.0182843
733.667	0.0183159
733.745	0.0183808
733.823	0.0184717
733.901	0.0183936
733.979	0.0182035
734.058	0.0180586
734.136	0.0180632
734.214	0.0176917
734.292	0.0175575
734.370	0.0175712
734.448	0.0173789
734.526	0.0171092
734.604	0.0169095
734.683	0.0169114
734.761	0.0167352
734.839	0.0167554
734.917	0.0166539
734.995	0.0166813
735.073	0.0167464
735.151	0.0167485
735.229	0.0168149
735.308	0.0166676
735.386	0.0168813
735.464	0.0170814
735.542	0.0171282
735.620	0.0171112
735.698	0.0172004
735.776	0.0173719
735.854	0.0176974
735.933	0.0176032
736.011	0.0175366
736.089	0.0178121
736.167	0.0181046
736.245	0.0179446
736.323	0.0180460
736.401	0.0183050
736.479	0.0180725
736.558	0.0182293
736.636	0.0182139
736.714	0.0182048
736.792	0.0182103
736.870	0.0183253
736.948	0.0182611
737.026	0.0182862
737.104	0.0184429
737.183	0.0185441
737.261	0.0185961
737.339	0.0187484
737.417	0.0185709
737.495	0.0187529
737.573	0.0187713
737.651	0.0188229
737.729	0.0190265
737.808	0.0189977
737.886	0.0189360
737.964	0.0189014
738.042	0.0189684
738.120	0.0188596
738.198	0.0187048
738.276	0.0187410
738.354	0.0186607
738.433	0.0185059
738.511	0.0186443
738.589	0.0185066
738.667	0.0184790
738.745	0.0185259
738.823	0.0185220
738.901	0.0184190
738.979	0.0185699
739.058	0.0185503
739.136	0.0186478
739.214	0.0186379
739.292	0.0187266
739.370	0.0186279
739.448	0.0187791
739.526	0.0186785
739.604	0.0187310
739.683	0.0186684
739.761	0.0184661
739.839	0.0183479
739.917	0.0184013
739.995	0.0182402
740.073	0.0181061
740.151	0.0178162
740.229	0.0179024
740.308	0.0176939
740.386	0.0174766
740.464	0.0174330
740.542	0.0173325
740.620	0.0170921
740.698	0.0169566
740.776	0.0165891
740.854	0.0166194
740.933	0.0166566
741.011	0.0164468
741.089	0.0164899
741.167	0.0165363
741.245	0.0165654
741.323	0.0165751
741.401	0.0165131
741.479	0.0166212
741.558	0.0167083
741.636	0.0167779
741.714	0.0168827
741.792	0.0167830
741.870	0.0168929
741.948	0.0167913
742.026	0.0169154
742.104	0.0170341
742.183	0.0171463
742.261	0.0172327
742.339	0.0172659
742.417	0.0173901
742.495	0.0174078
742.573	0.0174831
742.651	0.0178112
742.729	0.0180532
742.808	0.0180767
742.886	0.0183244
742.964	0.0185554
743.042	0.0185680
743.120	0.0188862
743.198	0.0188333
743.276	0.0191062
743.354	0.0191416
743.433	0.0192816
743.511	0.0193562
743.589	0.0193034
743.667	0.0194088
743.745	0.0194633
743.823	0.0194163
743.901	0.0192610
743.979	0.0193427
744.058	0.0193098
744.136	0.0194390
744.214	0.0193585
744.292	0.0194241
744.370	0.0191768
744.448	0.0191643
744.526	0.0192438
744.604	0.0190961
744.683	0.0189355
744.761	0.0189070
744.839	0.0189835
744.917	0.0187302
744.995	0.0186939
745.073	0.0184898
745.151	0.0184658
745.229	0.0185353
745.308	0.0183666
745.386	0.0183970
745.464	0.0183436
745.542	0.0182259
745.620	0.0182845
745.698	0.0182531
745.776	0.0182439
745.854	0.0181573
745.933	0.0179851
746.011	0.0179231
746.089	0.0176852
746.167	0.0176804
746.245	0.0175647
746.323	0.0173001
746.401	0.0171725
746.479	0.0170895
746.558	0.0170185
746.636	0.0168147
746.714	0.0167040
746.792	0.0165375
746.870	0.0164512
746.948	0.0164937
747.026	0.0163719
747.104	0.0164007
747.183	0.0164568
747.261	0.0165572
747.339	0.0165013
747.417	0.0166965
747.495	0.0167815
747.573	0.0169201
747.651	0.0170142
747.729	0.0170885
747.808	0.0171204
747.886	0.0173071
747.964	0.0174799
748.042	0.0172964
748.120	0.0175144
748.198	0.0174672
748.276	0.0175453
748.354	0.0177750
748.433	0.0176494
748.511	0.0176896
748.589	0.0179250
748.667	0.0177957
748.745	0.0178848
748.823	0.0179436
748.901	0.0182094
748.979	0.0183472
749.058	0.0184410
749.136	0.0185352
749.214	0.0186704
749.292	0.0188749
749.370	0.0189402
749.448	0.0190076
749.526	0.0192096
749.604	0.0192487
749.683	0.0193926
749.761	0.0193684
749.839	0.0194734
749.917	0.0195589
749.995	0.0194865
750.073	0.0194727
750.151	0.0194201
750.229	0.0194785
750.308	0.0192625
750.386	0.0193120
750.464	0.0193554
750.542	0.0191553
750.620	0.0189783
750.698	0.0189918
750.776	0.0188629
750.854	0.0187883
750.933	0.0185858
751.011	0.0185921
751.089	0.0186040
751.167	0.0182766
751.245	0.0183812
751.323	0.0183019
751.401	0.0181837
751.479	0.0179708
751.558	0.0179517
751.636	0.0179847
751.714	0.0179157
751.792	0.0176762
751.870	0.0176014
751.948	0.0176086
752.026	0.0174008
752.104	0.0174425
752.183	0.0173276
752.261	0.0170898
752.339	0.0170224
752.417	0.0170888
752.495	0.0169547
752.573	0.0168187
752.651	0.0167009
752.729	0.0166534
752.808	0.0167248
752.886	0.0168711
752.964	0.0168397
753.042	0.0170144
753.120	0.0169528
753.198	0.0170558
753.276	0.0171262
753.354	0.0172768
753.433	0.0172558
753.511	0.0172174
753.589	0.0175256
753.667	0.0174203
753.745	0.0174006
753.823	0.0175610
753.901	0.0176057
753.979	0.0176699
754.058	0.0177258
754.136	0.0175410
754.214	0.0177538
754.292	0.0176640
754.370	0.0176168
754.448	0.0177744
754.526	0.0177019
754.604	0.0178806
754.683	0.0179150
754.761	0.0180125
754.839	0.0181676
754.917	0.0182027
754.995	0.0182291
755.073	0.0184003
755.151	0.0184435
755.229	0.0185943
755.308	0.0186811
755.386	0.0187777
755.464	0.0187931
755.542	0.0188754
755.620	0.0188036
755.698	0.0188930
755.776	0.0189468
755.854	0.0190961
755.933	0.0189635
756.011	0.0188912
756.089	0.0190167
756.167	0.0191000
756.245	0.0190310
756.323	0.0189866
756.401	0.0188992
756.479	0.0188380
756.558	0.0188758
756.636	0.0187735
756.714	0.0186781
756.792	0.0186448
756.870	0.0185776
756.948	0.0186971
757.026	0.0185964
757.104	0.0184723
757.183	0.0184247
757.261	0.0183274
757.339	0.0183205
757.417	0.0182565
757.495	0.0181276
757.573	0.0179867
757.651	0.0178507
757.729	0.0177370
757.808	0.0176414
757.886	0.0174463
757.964	0.0174529
758.042	0.0173584
758.120	0.0173229
758.198	0.0174368
758.276	0.0173661
758.354	0.0171838
758.433	0.0174135
758.511	0.0171866
758.589	0.0172620
758.667	0.0173696
758.745	0.0173374
758.823	0.0173157
758.901	0.0174265
758.979	0.0174412
759.058	0.0173402
759.136	0.0172876
759.214	0.0174117
759.292	0.0174728
759.370	0.0175406
759.448	0.0175581
759.526	0.0176192
759.604	0.0175734
759.683	0.0175810
759.761	0.0177246
759.839	0.0178345
759.917	0.0177288
759.995	0.0178220
760.073	0.0178427
760.151	0.0176913
760.229	0.0176305
760.308	0.0177061
760.386	0.0175546
760.464	0.0175860
760.542	0.0176556
760.620	0.0175325
760.698	0.0176366
760.776	0.0176331
760.854	0.0177446
760.933	0.0177973
761.011	0.0179515
761.089	0.0181040
761.167	0.0182304
761.245	0.0182542
761.323	0.0184473
761.401	0.0185692
761.479	0.0188311
761.558	0.0186610
761.636	0.0188679
761.714	0.0188255
761.792	0.0188852
761.870	0.0190732
761.948	0.0189642
762.026	0.0188674
762.104	0.0189213
762.183	0.0188083
762.261	0.0187766
762.339	0.0185852
762.417	0.0184572
762.495	0.0183224
762.573	0.0182769
762.651	0.0181893
762.729	0.0181950
762.808	0.0182041
762.886	0.0181689
762.964	0.0180221
763.042	0.0179966
763.120	0.0180381
763.198	0.0179157
763.276	0.0179484
763.354	0.0177119
763.433	0.0177180
763.511	0.0177408
763.589	0.0177372
763.667	0.0175682
763.745	0.0174364
763.823	0.0174309
763.901	0.0173417
763.979	0.0174372
764.058	0.0174297
764.136	0.0174784
764.214	0.0174455
764.292	0.0176294
764.370	0.0176632
764.448	0.0178877
764.526	0.0179281
764.604	0.0179495
764.683	0.0179339
764.761	0.0181015
764.839	0.0181706
764.917	0.0183270
764.995	0.0183630
765.073	0.0183507
765.151	0.0183722
765.229	0.0183270
765.308	0.0183699
765.386	0.0183965
765.464	0.0185235
765.542	0.0184916
765.620	0.0184736
765.698	0.0182832
765.776	0.0182404
765.854	0.0180941
765.933	0.0179708
766.011	0.0179663
766.089	0.0178587
766.167	0.0176679
766.245	0.0175234
766.323	0.0174434
766.401	0.0173327
766.479	0.0171632
766.558	0.0170646
766.636	0.0170532
766.714	0.0171065
766.792	0.0170433
766.870	0.0170168
766.948	0.0172063
767.026	0.0172775
767.104	0.0172716
767.183	0.0173820
767.261	0.0174491
767.339	0.0176219
767.417	0.0177794
767.495	0.0178902
767.573	0.0181446
767.651	0.0182273
767.729	0.0183951
767.808	0.0184625
767.886	0.0186054
767.964	0.0186979
768.042	0.0186092
768.120	0.0186049
768.198	0.0186074
768.276	0.0184372
768.354	0.0184423
768.433	0.0183655
768.511	0.0183797
768.589	0.0182622
768.667	0.0183453
768.745	0.0182609
768.823	0.0184176
768.901	0.0183508
768.979	0.0184064
769.058	0.0183080
769.136	0.0182801
769.214	0.0183055
769.292	0.0183974
769.370	0.0182944
769.448	0.0183479
769.526	0.0179343
769.604	0.0180023
769.683	0.0178641
769.761	0.0179626
769.839	0.0177888
769.917	0.0177629
769.995	0.0176525
770.073	0.0176922
770.151	0.0177273
770.229	0.0176928
770.308	0.0178850
770.386	0.0177855
770.464	0.0178561
770.542	0.0179424
770.620	0.0180930
770.698	0.0180853
770.776	0.0182362
770.854	0.0183606
770.933	0.0184194
771.011	0.0184190
771.089	0.0185318
771.167	0.0185607
771.245	0.0186732
771.323	0.0186568
771.401	0.0184112
771.479	0.0184389
771.558	0.0184223
771.636	0.0182908
771.714	0.0181635
771.792	0.0180422
771.870	0.0179398
771.948	0.0178321
772.026	0.0177015
772.104	0.0173902
772.183	0.0172832
772.261	0.0173869
772.339	0.0172151
772.417	0.0172299
772.495	0.0172437
772.573	0.0172380
772.651	0.0171012
772.729	0.0172189
772.808	0.0173113
772.886	0.0172877
772.964	0.0173801
773.042	0.0173431
773.120	0.0174101
773.198	0.0175821
773.276	0.0178059
773.354	0.0179678
773.433	0.0180936
773.511	0.0181570
773.589	0.0182811
773.667	0.0183623
773.745	0.0184368
773.823	0.0186496
773.901	0.0186833
773.979	0.0184965
774.058	0.0187048
774.136	0.0187354
774.214	0.0186305
774.292	0.0185208
774.370	0.0185993
774.448	0.0184312
774.526	0.0182468
774.604	0.0182330
774.683	0.0181343
774.761	0.0179955
774.839	0.0180248
774.917	0.0181056
774.995	0.0180072
775.073	0.0180572
775.151	0.0179908
775.229	0.0179392
775.308	0.0181051
775.386	0.0179873
775.464	0.0180244
775.542	0.0179482
775.620	0.0180280
775.698	0.0179281
775.776	0.0176600
775.854	0.0176725
775.933	0.0176624
776.011	0.0177995
776.089	0.0177676
776.167	0.0177747
776.245	0.0177591
776.323	0.0178476
776.401	0.0181129
776.479	0.0180983
776.558	0.0180255
776.636	0.0182233
776.714	0.0183205
776.792	0.0182100
776.870	0.0184690
776.948	0.0184838
777.026	0.0186407
777.104	0.0187004
777.183	0.0187112
777.261	0.0187471
777.339	0.0187178
777.417	0.0187524
777.495	0.0184724
777.573	0.0184737
777.651	0.0183912
777.729	0.0181780
777.808	0.0180042
777.886	0.0180759
777.964	0.0178824
778.042	0.0177918
778.120	0.0177275
778.198	0.0175848
778.276	0.0174522
778.354	0.0174923
778.433	0.0176183
778.511	0.0174039
778.589	0.0172661
778.667	0.0172997
778.745	0.0174124
778.823	0.0172941
778.901	0.0172222
778.979	0.0172238
779.058	0.0174828
779.136	0.0174409
779.214	0.0172027
779.292	0.0174357
779.370	0.0174768
779.448	0.0176246
779.526	0.0175987
779.604	0.0177081
779.683	0.0179709
779.761	0.0179596
779.839	0.0181382
779.917	0.0182875
779.995	0.0183124
780.073	0.0183162
780.151	0.0183580
780.229	0.0182505
780.308	0.0182626
780.386	0.0183035
780.464	0.0183118
780.542	0.0181542
780.620	0.0182747
780.698	0.0182742
780.776	0.0183336
780.854	0.0180904
780.933	0.0181236
781.011	0.0181178
781.089	0.0181182
781.167	0.0180953
781.245	0.0181682
781.323	0.0182462
781.401	0.0182426
781.479	0.0181155
781.558	0.0181522
781.636	0.0182657
781.714	0.0182681
781.792	0.0181715
781.870	0.0181883
781.948	0.0180534
782.026	0.0181721
782.104	0.0181128
782.183	0.0181190
782.261	0.0181252
782.339	0.0180707
782.417	0.0181604
782.495	0.0180884
782.573	0.0181068
782.651	0.0182278
782.729	0.0182409
782.808	0.0181833
782.886	0.0182129
782.964	0.0183234
783.042	0.0181219
783.120	0.0183130
783.198	0.0182669
783.276	0.0183379
783.354	0.0182088
783.433	0.0183227
783.511	0.0182780
783.589	0.0182298
783.667	0.0181240
783.745	0.0180437
783.823	0.0180437
783.901	0.0179463
783.979	0.0181435
784.058	0.0180505
784.136	0.0180012
784.214	0.0178317
784.292	0.0177715
784.370	0.0178825
784.448	0.0177228
784.526	0.0177602
784.604	0.0177083
784.683	0.0176307
784.761	0.0175435
784.839	0.0174494
784.917	0.0174314
784.995	0.0174664
785.073	0.0173926
785.151	0.0173207
785.229	0.0173631
785.308	0.0173874
785.386	0.0174332
785.464	0.0175262
785.542	0.0176428
785.620	0.0175803
785.698	0.0177352
785.776	0.0178805
785.854	0.0180547
785.933	0.0181934
786.011	0.0181866
786.089	0.0182576
786.167	0.0183355
786.245	0.0183511
786.323	0.0183829
786.401	0.0181802
786.479	0.0184780
786.558	0.0182369
786.636	0.0183303
786.714	0.0180914
786.792	0.0181178
786.870	0.0180838
786.948	0.0181182
787.026	0.0181677
787.104	0.0179291
787.183	0.0179045
787.261	0.0180147
787.339	0.0180163
787.417	0.0179800
787.495	0.0180235
787.573	0.0180135
787.651	0.0182072
787.729	0.0180682
787.808	0.0180367
787.886	0.0181266
787.964	0.0182101
788.042	0.0181070
788.120	0.0182164
788.198	0.0182058
788.276	0.0182349
788.354	0.0180747
788.433	0.0180956
788.511	0.0181643
788.589	0.0181240
788.667	0.0181898
788.745	0.0181090
788.823	0.0181512
788.901	0.0182876
788.979	0.0182533
789.058	0.0181438
789.136	0.0182016
789.214	0.0183925
789.292	0.0183412
789.370	0.0182491
789.448	0.0182708
789.526	0.0182217
789.604	0.0183869
789.683	0.0184124
789.761	0.0182328
789.839	0.0182928
789.917	0.0183199
789.995	0.0181445
790.073	0.0181444
790.151	0.0182308
790.229	0.0181807
790.308	0.0179698
790.386	0.0179593
790.464	0.0178062
790.542	0.0177346
790.620	0.0178956
790.698	0.0176873
790.776	0.0175993
790.854	0.0175019
790.933	0.0174685
791.011	0.0175451
791.089	0.0175474
791.167	0.0175266
791.245	0.0175478
791.323	0.0173685
791.401	0.0173669
791.479	0.0174925
791.558	0.0173996
791.636	0.0175170
791.714	0.0176589
791.792	0.0177302
791.870	0.0178395
791.948	0.0177171
792.026	0.0178730
792.104	0.0179317
792.183	0.0179008
792.261	0.0180948
792.339	0.0181746
792.417	0.0181205
792.495	0.0182555
792.573	0.0183851
792.651	0.0182117
792.729	0.0181094
792.808	0.0181952
792.886	0.0182133
792.964	0.0183243
793.042	0.0181987
793.120	0.0182486
793.198	0.0181321
793.276	0.0182148
793.354	0.0182838
793.433	0.0181432
793.511	0.0181953
793.589	0.0182443
793.667	0.0183712
793.745	0.0180967
793.823	0.0181232
793.901	0.0182104
793.979	0.0182490
794.058	0.0182341
794.136	0.0182429
794.214	0.0181944
794.292	0.0180643
794.370	0.0180751
794.448	0.0180832
794.526	0.0179640
794.604	0.0180916
794.683	0.0181120
794.761	0.0178736
794.839	0.0178383
794.917	0.0178655
794.995	0.0178197
795.073	0.0178061
795.151	0.0177776
795.229	0.0179278
795.308	0.0179665
795.386	0.0179224
795.464	0.0181051
795.542	0.0180740
795.620	0.0180544
795.698	0.0182754
795.776	0.0182451
795.854	0.0181565
795.933	0.0181744
796.011	0.0183035
796.089	0.0182021
796.167	0.0183071
796.245	0.0183097
796.323	0.0183075
796.401	0.0181210
796.479	0.0180547
796.558	0.0180479
796.636	0.0179022
796.714	0.0179858
796.792	0.0177303
796.870	0.0177965
796.948	0.0179099
797.026	0.0176568
797.104	0.0178327
797.183	0.0177486
797.261	0.0177418
797.339	0.0177113
797.417	0.0176080
797.495	0.0175697
797.573	0.0177693
797.651	0.0179276
797.729	0.0178251
797.808	0.0177942
797.886	0.0177483
797.964	0.0178020
798.042	0.0178138
798.120	0.0178675
798.198	0.0180168
798.276	0.0179482
798.354	0.0178994
798.433	0.0180564
798.511	0.0180773
798.589	0.0181100
798.667	0.0181629
798.745	0.0182207
798.823	0.0180654
798.901	0.0181997
798.979	0.0180950
799.058	0.0182212
799.136	0.0183010
799.214	0.0181914
799.292	0.0183647
799.370	0.0181989
799.448	0.0181799
799.526	0.0182523
799.604	0.0181545
799.683	0.0181796
799.761	0.0181954
799.839	0.0179856
799.917	0.0181119
799.995	0.0180917
800.073	0.0179172
800.151	0.0179909
800.229	0.0178896
800.308	0.0180597
800.386	0.0180051
800.464	0.0179150
800.542	0.0179578
800.620	0.0179660
800.698	0.0179752
800.776	0.0178797
800.854	0.0180222
800.933	0.0178976
801.011	0.0178594
801.089	0.0181502
801.167	0.0180578
801.245	0.0179227
801.323	0.0180818
801.401	0.0180796
801.479	0.0180611
801.558	0.0182909
801.636	0.0181531
801.714	0.0182621
801.792	0.0182048
801.870	0.0181980
801.948	0.0181186
802.026	0.0182289
802.104	0.0179913
802.183	0.0183386
802.261	0.0181983
802.339	0.0180515
802.417	0.0181464
802.495	0.0180230
802.573	0.0179961
802.651	0.0180883
802.729	0.0178744
802.808	0.0178807
802.886	0.0179388
802.964	0.0178030
803.042	0.0179224
803.120	0.0179173
803.198	0.0178162
803.276	0.0177256
803.354	0.0179370
803.433	0.0177959
803.511	0.0179581
803.589	0.0178465
803.667	0.0178606
803.745	0.0179369
803.823	0.0180709
803.901	0.0179633
803.979	0.0179094
804.058	0.0180819
804.136	0.0181335
804.214	0.0180811
804.292	0.0181248
804.370	0.0181367
804.448	0.0181848
804.526	0.0183102
804.604	0.0180336
804.683	0.0180941
804.761	0.0182427
804.839	0.0181464
804.917	0.0182729
804.995	0.0182212
805.073	0.0181870
805.151	0.0180482
805.229	0.0180739
805.308	0.0180473
805.386	0.0180566
805.464	0.0180418
805.542	0.0180174
805.620	0.0178134
805.698	0.0178023
805.776	0.0179530
805.854	0.0178988
805.933	0.0178768
806.011	0.0179131
806.089	0.0179263
806.167	0.0179836
806.245	0.0178432
806.323	0.0179832
806.401	0.0180676
806.479	0.0180195
806.558	0.0178764
806.636	0.0180681
806.714	0.0180044
806.792	0.0180808
806.870	0.0180819
806.948	0.0181577
807.026	0.0181343
807.104	0.0181122
807.183	0.0180899
807.261	0.0181568
807.339	0.0181229
807.417	0.0180672
807.495	0.0180776
807.573	0.0181070
807.651	0.0181555
807.729	0.0181000
807.808	0.0181620
807.886	0.0181535
807.964	0.0180244
808.042	0.0180002
808.120	0.0180153
808.198	0.0179280
808.276	0.0179968
808.354	0.0179839
808.433	0.0180106
808.511	0.0179772
808.589	0.0178666
808.667	0.0179021
808.745	0.0178890
808.823	0.0178728
808.901	0.0179543
808.979	0.0180137
809.058	0.0179660
809.136	0.0179065
809.214	0.0178760
809.292	0.0178982
809.370	0.0179591
809.448	0.0179880
809.526	0.0179661
809.604	0.0181006
809.683	0.0179465
809.761	0.0181058
809.839	0.0180919
809.917	0.0182379
809.995	0.0182330
810.073	0.0181955
810.151	0.0180597
810.229	0.0183007
810.308	0.0182162
810.386	0.0182494
810.464	0.0181089
810.542	0.0182314
810.620	0.0183005
810.698	0.0181975
810.776	0.0181588
810.854	0.0180843
810.933	0.0182206
811.011	0.0180870
811.089	0.0179697
811.167	0.0180695
811.245	0.0180103
811.323	0.0180338
811.401	0.0179951
811.479	0.0180167
811.558	0.0180057
811.636	0.0179395
811.714	0.0179105
811.792	0.0179749
811.870	0.0179945
811.948	0.0179301
812.026	0.0179972
812.104	0.0178702
812.183	0.0177671
812.261	0.0179385
812.339	0.0179494
812.417	0.0178795
812.495	0.0180277
812.573	0.0180630
812.651	0.0179741
812.729	0.0179573
812.808	0.0179971
812.886	0.0180964
812.964	0.0179246
813.042	0.0179569
813.120	0.0179604
813.198	0.0179276
813.276	0.0179741
813.354	0.0179533
813.433	0.0178625
813.511	0.0178018
813.589	0.0178770
813.667	0.0178662
813.745	0.0178844
813.823	0.0179704
813.901	0.0179426
813.979	0.0178786
814.058	0.0178918
814.136	0.0179684
814.214	0.0179766
814.292	0.0180975
814.370	0.0179447
814.448	0.0180235
814.526	0.0180410
814.604	0.0181892
814.683	0.0179767
814.761	0.0180786
814.839	0.0180493
814.917	0.0180503
814.995	0.0179930
815.073	0.0180964
815.151	0.0180528
815.229	0.0181210
815.308	0.0181770
815.386	0.0181094
815.464	0.0181522
815.542	0.0180589
815.620	0.0181129
815.698	0.0182066
815.776	0.0180360
815.854	0.0182112
815.933	0.0181423
816.011	0.0181073
816.089	0.0182069
816.167	0.0181937
816.245	0.0182040
816.323	0.0182625
816.401	0.0182012
816.479	0.0179404
816.558	0.0180552
816.636	0.0180041
816.714	0.0179623
816.792	0.0179406
816.870	0.0179565
816.948	0.0180199
817.026	0.0178968
817.104	0.0178319
817.183	0.0180038
817.261	0.0179236
817.339	0.0180125
817.417	0.0180395
817.495	0.0179774
817.573	0.0178764
817.651	0.0179966
817.729	0.0180956
817.808	0.0181050
817.886	0.0179652
817.964	0.0181975
818.042	0.0182126
818.120	0.0181806
818.198	0.0181793
818.276	0.0181212
818.354	0.0182686
818.433	0.0180624
818.511	0.0182124
818.589	0.0181374
818.667	0.0180492
818.745	0.0181523
818.823	0.0179758
818.901	0.0177723
818.979	0.0178524
819.058	0.0179205
819.136	0.0177985
819.214	0.0176889
819.292	0.0176952
819.370	0.0177348
819.448	0.0177407
819.526	0.0176556
819.604	0.0177076
819.683	0.0177280
819.761	0.0177003
819.839	0.0176447
819.917	0.0176913
819.995	0.0178148
820.073	0.0177020
820.151	0.0178902
820.229	0.0179613
820.308	0.0179385
820.386	0.0180811
820.464	0.0179586
820.542	0.0179682
820.620	0.0179855
820.698	0.0179415
820.776	0.0180965
820.854	0.0181533
820.933	0.0181148
821.011	0.0180684
821.089	0.0182762
821.167	0.0181706
821.245	0.0181187
821.323	0.0183154
821.401	0.0180886
821.479	0.0180691
821.558	0.0182751
821.636	0.0182156
821.714	0.0182123
821.792	0.0182547
821.870	0.0182619
821.948	0.0183202
822.026	0.0183092
822.104	0.0182665
822.183	0.0183530
822.261	0.0184613
822.339	0.0182279
822.417	0.0181988
822.495	0.0182938
822.573	0.0181582
822.651	0.0180386
822.729	0.0180968
822.808	0.0181054
822.886	0.0179523
822.964	0.0179070
823.042	0.0179086
823.120	0.0179613
823.198	0.0179579
823.276	0.0179083
823.354	0.0180181
823.433	0.0179711
823.511	0.0181128
823.589	0.0179805
823.667	0.0177896
823.745	0.0180533
823.823	0.0179768
823.901	0.0180618
823.979	0.0181647
824.058	0.0181626
824.136	0.0181657
824.214	0.0182254
824.292	0.0180903
824.370	0.0180219
824.448	0.0181159
824.526	0.0180713
824.604	0.0180553
824.683	0.0181311
824.761	0.0178133
824.839	0.0178577
824.917	0.0178066
824.995	0.0178288
825.073	0.0176995
825.151	0.0175237
825.229	0.0177427
825.308	0.0175937
825.386	0.0175208
825.464	0.0175884
825.542	0.0175051
825.620	0.0175427
825.698	0.0176374
825.776	0.0175349
825.854	0.0176599
825.933	0.0176347
826.011	0.0176336
826.089	0.0178944
826.167	0.0178870
826.245	0.0179778
826.323	0.0181020
826.401	0.0179643
826.479	0.0181171
826.558	0.0181095
826.636	0.0180309
826.714	0.0182187
826.792	0.0182752
826.870	0.0181997
826.948	0.0181937
827.026	0.0182658
827.104	0.0182861
827.183	0.0183248
827.261	0.0181992
827.339	0.0182673
827.417	0.0183069
827.495	0.0182542
827.573	0.0180853
827.651	0.0183019
827.729	0.0182359
827.808	0.0182188
827.886	0.0182655
827.964	0.0182557
828.042	0.0182684
828.120	0.0182111
828.198	0.0182984
828.276	0.0182880
828.354	0.0183721
828.433	0.0181818
828.511	0.0182949
828.589	0.0182903
828.667	0.0181815
828.745	0.0182880
828.823	0.0181664
828.901	0.0182136
828.979	0.0181405
829.058	0.0181143
829.136	0.0181371
829.214	0.0180147
829.292	0.0180006
829.370	0.0179267
829.448	0.0180170
829.526	0.0179890
829.604	0.0180576
829.683	0.0180527
829.761	0.0179322
829.839	0.0181703
829.917	0.0179405
829.995	0.0180605
830.073	0.0181020
830.151	0.0182098
830.229	0.0180588
830.308	0.0180618
830.386	0.0180810
830.464	0.0179758
830.542	0.0179922
830.620	0.0179701
830.698	0.0178279
830.776	0.0179725
830.854	0.0179304
830.933	0.0179080
831.011	0.0177213
831.089	0.0177494
831.167	0.0175563
831.245	0.0176241
831.323	0.0176673
831.401	0.0175352
831.479	0.0176400
831.558	0.0176517
831.636	0.0176254
831.714	0.0176395
831.792	0.0177343
831.870	0.0176088
831.948	0.0178822
832.026	0.0177919
832.104	0.0177618
832.183	0.0176790
832.261	0.0178326
832.339	0.0178862
832.417	0.0179266
832.495	0.0179607
832.573	0.0180164
832.651	0.0180411
832.729	0.0181747
832.808	0.0179720
832.886	0.0180145
832.964	0.0181152
833.042	0.0181148
833.120	0.0180674
833.198	0.0180906
833.276	0.0181318
833.354	0.0181814
833.433	0.0180696
833.511	0.0182280
833.589	0.0181887
833.667	0.0181757
833.745	0.0181236
833.823	0.0181543
833.901	0.0182979
833.979	0.0182578
834.058	0.0182067
834.136	0.0182666
834.214	0.0183212
834.292	0.0182867
834.370	0.0183240
834.448	0.0183746
834.526	0.0184332
834.604	0.0184560
834.683	0.0184049
834.761	0.0184670
834.839	0.0184472
834.917	0.0184759
834.995	0.0185358
835.073	0.0182252
835.151	0.0184147
835.229	0.0183246
835.308	0.0182593
835.386	0.0183598
835.464	0.0182905
835.542	0.0182136
835.620	0.0182302
835.698	0.0180884
835.776	0.0180920
835.854	0.0179966
835.933	0.0179919
836.011	0.0179696
836.089	0.0179969
836.167	0.0179302
836.245	0.0180315
836.323	0.0179639
836.401	0.0180196
836.479	0.0178413
836.558	0.0179162
836.636	0.0179488
836.714	0.0179238
836.792	0.0178051
836.870	0.0178262
836.948	0.0177187
837.026	0.0177663
837.104	0.0178577
837.183	0.0176861
837.261	0.0175681
837.339	0.0175772
837.417	0.0176321
837.495	0.0175407
837.573	0.0175972
837.651	0.0175896
837.729	0.0174610
837.808	0.0175786
837.886	0.0176556
837.964	0.0175799
838.042	0.0176724
838.120	0.0177242
838.198	0.0176986
838.276	0.0178112
838.354	0.0178128
838.433	0.0177852
838.511	0.0179255
838.589	0.0179471
838.667	0.0179612
838.745	0.0180661
838.823	0.0180604
838.901	0.0180943
838.979	0.0181628
839.058	0.0181538
839.136	0.0183244
839.214	0.0181969
839.292	0.0183160
839.370	0.0183459
839.448	0.0182094
839.526	0.0184016
839.604	0.0182837
839.683	0.0183144
839.761	0.0182671
839.839	0.0182101
839.917	0.0182079
839.995	0.0183978
840.073	0.0183334
840.151	0.0182893
840.229	0.0182233
840.308	0.0182543
840.386	0.0182994
840.464	0.0183125
840.542	0.0182434
840.620	0.0182489
840.698	0.0183974
840.776	0.0181717
840.854	0.0182488
840.933	0.0183910
841.011	0.0182759
841.089	0.0183210
841.167	0.0183192
841.245	0.0180116
841.323	0.0181562
841.401	0.0181474
841.479	0.0181174
841.558	0.0181017
841.636	0.0179778
841.714	0.0179774
841.792	0.0180988
841.870	0.0181176
841.948	0.0179844
842.026	0.0179197
842.104	0.0180383
842.183	0.0180433
842.261	0.0178037
842.339	0.0177604
842.417	0.0179929
842.495	0.0179314
842.573	0.0177533
842.651	0.0177396
842.729	0.0179278
842.808	0.0177082
842.886	0.0177539
842.964	0.0178949
843.042	0.0179283
843.120	0.0177344
843.198	0.0177444
843.276	0.0177080
843.354	0.0177164
843.433	0.0177415
843.511	0.0177690
843.589	0.0177071
843.667	0.0176703
843.745	0.0177399
843.823	0.0177353
843.901	0.0176196
843.979	0.0177088
844.058	0.0177359
844.136	0.0179015
844.214	0.0177358
844.292	0.0178940
844.370	0.0178552
844.448	0.0178413
844.526	0.0177946
844.604	0.0179926
844.683	0.0178246
844.761	0.0179592
844.839	0.0180522
844.917	0.0180238
844.995	0.0179574
845.073	0.0180666
845.151	0.0180738
845.229	0.0180611
845.308	0.0180460
845.386	0.0179443
845.464	0.0180608
845.542	0.0180328
845.620	0.0182352
845.698	0.0181773
845.776	0.0181534
845.854	0.0181932
845.933	0.0182117
846.011	0.0181169
846.089	0.0182255
846.167	0.0182772
846.245	0.0182832
846.323	0.0181586
846.401	0.0183243
846.479	0.0183371
846.558	0.0183852
846.636	0.0183810
846.714	0.0183759
846.792	0.0182760
846.870	0.0183119
846.948	0.0183567
847.026	0.0182708
847.104	0.0183356
847.183	0.0182505
847.261	0.0183301
847.339	0.0183750
847.417	0.0184147
847.495	0.0183512
847.573	0.0182580
847.651	0.0181023
847.729	0.0181950
847.808	0.0182043
847.886	0.0181569
847.964	0.0181217
848.042	0.0180138
848.120	0.0179854
848.198	0.0179684
848.276	0.0179408
848.354	0.0178601
848.433	0.0177998
848.511	0.0179041
848.589	0.0178782
848.667	0.0177656
848.745	0.0178063
848.823	0.0177731
848.901	0.0177626
848.979	0.0177396
849.058	0.0176826
849.136	0.0176584
849.214	0.0176491
849.292	0.0176571
849.370	0.0177135
849.448	0.0177665
849.526	0.0177200
849.604	0.0176390
849.683	0.0177080
849.761	0.0177077
849.839	0.0178004
849.917	0.0176611
849.995	0.0177238
850.073	0.0178922
850.151	0.0178509
850.229	0.0179482
850.308	0.0179053
850.386	0.0180862
850.464	0.0179600
850.542	0.0180775
850.620	0.0179853
850.698	0.0179752
850.776	0.0181768
850.854	0.0181375
850.933	0.0181210
851.011	0.0182103
851.089	0.0181342
851.167	0.0182507
851.245	0.0182774
851.323	0.0182204
851.401	0.0182052
851.479	0.0183743
851.558	0.0183144
851.636	0.0182317
851.714	0.0182533
851.792	0.0182536
851.870	0.0182175
851.948	0.0181548
852.026	0.0182661
852.104	0.0181142
852.183	0.0182312
852.261	0.0181461
852.339	0.0182198
852.417	0.0182021
852.495	0.0182464
852.573	0.0181842
852.651	0.0180746
852.729	0.0181707
852.808	0.0181289
852.886	0.0181833
852.964	0.0182062
853.042	0.0180276
853.120	0.0180585
853.198	0.0181375
853.276	0.0179883
853.354	0.0179751
853.433	0.0180567
853.511	0.0179797
853.589	0.0181521
853.667	0.0179771
853.745	0.0180692
853.823	0.0182275
853.901	0.0180517
853.979	0.0178943
854.058	0.0181117
854.136	0.0180699
854.214	0.0179865
854.292	0.0179662
854.370	0.0179604
854.448	0.0180284
854.526	0.0179208
854.604	0.0178953
854.683	0.0178706
854.761	0.0179681
854.839	0.0179980
854.917	0.0179584
854.995	0.0178378
855.073	0.0178592
855.151	0.0179322
855.229	0.0179465
855.308	0.0179617
855.386	0.0178275
855.464	0.0179839
855.542	0.0179140
855.620	0.0179613
855.698	0.0178742
855.776	0.0178800
855.854	0.0179369
855.933	0.0179858
856.011	0.0179705
856.089	0.0179797
856.167	0.0179857
856.245	0.0179131
856.323	0.0179444
856.401	0.0180732
856.479	0.0180397
856.558	0.0178715
856.636	0.0179250
856.714	0.0179372
856.792	0.0177791
856.870	0.0177631
856.948	0.0178651
857.026	0.0179436
857.104	0.0178042
857.183	0.0178743
857.261	0.0178655
857.339	0.0179640
857.417	0.0178459
857.495	0.0179143
857.573	0.0179798
857.651	0.0178854
857.729	0.0179297
857.808	0.0178625
857.886	0.0180167
857.964	0.0180790
858.042	0.0181621
858.120	0.0180090
858.198	0.0180306
858.276	0.0180916
858.354	0.0181526
858.433	0.0182454
858.511	0.0182245
858.589	0.0182662
858.667	0.0182832
858.745	0.0181541
858.823	0.0182227
858.901	0.0182831
858.979	0.0182763
859.058	0.0181656
859.136	0.0183405
859.214	0.0181527
859.292	0.0181883
859.370	0.0180318
859.448	0.0180008
859.526	0.0181702
859.604	0.0182042
859.683	0.0181228
859.761	0.0179819
859.839	0.0180037
859.917	0.0179803
859.995	0.0179465
860.073	0.0180147
860.151	0.0179739
860.229	0.0179433
860.308	0.0179914
860.386	0.0179189
860.464	0.0179593
860.542	0.0180167
860.620	0.0178851
860.698	0.0179128
860.776	0.0178244
860.854	0.0178971
860.933	0.0178745
861.011	0.0179466
861.089	0.0179647
861.167	0.0178944
861.245	0.0178497
861.323	0.0179431
861.401	0.0179143
861.479	0.0179134
861.558	0.0178780
861.636	0.0179431
861.714	0.0179169
861.792	0.0179936
861.870	0.0178443
861.948	0.0180154
862.026	0.0179902
862.104	0.0180793
862.183	0.0180602
862.261	0.0180180
862.339	0.0181123
862.417	0.0180286
862.495	0.0180698
862.573	0.0180463
862.651	0.0180728
862.729	0.0180482
862.808	0.0180010
862.886	0.0178390
862.964	0.0179707
863.042	0.0179692
863.120	0.0180996
863.198	0.0180405
863.276	0.0179873
863.354	0.0181504
863.433	0.0178775
863.511	0.0179309
863.589	0.0179848
863.667	0.0180213
863.745	0.0179003
863.823	0.0180351
863.901	0.0179975
863.979	0.0181070
864.058	0.0180873
864.136	0.0180634
864.214	0.0180692
864.292	0.0180167
864.370	0.0181610
864.448	0.0182016
864.526	0.0180563
864.604	0.0181996
864.683	0.0181733
864.761	0.0179954
864.839	0.0181421
864.917	0.0181049
864.995	0.0181323
865.073	0.0181292
865.151	0.0180524
865.229	0.0180208
865.308	0.0180656
865.386	0.0180096
865.464	0.0180895
865.542	0.0180363
865.620	0.0179620
865.698	0.0180474
865.776	0.0181226
865.854	0.0179423
865.933	0.0179530
866.011	0.0180807
866.089	0.0179765
866.167	0.0179153
866.245	0.0179420
866.323	0.0179156
866.401	0.0179173
866.479	0.0181120
866.558	0.0179911
866.636	0.0181013
866.714	0.0179771
866.792	0.0179858
866.870	0.0180011
866.948	0.0180029
867.026	0.0177951
867.104	0.0179956
867.183	0.0179304
867.261	0.0180622
867.339	0.0179884
867.417	0.0179011
867.495	0.0181413
867.573	0.0180597
867.651	0.0181277
867.729	0.0179509
867.808	0.0179385
867.886	0.0181740
867.964	0.0181954
868.042	0.0181166
868.120	0.0180230
868.198	0.0181005
868.276	0.0180553
868.354	0.0179826
868.433	0.0180690
868.511	0.0180893
868.589	0.0180170
868.667	0.0180796
868.745	0.0181808
868.823	0.0181490
868.901	0.0179180
868.979	0.0179809
869.058	0.0178870
869.136	0.0179628
869.214	0.0179869
869.292	0.0180498
869.370	0.0178636
869.448	0.0178535
869.526	0.0178551
869.604	0.0178520
869.683	0.0179195
869.761	0.0180558
869.839	0.0179530
869.917	0.0179967
869.995	0.0181634
870.073	0.0179783
870.151	0.0180282
870.229	0.0181480
870.308	0.0180500
870.386	0.0180134
870.464	0.0182027
870.542	0.0181594
870.620	0.0180938
870.698	0.0182020
870.776	0.0181367
870.854	0.0180407
870.933	0.0182887
871.011	0.0180782
871.089	0.0180173
871.167	0.0180351
871.245	0.0181178
871.323	0.0181939
871.401	0.0181785
871.479	0.0180838
871.558	0.0182308
871.636	0.0180453
871.714	0.0179046
871.792	0.0180321
871.870	0.0181866
871.948	0.0180663
872.026	0.0181104
872.104	0.0182859
872.183	0.0179807
872.261	0.0180271
872.339	0.0180059
872.417	0.0181996
872.495	0.0180567
872.573	0.0179243
872.651	0.0179804
872.729	0.0179115
872.808	0.0179369
872.886	0.0180631
872.964	0.0181022
873.042	0.0180509
873.120	0.0180508
873.198	0.0180497
873.276	0.0179577
873.354	0.0180175
873.433	0.0179755
873.511	0.0179470
873.589	0.0179742
873.667	0.0180401
873.745	0.0180429
873.823	0.0179372
873.901	0.0180736
873.979	0.0180839
874.058	0.0179685
874.136	0.0181623
874.214	0.0181613
874.292	0.0180824
874.370	0.0180894
874.448	0.0181159
874.526	0.0181634
874.604	0.0179564
874.683	0.0181494
874.761	0.0180331
874.839	0.0182010
874.917	0.0180097
874.995	0.0180698
875.073	0.0181994
875.151	0.0180253
875.229	0.0180612
875.308	0.0180421
875.386	0.0180862
875.464	0.0181732
875.542	0.0180199
875.620	0.0179913
875.698	0.0180776
875.776	0.0180623
875.854	0.0180773
875.933	0.0180673
876.011	0.0180090
876.089	0.0179531
876.167	0.0180590
876.245	0.0180556
876.323	0.0181583
876.401	0.0181241
876.479	0.0181225
876.558	0.0181082
876.636	0.0180453
876.714	0.0181967
876.792	0.0181309
876.870	0.0180642
876.948	0.0179716
877.026	0.0180360
877.104	0.0179527
877.183	0.0180046
877.261	0.0181949
877.339	0.0179966
877.417	0.0180786
877.495	0.0179637
877.573	0.0179948
877.651	0.0179912
877.729	0.0179801
877.808	0.0179601
877.886	0.0180253
877.964	0.0178221
878.042	0.0179357
878.120	0.0178970
878.198	0.0178133
878.276	0.0179693
878.354	0.0178581
878.433	0.0178632
878.511	0.0178941
878.589	0.0178525
878.667	0.0179139
878.745	0.0178347
878.823	0.0179285
878.901	0.0179011
878.979	0.0180320
879.058	0.0180022
879.136	0.0179383
879.214	0.0179527
879.292	0.0179813
879.370	0.0180775
879.448	0.0180445
879.526	0.0179050
879.604	0.0179433
879.683	0.0181420
879.761	0.0180815
879.839	0.0181090
879.917	0.0181925
879.995	0.0181213
880.073	0.0182572
880.151	0.0182350
880.229	0.0181847
880.308	0.0181218
880.386	0.0181319
880.464	0.0181232
880.542	0.0180921
880.620	0.0180862
880.698	0.0181013
880.776	0.0180894
880.854	0.0180333
880.933	0.0180004
881.011	0.0181023
881.089	0.0178868
881.167	0.0179204
881.245	0.0179692
881.323	0.0179199
881.401	0.0180171
881.479	0.0180189
881.558	0.0179572
881.636	0.0177725
881.714	0.0178360
881.792	0.0178882
881.870	0.0178339
881.948	0.0179782
882.026	0.0178682
882.104	0.0178680
882.183	0.0179424
882.261	0.0180924
882.339	0.0180710
882.417	0.0180910
882.495	0.0180918
882.573	0.0180164
882.651	0.0178904
882.729	0.0180950
882.808	0.0181249
882.886	0.0180914
882.964	0.0180650
883.042	0.0180878
883.120	0.0179736
883.198	0.0180642
883.276	0.0180794
883.354	0.0179326
883.433	0.0180378
883.511	0.0182264
883.589	0.0182042
883.667	0.0181325
883.745	0.0182600
883.823	0.0181176
883.901	0.0180786
883.979	0.0180659
884.058	0.0181503
884.136	0.0181774
884.214	0.0181824
884.292	0.0180156
884.370	0.0179779
884.448	0.0181390
884.526	0.0181676
884.604	0.0181232
884.683	0.0181273
884.761	0.0179855
884.839	0.0181446
884.917	0.0179631
884.995	0.0179899
885.073	0.0179670
885.151	0.0179659
885.229	0.0180882
885.308	0.0178808
885.386	0.0179239
885.464	0.0179782
885.542	0.0179427
885.620	0.0178673
885.698	0.0179301
885.776	0.0178861
885.854	0.0177850
885.933	0.0179898
886.011	0.0178057
886.089	0.0179265
886.167	0.0179701
886.245	0.0178956
886.323	0.0179356
886.401	0.0179319
886.479	0.0179374
886.558	0.0180300
886.636	0.0180355
886.714	0.0179386
886.792	0.0181178
886.870	0.0180188
886.948	0.0179420
887.026	0.0180087
887.104	0.0180515
887.183	0.0180129
887.261	0.0181605
887.339	0.0180265
887.417	0.0179374
887.495	0.0180442
887.573	0.0181333
887.651	0.0182014
887.729	0.0181120
887.808	0.0182362
887.886	0.0180892
887.964	0.0181155
888.042	0.0181402
888.120	0.0181320
888.198	0.0180680
888.276	0.0181769
888.354	0.0181306
888.433	0.0181019
888.511	0.0181155
888.589	0.0180570
888.667	0.0180915
888.745	0.0181292
888.823	0.0181834
888.901	0.0181193
888.979	0.0181238
889.058	0.0182394
889.136	0.0180878
889.214	0.0182094
889.292	0.0181641
889.370	0.0182752
889.448	0.0181745
889.526	0.0181637
889.604	0.0181103
889.683	0.0181632
889.761	0.0180768
889.839	0.0180575
889.917	0.0180603
889.995	0.0180692
890.073	0.0179429
890.151	0.0180827
890.229	0.0180755
890.308	0.0179602
890.386	0.0178510
890.464	0.0178849
890.542	0.0178703
890.620	0.0178992
890.698	0.0178697
890.776	0.0179194
890.854	0.0177890
890.933	0.0178183
891.011	0.0179597
891.089	0.0178876
891.167	0.0179078
891.245	0.0178407
891.323	0.0178840
891.401	0.0179847
891.479	0.0179465
891.558	0.0180140
891.636	0.0179623
891.714	0.0179858
891.792	0.0179529
891.870	0.0179990
891.948	0.0180532
892.026	0.0180370
892.104	0.0181684
892.183	0.0181445
892.261	0.0180202
892.339	0.0181062
892.417	0.0181338
892.495	0.0181901
892.573	0.0183601
892.651	0.0181359
892.729	0.0181792
892.808	0.0183007
892.886	0.0184103
892.964	0.0182430
893.042	0.0182248
893.120	0.0182601
893.198	0.0181945
893.276	0.0182377
893.354	0.0181847
893.433	0.0182727
893.511	0.0182377
893.589	0.0182326
893.667	0.0181615
893.745	0.0181194
893.823	0.0180722
893.901	0.0179519
893.979	0.0180903
894.058	0.0180267
894.136	0.0179739
894.214	0.0180601
894.292	0.0179818
894.370	0.0179317
894.448	0.0178892
894.526	0.0178790
894.604	0.0179860
894.683	0.0179887
894.761	0.0178666
894.839	0.0178938
894.917	0.0179839
894.995	0.0179813
895.073	0.0181081
895.151	0.0179591
895.229	0.0180277
895.308	0.0178535
895.386	0.0181662
895.464	0.0182421
895.542	0.0180379
895.620	0.0181998
895.698	0.0181428
895.776	0.0181636
895.854	0.0181496
895.933	0.0182028
896.011	0.0179021
896.089	0.0180930
896.167	0.0179952
896.245	0.0179871
896.323	0.0178999
896.401	0.0178977
896.479	0.0180133
896.558	0.0177514
896.636	0.0178920
896.714	0.0177719
896.792	0.0178587
896.870	0.0178131
896.948	0.0178783
897.026	0.0178436
897.104	0.0178073
897.183	0.0180172
897.261	0.0178642
897.339	0.0178207
897.417	0.0179450
897.495	0.0179942
897.573	0.0181155
897.651	0.0180679
897.729	0.0180297
897.808	0.0180070
897.886	0.0180875
897.964	0.0180782
898.042	0.0182111
898.120	0.0181924
898.198	0.0181154
898.276	0.0181879
898.354	0.0182985
898.433	0.0182632
898.511	0.0183105
898.589	0.0182036
898.667	0.0180357
898.745	0.0181752
898.823	0.0180938
898.901	0.0178554
898.979	0.0181089
899.058	0.0180563
899.136	0.0180567
899.214	0.0180225
899.292	0.0179095
899.370	0.0180795
899.448	0.0179968
899.526	0.0179974
899.604	0.0179955
899.683	0.0181527
899.761	0.0179901
899.839	0.0179121
899.917	0.0180795
899.995	0.0181174
900.073	0.0181068
900.151	0.0181286
900.229	0.0181206
900.308	0.0181101
900.386	0.0179572
900.464	0.0181495
900.542	0.0180746
900.620	0.0179087
900.698	0.0179395
900.776	0.0181223
900.854	0.0180759
900.933	0.0182265
901.011	0.0180502
901.089	0.0180170
901.167	0.0180760
901.245	0.0181153
901.323	0.0180220
901.401	0.0180624
901.479	0.0180174
901.558	0.0181744
901.636	0.0180686
901.714	0.0181222
901.792	0.0180277
901.870	0.0179971
901.948	0.0179723
902.026	0.0180460
902.104	0.0180904
902.183	0.0179794
902.261	0.0178704
902.339	0.0178234
902.417	0.0177972
902.495	0.0179416
902.573	0.0179050
902.651	0.0178095
902.729	0.0178227
902.808	0.0177682
902.886	0.0177312
902.964	0.0177598
903.042	0.0178895
903.120	0.0178795
903.198	0.0179402
903.276	0.0179968
903.354	0.0179285
903.433	0.0180285
903.511	0.0180602
903.589	0.0181695
903.667	0.0181867
903.745	0.0181104
903.823	0.0180573
903.901	0.0181284
903.979	0.0182784
904.058	0.0180193
904.136	0.0182509
904.214	0.0181407
904.292	0.0180052
904.370	0.0181628
904.448	0.0180581
904.526	0.0181594
904.604	0.0180980
904.683	0.0182102
904.761	0.0181560
904.839	0.0178931
904.917	0.0179297
904.995	0.0181332
905.073	0.0179466
905.151	0.0179251
905.229	0.0180972
905.308	0.0180358
905.386	0.0181348
905.464	0.0180915
905.542	0.0180416
905.620	0.0180204
905.698	0.0183116
905.776	0.0182246
905.854	0.0181474
905.933	0.0182136
906.011	0.0181155
906.089	0.0181821
906.167	0.0181400
906.245	0.0181868
906.323	0.0181770
906.401	0.0180425
906.479	0.0180546
906.558	0.0180963
906.636	0.0180914
906.714	0.0180663
906.792	0.0179337
906.870	0.0180410
906.948	0.0179238
907.026	0.0179431
907.104	0.0178188
907.183	0.0179235
907.261	0.0180107
907.339	0.0178100
907.417	0.0179108
907.495	0.0178924
907.573	0.0178339
907.651	0.0179857
907.729	0.0179021
907.808	0.0180167
907.886	0.0180547
907.964	0.0179457
908.042	0.0181571
908.120	0.0181582
908.198	0.0181429
908.276	0.0181902
908.354	0.0180549
908.433	0.0180745
908.511	0.0182449
908.589	0.0181911
908.667	0.0181618
908.745	0.0181437
908.823	0.0182381
908.901	0.0180775
908.979	0.0179600
909.058	0.0180050
909.136	0.0179839
909.214	0.0180405
909.292	0.0179066
909.370	0.0179762
909.448	0.0178728
909.526	0.0179025
909.604	0.0181295
909.683	0.0179416
909.761	0.0179666
909.839	0.0179597
909.917	0.0180343
909.995	0.0180095
910.073	0.0180369
910.151	0.0179868
910.229	0.0181068
910.308	0.0179787
910.386	0.0180107
910.464	0.0179584
910.542	0.0179547
910.620	0.0179241
910.698	0.0179735
910.776	0.0179904
910.854	0.0181072
910.933	0.0179509
911.011	0.0179395
911.089	0.0179848
911.167	0.0179671
911.245	0.0180424
911.323	0.0179478
911.401	0.0179454
911.479	0.0181345
911.558	0.0180547
911.636	0.0179706
911.714	0.0179699
911.792	0.0181099
911.870	0.0182174
911.948	0.0180445
912.026	0.0180154
912.104	0.0182183
912.183	0.0182832
912.261	0.0182054
912.339	0.0181645
912.417	0.0182145
912.495	0.0181345
912.573	0.0181376
912.651	0.0182607
912.729	0.0181261
912.808	0.0180998
912.886	0.0180643
912.964	0.0180718
913.042	0.0178152
913.120	0.0179108
913.198	0.0179634
913.276	0.0179762
913.354	0.0179935
913.433	0.0179664
913.511	0.0179184
913.589	0.0178973
913.667	0.0179020
913.745	0.0180197
913.823	0.0178883
913.901	0.0177950
913.979	0.0180190
914.058	0.0178296
914.136	0.0179732
914.214	0.0179563
914.292	0.0180423
914.370	0.0180137
914.448	0.0179156
914.526	0.0179573
914.604	0.0179874
914.683	0.0180346
914.761	0.0180575
914.839	0.0181729
914.917	0.0181381
914.995	0.0180190
915.073	0.0181816
915.151	0.0181023
915.229	0.0181799
915.308	0.0180210
915.386	0.0182092
915.464	0.0181250
915.542	0.0181072
915.620	0.0180902
915.698	0.0180220
915.776	0.0180808
915.854	0.0180688
915.933	0.0181446
916.011	0.0181187
916.089	0.0181064
916.167	0.0180566
916.245	0.0181419
916.323	0.0180399
916.401	0.0180915
916.479	0.0181570
916.558	0.0179712
916.636	0.0179862
916.714	0.0179460
916.792	0.0180697
916.870	0.0180366
916.948	0.0180048
917.026	0.0180557
917.104	0.0178639
917.183	0.0180371
917.261	0.0179822
917.339	0.0179204
917.417	0.0180395
917.495	0.0179893
917.573	0.0178928
917.651	0.0177807
917.729	0.0178583
917.808	0.0178879
917.886	0.0178692
917.964	0.0179198
918.042	0.0177175
918.120	0.0177905
918.198	0.0180435
918.276	0.0180119
918.354	0.0179092
918.433	0.0180032
918.511	0.0179498
918.589	0.0180473
918.667	0.0179285
918.745	0.0180074
918.823	0.0179961
918.901	0.0179943
918.979	0.0181590
919.058	0.0181445
919.136	0.0181376
919.214	0.0181306
919.292	0.0181079
919.370	0.0181205
919.448	0.0181004
919.526	0.0182044
919.604	0.0180364
919.683	0.0181686
919.761	0.0181888
919.839	0.0179488
919.917	0.0180672
