06/03/2022	18:22:58	Ver.	4.1	UNKNOWN
Optical Delay	599.995081	Delta X		0.078125	Sweeps	1	Scan Rate	0/0
Coordinates	Axis 1	NaN	Axis 2	NaN	Axis 3	NaN	Axis 4	NaN	Axis 5	NaN	Axis 6	0.000000
TX Power	0.000000	RX Power	0.000000

599.995	0.0180019
600.073	0.0180742
600.151	0.0179298
600.229	0.0179715
600.308	0.0179791
600.386	0.0178948
600.464	0.0181542
600.542	0.0180555
600.620	0.0181012
600.698	0.0179758
600.776	0.0179621
600.854	0.0180698
600.933	0.0180330
601.011	0.0179760
601.089	0.0179148
601.167	0.0180415
601.245	0.0180349
601.323	0.0180076
601.401	0.0179863
601.479	0.0179895
601.558	0.0179865
601.636	0.0180490
601.714	0.0179264
601.792	0.0181238
601.870	0.0182510
601.948	0.0180812
602.026	0.0180428
602.104	0.0178886
602.183	0.0179980
602.261	0.0181797
602.339	0.0181399
602.417	0.0179640
602.495	0.0179652
602.573	0.0179979
602.651	0.0180296
602.729	0.0180560
602.808	0.0181744
602.886	0.0179961
602.964	0.0181123
603.042	0.0179355
603.120	0.0181082
603.198	0.0180402
603.276	0.0180158
603.354	0.0180761
603.433	0.0179950
603.511	0.0180091
603.589	0.0180156
603.667	0.0179330
603.745	0.0180431
603.823	0.0180478
603.901	0.0179589
603.979	0.0181539
604.058	0.0181881
604.136	0.0181877
604.214	0.0180511
604.292	0.0180521
604.370	0.0181204
604.448	0.0181118
604.526	0.0181215
604.604	0.0180106
604.683	0.0179964
604.761	0.0180929
604.839	0.0182125
604.917	0.0180959
604.995	0.0180827
605.073	0.0180331
605.151	0.0181406
605.229	0.0179948
605.308	0.0180498
605.386	0.0180169
605.464	0.0180172
605.542	0.0179536
605.620	0.0181622
605.698	0.0181437
605.776	0.0179079
605.854	0.0179960
605.933	0.0180691
606.011	0.0181780
606.089	0.0180090
606.167	0.0179591
606.245	0.0178837
606.323	0.0182065
606.401	0.0179997
606.479	0.0179533
606.558	0.0180750
606.636	0.0179385
606.714	0.0178725
606.792	0.0179537
606.870	0.0179967
606.948	0.0179561
607.026	0.0180236
607.104	0.0179701
607.183	0.0180141
607.261	0.0179417
607.339	0.0179986
607.417	0.0180531
607.495	0.0179688
607.573	0.0179752
607.651	0.0179149
607.729	0.0180531
607.808	0.0180656
607.886	0.0180666
607.964	0.0179452
608.042	0.0179442
608.120	0.0179761
608.198	0.0179988
608.276	0.0179288
608.354	0.0180027
608.433	0.0180624
608.511	0.0179886
608.589	0.0179456
608.667	0.0179189
608.745	0.0180265
608.823	0.0180406
608.901	0.0179751
608.979	0.0180444
609.058	0.0182159
609.136	0.0180818
609.214	0.0180597
609.292	0.0181700
609.370	0.0180662
609.448	0.0179572
609.526	0.0181056
609.604	0.0180264
609.683	0.0180718
609.761	0.0180128
609.839	0.0180343
609.917	0.0179792
609.995	0.0180640
610.073	0.0180504
610.151	0.0178703
610.229	0.0179776
610.308	0.0179557
610.386	0.0179968
610.464	0.0180906
610.542	0.0180304
610.620	0.0179357
610.698	0.0180244
610.776	0.0180063
610.854	0.0180862
610.933	0.0180131
611.011	0.0179904
611.089	0.0179093
611.167	0.0179994
611.245	0.0179886
611.323	0.0180890
611.401	0.0179131
611.479	0.0179419
611.558	0.0180869
611.636	0.0180774
611.714	0.0180253
611.792	0.0181239
611.870	0.0180487
611.948	0.0180919
612.026	0.0179741
612.104	0.0179886
612.183	0.0181583
612.261	0.0180460
612.339	0.0180405
612.417	0.0179037
612.495	0.0178743
612.573	0.0179987
612.651	0.0179185
612.729	0.0180988
612.808	0.0180916
612.886	0.0179195
612.964	0.0180867
613.042	0.0179172
613.120	0.0179866
613.198	0.0181156
613.276	0.0180468
613.354	0.0179665
613.433	0.0178248
613.511	0.0178972
613.589	0.0179723
613.667	0.0180195
613.745	0.0180600
613.823	0.0179967
613.901	0.0180510
613.979	0.0181590
614.058	0.0180225
614.136	0.0178868
614.214	0.0181054
614.292	0.0180237
614.370	0.0180582
614.448	0.0180246
614.526	0.0180853
614.604	0.0180039
614.683	0.0180785
614.761	0.0180508
614.839	0.0180228
614.917	0.0179993
614.995	0.0180245
615.073	0.0180002
615.151	0.0179531
615.229	0.0179192
615.308	0.0180956
615.386	0.0181059
615.464	0.0180643
615.542	0.0180450
615.620	0.0180342
615.698	0.0180087
615.776	0.0181406
615.854	0.0179727
615.933	0.0179214
616.011	0.0179845
616.089	0.0181136
616.167	0.0180068
616.245	0.0180324
616.323	0.0182224
616.401	0.0180872
616.479	0.0180179
616.558	0.0180463
616.636	0.0182265
616.714	0.0181511
616.792	0.0181139
616.870	0.0180395
616.948	0.0179271
617.026	0.0179690
617.104	0.0179035
617.183	0.0179377
617.261	0.0179359
617.339	0.0180488
617.417	0.0180180
617.495	0.0179555
617.573	0.0179201
617.651	0.0180025
617.729	0.0180283
617.808	0.0179343
617.886	0.0179804
617.964	0.0180943
618.042	0.0179765
618.120	0.0180560
618.198	0.0179446
618.276	0.0180116
618.354	0.0180369
618.433	0.0179633
618.511	0.0180692
618.589	0.0179671
618.667	0.0180489
618.745	0.0179556
618.823	0.0181659
618.901	0.0180807
618.979	0.0180479
619.058	0.0179631
619.136	0.0180542
619.214	0.0179977
619.292	0.0181039
619.370	0.0179618
619.448	0.0180219
619.526	0.0180648
619.604	0.0178661
619.683	0.0180013
619.761	0.0180993
619.839	0.0181084
619.917	0.0179996
619.995	0.0179768
620.073	0.0180427
620.151	0.0180376
620.229	0.0180396
620.308	0.0180370
620.386	0.0182021
620.464	0.0180751
620.542	0.0179363
620.620	0.0179802
620.698	0.0180484
620.776	0.0180349
620.854	0.0180329
620.933	0.0179848
621.011	0.0179858
621.089	0.0180979
621.167	0.0179755
621.245	0.0181204
621.323	0.0179791
621.401	0.0180314
621.479	0.0180345
621.558	0.0181333
621.636	0.0179113
621.714	0.0180726
621.792	0.0181212
621.870	0.0180515
621.948	0.0179980
622.026	0.0179122
622.104	0.0180419
622.183	0.0179789
622.261	0.0180269
622.339	0.0181077
622.417	0.0181377
622.495	0.0181030
622.573	0.0180596
622.651	0.0180984
622.729	0.0180642
622.808	0.0179642
622.886	0.0180228
622.964	0.0180045
623.042	0.0178751
623.120	0.0179658
623.198	0.0180298
623.276	0.0180952
623.354	0.0180781
623.433	0.0179953
623.511	0.0180060
623.589	0.0179758
623.667	0.0181242
623.745	0.0180840
623.823	0.0180199
623.901	0.0180383
623.979	0.0180081
624.058	0.0181732
624.136	0.0181339
624.214	0.0179304
624.292	0.0179338
624.370	0.0181313
624.448	0.0179758
624.526	0.0179884
624.604	0.0179296
624.683	0.0179813
624.761	0.0179993
624.839	0.0180659
624.917	0.0180262
624.995	0.0181142
625.073	0.0179159
625.151	0.0177905
625.229	0.0179456
625.308	0.0181600
625.386	0.0180984
625.464	0.0180861
625.542	0.0180559
625.620	0.0180463
625.698	0.0179204
625.776	0.0180704
625.854	0.0179332
625.933	0.0179733
626.011	0.0180905
626.089	0.0178468
626.167	0.0179422
626.245	0.0180074
626.323	0.0180772
626.401	0.0180912
626.479	0.0180450
626.558	0.0181045
626.636	0.0181391
626.714	0.0180479
626.792	0.0180815
626.870	0.0179878
626.948	0.0179992
627.026	0.0180009
627.104	0.0180730
627.183	0.0179964
627.261	0.0180968
627.339	0.0181149
627.417	0.0181010
627.495	0.0179368
627.573	0.0180095
627.651	0.0181355
627.729	0.0180371
627.808	0.0180759
627.886	0.0180242
627.964	0.0181126
628.042	0.0179952
628.120	0.0179605
628.198	0.0179337
628.276	0.0180351
628.354	0.0181239
628.433	0.0180093
628.511	0.0179867
628.589	0.0180186
628.667	0.0181143
628.745	0.0180379
628.823	0.0179924
628.901	0.0180022
628.979	0.0181570
629.058	0.0180766
629.136	0.0181593
629.214	0.0178648
629.292	0.0180305
629.370	0.0180400
629.448	0.0180202
629.526	0.0180678
629.604	0.0179462
629.683	0.0181673
629.761	0.0181443
629.839	0.0180417
629.917	0.0179716
629.995	0.0180363
630.073	0.0180225
630.151	0.0179882
630.229	0.0180307
630.308	0.0178909
630.386	0.0180113
630.464	0.0180886
630.542	0.0180397
630.620	0.0179640
630.698	0.0179990
630.776	0.0181290
630.854	0.0180558
630.933	0.0180431
631.011	0.0180666
631.089	0.0180904
631.167	0.0180888
631.245	0.0180857
631.323	0.0181430
631.401	0.0180524
631.479	0.0181046
631.558	0.0181096
631.636	0.0182185
631.714	0.0180369
631.792	0.0180926
631.870	0.0180859
631.948	0.0181393
632.026	0.0179856
632.104	0.0182378
632.183	0.0180974
632.261	0.0181355
632.339	0.0180528
632.417	0.0180565
632.495	0.0180744
632.573	0.0181424
632.651	0.0179738
632.729	0.0178804
632.808	0.0179379
632.886	0.0180480
632.964	0.0181614
633.042	0.0180791
633.120	0.0179560
633.198	0.0180014
633.276	0.0181489
633.354	0.0180035
633.433	0.0179897
633.511	0.0180138
633.589	0.0180583
633.667	0.0180396
633.745	0.0181302
633.823	0.0179440
633.901	0.0180711
633.979	0.0180561
634.058	0.0180434
634.136	0.0180876
634.214	0.0180585
634.292	0.0179257
634.370	0.0180933
634.448	0.0180885
634.526	0.0179710
634.604	0.0179763
634.683	0.0181329
634.761	0.0179787
634.839	0.0181133
634.917	0.0179614
634.995	0.0179094
635.073	0.0180865
635.151	0.0180035
635.229	0.0180103
635.308	0.0180009
635.386	0.0179096
635.464	0.0181119
635.542	0.0181306
635.620	0.0179961
635.698	0.0179536
635.776	0.0180671
635.854	0.0181654
635.933	0.0180643
636.011	0.0180991
636.089	0.0179373
636.167	0.0180007
636.245	0.0181046
636.323	0.0180804
636.401	0.0179389
636.479	0.0180285
636.558	0.0181017
636.636	0.0180607
636.714	0.0180402
636.792	0.0180322
636.870	0.0180274
636.948	0.0180613
637.026	0.0181445
637.104	0.0180263
637.183	0.0179752
637.261	0.0179954
637.339	0.0181480
637.417	0.0179122
637.495	0.0179905
637.573	0.0181702
637.651	0.0179173
637.729	0.0181225
637.808	0.0180656
637.886	0.0179159
637.964	0.0180676
638.042	0.0179417
638.120	0.0180550
638.198	0.0181190
638.276	0.0180689
638.354	0.0180116
638.433	0.0181078
638.511	0.0179272
638.589	0.0178704
638.667	0.0179434
638.745	0.0179223
638.823	0.0179308
638.901	0.0179333
638.979	0.0178931
639.058	0.0181055
639.136	0.0180986
639.214	0.0180389
639.292	0.0180981
639.370	0.0180849
639.448	0.0180568
639.526	0.0179069
639.604	0.0180332
639.683	0.0180966
639.761	0.0179714
639.839	0.0178393
639.917	0.0178970
639.995	0.0180529
640.073	0.0179706
640.151	0.0180696
640.229	0.0180833
640.308	0.0180374
640.386	0.0180111
640.464	0.0180961
640.542	0.0180935
640.620	0.0180208
640.698	0.0179247
640.776	0.0179585
640.854	0.0179317
640.933	0.0181739
641.011	0.0179797
641.089	0.0180143
641.167	0.0181450
641.245	0.0181277
641.323	0.0180416
641.401	0.0179649
641.479	0.0179787
641.558	0.0180502
641.636	0.0181860
641.714	0.0179642
641.792	0.0179765
641.870	0.0180679
641.948	0.0180477
642.026	0.0180598
642.104	0.0179687
642.183	0.0179043
642.261	0.0180742
642.339	0.0180155
642.417	0.0179982
642.495	0.0180063
642.573	0.0180659
642.651	0.0181283
642.729	0.0180210
642.808	0.0181404
642.886	0.0180246
642.964	0.0179649
643.042	0.0181606
643.120	0.0180901
643.198	0.0180822
643.276	0.0180328
643.354	0.0179008
643.433	0.0180751
643.511	0.0181174
643.589	0.0180847
643.667	0.0179647
643.745	0.0180324
643.823	0.0180322
643.901	0.0179470
643.979	0.0180675
644.058	0.0181931
644.136	0.0181377
644.214	0.0179802
644.292	0.0180925
644.370	0.0180875
644.448	0.0180099
644.526	0.0180081
644.604	0.0181094
644.683	0.0180369
644.761	0.0179053
644.839	0.0179662
644.917	0.0180788
644.995	0.0180516
645.073	0.0181100
645.151	0.0180305
645.229	0.0179447
645.308	0.0179347
645.386	0.0180798
645.464	0.0181957
645.542	0.0180465
645.620	0.0180879
645.698	0.0180708
645.776	0.0181217
645.854	0.0179385
645.933	0.0179670
646.011	0.0181175
646.089	0.0180788
646.167	0.0181142
646.245	0.0180284
646.323	0.0180290
646.401	0.0179530
646.479	0.0180768
646.558	0.0180022
646.636	0.0180215
646.714	0.0179176
646.792	0.0180829
646.870	0.0180161
646.948	0.0179958
647.026	0.0180086
647.104	0.0180666
647.183	0.0183075
647.261	0.0181158
647.339	0.0180644
647.417	0.0179842
647.495	0.0180550
647.573	0.0179406
647.651	0.0181252
647.729	0.0180573
647.808	0.0180580
647.886	0.0180314
647.964	0.0179451
648.042	0.0180618
648.120	0.0179957
648.198	0.0178962
648.276	0.0180044
648.354	0.0180292
648.433	0.0181143
648.511	0.0180157
648.589	0.0180072
648.667	0.0180931
648.745	0.0179436
648.823	0.0180759
648.901	0.0180976
648.979	0.0180392
649.058	0.0179576
649.136	0.0180551
649.214	0.0180051
649.292	0.0181034
649.370	0.0179984
649.448	0.0179935
649.526	0.0179099
649.604	0.0180462
649.683	0.0181063
649.761	0.0180783
649.839	0.0179482
649.917	0.0179569
649.995	0.0180210
650.073	0.0180248
650.151	0.0180802
650.229	0.0181464
650.308	0.0181004
650.386	0.0180845
650.464	0.0182581
650.542	0.0182060
650.620	0.0180396
650.698	0.0181696
650.776	0.0180909
650.854	0.0180843
650.933	0.0180630
651.011	0.0180475
651.089	0.0180768
651.167	0.0179376
651.245	0.0180489
651.323	0.0181309
651.401	0.0180634
651.479	0.0179297
651.558	0.0180576
651.636	0.0179237
651.714	0.0178907
651.792	0.0180312
651.870	0.0180955
651.948	0.0179626
652.026	0.0179862
652.104	0.0181550
652.183	0.0181098
652.261	0.0181625
652.339	0.0180951
652.417	0.0180798
652.495	0.0181927
652.573	0.0182009
652.651	0.0180965
652.729	0.0181070
652.808	0.0180578
652.886	0.0180128
652.964	0.0178164
653.042	0.0179504
653.120	0.0181219
653.198	0.0179693
653.276	0.0180402
653.354	0.0179827
653.433	0.0179340
653.511	0.0178655
653.589	0.0181175
653.667	0.0180852
653.745	0.0179677
653.823	0.0180119
653.901	0.0180666
653.979	0.0180977
654.058	0.0182318
654.136	0.0180727
654.214	0.0181757
654.292	0.0180775
654.370	0.0181605
654.448	0.0180116
654.526	0.0180716
654.604	0.0181491
654.683	0.0181016
654.761	0.0180992
654.839	0.0180646
654.917	0.0180057
654.995	0.0180858
655.073	0.0179194
655.151	0.0180270
655.229	0.0178994
655.308	0.0178996
655.386	0.0178969
655.464	0.0179395
655.542	0.0177800
655.620	0.0178626
655.698	0.0180459
655.776	0.0182658
655.854	0.0180244
655.933	0.0179951
656.011	0.0179997
656.089	0.0181030
656.167	0.0180875
656.245	0.0179945
656.323	0.0181375
656.401	0.0181372
656.479	0.0180409
656.558	0.0180307
656.636	0.0181927
656.714	0.0182881
656.792	0.0180773
656.870	0.0179516
656.948	0.0179838
657.026	0.0181229
657.104	0.0180217
657.183	0.0179729
657.261	0.0179057
657.339	0.0179597
657.417	0.0178047
657.495	0.0176836
657.573	0.0179111
657.651	0.0178347
657.729	0.0178062
657.808	0.0178751
657.886	0.0179014
657.964	0.0180627
658.042	0.0181698
658.120	0.0179423
658.198	0.0181828
658.276	0.0181104
658.354	0.0181420
658.433	0.0181775
658.511	0.0181012
658.589	0.0181263
658.667	0.0180357
658.745	0.0180669
658.823	0.0180862
658.901	0.0180145
658.979	0.0179379
659.058	0.0179468
659.136	0.0180579
659.214	0.0179931
659.292	0.0177860
659.370	0.0179405
659.448	0.0181161
659.526	0.0178778
659.604	0.0179311
659.683	0.0179086
659.761	0.0179680
659.839	0.0179985
659.917	0.0179302
659.995	0.0181243
660.073	0.0180630
660.151	0.0180366
660.229	0.0180325
660.308	0.0180600
660.386	0.0180668
660.464	0.0180545
660.542	0.0180644
660.620	0.0181957
660.698	0.0180981
660.776	0.0180276
660.854	0.0181310
660.933	0.0180441
661.011	0.0179177
661.089	0.0179821
661.167	0.0178419
661.245	0.0179498
661.323	0.0179992
661.401	0.0178918
661.479	0.0179917
661.558	0.0178478
661.636	0.0178154
661.714	0.0179536
661.792	0.0179179
661.870	0.0179808
661.948	0.0179971
662.026	0.0180774
662.104	0.0180497
662.183	0.0178876
662.261	0.0180291
662.339	0.0179704
662.417	0.0178662
662.495	0.0179121
662.573	0.0180433
662.651	0.0179065
662.729	0.0180485
662.808	0.0180595
662.886	0.0179793
662.964	0.0180061
663.042	0.0179913
663.120	0.0180281
663.198	0.0179499
663.276	0.0179192
663.354	0.0180414
663.433	0.0178452
663.511	0.0180162
663.589	0.0179617
663.667	0.0178138
663.745	0.0180244
663.823	0.0179887
663.901	0.0179498
663.979	0.0177918
664.058	0.0180611
664.136	0.0180016
664.214	0.0179622
664.292	0.0179099
664.370	0.0179568
664.448	0.0180945
664.526	0.0179972
664.604	0.0179092
664.683	0.0180505
664.761	0.0180936
664.839	0.0180822
664.917	0.0180804
664.995	0.0179690
665.073	0.0178932
665.151	0.0181160
665.229	0.0180164
665.308	0.0179328
665.386	0.0178934
665.464	0.0178474
665.542	0.0178493
665.620	0.0179218
665.698	0.0178323
665.776	0.0176699
665.854	0.0178458
665.933	0.0178877
666.011	0.0178159
666.089	0.0179543
666.167	0.0179778
666.245	0.0179404
666.323	0.0179915
666.401	0.0181003
666.479	0.0181511
666.558	0.0182522
666.636	0.0181312
666.714	0.0182531
666.792	0.0182136
666.870	0.0180971
666.948	0.0181113
667.026	0.0180272
667.104	0.0180376
667.183	0.0181092
667.261	0.0179939
667.339	0.0178110
667.417	0.0179099
667.495	0.0178954
667.573	0.0178484
667.651	0.0177302
667.729	0.0177340
667.808	0.0178439
667.886	0.0178489
667.964	0.0179321
668.042	0.0178539
668.120	0.0181413
668.198	0.0180526
668.276	0.0180819
668.354	0.0182375
668.433	0.0181602
668.511	0.0181293
668.589	0.0182914
668.667	0.0181944
668.745	0.0182124
668.823	0.0181287
668.901	0.0181036
668.979	0.0180733
669.058	0.0179718
669.136	0.0179462
669.214	0.0179257
669.292	0.0178893
669.370	0.0178493
669.448	0.0178159
669.526	0.0178363
669.604	0.0176838
669.683	0.0177348
669.761	0.0177171
669.839	0.0177468
669.917	0.0178983
669.995	0.0180547
670.073	0.0179440
670.151	0.0180344
670.229	0.0180519
670.308	0.0180614
670.386	0.0182343
670.464	0.0181614
670.542	0.0182790
670.620	0.0182159
670.698	0.0182787
670.776	0.0182858
670.854	0.0181773
670.933	0.0180612
671.011	0.0180811
671.089	0.0179528
671.167	0.0178376
671.245	0.0178300
671.323	0.0177322
671.401	0.0177862
671.479	0.0177586
671.558	0.0179089
671.636	0.0177347
671.714	0.0177862
671.792	0.0178741
671.870	0.0177643
671.948	0.0179486
672.026	0.0180643
672.104	0.0181195
672.183	0.0179725
672.261	0.0181033
672.339	0.0183038
672.417	0.0183818
672.495	0.0182357
672.573	0.0183606
672.651	0.0180415
672.729	0.0182196
672.808	0.0182391
672.886	0.0181781
672.964	0.0181723
673.042	0.0181116
673.120	0.0180743
673.198	0.0179202
673.276	0.0178072
673.354	0.0178607
673.433	0.0177432
673.511	0.0177239
673.589	0.0177949
673.667	0.0178047
673.745	0.0179061
673.823	0.0178076
673.901	0.0178075
673.979	0.0180284
674.058	0.0179828
674.136	0.0179962
674.214	0.0180773
674.292	0.0181308
674.370	0.0182654
674.448	0.0182855
674.526	0.0182348
674.604	0.0182362
674.683	0.0181391
674.761	0.0181128
674.839	0.0182705
674.917	0.0181071
674.995	0.0181050
675.073	0.0178448
675.151	0.0179630
675.229	0.0179324
675.308	0.0179172
675.386	0.0178516
675.464	0.0177843
675.542	0.0178674
675.620	0.0179852
675.698	0.0180724
675.776	0.0180032
675.854	0.0178714
675.933	0.0180807
676.011	0.0181300
676.089	0.0181143
676.167	0.0181624
676.245	0.0180668
676.323	0.0181589
676.401	0.0181286
676.479	0.0182373
676.558	0.0181887
676.636	0.0180330
676.714	0.0181377
676.792	0.0180408
676.870	0.0179707
676.948	0.0180726
677.026	0.0180836
677.104	0.0180214
677.183	0.0181253
677.261	0.0178861
677.339	0.0179935
677.417	0.0179801
677.495	0.0179395
677.573	0.0178223
677.651	0.0178909
677.729	0.0179128
677.808	0.0179793
677.886	0.0179316
677.964	0.0178730
678.042	0.0179050
678.120	0.0179962
678.198	0.0180687
678.276	0.0179079
678.354	0.0181442
678.433	0.0182218
678.511	0.0181288
678.589	0.0181537
678.667	0.0180871
678.745	0.0180677
678.823	0.0181933
678.901	0.0180826
678.979	0.0177913
679.058	0.0181602
679.136	0.0180268
679.214	0.0179733
679.292	0.0180674
679.370	0.0179835
679.448	0.0179443
679.526	0.0180644
679.604	0.0180544
679.683	0.0180978
679.761	0.0181147
679.839	0.0180402
679.917	0.0181667
679.995	0.0180401
680.073	0.0181407
680.151	0.0181900
680.229	0.0180562
680.308	0.0181006
680.386	0.0182672
680.464	0.0181068
680.542	0.0180128
680.620	0.0181409
680.698	0.0181424
680.776	0.0179700
680.854	0.0181409
680.933	0.0182620
681.011	0.0181395
681.089	0.0181001
681.167	0.0182494
681.245	0.0181433
681.323	0.0180316
681.401	0.0180614
681.479	0.0179060
681.558	0.0179325
681.636	0.0179659
681.714	0.0181834
681.792	0.0179278
681.870	0.0178756
681.948	0.0178534
682.026	0.0178232
682.104	0.0177802
682.183	0.0178522
682.261	0.0179009
682.339	0.0177645
682.417	0.0178289
682.495	0.0177999
682.573	0.0177567
682.651	0.0179802
682.729	0.0178299
682.808	0.0177940
682.886	0.0179939
682.964	0.0181600
683.042	0.0179210
683.120	0.0179105
683.198	0.0179205
683.276	0.0180328
683.354	0.0179720
683.433	0.0180614
683.511	0.0180836
683.589	0.0180831
683.667	0.0181695
683.745	0.0181473
683.823	0.0180705
683.901	0.0181233
683.979	0.0182110
684.058	0.0182396
684.136	0.0184538
684.214	0.0183076
684.292	0.0183652
684.370	0.0183267
684.448	0.0184364
684.526	0.0183263
684.604	0.0181992
684.683	0.0182524
684.761	0.0183671
684.839	0.0182496
684.917	0.0181556
684.995	0.0179440
685.073	0.0179284
685.151	0.0180156
685.229	0.0179294
685.308	0.0178117
685.386	0.0178519
685.464	0.0177728
685.542	0.0177522
685.620	0.0177089
685.698	0.0178085
685.776	0.0177235
685.854	0.0178393
685.933	0.0177802
686.011	0.0179597
686.089	0.0178580
686.167	0.0179256
686.245	0.0176973
686.323	0.0177440
686.401	0.0178186
686.479	0.0178194
686.558	0.0177970
686.636	0.0177759
686.714	0.0176778
686.792	0.0178841
686.870	0.0178333
686.948	0.0177948
687.026	0.0179575
687.104	0.0178799
687.183	0.0178378
687.261	0.0178902
687.339	0.0178613
687.417	0.0178622
687.495	0.0178907
687.573	0.0180780
687.651	0.0180614
687.729	0.0179321
687.808	0.0180521
687.886	0.0180640
687.964	0.0180221
688.042	0.0181419
688.120	0.0180685
688.198	0.0180091
688.276	0.0181045
688.354	0.0181476
688.433	0.0183569
688.511	0.0182414
688.589	0.0183698
688.667	0.0182944
688.745	0.0185591
688.823	0.0186366
688.901	0.0184816
688.979	0.0185036
689.058	0.0185230
689.136	0.0185168
689.214	0.0184723
689.292	0.0183637
689.370	0.0181911
689.448	0.0181573
689.526	0.0180399
689.604	0.0180045
689.683	0.0180407
689.761	0.0177877
689.839	0.0178125
689.917	0.0177197
689.995	0.0177737
690.073	0.0177792
690.151	0.0176694
690.229	0.0178548
690.308	0.0177756
690.386	0.0178651
690.464	0.0179277
690.542	0.0179584
690.620	0.0180905
690.698	0.0179604
690.776	0.0178701
690.854	0.0180376
690.933	0.0179804
691.011	0.0180212
691.089	0.0180518
691.167	0.0181157
691.245	0.0180730
691.323	0.0178974
691.401	0.0180445
691.479	0.0179798
691.558	0.0179615
691.636	0.0177950
691.714	0.0178863
691.792	0.0177092
691.870	0.0178632
691.948	0.0177575
692.026	0.0177164
692.104	0.0178580
692.183	0.0177939
692.261	0.0178762
692.339	0.0177442
692.417	0.0178610
692.495	0.0179252
692.573	0.0178484
692.651	0.0180613
692.729	0.0181396
692.808	0.0181303
692.886	0.0182207
692.964	0.0182648
693.042	0.0181409
693.120	0.0182916
693.198	0.0182979
693.276	0.0183038
693.354	0.0182190
693.433	0.0181649
693.511	0.0181707
693.589	0.0180679
693.667	0.0180909
693.745	0.0181330
693.823	0.0179184
693.901	0.0180471
693.979	0.0180107
694.058	0.0179924
694.136	0.0180373
694.214	0.0179677
694.292	0.0181221
694.370	0.0181345
694.448	0.0182127
694.526	0.0183179
694.604	0.0182639
694.683	0.0183689
694.761	0.0184666
694.839	0.0183166
694.917	0.0184504
694.995	0.0184631
695.073	0.0183568
695.151	0.0183387
695.229	0.0183055
695.308	0.0181677
695.386	0.0182599
695.464	0.0182114
695.542	0.0180964
695.620	0.0181306
695.698	0.0179675
695.776	0.0179348
695.854	0.0179982
695.933	0.0179676
696.011	0.0179784
696.089	0.0179702
696.167	0.0178764
696.245	0.0179168
696.323	0.0178172
696.401	0.0178641
696.479	0.0180003
696.558	0.0177551
696.636	0.0177210
696.714	0.0179601
696.792	0.0180381
696.870	0.0178844
696.948	0.0177985
697.026	0.0178905
697.104	0.0179493
697.183	0.0178774
697.261	0.0179710
697.339	0.0178561
697.417	0.0177790
697.495	0.0178799
697.573	0.0176894
697.651	0.0178965
697.729	0.0179650
697.808	0.0179420
697.886	0.0178667
697.964	0.0179401
698.042	0.0178674
698.120	0.0181215
698.198	0.0181040
698.276	0.0181181
698.354	0.0179902
698.433	0.0180657
698.511	0.0180587
698.589	0.0181395
698.667	0.0181622
698.745	0.0182622
698.823	0.0183165
698.901	0.0182376
698.979	0.0182646
699.058	0.0183428
699.136	0.0182965
699.214	0.0181679
699.292	0.0182001
699.370	0.0180972
699.448	0.0182153
699.526	0.0181105
699.604	0.0180433
699.683	0.0180403
699.761	0.0178819
699.839	0.0178291
699.917	0.0178439
699.995	0.0179180
700.073	0.0177898
700.151	0.0177386
700.229	0.0178646
700.308	0.0177837
700.386	0.0177884
700.464	0.0176353
700.542	0.0179246
700.620	0.0179221
700.698	0.0178468
700.776	0.0178288
700.854	0.0180054
700.933	0.0182288
701.011	0.0182865
701.089	0.0181498
701.167	0.0181323
701.245	0.0183270
701.323	0.0182618
701.401	0.0183628
701.479	0.0184399
701.558	0.0185139
701.636	0.0184928
701.714	0.0185748
701.792	0.0185836
701.870	0.0187457
701.948	0.0184865
702.026	0.0185423
702.104	0.0185313
702.183	0.0186398
702.261	0.0185389
702.339	0.0184465
702.417	0.0183768
702.495	0.0181087
702.573	0.0181948
702.651	0.0180168
702.729	0.0178717
702.808	0.0178147
702.886	0.0178059
702.964	0.0175777
703.042	0.0175562
703.120	0.0176391
703.198	0.0174600
703.276	0.0175381
703.354	0.0173776
703.433	0.0174792
703.511	0.0173917
703.589	0.0173988
703.667	0.0173649
703.745	0.0173364
703.823	0.0173205
703.901	0.0175945
703.979	0.0174305
704.058	0.0175182
704.136	0.0175892
704.214	0.0176396
704.292	0.0178682
704.370	0.0179080
704.448	0.0178636
704.526	0.0179968
704.604	0.0180582
704.683	0.0181274
704.761	0.0180981
704.839	0.0181261
704.917	0.0182590
704.995	0.0182494
705.073	0.0181471
705.151	0.0182660
705.229	0.0181761
705.308	0.0182188
705.386	0.0182331
705.464	0.0180239
705.542	0.0179724
705.620	0.0179220
705.698	0.0178883
705.776	0.0179424
705.854	0.0179268
705.933	0.0179015
706.011	0.0176686
706.089	0.0176851
706.167	0.0176921
706.245	0.0177586
706.323	0.0177433
706.401	0.0178710
706.479	0.0178491
706.558	0.0180082
706.636	0.0179003
706.714	0.0179028
706.792	0.0181615
706.870	0.0182359
706.948	0.0183708
707.026	0.0184672
707.104	0.0185085
707.183	0.0187437
707.261	0.0188879
707.339	0.0189643
707.417	0.0190810
707.495	0.0191176
707.573	0.0192262
707.651	0.0191828
707.729	0.0192089
707.808	0.0190968
707.886	0.0190775
707.964	0.0189109
708.042	0.0187318
708.120	0.0185371
708.198	0.0183238
708.276	0.0182356
708.354	0.0180092
708.433	0.0177885
708.511	0.0177241
708.589	0.0173994
708.667	0.0173100
708.745	0.0171184
708.823	0.0170759
708.901	0.0170740
708.979	0.0167960
709.058	0.0168414
709.136	0.0167735
709.214	0.0166350
709.292	0.0166096
709.370	0.0168232
709.448	0.0167792
709.526	0.0167267
709.604	0.0167844
709.683	0.0170506
709.761	0.0172987
709.839	0.0175056
709.917	0.0178052
709.995	0.0180460
710.073	0.0183633
710.151	0.0183768
710.229	0.0184538
710.308	0.0185515
710.386	0.0187204
710.464	0.0187275
710.542	0.0186541
710.620	0.0185471
710.698	0.0186658
710.776	0.0184337
710.854	0.0183210
710.933	0.0183266
711.011	0.0181190
711.089	0.0182439
711.167	0.0182231
711.245	0.0181963
711.323	0.0180665
711.401	0.0179450
711.479	0.0181088
711.558	0.0181374
711.636	0.0180767
711.714	0.0181865
711.792	0.0181451
711.870	0.0182921
711.948	0.0180920
712.026	0.0182098
712.104	0.0182537
712.183	0.0181554
712.261	0.0182116
712.339	0.0180767
712.417	0.0181212
712.495	0.0181745
712.573	0.0180972
712.651	0.0179944
712.729	0.0180467
712.808	0.0180568
712.886	0.0181503
712.964	0.0180421
713.042	0.0180190
713.120	0.0179783
713.198	0.0181129
713.276	0.0180709
713.354	0.0182485
713.433	0.0183442
713.511	0.0183869
713.589	0.0184771
713.667	0.0185535
713.745	0.0185721
713.823	0.0186475
713.901	0.0187903
713.979	0.0187505
714.058	0.0185650
714.136	0.0184902
714.214	0.0185262
714.292	0.0185612
714.370	0.0182346
714.448	0.0184192
714.526	0.0182724
714.604	0.0181614
714.683	0.0181442
714.761	0.0179565
714.839	0.0179678
714.917	0.0178075
714.995	0.0178600
715.073	0.0178665
715.151	0.0177158
715.229	0.0176637
715.308	0.0177820
715.386	0.0177569
715.464	0.0175675
715.542	0.0176012
715.620	0.0176790
715.698	0.0176757
715.776	0.0177444
715.854	0.0178592
715.933	0.0180083
716.011	0.0181536
716.089	0.0180582
716.167	0.0181686
716.245	0.0181982
716.323	0.0181293
716.401	0.0179771
716.479	0.0179892
716.558	0.0179677
716.636	0.0177872
716.714	0.0176077
716.792	0.0175056
716.870	0.0174644
716.948	0.0173807
717.026	0.0172825
717.104	0.0171967
717.183	0.0172160
717.261	0.0171679
717.339	0.0171140
717.417	0.0173569
717.495	0.0175381
717.573	0.0173005
717.651	0.0175018
717.729	0.0175771
717.808	0.0177259
717.886	0.0176839
717.964	0.0178265
718.042	0.0180452
718.120	0.0180173
718.198	0.0182748
718.276	0.0183044
718.354	0.0182347
718.433	0.0185330
718.511	0.0187528
718.589	0.0187666
718.667	0.0190701
718.745	0.0191542
718.823	0.0191894
718.901	0.0191010
718.979	0.0191626
719.058	0.0192444
719.136	0.0191368
719.214	0.0190816
719.292	0.0190089
719.370	0.0188615
719.448	0.0187514
719.526	0.0186024
719.604	0.0183424
719.683	0.0181072
719.761	0.0181367
719.839	0.0180987
719.917	0.0180681
719.995	0.0179375
720.073	0.0178870
720.151	0.0179205
720.229	0.0180167
720.308	0.0180109
720.386	0.0179932
720.464	0.0179595
720.542	0.0179301
720.620	0.0177001
720.698	0.0178118
720.776	0.0177052
720.854	0.0176224
720.933	0.0175733
721.011	0.0174785
721.089	0.0174613
721.167	0.0175229
721.245	0.0174544
721.323	0.0175021
721.401	0.0176125
721.479	0.0176645
721.558	0.0176000
721.636	0.0175723
721.714	0.0176732
721.792	0.0177012
721.870	0.0178661
721.948	0.0177670
722.026	0.0178518
722.104	0.0178271
722.183	0.0179924
722.261	0.0179378
722.339	0.0178838
722.417	0.0179157
722.495	0.0179417
722.573	0.0180396
722.651	0.0180291
722.729	0.0181686
722.808	0.0182266
722.886	0.0182747
722.964	0.0183667
723.042	0.0184464
723.120	0.0186047
723.198	0.0186107
723.276	0.0187155
723.354	0.0187067
723.433	0.0188651
723.511	0.0187225
723.589	0.0186880
723.667	0.0185506
723.745	0.0184812
723.823	0.0183125
723.901	0.0181276
723.979	0.0179814
724.058	0.0178368
724.136	0.0176010
724.214	0.0174451
724.292	0.0173373
724.370	0.0171411
724.448	0.0170569
724.526	0.0170296
724.604	0.0169197
724.683	0.0169594
724.761	0.0170365
724.839	0.0172080
724.917	0.0172381
724.995	0.0173849
725.073	0.0175218
725.151	0.0177325
725.229	0.0178473
725.308	0.0180441
725.386	0.0180765
725.464	0.0182344
725.542	0.0183290
725.620	0.0183927
725.698	0.0183640
725.776	0.0183705
725.854	0.0183353
725.933	0.0184007
726.011	0.0183819
726.089	0.0184110
726.167	0.0184079
726.245	0.0182892
726.323	0.0183294
726.401	0.0180653
726.479	0.0180851
726.558	0.0181609
726.636	0.0182273
726.714	0.0181338
726.792	0.0181095
726.870	0.0182035
726.948	0.0183926
727.026	0.0183495
727.104	0.0185703
727.183	0.0184710
727.261	0.0186354
727.339	0.0186873
727.417	0.0187450
727.495	0.0186701
727.573	0.0186337
727.651	0.0186247
727.729	0.0187074
727.808	0.0185565
727.886	0.0184213
727.964	0.0186299
728.042	0.0185715
728.120	0.0184397
728.198	0.0183138
728.276	0.0183724
728.354	0.0182810
728.433	0.0182122
728.511	0.0181889
728.589	0.0181203
728.667	0.0179688
728.745	0.0179865
728.823	0.0177788
728.901	0.0176296
728.979	0.0175098
729.058	0.0174110
729.136	0.0174057
729.214	0.0170746
729.292	0.0171202
729.370	0.0169975
729.448	0.0168811
729.526	0.0166960
729.604	0.0167281
729.683	0.0166897
729.761	0.0167796
729.839	0.0167598
729.917	0.0167155
729.995	0.0169277
730.073	0.0170636
730.151	0.0170900
730.229	0.0170819
730.308	0.0172781
730.386	0.0175786
730.464	0.0177089
730.542	0.0176836
730.620	0.0178932
730.698	0.0179104
730.776	0.0180576
730.854	0.0182654
730.933	0.0183655
731.011	0.0184169
731.089	0.0184048
731.167	0.0185851
731.245	0.0186974
731.323	0.0187347
731.401	0.0186490
731.479	0.0187433
731.558	0.0188297
731.636	0.0187769
731.714	0.0189118
731.792	0.0187580
731.870	0.0187691
731.948	0.0186039
732.026	0.0185817
732.104	0.0187595
732.183	0.0187355
732.261	0.0186494
732.339	0.0185920
732.417	0.0186522
732.495	0.0185314
732.573	0.0185419
732.651	0.0185391
732.729	0.0185564
732.808	0.0186594
732.886	0.0185647
732.964	0.0185590
733.042	0.0184555
733.120	0.0182288
733.198	0.0183260
733.276	0.0182719
733.354	0.0180956
733.433	0.0180366
733.511	0.0180277
733.589	0.0179370
733.667	0.0178856
733.745	0.0178017
733.823	0.0179184
733.901	0.0178027
733.979	0.0177464
734.058	0.0178352
734.136	0.0177660
734.214	0.0178915
734.292	0.0178165
734.370	0.0176376
734.448	0.0176553
734.526	0.0177388
734.604	0.0177740
734.683	0.0176002
734.761	0.0176829
734.839	0.0175550
734.917	0.0174969
734.995	0.0175098
735.073	0.0175964
735.151	0.0175781
735.229	0.0174310
735.308	0.0174496
735.386	0.0176390
735.464	0.0175803
735.542	0.0177314
735.620	0.0177942
735.698	0.0176768
735.776	0.0176551
735.854	0.0176882
735.933	0.0177809
736.011	0.0177942
736.089	0.0178802
736.167	0.0179746
736.245	0.0178890
736.323	0.0178687
736.401	0.0179872
736.479	0.0179545
736.558	0.0180661
736.636	0.0181571
736.714	0.0182691
736.792	0.0183402
736.870	0.0185868
736.948	0.0186034
737.026	0.0185562
737.104	0.0187318
737.183	0.0187885
737.261	0.0187617
737.339	0.0186172
737.417	0.0186213
737.495	0.0184901
737.573	0.0182885
737.651	0.0181542
737.729	0.0182513
737.808	0.0180447
737.886	0.0179945
737.964	0.0179326
738.042	0.0177705
738.120	0.0177313
738.198	0.0176398
738.276	0.0176234
738.354	0.0176762
738.433	0.0178065
738.511	0.0177111
738.589	0.0177351
738.667	0.0177673
738.745	0.0177881
738.823	0.0179145
738.901	0.0179738
738.979	0.0177988
739.058	0.0179826
739.136	0.0179935
739.214	0.0179060
739.292	0.0180241
739.370	0.0180614
739.448	0.0180636
739.526	0.0179720
739.604	0.0180806
739.683	0.0182528
739.761	0.0181770
739.839	0.0182375
739.917	0.0181757
739.995	0.0181231
740.073	0.0181470
740.151	0.0180914
740.229	0.0181323
740.308	0.0182307
740.386	0.0181979
740.464	0.0183237
740.542	0.0182508
740.620	0.0183202
740.698	0.0181564
740.776	0.0182825
740.854	0.0182732
740.933	0.0181966
741.011	0.0182639
741.089	0.0183567
741.167	0.0182823
741.245	0.0183978
741.323	0.0183015
741.401	0.0183463
741.479	0.0182870
741.558	0.0183438
741.636	0.0183046
741.714	0.0183463
741.792	0.0184007
741.870	0.0182774
741.948	0.0184038
742.026	0.0183735
742.104	0.0182603
742.183	0.0183247
742.261	0.0182948
742.339	0.0181588
742.417	0.0180489
742.495	0.0180403
742.573	0.0179839
742.651	0.0178750
742.729	0.0177334
742.808	0.0177216
742.886	0.0173612
742.964	0.0174349
743.042	0.0174847
743.120	0.0174172
743.198	0.0173409
743.276	0.0172049
743.354	0.0171971
743.433	0.0172563
743.511	0.0173424
743.589	0.0173058
743.667	0.0173688
743.745	0.0172936
743.823	0.0174177
743.901	0.0174621
743.979	0.0175383
744.058	0.0176105
744.136	0.0176296
744.214	0.0177866
744.292	0.0178040
744.370	0.0178124
744.448	0.0178709
744.526	0.0179601
744.604	0.0179738
744.683	0.0178591
744.761	0.0180676
744.839	0.0181970
744.917	0.0182001
744.995	0.0180899
745.073	0.0181988
745.151	0.0181528
745.229	0.0181149
745.308	0.0181436
745.386	0.0180638
745.464	0.0181860
745.542	0.0182748
745.620	0.0183694
745.698	0.0184543
745.776	0.0183458
745.854	0.0185077
745.933	0.0186712
746.011	0.0185724
746.089	0.0187005
746.167	0.0187878
746.245	0.0186784
746.323	0.0187456
746.401	0.0187592
746.479	0.0186727
746.558	0.0186919
746.636	0.0186480
746.714	0.0186908
746.792	0.0186414
746.870	0.0185992
746.948	0.0185978
747.026	0.0186037
747.104	0.0183630
747.183	0.0185791
747.261	0.0184466
747.339	0.0182704
747.417	0.0182258
747.495	0.0182945
747.573	0.0182924
747.651	0.0182472
747.729	0.0180914
747.808	0.0179369
747.886	0.0178979
747.964	0.0178012
748.042	0.0177274
748.120	0.0176469
748.198	0.0175054
748.276	0.0173783
748.354	0.0174093
748.433	0.0170296
748.511	0.0172099
748.589	0.0171628
748.667	0.0170364
748.745	0.0169225
748.823	0.0170921
748.901	0.0170097
748.979	0.0170724
749.058	0.0169845
749.136	0.0171347
749.214	0.0172081
749.292	0.0172263
749.370	0.0172633
749.448	0.0173115
749.526	0.0173662
749.604	0.0174952
749.683	0.0177410
749.761	0.0177159
749.839	0.0178497
749.917	0.0178107
749.995	0.0181655
750.073	0.0181124
750.151	0.0180907
750.229	0.0180480
750.308	0.0181766
750.386	0.0181688
750.464	0.0181903
750.542	0.0181588
750.620	0.0182951
750.698	0.0183730
750.776	0.0183659
750.854	0.0183786
750.933	0.0185029
751.011	0.0183450
751.089	0.0184206
751.167	0.0184486
751.245	0.0183839
751.323	0.0184865
751.401	0.0185271
751.479	0.0183955
751.558	0.0185705
751.636	0.0185822
751.714	0.0185897
751.792	0.0186117
751.870	0.0185213
751.948	0.0187263
752.026	0.0185307
752.104	0.0185265
752.183	0.0185831
752.261	0.0183843
752.339	0.0184518
752.417	0.0183276
752.495	0.0182389
752.573	0.0183015
752.651	0.0182835
752.729	0.0180959
752.808	0.0180844
752.886	0.0182462
752.964	0.0182289
753.042	0.0180469
753.120	0.0180629
753.198	0.0179636
753.276	0.0178638
753.354	0.0178070
753.433	0.0178997
753.511	0.0177328
753.589	0.0176344
753.667	0.0177346
753.745	0.0176671
753.823	0.0176041
753.901	0.0176375
753.979	0.0176638
754.058	0.0176318
754.136	0.0178284
754.214	0.0176502
754.292	0.0176636
754.370	0.0177077
754.448	0.0178702
754.526	0.0179321
754.604	0.0180064
754.683	0.0178745
754.761	0.0180747
754.839	0.0179932
754.917	0.0178886
754.995	0.0180988
755.073	0.0181200
755.151	0.0181688
755.229	0.0181327
755.308	0.0180156
755.386	0.0179509
755.464	0.0180328
755.542	0.0179002
755.620	0.0178394
755.698	0.0178082
755.776	0.0178229
755.854	0.0178321
755.933	0.0177840
756.011	0.0177927
756.089	0.0178057
756.167	0.0179606
756.245	0.0179591
756.323	0.0178767
756.401	0.0178218
756.479	0.0177309
756.558	0.0177774
756.636	0.0176469
756.714	0.0177347
756.792	0.0178198
756.870	0.0177995
756.948	0.0176110
757.026	0.0178403
757.104	0.0180684
757.183	0.0178535
757.261	0.0179839
757.339	0.0180363
757.417	0.0180582
757.495	0.0181266
757.573	0.0181364
757.651	0.0181593
757.729	0.0181899
757.808	0.0182274
757.886	0.0182470
757.964	0.0183380
758.042	0.0182852
758.120	0.0182224
758.198	0.0182594
758.276	0.0182829
758.354	0.0181823
758.433	0.0182649
758.511	0.0182550
758.589	0.0182354
758.667	0.0181782
758.745	0.0181856
758.823	0.0182161
758.901	0.0181412
758.979	0.0183602
759.058	0.0181655
759.136	0.0182241
759.214	0.0182647
759.292	0.0182527
759.370	0.0181998
759.448	0.0183336
759.526	0.0182398
759.604	0.0182774
759.683	0.0181797
759.761	0.0182117
759.839	0.0180821
759.917	0.0183733
759.995	0.0181770
760.073	0.0180569
760.151	0.0181500
760.229	0.0181030
760.308	0.0178995
760.386	0.0179846
760.464	0.0178933
760.542	0.0178221
760.620	0.0177857
760.698	0.0178045
760.776	0.0177232
760.854	0.0177153
760.933	0.0179800
761.011	0.0179834
761.089	0.0178076
761.167	0.0179286
761.245	0.0179591
761.323	0.0178456
761.401	0.0180207
761.479	0.0179424
761.558	0.0178837
761.636	0.0179292
761.714	0.0178695
761.792	0.0177986
761.870	0.0177592
761.948	0.0177692
762.026	0.0179648
762.104	0.0177097
762.183	0.0177337
762.261	0.0177661
762.339	0.0176466
762.417	0.0177075
762.495	0.0180733
762.573	0.0179652
762.651	0.0178376
762.729	0.0178645
762.808	0.0179248
762.886	0.0178654
762.964	0.0179282
763.042	0.0179818
763.120	0.0180566
763.198	0.0181889
763.276	0.0181222
763.354	0.0182132
763.433	0.0182127
763.511	0.0182670
763.589	0.0182808
763.667	0.0181648
763.745	0.0182716
763.823	0.0181475
763.901	0.0180280
763.979	0.0180659
764.058	0.0180401
764.136	0.0179902
764.214	0.0179610
764.292	0.0178511
764.370	0.0178212
764.448	0.0178127
764.526	0.0176569
764.604	0.0177376
764.683	0.0178575
764.761	0.0177657
764.839	0.0178609
764.917	0.0179094
764.995	0.0178439
765.073	0.0177979
765.151	0.0178181
765.229	0.0178125
765.308	0.0178683
765.386	0.0178511
765.464	0.0179677
765.542	0.0179674
765.620	0.0177036
765.698	0.0178957
765.776	0.0177862
765.854	0.0178423
765.933	0.0180581
766.011	0.0179715
766.089	0.0180442
766.167	0.0180167
766.245	0.0180511
766.323	0.0181470
766.401	0.0182258
766.479	0.0181695
766.558	0.0181473
766.636	0.0181892
766.714	0.0180370
766.792	0.0181985
766.870	0.0183882
766.948	0.0183842
767.026	0.0182907
767.104	0.0182915
767.183	0.0184811
767.261	0.0186085
767.339	0.0184785
767.417	0.0185641
767.495	0.0183907
767.573	0.0184440
767.651	0.0186561
767.729	0.0185120
767.808	0.0184838
767.886	0.0184206
767.964	0.0184744
768.042	0.0184354
768.120	0.0182356
768.198	0.0182574
768.276	0.0181101
768.354	0.0180029
768.433	0.0179093
768.511	0.0178151
768.589	0.0178872
768.667	0.0178465
768.745	0.0176720
768.823	0.0176164
768.901	0.0175071
768.979	0.0174952
769.058	0.0174022
769.136	0.0175503
769.214	0.0175569
769.292	0.0173998
769.370	0.0174448
769.448	0.0174598
769.526	0.0175644
769.604	0.0176987
769.683	0.0175817
769.761	0.0175891
769.839	0.0176125
769.917	0.0177225
769.995	0.0178547
770.073	0.0176724
770.151	0.0178132
770.229	0.0177893
770.308	0.0176746
770.386	0.0177932
770.464	0.0178876
770.542	0.0178157
770.620	0.0177289
770.698	0.0178402
770.776	0.0179118
770.854	0.0179298
770.933	0.0179115
771.011	0.0180939
771.089	0.0180326
771.167	0.0178981
771.245	0.0179100
771.323	0.0179994
771.401	0.0181310
771.479	0.0181702
771.558	0.0181216
771.636	0.0180593
771.714	0.0182931
771.792	0.0182143
771.870	0.0181679
771.948	0.0182175
772.026	0.0183004
772.104	0.0185207
772.183	0.0184144
772.261	0.0184033
772.339	0.0184676
772.417	0.0183921
772.495	0.0184568
772.573	0.0185147
772.651	0.0185017
772.729	0.0184798
772.808	0.0184138
772.886	0.0184205
772.964	0.0182961
773.042	0.0184258
773.120	0.0183727
773.198	0.0182078
773.276	0.0181564
773.354	0.0181096
773.433	0.0180841
773.511	0.0180624
773.589	0.0180818
773.667	0.0179641
773.745	0.0181180
773.823	0.0180399
773.901	0.0182104
773.979	0.0180573
774.058	0.0179346
774.136	0.0181248
774.214	0.0180086
774.292	0.0181033
774.370	0.0181340
774.448	0.0179016
774.526	0.0180947
774.604	0.0180180
774.683	0.0179028
774.761	0.0180145
774.839	0.0179049
774.917	0.0178732
774.995	0.0181153
775.073	0.0178710
775.151	0.0179283
775.229	0.0178124
775.308	0.0177955
775.386	0.0179426
775.464	0.0178311
775.542	0.0177719
775.620	0.0178102
775.698	0.0178010
775.776	0.0178535
775.854	0.0177841
775.933	0.0178606
776.011	0.0177327
776.089	0.0177122
776.167	0.0177814
776.245	0.0178737
776.323	0.0178214
776.401	0.0178846
776.479	0.0180043
776.558	0.0179308
776.636	0.0179979
776.714	0.0181168
776.792	0.0180180
776.870	0.0181238
776.948	0.0180005
777.026	0.0177990
777.104	0.0178426
777.183	0.0178895
777.261	0.0177890
777.339	0.0176418
777.417	0.0175847
777.495	0.0175703
777.573	0.0175423
777.651	0.0176485
777.729	0.0176694
777.808	0.0175561
777.886	0.0177750
777.964	0.0178349
778.042	0.0179982
778.120	0.0180680
778.198	0.0180614
778.276	0.0181759
778.354	0.0182755
778.433	0.0183846
778.511	0.0185751
778.589	0.0184346
778.667	0.0184090
778.745	0.0185909
778.823	0.0184161
778.901	0.0184351
778.979	0.0183980
779.058	0.0184457
779.136	0.0183434
779.214	0.0183949
779.292	0.0182919
779.370	0.0182104
779.448	0.0181126
779.526	0.0180940
779.604	0.0180683
779.683	0.0179898
779.761	0.0179190
779.839	0.0178671
779.917	0.0178414
779.995	0.0179427
780.073	0.0179726
780.151	0.0179535
780.229	0.0180704
780.308	0.0179974
780.386	0.0179507
780.464	0.0178497
780.542	0.0179465
780.620	0.0179464
780.698	0.0179689
780.776	0.0179034
780.854	0.0178753
780.933	0.0179260
781.011	0.0179676
781.089	0.0180161
781.167	0.0178673
781.245	0.0178778
781.323	0.0179845
781.401	0.0179185
781.479	0.0177449
781.558	0.0178193
781.636	0.0178794
781.714	0.0178942
781.792	0.0176617
781.870	0.0178542
781.948	0.0177491
782.026	0.0176311
782.104	0.0175745
782.183	0.0174067
782.261	0.0174593
782.339	0.0176088
782.417	0.0176315
782.495	0.0175888
782.573	0.0176742
782.651	0.0176845
782.729	0.0177803
782.808	0.0177654
782.886	0.0179019
782.964	0.0179720
783.042	0.0180083
783.120	0.0179558
783.198	0.0180531
783.276	0.0179980
783.354	0.0180054
783.433	0.0181326
783.511	0.0180948
783.589	0.0179462
783.667	0.0180688
783.745	0.0180573
783.823	0.0180176
783.901	0.0180089
783.979	0.0180458
784.058	0.0179492
784.136	0.0179239
784.214	0.0178904
784.292	0.0178659
784.370	0.0178692
784.448	0.0179780
784.526	0.0181726
784.604	0.0180905
784.683	0.0182095
784.761	0.0180823
784.839	0.0181619
784.917	0.0183356
784.995	0.0183212
785.073	0.0183870
785.151	0.0184356
785.229	0.0184196
785.308	0.0183966
785.386	0.0183781
785.464	0.0184197
785.542	0.0182469
785.620	0.0182663
785.698	0.0181468
785.776	0.0181219
785.854	0.0180291
785.933	0.0179329
786.011	0.0180190
786.089	0.0181416
786.167	0.0178288
786.245	0.0177659
786.323	0.0180173
786.401	0.0178546
786.479	0.0178386
786.558	0.0178866
786.636	0.0180451
786.714	0.0178258
786.792	0.0179018
786.870	0.0177655
786.948	0.0178280
787.026	0.0179634
787.104	0.0178905
787.183	0.0177890
787.261	0.0179882
787.339	0.0179327
787.417	0.0179426
787.495	0.0179888
787.573	0.0179697
787.651	0.0180135
787.729	0.0179930
787.808	0.0181215
787.886	0.0182727
787.964	0.0181477
788.042	0.0179671
788.120	0.0180366
788.198	0.0181025
788.276	0.0179421
788.354	0.0179590
788.433	0.0178304
788.511	0.0177953
788.589	0.0178090
788.667	0.0179130
788.745	0.0177847
788.823	0.0178636
788.901	0.0176680
788.979	0.0178526
789.058	0.0177673
789.136	0.0178130
789.214	0.0177228
789.292	0.0178702
789.370	0.0179597
789.448	0.0181293
789.526	0.0181302
789.604	0.0181591
789.683	0.0181731
789.761	0.0181055
789.839	0.0183372
789.917	0.0182487
789.995	0.0183144
790.073	0.0183379
790.151	0.0182257
790.229	0.0181460
790.308	0.0180592
790.386	0.0180549
790.464	0.0179446
790.542	0.0180237
790.620	0.0177911
790.698	0.0179070
790.776	0.0179095
790.854	0.0177399
790.933	0.0177892
791.011	0.0179270
791.089	0.0181017
791.167	0.0181437
791.245	0.0181901
791.323	0.0183001
791.401	0.0181985
791.479	0.0183516
791.558	0.0185574
791.636	0.0184607
791.714	0.0184353
791.792	0.0183707
791.870	0.0183469
791.948	0.0182802
792.026	0.0182842
792.104	0.0181368
792.183	0.0180499
792.261	0.0179574
792.339	0.0179678
792.417	0.0178331
792.495	0.0179192
792.573	0.0177674
792.651	0.0176559
792.729	0.0177837
792.808	0.0176353
792.886	0.0175321
792.964	0.0176812
793.042	0.0177359
793.120	0.0175732
793.198	0.0177400
793.276	0.0177828
793.354	0.0177505
793.433	0.0178752
793.511	0.0180035
793.589	0.0179984
793.667	0.0180014
793.745	0.0180740
793.823	0.0182336
793.901	0.0181188
793.979	0.0181867
794.058	0.0182171
794.136	0.0181198
794.214	0.0182104
794.292	0.0181284
794.370	0.0182178
794.448	0.0182462
794.526	0.0181898
794.604	0.0181530
794.683	0.0183184
794.761	0.0181424
794.839	0.0180223
794.917	0.0180904
794.995	0.0179859
795.073	0.0179840
795.151	0.0178748
795.229	0.0180183
795.308	0.0179607
795.386	0.0180463
795.464	0.0180600
795.542	0.0178668
795.620	0.0179437
795.698	0.0180556
795.776	0.0179598
795.854	0.0180536
795.933	0.0179740
796.011	0.0179906
796.089	0.0181101
796.167	0.0180046
796.245	0.0179425
796.323	0.0180859
796.401	0.0180186
796.479	0.0179958
796.558	0.0180326
796.636	0.0180441
796.714	0.0178363
796.792	0.0180354
796.870	0.0180618
796.948	0.0180502
797.026	0.0179558
797.104	0.0181320
797.183	0.0181123
797.261	0.0178654
797.339	0.0180275
797.417	0.0179844
797.495	0.0180800
797.573	0.0180163
797.651	0.0181300
797.729	0.0181982
797.808	0.0183279
797.886	0.0183852
797.964	0.0183218
798.042	0.0182664
798.120	0.0182760
798.198	0.0183580
798.276	0.0182600
798.354	0.0182461
798.433	0.0182347
798.511	0.0180338
798.589	0.0179323
798.667	0.0178928
798.745	0.0179612
798.823	0.0178598
798.901	0.0176201
798.979	0.0174916
799.058	0.0174507
799.136	0.0174152
799.214	0.0174250
799.292	0.0175737
799.370	0.0174498
799.448	0.0177484
799.526	0.0174812
799.604	0.0175945
799.683	0.0176669
799.761	0.0177413
799.839	0.0179213
799.917	0.0178548
799.995	0.0180224
800.073	0.0180579
800.151	0.0181023
800.229	0.0181239
800.308	0.0181590
800.386	0.0182947
800.464	0.0181829
800.542	0.0182648
800.620	0.0183169
800.698	0.0182262
800.776	0.0182066
800.854	0.0181662
800.933	0.0181733
801.011	0.0181527
801.089	0.0182533
801.167	0.0181810
801.245	0.0181793
801.323	0.0180133
801.401	0.0180247
801.479	0.0179992
801.558	0.0179473
801.636	0.0179842
801.714	0.0178523
801.792	0.0178520
801.870	0.0178611
801.948	0.0178849
802.026	0.0177670
802.104	0.0177094
802.183	0.0176569
802.261	0.0178367
802.339	0.0178108
802.417	0.0177901
802.495	0.0178583
802.573	0.0178020
802.651	0.0179249
802.729	0.0178323
802.808	0.0179773
802.886	0.0180482
802.964	0.0183038
803.042	0.0181448
803.120	0.0182497
803.198	0.0180968
803.276	0.0182224
803.354	0.0182210
803.433	0.0183318
803.511	0.0182035
803.589	0.0182480
803.667	0.0182861
803.745	0.0181859
803.823	0.0182000
803.901	0.0182784
803.979	0.0180423
804.058	0.0181403
804.136	0.0181950
804.214	0.0181965
804.292	0.0182676
804.370	0.0183556
804.448	0.0182880
804.526	0.0182572
804.604	0.0181742
804.683	0.0182199
804.761	0.0179727
804.839	0.0180199
804.917	0.0179098
804.995	0.0178354
805.073	0.0179189
805.151	0.0177493
805.229	0.0176714
805.308	0.0176458
805.386	0.0176510
805.464	0.0174753
805.542	0.0175253
805.620	0.0174661
805.698	0.0175297
805.776	0.0174647
805.854	0.0174124
805.933	0.0175081
806.011	0.0174849
806.089	0.0175940
806.167	0.0177628
806.245	0.0176795
806.323	0.0177971
806.401	0.0179200
806.479	0.0178962
806.558	0.0180948
806.636	0.0180636
806.714	0.0182618
806.792	0.0182146
806.870	0.0183376
806.948	0.0183052
807.026	0.0182731
807.104	0.0181273
807.183	0.0182786
807.261	0.0182784
807.339	0.0183355
807.417	0.0181229
807.495	0.0181604
807.573	0.0181655
807.651	0.0180450
807.729	0.0181390
807.808	0.0182022
807.886	0.0179414
807.964	0.0180391
808.042	0.0178871
808.120	0.0179314
808.198	0.0178057
808.276	0.0178139
808.354	0.0177835
808.433	0.0178120
808.511	0.0177589
808.589	0.0175759
808.667	0.0175901
808.745	0.0177406
808.823	0.0176730
808.901	0.0177106
808.979	0.0177866
809.058	0.0178573
809.136	0.0178532
809.214	0.0178838
809.292	0.0178321
809.370	0.0179948
809.448	0.0181486
809.526	0.0180807
809.604	0.0180966
809.683	0.0183055
809.761	0.0181721
809.839	0.0182053
809.917	0.0182767
809.995	0.0181109
810.073	0.0183117
810.151	0.0182153
810.229	0.0181827
810.308	0.0181281
810.386	0.0182100
810.464	0.0181998
810.542	0.0181736
810.620	0.0182945
810.698	0.0181887
810.776	0.0182005
810.854	0.0182609
810.933	0.0182440
811.011	0.0181892
811.089	0.0183048
811.167	0.0181406
811.245	0.0183286
811.323	0.0181705
811.401	0.0180832
811.479	0.0180013
811.558	0.0179498
811.636	0.0178741
811.714	0.0178378
811.792	0.0177238
811.870	0.0177522
811.948	0.0178030
812.026	0.0176299
812.104	0.0176501
812.183	0.0175938
812.261	0.0176841
812.339	0.0176119
812.417	0.0176446
812.495	0.0176112
812.573	0.0175734
812.651	0.0176864
812.729	0.0176382
812.808	0.0178078
812.886	0.0176607
812.964	0.0176885
813.042	0.0178817
813.120	0.0179690
813.198	0.0180087
813.276	0.0180823
813.354	0.0181355
813.433	0.0180907
813.511	0.0181757
813.589	0.0181133
813.667	0.0181471
813.745	0.0182088
813.823	0.0182236
813.901	0.0181284
813.979	0.0182039
814.058	0.0182191
814.136	0.0181965
814.214	0.0182578
814.292	0.0182265
814.370	0.0181554
814.448	0.0181055
814.526	0.0181212
814.604	0.0179733
814.683	0.0178815
814.761	0.0179253
814.839	0.0178715
814.917	0.0178676
814.995	0.0178997
815.073	0.0179750
815.151	0.0179228
815.229	0.0176810
815.308	0.0178337
815.386	0.0179194
815.464	0.0178241
815.542	0.0177610
815.620	0.0177058
815.698	0.0180330
815.776	0.0180735
815.854	0.0180682
815.933	0.0180405
816.011	0.0180695
816.089	0.0179758
816.167	0.0179925
816.245	0.0180748
816.323	0.0181928
816.401	0.0181520
816.479	0.0181606
816.558	0.0183312
816.636	0.0183349
816.714	0.0183041
816.792	0.0182545
816.870	0.0183107
816.948	0.0182610
817.026	0.0182053
817.104	0.0183076
817.183	0.0183163
817.261	0.0182393
817.339	0.0182208
817.417	0.0181385
817.495	0.0182281
817.573	0.0181339
817.651	0.0180615
817.729	0.0180642
817.808	0.0178703
817.886	0.0179868
817.964	0.0180027
818.042	0.0179507
818.120	0.0179784
818.198	0.0179044
818.276	0.0178182
818.354	0.0177892
818.433	0.0175858
818.511	0.0176707
818.589	0.0177140
818.667	0.0174809
818.745	0.0177266
818.823	0.0176427
818.901	0.0175090
818.979	0.0176047
819.058	0.0176557
819.136	0.0175992
819.214	0.0176090
819.292	0.0174903
819.370	0.0177566
819.448	0.0178513
819.526	0.0178842
819.604	0.0179076
819.683	0.0179922
819.761	0.0178710
819.839	0.0179790
819.917	0.0180391
819.995	0.0180807
820.073	0.0181095
820.151	0.0182496
820.229	0.0181773
820.308	0.0181705
820.386	0.0182188
820.464	0.0181541
820.542	0.0183059
820.620	0.0181406
820.698	0.0183276
820.776	0.0183761
820.854	0.0181178
820.933	0.0181015
821.011	0.0180369
821.089	0.0181677
821.167	0.0179981
821.245	0.0179514
821.323	0.0180128
821.401	0.0179610
821.479	0.0180343
821.558	0.0178893
821.636	0.0179845
821.714	0.0178008
821.792	0.0178051
821.870	0.0179102
821.948	0.0178879
822.026	0.0179021
822.104	0.0178909
822.183	0.0179733
822.261	0.0179665
822.339	0.0179420
822.417	0.0179028
822.495	0.0180208
822.573	0.0180240
822.651	0.0180015
822.729	0.0181187
822.808	0.0180899
822.886	0.0180437
822.964	0.0180228
823.042	0.0179921
823.120	0.0180496
823.198	0.0182616
823.276	0.0182802
823.354	0.0181435
823.433	0.0182759
823.511	0.0182505
823.589	0.0180784
823.667	0.0182188
823.745	0.0181684
823.823	0.0183212
823.901	0.0181573
823.979	0.0182355
824.058	0.0181840
824.136	0.0182368
824.214	0.0181272
824.292	0.0181212
824.370	0.0181670
824.448	0.0181837
824.526	0.0181086
824.604	0.0181404
824.683	0.0178574
824.761	0.0178395
824.839	0.0178846
824.917	0.0178456
824.995	0.0178036
825.073	0.0178120
825.151	0.0177803
825.229	0.0176430
825.308	0.0177511
825.386	0.0176772
825.464	0.0176821
825.542	0.0175366
825.620	0.0177077
825.698	0.0176667
825.776	0.0176528
825.854	0.0177094
825.933	0.0177309
826.011	0.0178381
826.089	0.0177641
826.167	0.0175584
826.245	0.0177071
826.323	0.0178168
826.401	0.0179467
826.479	0.0178278
826.558	0.0179101
826.636	0.0180029
826.714	0.0179202
826.792	0.0180837
826.870	0.0180682
826.948	0.0180940
827.026	0.0179908
827.104	0.0179520
827.183	0.0180719
827.261	0.0180343
827.339	0.0179609
827.417	0.0180589
827.495	0.0178720
827.573	0.0179829
827.651	0.0179074
827.729	0.0179618
827.808	0.0179376
827.886	0.0180080
827.964	0.0180473
828.042	0.0180817
828.120	0.0181193
828.198	0.0180978
828.276	0.0180038
828.354	0.0181590
828.433	0.0182723
828.511	0.0180338
828.589	0.0181956
828.667	0.0182004
828.745	0.0180145
828.823	0.0181739
828.901	0.0182030
828.979	0.0181329
829.058	0.0179375
829.136	0.0179265
829.214	0.0178893
829.292	0.0179884
829.370	0.0178538
829.448	0.0179305
829.526	0.0179700
829.604	0.0180126
829.683	0.0179755
829.761	0.0179205
829.839	0.0179345
829.917	0.0180869
829.995	0.0181088
830.073	0.0180518
830.151	0.0179443
830.229	0.0179910
830.308	0.0180637
830.386	0.0178656
830.464	0.0181699
830.542	0.0180125
830.620	0.0180748
830.698	0.0178893
830.776	0.0178931
830.854	0.0178060
830.933	0.0179876
831.011	0.0178533
831.089	0.0177004
831.167	0.0177013
831.245	0.0177605
831.323	0.0177166
831.401	0.0179377
831.479	0.0178908
831.558	0.0178342
831.636	0.0176658
831.714	0.0177096
831.792	0.0176482
831.870	0.0178122
831.948	0.0177942
832.026	0.0178010
832.104	0.0178085
832.183	0.0176979
832.261	0.0178642
832.339	0.0179114
832.417	0.0177654
832.495	0.0178293
832.573	0.0177866
832.651	0.0176689
832.729	0.0178812
832.808	0.0179093
832.886	0.0178941
832.964	0.0180074
833.042	0.0177930
833.120	0.0178676
833.198	0.0179567
833.276	0.0180687
833.354	0.0180524
833.433	0.0180981
833.511	0.0181181
833.589	0.0180438
833.667	0.0180111
833.745	0.0179475
833.823	0.0180844
833.901	0.0180957
833.979	0.0182578
834.058	0.0182854
834.136	0.0183220
834.214	0.0180801
834.292	0.0182814
834.370	0.0182881
834.448	0.0183324
834.526	0.0182056
834.604	0.0180591
834.683	0.0181505
834.761	0.0182513
834.839	0.0181647
834.917	0.0181734
834.995	0.0181001
835.073	0.0179877
835.151	0.0180376
835.229	0.0179044
835.308	0.0178268
835.386	0.0178329
835.464	0.0177544
835.542	0.0178578
835.620	0.0177792
835.698	0.0177230
835.776	0.0178136
835.854	0.0178436
835.933	0.0178201
836.011	0.0179178
836.089	0.0180411
836.167	0.0180044
836.245	0.0180699
836.323	0.0180536
836.401	0.0179523
836.479	0.0179877
836.558	0.0181026
836.636	0.0181482
836.714	0.0181988
836.792	0.0181994
836.870	0.0180051
836.948	0.0182139
837.026	0.0182178
837.104	0.0180533
837.183	0.0179198
837.261	0.0181668
837.339	0.0181656
837.417	0.0181028
837.495	0.0181250
837.573	0.0181027
837.651	0.0181745
837.729	0.0181156
837.808	0.0180850
837.886	0.0180101
837.964	0.0179987
838.042	0.0179799
838.120	0.0179968
838.198	0.0179567
838.276	0.0180016
838.354	0.0180067
838.433	0.0179796
838.511	0.0179517
838.589	0.0179052
838.667	0.0179031
838.745	0.0178526
838.823	0.0178228
838.901	0.0178014
838.979	0.0178182
839.058	0.0178046
839.136	0.0178178
839.214	0.0178071
839.292	0.0177880
839.370	0.0177776
839.448	0.0177106
839.526	0.0178831
839.604	0.0178433
839.683	0.0178593
839.761	0.0179872
839.839	0.0179482
839.917	0.0178615
839.995	0.0179739
840.073	0.0179830
840.151	0.0180353
840.229	0.0181152
840.308	0.0181814
840.386	0.0181997
840.464	0.0180735
840.542	0.0181407
840.620	0.0181259
840.698	0.0181306
840.776	0.0181695
840.854	0.0181772
840.933	0.0181426
841.011	0.0182676
841.089	0.0180643
841.167	0.0182021
841.245	0.0182365
841.323	0.0181330
841.401	0.0182072
841.479	0.0179967
841.558	0.0180280
841.636	0.0181003
841.714	0.0181533
841.792	0.0181353
841.870	0.0182217
841.948	0.0181264
842.026	0.0181573
842.104	0.0182969
842.183	0.0180779
842.261	0.0180946
842.339	0.0180893
842.417	0.0179957
842.495	0.0181901
842.573	0.0181022
842.651	0.0180326
842.729	0.0180239
842.808	0.0180854
842.886	0.0181638
842.964	0.0181142
843.042	0.0181190
843.120	0.0180697
843.198	0.0179597
843.276	0.0179980
843.354	0.0178645
843.433	0.0180829
843.511	0.0181433
843.589	0.0180883
843.667	0.0179435
843.745	0.0180756
843.823	0.0180969
843.901	0.0180533
843.979	0.0179224
844.058	0.0181561
844.136	0.0180605
844.214	0.0179800
844.292	0.0179850
844.370	0.0180047
844.448	0.0179190
844.526	0.0180209
844.604	0.0178975
844.683	0.0179020
844.761	0.0179372
844.839	0.0179991
844.917	0.0178126
844.995	0.0178175
845.073	0.0180672
845.151	0.0178671
845.229	0.0179420
845.308	0.0177820
845.386	0.0178120
845.464	0.0177969
845.542	0.0178707
845.620	0.0179121
845.698	0.0178294
845.776	0.0178407
845.854	0.0177530
845.933	0.0177309
846.011	0.0178949
846.089	0.0178629
846.167	0.0177871
846.245	0.0179286
846.323	0.0178405
846.401	0.0178178
846.479	0.0179100
846.558	0.0179532
846.636	0.0178342
846.714	0.0179376
846.792	0.0179887
846.870	0.0179329
846.948	0.0179025
847.026	0.0179208
847.104	0.0179978
847.183	0.0179769
847.261	0.0178722
847.339	0.0179277
847.417	0.0180708
847.495	0.0179581
847.573	0.0178543
847.651	0.0179906
847.729	0.0180542
847.808	0.0178880
847.886	0.0180597
847.964	0.0179926
848.042	0.0182974
848.120	0.0181496
848.198	0.0182446
848.276	0.0180652
848.354	0.0180466
848.433	0.0182586
848.511	0.0181839
848.589	0.0182053
848.667	0.0181513
848.745	0.0182191
848.823	0.0181784
848.901	0.0181403
848.979	0.0181777
849.058	0.0181468
849.136	0.0181170
849.214	0.0180417
849.292	0.0180708
849.370	0.0180610
849.448	0.0181747
849.526	0.0180993
849.604	0.0180951
849.683	0.0180891
849.761	0.0179736
849.839	0.0179565
849.917	0.0179914
849.995	0.0179735
850.073	0.0179713
850.151	0.0179251
850.229	0.0178081
850.308	0.0179343
850.386	0.0179816
850.464	0.0177885
850.542	0.0178697
850.620	0.0177036
850.698	0.0178267
850.776	0.0177213
850.854	0.0178682
850.933	0.0178368
851.011	0.0177920
851.089	0.0177736
851.167	0.0178481
851.245	0.0178395
851.323	0.0178882
851.401	0.0178642
851.479	0.0178857
851.558	0.0179477
851.636	0.0178163
851.714	0.0179587
851.792	0.0179239
851.870	0.0179510
851.948	0.0178846
852.026	0.0179298
852.104	0.0179462
852.183	0.0178314
852.261	0.0179112
852.339	0.0178018
852.417	0.0178376
852.495	0.0179985
852.573	0.0178284
852.651	0.0179333
852.729	0.0179871
852.808	0.0179847
852.886	0.0179056
852.964	0.0178822
853.042	0.0180570
853.120	0.0180681
853.198	0.0180185
853.276	0.0180805
853.354	0.0179803
853.433	0.0181344
853.511	0.0180125
853.589	0.0180699
853.667	0.0180766
853.745	0.0180515
853.823	0.0180396
853.901	0.0182110
853.979	0.0182595
854.058	0.0181848
854.136	0.0181107
854.214	0.0180015
854.292	0.0179709
854.370	0.0180968
854.448	0.0180676
854.526	0.0181561
854.604	0.0180950
854.683	0.0180701
854.761	0.0180213
854.839	0.0179180
854.917	0.0180285
854.995	0.0180743
855.073	0.0180028
855.151	0.0179050
855.229	0.0181100
855.308	0.0179590
855.386	0.0177991
855.464	0.0180293
855.542	0.0178346
855.620	0.0179877
855.698	0.0177932
855.776	0.0179605
855.854	0.0178809
855.933	0.0179977
856.011	0.0179575
856.089	0.0180368
856.167	0.0179474
856.245	0.0180431
856.323	0.0178393
856.401	0.0178528
856.479	0.0180126
856.558	0.0178860
856.636	0.0178241
856.714	0.0180969
856.792	0.0179476
856.870	0.0179902
856.948	0.0179664
857.026	0.0178793
857.104	0.0180090
857.183	0.0180672
857.261	0.0179356
857.339	0.0180547
857.417	0.0180505
857.495	0.0181687
857.573	0.0181005
857.651	0.0179797
857.729	0.0180385
857.808	0.0181008
857.886	0.0181426
857.964	0.0181333
858.042	0.0180457
858.120	0.0181868
858.198	0.0181004
858.276	0.0180753
858.354	0.0180541
858.433	0.0180061
858.511	0.0179699
858.589	0.0178263
858.667	0.0178279
858.745	0.0179394
858.823	0.0178950
858.901	0.0179019
858.979	0.0178123
859.058	0.0178097
859.136	0.0179683
859.214	0.0177785
859.292	0.0178416
859.370	0.0178963
859.448	0.0178593
859.526	0.0179745
859.604	0.0180259
859.683	0.0179549
859.761	0.0179433
859.839	0.0179821
859.917	0.0180177
859.995	0.0180669
860.073	0.0180378
860.151	0.0180061
860.229	0.0181041
860.308	0.0181454
860.386	0.0179921
860.464	0.0181039
860.542	0.0179865
860.620	0.0179416
860.698	0.0178930
860.776	0.0180363
860.854	0.0181639
860.933	0.0181030
861.011	0.0179747
861.089	0.0181277
861.167	0.0180429
861.245	0.0181155
861.323	0.0182053
861.401	0.0180893
861.479	0.0181875
861.558	0.0181986
861.636	0.0182053
861.714	0.0181765
861.792	0.0181759
861.870	0.0182401
861.948	0.0181623
862.026	0.0181680
862.104	0.0181348
862.183	0.0181839
862.261	0.0181370
862.339	0.0179730
862.417	0.0181345
862.495	0.0181036
862.573	0.0179330
862.651	0.0179533
862.729	0.0179844
862.808	0.0178982
862.886	0.0179684
862.964	0.0179069
863.042	0.0178356
863.120	0.0177946
863.198	0.0178545
863.276	0.0179019
863.354	0.0179173
863.433	0.0179597
863.511	0.0178374
863.589	0.0179377
863.667	0.0178623
863.745	0.0178880
863.823	0.0179569
863.901	0.0178371
863.979	0.0178853
864.058	0.0181734
864.136	0.0180333
864.214	0.0179757
864.292	0.0180022
864.370	0.0180182
864.448	0.0179722
864.526	0.0179760
864.604	0.0181234
864.683	0.0180674
864.761	0.0180182
864.839	0.0179845
864.917	0.0180547
864.995	0.0181668
865.073	0.0180814
865.151	0.0181125
865.229	0.0182128
865.308	0.0179534
865.386	0.0178887
865.464	0.0180956
865.542	0.0180476
865.620	0.0180247
865.698	0.0180885
865.776	0.0178858
865.854	0.0180269
865.933	0.0180138
866.011	0.0180635
866.089	0.0178304
866.167	0.0179469
866.245	0.0179927
866.323	0.0179677
866.401	0.0180096
866.479	0.0180155
866.558	0.0179484
866.636	0.0180450
866.714	0.0179940
866.792	0.0179723
866.870	0.0178594
866.948	0.0179030
867.026	0.0179562
867.104	0.0180010
867.183	0.0178085
867.261	0.0179771
867.339	0.0180935
867.417	0.0178914
867.495	0.0177963
867.573	0.0179388
867.651	0.0179005
867.729	0.0179967
867.808	0.0181220
867.886	0.0179997
867.964	0.0180225
868.042	0.0178999
868.120	0.0179994
868.198	0.0181528
868.276	0.0182037
868.354	0.0180795
868.433	0.0180093
868.511	0.0181865
868.589	0.0181486
868.667	0.0181266
868.745	0.0181501
868.823	0.0181667
868.901	0.0179940
868.979	0.0182421
869.058	0.0181229
869.136	0.0181077
869.214	0.0180118
869.292	0.0181371
869.370	0.0181123
869.448	0.0180228
869.526	0.0181793
869.604	0.0181599
869.683	0.0181877
869.761	0.0181963
869.839	0.0181493
869.917	0.0180992
869.995	0.0181184
870.073	0.0181557
870.151	0.0181875
870.229	0.0179674
870.308	0.0180595
870.386	0.0180595
870.464	0.0179828
870.542	0.0180898
870.620	0.0180321
870.698	0.0178812
870.776	0.0178365
870.854	0.0178652
870.933	0.0179198
871.011	0.0179824
871.089	0.0180028
871.167	0.0177851
871.245	0.0180213
871.323	0.0179859
871.401	0.0178818
871.479	0.0181055
871.558	0.0179037
871.636	0.0178764
871.714	0.0179020
871.792	0.0179359
871.870	0.0181125
871.948	0.0179412
872.026	0.0179526
872.104	0.0180441
872.183	0.0180119
872.261	0.0178489
872.339	0.0180460
872.417	0.0179908
872.495	0.0178809
872.573	0.0179316
872.651	0.0179769
872.729	0.0179197
872.808	0.0178772
872.886	0.0179842
872.964	0.0179530
873.042	0.0178435
873.120	0.0178963
873.198	0.0181565
873.276	0.0181010
873.354	0.0179050
873.433	0.0180051
873.511	0.0179726
873.589	0.0180616
873.667	0.0179723
873.745	0.0180145
873.823	0.0179860
873.901	0.0179930
873.979	0.0181791
874.058	0.0181770
874.136	0.0179745
874.214	0.0179656
874.292	0.0181712
874.370	0.0181366
874.448	0.0180672
874.526	0.0180508
874.604	0.0181281
874.683	0.0181379
874.761	0.0181530
874.839	0.0181441
874.917	0.0182142
874.995	0.0180491
875.073	0.0180891
875.151	0.0183100
875.229	0.0181996
875.308	0.0180553
875.386	0.0181295
875.464	0.0182031
875.542	0.0180527
875.620	0.0180032
875.698	0.0179716
875.776	0.0179511
875.854	0.0177702
875.933	0.0179958
876.011	0.0180395
876.089	0.0178338
876.167	0.0179581
876.245	0.0179551
876.323	0.0179070
876.401	0.0177710
876.479	0.0178839
876.558	0.0180708
876.636	0.0179619
876.714	0.0179452
876.792	0.0180348
876.870	0.0178722
876.948	0.0179732
877.026	0.0178765
877.104	0.0179826
877.183	0.0180488
877.261	0.0180552
877.339	0.0180060
877.417	0.0179491
877.495	0.0180079
877.573	0.0180197
877.651	0.0178344
877.729	0.0179513
877.808	0.0180134
877.886	0.0180319
877.964	0.0180173
878.042	0.0179629
878.120	0.0178680
878.198	0.0179079
878.276	0.0178374
878.354	0.0179588
878.433	0.0179494
878.511	0.0180040
878.589	0.0179594
878.667	0.0180331
878.745	0.0179390
878.823	0.0179704
878.901	0.0178577
878.979	0.0180405
879.058	0.0179530
879.136	0.0180018
879.214	0.0181174
879.292	0.0178439
879.370	0.0179603
879.448	0.0179147
879.526	0.0179393
879.604	0.0178719
879.683	0.0179064
879.761	0.0179417
879.839	0.0179093
879.917	0.0179781
879.995	0.0180093
880.073	0.0178801
880.151	0.0179005
880.229	0.0178972
880.308	0.0177438
880.386	0.0179967
880.464	0.0180444
880.542	0.0179758
880.620	0.0178677
880.698	0.0179286
880.776	0.0179919
880.854	0.0178166
880.933	0.0179461
881.011	0.0179953
881.089	0.0179362
881.167	0.0179140
881.245	0.0179209
881.323	0.0180095
881.401	0.0179675
881.479	0.0179868
881.558	0.0179079
881.636	0.0179478
881.714	0.0181107
881.792	0.0179767
881.870	0.0180175
881.948	0.0181389
882.026	0.0179549
882.104	0.0180313
882.183	0.0181471
882.261	0.0180298
882.339	0.0180083
882.417	0.0179691
882.495	0.0180042
882.573	0.0179401
882.651	0.0180034
882.729	0.0180099
882.808	0.0180527
882.886	0.0179742
882.964	0.0178300
883.042	0.0178577
883.120	0.0180638
883.198	0.0179753
883.276	0.0179554
883.354	0.0180456
883.433	0.0179874
883.511	0.0179422
883.589	0.0179182
883.667	0.0179218
883.745	0.0179536
883.823	0.0179282
883.901	0.0179579
883.979	0.0180007
884.058	0.0179949
884.136	0.0179324
884.214	0.0177845
884.292	0.0178040
884.370	0.0178812
884.448	0.0180000
884.526	0.0178792
884.604	0.0178908
884.683	0.0179463
884.761	0.0178205
884.839	0.0179037
884.917	0.0179253
884.995	0.0180318
885.073	0.0179780
885.151	0.0179307
885.229	0.0179708
885.308	0.0180484
885.386	0.0179860
885.464	0.0178922
885.542	0.0179907
885.620	0.0179765
885.698	0.0180196
885.776	0.0182070
885.854	0.0180238
885.933	0.0179190
886.011	0.0180451
886.089	0.0180891
886.167	0.0180168
886.245	0.0180093
886.323	0.0181282
886.401	0.0180352
886.479	0.0179662
886.558	0.0179964
886.636	0.0179783
886.714	0.0181692
886.792	0.0179704
886.870	0.0180812
886.948	0.0181736
887.026	0.0179951
887.104	0.0181092
887.183	0.0179292
887.261	0.0180073
887.339	0.0180980
887.417	0.0179872
887.495	0.0178206
887.573	0.0178696
887.651	0.0179333
887.729	0.0179784
887.808	0.0178780
887.886	0.0179910
887.964	0.0180001
888.042	0.0180009
888.120	0.0180134
888.198	0.0180083
888.276	0.0180121
888.354	0.0180960
888.433	0.0180784
888.511	0.0181628
888.589	0.0181437
888.667	0.0181294
888.745	0.0179783
888.823	0.0179797
888.901	0.0180184
888.979	0.0181338
889.058	0.0180216
889.136	0.0180727
889.214	0.0179590
889.292	0.0179766
889.370	0.0179356
889.448	0.0180032
889.526	0.0181445
889.604	0.0181729
889.683	0.0180936
889.761	0.0181103
889.839	0.0180645
889.917	0.0182162
889.995	0.0181205
890.073	0.0181554
890.151	0.0181973
890.229	0.0181695
890.308	0.0181934
890.386	0.0182004
890.464	0.0182838
890.542	0.0182925
890.620	0.0183870
890.698	0.0182433
890.776	0.0182677
890.854	0.0182765
890.933	0.0183001
891.011	0.0182594
891.089	0.0181303
891.167	0.0180685
891.245	0.0180779
891.323	0.0181185
891.401	0.0181828
891.479	0.0179936
891.558	0.0179577
891.636	0.0179854
891.714	0.0179563
891.792	0.0181536
891.870	0.0178209
891.948	0.0179067
892.026	0.0180453
892.104	0.0179945
892.183	0.0178146
892.261	0.0178036
892.339	0.0179030
892.417	0.0178831
892.495	0.0178701
892.573	0.0178401
892.651	0.0177695
892.729	0.0178466
892.808	0.0178652
892.886	0.0178149
892.964	0.0177535
893.042	0.0178600
893.120	0.0179951
893.198	0.0178515
893.276	0.0179591
893.354	0.0179721
893.433	0.0179314
893.511	0.0180725
893.589	0.0181297
893.667	0.0179669
893.745	0.0181686
893.823	0.0181603
893.901	0.0182415
893.979	0.0182452
894.058	0.0183383
894.136	0.0181770
894.214	0.0181636
894.292	0.0181316
894.370	0.0181105
894.448	0.0181239
894.526	0.0182209
894.604	0.0181161
894.683	0.0179826
894.761	0.0180651
894.839	0.0180847
894.917	0.0180344
894.995	0.0180511
895.073	0.0180646
895.151	0.0181806
895.229	0.0182071
895.308	0.0180557
895.386	0.0182190
895.464	0.0180748
895.542	0.0180115
895.620	0.0180767
895.698	0.0181308
895.776	0.0179970
895.854	0.0180069
895.933	0.0181241
896.011	0.0181119
896.089	0.0179923
896.167	0.0180318
896.245	0.0180837
896.323	0.0180796
896.401	0.0180814
896.479	0.0181216
896.558	0.0181728
896.636	0.0180457
896.714	0.0181266
896.792	0.0180246
896.870	0.0181065
896.948	0.0180411
897.026	0.0179102
897.104	0.0181119
897.183	0.0180328
897.261	0.0179695
897.339	0.0181043
897.417	0.0180138
897.495	0.0181013
897.573	0.0179409
897.651	0.0179304
897.729	0.0180724
897.808	0.0179929
897.886	0.0179668
897.964	0.0178999
898.042	0.0179809
898.120	0.0179308
898.198	0.0180366
898.276	0.0179437
898.354	0.0180391
898.433	0.0180149
898.511	0.0178112
898.589	0.0180704
898.667	0.0180061
898.745	0.0182081
898.823	0.0180389
898.901	0.0179786
898.979	0.0180559
899.058	0.0180057
899.136	0.0178415
899.214	0.0180281
899.292	0.0181361
899.370	0.0180276
899.448	0.0180208
899.526	0.0179634
899.604	0.0179293
899.683	0.0178747
899.761	0.0178510
899.839	0.0178802
899.917	0.0179805
899.995	0.0180574
900.073	0.0179462
900.151	0.0178944
900.229	0.0179414
900.308	0.0179346
900.386	0.0178940
900.464	0.0177537
900.542	0.0178909
900.620	0.0180704
900.698	0.0180340
900.776	0.0179527
900.854	0.0179311
900.933	0.0178917
901.011	0.0179484
901.089	0.0178561
901.167	0.0180138
901.245	0.0180613
901.323	0.0178368
901.401	0.0178435
901.479	0.0180662
901.558	0.0180412
901.636	0.0180236
901.714	0.0180311
901.792	0.0180807
901.870	0.0181804
901.948	0.0182703
902.026	0.0182182
902.104	0.0180148
902.183	0.0180941
902.261	0.0180766
902.339	0.0180924
902.417	0.0180407
902.495	0.0180367
902.573	0.0181902
902.651	0.0181630
902.729	0.0181013
902.808	0.0179590
902.886	0.0180394
902.964	0.0180498
903.042	0.0181085
903.120	0.0181259
903.198	0.0181078
903.276	0.0180511
903.354	0.0179568
903.433	0.0180116
903.511	0.0181015
903.589	0.0180257
903.667	0.0179426
903.745	0.0180256
903.823	0.0181204
903.901	0.0180624
903.979	0.0180632
904.058	0.0181087
904.136	0.0179118
904.214	0.0180836
904.292	0.0179854
904.370	0.0178918
904.448	0.0179356
904.526	0.0180933
904.604	0.0179193
904.683	0.0180216
904.761	0.0180350
904.839	0.0180273
904.917	0.0180464
904.995	0.0180370
905.073	0.0179230
905.151	0.0179077
905.229	0.0179379
905.308	0.0179856
905.386	0.0181023
905.464	0.0178497
905.542	0.0179932
905.620	0.0180445
905.698	0.0178416
905.776	0.0179454
905.854	0.0178239
905.933	0.0177415
906.011	0.0177272
906.089	0.0178374
906.167	0.0177914
906.245	0.0177583
906.323	0.0177054
906.401	0.0179346
906.479	0.0179139
906.558	0.0176919
906.636	0.0176718
906.714	0.0178590
906.792	0.0178817
906.870	0.0178363
906.948	0.0178603
907.026	0.0178841
907.104	0.0177364
907.183	0.0179888
907.261	0.0177721
907.339	0.0179066
907.417	0.0179254
907.495	0.0177461
907.573	0.0179470
907.651	0.0178078
907.729	0.0179070
907.808	0.0180164
907.886	0.0178201
907.964	0.0180249
908.042	0.0178991
908.120	0.0178760
908.198	0.0179768
908.276	0.0178967
908.354	0.0178605
908.433	0.0178284
908.511	0.0178272
908.589	0.0178881
908.667	0.0177910
908.745	0.0177457
908.823	0.0177406
908.901	0.0178406
908.979	0.0177927
909.058	0.0178872
909.136	0.0180313
909.214	0.0179047
909.292	0.0178587
909.370	0.0179105
909.448	0.0178288
909.526	0.0180117
909.604	0.0180381
909.683	0.0181223
909.761	0.0180405
909.839	0.0181133
909.917	0.0182183
909.995	0.0181960
910.073	0.0181631
910.151	0.0181991
910.229	0.0182211
910.308	0.0182799
910.386	0.0182169
910.464	0.0180791
910.542	0.0181577
910.620	0.0182161
910.698	0.0181364
910.776	0.0181473
910.854	0.0181863
910.933	0.0179757
911.011	0.0180315
911.089	0.0181419
911.167	0.0180707
911.245	0.0180351
911.323	0.0180306
911.401	0.0179615
911.479	0.0179189
911.558	0.0180151
911.636	0.0178815
911.714	0.0177901
911.792	0.0179949
911.870	0.0179700
911.948	0.0178975
912.026	0.0178492
912.104	0.0178122
912.183	0.0178483
912.261	0.0177694
912.339	0.0179518
912.417	0.0179404
912.495	0.0179313
912.573	0.0177792
912.651	0.0178584
912.729	0.0178184
912.808	0.0178254
912.886	0.0178792
912.964	0.0177070
913.042	0.0179167
913.120	0.0178642
913.198	0.0178752
913.276	0.0178155
913.354	0.0179763
913.433	0.0179138
913.511	0.0178107
913.589	0.0179382
913.667	0.0179327
913.745	0.0179589
913.823	0.0180660
913.901	0.0179767
913.979	0.0179665
914.058	0.0179832
914.136	0.0180630
914.214	0.0179535
914.292	0.0179383
914.370	0.0179441
914.448	0.0179040
914.526	0.0179991
914.604	0.0179865
914.683	0.0178886
914.761	0.0181139
914.839	0.0180958
914.917	0.0180709
914.995	0.0179702
915.073	0.0180595
915.151	0.0179813
915.229	0.0180122
915.308	0.0180479
915.386	0.0182368
915.464	0.0181104
915.542	0.0180054
915.620	0.0179943
915.698	0.0179247
915.776	0.0181554
915.854	0.0180549
915.933	0.0180295
916.011	0.0180827
916.089	0.0181212
916.167	0.0182458
916.245	0.0179941
916.323	0.0181735
916.401	0.0181466
916.479	0.0181723
916.558	0.0181250
916.636	0.0180717
916.714	0.0182440
916.792	0.0181539
916.870	0.0181281
916.948	0.0181430
917.026	0.0182922
917.104	0.0180988
917.183	0.0181216
917.261	0.0180982
917.339	0.0180234
917.417	0.0181651
917.495	0.0181015
917.573	0.0179816
917.651	0.0180140
917.729	0.0179076
917.808	0.0180041
917.886	0.0180155
917.964	0.0180992
918.042	0.0180316
918.120	0.0179272
918.198	0.0179748
918.276	0.0181860
918.354	0.0181270
918.433	0.0181631
918.511	0.0181987
918.589	0.0180037
918.667	0.0180624
918.745	0.0180755
918.823	0.0181055
918.901	0.0181293
918.979	0.0180228
919.058	0.0180099
919.136	0.0180532
919.214	0.0180721
919.292	0.0180938
919.370	0.0181374
919.448	0.0179875
919.526	0.0180573
919.604	0.0180756
919.683	0.0180943
919.761	0.0179915
919.839	0.0180935
919.917	0.0179909
