06/03/2022	18:25:14	Ver.	4.1	UNKNOWN
Optical Delay	599.995081	Delta X		0.078125	Sweeps	1	Scan Rate	0/0
Coordinates	Axis 1	NaN	Axis 2	NaN	Axis 3	NaN	Axis 4	NaN	Axis 5	NaN	Axis 6	0.000000
TX Power	0.000000	RX Power	0.000000

599.995	0.0183155
600.073	0.0183221
600.151	0.0182111
600.229	0.0183217
600.308	0.0183187
600.386	0.0183483
600.464	0.0183436
600.542	0.0184654
600.620	0.0183716
600.698	0.0183454
600.776	0.0183578
600.854	0.0182653
600.933	0.0181729
601.011	0.0182501
601.089	0.0184389
601.167	0.0183443
601.245	0.0182375
601.323	0.0181790
601.401	0.0184098
601.479	0.0183082
601.558	0.0182722
601.636	0.0183068
601.714	0.0183871
601.792	0.0182958
601.870	0.0183054
601.948	0.0183072
602.026	0.0181915
602.104	0.0183426
602.183	0.0182364
602.261	0.0182721
602.339	0.0184134
602.417	0.0181915
602.495	0.0182795
602.573	0.0183353
602.651	0.0183229
602.729	0.0183250
602.808	0.0183305
602.886	0.0182832
602.964	0.0183901
603.042	0.0183234
603.120	0.0183183
603.198	0.0182729
603.276	0.0183028
603.354	0.0184341
603.433	0.0183395
603.511	0.0183064
603.589	0.0182606
603.667	0.0182999
603.745	0.0183094
603.823	0.0182086
603.901	0.0183087
603.979	0.0183669
604.058	0.0183508
604.136	0.0182558
604.214	0.0182998
604.292	0.0183730
604.370	0.0182697
604.448	0.0183279
604.526	0.0183645
604.604	0.0184304
604.683	0.0183148
604.761	0.0183292
604.839	0.0182635
604.917	0.0183136
604.995	0.0182417
605.073	0.0182709
605.151	0.0182511
605.229	0.0182738
605.308	0.0183244
605.386	0.0182778
605.464	0.0182455
605.542	0.0182107
605.620	0.0183344
605.698	0.0183125
605.776	0.0183600
605.854	0.0182312
605.933	0.0183076
606.011	0.0182452
606.089	0.0181736
606.167	0.0181960
606.245	0.0182629
606.323	0.0183154
606.401	0.0182111
606.479	0.0181799
606.558	0.0181686
606.636	0.0183270
606.714	0.0182274
606.792	0.0181630
606.870	0.0182140
606.948	0.0183530
607.026	0.0183731
607.104	0.0182114
607.183	0.0181132
607.261	0.0182520
607.339	0.0183929
607.417	0.0182862
607.495	0.0183255
607.573	0.0182608
607.651	0.0181974
607.729	0.0181700
607.808	0.0182901
607.886	0.0183272
607.964	0.0183428
608.042	0.0182581
608.120	0.0181767
608.198	0.0181813
608.276	0.0182939
608.354	0.0181996
608.433	0.0182073
608.511	0.0182302
608.589	0.0182566
608.667	0.0183200
608.745	0.0182209
608.823	0.0183282
608.901	0.0182005
608.979	0.0181621
609.058	0.0183204
609.136	0.0183148
609.214	0.0182671
609.292	0.0182262
609.370	0.0182507
609.448	0.0181793
609.526	0.0182030
609.604	0.0182597
609.683	0.0182706
609.761	0.0182736
609.839	0.0182692
609.917	0.0183392
609.995	0.0182574
610.073	0.0182072
610.151	0.0182292
610.229	0.0182320
610.308	0.0181547
610.386	0.0183439
610.464	0.0183131
610.542	0.0182494
610.620	0.0183163
610.698	0.0183054
610.776	0.0182639
610.854	0.0182758
610.933	0.0182633
611.011	0.0183293
611.089	0.0182257
611.167	0.0182142
611.245	0.0183540
611.323	0.0183046
611.401	0.0181817
611.479	0.0183195
611.558	0.0183575
611.636	0.0182388
611.714	0.0181139
611.792	0.0182550
611.870	0.0182829
611.948	0.0182809
612.026	0.0182008
612.104	0.0182142
612.183	0.0183298
612.261	0.0183257
612.339	0.0184206
612.417	0.0182861
612.495	0.0181850
612.573	0.0184135
612.651	0.0183658
612.729	0.0184070
612.808	0.0184530
612.886	0.0182511
612.964	0.0182161
613.042	0.0182412
613.120	0.0184447
613.198	0.0183258
613.276	0.0183518
613.354	0.0182893
613.433	0.0183170
613.511	0.0183859
613.589	0.0183762
613.667	0.0183498
613.745	0.0183936
613.823	0.0183553
613.901	0.0183172
613.979	0.0182916
614.058	0.0183347
614.136	0.0183064
614.214	0.0184122
614.292	0.0183158
614.370	0.0183475
614.448	0.0182948
614.526	0.0183326
614.604	0.0181537
614.683	0.0183276
614.761	0.0183072
614.839	0.0182909
614.917	0.0183222
614.995	0.0183344
615.073	0.0183172
615.151	0.0183789
615.229	0.0183297
615.308	0.0182578
615.386	0.0182991
615.464	0.0183652
615.542	0.0184002
615.620	0.0183821
615.698	0.0184069
615.776	0.0184628
615.854	0.0183823
615.933	0.0184177
616.011	0.0183939
616.089	0.0182776
616.167	0.0183529
616.245	0.0184280
616.323	0.0184826
616.401	0.0183246
616.479	0.0183062
616.558	0.0183920
616.636	0.0183540
616.714	0.0182571
616.792	0.0184198
616.870	0.0184053
616.948	0.0183765
617.026	0.0183517
617.104	0.0184890
617.183	0.0183157
617.261	0.0183868
617.339	0.0184104
617.417	0.0182307
617.495	0.0183675
617.573	0.0182724
617.651	0.0182944
617.729	0.0183441
617.808	0.0183121
617.886	0.0183913
617.964	0.0183641
618.042	0.0183388
618.120	0.0183873
618.198	0.0184159
618.276	0.0184450
618.354	0.0182834
618.433	0.0183247
618.511	0.0182700
618.589	0.0183050
618.667	0.0183490
618.745	0.0183215
618.823	0.0183659
618.901	0.0182858
618.979	0.0182583
619.058	0.0183540
619.136	0.0184577
619.214	0.0184171
619.292	0.0183377
619.370	0.0182629
619.448	0.0184695
619.526	0.0182938
619.604	0.0183794
619.683	0.0182533
619.761	0.0184222
619.839	0.0183317
619.917	0.0184534
619.995	0.0183532
620.073	0.0183048
620.151	0.0182970
620.229	0.0183128
620.308	0.0182944
620.386	0.0182322
620.464	0.0183687
620.542	0.0182887
620.620	0.0182822
620.698	0.0183909
620.776	0.0183421
620.854	0.0183677
620.933	0.0182701
621.011	0.0183756
621.089	0.0183207
621.167	0.0182402
621.245	0.0182609
621.323	0.0183102
621.401	0.0183423
621.479	0.0183589
621.558	0.0182621
621.636	0.0183554
621.714	0.0183690
621.792	0.0183865
621.870	0.0183142
621.948	0.0183511
622.026	0.0182489
622.104	0.0181749
622.183	0.0184050
622.261	0.0184616
622.339	0.0183473
622.417	0.0183607
622.495	0.0183968
622.573	0.0184580
622.651	0.0182922
622.729	0.0182854
622.808	0.0183664
622.886	0.0184450
622.964	0.0183799
623.042	0.0183919
623.120	0.0182608
623.198	0.0182919
623.276	0.0183435
623.354	0.0184305
623.433	0.0183070
623.511	0.0183349
623.589	0.0183354
623.667	0.0183329
623.745	0.0183778
623.823	0.0181499
623.901	0.0182455
623.979	0.0182785
624.058	0.0183059
624.136	0.0182002
624.214	0.0181834
624.292	0.0184040
624.370	0.0182545
624.448	0.0182212
624.526	0.0184014
624.604	0.0181068
624.683	0.0184061
624.761	0.0183220
624.839	0.0182297
624.917	0.0183302
624.995	0.0183419
625.073	0.0182446
625.151	0.0182693
625.229	0.0183250
625.308	0.0182028
625.386	0.0183924
625.464	0.0183296
625.542	0.0183483
625.620	0.0182869
625.698	0.0182568
625.776	0.0182287
625.854	0.0183415
625.933	0.0183243
626.011	0.0182934
626.089	0.0183048
626.167	0.0182400
626.245	0.0182130
626.323	0.0182033
626.401	0.0182729
626.479	0.0184585
626.558	0.0182780
626.636	0.0182018
626.714	0.0183044
626.792	0.0183736
626.870	0.0183351
626.948	0.0184107
627.026	0.0182500
627.104	0.0182841
627.183	0.0182332
627.261	0.0182583
627.339	0.0183200
627.417	0.0182646
627.495	0.0183664
627.573	0.0182491
627.651	0.0181538
627.729	0.0183398
627.808	0.0183118
627.886	0.0182792
627.964	0.0182484
628.042	0.0182248
628.120	0.0183061
628.198	0.0182507
628.276	0.0182777
628.354	0.0182487
628.433	0.0184117
628.511	0.0183598
628.589	0.0182334
628.667	0.0182523
628.745	0.0182844
628.823	0.0183012
628.901	0.0182263
628.979	0.0182786
629.058	0.0182982
629.136	0.0182864
629.214	0.0182732
629.292	0.0181977
629.370	0.0183143
629.448	0.0181615
629.526	0.0182137
629.604	0.0182232
629.683	0.0182530
629.761	0.0182336
629.839	0.0182378
629.917	0.0183078
629.995	0.0182462
630.073	0.0182699
630.151	0.0181441
630.229	0.0183172
630.308	0.0182732
630.386	0.0182671
630.464	0.0182613
630.542	0.0182938
630.620	0.0182504
630.698	0.0183057
630.776	0.0182673
630.854	0.0183576
630.933	0.0182275
631.011	0.0182005
631.089	0.0182014
631.167	0.0183080
631.245	0.0183143
631.323	0.0182634
631.401	0.0181885
631.479	0.0182564
631.558	0.0182095
631.636	0.0182627
631.714	0.0182429
631.792	0.0182259
631.870	0.0182780
631.948	0.0183080
632.026	0.0182097
632.104	0.0183098
632.183	0.0181900
632.261	0.0183659
632.339	0.0182413
632.417	0.0182184
632.495	0.0183275
632.573	0.0183212
632.651	0.0182220
632.729	0.0183301
632.808	0.0182848
632.886	0.0182549
632.964	0.0182361
633.042	0.0182990
633.120	0.0182901
633.198	0.0182977
633.276	0.0182346
633.354	0.0181835
633.433	0.0182106
633.511	0.0181296
633.589	0.0183089
633.667	0.0182618
633.745	0.0183032
633.823	0.0182201
633.901	0.0181820
633.979	0.0182137
634.058	0.0182821
634.136	0.0182623
634.214	0.0182388
634.292	0.0181700
634.370	0.0182389
634.448	0.0182689
634.526	0.0183284
634.604	0.0181882
634.683	0.0182031
634.761	0.0182460
634.839	0.0182956
634.917	0.0183124
634.995	0.0181754
635.073	0.0182936
635.151	0.0183555
635.229	0.0181391
635.308	0.0182407
635.386	0.0183061
635.464	0.0183540
635.542	0.0182355
635.620	0.0183263
635.698	0.0182339
635.776	0.0181773
635.854	0.0183053
635.933	0.0184290
636.011	0.0180785
636.089	0.0180240
636.167	0.0182244
636.245	0.0183341
636.323	0.0183432
636.401	0.0183057
636.479	0.0183145
636.558	0.0183515
636.636	0.0181630
636.714	0.0182781
636.792	0.0183244
636.870	0.0182139
636.948	0.0183780
637.026	0.0183331
637.104	0.0181494
637.183	0.0181223
637.261	0.0182093
637.339	0.0182706
637.417	0.0183798
637.495	0.0183167
637.573	0.0183645
637.651	0.0184198
637.729	0.0182234
637.808	0.0183577
637.886	0.0183629
637.964	0.0181669
638.042	0.0181665
638.120	0.0183662
638.198	0.0181493
638.276	0.0182290
638.354	0.0183489
638.433	0.0182583
638.511	0.0182495
638.589	0.0182224
638.667	0.0182682
638.745	0.0182832
638.823	0.0182481
638.901	0.0182166
638.979	0.0183288
639.058	0.0184030
639.136	0.0182416
639.214	0.0182304
639.292	0.0182684
639.370	0.0183504
639.448	0.0182514
639.526	0.0182198
639.604	0.0183539
639.683	0.0183021
639.761	0.0182962
639.839	0.0183008
639.917	0.0183266
639.995	0.0183368
640.073	0.0183285
640.151	0.0183024
640.229	0.0183406
640.308	0.0182955
640.386	0.0183410
640.464	0.0182099
640.542	0.0183104
640.620	0.0183425
640.698	0.0182642
640.776	0.0182548
640.854	0.0183058
640.933	0.0182243
641.011	0.0184100
641.089	0.0183181
641.167	0.0183194
641.245	0.0182970
641.323	0.0182909
641.401	0.0182173
641.479	0.0182782
641.558	0.0183045
641.636	0.0183701
641.714	0.0183424
641.792	0.0184064
641.870	0.0182227
641.948	0.0183269
642.026	0.0184131
642.104	0.0184096
642.183	0.0183850
642.261	0.0183701
642.339	0.0183344
642.417	0.0182631
642.495	0.0183288
642.573	0.0182055
642.651	0.0182801
642.729	0.0183627
642.808	0.0183251
642.886	0.0182255
642.964	0.0182575
643.042	0.0183452
643.120	0.0182097
643.198	0.0183094
643.276	0.0184969
643.354	0.0183674
643.433	0.0184662
643.511	0.0182293
643.589	0.0182716
643.667	0.0183909
643.745	0.0182827
643.823	0.0183470
643.901	0.0181512
643.979	0.0183534
644.058	0.0182841
644.136	0.0182024
644.214	0.0183992
644.292	0.0183243
644.370	0.0183360
644.448	0.0183356
644.526	0.0182635
644.604	0.0182721
644.683	0.0182049
644.761	0.0183497
644.839	0.0183546
644.917	0.0181924
644.995	0.0181802
645.073	0.0183501
645.151	0.0183398
645.229	0.0183258
645.308	0.0182748
645.386	0.0183733
645.464	0.0183421
645.542	0.0184328
645.620	0.0183616
645.698	0.0182269
645.776	0.0183544
645.854	0.0185094
645.933	0.0183404
646.011	0.0181812
646.089	0.0182402
646.167	0.0183676
646.245	0.0183610
646.323	0.0182258
646.401	0.0182887
646.479	0.0183684
646.558	0.0183839
646.636	0.0182233
646.714	0.0183304
646.792	0.0182421
646.870	0.0183080
646.948	0.0183162
647.026	0.0182336
647.104	0.0183190
647.183	0.0182916
647.261	0.0183572
647.339	0.0183338
647.417	0.0182951
647.495	0.0182778
647.573	0.0184059
647.651	0.0183110
647.729	0.0181979
647.808	0.0182243
647.886	0.0183826
647.964	0.0184001
648.042	0.0183847
648.120	0.0183346
648.198	0.0181583
648.276	0.0182310
648.354	0.0183989
648.433	0.0184004
648.511	0.0182351
648.589	0.0182708
648.667	0.0183010
648.745	0.0183945
648.823	0.0182403
648.901	0.0182340
648.979	0.0183409
649.058	0.0183606
649.136	0.0183504
649.214	0.0182905
649.292	0.0182661
649.370	0.0183047
649.448	0.0182333
649.526	0.0182499
649.604	0.0183616
649.683	0.0183786
649.761	0.0182869
649.839	0.0181812
649.917	0.0183680
649.995	0.0182921
650.073	0.0182408
650.151	0.0182214
650.229	0.0182118
650.308	0.0183434
650.386	0.0182223
650.464	0.0183793
650.542	0.0182722
650.620	0.0183074
650.698	0.0182584
650.776	0.0182154
650.854	0.0182125
650.933	0.0182406
651.011	0.0183251
651.089	0.0182490
651.167	0.0182788
651.245	0.0183453
651.323	0.0182364
651.401	0.0182567
651.479	0.0182736
651.558	0.0183756
651.636	0.0183289
651.714	0.0182314
651.792	0.0181986
651.870	0.0183705
651.948	0.0182920
652.026	0.0182281
652.104	0.0182823
652.183	0.0182953
652.261	0.0182947
652.339	0.0184557
652.417	0.0183067
652.495	0.0183781
652.573	0.0182683
652.651	0.0183528
652.729	0.0182640
652.808	0.0183294
652.886	0.0183308
652.964	0.0182391
653.042	0.0182269
653.120	0.0183148
653.198	0.0184253
653.276	0.0182074
653.354	0.0182459
653.433	0.0183151
653.511	0.0181758
653.589	0.0183436
653.667	0.0183408
653.745	0.0183698
653.823	0.0182388
653.901	0.0183875
653.979	0.0183351
654.058	0.0183022
654.136	0.0184403
654.214	0.0182870
654.292	0.0182442
654.370	0.0182556
654.448	0.0183204
654.526	0.0183041
654.604	0.0183473
654.683	0.0182982
654.761	0.0183204
654.839	0.0183167
654.917	0.0181216
654.995	0.0182192
655.073	0.0183649
655.151	0.0183257
655.229	0.0181637
655.308	0.0183661
655.386	0.0182803
655.464	0.0183519
655.542	0.0182835
655.620	0.0183569
655.698	0.0183100
655.776	0.0183252
655.854	0.0183302
655.933	0.0184085
656.011	0.0183142
656.089	0.0183361
656.167	0.0183218
656.245	0.0183749
656.323	0.0182389
656.401	0.0182219
656.479	0.0182521
656.558	0.0183109
656.636	0.0183968
656.714	0.0182117
656.792	0.0181817
656.870	0.0182503
656.948	0.0183473
657.026	0.0183152
657.104	0.0182655
657.183	0.0183918
657.261	0.0183177
657.339	0.0183162
657.417	0.0182642
657.495	0.0182777
657.573	0.0183454
657.651	0.0183871
657.729	0.0185208
657.808	0.0184876
657.886	0.0183342
657.964	0.0184340
658.042	0.0183310
658.120	0.0183177
658.198	0.0183327
658.276	0.0183155
658.354	0.0184026
658.433	0.0183380
658.511	0.0183315
658.589	0.0183968
658.667	0.0184320
658.745	0.0184093
658.823	0.0183012
658.901	0.0183350
658.979	0.0183378
659.058	0.0184316
659.136	0.0182855
659.214	0.0184073
659.292	0.0183696
659.370	0.0184068
659.448	0.0183961
659.526	0.0185104
659.604	0.0184516
659.683	0.0183524
659.761	0.0184814
659.839	0.0184730
659.917	0.0183386
659.995	0.0183844
660.073	0.0182613
660.151	0.0183415
660.229	0.0182694
660.308	0.0184144
660.386	0.0183573
660.464	0.0182861
660.542	0.0184698
660.620	0.0184816
660.698	0.0184686
660.776	0.0184183
660.854	0.0181297
660.933	0.0183939
661.011	0.0182239
661.089	0.0183457
661.167	0.0183906
661.245	0.0184112
661.323	0.0183176
661.401	0.0185436
661.479	0.0182999
661.558	0.0183546
661.636	0.0182461
661.714	0.0183817
661.792	0.0184069
661.870	0.0183642
661.948	0.0183379
662.026	0.0182321
662.104	0.0183963
662.183	0.0183443
662.261	0.0183518
662.339	0.0185007
662.417	0.0184759
662.495	0.0182724
662.573	0.0183868
662.651	0.0183846
662.729	0.0183950
662.808	0.0182311
662.886	0.0182967
662.964	0.0183812
663.042	0.0184228
663.120	0.0184362
663.198	0.0183172
663.276	0.0183254
663.354	0.0184209
663.433	0.0183555
663.511	0.0183672
663.589	0.0184021
663.667	0.0184512
663.745	0.0183581
663.823	0.0183447
663.901	0.0184421
663.979	0.0182893
664.058	0.0183526
664.136	0.0182633
664.214	0.0183253
664.292	0.0184418
664.370	0.0183922
664.448	0.0183535
664.526	0.0183103
664.604	0.0183678
664.683	0.0182137
664.761	0.0183781
664.839	0.0183798
664.917	0.0183698
664.995	0.0182735
665.073	0.0183318
665.151	0.0184406
665.229	0.0184333
665.308	0.0181913
665.386	0.0182214
665.464	0.0183079
665.542	0.0182894
665.620	0.0182513
665.698	0.0183092
665.776	0.0182523
665.854	0.0183028
665.933	0.0183484
666.011	0.0184659
666.089	0.0182561
666.167	0.0184123
666.245	0.0182610
666.323	0.0183436
666.401	0.0183944
666.479	0.0182977
666.558	0.0182890
666.636	0.0184198
666.714	0.0183489
666.792	0.0184027
666.870	0.0183388
666.948	0.0183195
667.026	0.0182101
667.104	0.0182310
667.183	0.0182820
667.261	0.0183676
667.339	0.0183040
667.417	0.0183031
667.495	0.0183506
667.573	0.0183537
667.651	0.0182370
667.729	0.0183069
667.808	0.0185374
667.886	0.0185047
667.964	0.0183569
668.042	0.0183759
668.120	0.0184055
668.198	0.0183528
668.276	0.0184601
668.354	0.0182424
668.433	0.0182381
668.511	0.0182520
668.589	0.0182367
668.667	0.0183455
668.745	0.0184352
668.823	0.0183251
668.901	0.0182845
668.979	0.0182959
669.058	0.0183463
669.136	0.0183537
669.214	0.0183582
669.292	0.0181382
669.370	0.0183077
669.448	0.0183813
669.526	0.0181963
669.604	0.0183041
669.683	0.0184161
669.761	0.0183401
669.839	0.0182683
669.917	0.0182243
669.995	0.0182734
670.073	0.0183815
670.151	0.0183501
670.229	0.0183583
670.308	0.0183923
670.386	0.0184175
670.464	0.0184930
670.542	0.0182650
670.620	0.0182555
670.698	0.0182799
670.776	0.0182989
670.854	0.0183706
670.933	0.0182954
671.011	0.0182961
671.089	0.0184130
671.167	0.0183311
671.245	0.0183090
671.323	0.0183030
671.401	0.0183910
671.479	0.0182425
671.558	0.0183082
671.636	0.0184353
671.714	0.0183637
671.792	0.0183183
671.870	0.0182501
671.948	0.0184490
672.026	0.0182846
672.104	0.0182986
672.183	0.0182793
672.261	0.0183471
672.339	0.0181351
672.417	0.0182214
672.495	0.0182079
672.573	0.0182454
672.651	0.0182178
672.729	0.0182743
672.808	0.0183265
672.886	0.0182365
672.964	0.0183330
673.042	0.0182802
673.120	0.0182900
673.198	0.0183918
673.276	0.0182801
673.354	0.0181990
673.433	0.0183672
673.511	0.0183222
673.589	0.0182664
673.667	0.0182542
673.745	0.0182402
673.823	0.0182336
673.901	0.0183558
673.979	0.0182869
674.058	0.0182490
674.136	0.0183552
674.214	0.0183248
674.292	0.0183475
674.370	0.0183053
674.448	0.0181264
674.526	0.0183126
674.604	0.0184821
674.683	0.0183047
674.761	0.0182130
674.839	0.0184222
674.917	0.0182856
674.995	0.0183020
675.073	0.0182453
675.151	0.0184064
675.229	0.0183253
675.308	0.0182258
675.386	0.0182851
675.464	0.0181841
675.542	0.0184299
675.620	0.0183630
675.698	0.0182879
675.776	0.0183528
675.854	0.0182108
675.933	0.0182089
676.011	0.0182996
676.089	0.0183437
676.167	0.0182569
676.245	0.0182702
676.323	0.0183105
676.401	0.0182397
676.479	0.0181567
676.558	0.0182372
676.636	0.0184025
676.714	0.0181894
676.792	0.0183192
676.870	0.0181932
676.948	0.0182394
677.026	0.0184392
677.104	0.0181799
677.183	0.0183111
677.261	0.0183370
677.339	0.0182539
677.417	0.0182175
677.495	0.0182705
677.573	0.0182761
677.651	0.0183589
677.729	0.0183885
677.808	0.0182930
677.886	0.0182281
677.964	0.0182967
678.042	0.0183579
678.120	0.0182424
678.198	0.0184306
678.276	0.0183235
678.354	0.0184106
678.433	0.0182936
678.511	0.0184287
678.589	0.0183141
678.667	0.0183398
678.745	0.0183521
678.823	0.0183810
678.901	0.0184042
678.979	0.0184428
679.058	0.0183513
679.136	0.0184438
679.214	0.0184750
679.292	0.0186309
679.370	0.0184897
679.448	0.0184258
679.526	0.0184911
679.604	0.0184517
679.683	0.0186359
679.761	0.0185545
679.839	0.0184231
679.917	0.0184147
679.995	0.0184986
680.073	0.0184029
680.151	0.0184404
680.229	0.0185696
680.308	0.0185059
680.386	0.0183601
680.464	0.0184644
680.542	0.0182561
680.620	0.0183031
680.698	0.0183422
680.776	0.0183115
680.854	0.0181545
680.933	0.0182866
681.011	0.0180597
681.089	0.0182471
681.167	0.0181534
681.245	0.0179262
681.323	0.0180508
681.401	0.0182116
681.479	0.0181935
681.558	0.0180863
681.636	0.0180466
681.714	0.0182330
681.792	0.0180268
681.870	0.0179993
681.948	0.0183527
682.026	0.0182040
682.104	0.0183271
682.183	0.0182661
682.261	0.0184068
682.339	0.0184671
682.417	0.0184123
682.495	0.0183180
682.573	0.0184129
682.651	0.0183913
682.729	0.0185081
682.808	0.0186566
682.886	0.0185739
682.964	0.0185278
683.042	0.0184853
683.120	0.0185715
683.198	0.0185465
683.276	0.0184799
683.354	0.0184950
683.433	0.0185939
683.511	0.0184618
683.589	0.0186000
683.667	0.0185424
683.745	0.0186343
683.823	0.0185536
683.901	0.0183517
683.979	0.0186128
684.058	0.0184818
684.136	0.0185361
684.214	0.0184306
684.292	0.0184496
684.370	0.0185220
684.448	0.0184731
684.526	0.0184248
684.604	0.0185858
684.683	0.0184484
684.761	0.0182835
684.839	0.0182735
684.917	0.0184267
684.995	0.0183624
685.073	0.0183092
685.151	0.0184064
685.229	0.0180875
685.308	0.0182851
685.386	0.0182375
685.464	0.0181069
685.542	0.0181277
685.620	0.0181250
685.698	0.0181326
685.776	0.0180494
685.854	0.0181032
685.933	0.0180288
686.011	0.0179696
686.089	0.0180690
686.167	0.0179829
686.245	0.0180653
686.323	0.0181552
686.401	0.0181297
686.479	0.0182475
686.558	0.0182215
686.636	0.0181825
686.714	0.0182930
686.792	0.0183504
686.870	0.0182672
686.948	0.0182590
687.026	0.0183742
687.104	0.0183872
687.183	0.0184546
687.261	0.0183562
687.339	0.0184052
687.417	0.0184478
687.495	0.0184184
687.573	0.0182268
687.651	0.0184602
687.729	0.0183322
687.808	0.0183651
687.886	0.0184898
687.964	0.0184276
688.042	0.0183950
688.120	0.0183848
688.198	0.0183617
688.276	0.0183829
688.354	0.0185826
688.433	0.0185105
688.511	0.0184955
688.589	0.0185312
688.667	0.0186382
688.745	0.0185670
688.823	0.0185620
688.901	0.0186155
688.979	0.0184348
689.058	0.0184644
689.136	0.0184520
689.214	0.0184610
689.292	0.0183374
689.370	0.0184020
689.448	0.0183793
689.526	0.0183135
689.604	0.0184073
689.683	0.0184093
689.761	0.0181973
689.839	0.0181744
689.917	0.0181010
689.995	0.0182647
690.073	0.0181738
690.151	0.0181884
690.229	0.0182699
690.308	0.0181190
690.386	0.0181052
690.464	0.0180942
690.542	0.0182172
690.620	0.0181165
690.698	0.0181192
690.776	0.0180994
690.854	0.0181895
690.933	0.0183378
691.011	0.0181913
691.089	0.0181370
691.167	0.0181519
691.245	0.0182859
691.323	0.0183311
691.401	0.0183923
691.479	0.0182081
691.558	0.0182695
691.636	0.0182796
691.714	0.0184211
691.792	0.0183231
691.870	0.0183412
691.948	0.0183469
692.026	0.0182891
692.104	0.0182513
692.183	0.0183509
692.261	0.0184074
692.339	0.0182583
692.417	0.0183829
692.495	0.0183618
692.573	0.0182954
692.651	0.0182137
692.729	0.0183707
692.808	0.0182663
692.886	0.0184341
692.964	0.0184333
693.042	0.0183823
693.120	0.0183521
693.198	0.0184425
693.276	0.0184634
693.354	0.0184287
693.433	0.0182860
693.511	0.0184904
693.589	0.0185387
693.667	0.0183758
693.745	0.0182666
693.823	0.0183208
693.901	0.0184136
693.979	0.0183627
694.058	0.0181502
694.136	0.0182027
694.214	0.0183975
694.292	0.0183233
694.370	0.0182896
694.448	0.0182328
694.526	0.0182800
694.604	0.0183502
694.683	0.0182735
694.761	0.0183157
694.839	0.0182543
694.917	0.0181673
694.995	0.0183380
695.073	0.0183557
695.151	0.0182677
695.229	0.0184292
695.308	0.0183754
695.386	0.0183761
695.464	0.0183466
695.542	0.0185305
695.620	0.0185815
695.698	0.0184613
695.776	0.0185172
695.854	0.0184542
695.933	0.0184641
696.011	0.0186543
696.089	0.0186028
696.167	0.0184883
696.245	0.0184491
696.323	0.0184854
696.401	0.0186122
696.479	0.0185142
696.558	0.0184813
696.636	0.0184111
696.714	0.0183435
696.792	0.0183994
696.870	0.0182583
696.948	0.0184411
697.026	0.0182624
697.104	0.0181277
697.183	0.0182858
697.261	0.0180554
697.339	0.0181117
697.417	0.0181589
697.495	0.0181734
697.573	0.0180650
697.651	0.0180329
697.729	0.0181059
697.808	0.0179900
697.886	0.0180639
697.964	0.0181866
698.042	0.0182021
698.120	0.0182290
698.198	0.0182209
698.276	0.0181335
698.354	0.0183067
698.433	0.0182163
698.511	0.0182291
698.589	0.0184204
698.667	0.0184235
698.745	0.0183791
698.823	0.0183674
698.901	0.0184756
698.979	0.0185652
699.058	0.0184601
699.136	0.0184571
699.214	0.0183639
699.292	0.0182526
699.370	0.0184254
699.448	0.0183420
699.526	0.0182815
699.604	0.0181917
699.683	0.0181807
699.761	0.0182898
699.839	0.0182014
699.917	0.0183862
699.995	0.0184845
700.073	0.0184215
700.151	0.0182004
700.229	0.0182618
700.308	0.0182949
700.386	0.0183514
700.464	0.0184538
700.542	0.0183791
700.620	0.0184075
700.698	0.0183689
700.776	0.0183778
700.854	0.0183630
700.933	0.0183456
701.011	0.0183659
701.089	0.0182886
701.167	0.0182446
701.245	0.0182825
701.323	0.0183420
701.401	0.0182628
701.479	0.0182533
701.558	0.0183537
701.636	0.0183913
701.714	0.0182894
701.792	0.0184298
701.870	0.0185006
701.948	0.0185837
702.026	0.0185342
702.104	0.0185677
702.183	0.0186835
702.261	0.0186043
702.339	0.0185328
702.417	0.0185667
702.495	0.0187648
702.573	0.0187479
702.651	0.0187524
702.729	0.0186087
702.808	0.0185601
702.886	0.0185249
702.964	0.0184637
703.042	0.0184171
703.120	0.0183574
703.198	0.0181918
703.276	0.0180859
703.354	0.0178697
703.433	0.0179809
703.511	0.0179668
703.589	0.0177213
703.667	0.0177953
703.745	0.0178051
703.823	0.0178618
703.901	0.0177652
703.979	0.0181288
704.058	0.0180413
704.136	0.0181499
704.214	0.0181275
704.292	0.0183094
704.370	0.0186769
704.448	0.0186073
704.526	0.0186268
704.604	0.0187744
704.683	0.0188393
704.761	0.0189565
704.839	0.0188418
704.917	0.0187283
704.995	0.0187527
705.073	0.0189175
705.151	0.0186854
705.229	0.0185265
705.308	0.0185429
705.386	0.0184627
705.464	0.0182957
705.542	0.0183131
705.620	0.0180640
705.698	0.0179056
705.776	0.0178258
705.854	0.0176996
705.933	0.0178714
706.011	0.0176904
706.089	0.0175780
706.167	0.0175475
706.245	0.0175526
706.323	0.0174171
706.401	0.0176665
706.479	0.0177276
706.558	0.0177704
706.636	0.0177520
706.714	0.0179742
706.792	0.0181152
706.870	0.0181822
706.948	0.0182446
707.026	0.0182828
707.104	0.0184195
707.183	0.0184782
707.261	0.0186473
707.339	0.0188493
707.417	0.0187675
707.495	0.0187512
707.573	0.0188540
707.651	0.0190106
707.729	0.0188798
707.808	0.0189089
707.886	0.0190308
707.964	0.0187539
708.042	0.0189225
708.120	0.0187924
708.198	0.0187469
708.276	0.0187331
708.354	0.0185514
708.433	0.0185958
708.511	0.0186015
708.589	0.0185292
708.667	0.0183751
708.745	0.0184393
708.823	0.0183208
708.901	0.0182279
708.979	0.0182101
709.058	0.0181259
709.136	0.0181299
709.214	0.0179853
709.292	0.0179308
709.370	0.0178455
709.448	0.0178510
709.526	0.0177476
709.604	0.0177198
709.683	0.0177967
709.761	0.0177982
709.839	0.0177563
709.917	0.0179433
709.995	0.0180258
710.073	0.0178948
710.151	0.0181155
710.229	0.0181127
710.308	0.0182045
710.386	0.0184335
710.464	0.0184858
710.542	0.0186376
710.620	0.0186027
710.698	0.0186122
710.776	0.0186089
710.854	0.0188677
710.933	0.0188183
711.011	0.0186983
711.089	0.0187225
711.167	0.0186781
711.245	0.0187708
711.323	0.0185068
711.401	0.0184756
711.479	0.0183797
711.558	0.0183024
711.636	0.0182311
711.714	0.0182468
711.792	0.0183039
711.870	0.0180935
711.948	0.0181101
712.026	0.0180054
712.104	0.0179863
712.183	0.0180106
712.261	0.0180155
712.339	0.0178876
712.417	0.0179097
712.495	0.0178191
712.573	0.0178283
712.651	0.0176231
712.729	0.0177688
712.808	0.0177125
712.886	0.0175761
712.964	0.0175658
713.042	0.0176476
713.120	0.0176494
713.198	0.0176907
713.276	0.0176524
713.354	0.0177106
713.433	0.0179006
713.511	0.0179173
713.589	0.0181226
713.667	0.0184332
713.745	0.0183412
713.823	0.0186018
713.901	0.0187353
713.979	0.0187364
714.058	0.0187244
714.136	0.0187842
714.214	0.0190565
714.292	0.0190221
714.370	0.0190680
714.448	0.0189725
714.526	0.0190032
714.604	0.0191590
714.683	0.0190258
714.761	0.0188979
714.839	0.0187623
714.917	0.0188465
714.995	0.0187003
715.073	0.0185999
715.151	0.0184785
715.229	0.0186462
715.308	0.0185766
715.386	0.0185505
715.464	0.0186818
715.542	0.0187195
715.620	0.0187333
715.698	0.0188389
715.776	0.0187294
715.854	0.0186818
715.933	0.0187354
716.011	0.0185661
716.089	0.0186745
716.167	0.0186864
716.245	0.0186997
716.323	0.0183902
716.401	0.0183188
716.479	0.0183028
716.558	0.0181023
716.636	0.0181080
716.714	0.0180740
716.792	0.0179211
716.870	0.0177850
716.948	0.0177988
717.026	0.0176250
717.104	0.0174337
717.183	0.0173345
717.261	0.0174129
717.339	0.0172082
717.417	0.0172668
717.495	0.0172403
717.573	0.0171750
717.651	0.0173177
717.729	0.0175249
717.808	0.0175080
717.886	0.0176731
717.964	0.0178379
718.042	0.0180457
718.120	0.0181455
718.198	0.0182890
718.276	0.0184016
718.354	0.0185070
718.433	0.0186828
718.511	0.0188738
718.589	0.0188000
718.667	0.0188754
718.745	0.0188605
718.823	0.0189401
718.901	0.0188580
718.979	0.0190799
719.058	0.0190348
719.136	0.0189859
719.214	0.0190526
719.292	0.0189850
719.370	0.0189680
719.448	0.0188909
719.526	0.0187813
719.604	0.0187473
719.683	0.0186536
719.761	0.0185918
719.839	0.0185114
719.917	0.0183204
719.995	0.0182747
720.073	0.0180917
720.151	0.0180553
720.229	0.0179726
720.308	0.0179965
720.386	0.0180885
720.464	0.0180256
720.542	0.0180613
720.620	0.0181045
720.698	0.0181963
720.776	0.0182697
720.854	0.0183000
720.933	0.0183645
721.011	0.0182743
721.089	0.0185855
721.167	0.0185149
721.245	0.0185693
721.323	0.0184975
721.401	0.0185766
721.479	0.0184352
721.558	0.0184309
721.636	0.0183607
721.714	0.0183606
721.792	0.0185190
721.870	0.0183893
721.948	0.0183141
722.026	0.0182265
722.104	0.0181983
722.183	0.0181484
722.261	0.0181033
722.339	0.0181583
722.417	0.0181341
722.495	0.0182070
722.573	0.0182988
722.651	0.0181921
722.729	0.0181848
722.808	0.0184008
722.886	0.0182907
722.964	0.0183047
723.042	0.0183810
723.120	0.0184899
723.198	0.0185590
723.276	0.0184753
723.354	0.0186213
723.433	0.0187002
723.511	0.0186040
723.589	0.0187211
723.667	0.0186630
723.745	0.0187014
723.823	0.0188071
723.901	0.0186612
723.979	0.0186441
724.058	0.0186960
724.136	0.0185601
724.214	0.0186152
724.292	0.0186182
724.370	0.0185950
724.448	0.0185893
724.526	0.0183582
724.604	0.0183549
724.683	0.0183802
724.761	0.0183264
724.839	0.0182778
724.917	0.0181213
724.995	0.0181268
725.073	0.0180104
725.151	0.0178728
725.229	0.0178476
725.308	0.0178596
725.386	0.0175602
725.464	0.0176553
725.542	0.0176295
725.620	0.0175414
725.698	0.0176315
725.776	0.0177171
725.854	0.0176222
725.933	0.0177493
726.011	0.0179111
726.089	0.0180100
726.167	0.0179429
726.245	0.0180144
726.323	0.0181197
726.401	0.0182236
726.479	0.0182970
726.558	0.0183839
726.636	0.0183858
726.714	0.0185691
726.792	0.0185830
726.870	0.0185387
726.948	0.0185939
727.026	0.0185622
727.104	0.0186417
727.183	0.0186124
727.261	0.0185518
727.339	0.0186297
727.417	0.0185693
727.495	0.0185275
727.573	0.0185561
727.651	0.0184486
727.729	0.0184751
727.808	0.0185435
727.886	0.0184359
727.964	0.0184448
728.042	0.0185808
728.120	0.0184828
728.198	0.0185071
728.276	0.0183678
728.354	0.0185381
728.433	0.0184738
728.511	0.0184920
728.589	0.0184254
728.667	0.0185007
728.745	0.0184608
728.823	0.0184509
728.901	0.0185140
728.979	0.0184459
729.058	0.0185128
729.136	0.0185431
729.214	0.0186961
729.292	0.0186619
729.370	0.0184969
729.448	0.0185703
729.526	0.0185767
729.604	0.0185474
729.683	0.0184754
729.761	0.0185064
729.839	0.0186189
729.917	0.0184613
729.995	0.0182349
730.073	0.0182882
730.151	0.0182124
730.229	0.0183356
730.308	0.0180770
730.386	0.0180962
730.464	0.0179461
730.542	0.0178255
730.620	0.0178013
730.698	0.0177361
730.776	0.0176008
730.854	0.0174852
730.933	0.0175249
731.011	0.0175369
731.089	0.0173842
731.167	0.0175162
731.245	0.0175613
731.323	0.0173812
731.401	0.0173727
731.479	0.0175243
731.558	0.0175526
731.636	0.0176208
731.714	0.0177748
731.792	0.0176997
731.870	0.0178178
731.948	0.0180840
732.026	0.0181630
732.104	0.0181398
732.183	0.0182104
732.261	0.0182543
732.339	0.0183031
732.417	0.0184325
732.495	0.0185220
732.573	0.0185161
732.651	0.0187749
732.729	0.0187190
732.808	0.0188896
732.886	0.0190310
732.964	0.0189495
733.042	0.0191421
733.120	0.0192272
733.198	0.0192777
733.276	0.0193320
733.354	0.0194654
733.433	0.0193486
733.511	0.0192863
733.589	0.0193053
733.667	0.0192620
733.745	0.0191453
733.823	0.0190021
733.901	0.0187794
733.979	0.0187083
734.058	0.0185877
734.136	0.0184114
734.214	0.0183499
734.292	0.0181135
734.370	0.0180254
734.448	0.0178339
734.526	0.0178303
734.604	0.0178172
734.683	0.0177065
734.761	0.0174647
734.839	0.0175494
734.917	0.0174683
734.995	0.0174547
735.073	0.0173528
735.151	0.0174428
735.229	0.0176238
735.308	0.0175819
735.386	0.0176016
735.464	0.0176954
735.542	0.0177331
735.620	0.0177489
735.698	0.0178306
735.776	0.0178422
735.854	0.0179247
735.933	0.0180562
736.011	0.0182403
736.089	0.0182631
736.167	0.0183999
736.245	0.0184736
736.323	0.0185509
736.401	0.0186701
736.479	0.0185726
736.558	0.0187417
736.636	0.0187046
736.714	0.0187160
736.792	0.0189003
736.870	0.0188667
736.948	0.0188361
737.026	0.0189058
737.104	0.0188550
737.183	0.0187979
737.261	0.0187144
737.339	0.0187183
737.417	0.0186810
737.495	0.0186134
737.573	0.0184525
737.651	0.0185502
737.729	0.0184879
737.808	0.0183363
737.886	0.0184589
737.964	0.0184316
738.042	0.0183779
738.120	0.0182685
738.198	0.0183511
738.276	0.0182073
738.354	0.0182642
738.433	0.0181503
738.511	0.0181056
738.589	0.0180267
738.667	0.0182007
738.745	0.0182106
738.823	0.0181588
738.901	0.0182870
738.979	0.0182527
739.058	0.0182626
739.136	0.0180730
739.214	0.0181851
739.292	0.0183741
739.370	0.0181998
739.448	0.0180707
739.526	0.0181134
739.604	0.0181174
739.683	0.0181576
739.761	0.0180611
739.839	0.0179854
739.917	0.0179359
739.995	0.0180365
740.073	0.0181026
740.151	0.0182464
740.229	0.0181600
740.308	0.0183572
740.386	0.0179766
740.464	0.0182030
740.542	0.0182564
740.620	0.0182862
740.698	0.0181411
740.776	0.0181358
740.854	0.0181721
740.933	0.0181707
741.011	0.0181034
741.089	0.0180991
741.167	0.0179939
741.245	0.0180382
741.323	0.0180967
741.401	0.0182286
741.479	0.0182146
741.558	0.0180959
741.636	0.0182506
741.714	0.0182582
741.792	0.0184093
741.870	0.0183678
741.948	0.0184074
742.026	0.0184557
742.104	0.0186358
742.183	0.0188430
742.261	0.0188411
742.339	0.0187875
742.417	0.0187157
742.495	0.0188494
742.573	0.0188436
742.651	0.0189216
742.729	0.0188688
742.808	0.0188213
742.886	0.0188702
742.964	0.0188961
743.042	0.0188835
743.120	0.0188345
743.198	0.0187942
743.276	0.0188342
743.354	0.0186733
743.433	0.0187511
743.511	0.0187084
743.589	0.0186806
743.667	0.0185432
743.745	0.0186372
743.823	0.0186843
743.901	0.0184481
743.979	0.0184377
744.058	0.0185521
744.136	0.0181647
744.214	0.0182543
744.292	0.0182698
744.370	0.0181857
744.448	0.0180186
744.526	0.0180659
744.604	0.0180833
744.683	0.0181206
744.761	0.0179863
744.839	0.0179053
744.917	0.0178807
744.995	0.0178883
745.073	0.0177528
745.151	0.0178923
745.229	0.0178710
745.308	0.0179735
745.386	0.0178491
745.464	0.0178293
745.542	0.0177012
745.620	0.0177266
745.698	0.0179275
745.776	0.0177094
745.854	0.0177988
745.933	0.0178915
746.011	0.0178394
746.089	0.0179131
746.167	0.0179390
746.245	0.0178681
746.323	0.0179278
746.401	0.0180064
746.479	0.0180893
746.558	0.0181728
746.636	0.0182761
746.714	0.0184096
746.792	0.0183147
746.870	0.0184525
746.948	0.0184024
747.026	0.0184180
747.104	0.0184919
747.183	0.0187440
747.261	0.0187975
747.339	0.0187671
747.417	0.0187505
747.495	0.0189205
747.573	0.0187861
747.651	0.0188434
747.729	0.0188141
747.808	0.0188911
747.886	0.0188204
747.964	0.0188972
748.042	0.0189322
748.120	0.0188876
748.198	0.0189565
748.276	0.0187945
748.354	0.0189032
748.433	0.0187320
748.511	0.0188170
748.589	0.0187386
748.667	0.0185061
748.745	0.0185278
748.823	0.0185851
748.901	0.0184495
748.979	0.0182832
749.058	0.0181962
749.136	0.0182178
749.214	0.0182481
749.292	0.0182393
749.370	0.0180373
749.448	0.0180947
749.526	0.0181799
749.604	0.0181962
749.683	0.0180151
749.761	0.0181575
749.839	0.0181470
749.917	0.0182079
749.995	0.0182641
750.073	0.0182466
750.151	0.0181422
750.229	0.0181046
750.308	0.0182200
750.386	0.0182951
750.464	0.0181829
750.542	0.0181120
750.620	0.0180631
750.698	0.0181152
750.776	0.0180228
750.854	0.0179385
750.933	0.0179568
751.011	0.0178874
751.089	0.0178275
751.167	0.0178644
751.245	0.0178167
751.323	0.0178715
751.401	0.0178963
751.479	0.0179439
751.558	0.0178060
751.636	0.0178201
751.714	0.0180547
751.792	0.0181544
751.870	0.0180788
751.948	0.0182122
752.026	0.0181821
752.104	0.0182220
752.183	0.0184031
752.261	0.0183635
752.339	0.0184820
752.417	0.0184754
752.495	0.0183659
752.573	0.0185056
752.651	0.0186495
752.729	0.0185703
752.808	0.0184890
752.886	0.0183661
752.964	0.0184995
753.042	0.0185169
753.120	0.0184216
753.198	0.0184774
753.276	0.0184581
753.354	0.0184936
753.433	0.0184555
753.511	0.0185133
753.589	0.0186002
753.667	0.0184451
753.745	0.0184813
753.823	0.0185918
753.901	0.0184448
753.979	0.0184877
754.058	0.0186698
754.136	0.0186072
754.214	0.0184397
754.292	0.0185004
754.370	0.0184952
754.448	0.0184534
754.526	0.0184490
754.604	0.0185564
754.683	0.0185764
754.761	0.0183696
754.839	0.0182603
754.917	0.0183252
754.995	0.0181915
755.073	0.0182128
755.151	0.0181521
755.229	0.0180949
755.308	0.0181358
755.386	0.0180646
755.464	0.0181735
755.542	0.0180741
755.620	0.0181105
755.698	0.0180080
755.776	0.0180562
755.854	0.0180671
755.933	0.0180515
756.011	0.0181371
756.089	0.0180742
756.167	0.0181101
756.245	0.0181365
756.323	0.0181956
756.401	0.0181761
756.479	0.0181226
756.558	0.0182176
756.636	0.0181030
756.714	0.0183270
756.792	0.0182062
756.870	0.0182161
756.948	0.0182678
757.026	0.0181108
757.104	0.0183159
757.183	0.0181423
757.261	0.0181323
757.339	0.0183591
757.417	0.0183620
757.495	0.0182903
757.573	0.0182514
757.651	0.0184554
757.729	0.0183989
757.808	0.0183208
757.886	0.0185874
757.964	0.0184368
758.042	0.0184819
758.120	0.0184079
758.198	0.0184860
758.276	0.0183148
758.354	0.0183279
758.433	0.0184254
758.511	0.0184286
758.589	0.0184853
758.667	0.0183841
758.745	0.0183688
758.823	0.0184316
758.901	0.0183174
758.979	0.0183364
759.058	0.0183395
759.136	0.0184550
759.214	0.0184642
759.292	0.0184863
759.370	0.0185536
759.448	0.0184435
759.526	0.0183884
759.604	0.0184279
759.683	0.0184004
759.761	0.0183370
759.839	0.0182655
759.917	0.0183119
759.995	0.0183299
760.073	0.0181693
760.151	0.0182307
760.229	0.0182422
760.308	0.0182371
760.386	0.0183083
760.464	0.0182338
760.542	0.0181222
760.620	0.0180061
760.698	0.0179996
760.776	0.0180851
760.854	0.0181250
760.933	0.0180605
761.011	0.0180894
761.089	0.0181560
761.167	0.0179965
761.245	0.0180541
761.323	0.0181002
761.401	0.0180367
761.479	0.0180270
761.558	0.0180496
761.636	0.0182172
761.714	0.0181467
761.792	0.0181378
761.870	0.0182100
761.948	0.0180721
762.026	0.0181112
762.104	0.0181698
762.183	0.0182819
762.261	0.0182629
762.339	0.0182662
762.417	0.0184303
762.495	0.0184170
762.573	0.0184667
762.651	0.0184348
762.729	0.0184810
762.808	0.0185969
762.886	0.0185702
762.964	0.0184866
763.042	0.0185622
763.120	0.0185852
763.198	0.0186441
763.276	0.0186110
763.354	0.0187067
763.433	0.0187286
763.511	0.0187010
763.589	0.0185828
763.667	0.0186271
763.745	0.0185426
763.823	0.0187201
763.901	0.0186923
763.979	0.0185334
764.058	0.0186046
764.136	0.0186354
764.214	0.0185693
764.292	0.0186370
764.370	0.0184866
764.448	0.0184735
764.526	0.0183584
764.604	0.0182400
764.683	0.0183480
764.761	0.0183749
764.839	0.0181367
764.917	0.0181470
764.995	0.0181213
765.073	0.0181030
765.151	0.0181541
765.229	0.0179750
765.308	0.0180345
765.386	0.0180032
765.464	0.0182452
765.542	0.0181655
765.620	0.0179367
765.698	0.0180868
765.776	0.0180571
765.854	0.0180790
765.933	0.0180873
766.011	0.0181698
766.089	0.0182558
766.167	0.0179932
766.245	0.0180181
766.323	0.0180678
766.401	0.0182247
766.479	0.0182038
766.558	0.0181471
766.636	0.0180437
766.714	0.0180866
766.792	0.0181670
766.870	0.0179814
766.948	0.0181277
767.026	0.0182817
767.104	0.0182455
767.183	0.0182551
767.261	0.0181963
767.339	0.0182005
767.417	0.0183930
767.495	0.0183687
767.573	0.0183022
767.651	0.0183250
767.729	0.0184328
767.808	0.0183659
767.886	0.0183036
767.964	0.0184536
768.042	0.0184105
768.120	0.0185028
768.198	0.0182703
768.276	0.0184241
768.354	0.0185269
768.433	0.0186478
768.511	0.0186461
768.589	0.0185475
768.667	0.0186096
768.745	0.0186957
768.823	0.0185371
768.901	0.0185999
768.979	0.0185083
769.058	0.0184927
769.136	0.0184132
769.214	0.0185080
769.292	0.0184715
769.370	0.0184347
769.448	0.0183244
769.526	0.0183804
769.604	0.0184612
769.683	0.0183795
769.761	0.0183294
769.839	0.0183421
769.917	0.0183959
769.995	0.0184568
770.073	0.0184917
770.151	0.0186065
770.229	0.0185654
770.308	0.0184190
770.386	0.0183318
770.464	0.0184087
770.542	0.0184122
770.620	0.0184273
770.698	0.0184168
770.776	0.0185152
770.854	0.0183093
770.933	0.0182127
771.011	0.0183330
771.089	0.0182496
771.167	0.0180525
771.245	0.0181196
771.323	0.0182408
771.401	0.0181114
771.479	0.0181639
771.558	0.0181291
771.636	0.0181056
771.714	0.0182708
771.792	0.0181387
771.870	0.0180750
771.948	0.0181371
772.026	0.0181244
772.104	0.0182243
772.183	0.0182250
772.261	0.0181374
772.339	0.0181765
772.417	0.0182158
772.495	0.0181432
772.573	0.0181040
772.651	0.0181561
772.729	0.0181818
772.808	0.0181567
772.886	0.0182581
772.964	0.0179933
773.042	0.0180552
773.120	0.0181807
773.198	0.0181493
773.276	0.0182594
773.354	0.0180967
773.433	0.0181158
773.511	0.0182129
773.589	0.0181073
773.667	0.0182332
773.745	0.0183415
773.823	0.0183719
773.901	0.0183502
773.979	0.0183347
774.058	0.0184477
774.136	0.0184946
774.214	0.0183617
774.292	0.0184737
774.370	0.0184915
774.448	0.0183595
774.526	0.0183460
774.604	0.0183753
774.683	0.0184466
774.761	0.0184144
774.839	0.0183652
774.917	0.0184017
774.995	0.0184203
775.073	0.0183566
775.151	0.0184460
775.229	0.0183521
775.308	0.0185354
775.386	0.0184323
775.464	0.0183169
775.542	0.0185490
775.620	0.0184095
775.698	0.0184155
775.776	0.0185184
775.854	0.0184457
775.933	0.0185079
776.011	0.0184640
776.089	0.0184773
776.167	0.0183777
776.245	0.0182172
776.323	0.0183023
776.401	0.0183542
776.479	0.0183456
776.558	0.0182801
776.636	0.0183672
776.714	0.0181211
776.792	0.0182952
776.870	0.0183449
776.948	0.0181275
777.026	0.0180504
777.104	0.0182442
777.183	0.0181813
777.261	0.0180214
777.339	0.0181374
777.417	0.0180182
777.495	0.0180328
777.573	0.0180891
777.651	0.0179486
777.729	0.0179347
777.808	0.0179926
777.886	0.0181173
777.964	0.0180702
778.042	0.0180241
778.120	0.0180614
778.198	0.0181902
778.276	0.0182121
778.354	0.0182143
778.433	0.0181196
778.511	0.0183264
778.589	0.0182246
778.667	0.0181709
778.745	0.0182071
778.823	0.0181952
778.901	0.0183195
778.979	0.0182726
779.058	0.0182942
779.136	0.0181286
779.214	0.0181709
779.292	0.0182907
779.370	0.0182967
779.448	0.0183118
779.526	0.0181326
779.604	0.0181908
779.683	0.0182137
779.761	0.0183020
779.839	0.0182490
779.917	0.0182158
779.995	0.0181419
780.073	0.0182243
780.151	0.0181707
780.229	0.0182585
780.308	0.0183437
780.386	0.0184509
780.464	0.0183653
780.542	0.0184801
780.620	0.0184035
780.698	0.0183590
780.776	0.0183587
780.854	0.0184444
780.933	0.0184536
781.011	0.0185957
781.089	0.0183406
781.167	0.0183776
781.245	0.0184475
781.323	0.0184956
781.401	0.0183889
781.479	0.0184658
781.558	0.0184617
781.636	0.0184493
781.714	0.0184713
781.792	0.0184596
781.870	0.0183347
781.948	0.0183772
782.026	0.0181915
782.104	0.0182648
782.183	0.0181723
782.261	0.0182183
782.339	0.0182082
782.417	0.0181385
782.495	0.0183138
782.573	0.0181540
782.651	0.0180927
782.729	0.0182540
782.808	0.0183371
782.886	0.0182896
782.964	0.0181901
783.042	0.0182290
783.120	0.0183214
783.198	0.0182263
783.276	0.0183247
783.354	0.0183001
783.433	0.0182202
783.511	0.0182339
783.589	0.0181470
783.667	0.0181520
783.745	0.0181797
783.823	0.0182550
783.901	0.0182439
783.979	0.0183507
784.058	0.0183067
784.136	0.0181779
784.214	0.0183992
784.292	0.0183687
784.370	0.0184396
784.448	0.0184268
784.526	0.0184766
784.604	0.0182986
784.683	0.0184088
784.761	0.0183463
784.839	0.0183293
784.917	0.0184529
784.995	0.0184189
785.073	0.0183830
785.151	0.0183351
785.229	0.0181860
785.308	0.0182980
785.386	0.0182346
785.464	0.0182914
785.542	0.0181088
785.620	0.0181715
785.698	0.0181570
785.776	0.0183978
785.854	0.0181884
785.933	0.0182193
786.011	0.0183955
786.089	0.0182579
786.167	0.0181725
786.245	0.0184072
786.323	0.0184016
786.401	0.0183044
786.479	0.0185081
786.558	0.0184433
786.636	0.0184598
786.714	0.0185538
786.792	0.0184012
786.870	0.0183662
786.948	0.0183516
787.026	0.0183694
787.104	0.0182965
787.183	0.0184523
787.261	0.0183384
787.339	0.0182764
787.417	0.0182683
787.495	0.0180870
787.573	0.0181789
787.651	0.0182440
787.729	0.0180920
787.808	0.0181292
787.886	0.0180558
787.964	0.0180698
788.042	0.0180104
788.120	0.0181411
788.198	0.0180939
788.276	0.0181461
788.354	0.0181335
788.433	0.0182672
788.511	0.0181509
788.589	0.0183303
788.667	0.0183521
788.745	0.0182847
788.823	0.0183273
788.901	0.0183356
788.979	0.0184224
789.058	0.0183603
789.136	0.0184061
789.214	0.0185276
789.292	0.0184279
789.370	0.0185062
789.448	0.0184135
789.526	0.0184438
789.604	0.0185524
789.683	0.0184782
789.761	0.0184702
789.839	0.0185128
789.917	0.0185979
789.995	0.0184461
790.073	0.0183306
790.151	0.0184013
790.229	0.0182691
790.308	0.0182749
790.386	0.0183316
790.464	0.0184695
790.542	0.0184759
790.620	0.0183706
790.698	0.0181758
790.776	0.0182620
790.854	0.0183665
790.933	0.0184475
791.011	0.0183459
791.089	0.0182253
791.167	0.0184370
791.245	0.0183207
791.323	0.0183624
791.401	0.0184037
791.479	0.0184682
791.558	0.0182639
791.636	0.0183562
791.714	0.0182825
791.792	0.0182825
791.870	0.0182121
791.948	0.0184048
792.026	0.0183583
792.104	0.0182320
792.183	0.0181791
792.261	0.0181356
792.339	0.0182978
792.417	0.0183511
792.495	0.0184553
792.573	0.0183437
792.651	0.0182192
792.729	0.0185059
792.808	0.0183385
792.886	0.0183659
792.964	0.0182755
793.042	0.0184599
793.120	0.0182611
793.198	0.0184396
793.276	0.0182986
793.354	0.0183453
793.433	0.0183044
793.511	0.0181006
793.589	0.0180743
793.667	0.0181534
793.745	0.0183170
793.823	0.0181916
793.901	0.0181509
793.979	0.0181042
794.058	0.0181261
794.136	0.0180527
794.214	0.0181032
794.292	0.0180266
794.370	0.0181633
794.448	0.0181521
794.526	0.0180784
794.604	0.0182349
794.683	0.0182705
794.761	0.0183482
794.839	0.0181962
794.917	0.0182763
794.995	0.0182524
795.073	0.0182992
795.151	0.0182881
795.229	0.0183443
795.308	0.0183293
795.386	0.0182067
795.464	0.0182672
795.542	0.0183606
795.620	0.0182944
795.698	0.0183499
795.776	0.0182217
795.854	0.0182042
795.933	0.0182538
796.011	0.0183000
796.089	0.0182754
796.167	0.0182971
796.245	0.0182071
796.323	0.0182357
796.401	0.0182590
796.479	0.0182565
796.558	0.0183151
796.636	0.0182278
796.714	0.0182721
796.792	0.0182978
796.870	0.0182549
796.948	0.0182236
797.026	0.0183252
797.104	0.0183218
797.183	0.0183087
797.261	0.0184484
797.339	0.0182918
797.417	0.0183684
797.495	0.0183765
797.573	0.0184746
797.651	0.0184551
797.729	0.0183566
797.808	0.0184583
797.886	0.0185176
797.964	0.0183968
798.042	0.0186452
798.120	0.0184901
798.198	0.0185220
798.276	0.0185818
798.354	0.0184830
798.433	0.0185172
798.511	0.0184173
798.589	0.0184081
798.667	0.0184421
798.745	0.0183628
798.823	0.0183527
798.901	0.0182595
798.979	0.0182693
799.058	0.0182771
799.136	0.0182340
799.214	0.0181648
799.292	0.0182069
799.370	0.0180013
799.448	0.0181493
799.526	0.0181563
799.604	0.0180721
799.683	0.0181532
799.761	0.0180228
799.839	0.0179800
799.917	0.0178278
799.995	0.0179552
800.073	0.0179689
800.151	0.0178860
800.229	0.0179387
800.308	0.0178242
800.386	0.0179381
800.464	0.0180504
800.542	0.0178984
800.620	0.0179108
800.698	0.0182072
800.776	0.0180684
800.854	0.0182513
800.933	0.0181364
801.011	0.0181268
801.089	0.0183401
801.167	0.0182829
801.245	0.0183822
801.323	0.0184138
801.401	0.0183041
801.479	0.0183374
801.558	0.0184608
801.636	0.0185837
801.714	0.0187199
801.792	0.0185573
801.870	0.0182746
801.948	0.0184288
802.026	0.0184100
802.104	0.0184863
802.183	0.0185490
802.261	0.0184095
802.339	0.0184505
802.417	0.0183360
802.495	0.0183502
802.573	0.0183275
802.651	0.0183722
802.729	0.0181526
802.808	0.0183678
802.886	0.0183443
802.964	0.0181913
803.042	0.0182719
803.120	0.0182277
803.198	0.0182024
803.276	0.0182330
803.354	0.0182207
803.433	0.0181316
803.511	0.0181492
803.589	0.0183575
803.667	0.0182950
803.745	0.0182148
803.823	0.0183554
803.901	0.0182954
803.979	0.0183015
804.058	0.0183557
804.136	0.0183277
804.214	0.0183980
804.292	0.0185101
804.370	0.0182674
804.448	0.0183680
804.526	0.0185133
804.604	0.0185918
804.683	0.0185873
804.761	0.0186701
804.839	0.0183825
804.917	0.0184907
804.995	0.0183135
805.073	0.0182922
805.151	0.0184569
805.229	0.0185068
805.308	0.0182545
805.386	0.0182402
805.464	0.0182629
805.542	0.0182281
805.620	0.0182197
805.698	0.0183118
805.776	0.0183239
805.854	0.0183765
805.933	0.0181075
806.011	0.0182295
806.089	0.0182136
806.167	0.0182207
806.245	0.0181089
806.323	0.0180989
806.401	0.0181667
806.479	0.0181126
806.558	0.0181524
806.636	0.0181071
806.714	0.0181427
806.792	0.0181366
806.870	0.0182729
806.948	0.0181727
807.026	0.0182774
807.104	0.0182304
807.183	0.0182924
807.261	0.0182623
807.339	0.0182260
807.417	0.0183250
807.495	0.0184901
807.573	0.0182571
807.651	0.0183121
807.729	0.0183979
807.808	0.0181863
807.886	0.0184258
807.964	0.0183549
808.042	0.0183021
808.120	0.0184662
808.198	0.0182707
808.276	0.0182349
808.354	0.0183508
808.433	0.0183400
808.511	0.0182305
808.589	0.0183063
808.667	0.0182881
808.745	0.0183180
808.823	0.0182871
808.901	0.0183088
808.979	0.0183728
809.058	0.0182914
809.136	0.0182673
809.214	0.0184374
809.292	0.0183438
809.370	0.0182339
809.448	0.0183063
809.526	0.0183050
809.604	0.0183387
809.683	0.0182279
809.761	0.0182574
809.839	0.0183988
809.917	0.0182755
809.995	0.0183759
810.073	0.0184190
810.151	0.0184434
810.229	0.0182922
810.308	0.0184201
810.386	0.0183444
810.464	0.0183269
810.542	0.0183682
810.620	0.0184479
810.698	0.0183596
810.776	0.0184780
810.854	0.0185288
810.933	0.0184956
811.011	0.0182793
811.089	0.0183620
811.167	0.0183835
811.245	0.0184965
811.323	0.0184645
811.401	0.0185142
811.479	0.0185574
811.558	0.0184077
811.636	0.0184242
811.714	0.0184322
811.792	0.0183883
811.870	0.0183662
811.948	0.0184132
812.026	0.0184673
812.104	0.0184188
812.183	0.0183986
812.261	0.0184355
812.339	0.0183910
812.417	0.0183382
812.495	0.0183440
812.573	0.0182883
812.651	0.0183337
812.729	0.0183048
812.808	0.0181995
812.886	0.0184320
812.964	0.0182430
813.042	0.0182873
813.120	0.0183702
813.198	0.0183250
813.276	0.0182830
813.354	0.0181783
813.433	0.0180855
813.511	0.0180861
813.589	0.0182716
813.667	0.0181963
813.745	0.0182178
813.823	0.0181624
813.901	0.0181125
813.979	0.0181872
814.058	0.0182540
814.136	0.0181880
814.214	0.0183056
814.292	0.0183597
814.370	0.0183479
814.448	0.0182763
814.526	0.0181744
814.604	0.0183360
814.683	0.0184492
814.761	0.0184515
814.839	0.0183727
814.917	0.0184480
814.995	0.0184844
815.073	0.0184104
815.151	0.0185317
815.229	0.0185034
815.308	0.0184968
815.386	0.0184457
815.464	0.0185433
815.542	0.0183770
815.620	0.0184295
815.698	0.0184694
815.776	0.0184238
815.854	0.0185785
815.933	0.0183440
816.011	0.0185204
816.089	0.0185548
816.167	0.0183450
816.245	0.0184090
816.323	0.0184736
816.401	0.0183899
816.479	0.0183681
816.558	0.0183686
816.636	0.0183009
816.714	0.0185081
816.792	0.0183907
816.870	0.0184220
816.948	0.0182500
817.026	0.0183441
817.104	0.0184713
817.183	0.0184172
817.261	0.0184573
817.339	0.0183025
817.417	0.0183710
817.495	0.0183907
817.573	0.0182579
817.651	0.0183223
817.729	0.0184164
817.808	0.0183383
817.886	0.0182874
817.964	0.0183187
818.042	0.0183881
818.120	0.0183591
818.198	0.0183603
818.276	0.0183550
818.354	0.0183195
818.433	0.0183386
818.511	0.0183292
818.589	0.0183320
818.667	0.0182893
818.745	0.0183498
818.823	0.0183788
818.901	0.0184586
818.979	0.0184389
819.058	0.0184297
819.136	0.0183126
819.214	0.0183896
819.292	0.0183431
819.370	0.0184417
819.448	0.0183339
819.526	0.0183957
819.604	0.0183745
819.683	0.0182297
819.761	0.0183275
819.839	0.0184084
819.917	0.0182951
819.995	0.0182394
820.073	0.0181830
820.151	0.0183157
820.229	0.0182588
820.308	0.0183237
820.386	0.0182034
820.464	0.0182989
820.542	0.0183098
820.620	0.0182732
820.698	0.0183945
820.776	0.0183183
820.854	0.0183068
820.933	0.0182955
821.011	0.0182980
821.089	0.0183072
821.167	0.0183078
821.245	0.0182964
821.323	0.0182521
821.401	0.0182935
821.479	0.0184237
821.558	0.0183071
821.636	0.0182719
821.714	0.0183162
821.792	0.0183920
821.870	0.0184429
821.948	0.0184009
822.026	0.0182887
822.104	0.0184567
822.183	0.0185419
822.261	0.0184742
822.339	0.0184028
822.417	0.0183262
822.495	0.0182819
822.573	0.0183383
822.651	0.0182909
822.729	0.0183647
822.808	0.0183344
822.886	0.0185001
822.964	0.0183267
823.042	0.0183926
823.120	0.0183679
823.198	0.0184178
823.276	0.0184261
823.354	0.0183971
823.433	0.0182565
823.511	0.0182856
823.589	0.0184721
823.667	0.0183923
823.745	0.0183754
823.823	0.0183638
823.901	0.0182628
823.979	0.0182227
824.058	0.0181992
824.136	0.0182722
824.214	0.0182903
824.292	0.0182676
824.370	0.0181467
824.448	0.0182096
824.526	0.0182948
824.604	0.0183646
824.683	0.0182709
824.761	0.0182268
824.839	0.0184534
824.917	0.0183333
824.995	0.0184369
825.073	0.0183724
825.151	0.0183907
825.229	0.0184182
825.308	0.0183713
825.386	0.0184016
825.464	0.0183618
825.542	0.0185180
825.620	0.0184004
825.698	0.0184087
825.776	0.0183020
825.854	0.0184684
825.933	0.0184267
826.011	0.0184250
826.089	0.0183867
826.167	0.0183582
826.245	0.0183870
826.323	0.0184514
826.401	0.0184800
826.479	0.0183322
826.558	0.0182382
826.636	0.0183413
826.714	0.0183065
826.792	0.0182844
826.870	0.0182056
826.948	0.0182440
827.026	0.0181949
827.104	0.0181879
827.183	0.0181086
827.261	0.0180035
827.339	0.0181953
827.417	0.0181031
827.495	0.0180723
827.573	0.0180872
827.651	0.0179090
827.729	0.0180783
827.808	0.0180862
827.886	0.0181277
827.964	0.0179852
828.042	0.0180311
828.120	0.0180953
828.198	0.0182082
828.276	0.0181609
828.354	0.0181714
828.433	0.0182722
828.511	0.0182805
828.589	0.0182850
828.667	0.0182993
828.745	0.0184287
828.823	0.0184621
828.901	0.0184890
828.979	0.0184877
829.058	0.0184116
829.136	0.0184193
829.214	0.0184629
829.292	0.0184959
829.370	0.0184719
829.448	0.0186170
829.526	0.0185747
829.604	0.0184363
829.683	0.0184577
829.761	0.0185377
829.839	0.0184709
829.917	0.0183374
829.995	0.0183121
830.073	0.0182219
830.151	0.0183723
830.229	0.0183396
830.308	0.0182162
830.386	0.0183418
830.464	0.0182233
830.542	0.0181585
830.620	0.0181053
830.698	0.0182521
830.776	0.0181815
830.854	0.0182412
830.933	0.0182761
831.011	0.0181276
831.089	0.0182234
831.167	0.0182719
831.245	0.0181588
831.323	0.0181926
831.401	0.0181765
831.479	0.0182346
831.558	0.0184003
831.636	0.0184638
831.714	0.0182219
831.792	0.0183620
831.870	0.0182670
831.948	0.0182535
832.026	0.0182878
832.104	0.0182662
832.183	0.0182304
832.261	0.0183555
832.339	0.0183075
832.417	0.0181838
832.495	0.0181944
832.573	0.0181636
832.651	0.0181953
832.729	0.0181599
832.808	0.0183099
832.886	0.0183332
832.964	0.0183015
833.042	0.0181902
833.120	0.0181300
833.198	0.0182648
833.276	0.0182767
833.354	0.0183407
833.433	0.0184418
833.511	0.0182919
833.589	0.0182839
833.667	0.0182507
833.745	0.0183137
833.823	0.0184110
833.901	0.0183797
833.979	0.0184621
834.058	0.0182815
834.136	0.0182129
834.214	0.0182814
834.292	0.0182799
834.370	0.0182787
834.448	0.0183132
834.526	0.0181580
834.604	0.0182278
834.683	0.0182922
834.761	0.0181709
834.839	0.0183053
834.917	0.0182858
834.995	0.0183075
835.073	0.0183887
835.151	0.0183789
835.229	0.0181894
835.308	0.0183385
835.386	0.0184219
835.464	0.0184428
835.542	0.0183540
835.620	0.0183444
835.698	0.0183311
835.776	0.0185379
835.854	0.0184335
835.933	0.0185095
836.011	0.0184882
836.089	0.0184303
836.167	0.0183897
836.245	0.0183903
836.323	0.0185075
836.401	0.0182845
836.479	0.0183978
836.558	0.0183704
836.636	0.0183423
836.714	0.0184173
836.792	0.0183207
836.870	0.0183958
836.948	0.0183482
837.026	0.0182170
837.104	0.0183141
837.183	0.0182500
837.261	0.0181804
837.339	0.0182841
837.417	0.0182517
837.495	0.0183065
837.573	0.0182548
837.651	0.0183940
837.729	0.0182860
837.808	0.0182902
837.886	0.0182770
837.964	0.0183350
838.042	0.0183869
838.120	0.0181944
838.198	0.0182145
838.276	0.0183900
838.354	0.0183620
838.433	0.0183873
838.511	0.0184121
838.589	0.0185141
838.667	0.0184876
838.745	0.0184221
838.823	0.0185258
838.901	0.0184948
838.979	0.0183814
839.058	0.0184449
839.136	0.0183606
839.214	0.0184233
839.292	0.0184421
839.370	0.0185166
839.448	0.0185743
839.526	0.0185675
839.604	0.0184937
839.683	0.0186523
839.761	0.0184695
839.839	0.0184342
839.917	0.0185645
839.995	0.0184385
840.073	0.0184166
840.151	0.0184522
840.229	0.0182970
840.308	0.0182748
840.386	0.0184156
840.464	0.0182317
840.542	0.0184761
840.620	0.0183232
840.698	0.0183019
840.776	0.0183009
840.854	0.0181585
840.933	0.0183382
841.011	0.0183620
841.089	0.0181974
841.167	0.0181407
841.245	0.0183015
841.323	0.0182264
841.401	0.0180569
841.479	0.0182043
841.558	0.0182924
841.636	0.0182369
841.714	0.0181598
841.792	0.0182832
841.870	0.0181121
841.948	0.0182408
842.026	0.0183416
842.104	0.0185002
842.183	0.0184478
842.261	0.0185184
842.339	0.0184776
842.417	0.0184127
842.495	0.0184965
842.573	0.0185406
842.651	0.0184114
842.729	0.0184927
842.808	0.0184025
842.886	0.0184718
842.964	0.0186864
843.042	0.0183498
843.120	0.0184554
843.198	0.0183932
843.276	0.0183700
843.354	0.0183943
843.433	0.0185257
843.511	0.0184485
843.589	0.0184192
843.667	0.0185075
843.745	0.0185875
843.823	0.0184535
843.901	0.0184385
843.979	0.0183558
844.058	0.0184465
844.136	0.0185015
844.214	0.0184598
844.292	0.0183507
844.370	0.0183409
844.448	0.0185133
844.526	0.0183318
844.604	0.0184224
844.683	0.0183501
844.761	0.0183583
844.839	0.0183276
844.917	0.0183361
844.995	0.0183427
845.073	0.0183365
845.151	0.0183230
845.229	0.0183759
845.308	0.0182523
845.386	0.0182490
845.464	0.0183131
845.542	0.0184267
845.620	0.0184316
845.698	0.0183756
845.776	0.0184367
845.854	0.0184560
845.933	0.0184615
846.011	0.0184496
846.089	0.0183179
846.167	0.0184517
846.245	0.0185349
846.323	0.0183386
846.401	0.0182952
846.479	0.0183908
846.558	0.0183421
846.636	0.0182544
846.714	0.0182564
846.792	0.0182902
846.870	0.0183013
846.948	0.0182420
847.026	0.0183165
847.104	0.0182897
847.183	0.0181377
847.261	0.0181296
847.339	0.0182620
847.417	0.0181110
847.495	0.0182681
847.573	0.0182638
847.651	0.0183013
847.729	0.0181850
847.808	0.0182726
847.886	0.0181749
847.964	0.0181986
848.042	0.0182620
848.120	0.0182471
848.198	0.0184372
848.276	0.0182576
848.354	0.0184208
848.433	0.0183853
848.511	0.0184595
848.589	0.0182820
848.667	0.0184943
848.745	0.0184091
848.823	0.0184168
848.901	0.0184732
848.979	0.0184223
849.058	0.0184264
849.136	0.0184708
849.214	0.0184326
849.292	0.0185440
849.370	0.0184270
849.448	0.0185779
849.526	0.0184062
849.604	0.0184368
849.683	0.0185069
849.761	0.0183556
849.839	0.0184743
849.917	0.0185384
849.995	0.0183791
850.073	0.0184398
850.151	0.0184357
850.229	0.0183978
850.308	0.0183323
850.386	0.0184449
850.464	0.0183441
850.542	0.0183879
850.620	0.0184693
850.698	0.0184255
850.776	0.0183261
850.854	0.0182763
850.933	0.0183784
851.011	0.0182516
851.089	0.0183067
851.167	0.0182786
851.245	0.0182349
851.323	0.0182082
851.401	0.0182920
851.479	0.0181891
851.558	0.0182529
851.636	0.0181775
851.714	0.0182626
851.792	0.0181892
851.870	0.0181939
851.948	0.0183010
852.026	0.0182269
852.104	0.0182010
852.183	0.0182218
852.261	0.0183267
852.339	0.0182539
852.417	0.0182677
852.495	0.0183150
852.573	0.0182901
852.651	0.0182462
852.729	0.0182621
852.808	0.0183015
852.886	0.0181673
852.964	0.0181619
853.042	0.0183514
853.120	0.0182098
853.198	0.0182172
853.276	0.0182988
853.354	0.0182939
853.433	0.0182265
853.511	0.0181422
853.589	0.0181783
853.667	0.0183892
853.745	0.0182737
853.823	0.0181693
853.901	0.0182240
853.979	0.0182796
854.058	0.0182714
854.136	0.0183069
854.214	0.0182211
854.292	0.0181555
854.370	0.0182722
854.448	0.0183349
854.526	0.0182326
854.604	0.0182246
854.683	0.0182089
854.761	0.0182075
854.839	0.0181499
854.917	0.0183339
854.995	0.0183235
855.073	0.0181218
855.151	0.0180765
855.229	0.0182404
855.308	0.0180978
855.386	0.0182639
855.464	0.0182648
855.542	0.0181764
855.620	0.0181118
855.698	0.0182063
855.776	0.0183238
855.854	0.0182272
855.933	0.0182748
856.011	0.0183257
856.089	0.0182982
856.167	0.0182605
856.245	0.0182751
856.323	0.0183339
856.401	0.0183341
856.479	0.0182148
856.558	0.0182150
856.636	0.0181287
856.714	0.0182805
856.792	0.0180628
856.870	0.0181146
856.948	0.0181530
857.026	0.0182379
857.104	0.0182877
857.183	0.0183089
857.261	0.0182506
857.339	0.0180960
857.417	0.0182179
857.495	0.0182291
857.573	0.0180447
857.651	0.0182152
857.729	0.0180235
857.808	0.0182314
857.886	0.0181441
857.964	0.0181603
858.042	0.0181985
858.120	0.0181086
858.198	0.0180849
858.276	0.0182890
858.354	0.0180860
858.433	0.0181214
858.511	0.0183456
858.589	0.0181619
858.667	0.0180790
858.745	0.0181990
858.823	0.0181549
858.901	0.0182184
858.979	0.0184287
859.058	0.0182923
859.136	0.0183071
859.214	0.0183501
859.292	0.0182080
859.370	0.0182767
859.448	0.0183585
859.526	0.0183434
859.604	0.0183699
859.683	0.0183170
859.761	0.0182836
859.839	0.0182979
859.917	0.0182707
859.995	0.0183754
860.073	0.0182773
860.151	0.0184267
860.229	0.0184026
860.308	0.0182195
860.386	0.0182088
860.464	0.0182623
860.542	0.0183380
860.620	0.0181403
860.698	0.0183136
860.776	0.0182584
860.854	0.0181232
860.933	0.0182378
861.011	0.0182549
861.089	0.0182304
861.167	0.0182635
861.245	0.0183996
861.323	0.0182392
861.401	0.0181960
861.479	0.0183192
861.558	0.0181907
861.636	0.0181789
861.714	0.0181620
861.792	0.0182175
861.870	0.0182384
861.948	0.0181622
862.026	0.0182531
862.104	0.0181689
862.183	0.0183102
862.261	0.0183553
862.339	0.0182932
862.417	0.0181959
862.495	0.0183534
862.573	0.0183518
862.651	0.0184933
862.729	0.0183827
862.808	0.0184503
862.886	0.0181446
862.964	0.0184038
863.042	0.0185190
863.120	0.0183181
863.198	0.0184232
863.276	0.0183430
863.354	0.0184844
863.433	0.0185127
863.511	0.0183478
863.589	0.0183879
863.667	0.0181456
863.745	0.0183735
863.823	0.0184089
863.901	0.0184407
863.979	0.0183286
864.058	0.0183443
864.136	0.0181526
864.214	0.0182919
864.292	0.0183993
864.370	0.0182583
864.448	0.0184074
864.526	0.0183655
864.604	0.0183907
864.683	0.0182487
864.761	0.0182543
864.839	0.0182324
864.917	0.0183945
864.995	0.0184037
865.073	0.0183409
865.151	0.0182867
865.229	0.0183479
865.308	0.0182854
865.386	0.0183551
865.464	0.0183382
865.542	0.0184818
865.620	0.0181764
865.698	0.0182152
865.776	0.0183788
865.854	0.0183685
865.933	0.0183939
866.011	0.0183065
866.089	0.0184306
866.167	0.0183767
866.245	0.0185024
866.323	0.0184353
866.401	0.0185583
866.479	0.0184802
866.558	0.0184955
866.636	0.0186491
866.714	0.0184807
866.792	0.0186846
866.870	0.0185093
866.948	0.0184660
867.026	0.0184433
867.104	0.0183379
867.183	0.0184560
867.261	0.0184401
867.339	0.0183597
867.417	0.0184107
867.495	0.0185229
867.573	0.0185116
867.651	0.0183466
867.729	0.0181853
867.808	0.0183362
867.886	0.0181785
867.964	0.0183318
868.042	0.0182809
868.120	0.0182753
868.198	0.0183047
868.276	0.0183208
868.354	0.0183251
868.433	0.0183910
868.511	0.0184464
868.589	0.0183455
868.667	0.0182787
868.745	0.0182854
868.823	0.0183621
868.901	0.0182629
868.979	0.0184432
869.058	0.0183566
869.136	0.0183749
869.214	0.0184053
869.292	0.0183658
869.370	0.0182547
869.448	0.0182034
869.526	0.0183073
869.604	0.0182420
869.683	0.0181859
869.761	0.0182649
869.839	0.0183441
869.917	0.0181315
869.995	0.0182458
870.073	0.0182778
870.151	0.0181953
870.229	0.0181445
870.308	0.0182246
870.386	0.0182991
870.464	0.0183533
870.542	0.0183363
870.620	0.0183993
870.698	0.0183810
870.776	0.0184111
870.854	0.0184332
870.933	0.0184507
871.011	0.0184256
871.089	0.0184620
871.167	0.0184192
871.245	0.0183652
871.323	0.0185700
871.401	0.0185122
871.479	0.0185002
871.558	0.0184909
871.636	0.0183855
871.714	0.0184457
871.792	0.0185544
871.870	0.0184693
871.948	0.0182881
872.026	0.0183253
872.104	0.0184119
872.183	0.0183967
872.261	0.0183720
872.339	0.0183264
872.417	0.0182310
872.495	0.0182227
872.573	0.0183134
872.651	0.0183447
872.729	0.0183194
872.808	0.0182011
872.886	0.0183081
872.964	0.0183452
873.042	0.0181892
873.120	0.0182755
873.198	0.0183849
873.276	0.0182515
873.354	0.0181862
873.433	0.0181390
873.511	0.0184475
873.589	0.0182909
873.667	0.0181400
873.745	0.0183230
873.823	0.0182156
873.901	0.0183822
873.979	0.0183660
874.058	0.0182719
874.136	0.0183454
874.214	0.0183114
874.292	0.0182922
874.370	0.0181841
874.448	0.0181989
874.526	0.0183530
874.604	0.0181860
874.683	0.0183495
874.761	0.0182231
874.839	0.0183544
874.917	0.0183850
874.995	0.0183059
875.073	0.0182492
875.151	0.0182732
875.229	0.0183594
875.308	0.0183665
875.386	0.0183733
875.464	0.0183797
875.542	0.0183393
875.620	0.0183287
875.698	0.0184548
875.776	0.0183779
875.854	0.0181583
875.933	0.0183471
876.011	0.0184569
876.089	0.0184277
876.167	0.0183442
876.245	0.0183341
876.323	0.0182278
876.401	0.0181465
876.479	0.0183568
876.558	0.0181378
876.636	0.0182380
876.714	0.0182690
876.792	0.0183394
876.870	0.0182663
876.948	0.0181323
877.026	0.0181704
877.104	0.0182665
877.183	0.0181680
877.261	0.0182994
877.339	0.0182581
877.417	0.0181181
877.495	0.0182597
877.573	0.0183129
877.651	0.0182356
877.729	0.0181380
877.808	0.0181407
877.886	0.0182234
877.964	0.0181100
878.042	0.0181831
878.120	0.0182036
878.198	0.0181606
878.276	0.0183205
878.354	0.0183112
878.433	0.0182172
878.511	0.0182719
878.589	0.0182259
878.667	0.0182518
878.745	0.0181753
878.823	0.0181078
878.901	0.0182098
878.979	0.0182211
879.058	0.0182481
879.136	0.0183733
879.214	0.0183810
879.292	0.0183061
879.370	0.0182529
879.448	0.0183678
879.526	0.0182855
879.604	0.0184292
879.683	0.0184687
879.761	0.0184141
879.839	0.0184302
879.917	0.0183437
879.995	0.0183334
880.073	0.0183467
880.151	0.0184267
880.229	0.0183601
880.308	0.0183695
880.386	0.0181535
880.464	0.0182749
880.542	0.0183188
880.620	0.0182645
880.698	0.0181948
880.776	0.0181876
880.854	0.0181669
880.933	0.0184009
881.011	0.0181487
881.089	0.0182722
881.167	0.0180927
881.245	0.0182029
881.323	0.0182124
881.401	0.0183672
881.479	0.0181995
881.558	0.0182367
881.636	0.0184095
881.714	0.0183210
881.792	0.0182001
881.870	0.0182557
881.948	0.0184187
882.026	0.0183011
882.104	0.0182818
882.183	0.0182836
882.261	0.0182307
882.339	0.0180807
882.417	0.0182462
882.495	0.0183708
882.573	0.0182058
882.651	0.0182076
882.729	0.0182536
882.808	0.0181574
882.886	0.0182558
882.964	0.0182858
883.042	0.0181712
883.120	0.0181854
883.198	0.0181046
883.276	0.0182823
883.354	0.0182263
883.433	0.0182034
883.511	0.0182552
883.589	0.0182574
883.667	0.0182345
883.745	0.0182543
883.823	0.0181465
883.901	0.0181927
883.979	0.0182891
884.058	0.0181734
884.136	0.0181386
884.214	0.0183143
884.292	0.0182545
884.370	0.0181589
884.448	0.0182764
884.526	0.0181523
884.604	0.0182421
884.683	0.0181807
884.761	0.0182322
884.839	0.0182292
884.917	0.0181775
884.995	0.0182667
885.073	0.0183437
885.151	0.0183485
885.229	0.0183541
885.308	0.0183022
885.386	0.0183336
885.464	0.0182642
885.542	0.0183125
885.620	0.0183650
885.698	0.0184039
885.776	0.0183817
885.854	0.0182361
885.933	0.0181599
886.011	0.0184052
886.089	0.0183850
886.167	0.0182549
886.245	0.0183106
886.323	0.0184449
886.401	0.0183645
886.479	0.0182873
886.558	0.0184570
886.636	0.0185290
886.714	0.0183646
886.792	0.0184029
886.870	0.0183205
886.948	0.0183791
887.026	0.0183578
887.104	0.0183099
887.183	0.0183676
887.261	0.0183482
887.339	0.0184621
887.417	0.0182543
887.495	0.0182706
887.573	0.0182545
887.651	0.0183064
887.729	0.0183302
887.808	0.0181385
887.886	0.0182779
887.964	0.0182095
888.042	0.0184490
888.120	0.0182558
888.198	0.0182034
888.276	0.0184660
888.354	0.0184137
888.433	0.0182375
888.511	0.0182510
888.589	0.0183522
888.667	0.0182464
888.745	0.0183420
888.823	0.0183891
888.901	0.0182694
888.979	0.0182655
889.058	0.0182576
889.136	0.0182868
889.214	0.0181837
889.292	0.0181669
889.370	0.0183281
889.448	0.0182895
889.526	0.0183717
889.604	0.0183009
889.683	0.0183132
889.761	0.0184426
889.839	0.0182854
889.917	0.0182368
889.995	0.0182539
890.073	0.0183908
890.151	0.0182915
890.229	0.0182290
890.308	0.0183002
890.386	0.0181681
890.464	0.0183111
890.542	0.0182734
890.620	0.0182362
890.698	0.0182618
890.776	0.0183563
890.854	0.0183233
890.933	0.0183031
891.011	0.0183202
891.089	0.0183302
891.167	0.0181837
891.245	0.0182847
891.323	0.0182996
891.401	0.0182479
891.479	0.0183023
891.558	0.0183289
891.636	0.0182005
891.714	0.0184073
891.792	0.0183115
891.870	0.0184106
891.948	0.0183389
892.026	0.0184068
892.104	0.0183181
892.183	0.0184035
892.261	0.0183021
892.339	0.0182613
892.417	0.0182101
892.495	0.0183965
892.573	0.0183759
892.651	0.0184071
892.729	0.0182565
892.808	0.0182829
892.886	0.0182153
892.964	0.0182024
893.042	0.0184012
893.120	0.0183122
893.198	0.0182911
893.276	0.0181851
893.354	0.0183149
893.433	0.0182353
893.511	0.0182268
893.589	0.0181644
893.667	0.0183172
893.745	0.0181928
893.823	0.0183233
893.901	0.0181918
893.979	0.0183022
894.058	0.0182420
894.136	0.0181671
894.214	0.0182733
894.292	0.0183392
894.370	0.0182941
894.448	0.0183093
894.526	0.0182805
894.604	0.0181703
894.683	0.0183213
894.761	0.0182484
894.839	0.0182951
894.917	0.0181915
894.995	0.0183000
895.073	0.0182113
895.151	0.0183352
895.229	0.0182352
895.308	0.0183723
895.386	0.0183825
895.464	0.0183424
895.542	0.0182047
895.620	0.0182442
895.698	0.0184102
895.776	0.0183862
895.854	0.0183434
895.933	0.0183657
896.011	0.0182323
896.089	0.0184212
896.167	0.0183305
896.245	0.0183912
896.323	0.0184780
896.401	0.0184611
896.479	0.0184618
896.558	0.0182442
896.636	0.0183302
896.714	0.0182475
896.792	0.0183117
896.870	0.0183613
896.948	0.0183089
897.026	0.0181789
897.104	0.0182014
897.183	0.0182783
897.261	0.0181232
897.339	0.0181910
897.417	0.0181758
897.495	0.0181621
897.573	0.0181274
897.651	0.0180948
897.729	0.0182199
897.808	0.0182203
897.886	0.0181262
897.964	0.0181090
898.042	0.0181670
898.120	0.0180945
898.198	0.0181647
898.276	0.0180753
898.354	0.0182126
898.433	0.0183603
898.511	0.0182387
898.589	0.0181078
898.667	0.0183237
898.745	0.0183841
898.823	0.0183517
898.901	0.0183387
898.979	0.0181866
899.058	0.0182745
899.136	0.0184076
899.214	0.0184173
899.292	0.0183578
899.370	0.0183063
899.448	0.0183888
899.526	0.0183365
899.604	0.0181597
899.683	0.0183649
899.761	0.0185157
899.839	0.0183446
899.917	0.0182958
899.995	0.0181718
900.073	0.0183067
900.151	0.0183120
900.229	0.0183056
900.308	0.0182791
900.386	0.0182507
900.464	0.0182597
900.542	0.0183254
900.620	0.0182488
900.698	0.0181838
900.776	0.0181658
900.854	0.0181303
900.933	0.0182335
901.011	0.0182206
901.089	0.0182418
901.167	0.0183763
901.245	0.0182233
901.323	0.0182771
901.401	0.0182755
901.479	0.0182288
901.558	0.0181554
901.636	0.0182111
901.714	0.0183276
901.792	0.0182048
901.870	0.0183662
901.948	0.0183270
902.026	0.0183685
902.104	0.0183816
902.183	0.0184724
902.261	0.0184597
902.339	0.0183610
902.417	0.0184243
902.495	0.0184101
902.573	0.0183068
902.651	0.0182664
902.729	0.0182673
902.808	0.0183138
902.886	0.0183065
902.964	0.0183134
903.042	0.0181644
903.120	0.0182376
903.198	0.0183813
903.276	0.0181844
903.354	0.0181673
903.433	0.0181739
903.511	0.0182859
903.589	0.0181623
903.667	0.0182251
903.745	0.0182033
903.823	0.0183570
903.901	0.0182356
903.979	0.0181606
904.058	0.0183592
904.136	0.0183652
904.214	0.0181579
904.292	0.0182275
904.370	0.0183292
904.448	0.0183349
904.526	0.0182711
904.604	0.0182922
904.683	0.0182140
904.761	0.0182670
904.839	0.0183001
904.917	0.0182961
904.995	0.0183134
905.073	0.0181814
905.151	0.0182816
905.229	0.0184323
905.308	0.0181868
905.386	0.0182815
905.464	0.0183891
905.542	0.0183334
905.620	0.0182581
905.698	0.0183347
905.776	0.0183723
905.854	0.0183704
905.933	0.0184655
906.011	0.0184230
906.089	0.0184618
906.167	0.0183202
906.245	0.0182555
906.323	0.0182566
906.401	0.0182850
906.479	0.0182425
906.558	0.0182993
906.636	0.0183617
906.714	0.0182324
906.792	0.0182668
906.870	0.0181908
906.948	0.0181993
907.026	0.0183179
907.104	0.0182883
907.183	0.0181453
907.261	0.0181139
907.339	0.0183118
907.417	0.0182393
907.495	0.0183292
907.573	0.0184106
907.651	0.0181987
907.729	0.0182705
907.808	0.0182631
907.886	0.0183307
907.964	0.0183287
908.042	0.0184189
908.120	0.0184348
908.198	0.0184248
908.276	0.0184171
908.354	0.0183202
908.433	0.0183810
908.511	0.0183955
908.589	0.0182136
908.667	0.0182719
908.745	0.0183634
908.823	0.0182333
908.901	0.0183527
908.979	0.0182919
909.058	0.0181306
909.136	0.0182955
909.214	0.0184441
909.292	0.0184178
909.370	0.0183082
909.448	0.0183567
909.526	0.0183298
909.604	0.0184783
909.683	0.0183495
909.761	0.0183466
909.839	0.0183824
909.917	0.0184052
909.995	0.0183613
910.073	0.0184465
910.151	0.0185527
910.229	0.0184385
910.308	0.0184637
910.386	0.0184431
910.464	0.0183475
910.542	0.0184766
910.620	0.0185063
910.698	0.0185152
910.776	0.0184366
910.854	0.0183786
910.933	0.0184168
911.011	0.0182896
911.089	0.0182674
911.167	0.0183662
911.245	0.0183052
911.323	0.0182903
911.401	0.0182862
911.479	0.0182874
911.558	0.0182915
911.636	0.0182322
911.714	0.0181548
911.792	0.0181493
911.870	0.0182932
911.948	0.0181373
912.026	0.0182185
912.104	0.0182844
912.183	0.0181245
912.261	0.0182034
912.339	0.0182795
912.417	0.0183750
912.495	0.0181577
912.573	0.0180400
912.651	0.0181413
912.729	0.0182137
912.808	0.0182509
912.886	0.0182403
912.964	0.0182045
913.042	0.0182607
913.120	0.0185836
913.198	0.0182777
913.276	0.0181488
913.354	0.0181264
913.433	0.0182925
913.511	0.0181369
913.589	0.0181736
913.667	0.0184248
913.745	0.0182759
913.823	0.0182645
913.901	0.0183029
913.979	0.0182805
914.058	0.0181087
914.136	0.0181791
914.214	0.0181808
914.292	0.0181663
914.370	0.0182703
914.448	0.0182947
914.526	0.0182260
914.604	0.0183102
914.683	0.0182696
914.761	0.0181811
914.839	0.0182021
914.917	0.0182816
914.995	0.0183173
915.073	0.0182342
915.151	0.0183344
915.229	0.0182073
915.308	0.0183353
915.386	0.0182162
915.464	0.0183984
915.542	0.0183164
915.620	0.0184369
915.698	0.0182689
915.776	0.0182061
915.854	0.0183553
915.933	0.0183347
916.011	0.0183657
916.089	0.0182945
916.167	0.0184877
916.245	0.0182922
916.323	0.0183727
916.401	0.0183315
916.479	0.0184035
916.558	0.0183500
916.636	0.0183418
916.714	0.0183804
916.792	0.0183581
916.870	0.0182686
916.948	0.0182774
917.026	0.0183690
917.104	0.0183234
917.183	0.0182257
917.261	0.0183335
917.339	0.0182587
917.417	0.0182979
917.495	0.0182767
917.573	0.0182709
917.651	0.0181945
917.729	0.0183255
917.808	0.0182908
917.886	0.0183417
917.964	0.0181862
918.042	0.0183151
918.120	0.0183072
918.198	0.0183082
918.276	0.0182570
918.354	0.0182778
918.433	0.0181423
918.511	0.0181326
918.589	0.0183333
918.667	0.0184600
918.745	0.0183414
918.823	0.0183037
918.901	0.0182679
918.979	0.0182304
919.058	0.0179777
919.136	0.0182417
919.214	0.0183113
919.292	0.0181986
919.370	0.0182198
919.448	0.0180234
919.526	0.0181038
919.604	0.0183325
919.683	0.0183427
919.761	0.0182357
919.839	0.0183068
919.917	0.0182304
