06/03/2022	18:26:04	Ver.	4.1	UNKNOWN
Optical Delay	599.995081	Delta X		0.078125	Sweeps	1	Scan Rate	0/0
Coordinates	Axis 1	NaN	Axis 2	NaN	Axis 3	NaN	Axis 4	NaN	Axis 5	NaN	Axis 6	0.000000
TX Power	0.000000	RX Power	0.000000

599.995	0.0178866
600.073	0.0179723
600.151	0.0178318
600.229	0.0178708
600.308	0.0178128
600.386	0.0180266
600.464	0.0180016
600.542	0.0179217
600.620	0.0178324
600.698	0.0180190
600.776	0.0180389
600.854	0.0178780
600.933	0.0178237
601.011	0.0179749
601.089	0.0179390
601.167	0.0178714
601.245	0.0179513
601.323	0.0179047
601.401	0.0178843
601.479	0.0180384
601.558	0.0180013
601.636	0.0179615
601.714	0.0179503
601.792	0.0179607
601.870	0.0178790
601.948	0.0179676
602.026	0.0179149
602.104	0.0179389
602.183	0.0178962
602.261	0.0178395
602.339	0.0180350
602.417	0.0179707
602.495	0.0176862
602.573	0.0178539
602.651	0.0180520
602.729	0.0179146
602.808	0.0178223
602.886	0.0179826
602.964	0.0179648
603.042	0.0179182
603.120	0.0180222
603.198	0.0178282
603.276	0.0178725
603.354	0.0179362
603.433	0.0179284
603.511	0.0179662
603.589	0.0178577
603.667	0.0177499
603.745	0.0179449
603.823	0.0179077
603.901	0.0178585
603.979	0.0179742
604.058	0.0178844
604.136	0.0178342
604.214	0.0178185
604.292	0.0180048
604.370	0.0178354
604.448	0.0180077
604.526	0.0178044
604.604	0.0177724
604.683	0.0179692
604.761	0.0180033
604.839	0.0178750
604.917	0.0180161
604.995	0.0179244
605.073	0.0177824
605.151	0.0179630
605.229	0.0180599
605.308	0.0178656
605.386	0.0178593
605.464	0.0179117
605.542	0.0179741
605.620	0.0178853
605.698	0.0178990
605.776	0.0181117
605.854	0.0179530
605.933	0.0179641
606.011	0.0179923
606.089	0.0177726
606.167	0.0178506
606.245	0.0180006
606.323	0.0179591
606.401	0.0180280
606.479	0.0178905
606.558	0.0179146
606.636	0.0179556
606.714	0.0179704
606.792	0.0179383
606.870	0.0180336
606.948	0.0179703
607.026	0.0179650
607.104	0.0179864
607.183	0.0179143
607.261	0.0179559
607.339	0.0180421
607.417	0.0179161
607.495	0.0179221
607.573	0.0179205
607.651	0.0180419
607.729	0.0178657
607.808	0.0178467
607.886	0.0180305
607.964	0.0178825
608.042	0.0179754
608.120	0.0179925
608.198	0.0179346
608.276	0.0179034
608.354	0.0180399
608.433	0.0179018
608.511	0.0179440
608.589	0.0179643
608.667	0.0179216
608.745	0.0178919
608.823	0.0179301
608.901	0.0178663
608.979	0.0179884
609.058	0.0179321
609.136	0.0178858
609.214	0.0180049
609.292	0.0178579
609.370	0.0180298
609.448	0.0180192
609.526	0.0179004
609.604	0.0178580
609.683	0.0179575
609.761	0.0179683
609.839	0.0179485
609.917	0.0180219
609.995	0.0179710
610.073	0.0178633
610.151	0.0178707
610.229	0.0179508
610.308	0.0179138
610.386	0.0179533
610.464	0.0180276
610.542	0.0179369
610.620	0.0178756
610.698	0.0178603
610.776	0.0178295
610.854	0.0179814
610.933	0.0178715
611.011	0.0178309
611.089	0.0179626
611.167	0.0179361
611.245	0.0179158
611.323	0.0179074
611.401	0.0178910
611.479	0.0178474
611.558	0.0178468
611.636	0.0178674
611.714	0.0178369
611.792	0.0179598
611.870	0.0179448
611.948	0.0179026
612.026	0.0178945
612.104	0.0178114
612.183	0.0178186
612.261	0.0178379
612.339	0.0179488
612.417	0.0179100
612.495	0.0179787
612.573	0.0178545
612.651	0.0179002
612.729	0.0178292
612.808	0.0179866
612.886	0.0178020
612.964	0.0176395
613.042	0.0178174
613.120	0.0179822
613.198	0.0179680
613.276	0.0178553
613.354	0.0178675
613.433	0.0179197
613.511	0.0177946
613.589	0.0178783
613.667	0.0178871
613.745	0.0178280
613.823	0.0178093
613.901	0.0178631
613.979	0.0178078
614.058	0.0178566
614.136	0.0178073
614.214	0.0178876
614.292	0.0178544
614.370	0.0179079
614.448	0.0178804
614.526	0.0178255
614.604	0.0178024
614.683	0.0179015
614.761	0.0179604
614.839	0.0179688
614.917	0.0179394
614.995	0.0177795
615.073	0.0177306
615.151	0.0180225
615.229	0.0178569
615.308	0.0177283
615.386	0.0177966
615.464	0.0179618
615.542	0.0178780
615.620	0.0178336
615.698	0.0178279
615.776	0.0179772
615.854	0.0179315
615.933	0.0178931
616.011	0.0178388
616.089	0.0178792
616.167	0.0178238
616.245	0.0178560
616.323	0.0179645
616.401	0.0179869
616.479	0.0179497
616.558	0.0177818
616.636	0.0178759
616.714	0.0179265
616.792	0.0178338
616.870	0.0177979
616.948	0.0181231
617.026	0.0179649
617.104	0.0178082
617.183	0.0180338
617.261	0.0179690
617.339	0.0178876
617.417	0.0177756
617.495	0.0179678
617.573	0.0179869
617.651	0.0179213
617.729	0.0178207
617.808	0.0177986
617.886	0.0179359
617.964	0.0178882
618.042	0.0178628
618.120	0.0178244
618.198	0.0179685
618.276	0.0179475
618.354	0.0178514
618.433	0.0178643
618.511	0.0178599
618.589	0.0178426
618.667	0.0176874
618.745	0.0179274
618.823	0.0177498
618.901	0.0179099
618.979	0.0179990
619.058	0.0178980
619.136	0.0179379
619.214	0.0178663
619.292	0.0178489
619.370	0.0179090
619.448	0.0178926
619.526	0.0178390
619.604	0.0178335
619.683	0.0178888
619.761	0.0179636
619.839	0.0178231
619.917	0.0177702
619.995	0.0179098
620.073	0.0178266
620.151	0.0179079
620.229	0.0179212
620.308	0.0178450
620.386	0.0179111
620.464	0.0179159
620.542	0.0179446
620.620	0.0179585
620.698	0.0180074
620.776	0.0180103
620.854	0.0179278
620.933	0.0177528
621.011	0.0178167
621.089	0.0180164
621.167	0.0179402
621.245	0.0180690
621.323	0.0179174
621.401	0.0178779
621.479	0.0180068
621.558	0.0178947
621.636	0.0179202
621.714	0.0178161
621.792	0.0179387
621.870	0.0181091
621.948	0.0178599
622.026	0.0179682
622.104	0.0180187
622.183	0.0180048
622.261	0.0180289
622.339	0.0180884
622.417	0.0180572
622.495	0.0179551
622.573	0.0179593
622.651	0.0180328
622.729	0.0179836
622.808	0.0179363
622.886	0.0178603
622.964	0.0179219
623.042	0.0178892
623.120	0.0178462
623.198	0.0179809
623.276	0.0179064
623.354	0.0178896
623.433	0.0178457
623.511	0.0179372
623.589	0.0177493
623.667	0.0180238
623.745	0.0180420
623.823	0.0180207
623.901	0.0180359
623.979	0.0179471
624.058	0.0179663
624.136	0.0179027
624.214	0.0179366
624.292	0.0178955
624.370	0.0179648
624.448	0.0179637
624.526	0.0179029
624.604	0.0180138
624.683	0.0180350
624.761	0.0180465
624.839	0.0179765
624.917	0.0181152
624.995	0.0180342
625.073	0.0179250
625.151	0.0180733
625.229	0.0178635
625.308	0.0180204
625.386	0.0180403
625.464	0.0178601
625.542	0.0179668
625.620	0.0179198
625.698	0.0179485
625.776	0.0180350
625.854	0.0180540
625.933	0.0177808
626.011	0.0179608
626.089	0.0180207
626.167	0.0180014
626.245	0.0177626
626.323	0.0179363
626.401	0.0180128
626.479	0.0179939
626.558	0.0179739
626.636	0.0180721
626.714	0.0178859
626.792	0.0178982
626.870	0.0179642
626.948	0.0179961
627.026	0.0178829
627.104	0.0178414
627.183	0.0179887
627.261	0.0180517
627.339	0.0180173
627.417	0.0180426
627.495	0.0181397
627.573	0.0179403
627.651	0.0179260
627.729	0.0179298
627.808	0.0179929
627.886	0.0179763
627.964	0.0180045
628.042	0.0179516
628.120	0.0179771
628.198	0.0179606
628.276	0.0179842
628.354	0.0180431
628.433	0.0179826
628.511	0.0179459
628.589	0.0180016
628.667	0.0179993
628.745	0.0179010
628.823	0.0178932
628.901	0.0181168
628.979	0.0179691
629.058	0.0179048
629.136	0.0179697
629.214	0.0179329
629.292	0.0179369
629.370	0.0179356
629.448	0.0180843
629.526	0.0179653
629.604	0.0179109
629.683	0.0178543
629.761	0.0178821
629.839	0.0180600
629.917	0.0179553
629.995	0.0177529
630.073	0.0180464
630.151	0.0177972
630.229	0.0178249
630.308	0.0178045
630.386	0.0180007
630.464	0.0178905
630.542	0.0177372
630.620	0.0179494
630.698	0.0179392
630.776	0.0178846
630.854	0.0178703
630.933	0.0179501
631.011	0.0179121
631.089	0.0179702
631.167	0.0178235
631.245	0.0177960
631.323	0.0178220
631.401	0.0178936
631.479	0.0178950
631.558	0.0179133
631.636	0.0178596
631.714	0.0179334
631.792	0.0179584
631.870	0.0177465
631.948	0.0178210
632.026	0.0179435
632.104	0.0179314
632.183	0.0179759
632.261	0.0178147
632.339	0.0179695
632.417	0.0178945
632.495	0.0178820
632.573	0.0179489
632.651	0.0179369
632.729	0.0179485
632.808	0.0178625
632.886	0.0178642
632.964	0.0178859
633.042	0.0179944
633.120	0.0179073
633.198	0.0178803
633.276	0.0178974
633.354	0.0179688
633.433	0.0180430
633.511	0.0178207
633.589	0.0179607
633.667	0.0177721
633.745	0.0179299
633.823	0.0179609
633.901	0.0178075
633.979	0.0179282
634.058	0.0178609
634.136	0.0178332
634.214	0.0178505
634.292	0.0179200
634.370	0.0178104
634.448	0.0179240
634.526	0.0178801
634.604	0.0180247
634.683	0.0178652
634.761	0.0178745
634.839	0.0179084
634.917	0.0178656
634.995	0.0179049
635.073	0.0178040
635.151	0.0178127
635.229	0.0179288
635.308	0.0178156
635.386	0.0177842
635.464	0.0178703
635.542	0.0178963
635.620	0.0177979
635.698	0.0178286
635.776	0.0178127
635.854	0.0178567
635.933	0.0179378
636.011	0.0180589
636.089	0.0180039
636.167	0.0179295
636.245	0.0178976
636.323	0.0180264
636.401	0.0180024
636.479	0.0178046
636.558	0.0177745
636.636	0.0179633
636.714	0.0177838
636.792	0.0179520
636.870	0.0178807
636.948	0.0178841
637.026	0.0178737
637.104	0.0178786
637.183	0.0179008
637.261	0.0178768
637.339	0.0179433
637.417	0.0179283
637.495	0.0179401
637.573	0.0178847
637.651	0.0179557
637.729	0.0178564
637.808	0.0178999
637.886	0.0178074
637.964	0.0180195
638.042	0.0179542
638.120	0.0178749
638.198	0.0178642
638.276	0.0180418
638.354	0.0180628
638.433	0.0179170
638.511	0.0180007
638.589	0.0178363
638.667	0.0178792
638.745	0.0179865
638.823	0.0179736
638.901	0.0179353
638.979	0.0178484
639.058	0.0179830
639.136	0.0179510
639.214	0.0181517
639.292	0.0178403
639.370	0.0178006
639.448	0.0179487
639.526	0.0180211
639.604	0.0179053
639.683	0.0179654
639.761	0.0179582
639.839	0.0179620
639.917	0.0179212
639.995	0.0179701
640.073	0.0179115
640.151	0.0180428
640.229	0.0180785
640.308	0.0179482
640.386	0.0179027
640.464	0.0179314
640.542	0.0179857
640.620	0.0181838
640.698	0.0179412
640.776	0.0178682
640.854	0.0178971
640.933	0.0177620
641.011	0.0178926
641.089	0.0179346
641.167	0.0179174
641.245	0.0180575
641.323	0.0179362
641.401	0.0179501
641.479	0.0180191
641.558	0.0180848
641.636	0.0179846
641.714	0.0180100
641.792	0.0178671
641.870	0.0180943
641.948	0.0178892
642.026	0.0179823
642.104	0.0180949
642.183	0.0180610
642.261	0.0180508
642.339	0.0179443
642.417	0.0180343
642.495	0.0179908
642.573	0.0179227
642.651	0.0180071
642.729	0.0180331
642.808	0.0179851
642.886	0.0180417
642.964	0.0179723
643.042	0.0179288
643.120	0.0179435
643.198	0.0178052
643.276	0.0180124
643.354	0.0181326
643.433	0.0179557
643.511	0.0180196
643.589	0.0180878
643.667	0.0180996
643.745	0.0179375
643.823	0.0179680
643.901	0.0180178
643.979	0.0180225
644.058	0.0180603
644.136	0.0180760
644.214	0.0180763
644.292	0.0180045
644.370	0.0178796
644.448	0.0179646
644.526	0.0179485
644.604	0.0179569
644.683	0.0178400
644.761	0.0180125
644.839	0.0180371
644.917	0.0179745
644.995	0.0178224
645.073	0.0177515
645.151	0.0178449
645.229	0.0179362
645.308	0.0180725
645.386	0.0180003
645.464	0.0178562
645.542	0.0179331
645.620	0.0179707
645.698	0.0179118
645.776	0.0178764
645.854	0.0179980
645.933	0.0179556
646.011	0.0178983
646.089	0.0180671
646.167	0.0179053
646.245	0.0180455
646.323	0.0180193
646.401	0.0178791
646.479	0.0178751
646.558	0.0179027
646.636	0.0179980
646.714	0.0180320
646.792	0.0179493
646.870	0.0178596
646.948	0.0178851
647.026	0.0179927
647.104	0.0179044
647.183	0.0180370
647.261	0.0178237
647.339	0.0179502
647.417	0.0179726
647.495	0.0178862
647.573	0.0179437
647.651	0.0179556
647.729	0.0179658
647.808	0.0178734
647.886	0.0180095
647.964	0.0179939
648.042	0.0179628
648.120	0.0178454
648.198	0.0178690
648.276	0.0179219
648.354	0.0179138
648.433	0.0179037
648.511	0.0179400
648.589	0.0180064
648.667	0.0179084
648.745	0.0178707
648.823	0.0179740
648.901	0.0178684
648.979	0.0179224
649.058	0.0179959
649.136	0.0179849
649.214	0.0178733
649.292	0.0179000
649.370	0.0179208
649.448	0.0179474
649.526	0.0180244
649.604	0.0178623
649.683	0.0178313
649.761	0.0178169
649.839	0.0178669
649.917	0.0179514
649.995	0.0179320
650.073	0.0178400
650.151	0.0179570
650.229	0.0178427
650.308	0.0178837
650.386	0.0179704
650.464	0.0179451
650.542	0.0179426
650.620	0.0178022
650.698	0.0179267
650.776	0.0179708
650.854	0.0179440
650.933	0.0179140
651.011	0.0179157
651.089	0.0179621
651.167	0.0178725
651.245	0.0178919
651.323	0.0179568
651.401	0.0178426
651.479	0.0179323
651.558	0.0180157
651.636	0.0180328
651.714	0.0180083
651.792	0.0178532
651.870	0.0178743
651.948	0.0180087
652.026	0.0179472
652.104	0.0177934
652.183	0.0180449
652.261	0.0180402
652.339	0.0180630
652.417	0.0178208
652.495	0.0180756
652.573	0.0179190
652.651	0.0179510
652.729	0.0180341
652.808	0.0179138
652.886	0.0179253
652.964	0.0179311
653.042	0.0177933
653.120	0.0179218
653.198	0.0179256
653.276	0.0179208
653.354	0.0177991
653.433	0.0179330
653.511	0.0178490
653.589	0.0179800
653.667	0.0179105
653.745	0.0178982
653.823	0.0179801
653.901	0.0179255
653.979	0.0178942
654.058	0.0179958
654.136	0.0179633
654.214	0.0179143
654.292	0.0180411
654.370	0.0179786
654.448	0.0180132
654.526	0.0180775
654.604	0.0179836
654.683	0.0179472
654.761	0.0179974
654.839	0.0178751
654.917	0.0177996
654.995	0.0179434
655.073	0.0179029
655.151	0.0177914
655.229	0.0178306
655.308	0.0177688
655.386	0.0178487
655.464	0.0177387
655.542	0.0178542
655.620	0.0177342
655.698	0.0178326
655.776	0.0178453
655.854	0.0179000
655.933	0.0178680
656.011	0.0178272
656.089	0.0179103
656.167	0.0179642
656.245	0.0179472
656.323	0.0179192
656.401	0.0180330
656.479	0.0179464
656.558	0.0179631
656.636	0.0178464
656.714	0.0177656
656.792	0.0178672
656.870	0.0178439
656.948	0.0178186
657.026	0.0178603
657.104	0.0177074
657.183	0.0176306
657.261	0.0177609
657.339	0.0178268
657.417	0.0177598
657.495	0.0177296
657.573	0.0177367
657.651	0.0178281
657.729	0.0177831
657.808	0.0178073
657.886	0.0180057
657.964	0.0179709
658.042	0.0178378
658.120	0.0179253
658.198	0.0179952
658.276	0.0180523
658.354	0.0180156
658.433	0.0178995
658.511	0.0180390
658.589	0.0179738
658.667	0.0179888
658.745	0.0180543
658.823	0.0179173
658.901	0.0178919
658.979	0.0179398
659.058	0.0177583
659.136	0.0178579
659.214	0.0178441
659.292	0.0178229
659.370	0.0179337
659.448	0.0179366
659.526	0.0178414
659.604	0.0179675
659.683	0.0179591
659.761	0.0179166
659.839	0.0181721
659.917	0.0179295
659.995	0.0179890
660.073	0.0178471
660.151	0.0180485
660.229	0.0181045
660.308	0.0181181
660.386	0.0180170
660.464	0.0179678
660.542	0.0178606
660.620	0.0180030
660.698	0.0180295
660.776	0.0180436
660.854	0.0179387
660.933	0.0177427
661.011	0.0177370
661.089	0.0178825
661.167	0.0178047
661.245	0.0177455
661.323	0.0177868
661.401	0.0178194
661.479	0.0178857
661.558	0.0178356
661.636	0.0178999
661.714	0.0178600
661.792	0.0178317
661.870	0.0179505
661.948	0.0179836
662.026	0.0179633
662.104	0.0180328
662.183	0.0180784
662.261	0.0179661
662.339	0.0180244
662.417	0.0180288
662.495	0.0179357
662.573	0.0180000
662.651	0.0179987
662.729	0.0179913
662.808	0.0181310
662.886	0.0178829
662.964	0.0180754
663.042	0.0179967
663.120	0.0177889
663.198	0.0178063
663.276	0.0181487
663.354	0.0181175
663.433	0.0178420
663.511	0.0179852
663.589	0.0179515
663.667	0.0179088
663.745	0.0178848
663.823	0.0179789
663.901	0.0180672
663.979	0.0180196
664.058	0.0179950
664.136	0.0180742
664.214	0.0179768
664.292	0.0179583
664.370	0.0181082
664.448	0.0180100
664.526	0.0180295
664.604	0.0178848
664.683	0.0180963
664.761	0.0178465
664.839	0.0179134
664.917	0.0178825
664.995	0.0180446
665.073	0.0180223
665.151	0.0179520
665.229	0.0179208
665.308	0.0179470
665.386	0.0178350
665.464	0.0180265
665.542	0.0178313
665.620	0.0178283
665.698	0.0179111
665.776	0.0178449
665.854	0.0179528
665.933	0.0179692
666.011	0.0178831
666.089	0.0178543
666.167	0.0179363
666.245	0.0180175
666.323	0.0179544
666.401	0.0178514
666.479	0.0179642
666.558	0.0179976
666.636	0.0180102
666.714	0.0179823
666.792	0.0178406
666.870	0.0177605
666.948	0.0179442
667.026	0.0180521
667.104	0.0178625
667.183	0.0178652
667.261	0.0179000
667.339	0.0178178
667.417	0.0179785
667.495	0.0178342
667.573	0.0178421
667.651	0.0178573
667.729	0.0179408
667.808	0.0179247
667.886	0.0180049
667.964	0.0179298
668.042	0.0180158
668.120	0.0179999
668.198	0.0180624
668.276	0.0180042
668.354	0.0179394
668.433	0.0180235
668.511	0.0180304
668.589	0.0180016
668.667	0.0179617
668.745	0.0181425
668.823	0.0180555
668.901	0.0180225
668.979	0.0180128
669.058	0.0179861
669.136	0.0179602
669.214	0.0177782
669.292	0.0179468
669.370	0.0178961
669.448	0.0179029
669.526	0.0177829
669.604	0.0179203
669.683	0.0178593
669.761	0.0178930
669.839	0.0179747
669.917	0.0180518
669.995	0.0179034
670.073	0.0179372
670.151	0.0180403
670.229	0.0180733
670.308	0.0180056
670.386	0.0179066
670.464	0.0178238
670.542	0.0181372
670.620	0.0180746
670.698	0.0179815
670.776	0.0178067
670.854	0.0180047
670.933	0.0180431
671.011	0.0179222
671.089	0.0177793
671.167	0.0177692
671.245	0.0180103
671.323	0.0179228
671.401	0.0178566
671.479	0.0179823
671.558	0.0179253
671.636	0.0178867
671.714	0.0178403
671.792	0.0179217
671.870	0.0180004
671.948	0.0179368
672.026	0.0178557
672.104	0.0178697
672.183	0.0179412
672.261	0.0178903
672.339	0.0179575
672.417	0.0179857
672.495	0.0180331
672.573	0.0179240
672.651	0.0178693
672.729	0.0181075
672.808	0.0180116
672.886	0.0180122
672.964	0.0180225
673.042	0.0180117
673.120	0.0179794
673.198	0.0178667
673.276	0.0178277
673.354	0.0180016
673.433	0.0178909
673.511	0.0178648
673.589	0.0179262
673.667	0.0179152
673.745	0.0178230
673.823	0.0179971
673.901	0.0179620
673.979	0.0178307
674.058	0.0180055
674.136	0.0178866
674.214	0.0178285
674.292	0.0178977
674.370	0.0179932
674.448	0.0179540
674.526	0.0179981
674.604	0.0179256
674.683	0.0179752
674.761	0.0179716
674.839	0.0179896
674.917	0.0179163
674.995	0.0178758
675.073	0.0179663
675.151	0.0179871
675.229	0.0180383
675.308	0.0179822
675.386	0.0179713
675.464	0.0179668
675.542	0.0179321
675.620	0.0179661
675.698	0.0180183
675.776	0.0180492
675.854	0.0179980
675.933	0.0180530
676.011	0.0179949
676.089	0.0180937
676.167	0.0180204
676.245	0.0179292
676.323	0.0179665
676.401	0.0180164
676.479	0.0181124
676.558	0.0179536
676.636	0.0181442
676.714	0.0179768
676.792	0.0179005
676.870	0.0178643
676.948	0.0179140
677.026	0.0179945
677.104	0.0179335
677.183	0.0180742
677.261	0.0180260
677.339	0.0180463
677.417	0.0179032
677.495	0.0179088
677.573	0.0180914
677.651	0.0179578
677.729	0.0179885
677.808	0.0179364
677.886	0.0180653
677.964	0.0180700
678.042	0.0180812
678.120	0.0178851
678.198	0.0180217
678.276	0.0180203
678.354	0.0179956
678.433	0.0180399
678.511	0.0179453
678.589	0.0178802
678.667	0.0180860
678.745	0.0179298
678.823	0.0178755
678.901	0.0177518
678.979	0.0178946
679.058	0.0179451
679.136	0.0177872
679.214	0.0178683
679.292	0.0177403
679.370	0.0177944
679.448	0.0176548
679.526	0.0175377
679.604	0.0177633
679.683	0.0176770
679.761	0.0177449
679.839	0.0176040
679.917	0.0176944
679.995	0.0178420
680.073	0.0178304
680.151	0.0177716
680.229	0.0178154
680.308	0.0179996
680.386	0.0180019
680.464	0.0177790
680.542	0.0179173
680.620	0.0178110
680.698	0.0180489
680.776	0.0181224
680.854	0.0181559
680.933	0.0180628
681.011	0.0180322
681.089	0.0181116
681.167	0.0182097
681.245	0.0181297
681.323	0.0181496
681.401	0.0181715
681.479	0.0182259
681.558	0.0182348
681.636	0.0181779
681.714	0.0182137
681.792	0.0182282
681.870	0.0182128
681.948	0.0180448
682.026	0.0181017
682.104	0.0180899
682.183	0.0180770
682.261	0.0180120
682.339	0.0180278
682.417	0.0178545
682.495	0.0179865
682.573	0.0179897
682.651	0.0179526
682.729	0.0179038
682.808	0.0178933
682.886	0.0180090
682.964	0.0180109
683.042	0.0177576
683.120	0.0178860
683.198	0.0180325
683.276	0.0180262
683.354	0.0179865
683.433	0.0178860
683.511	0.0178286
683.589	0.0178623
683.667	0.0177941
683.745	0.0177567
683.823	0.0178616
683.901	0.0176987
683.979	0.0177280
684.058	0.0177346
684.136	0.0176923
684.214	0.0176011
684.292	0.0175832
684.370	0.0175269
684.448	0.0176521
684.526	0.0177041
684.604	0.0175935
684.683	0.0177280
684.761	0.0177814
684.839	0.0178172
684.917	0.0179391
684.995	0.0178757
685.073	0.0179309
685.151	0.0180083
685.229	0.0181304
685.308	0.0181316
685.386	0.0180159
685.464	0.0180831
685.542	0.0180868
685.620	0.0181147
685.698	0.0182029
685.776	0.0180481
685.854	0.0182339
685.933	0.0180561
686.011	0.0180561
686.089	0.0180863
686.167	0.0180614
686.245	0.0181118
686.323	0.0180783
686.401	0.0180446
686.479	0.0178314
686.558	0.0179622
686.636	0.0180824
686.714	0.0182065
686.792	0.0179455
686.870	0.0180882
686.948	0.0180046
687.026	0.0180557
687.104	0.0179052
687.183	0.0181406
687.261	0.0179984
687.339	0.0180169
687.417	0.0179185
687.495	0.0180300
687.573	0.0179382
687.651	0.0178930
687.729	0.0179649
687.808	0.0177590
687.886	0.0179296
687.964	0.0179028
688.042	0.0178965
688.120	0.0178156
688.198	0.0178963
688.276	0.0177396
688.354	0.0177331
688.433	0.0177566
688.511	0.0177267
688.589	0.0176131
688.667	0.0177717
688.745	0.0175787
688.823	0.0176081
688.901	0.0177170
688.979	0.0176785
689.058	0.0175014
689.136	0.0175322
689.214	0.0176689
689.292	0.0177615
689.370	0.0177537
689.448	0.0176503
689.526	0.0176807
689.604	0.0178654
689.683	0.0177434
689.761	0.0178325
689.839	0.0178200
689.917	0.0178429
689.995	0.0179400
690.073	0.0179251
690.151	0.0180141
690.229	0.0179442
690.308	0.0179478
690.386	0.0179699
690.464	0.0179827
690.542	0.0181834
690.620	0.0181210
690.698	0.0180953
690.776	0.0179952
690.854	0.0181458
690.933	0.0181277
691.011	0.0181366
691.089	0.0181423
691.167	0.0180322
691.245	0.0179805
691.323	0.0181056
691.401	0.0181251
691.479	0.0178867
691.558	0.0179665
691.636	0.0179451
691.714	0.0179192
691.792	0.0178790
691.870	0.0179140
691.948	0.0179432
692.026	0.0178444
692.104	0.0179443
692.183	0.0180496
692.261	0.0177979
692.339	0.0177767
692.417	0.0177986
692.495	0.0180554
692.573	0.0179720
692.651	0.0178902
692.729	0.0178870
692.808	0.0178782
692.886	0.0178381
692.964	0.0178500
693.042	0.0178092
693.120	0.0178569
693.198	0.0179009
693.276	0.0180225
693.354	0.0178908
693.433	0.0178289
693.511	0.0179767
693.589	0.0179079
693.667	0.0178993
693.745	0.0179467
693.823	0.0180197
693.901	0.0177919
693.979	0.0178515
694.058	0.0178997
694.136	0.0179166
694.214	0.0177920
694.292	0.0178539
694.370	0.0179150
694.448	0.0178681
694.526	0.0179995
694.604	0.0179154
694.683	0.0178654
694.761	0.0180618
694.839	0.0179781
694.917	0.0180756
694.995	0.0181736
695.073	0.0182074
695.151	0.0180911
695.229	0.0180236
695.308	0.0181519
695.386	0.0181355
695.464	0.0182586
695.542	0.0181578
695.620	0.0180304
695.698	0.0180221
695.776	0.0179353
695.854	0.0180209
695.933	0.0180006
696.011	0.0180571
696.089	0.0178661
696.167	0.0179197
696.245	0.0178789
696.323	0.0178944
696.401	0.0178068
696.479	0.0177851
696.558	0.0177607
696.636	0.0178188
696.714	0.0180255
696.792	0.0179696
696.870	0.0178817
696.948	0.0177478
697.026	0.0178531
697.104	0.0177274
697.183	0.0177500
697.261	0.0178739
697.339	0.0177453
697.417	0.0176884
697.495	0.0177256
697.573	0.0178419
697.651	0.0178340
697.729	0.0178960
697.808	0.0179748
697.886	0.0178462
697.964	0.0178712
698.042	0.0180695
698.120	0.0179666
698.198	0.0181674
698.276	0.0181640
698.354	0.0179961
698.433	0.0180507
698.511	0.0181223
698.589	0.0180824
698.667	0.0180450
698.745	0.0181368
698.823	0.0181155
698.901	0.0180731
698.979	0.0180702
699.058	0.0179823
699.136	0.0179881
699.214	0.0179572
699.292	0.0179498
699.370	0.0179984
699.448	0.0179610
699.526	0.0179964
699.604	0.0181551
699.683	0.0180927
699.761	0.0180225
699.839	0.0181571
699.917	0.0181480
699.995	0.0179853
700.073	0.0181049
700.151	0.0181290
700.229	0.0181180
700.308	0.0181193
700.386	0.0180595
700.464	0.0180075
700.542	0.0180489
700.620	0.0179977
700.698	0.0179573
700.776	0.0178869
700.854	0.0179910
700.933	0.0178851
701.011	0.0178510
701.089	0.0177615
701.167	0.0177920
701.245	0.0179126
701.323	0.0178824
701.401	0.0180136
701.479	0.0179919
701.558	0.0180468
701.636	0.0179270
701.714	0.0179926
701.792	0.0180655
701.870	0.0180538
701.948	0.0181194
702.026	0.0181938
702.104	0.0181055
702.183	0.0184268
702.261	0.0182436
702.339	0.0183183
702.417	0.0182182
702.495	0.0181910
702.573	0.0182372
702.651	0.0181793
702.729	0.0181769
702.808	0.0179018
702.886	0.0179854
702.964	0.0178800
703.042	0.0177134
703.120	0.0178161
703.198	0.0177208
703.276	0.0176144
703.354	0.0175755
703.433	0.0175108
703.511	0.0176666
703.589	0.0175661
703.667	0.0176198
703.745	0.0177001
703.823	0.0177803
703.901	0.0178666
703.979	0.0179241
704.058	0.0179202
704.136	0.0181599
704.214	0.0182626
704.292	0.0184715
704.370	0.0183678
704.448	0.0183907
704.526	0.0185182
704.604	0.0184226
704.683	0.0186337
704.761	0.0185074
704.839	0.0184863
704.917	0.0184682
704.995	0.0185086
705.073	0.0185007
705.151	0.0183332
705.229	0.0183395
705.308	0.0181997
705.386	0.0180128
705.464	0.0179973
705.542	0.0179464
705.620	0.0177261
705.698	0.0176346
705.776	0.0177193
705.854	0.0175429
705.933	0.0173733
706.011	0.0173534
706.089	0.0174809
706.167	0.0174287
706.245	0.0175237
706.323	0.0175536
706.401	0.0176076
706.479	0.0177161
706.558	0.0178046
706.636	0.0178824
706.714	0.0179581
706.792	0.0181812
706.870	0.0183108
706.948	0.0182780
707.026	0.0182688
707.104	0.0184311
707.183	0.0185764
707.261	0.0186129
707.339	0.0185474
707.417	0.0186904
707.495	0.0186728
707.573	0.0186245
707.651	0.0186119
707.729	0.0185517
707.808	0.0184521
707.886	0.0183852
707.964	0.0183246
708.042	0.0181501
708.120	0.0182397
708.198	0.0180885
708.276	0.0180548
708.354	0.0179627
708.433	0.0179163
708.511	0.0177942
708.589	0.0177375
708.667	0.0176000
708.745	0.0176033
708.823	0.0173388
708.901	0.0173716
708.979	0.0175182
709.058	0.0174101
709.136	0.0172766
709.214	0.0172357
709.292	0.0171623
709.370	0.0172766
709.448	0.0172673
709.526	0.0173080
709.604	0.0172739
709.683	0.0174773
709.761	0.0174490
709.839	0.0174757
709.917	0.0175922
709.995	0.0177740
710.073	0.0178631
710.151	0.0179048
710.229	0.0180465
710.308	0.0181671
710.386	0.0182023
710.464	0.0182870
710.542	0.0182715
710.620	0.0182549
710.698	0.0182094
710.776	0.0182734
710.854	0.0180846
710.933	0.0181233
711.011	0.0181184
711.089	0.0181942
711.167	0.0181004
711.245	0.0180743
711.323	0.0180228
711.401	0.0179662
711.479	0.0179436
711.558	0.0178924
711.636	0.0179082
711.714	0.0179038
711.792	0.0179379
711.870	0.0179362
711.948	0.0179542
712.026	0.0178359
712.104	0.0180134
712.183	0.0179041
712.261	0.0179067
712.339	0.0178017
712.417	0.0178076
712.495	0.0177348
712.573	0.0176948
712.651	0.0176743
712.729	0.0176343
712.808	0.0175565
712.886	0.0174470
712.964	0.0174152
713.042	0.0175842
713.120	0.0172869
713.198	0.0171919
713.276	0.0173389
713.354	0.0173842
713.433	0.0173589
713.511	0.0174269
713.589	0.0174266
713.667	0.0176838
713.745	0.0179448
713.823	0.0181528
713.901	0.0183338
713.979	0.0182912
714.058	0.0184161
714.136	0.0187007
714.214	0.0187363
714.292	0.0186648
714.370	0.0187424
714.448	0.0188158
714.526	0.0187771
714.604	0.0185544
714.683	0.0184953
714.761	0.0186011
714.839	0.0184122
714.917	0.0182207
714.995	0.0181673
715.073	0.0181131
715.151	0.0179852
715.229	0.0178204
715.308	0.0177037
715.386	0.0176166
715.464	0.0177536
715.542	0.0176126
715.620	0.0176043
715.698	0.0174703
715.776	0.0176651
715.854	0.0176566
715.933	0.0175882
716.011	0.0176807
716.089	0.0177055
716.167	0.0175856
716.245	0.0177480
716.323	0.0177360
716.401	0.0175776
716.479	0.0177327
716.558	0.0176422
716.636	0.0175684
716.714	0.0174612
716.792	0.0174326
716.870	0.0175822
716.948	0.0175574
717.026	0.0175449
717.104	0.0175130
717.183	0.0174371
717.261	0.0175551
717.339	0.0175804
717.417	0.0176032
717.495	0.0174974
717.573	0.0174708
717.651	0.0176427
717.729	0.0174236
717.808	0.0174741
717.886	0.0175803
717.964	0.0175607
718.042	0.0176945
718.120	0.0176424
718.198	0.0176208
718.276	0.0179238
718.354	0.0181537
718.433	0.0179983
718.511	0.0181561
718.589	0.0182742
718.667	0.0183538
718.745	0.0185225
718.823	0.0186538
718.901	0.0187740
718.979	0.0187989
719.058	0.0189050
719.136	0.0189455
719.214	0.0190514
719.292	0.0190562
719.370	0.0189681
719.448	0.0189723
719.526	0.0190355
719.604	0.0190530
719.683	0.0189508
719.761	0.0187981
719.839	0.0187989
719.917	0.0187536
719.995	0.0184967
720.073	0.0182510
720.151	0.0181757
720.229	0.0180923
720.308	0.0178506
720.386	0.0177213
720.464	0.0174390
720.542	0.0173017
720.620	0.0173789
720.698	0.0172363
720.776	0.0169748
720.854	0.0170820
720.933	0.0169455
721.011	0.0170261
721.089	0.0170926
721.167	0.0168422
721.245	0.0169506
721.323	0.0172095
721.401	0.0171841
721.479	0.0172770
721.558	0.0175010
721.636	0.0176514
721.714	0.0177148
721.792	0.0177071
721.870	0.0178728
721.948	0.0181079
722.026	0.0180205
722.104	0.0181521
722.183	0.0180659
722.261	0.0181787
722.339	0.0181999
722.417	0.0183472
722.495	0.0183359
722.573	0.0182750
722.651	0.0181602
722.729	0.0182043
722.808	0.0181557
722.886	0.0179620
722.964	0.0180581
723.042	0.0181179
723.120	0.0179376
723.198	0.0179852
723.276	0.0179623
723.354	0.0179153
723.433	0.0179138
723.511	0.0178326
723.589	0.0178904
723.667	0.0179682
723.745	0.0180870
723.823	0.0179019
723.901	0.0179342
723.979	0.0179549
724.058	0.0181133
724.136	0.0182096
724.214	0.0180972
724.292	0.0180726
724.370	0.0182442
724.448	0.0181592
724.526	0.0181332
724.604	0.0182901
724.683	0.0182607
724.761	0.0181990
724.839	0.0181628
724.917	0.0181300
724.995	0.0180093
725.073	0.0179230
725.151	0.0179218
725.229	0.0180259
725.308	0.0179527
725.386	0.0177975
725.464	0.0177636
725.542	0.0178279
725.620	0.0178262
725.698	0.0177052
725.776	0.0177557
725.854	0.0176910
725.933	0.0177253
726.011	0.0176197
726.089	0.0177176
726.167	0.0178154
726.245	0.0177740
726.323	0.0177350
726.401	0.0178660
726.479	0.0178623
726.558	0.0179161
726.636	0.0180491
726.714	0.0181107
726.792	0.0181083
726.870	0.0180489
726.948	0.0182027
727.026	0.0181831
727.104	0.0182097
727.183	0.0182658
727.261	0.0184158
727.339	0.0183823
727.417	0.0183827
727.495	0.0182499
727.573	0.0182350
727.651	0.0183076
727.729	0.0182369
727.808	0.0182244
727.886	0.0182516
727.964	0.0181523
728.042	0.0180483
728.120	0.0180824
728.198	0.0182098
728.276	0.0180589
728.354	0.0179793
728.433	0.0180317
728.511	0.0178523
728.589	0.0180038
728.667	0.0179955
728.745	0.0178885
728.823	0.0179223
728.901	0.0178127
728.979	0.0178270
729.058	0.0177032
729.136	0.0176670
729.214	0.0178339
729.292	0.0177663
729.370	0.0177456
729.448	0.0177364
729.526	0.0179181
729.604	0.0177912
729.683	0.0178172
729.761	0.0177579
729.839	0.0179036
729.917	0.0176946
729.995	0.0178075
730.073	0.0179062
730.151	0.0178841
730.229	0.0179186
730.308	0.0178660
730.386	0.0178098
730.464	0.0178342
730.542	0.0180473
730.620	0.0178307
730.698	0.0179004
730.776	0.0180074
730.854	0.0179422
730.933	0.0179839
731.011	0.0181090
731.089	0.0180862
731.167	0.0180378
731.245	0.0180412
731.323	0.0180565
731.401	0.0181062
731.479	0.0179532
731.558	0.0178798
731.636	0.0178798
731.714	0.0178318
731.792	0.0176291
731.870	0.0174955
731.948	0.0174873
732.026	0.0175796
732.104	0.0173692
732.183	0.0174522
732.261	0.0173721
732.339	0.0173988
732.417	0.0175681
732.495	0.0175121
732.573	0.0176736
732.651	0.0177329
732.729	0.0178845
732.808	0.0180009
732.886	0.0181886
732.964	0.0182707
733.042	0.0183754
733.120	0.0183945
733.198	0.0186231
733.276	0.0185699
733.354	0.0185192
733.433	0.0186311
733.511	0.0186513
733.589	0.0187708
733.667	0.0185110
733.745	0.0186296
733.823	0.0186674
733.901	0.0185937
733.979	0.0185355
734.058	0.0186388
734.136	0.0185451
734.214	0.0186018
734.292	0.0184902
734.370	0.0183824
734.448	0.0183540
734.526	0.0181757
734.604	0.0180276
734.683	0.0180170
734.761	0.0178374
734.839	0.0176756
734.917	0.0174938
734.995	0.0173136
735.073	0.0172453
735.151	0.0172811
735.229	0.0171991
735.308	0.0169675
735.386	0.0169131
735.464	0.0168647
735.542	0.0168488
735.620	0.0167982
735.698	0.0169209
735.776	0.0168797
735.854	0.0168781
735.933	0.0168515
736.011	0.0168275
736.089	0.0170637
736.167	0.0172018
736.245	0.0172753
736.323	0.0172631
736.401	0.0174615
736.479	0.0176096
736.558	0.0176657
736.636	0.0178839
736.714	0.0182383
736.792	0.0184351
736.870	0.0184072
736.948	0.0183808
737.026	0.0184500
737.104	0.0185427
737.183	0.0186173
737.261	0.0185700
737.339	0.0186849
737.417	0.0185411
737.495	0.0184376
737.573	0.0185350
737.651	0.0184715
737.729	0.0183301
737.808	0.0183310
737.886	0.0182814
737.964	0.0183450
738.042	0.0183408
738.120	0.0183813
738.198	0.0182314
738.276	0.0183003
738.354	0.0182858
738.433	0.0181374
738.511	0.0180173
738.589	0.0180677
738.667	0.0180448
738.745	0.0180175
738.823	0.0179561
738.901	0.0179062
738.979	0.0179217
739.058	0.0179047
739.136	0.0176825
739.214	0.0175679
739.292	0.0175958
739.370	0.0176460
739.448	0.0177383
739.526	0.0175240
739.604	0.0176338
739.683	0.0176306
739.761	0.0176844
739.839	0.0176788
739.917	0.0177905
739.995	0.0177728
740.073	0.0178137
740.151	0.0179356
740.229	0.0177571
740.308	0.0178515
740.386	0.0178218
740.464	0.0180011
740.542	0.0179138
740.620	0.0178796
740.698	0.0178162
740.776	0.0178208
740.854	0.0178886
740.933	0.0177673
741.011	0.0176707
741.089	0.0177132
741.167	0.0177713
741.245	0.0177932
741.323	0.0177089
741.401	0.0177138
741.479	0.0177824
741.558	0.0179160
741.636	0.0178798
741.714	0.0178307
741.792	0.0179004
741.870	0.0181038
741.948	0.0182086
742.026	0.0181222
742.104	0.0180544
742.183	0.0182251
742.261	0.0180097
742.339	0.0181640
742.417	0.0181842
742.495	0.0181602
742.573	0.0180883
742.651	0.0182198
742.729	0.0181407
742.808	0.0181923
742.886	0.0182647
742.964	0.0182418
743.042	0.0182560
743.120	0.0183467
743.198	0.0181322
743.276	0.0183444
743.354	0.0184208
743.433	0.0183965
743.511	0.0183707
743.589	0.0183110
743.667	0.0182991
743.745	0.0183389
743.823	0.0182481
743.901	0.0181344
743.979	0.0180870
744.058	0.0180793
744.136	0.0180422
744.214	0.0177845
744.292	0.0178601
744.370	0.0176590
744.448	0.0176702
744.526	0.0176658
744.604	0.0175276
744.683	0.0177211
744.761	0.0175737
744.839	0.0176522
744.917	0.0175578
744.995	0.0175603
745.073	0.0174746
745.151	0.0175925
745.229	0.0175920
745.308	0.0175132
745.386	0.0174822
745.464	0.0176163
745.542	0.0177477
745.620	0.0176110
745.698	0.0176349
745.776	0.0176416
745.854	0.0176255
745.933	0.0176988
746.011	0.0174997
746.089	0.0176598
746.167	0.0177275
746.245	0.0176093
746.323	0.0176993
746.401	0.0177106
746.479	0.0176794
746.558	0.0178948
746.636	0.0179176
746.714	0.0178539
746.792	0.0180079
746.870	0.0180134
746.948	0.0181659
747.026	0.0181672
747.104	0.0184164
747.183	0.0182713
747.261	0.0184528
747.339	0.0184043
747.417	0.0185918
747.495	0.0186004
747.573	0.0185438
747.651	0.0186360
747.729	0.0184947
747.808	0.0185118
747.886	0.0184750
747.964	0.0183208
748.042	0.0184487
748.120	0.0182799
748.198	0.0181754
748.276	0.0183704
748.354	0.0182708
748.433	0.0179655
748.511	0.0179607
748.589	0.0179980
748.667	0.0178625
748.745	0.0179601
748.823	0.0178487
748.901	0.0177721
748.979	0.0178986
749.058	0.0177642
749.136	0.0178454
749.214	0.0177710
749.292	0.0178961
749.370	0.0178977
749.448	0.0178288
749.526	0.0178684
749.604	0.0178687
749.683	0.0179915
749.761	0.0177871
749.839	0.0178166
749.917	0.0178835
749.995	0.0179725
750.073	0.0177567
750.151	0.0177398
750.229	0.0177621
750.308	0.0177983
750.386	0.0176731
750.464	0.0177461
750.542	0.0177098
750.620	0.0176866
750.698	0.0177560
750.776	0.0177871
750.854	0.0176468
750.933	0.0175821
751.011	0.0177097
751.089	0.0176328
751.167	0.0176371
751.245	0.0177023
751.323	0.0177332
751.401	0.0178227
751.479	0.0176662
751.558	0.0177746
751.636	0.0177402
751.714	0.0176208
751.792	0.0177943
751.870	0.0178020
751.948	0.0177357
752.026	0.0176246
752.104	0.0178839
752.183	0.0179655
752.261	0.0178017
752.339	0.0179288
752.417	0.0178909
752.495	0.0179279
752.573	0.0179299
752.651	0.0179562
752.729	0.0177935
752.808	0.0179652
752.886	0.0181326
752.964	0.0180685
753.042	0.0180256
753.120	0.0180888
753.198	0.0182047
753.276	0.0182546
753.354	0.0181464
753.433	0.0183480
753.511	0.0183764
753.589	0.0182514
753.667	0.0184650
753.745	0.0184929
753.823	0.0184456
753.901	0.0184953
753.979	0.0186320
754.058	0.0184653
754.136	0.0184580
754.214	0.0183771
754.292	0.0183526
754.370	0.0182227
754.448	0.0181923
754.526	0.0182742
754.604	0.0181010
754.683	0.0179352
754.761	0.0179840
754.839	0.0178467
754.917	0.0178910
754.995	0.0177260
755.073	0.0178822
755.151	0.0177438
755.229	0.0177995
755.308	0.0177978
755.386	0.0178526
755.464	0.0177178
755.542	0.0177771
755.620	0.0176128
755.698	0.0176585
755.776	0.0176599
755.854	0.0178255
755.933	0.0176089
756.011	0.0175704
756.089	0.0174532
756.167	0.0175352
756.245	0.0175808
756.323	0.0175386
756.401	0.0174706
756.479	0.0173698
756.558	0.0174113
756.636	0.0173293
756.714	0.0173899
756.792	0.0176263
756.870	0.0175168
756.948	0.0175021
757.026	0.0176192
757.104	0.0176060
757.183	0.0176886
757.261	0.0176926
757.339	0.0176317
757.417	0.0175774
757.495	0.0177313
757.573	0.0177634
757.651	0.0178687
757.729	0.0177277
757.808	0.0178078
757.886	0.0178773
757.964	0.0178059
758.042	0.0178159
758.120	0.0178020
758.198	0.0178604
758.276	0.0180811
758.354	0.0179973
758.433	0.0180696
758.511	0.0181292
758.589	0.0180591
758.667	0.0179893
758.745	0.0181448
758.823	0.0181482
758.901	0.0181633
758.979	0.0182299
759.058	0.0182835
759.136	0.0182632
759.214	0.0181824
759.292	0.0182286
759.370	0.0182619
759.448	0.0182398
759.526	0.0181596
759.604	0.0182028
759.683	0.0182176
759.761	0.0182228
759.839	0.0181127
759.917	0.0182320
759.995	0.0182874
760.073	0.0181687
760.151	0.0182540
760.229	0.0180192
760.308	0.0180135
760.386	0.0179370
760.464	0.0179429
760.542	0.0179388
760.620	0.0178807
760.698	0.0177546
760.776	0.0177850
760.854	0.0177314
760.933	0.0177777
761.011	0.0177618
761.089	0.0176076
761.167	0.0174730
761.245	0.0175143
761.323	0.0175725
761.401	0.0175964
761.479	0.0174648
761.558	0.0176505
761.636	0.0174482
761.714	0.0174571
761.792	0.0175811
761.870	0.0176909
761.948	0.0175249
762.026	0.0176515
762.104	0.0176730
762.183	0.0177048
762.261	0.0177961
762.339	0.0178200
762.417	0.0178528
762.495	0.0177784
762.573	0.0180274
762.651	0.0180351
762.729	0.0180389
762.808	0.0179276
762.886	0.0180829
762.964	0.0180706
763.042	0.0181344
763.120	0.0179959
763.198	0.0181253
763.276	0.0181392
763.354	0.0181218
763.433	0.0180513
763.511	0.0181134
763.589	0.0181888
763.667	0.0181542
763.745	0.0182317
763.823	0.0181863
763.901	0.0180547
763.979	0.0181921
764.058	0.0181682
764.136	0.0180633
764.214	0.0180369
764.292	0.0181642
764.370	0.0181513
764.448	0.0179594
764.526	0.0179515
764.604	0.0179654
764.683	0.0179500
764.761	0.0178822
764.839	0.0179552
764.917	0.0178735
764.995	0.0178528
765.073	0.0178049
765.151	0.0177336
765.229	0.0177840
765.308	0.0179953
765.386	0.0178423
765.464	0.0179565
765.542	0.0178242
765.620	0.0179838
765.698	0.0180244
765.776	0.0179959
765.854	0.0179876
765.933	0.0181046
766.011	0.0182230
766.089	0.0180337
766.167	0.0180939
766.245	0.0181699
766.323	0.0181513
766.401	0.0181974
766.479	0.0181891
766.558	0.0181740
766.636	0.0180148
766.714	0.0179324
766.792	0.0181007
766.870	0.0181967
766.948	0.0180515
767.026	0.0178554
767.104	0.0179953
767.183	0.0179153
767.261	0.0178448
767.339	0.0179613
767.417	0.0178604
767.495	0.0176376
767.573	0.0176956
767.651	0.0177083
767.729	0.0176786
767.808	0.0176683
767.886	0.0177647
767.964	0.0177838
768.042	0.0178673
768.120	0.0179176
768.198	0.0179989
768.276	0.0181173
768.354	0.0180446
768.433	0.0180219
768.511	0.0181583
768.589	0.0181680
768.667	0.0181332
768.745	0.0182201
768.823	0.0181635
768.901	0.0181962
768.979	0.0182909
769.058	0.0181252
769.136	0.0180632
769.214	0.0180385
769.292	0.0180527
769.370	0.0180819
769.448	0.0180592
769.526	0.0179919
769.604	0.0179558
769.683	0.0181449
769.761	0.0179360
769.839	0.0178535
769.917	0.0177890
769.995	0.0179360
770.073	0.0177191
770.151	0.0178088
770.229	0.0178030
770.308	0.0178667
770.386	0.0177902
770.464	0.0177858
770.542	0.0177639
770.620	0.0177781
770.698	0.0178937
770.776	0.0177688
770.854	0.0178070
770.933	0.0178490
771.011	0.0178737
771.089	0.0179236
771.167	0.0179616
771.245	0.0179137
771.323	0.0178680
771.401	0.0177991
771.479	0.0178954
771.558	0.0179723
771.636	0.0178540
771.714	0.0179605
771.792	0.0180652
771.870	0.0179264
771.948	0.0179530
772.026	0.0181960
772.104	0.0180744
772.183	0.0181209
772.261	0.0181729
772.339	0.0180283
772.417	0.0179742
772.495	0.0180929
772.573	0.0180011
772.651	0.0179063
772.729	0.0178445
772.808	0.0177138
772.886	0.0179073
772.964	0.0178241
773.042	0.0177684
773.120	0.0176047
773.198	0.0176553
773.276	0.0176720
773.354	0.0176696
773.433	0.0177166
773.511	0.0177366
773.589	0.0178668
773.667	0.0177705
773.745	0.0177751
773.823	0.0178751
773.901	0.0179681
773.979	0.0179754
774.058	0.0181012
774.136	0.0180929
774.214	0.0181845
774.292	0.0181487
774.370	0.0181428
774.448	0.0182450
774.526	0.0182430
774.604	0.0183005
774.683	0.0181119
774.761	0.0181129
774.839	0.0181815
774.917	0.0181869
774.995	0.0182143
775.073	0.0180034
775.151	0.0180894
775.229	0.0180044
775.308	0.0179440
775.386	0.0178893
775.464	0.0179038
775.542	0.0181751
775.620	0.0180250
775.698	0.0180377
775.776	0.0179354
775.854	0.0180300
775.933	0.0180820
776.011	0.0180011
776.089	0.0180746
776.167	0.0180335
776.245	0.0179001
776.323	0.0178474
776.401	0.0180716
776.479	0.0179794
776.558	0.0178952
776.636	0.0178231
776.714	0.0178880
776.792	0.0178998
776.870	0.0178227
776.948	0.0177912
777.026	0.0177570
777.104	0.0177734
777.183	0.0176578
777.261	0.0177649
777.339	0.0176906
777.417	0.0177361
777.495	0.0176139
777.573	0.0175971
777.651	0.0175560
777.729	0.0176361
777.808	0.0176468
777.886	0.0177628
777.964	0.0177855
778.042	0.0177637
778.120	0.0176421
778.198	0.0178508
778.276	0.0178375
778.354	0.0178246
778.433	0.0177904
778.511	0.0178015
778.589	0.0177734
778.667	0.0179053
778.745	0.0179050
778.823	0.0179016
778.901	0.0178922
778.979	0.0178197
779.058	0.0179259
779.136	0.0179914
779.214	0.0179648
779.292	0.0180192
779.370	0.0179379
779.448	0.0179734
779.526	0.0180652
779.604	0.0178760
779.683	0.0179253
779.761	0.0178876
779.839	0.0179597
779.917	0.0179008
779.995	0.0178918
780.073	0.0177995
780.151	0.0178406
780.229	0.0179276
780.308	0.0178704
780.386	0.0179745
780.464	0.0178945
780.542	0.0176957
780.620	0.0178356
780.698	0.0179408
780.776	0.0176785
780.854	0.0177805
780.933	0.0177986
781.011	0.0179880
781.089	0.0179652
781.167	0.0177863
781.245	0.0180442
781.323	0.0179919
781.401	0.0179688
781.479	0.0180040
781.558	0.0180102
781.636	0.0179299
781.714	0.0178951
781.792	0.0179136
781.870	0.0181030
781.948	0.0180695
782.026	0.0179035
782.104	0.0180285
782.183	0.0179482
782.261	0.0179640
782.339	0.0179717
782.417	0.0180356
782.495	0.0179668
782.573	0.0179861
782.651	0.0179788
782.729	0.0178379
782.808	0.0179387
782.886	0.0179082
782.964	0.0179154
783.042	0.0179173
783.120	0.0178185
783.198	0.0178996
783.276	0.0178015
783.354	0.0178140
783.433	0.0177457
783.511	0.0176550
783.589	0.0177205
783.667	0.0178515
783.745	0.0177850
783.823	0.0178477
783.901	0.0177319
783.979	0.0178294
784.058	0.0178238
784.136	0.0175758
784.214	0.0177887
784.292	0.0178651
784.370	0.0178108
784.448	0.0177928
784.526	0.0178249
784.604	0.0179329
784.683	0.0178202
784.761	0.0178516
784.839	0.0178453
784.917	0.0179021
784.995	0.0178069
785.073	0.0178203
785.151	0.0177595
785.229	0.0178664
785.308	0.0178629
785.386	0.0178807
785.464	0.0176792
785.542	0.0178460
785.620	0.0177750
785.698	0.0179230
785.776	0.0179029
785.854	0.0178834
785.933	0.0179926
786.011	0.0180692
786.089	0.0178749
786.167	0.0179768
786.245	0.0179579
786.323	0.0181972
786.401	0.0180575
786.479	0.0180891
786.558	0.0180997
786.636	0.0182077
786.714	0.0180391
786.792	0.0180341
786.870	0.0181251
786.948	0.0180931
787.026	0.0181354
787.104	0.0181232
787.183	0.0180088
787.261	0.0178790
787.339	0.0178562
787.417	0.0179947
787.495	0.0178996
787.573	0.0179053
787.651	0.0177788
787.729	0.0178263
787.808	0.0177706
787.886	0.0177309
787.964	0.0176400
788.042	0.0177935
788.120	0.0179654
788.198	0.0177624
788.276	0.0176994
788.354	0.0177319
788.433	0.0177562
788.511	0.0177024
788.589	0.0178135
788.667	0.0177560
788.745	0.0177216
788.823	0.0178130
788.901	0.0180647
788.979	0.0179831
789.058	0.0177408
789.136	0.0179924
789.214	0.0180772
789.292	0.0181094
789.370	0.0180074
789.448	0.0180911
789.526	0.0182473
789.604	0.0181966
789.683	0.0181042
789.761	0.0181129
789.839	0.0182599
789.917	0.0180779
789.995	0.0179765
790.073	0.0180818
790.151	0.0180848
790.229	0.0180193
790.308	0.0181800
790.386	0.0179895
790.464	0.0178593
790.542	0.0180746
790.620	0.0180878
790.698	0.0178464
790.776	0.0177848
790.854	0.0178194
790.933	0.0178053
791.011	0.0178082
791.089	0.0178237
791.167	0.0178039
791.245	0.0177355
791.323	0.0177183
791.401	0.0178030
791.479	0.0178085
791.558	0.0177360
791.636	0.0177263
791.714	0.0177976
791.792	0.0179280
791.870	0.0178955
791.948	0.0178773
792.026	0.0177936
792.104	0.0179400
792.183	0.0179217
792.261	0.0180215
792.339	0.0179756
792.417	0.0180354
792.495	0.0180411
792.573	0.0179788
792.651	0.0180247
792.729	0.0179277
792.808	0.0181763
792.886	0.0181534
792.964	0.0181216
793.042	0.0181554
793.120	0.0180228
793.198	0.0180971
793.276	0.0181788
793.354	0.0182555
793.433	0.0180272
793.511	0.0179441
793.589	0.0178747
793.667	0.0179002
793.745	0.0177894
793.823	0.0179601
793.901	0.0178664
793.979	0.0178634
794.058	0.0178179
794.136	0.0178165
794.214	0.0178827
794.292	0.0178274
794.370	0.0179181
794.448	0.0177149
794.526	0.0179655
794.604	0.0178716
794.683	0.0178192
794.761	0.0180426
794.839	0.0181680
794.917	0.0180813
794.995	0.0179356
795.073	0.0179652
795.151	0.0180161
795.229	0.0180602
795.308	0.0180679
795.386	0.0178963
795.464	0.0179092
795.542	0.0180659
795.620	0.0178168
795.698	0.0179951
795.776	0.0180560
795.854	0.0178614
795.933	0.0179690
796.011	0.0180566
796.089	0.0180831
796.167	0.0179706
796.245	0.0179977
796.323	0.0181002
796.401	0.0179624
796.479	0.0179467
796.558	0.0180798
796.636	0.0179804
796.714	0.0179961
796.792	0.0179790
796.870	0.0179152
796.948	0.0179137
797.026	0.0179636
797.104	0.0179932
797.183	0.0179701
797.261	0.0181627
797.339	0.0179757
797.417	0.0179908
797.495	0.0180859
797.573	0.0179926
797.651	0.0180101
797.729	0.0179870
797.808	0.0180924
797.886	0.0181493
797.964	0.0180013
798.042	0.0180457
798.120	0.0180797
798.198	0.0180613
798.276	0.0180840
798.354	0.0181295
798.433	0.0179907
798.511	0.0179279
798.589	0.0178637
798.667	0.0179900
798.745	0.0178979
798.823	0.0180471
798.901	0.0178714
798.979	0.0178796
799.058	0.0180046
799.136	0.0178317
799.214	0.0179649
799.292	0.0178903
799.370	0.0180328
799.448	0.0179105
799.526	0.0178307
799.604	0.0180351
799.683	0.0180089
799.761	0.0179150
799.839	0.0178278
799.917	0.0178696
799.995	0.0180247
800.073	0.0177151
800.151	0.0178475
800.229	0.0179128
800.308	0.0178629
800.386	0.0176299
800.464	0.0177409
800.542	0.0177656
800.620	0.0178300
800.698	0.0177503
800.776	0.0176537
800.854	0.0178850
800.933	0.0178318
801.011	0.0177972
801.089	0.0178916
801.167	0.0178810
801.245	0.0180257
801.323	0.0180473
801.401	0.0178567
801.479	0.0180990
801.558	0.0179623
801.636	0.0179203
801.714	0.0180336
801.792	0.0178335
801.870	0.0179901
801.948	0.0180287
802.026	0.0180505
802.104	0.0179830
802.183	0.0179468
802.261	0.0181168
802.339	0.0179649
802.417	0.0180231
802.495	0.0181259
802.573	0.0180172
802.651	0.0179798
802.729	0.0179248
802.808	0.0179862
802.886	0.0179076
802.964	0.0180591
803.042	0.0179343
803.120	0.0178173
803.198	0.0180221
803.276	0.0178024
803.354	0.0180287
803.433	0.0178795
803.511	0.0178391
803.589	0.0176632
803.667	0.0178993
803.745	0.0178017
803.823	0.0180243
803.901	0.0178745
803.979	0.0178432
804.058	0.0179273
804.136	0.0179573
804.214	0.0178017
804.292	0.0179716
804.370	0.0180714
804.448	0.0180084
804.526	0.0179354
804.604	0.0178587
804.683	0.0179296
804.761	0.0180527
804.839	0.0179962
804.917	0.0178611
804.995	0.0180087
805.073	0.0177755
805.151	0.0179389
805.229	0.0178697
805.308	0.0179270
805.386	0.0178828
805.464	0.0178378
805.542	0.0179364
805.620	0.0179076
805.698	0.0179792
805.776	0.0178503
805.854	0.0179076
805.933	0.0178557
806.011	0.0179333
806.089	0.0179331
806.167	0.0177580
806.245	0.0179942
806.323	0.0179325
806.401	0.0179398
806.479	0.0178873
806.558	0.0176222
806.636	0.0177386
806.714	0.0176451
806.792	0.0178051
806.870	0.0177918
806.948	0.0177383
807.026	0.0178271
807.104	0.0176809
807.183	0.0178468
807.261	0.0178137
807.339	0.0178307
807.417	0.0177836
807.495	0.0178280
807.573	0.0177473
807.651	0.0178844
807.729	0.0178925
807.808	0.0177990
807.886	0.0179725
807.964	0.0178307
808.042	0.0178616
808.120	0.0180473
808.198	0.0180656
808.276	0.0179866
808.354	0.0179942
808.433	0.0180999
808.511	0.0179599
808.589	0.0178862
808.667	0.0181103
808.745	0.0180528
808.823	0.0179076
808.901	0.0180173
808.979	0.0180791
809.058	0.0180267
809.136	0.0179341
809.214	0.0179958
809.292	0.0179969
809.370	0.0179219
809.448	0.0178529
809.526	0.0178217
809.604	0.0179021
809.683	0.0178453
809.761	0.0179861
809.839	0.0179321
809.917	0.0177661
809.995	0.0177924
810.073	0.0178631
810.151	0.0177732
810.229	0.0179412
810.308	0.0178800
810.386	0.0179108
810.464	0.0179359
810.542	0.0178835
810.620	0.0178784
810.698	0.0179667
810.776	0.0179507
810.854	0.0180019
810.933	0.0179253
811.011	0.0178949
811.089	0.0178986
811.167	0.0180059
811.245	0.0180823
811.323	0.0179868
811.401	0.0178836
811.479	0.0178159
811.558	0.0177881
811.636	0.0178512
811.714	0.0177481
811.792	0.0177535
811.870	0.0177596
811.948	0.0177682
812.026	0.0177770
812.104	0.0178579
812.183	0.0177483
812.261	0.0178101
812.339	0.0178911
812.417	0.0177327
812.495	0.0177803
812.573	0.0178181
812.651	0.0178677
812.729	0.0178829
812.808	0.0179052
812.886	0.0178018
812.964	0.0177821
813.042	0.0178657
813.120	0.0178892
813.198	0.0177172
813.276	0.0179528
813.354	0.0179155
813.433	0.0178216
813.511	0.0176820
813.589	0.0178132
813.667	0.0179665
813.745	0.0178402
813.823	0.0177789
813.901	0.0177377
813.979	0.0177374
814.058	0.0178808
814.136	0.0179646
814.214	0.0178137
814.292	0.0179650
814.370	0.0179991
814.448	0.0180522
814.526	0.0179586
814.604	0.0180668
814.683	0.0180952
814.761	0.0179834
814.839	0.0181260
814.917	0.0180890
814.995	0.0178718
815.073	0.0179620
815.151	0.0179506
815.229	0.0179950
815.308	0.0179280
815.386	0.0178313
815.464	0.0178542
815.542	0.0179784
815.620	0.0177339
815.698	0.0180058
815.776	0.0178045
815.854	0.0179424
815.933	0.0179914
816.011	0.0178777
816.089	0.0178072
816.167	0.0180339
816.245	0.0181557
816.323	0.0180041
816.401	0.0181908
816.479	0.0180853
816.558	0.0180836
816.636	0.0181198
816.714	0.0181819
816.792	0.0181680
816.870	0.0180894
816.948	0.0182598
817.026	0.0181435
817.104	0.0181712
817.183	0.0180771
817.261	0.0180973
817.339	0.0180405
817.417	0.0179724
817.495	0.0179561
817.573	0.0180009
817.651	0.0178361
817.729	0.0178815
817.808	0.0179038
817.886	0.0178444
817.964	0.0178836
818.042	0.0179012
818.120	0.0178651
818.198	0.0177552
818.276	0.0178188
818.354	0.0178413
818.433	0.0178499
818.511	0.0177867
818.589	0.0177882
818.667	0.0178117
818.745	0.0179350
818.823	0.0178029
818.901	0.0178752
818.979	0.0178958
819.058	0.0179433
819.136	0.0178549
819.214	0.0178769
819.292	0.0177851
819.370	0.0178221
819.448	0.0177935
819.526	0.0179027
819.604	0.0179471
819.683	0.0179823
819.761	0.0180166
819.839	0.0179221
819.917	0.0180310
819.995	0.0180711
820.073	0.0181571
820.151	0.0181004
820.229	0.0182600
820.308	0.0182702
820.386	0.0182449
820.464	0.0180817
820.542	0.0182165
820.620	0.0183180
820.698	0.0183327
820.776	0.0181270
820.854	0.0181149
820.933	0.0182616
821.011	0.0179830
821.089	0.0181977
821.167	0.0183223
821.245	0.0181866
821.323	0.0181947
821.401	0.0181207
821.479	0.0181094
821.558	0.0181005
821.636	0.0180014
821.714	0.0178468
821.792	0.0180816
821.870	0.0180471
821.948	0.0180145
822.026	0.0179588
822.104	0.0178590
822.183	0.0178197
822.261	0.0179616
822.339	0.0178849
822.417	0.0179044
822.495	0.0179346
822.573	0.0180746
822.651	0.0177435
822.729	0.0179095
822.808	0.0178855
822.886	0.0178500
822.964	0.0177747
823.042	0.0178986
823.120	0.0178527
823.198	0.0179610
823.276	0.0179647
823.354	0.0180373
823.433	0.0179186
823.511	0.0180426
823.589	0.0180598
823.667	0.0180674
823.745	0.0180568
823.823	0.0181129
823.901	0.0180566
823.979	0.0180202
824.058	0.0180602
824.136	0.0180912
824.214	0.0180061
824.292	0.0181325
824.370	0.0182960
824.448	0.0181157
824.526	0.0179919
824.604	0.0179015
824.683	0.0179352
824.761	0.0180713
824.839	0.0179861
824.917	0.0179681
824.995	0.0179169
825.073	0.0179988
825.151	0.0181111
825.229	0.0179132
825.308	0.0179627
825.386	0.0180140
825.464	0.0180376
825.542	0.0179668
825.620	0.0179881
825.698	0.0178841
825.776	0.0180449
825.854	0.0178139
825.933	0.0178443
826.011	0.0180577
826.089	0.0178793
826.167	0.0178306
826.245	0.0179578
826.323	0.0181134
826.401	0.0179443
826.479	0.0179881
826.558	0.0178424
826.636	0.0179305
826.714	0.0178450
826.792	0.0179153
826.870	0.0178161
826.948	0.0180096
827.026	0.0179480
827.104	0.0179551
827.183	0.0180099
827.261	0.0180714
827.339	0.0179145
827.417	0.0179426
827.495	0.0179227
827.573	0.0178654
827.651	0.0179008
827.729	0.0179842
827.808	0.0179790
827.886	0.0180405
827.964	0.0180163
828.042	0.0179408
828.120	0.0178783
828.198	0.0179978
828.276	0.0179082
828.354	0.0178251
828.433	0.0178905
828.511	0.0179733
828.589	0.0179594
828.667	0.0179066
828.745	0.0179756
828.823	0.0180243
828.901	0.0180854
828.979	0.0180637
829.058	0.0180195
829.136	0.0180225
829.214	0.0180337
829.292	0.0181071
829.370	0.0179427
829.448	0.0179639
829.526	0.0181393
829.604	0.0180581
829.683	0.0179385
829.761	0.0181142
829.839	0.0181103
829.917	0.0179876
829.995	0.0178753
830.073	0.0179881
830.151	0.0178822
830.229	0.0180164
830.308	0.0181641
830.386	0.0179519
830.464	0.0177967
830.542	0.0179366
830.620	0.0179869
830.698	0.0179263
830.776	0.0178298
830.854	0.0179398
830.933	0.0178596
831.011	0.0178644
831.089	0.0177027
831.167	0.0179047
831.245	0.0178983
831.323	0.0179399
831.401	0.0178890
831.479	0.0179189
831.558	0.0179687
831.636	0.0178777
831.714	0.0179276
831.792	0.0179511
831.870	0.0178377
831.948	0.0180135
832.026	0.0179527
832.104	0.0178765
832.183	0.0179871
832.261	0.0178615
832.339	0.0177734
832.417	0.0177667
832.495	0.0179261
832.573	0.0178787
832.651	0.0179875
832.729	0.0178899
832.808	0.0179018
832.886	0.0179930
832.964	0.0179929
833.042	0.0179614
833.120	0.0178946
833.198	0.0179622
833.276	0.0179172
833.354	0.0179484
833.433	0.0179155
833.511	0.0180264
833.589	0.0180793
833.667	0.0179708
833.745	0.0180686
833.823	0.0179255
833.901	0.0180713
833.979	0.0179781
834.058	0.0178389
834.136	0.0179668
834.214	0.0179743
834.292	0.0180223
834.370	0.0179166
834.448	0.0179456
834.526	0.0179055
834.604	0.0178520
834.683	0.0178692
834.761	0.0178662
834.839	0.0179304
834.917	0.0179664
834.995	0.0179805
835.073	0.0179408
835.151	0.0178008
835.229	0.0178545
835.308	0.0177213
835.386	0.0179061
835.464	0.0179324
835.542	0.0179217
835.620	0.0179005
835.698	0.0178166
835.776	0.0178011
835.854	0.0179675
835.933	0.0179488
836.011	0.0178827
836.089	0.0179023
836.167	0.0179554
836.245	0.0179894
836.323	0.0180231
836.401	0.0179840
836.479	0.0179175
836.558	0.0178882
836.636	0.0181316
836.714	0.0179689
836.792	0.0179075
836.870	0.0178985
836.948	0.0180212
837.026	0.0179604
837.104	0.0178878
837.183	0.0178668
837.261	0.0179392
837.339	0.0179354
837.417	0.0179724
837.495	0.0179301
837.573	0.0179935
837.651	0.0179088
837.729	0.0177911
837.808	0.0178565
837.886	0.0179201
837.964	0.0178310
838.042	0.0179009
838.120	0.0177692
838.198	0.0177842
838.276	0.0179721
838.354	0.0178101
838.433	0.0178440
838.511	0.0177789
838.589	0.0178073
838.667	0.0177246
838.745	0.0177911
838.823	0.0177415
838.901	0.0177982
838.979	0.0178116
839.058	0.0177747
839.136	0.0176273
839.214	0.0176685
839.292	0.0177383
839.370	0.0177120
839.448	0.0177501
839.526	0.0177967
839.604	0.0177628
839.683	0.0178741
839.761	0.0178305
839.839	0.0177849
839.917	0.0177586
839.995	0.0178629
840.073	0.0177689
840.151	0.0178078
840.229	0.0178071
840.308	0.0178601
840.386	0.0179137
840.464	0.0177995
840.542	0.0178591
840.620	0.0177884
840.698	0.0177792
840.776	0.0179348
840.854	0.0177949
840.933	0.0178632
841.011	0.0178365
841.089	0.0179224
841.167	0.0178560
841.245	0.0179270
841.323	0.0178687
841.401	0.0179086
841.479	0.0178705
841.558	0.0177303
841.636	0.0177868
841.714	0.0179051
841.792	0.0178490
841.870	0.0178545
841.948	0.0178387
842.026	0.0179050
842.104	0.0177044
842.183	0.0178229
842.261	0.0177970
842.339	0.0178591
842.417	0.0179627
842.495	0.0177551
842.573	0.0178100
842.651	0.0179916
842.729	0.0177305
842.808	0.0179864
842.886	0.0179454
842.964	0.0178590
843.042	0.0180486
843.120	0.0179660
843.198	0.0178619
843.276	0.0178514
843.354	0.0178967
843.433	0.0179209
843.511	0.0179849
843.589	0.0179012
843.667	0.0178640
843.745	0.0179709
843.823	0.0178990
843.901	0.0181071
843.979	0.0179293
844.058	0.0179942
844.136	0.0180740
844.214	0.0181112
844.292	0.0181451
844.370	0.0180396
844.448	0.0180828
844.526	0.0181374
844.604	0.0182330
844.683	0.0181519
844.761	0.0181256
844.839	0.0181243
844.917	0.0181421
844.995	0.0180331
845.073	0.0180014
845.151	0.0180795
845.229	0.0179103
845.308	0.0180678
845.386	0.0181928
845.464	0.0180789
845.542	0.0181075
845.620	0.0180677
845.698	0.0179957
845.776	0.0180067
845.854	0.0179560
845.933	0.0180154
846.011	0.0179333
846.089	0.0179197
846.167	0.0180206
846.245	0.0178911
846.323	0.0179108
846.401	0.0179541
846.479	0.0178975
846.558	0.0178846
846.636	0.0179133
846.714	0.0177975
846.792	0.0178989
846.870	0.0178986
846.948	0.0177856
847.026	0.0177794
847.104	0.0176583
847.183	0.0177746
847.261	0.0178239
847.339	0.0178711
847.417	0.0178440
847.495	0.0177401
847.573	0.0177845
847.651	0.0179185
847.729	0.0179244
847.808	0.0179495
847.886	0.0180456
847.964	0.0178447
848.042	0.0180515
848.120	0.0178031
848.198	0.0180180
848.276	0.0180894
848.354	0.0179936
848.433	0.0180395
848.511	0.0181544
848.589	0.0180324
848.667	0.0182141
848.745	0.0182191
848.823	0.0180384
848.901	0.0182413
848.979	0.0182271
849.058	0.0181032
849.136	0.0181662
849.214	0.0180916
849.292	0.0181511
849.370	0.0182026
849.448	0.0181118
849.526	0.0181274
849.604	0.0180444
849.683	0.0180490
849.761	0.0180167
849.839	0.0178593
849.917	0.0180518
849.995	0.0180984
850.073	0.0179642
850.151	0.0179471
850.229	0.0179202
850.308	0.0180164
850.386	0.0179721
850.464	0.0179980
850.542	0.0179413
850.620	0.0179900
850.698	0.0181116
850.776	0.0180531
850.854	0.0179844
850.933	0.0179613
851.011	0.0180840
851.089	0.0179260
851.167	0.0177859
851.245	0.0180793
851.323	0.0179585
851.401	0.0179144
851.479	0.0180048
851.558	0.0179333
851.636	0.0178722
851.714	0.0179472
851.792	0.0179555
851.870	0.0177662
851.948	0.0179482
852.026	0.0180267
852.104	0.0179153
852.183	0.0179144
852.261	0.0179268
852.339	0.0179099
852.417	0.0179369
852.495	0.0178363
852.573	0.0179977
852.651	0.0180440
852.729	0.0178252
852.808	0.0179467
852.886	0.0180020
852.964	0.0180183
853.042	0.0179379
853.120	0.0179745
853.198	0.0179917
853.276	0.0180590
853.354	0.0179233
853.433	0.0179551
853.511	0.0178915
853.589	0.0178188
853.667	0.0179195
853.745	0.0179909
853.823	0.0180873
853.901	0.0180779
853.979	0.0180304
854.058	0.0179476
854.136	0.0179144
854.214	0.0178554
854.292	0.0178497
854.370	0.0178581
854.448	0.0179794
854.526	0.0180505
854.604	0.0181958
854.683	0.0180276
854.761	0.0179334
854.839	0.0179664
854.917	0.0180373
854.995	0.0179050
855.073	0.0179003
855.151	0.0180350
855.229	0.0179590
855.308	0.0180632
855.386	0.0179955
855.464	0.0178857
855.542	0.0181400
855.620	0.0179214
855.698	0.0179967
855.776	0.0179185
855.854	0.0180304
855.933	0.0180875
856.011	0.0180502
856.089	0.0179092
856.167	0.0179238
856.245	0.0179344
856.323	0.0179687
856.401	0.0180045
856.479	0.0179533
856.558	0.0179432
856.636	0.0178324
856.714	0.0179401
856.792	0.0179658
856.870	0.0178715
856.948	0.0177165
857.026	0.0178568
857.104	0.0179350
857.183	0.0179868
857.261	0.0179551
857.339	0.0177858
857.417	0.0177792
857.495	0.0179390
857.573	0.0180514
857.651	0.0177772
857.729	0.0178276
857.808	0.0179301
857.886	0.0177385
857.964	0.0177505
858.042	0.0179942
858.120	0.0178278
858.198	0.0178452
858.276	0.0178287
858.354	0.0176145
858.433	0.0176819
858.511	0.0175710
858.589	0.0178643
858.667	0.0177689
858.745	0.0178561
858.823	0.0179525
858.901	0.0177906
858.979	0.0176839
859.058	0.0177805
859.136	0.0179864
859.214	0.0178464
859.292	0.0179867
859.370	0.0178249
859.448	0.0179116
859.526	0.0178760
859.604	0.0178845
859.683	0.0179294
859.761	0.0178045
859.839	0.0179353
859.917	0.0179237
859.995	0.0179256
860.073	0.0180091
860.151	0.0179739
860.229	0.0179104
860.308	0.0178442
860.386	0.0177073
860.464	0.0178339
860.542	0.0180724
860.620	0.0179672
860.698	0.0177092
860.776	0.0179341
860.854	0.0178983
860.933	0.0179418
861.011	0.0179945
861.089	0.0179836
861.167	0.0178451
861.245	0.0179063
861.323	0.0179443
861.401	0.0178966
861.479	0.0180708
861.558	0.0179521
861.636	0.0178893
861.714	0.0179874
861.792	0.0179890
861.870	0.0179776
861.948	0.0179820
862.026	0.0179694
862.104	0.0179433
862.183	0.0179808
862.261	0.0180265
862.339	0.0179252
862.417	0.0179755
862.495	0.0178715
862.573	0.0179375
862.651	0.0179250
862.729	0.0178376
862.808	0.0180070
862.886	0.0178039
862.964	0.0178240
863.042	0.0178529
863.120	0.0178979
863.198	0.0178471
863.276	0.0177336
863.354	0.0179151
863.433	0.0178922
863.511	0.0177827
863.589	0.0178899
863.667	0.0179113
863.745	0.0178709
863.823	0.0177810
863.901	0.0177916
863.979	0.0177081
864.058	0.0179296
864.136	0.0178293
864.214	0.0179736
864.292	0.0179327
864.370	0.0178682
864.448	0.0178730
864.526	0.0178262
864.604	0.0180180
864.683	0.0179899
864.761	0.0177682
864.839	0.0179096
864.917	0.0179237
864.995	0.0179845
865.073	0.0180860
865.151	0.0179173
865.229	0.0179159
865.308	0.0179450
865.386	0.0179681
865.464	0.0180316
865.542	0.0178424
865.620	0.0178745
865.698	0.0179265
865.776	0.0179105
865.854	0.0179779
865.933	0.0180664
866.011	0.0180173
866.089	0.0178897
866.167	0.0179770
866.245	0.0179753
866.323	0.0179156
866.401	0.0176735
866.479	0.0178772
866.558	0.0178395
866.636	0.0179401
866.714	0.0179649
866.792	0.0178207
866.870	0.0177884
866.948	0.0176975
867.026	0.0177792
867.104	0.0178547
867.183	0.0178448
867.261	0.0177011
867.339	0.0178257
867.417	0.0177850
867.495	0.0177718
867.573	0.0178075
867.651	0.0179306
867.729	0.0179082
867.808	0.0179142
867.886	0.0178185
867.964	0.0179427
868.042	0.0178648
868.120	0.0178292
868.198	0.0178782
868.276	0.0178433
868.354	0.0178720
868.433	0.0180300
868.511	0.0180418
868.589	0.0179456
868.667	0.0178867
868.745	0.0179087
868.823	0.0178912
868.901	0.0178802
868.979	0.0180334
869.058	0.0180305
869.136	0.0179865
869.214	0.0178869
869.292	0.0178648
869.370	0.0180285
869.448	0.0178993
869.526	0.0180273
869.604	0.0179625
869.683	0.0179067
869.761	0.0178887
869.839	0.0179607
869.917	0.0178461
869.995	0.0178440
870.073	0.0179589
870.151	0.0180949
870.229	0.0179951
870.308	0.0180002
870.386	0.0180200
870.464	0.0178854
870.542	0.0179827
870.620	0.0179726
870.698	0.0180132
870.776	0.0179710
870.854	0.0179117
870.933	0.0179314
871.011	0.0179493
871.089	0.0177598
871.167	0.0178404
871.245	0.0178418
871.323	0.0179842
871.401	0.0179377
871.479	0.0180102
871.558	0.0179253
871.636	0.0180408
871.714	0.0179082
871.792	0.0180124
871.870	0.0178408
871.948	0.0179520
872.026	0.0180974
872.104	0.0180838
872.183	0.0178173
872.261	0.0178882
872.339	0.0179467
872.417	0.0178113
872.495	0.0179671
872.573	0.0179290
872.651	0.0180756
872.729	0.0179229
872.808	0.0179992
872.886	0.0180673
872.964	0.0179478
873.042	0.0178749
873.120	0.0178484
873.198	0.0179256
873.276	0.0178520
873.354	0.0180080
873.433	0.0178883
873.511	0.0179029
873.589	0.0178799
873.667	0.0179889
873.745	0.0178337
873.823	0.0178217
873.901	0.0178325
873.979	0.0178554
874.058	0.0178488
874.136	0.0179652
874.214	0.0177139
874.292	0.0179798
874.370	0.0178521
874.448	0.0180150
874.526	0.0180452
874.604	0.0181136
874.683	0.0179205
874.761	0.0180946
874.839	0.0179704
874.917	0.0179786
874.995	0.0180454
875.073	0.0180791
875.151	0.0179850
875.229	0.0180511
875.308	0.0181049
875.386	0.0180792
875.464	0.0181988
875.542	0.0180271
875.620	0.0180060
875.698	0.0182555
875.776	0.0180892
875.854	0.0180457
875.933	0.0179959
876.011	0.0178912
876.089	0.0178928
876.167	0.0180392
876.245	0.0180524
876.323	0.0180872
876.401	0.0179198
876.479	0.0181403
876.558	0.0180510
876.636	0.0180013
876.714	0.0180000
876.792	0.0181496
876.870	0.0179237
876.948	0.0180481
877.026	0.0179385
877.104	0.0180746
877.183	0.0179333
877.261	0.0177584
877.339	0.0178629
877.417	0.0178772
877.495	0.0179117
877.573	0.0179122
877.651	0.0178118
877.729	0.0178447
877.808	0.0177804
877.886	0.0178139
877.964	0.0179176
878.042	0.0180350
878.120	0.0180491
878.198	0.0177438
878.276	0.0178853
878.354	0.0179008
878.433	0.0179533
878.511	0.0178594
878.589	0.0179865
878.667	0.0179198
878.745	0.0179523
878.823	0.0179285
878.901	0.0178996
878.979	0.0179597
879.058	0.0179999
879.136	0.0179987
879.214	0.0178774
879.292	0.0178900
879.370	0.0178951
879.448	0.0179848
879.526	0.0178987
879.604	0.0179025
879.683	0.0179137
879.761	0.0179977
879.839	0.0178100
879.917	0.0179200
879.995	0.0178696
880.073	0.0178403
880.151	0.0178960
880.229	0.0177564
880.308	0.0180064
880.386	0.0178997
880.464	0.0178764
880.542	0.0178880
880.620	0.0180200
880.698	0.0179564
880.776	0.0180122
880.854	0.0178069
880.933	0.0178907
881.011	0.0177135
881.089	0.0179024
881.167	0.0178042
881.245	0.0178402
881.323	0.0179533
881.401	0.0178702
881.479	0.0178379
881.558	0.0179337
881.636	0.0180379
881.714	0.0178910
881.792	0.0178561
881.870	0.0180247
881.948	0.0177975
882.026	0.0179529
882.104	0.0180112
882.183	0.0179976
882.261	0.0180108
882.339	0.0179686
882.417	0.0179641
882.495	0.0181446
882.573	0.0180966
882.651	0.0180269
882.729	0.0180357
882.808	0.0180560
882.886	0.0180508
882.964	0.0180663
883.042	0.0179856
883.120	0.0179521
883.198	0.0179810
883.276	0.0179765
883.354	0.0179871
883.433	0.0179059
883.511	0.0179572
883.589	0.0177601
883.667	0.0178930
883.745	0.0180592
883.823	0.0179802
883.901	0.0177940
883.979	0.0179230
884.058	0.0179222
884.136	0.0180223
884.214	0.0178171
884.292	0.0179191
884.370	0.0178563
884.448	0.0178421
884.526	0.0178040
884.604	0.0177380
884.683	0.0179834
884.761	0.0179254
884.839	0.0178138
884.917	0.0178969
884.995	0.0179655
885.073	0.0180154
885.151	0.0178424
885.229	0.0178613
885.308	0.0180006
885.386	0.0179105
885.464	0.0177676
885.542	0.0179485
885.620	0.0179387
885.698	0.0179771
885.776	0.0179446
885.854	0.0177842
885.933	0.0179255
886.011	0.0179618
886.089	0.0180325
886.167	0.0180974
886.245	0.0179113
886.323	0.0177859
886.401	0.0179289
886.479	0.0180499
886.558	0.0179493
886.636	0.0179446
886.714	0.0179650
886.792	0.0180371
886.870	0.0180457
886.948	0.0178653
887.026	0.0178802
887.104	0.0179729
887.183	0.0180051
887.261	0.0179784
887.339	0.0180062
887.417	0.0179655
887.495	0.0179415
887.573	0.0179008
887.651	0.0178962
887.729	0.0178772
887.808	0.0178677
887.886	0.0179914
887.964	0.0179558
888.042	0.0180540
888.120	0.0179054
888.198	0.0180292
888.276	0.0179507
888.354	0.0180339
888.433	0.0181150
888.511	0.0180819
888.589	0.0180574
888.667	0.0179744
888.745	0.0180495
888.823	0.0180078
888.901	0.0180214
888.979	0.0180280
889.058	0.0181067
889.136	0.0179797
889.214	0.0180875
889.292	0.0181377
889.370	0.0181282
889.448	0.0181342
889.526	0.0181109
889.604	0.0181064
889.683	0.0181361
889.761	0.0182224
889.839	0.0180254
889.917	0.0180153
889.995	0.0181171
890.073	0.0180134
890.151	0.0181642
890.229	0.0179751
890.308	0.0181578
890.386	0.0180502
890.464	0.0179001
890.542	0.0180087
890.620	0.0180113
890.698	0.0180056
890.776	0.0179379
890.854	0.0179027
890.933	0.0179781
891.011	0.0180373
891.089	0.0178249
891.167	0.0178766
891.245	0.0179855
891.323	0.0179121
891.401	0.0179442
891.479	0.0180080
891.558	0.0179569
891.636	0.0179127
891.714	0.0178888
891.792	0.0180381
891.870	0.0179573
891.948	0.0181056
892.026	0.0180921
892.104	0.0179755
892.183	0.0179549
892.261	0.0180379
892.339	0.0180827
892.417	0.0180228
892.495	0.0180901
892.573	0.0180611
892.651	0.0180581
892.729	0.0179490
892.808	0.0179334
892.886	0.0179992
892.964	0.0179894
893.042	0.0179515
893.120	0.0179753
893.198	0.0179651
893.276	0.0181368
893.354	0.0179668
893.433	0.0180606
893.511	0.0180096
893.589	0.0179513
893.667	0.0179328
893.745	0.0179227
893.823	0.0178682
893.901	0.0179351
893.979	0.0180544
894.058	0.0178327
894.136	0.0178903
894.214	0.0178329
894.292	0.0179303
894.370	0.0179280
894.448	0.0179159
894.526	0.0177770
894.604	0.0179133
894.683	0.0180054
894.761	0.0179139
894.839	0.0177718
894.917	0.0179820
894.995	0.0179836
895.073	0.0179511
895.151	0.0179726
895.229	0.0178931
895.308	0.0178355
895.386	0.0180692
895.464	0.0179873
895.542	0.0180205
895.620	0.0181371
895.698	0.0182333
895.776	0.0181149
895.854	0.0180447
895.933	0.0181236
896.011	0.0180903
896.089	0.0181143
896.167	0.0181456
896.245	0.0181226
896.323	0.0181817
896.401	0.0180696
896.479	0.0179980
896.558	0.0180630
896.636	0.0179223
896.714	0.0179518
896.792	0.0178855
896.870	0.0178903
896.948	0.0177538
897.026	0.0178892
897.104	0.0178254
897.183	0.0178939
897.261	0.0178150
897.339	0.0177723
897.417	0.0177705
897.495	0.0178687
897.573	0.0177567
897.651	0.0179204
897.729	0.0178064
897.808	0.0177604
897.886	0.0178700
897.964	0.0179146
898.042	0.0177970
898.120	0.0177526
898.198	0.0178146
898.276	0.0178420
898.354	0.0178214
898.433	0.0177843
898.511	0.0179377
898.589	0.0178574
898.667	0.0179510
898.745	0.0177162
898.823	0.0179397
898.901	0.0179095
898.979	0.0179871
899.058	0.0180176
899.136	0.0179706
899.214	0.0179012
899.292	0.0179021
899.370	0.0178822
899.448	0.0178958
899.526	0.0177528
899.604	0.0178758
899.683	0.0178384
899.761	0.0178407
899.839	0.0178085
899.917	0.0178310
899.995	0.0179004
900.073	0.0179198
900.151	0.0180460
900.229	0.0178291
900.308	0.0178844
900.386	0.0178448
900.464	0.0179589
900.542	0.0179206
900.620	0.0179546
900.698	0.0178858
900.776	0.0177409
900.854	0.0178540
900.933	0.0179585
901.011	0.0178486
901.089	0.0178303
901.167	0.0179403
901.245	0.0180033
901.323	0.0178418
901.401	0.0179760
901.479	0.0179490
901.558	0.0179459
901.636	0.0180164
901.714	0.0180219
901.792	0.0181023
901.870	0.0179639
901.948	0.0180598
902.026	0.0182040
902.104	0.0180142
902.183	0.0180357
902.261	0.0181149
902.339	0.0180329
902.417	0.0180651
902.495	0.0181337
902.573	0.0181352
902.651	0.0181104
902.729	0.0179703
902.808	0.0180077
902.886	0.0180035
902.964	0.0180888
903.042	0.0179140
903.120	0.0178310
903.198	0.0179717
903.276	0.0178790
903.354	0.0179796
903.433	0.0180165
903.511	0.0179983
903.589	0.0179069
903.667	0.0179243
903.745	0.0178914
903.823	0.0179808
903.901	0.0179581
903.979	0.0180658
904.058	0.0179929
904.136	0.0180523
904.214	0.0180467
904.292	0.0180345
904.370	0.0180032
904.448	0.0179179
904.526	0.0178632
904.604	0.0177665
904.683	0.0178005
904.761	0.0179150
904.839	0.0178948
904.917	0.0178897
904.995	0.0178436
905.073	0.0177652
905.151	0.0178974
905.229	0.0179569
905.308	0.0178531
905.386	0.0178606
905.464	0.0178162
905.542	0.0179343
905.620	0.0179774
905.698	0.0179265
905.776	0.0179154
905.854	0.0179076
905.933	0.0179198
906.011	0.0180462
906.089	0.0180548
906.167	0.0179932
906.245	0.0180995
906.323	0.0180540
906.401	0.0179505
906.479	0.0180621
906.558	0.0180183
906.636	0.0178036
906.714	0.0179848
906.792	0.0178673
906.870	0.0178987
906.948	0.0178571
907.026	0.0179834
907.104	0.0179987
907.183	0.0179677
907.261	0.0178629
907.339	0.0179537
907.417	0.0179189
907.495	0.0180698
907.573	0.0179194
907.651	0.0180224
907.729	0.0181037
907.808	0.0180157
907.886	0.0180467
907.964	0.0179691
908.042	0.0180722
908.120	0.0179060
908.198	0.0181286
908.276	0.0179840
908.354	0.0179594
908.433	0.0179529
908.511	0.0180247
908.589	0.0180714
908.667	0.0179388
908.745	0.0178985
908.823	0.0181203
908.901	0.0180941
908.979	0.0178895
909.058	0.0179588
909.136	0.0179908
909.214	0.0179034
909.292	0.0179791
909.370	0.0178622
909.448	0.0180173
909.526	0.0180090
909.604	0.0179265
909.683	0.0179005
909.761	0.0179073
909.839	0.0177489
909.917	0.0178740
909.995	0.0179003
910.073	0.0179559
910.151	0.0181134
910.229	0.0180027
910.308	0.0179368
910.386	0.0180998
910.464	0.0179815
910.542	0.0180537
910.620	0.0179434
910.698	0.0179465
910.776	0.0180138
910.854	0.0180120
910.933	0.0179832
911.011	0.0180145
911.089	0.0180036
911.167	0.0180216
911.245	0.0179874
911.323	0.0178931
911.401	0.0178616
911.479	0.0178606
911.558	0.0178198
911.636	0.0179449
911.714	0.0179028
911.792	0.0178330
911.870	0.0178066
911.948	0.0177832
912.026	0.0178124
912.104	0.0178846
912.183	0.0179172
912.261	0.0178513
912.339	0.0178269
912.417	0.0179353
912.495	0.0178271
912.573	0.0178615
912.651	0.0177971
912.729	0.0179472
912.808	0.0179908
912.886	0.0178386
912.964	0.0178399
913.042	0.0177693
913.120	0.0179364
913.198	0.0180200
913.276	0.0180630
913.354	0.0180319
913.433	0.0180221
913.511	0.0179648
913.589	0.0179877
913.667	0.0180502
913.745	0.0180907
913.823	0.0181458
913.901	0.0179750
913.979	0.0179830
914.058	0.0180182
914.136	0.0180669
914.214	0.0180997
914.292	0.0181512
914.370	0.0180392
914.448	0.0180422
914.526	0.0179895
914.604	0.0179144
914.683	0.0179051
914.761	0.0179287
914.839	0.0178518
914.917	0.0178279
914.995	0.0179713
915.073	0.0180414
915.151	0.0179457
915.229	0.0179039
915.308	0.0179922
915.386	0.0178185
915.464	0.0179890
915.542	0.0178205
915.620	0.0180270
915.698	0.0179489
915.776	0.0179609
915.854	0.0179488
915.933	0.0179775
916.011	0.0178989
916.089	0.0180078
916.167	0.0179424
916.245	0.0179359
916.323	0.0181568
916.401	0.0181258
916.479	0.0180108
916.558	0.0181343
916.636	0.0180817
916.714	0.0181044
916.792	0.0180874
916.870	0.0179739
916.948	0.0179103
917.026	0.0180203
917.104	0.0180872
917.183	0.0179549
917.261	0.0179856
917.339	0.0181087
917.417	0.0180389
917.495	0.0179774
917.573	0.0179993
917.651	0.0179513
917.729	0.0180255
917.808	0.0180081
917.886	0.0180411
917.964	0.0180035
918.042	0.0177323
918.120	0.0178510
918.198	0.0178577
918.276	0.0179703
918.354	0.0179098
918.433	0.0178849
918.511	0.0178322
918.589	0.0177869
918.667	0.0179877
918.745	0.0179351
918.823	0.0177837
918.901	0.0180142
918.979	0.0178962
919.058	0.0179253
919.136	0.0180212
919.214	0.0178384
919.292	0.0178895
919.370	0.0178259
919.448	0.0178588
919.526	0.0178975
919.604	0.0179640
919.683	0.0178625
919.761	0.0179518
919.839	0.0179528
919.917	0.0180434
