06/03/2022	18:05:12	Ver.	4.1	UNKNOWN
Optical Delay	599.995081	Delta X		0.078125	Sweeps	1	Scan Rate	0/0
Coordinates	Axis 1	NaN	Axis 2	NaN	Axis 3	NaN	Axis 4	NaN	Axis 5	NaN	Axis 6	0.000000
TX Power	0.000000	RX Power	0.000000

599.995	0.0180854
600.073	0.0180688
600.151	0.0181228
600.229	0.0180947
600.308	0.0181908
600.386	0.0180428
600.464	0.0181014
600.542	0.0180694
600.620	0.0178972
600.698	0.0180840
600.776	0.0180289
600.854	0.0181673
600.933	0.0179711
601.011	0.0180991
601.089	0.0180241
601.167	0.0180496
601.245	0.0181256
601.323	0.0179355
601.401	0.0180450
601.479	0.0180402
601.558	0.0180607
601.636	0.0181112
601.714	0.0180689
601.792	0.0181200
601.870	0.0180889
601.948	0.0180206
602.026	0.0180888
602.104	0.0180676
602.183	0.0181264
602.261	0.0181054
602.339	0.0180199
602.417	0.0180478
602.495	0.0179220
602.573	0.0181129
602.651	0.0180158
602.729	0.0181403
602.808	0.0181288
602.886	0.0181020
602.964	0.0180618
603.042	0.0180678
603.120	0.0180068
603.198	0.0180951
603.276	0.0181216
603.354	0.0181143
603.433	0.0179269
603.511	0.0182391
603.589	0.0182013
603.667	0.0179687
603.745	0.0180323
603.823	0.0181196
603.901	0.0181078
603.979	0.0180993
604.058	0.0181683
604.136	0.0180379
604.214	0.0180064
604.292	0.0179887
604.370	0.0180673
604.448	0.0180388
604.526	0.0180407
604.604	0.0181717
604.683	0.0181754
604.761	0.0180865
604.839	0.0180822
604.917	0.0181699
604.995	0.0182297
605.073	0.0181768
605.151	0.0181561
605.229	0.0181176
605.308	0.0181284
605.386	0.0181355
605.464	0.0180284
605.542	0.0181536
605.620	0.0180516
605.698	0.0181253
605.776	0.0179707
605.854	0.0181249
605.933	0.0181032
606.011	0.0181642
606.089	0.0181319
606.167	0.0181571
606.245	0.0180916
606.323	0.0180211
606.401	0.0180260
606.479	0.0181245
606.558	0.0181557
606.636	0.0181809
606.714	0.0180806
606.792	0.0180722
606.870	0.0180401
606.948	0.0182130
607.026	0.0180379
607.104	0.0179780
607.183	0.0181714
607.261	0.0180547
607.339	0.0180760
607.417	0.0181410
607.495	0.0180046
607.573	0.0181231
607.651	0.0182000
607.729	0.0180412
607.808	0.0180717
607.886	0.0181552
607.964	0.0180946
608.042	0.0180720
608.120	0.0181314
608.198	0.0180884
608.276	0.0181516
608.354	0.0180064
608.433	0.0181101
608.511	0.0180340
608.589	0.0181215
608.667	0.0180235
608.745	0.0179681
608.823	0.0180762
608.901	0.0182297
608.979	0.0180186
609.058	0.0179706
609.136	0.0180240
609.214	0.0180875
609.292	0.0181657
609.370	0.0180943
609.448	0.0181615
609.526	0.0180563
609.604	0.0180461
609.683	0.0181038
609.761	0.0180846
609.839	0.0181442
609.917	0.0180273
609.995	0.0181590
610.073	0.0180318
610.151	0.0181297
610.229	0.0181458
610.308	0.0180980
610.386	0.0180625
610.464	0.0180799
610.542	0.0181577
610.620	0.0180405
610.698	0.0181939
610.776	0.0180260
610.854	0.0180938
610.933	0.0181857
611.011	0.0181223
611.089	0.0181768
611.167	0.0181286
611.245	0.0181843
611.323	0.0181242
611.401	0.0181856
611.479	0.0181955
611.558	0.0180485
611.636	0.0180618
611.714	0.0181491
611.792	0.0181632
611.870	0.0182150
611.948	0.0181010
612.026	0.0180602
612.104	0.0180611
612.183	0.0182442
612.261	0.0181798
612.339	0.0180487
612.417	0.0181033
612.495	0.0180059
612.573	0.0181497
612.651	0.0180692
612.729	0.0181395
612.808	0.0182114
612.886	0.0182603
612.964	0.0181963
613.042	0.0180026
613.120	0.0181276
613.198	0.0181536
613.276	0.0182165
613.354	0.0180849
613.433	0.0180032
613.511	0.0180225
613.589	0.0180498
613.667	0.0181271
613.745	0.0181591
613.823	0.0180202
613.901	0.0181629
613.979	0.0180155
614.058	0.0181889
614.136	0.0180904
614.214	0.0182849
614.292	0.0181006
614.370	0.0181383
614.448	0.0181354
614.526	0.0182240
614.604	0.0181615
614.683	0.0181714
614.761	0.0181496
614.839	0.0181835
614.917	0.0181823
614.995	0.0181236
615.073	0.0181574
615.151	0.0180327
615.229	0.0180678
615.308	0.0180481
615.386	0.0181445
615.464	0.0181780
615.542	0.0180571
615.620	0.0180013
615.698	0.0181550
615.776	0.0182375
615.854	0.0181410
615.933	0.0181662
616.011	0.0181184
616.089	0.0182124
616.167	0.0181585
616.245	0.0180662
616.323	0.0181379
616.401	0.0181615
616.479	0.0182092
616.558	0.0180034
616.636	0.0180303
616.714	0.0180800
616.792	0.0181583
616.870	0.0181363
616.948	0.0180991
617.026	0.0181042
617.104	0.0180614
617.183	0.0180688
617.261	0.0180864
617.339	0.0180522
617.417	0.0180324
617.495	0.0181601
617.573	0.0181256
617.651	0.0182301
617.729	0.0181567
617.808	0.0179999
617.886	0.0181762
617.964	0.0181732
618.042	0.0180964
618.120	0.0179958
618.198	0.0179861
618.276	0.0180997
618.354	0.0181100
618.433	0.0180846
618.511	0.0181150
618.589	0.0181192
618.667	0.0179399
618.745	0.0180898
618.823	0.0180498
618.901	0.0180102
618.979	0.0182020
619.058	0.0180453
619.136	0.0181289
619.214	0.0182168
619.292	0.0181870
619.370	0.0182565
619.448	0.0180915
619.526	0.0180852
619.604	0.0181499
619.683	0.0180379
619.761	0.0180611
619.839	0.0181212
619.917	0.0181178
619.995	0.0181702
620.073	0.0181824
620.151	0.0180632
620.229	0.0180961
620.308	0.0182646
620.386	0.0181610
620.464	0.0181068
620.542	0.0181125
620.620	0.0181858
620.698	0.0181065
620.776	0.0181239
620.854	0.0181055
620.933	0.0179214
621.011	0.0179998
621.089	0.0181038
621.167	0.0181279
621.245	0.0181416
621.323	0.0179352
621.401	0.0180500
621.479	0.0180901
621.558	0.0181340
621.636	0.0180355
621.714	0.0181313
621.792	0.0180697
621.870	0.0181104
621.948	0.0180598
622.026	0.0181590
622.104	0.0180046
622.183	0.0181667
622.261	0.0180986
622.339	0.0181427
622.417	0.0179878
622.495	0.0181664
622.573	0.0181451
622.651	0.0180997
622.729	0.0181002
622.808	0.0180469
622.886	0.0180871
622.964	0.0181975
623.042	0.0181486
623.120	0.0181480
623.198	0.0180828
623.276	0.0180402
623.354	0.0179550
623.433	0.0179771
623.511	0.0181142
623.589	0.0180002
623.667	0.0179623
623.745	0.0181722
623.823	0.0182180
623.901	0.0180189
623.979	0.0180254
624.058	0.0179752
624.136	0.0180882
624.214	0.0179610
624.292	0.0180791
624.370	0.0181819
624.448	0.0180120
624.526	0.0181148
624.604	0.0181908
624.683	0.0178838
624.761	0.0179974
624.839	0.0180662
624.917	0.0180736
624.995	0.0181807
625.073	0.0180517
625.151	0.0180456
625.229	0.0181856
625.308	0.0181331
625.386	0.0181069
625.464	0.0181569
625.542	0.0182275
625.620	0.0181343
625.698	0.0181512
625.776	0.0180237
625.854	0.0181950
625.933	0.0180250
626.011	0.0181617
626.089	0.0181824
626.167	0.0181620
626.245	0.0182745
626.323	0.0181906
626.401	0.0178275
626.479	0.0181137
626.558	0.0181093
626.636	0.0181009
626.714	0.0181126
626.792	0.0180615
626.870	0.0180661
626.948	0.0181175
627.026	0.0180441
627.104	0.0181042
627.183	0.0181081
627.261	0.0179613
627.339	0.0181731
627.417	0.0181271
627.495	0.0180441
627.573	0.0179966
627.651	0.0180538
627.729	0.0181403
627.808	0.0180180
627.886	0.0181499
627.964	0.0181692
628.042	0.0181576
628.120	0.0181281
628.198	0.0180557
628.276	0.0180444
628.354	0.0180833
628.433	0.0180357
628.511	0.0181367
628.589	0.0180482
628.667	0.0181277
628.745	0.0180981
628.823	0.0180653
628.901	0.0181244
628.979	0.0180214
629.058	0.0180885
629.136	0.0181418
629.214	0.0180307
629.292	0.0180362
629.370	0.0180609
629.448	0.0180949
629.526	0.0180926
629.604	0.0180976
629.683	0.0180036
629.761	0.0181120
629.839	0.0179700
629.917	0.0180381
629.995	0.0179575
630.073	0.0180183
630.151	0.0181397
630.229	0.0182433
630.308	0.0179819
630.386	0.0181234
630.464	0.0182539
630.542	0.0180346
630.620	0.0180466
630.698	0.0180388
630.776	0.0180457
630.854	0.0179800
630.933	0.0181084
631.011	0.0179675
631.089	0.0181770
631.167	0.0182218
631.245	0.0180466
631.323	0.0180863
631.401	0.0181554
631.479	0.0181227
631.558	0.0181042
631.636	0.0180713
631.714	0.0180476
631.792	0.0179810
631.870	0.0180162
631.948	0.0180100
632.026	0.0182536
632.104	0.0180843
632.183	0.0180478
632.261	0.0180042
632.339	0.0180712
632.417	0.0181008
632.495	0.0180461
632.573	0.0180957
632.651	0.0180918
632.729	0.0181145
632.808	0.0181001
632.886	0.0180692
632.964	0.0181281
633.042	0.0181571
633.120	0.0181001
633.198	0.0179673
633.276	0.0180400
633.354	0.0180541
633.433	0.0180904
633.511	0.0181425
633.589	0.0179994
633.667	0.0179913
633.745	0.0182061
633.823	0.0180089
633.901	0.0179858
633.979	0.0180129
634.058	0.0181533
634.136	0.0180175
634.214	0.0181631
634.292	0.0181425
634.370	0.0180288
634.448	0.0181105
634.526	0.0180711
634.604	0.0179869
634.683	0.0179912
634.761	0.0179655
634.839	0.0182102
634.917	0.0180914
634.995	0.0180598
635.073	0.0180623
635.151	0.0181236
635.229	0.0180392
635.308	0.0179263
635.386	0.0180238
635.464	0.0181839
635.542	0.0181091
635.620	0.0180695
635.698	0.0181159
635.776	0.0180912
635.854	0.0180280
635.933	0.0181402
636.011	0.0180390
636.089	0.0179192
636.167	0.0181123
636.245	0.0179478
636.323	0.0180838
636.401	0.0181327
636.479	0.0179881
636.558	0.0180524
636.636	0.0180434
636.714	0.0179253
636.792	0.0179752
636.870	0.0180772
636.948	0.0180587
637.026	0.0180569
637.104	0.0181378
637.183	0.0180280
637.261	0.0179169
637.339	0.0180885
637.417	0.0182413
637.495	0.0180643
637.573	0.0180364
637.651	0.0181157
637.729	0.0181288
637.808	0.0180572
637.886	0.0180087
637.964	0.0181992
638.042	0.0181439
638.120	0.0180345
638.198	0.0181770
638.276	0.0179887
638.354	0.0181057
638.433	0.0181698
638.511	0.0181165
638.589	0.0182140
638.667	0.0180225
638.745	0.0180295
638.823	0.0180795
638.901	0.0181041
638.979	0.0180315
639.058	0.0181878
639.136	0.0180117
639.214	0.0180462
639.292	0.0180701
639.370	0.0181617
639.448	0.0180968
639.526	0.0180290
639.604	0.0180293
639.683	0.0181236
639.761	0.0181650
639.839	0.0181030
639.917	0.0180305
639.995	0.0180175
640.073	0.0181183
640.151	0.0180615
640.229	0.0181876
640.308	0.0181511
640.386	0.0181004
640.464	0.0181936
640.542	0.0181946
640.620	0.0180682
640.698	0.0182253
640.776	0.0180375
640.854	0.0181905
640.933	0.0181494
641.011	0.0181435
641.089	0.0180315
641.167	0.0180473
641.245	0.0180421
641.323	0.0181193
641.401	0.0180459
641.479	0.0181055
641.558	0.0181708
641.636	0.0180772
641.714	0.0181609
641.792	0.0181255
641.870	0.0181562
641.948	0.0182495
642.026	0.0180757
642.104	0.0179817
642.183	0.0181007
642.261	0.0181172
642.339	0.0180487
642.417	0.0180643
642.495	0.0180503
642.573	0.0181570
642.651	0.0181582
642.729	0.0181631
642.808	0.0181259
642.886	0.0181220
642.964	0.0181902
643.042	0.0180527
643.120	0.0180228
643.198	0.0182027
643.276	0.0181995
643.354	0.0181385
643.433	0.0180212
643.511	0.0179536
643.589	0.0180535
643.667	0.0181454
643.745	0.0181873
643.823	0.0180299
643.901	0.0181542
643.979	0.0181797
644.058	0.0182211
644.136	0.0179852
644.214	0.0180791
644.292	0.0180161
644.370	0.0182298
644.448	0.0181625
644.526	0.0180959
644.604	0.0181405
644.683	0.0180051
644.761	0.0182099
644.839	0.0181726
644.917	0.0180178
644.995	0.0181168
645.073	0.0180251
645.151	0.0181968
645.229	0.0181197
645.308	0.0180285
645.386	0.0181330
645.464	0.0180514
645.542	0.0180438
645.620	0.0179936
645.698	0.0180396
645.776	0.0180228
645.854	0.0181429
645.933	0.0181602
646.011	0.0180717
646.089	0.0181372
646.167	0.0179855
646.245	0.0179692
646.323	0.0181874
646.401	0.0181412
646.479	0.0181882
646.558	0.0179926
646.636	0.0180215
646.714	0.0182144
646.792	0.0181239
646.870	0.0181306
646.948	0.0180994
647.026	0.0180910
647.104	0.0180860
647.183	0.0181026
647.261	0.0179478
647.339	0.0181651
647.417	0.0182277
647.495	0.0181027
647.573	0.0180127
647.651	0.0180393
647.729	0.0181528
647.808	0.0180181
647.886	0.0180186
647.964	0.0180962
648.042	0.0181154
648.120	0.0180777
648.198	0.0180870
648.276	0.0181580
648.354	0.0181136
648.433	0.0182167
648.511	0.0180518
648.589	0.0180033
648.667	0.0180663
648.745	0.0181378
648.823	0.0181107
648.901	0.0181075
648.979	0.0180614
649.058	0.0180361
649.136	0.0181064
649.214	0.0181418
649.292	0.0181543
649.370	0.0180670
649.448	0.0180146
649.526	0.0180882
649.604	0.0180431
649.683	0.0180774
649.761	0.0180727
649.839	0.0180381
649.917	0.0180717
649.995	0.0182162
650.073	0.0180215
650.151	0.0181211
650.229	0.0181455
650.308	0.0179520
650.386	0.0180595
650.464	0.0179984
650.542	0.0180653
650.620	0.0181229
650.698	0.0180580
650.776	0.0180967
650.854	0.0179958
650.933	0.0180885
651.011	0.0182819
651.089	0.0179944
651.167	0.0180441
651.245	0.0181787
651.323	0.0180709
651.401	0.0180103
651.479	0.0180434
651.558	0.0180354
651.636	0.0181429
651.714	0.0180836
651.792	0.0179517
651.870	0.0179894
651.948	0.0180325
652.026	0.0180280
652.104	0.0181413
652.183	0.0181201
652.261	0.0181292
652.339	0.0180211
652.417	0.0181388
652.495	0.0181064
652.573	0.0181082
652.651	0.0180312
652.729	0.0179664
652.808	0.0181733
652.886	0.0180917
652.964	0.0179100
653.042	0.0180235
653.120	0.0181301
653.198	0.0180180
653.276	0.0180173
653.354	0.0180052
653.433	0.0181067
653.511	0.0181239
653.589	0.0180902
653.667	0.0181576
653.745	0.0181059
653.823	0.0181079
653.901	0.0180625
653.979	0.0180759
654.058	0.0180802
654.136	0.0181756
654.214	0.0181312
654.292	0.0179185
654.370	0.0181293
654.448	0.0182501
654.526	0.0179926
654.604	0.0180932
654.683	0.0180475
654.761	0.0181008
654.839	0.0181200
654.917	0.0179433
654.995	0.0180889
655.073	0.0180160
655.151	0.0180457
655.229	0.0180552
655.308	0.0180949
655.386	0.0181643
655.464	0.0181543
655.542	0.0180446
655.620	0.0178928
655.698	0.0181768
655.776	0.0182176
655.854	0.0181570
655.933	0.0180671
656.011	0.0182785
656.089	0.0181642
656.167	0.0181216
656.245	0.0182040
656.323	0.0180897
656.401	0.0180582
656.479	0.0180243
656.558	0.0180572
656.636	0.0181268
656.714	0.0179324
656.792	0.0181116
656.870	0.0180462
656.948	0.0181201
657.026	0.0180776
657.104	0.0181567
657.183	0.0182629
657.261	0.0180395
657.339	0.0179506
657.417	0.0182424
657.495	0.0182151
657.573	0.0180656
657.651	0.0180257
657.729	0.0181581
657.808	0.0180439
657.886	0.0180042
657.964	0.0181336
658.042	0.0180827
658.120	0.0179927
658.198	0.0178905
658.276	0.0180656
658.354	0.0181813
658.433	0.0180660
658.511	0.0181337
658.589	0.0180552
658.667	0.0180316
658.745	0.0180650
658.823	0.0179775
658.901	0.0179696
658.979	0.0180492
659.058	0.0182025
659.136	0.0180907
659.214	0.0181516
659.292	0.0181296
659.370	0.0181246
659.448	0.0181297
659.526	0.0180760
659.604	0.0181211
659.683	0.0181207
659.761	0.0181710
659.839	0.0181303
659.917	0.0181532
659.995	0.0182032
660.073	0.0181524
660.151	0.0180107
660.229	0.0180572
660.308	0.0180430
660.386	0.0181451
660.464	0.0179760
660.542	0.0180071
660.620	0.0181966
660.698	0.0181262
660.776	0.0182005
660.854	0.0180409
660.933	0.0181890
661.011	0.0180000
661.089	0.0179150
661.167	0.0181217
661.245	0.0182009
661.323	0.0180566
661.401	0.0179960
661.479	0.0181805
661.558	0.0181184
661.636	0.0179471
661.714	0.0181077
661.792	0.0180661
661.870	0.0180718
661.948	0.0181927
662.026	0.0180331
662.104	0.0180682
662.183	0.0180766
662.261	0.0179642
662.339	0.0180280
662.417	0.0180472
662.495	0.0180523
662.573	0.0181258
662.651	0.0181418
662.729	0.0182100
662.808	0.0180247
662.886	0.0180709
662.964	0.0181258
663.042	0.0180952
663.120	0.0181298
663.198	0.0181089
663.276	0.0180779
663.354	0.0180092
663.433	0.0181985
663.511	0.0179969
663.589	0.0179985
663.667	0.0181852
663.745	0.0181155
663.823	0.0179943
663.901	0.0181127
663.979	0.0179700
664.058	0.0181239
664.136	0.0181515
664.214	0.0182148
664.292	0.0180877
664.370	0.0180689
664.448	0.0180073
664.526	0.0180231
664.604	0.0181895
664.683	0.0180061
664.761	0.0180682
664.839	0.0180333
664.917	0.0180396
664.995	0.0181042
665.073	0.0180269
665.151	0.0180219
665.229	0.0180820
665.308	0.0181143
665.386	0.0181054
665.464	0.0180833
665.542	0.0180509
665.620	0.0180893
665.698	0.0180823
665.776	0.0180982
665.854	0.0180865
665.933	0.0179395
666.011	0.0179964
666.089	0.0180288
666.167	0.0180602
666.245	0.0180112
666.323	0.0179196
666.401	0.0181148
666.479	0.0181097
666.558	0.0180619
666.636	0.0180306
666.714	0.0180928
666.792	0.0182491
666.870	0.0179861
666.948	0.0180084
667.026	0.0181814
667.104	0.0180986
667.183	0.0180225
667.261	0.0181903
667.339	0.0181012
667.417	0.0181316
667.495	0.0181973
667.573	0.0182104
667.651	0.0181886
667.729	0.0181511
667.808	0.0180389
667.886	0.0180074
667.964	0.0182041
668.042	0.0180703
668.120	0.0180073
668.198	0.0180387
668.276	0.0181560
668.354	0.0181198
668.433	0.0180224
668.511	0.0180718
668.589	0.0181078
668.667	0.0179855
668.745	0.0180724
668.823	0.0181010
668.901	0.0180557
668.979	0.0181399
669.058	0.0180984
669.136	0.0180025
669.214	0.0180627
669.292	0.0181113
669.370	0.0181058
669.448	0.0180519
669.526	0.0180843
669.604	0.0180236
669.683	0.0181044
669.761	0.0180371
669.839	0.0180128
669.917	0.0179987
669.995	0.0181379
670.073	0.0180467
670.151	0.0180822
670.229	0.0180056
670.308	0.0181235
670.386	0.0180491
670.464	0.0180433
670.542	0.0180210
670.620	0.0180646
670.698	0.0181824
670.776	0.0179841
670.854	0.0180377
670.933	0.0180480
671.011	0.0181323
671.089	0.0179813
671.167	0.0179311
671.245	0.0179699
671.323	0.0180828
671.401	0.0181208
671.479	0.0180467
671.558	0.0180325
671.636	0.0180457
671.714	0.0180688
671.792	0.0180907
671.870	0.0181522
671.948	0.0180827
672.026	0.0180920
672.104	0.0180556
672.183	0.0180875
672.261	0.0180231
672.339	0.0180209
672.417	0.0180745
672.495	0.0180669
672.573	0.0180000
672.651	0.0180782
672.729	0.0180294
672.808	0.0181900
672.886	0.0181213
672.964	0.0181522
673.042	0.0180907
673.120	0.0181714
673.198	0.0181007
673.276	0.0181579
673.354	0.0180362
673.433	0.0181879
673.511	0.0181754
673.589	0.0180965
673.667	0.0181072
673.745	0.0181351
673.823	0.0181601
673.901	0.0181816
673.979	0.0179417
674.058	0.0180831
674.136	0.0180900
674.214	0.0179807
674.292	0.0181726
674.370	0.0182386
674.448	0.0180408
674.526	0.0181685
674.604	0.0181388
674.683	0.0181440
674.761	0.0180779
674.839	0.0181221
674.917	0.0181908
674.995	0.0180668
675.073	0.0181122
675.151	0.0180143
675.229	0.0181074
675.308	0.0179733
675.386	0.0179536
675.464	0.0180307
675.542	0.0181094
675.620	0.0179705
675.698	0.0180164
675.776	0.0181384
675.854	0.0180739
675.933	0.0180977
676.011	0.0182308
676.089	0.0180249
676.167	0.0179711
676.245	0.0180614
676.323	0.0180762
676.401	0.0181283
676.479	0.0180425
676.558	0.0180960
676.636	0.0180239
676.714	0.0180541
676.792	0.0180235
676.870	0.0180315
676.948	0.0181654
677.026	0.0181897
677.104	0.0181059
677.183	0.0181823
677.261	0.0181299
677.339	0.0180746
677.417	0.0179951
677.495	0.0179934
677.573	0.0181075
677.651	0.0181866
677.729	0.0179937
677.808	0.0180184
677.886	0.0180434
677.964	0.0179611
678.042	0.0181717
678.120	0.0181253
678.198	0.0181081
678.276	0.0179819
678.354	0.0181223
678.433	0.0180791
678.511	0.0182056
678.589	0.0179898
678.667	0.0179185
678.745	0.0182346
678.823	0.0181638
678.901	0.0181235
678.979	0.0179752
679.058	0.0181239
679.136	0.0180473
679.214	0.0179967
679.292	0.0179768
679.370	0.0180970
679.448	0.0181690
679.526	0.0180066
679.604	0.0180644
679.683	0.0181842
679.761	0.0182182
679.839	0.0181490
679.917	0.0180623
679.995	0.0180566
680.073	0.0181234
680.151	0.0181193
680.229	0.0180488
680.308	0.0180698
680.386	0.0180611
680.464	0.0180518
680.542	0.0182001
680.620	0.0181008
680.698	0.0180494
680.776	0.0180165
680.854	0.0181835
680.933	0.0180812
681.011	0.0181683
681.089	0.0180663
681.167	0.0181026
681.245	0.0181011
681.323	0.0181014
681.401	0.0180611
681.479	0.0181516
681.558	0.0181436
681.636	0.0180672
681.714	0.0181352
681.792	0.0181072
681.870	0.0180172
681.948	0.0180471
682.026	0.0182525
682.104	0.0180704
682.183	0.0180614
682.261	0.0181374
682.339	0.0180978
682.417	0.0181313
682.495	0.0180955
682.573	0.0180810
682.651	0.0181686
682.729	0.0180937
682.808	0.0180696
682.886	0.0180083
682.964	0.0180650
683.042	0.0178725
683.120	0.0180469
683.198	0.0179333
683.276	0.0181134
683.354	0.0179715
683.433	0.0181056
683.511	0.0181722
683.589	0.0180588
683.667	0.0180156
683.745	0.0181107
683.823	0.0180395
683.901	0.0180406
683.979	0.0181340
684.058	0.0181216
684.136	0.0182281
684.214	0.0181351
684.292	0.0180416
684.370	0.0180721
684.448	0.0182258
684.526	0.0180343
684.604	0.0181795
684.683	0.0181829
684.761	0.0180968
684.839	0.0180859
684.917	0.0181969
684.995	0.0180596
685.073	0.0181548
685.151	0.0181532
685.229	0.0181152
685.308	0.0181059
685.386	0.0181258
685.464	0.0182595
685.542	0.0180669
685.620	0.0181111
685.698	0.0180972
685.776	0.0181025
685.854	0.0181613
685.933	0.0182429
686.011	0.0181798
686.089	0.0181695
686.167	0.0181091
686.245	0.0181396
686.323	0.0180075
686.401	0.0182883
686.479	0.0181282
686.558	0.0180853
686.636	0.0181532
686.714	0.0181587
686.792	0.0180436
686.870	0.0181408
686.948	0.0181085
687.026	0.0181789
687.104	0.0181355
687.183	0.0180834
687.261	0.0181367
687.339	0.0182228
687.417	0.0181607
687.495	0.0180779
687.573	0.0181324
687.651	0.0181107
687.729	0.0181099
687.808	0.0181622
687.886	0.0182274
687.964	0.0180634
688.042	0.0181474
688.120	0.0180918
688.198	0.0181547
688.276	0.0181732
688.354	0.0181235
688.433	0.0181763
688.511	0.0180385
688.589	0.0182076
688.667	0.0182765
688.745	0.0181967
688.823	0.0181002
688.901	0.0181506
688.979	0.0180447
689.058	0.0180169
689.136	0.0182143
689.214	0.0181606
689.292	0.0181178
689.370	0.0182716
689.448	0.0180935
689.526	0.0181097
689.604	0.0180428
689.683	0.0180173
689.761	0.0180898
689.839	0.0181384
689.917	0.0180453
689.995	0.0180793
690.073	0.0181889
690.151	0.0182025
690.229	0.0181718
690.308	0.0179125
690.386	0.0181493
690.464	0.0180881
690.542	0.0180872
690.620	0.0181268
690.698	0.0180952
690.776	0.0181501
690.854	0.0182040
690.933	0.0181146
691.011	0.0180277
691.089	0.0179602
691.167	0.0181542
691.245	0.0180116
691.323	0.0179935
691.401	0.0180578
691.479	0.0181366
691.558	0.0179191
691.636	0.0180502
691.714	0.0180763
691.792	0.0180247
691.870	0.0180538
691.948	0.0180254
692.026	0.0180090
692.104	0.0180725
692.183	0.0180903
692.261	0.0180931
692.339	0.0179746
692.417	0.0180396
692.495	0.0180289
692.573	0.0179417
692.651	0.0180924
692.729	0.0180597
692.808	0.0180327
692.886	0.0180232
692.964	0.0179446
693.042	0.0180715
693.120	0.0181842
693.198	0.0180054
693.276	0.0181329
693.354	0.0180512
693.433	0.0180529
693.511	0.0180157
693.589	0.0180473
693.667	0.0180369
693.745	0.0180527
693.823	0.0179552
693.901	0.0180784
693.979	0.0180302
694.058	0.0180202
694.136	0.0180920
694.214	0.0180442
694.292	0.0180659
694.370	0.0180486
694.448	0.0179768
694.526	0.0179790
694.604	0.0180740
694.683	0.0179867
694.761	0.0180031
694.839	0.0180278
694.917	0.0179079
694.995	0.0178859
695.073	0.0180596
695.151	0.0180629
695.229	0.0180064
695.308	0.0180196
695.386	0.0179715
695.464	0.0179971
695.542	0.0179485
695.620	0.0181017
695.698	0.0183169
695.776	0.0181458
695.854	0.0180315
695.933	0.0179961
696.011	0.0180183
696.089	0.0181068
696.167	0.0179512
696.245	0.0181108
696.323	0.0181285
696.401	0.0181419
696.479	0.0180779
696.558	0.0178967
696.636	0.0181081
696.714	0.0181335
696.792	0.0181240
696.870	0.0183067
696.948	0.0183807
697.026	0.0185473
697.104	0.0184555
697.183	0.0183959
697.261	0.0182979
697.339	0.0183064
697.417	0.0182121
697.495	0.0181074
697.573	0.0180991
697.651	0.0180669
697.729	0.0178765
697.808	0.0177834
697.886	0.0177530
697.964	0.0178252
698.042	0.0177637
698.120	0.0178113
698.198	0.0177807
698.276	0.0177869
698.354	0.0176451
698.433	0.0175701
698.511	0.0175751
698.589	0.0176008
698.667	0.0176899
698.745	0.0176426
698.823	0.0178741
698.901	0.0178646
698.979	0.0179932
699.058	0.0182112
699.136	0.0184614
699.214	0.0186823
699.292	0.0188873
699.370	0.0189175
699.448	0.0191944
699.526	0.0191966
699.604	0.0190495
699.683	0.0191545
699.761	0.0192508
699.839	0.0189458
699.917	0.0188022
699.995	0.0184849
700.073	0.0183031
700.151	0.0182115
700.229	0.0180486
700.308	0.0178638
700.386	0.0176376
700.464	0.0174097
700.542	0.0174152
700.620	0.0172980
700.698	0.0172725
700.776	0.0173608
700.854	0.0170669
700.933	0.0171636
701.011	0.0173366
701.089	0.0172789
701.167	0.0174289
701.245	0.0174361
701.323	0.0176433
701.401	0.0177333
701.479	0.0178703
701.558	0.0181195
701.636	0.0182932
701.714	0.0184861
701.792	0.0186540
701.870	0.0187571
701.948	0.0189627
702.026	0.0191356
702.104	0.0192321
702.183	0.0192690
702.261	0.0194486
702.339	0.0193369
702.417	0.0193060
702.495	0.0192591
702.573	0.0191034
702.651	0.0189262
702.729	0.0187467
702.808	0.0185517
702.886	0.0182497
702.964	0.0180930
703.042	0.0178574
703.120	0.0175817
703.198	0.0172060
703.276	0.0170569
703.354	0.0167615
703.433	0.0166564
703.511	0.0164689
703.589	0.0165099
703.667	0.0165925
703.745	0.0168822
703.823	0.0168299
703.901	0.0168730
703.979	0.0170394
704.058	0.0174891
704.136	0.0175249
704.214	0.0177118
704.292	0.0180172
704.370	0.0182125
704.448	0.0183929
704.526	0.0185935
704.604	0.0184592
704.683	0.0187259
704.761	0.0188690
704.839	0.0188744
704.917	0.0190462
704.995	0.0190533
705.073	0.0188927
705.151	0.0191210
705.229	0.0190831
705.308	0.0190436
705.386	0.0189248
705.464	0.0188727
705.542	0.0187964
705.620	0.0186389
705.698	0.0184198
705.776	0.0183072
705.854	0.0180338
705.933	0.0179190
706.011	0.0177863
706.089	0.0175391
706.167	0.0174030
706.245	0.0172967
706.323	0.0172201
706.401	0.0170261
706.479	0.0170090
706.558	0.0169550
706.636	0.0170945
706.714	0.0172623
706.792	0.0174147
706.870	0.0175841
706.948	0.0178172
707.026	0.0178549
707.104	0.0181572
707.183	0.0184781
707.261	0.0184982
707.339	0.0187321
707.417	0.0189797
707.495	0.0189346
707.573	0.0189156
707.651	0.0189191
707.729	0.0189053
707.808	0.0187401
707.886	0.0186028
707.964	0.0184409
708.042	0.0183909
708.120	0.0180518
708.198	0.0180485
708.276	0.0179218
708.354	0.0178522
708.433	0.0177224
708.511	0.0177192
708.589	0.0176984
708.667	0.0175782
708.745	0.0176148
708.823	0.0176976
708.901	0.0176832
708.979	0.0176237
709.058	0.0176831
709.136	0.0178238
709.214	0.0178389
709.292	0.0180217
709.370	0.0179780
709.448	0.0179886
709.526	0.0183002
709.604	0.0182777
709.683	0.0182745
709.761	0.0181741
709.839	0.0181746
709.917	0.0182346
709.995	0.0180196
710.073	0.0178606
710.151	0.0179163
710.229	0.0177842
710.308	0.0178394
710.386	0.0178539
710.464	0.0179675
710.542	0.0180481
710.620	0.0180794
710.698	0.0180657
710.776	0.0181789
710.854	0.0184201
710.933	0.0184216
711.011	0.0184786
711.089	0.0184650
711.167	0.0185167
711.245	0.0184648
711.323	0.0184842
711.401	0.0184418
711.479	0.0183189
711.558	0.0182527
711.636	0.0181619
711.714	0.0182333
711.792	0.0180682
711.870	0.0182271
711.948	0.0181299
712.026	0.0179073
712.104	0.0178494
712.183	0.0178285
712.261	0.0177617
712.339	0.0178170
712.417	0.0177390
712.495	0.0177256
712.573	0.0178245
712.651	0.0177256
712.729	0.0177523
712.808	0.0179446
712.886	0.0179423
712.964	0.0179626
713.042	0.0179083
713.120	0.0180809
713.198	0.0180573
713.276	0.0181379
713.354	0.0180171
713.433	0.0180901
713.511	0.0181239
713.589	0.0179076
713.667	0.0179995
713.745	0.0180666
713.823	0.0182059
713.901	0.0182451
713.979	0.0181532
714.058	0.0181221
714.136	0.0182034
714.214	0.0181738
714.292	0.0181398
714.370	0.0180446
714.448	0.0181245
714.526	0.0182325
714.604	0.0182034
714.683	0.0182351
714.761	0.0182481
714.839	0.0184219
714.917	0.0184009
714.995	0.0185553
715.073	0.0184322
715.151	0.0184045
715.229	0.0184030
715.308	0.0183887
715.386	0.0184066
715.464	0.0182190
715.542	0.0180305
715.620	0.0181637
715.698	0.0180911
715.776	0.0178150
715.854	0.0178756
715.933	0.0178352
716.011	0.0180040
716.089	0.0180028
716.167	0.0180891
716.245	0.0181536
716.323	0.0182135
716.401	0.0183970
716.479	0.0183073
716.558	0.0183153
716.636	0.0183274
716.714	0.0183925
716.792	0.0181919
716.870	0.0182410
716.948	0.0182674
717.026	0.0181553
717.104	0.0180722
717.183	0.0182123
717.261	0.0180694
717.339	0.0179089
717.417	0.0179044
717.495	0.0179123
717.573	0.0177546
717.651	0.0177642
717.729	0.0177530
717.808	0.0175398
717.886	0.0176105
717.964	0.0177827
718.042	0.0176985
718.120	0.0176270
718.198	0.0177151
718.276	0.0176990
718.354	0.0176572
718.433	0.0177472
718.511	0.0178384
718.589	0.0178873
718.667	0.0179439
718.745	0.0179851
718.823	0.0180218
718.901	0.0180824
718.979	0.0180394
719.058	0.0181321
719.136	0.0182784
719.214	0.0182742
719.292	0.0181487
719.370	0.0182772
719.448	0.0181106
719.526	0.0180850
719.604	0.0179382
719.683	0.0179786
719.761	0.0179554
719.839	0.0178172
719.917	0.0178688
719.995	0.0178004
720.073	0.0177689
720.151	0.0179118
720.229	0.0177183
720.308	0.0177311
720.386	0.0177991
720.464	0.0180108
720.542	0.0181694
720.620	0.0182920
720.698	0.0183849
720.776	0.0185713
720.854	0.0184810
720.933	0.0185596
721.011	0.0186695
721.089	0.0186506
721.167	0.0185423
721.245	0.0187525
721.323	0.0185293
721.401	0.0182066
721.479	0.0183344
721.558	0.0181226
721.636	0.0178137
721.714	0.0179243
721.792	0.0178669
721.870	0.0176662
721.948	0.0174764
722.026	0.0174799
722.104	0.0175586
722.183	0.0175655
722.261	0.0175563
722.339	0.0178069
722.417	0.0178298
722.495	0.0178010
722.573	0.0178867
722.651	0.0180584
722.729	0.0183134
722.808	0.0182637
722.886	0.0182241
722.964	0.0184452
723.042	0.0185432
723.120	0.0185534
723.198	0.0185493
723.276	0.0185683
723.354	0.0183607
723.433	0.0184162
723.511	0.0182186
723.589	0.0181057
723.667	0.0181351
723.745	0.0180753
723.823	0.0177998
723.901	0.0177374
723.979	0.0177421
724.058	0.0176533
724.136	0.0177836
724.214	0.0178371
724.292	0.0177517
724.370	0.0176812
724.448	0.0178806
724.526	0.0178915
724.604	0.0178497
724.683	0.0180343
724.761	0.0181129
724.839	0.0182114
724.917	0.0182529
724.995	0.0184217
725.073	0.0182532
725.151	0.0182269
725.229	0.0182741
725.308	0.0183524
725.386	0.0182906
725.464	0.0184318
725.542	0.0183303
725.620	0.0180836
725.698	0.0181301
725.776	0.0181255
725.854	0.0179955
725.933	0.0180627
726.011	0.0179491
726.089	0.0179324
726.167	0.0178795
726.245	0.0178201
726.323	0.0178403
726.401	0.0180558
726.479	0.0180145
726.558	0.0179652
726.636	0.0180923
726.714	0.0181414
726.792	0.0182079
726.870	0.0182096
726.948	0.0183030
727.026	0.0183415
727.104	0.0183761
727.183	0.0183194
727.261	0.0182735
727.339	0.0181262
727.417	0.0181580
727.495	0.0181327
727.573	0.0180325
727.651	0.0180145
727.729	0.0179266
727.808	0.0178793
727.886	0.0177139
727.964	0.0178170
728.042	0.0177334
728.120	0.0178241
728.198	0.0178346
728.276	0.0177036
728.354	0.0176871
728.433	0.0178715
728.511	0.0178118
728.589	0.0176894
728.667	0.0178023
728.745	0.0180037
728.823	0.0179823
728.901	0.0180021
728.979	0.0179856
729.058	0.0180598
729.136	0.0179755
729.214	0.0180718
729.292	0.0181187
729.370	0.0181371
729.448	0.0181203
729.526	0.0180741
729.604	0.0180471
729.683	0.0180647
729.761	0.0179361
729.839	0.0179121
729.917	0.0179464
729.995	0.0179380
730.073	0.0180466
730.151	0.0180035
730.229	0.0181088
730.308	0.0180218
730.386	0.0181514
730.464	0.0181207
730.542	0.0181474
730.620	0.0182965
730.698	0.0183502
730.776	0.0183422
730.854	0.0185422
730.933	0.0185378
731.011	0.0184309
731.089	0.0183945
731.167	0.0184965
731.245	0.0184189
731.323	0.0183160
731.401	0.0181985
731.479	0.0182912
731.558	0.0182852
731.636	0.0180775
731.714	0.0180716
731.792	0.0180635
731.870	0.0180032
731.948	0.0180913
732.026	0.0178706
732.104	0.0179856
732.183	0.0179488
732.261	0.0179919
732.339	0.0179631
732.417	0.0180293
732.495	0.0179359
732.573	0.0180260
732.651	0.0180651
732.729	0.0180002
732.808	0.0180756
732.886	0.0180376
732.964	0.0181329
733.042	0.0181425
733.120	0.0180899
733.198	0.0182288
733.276	0.0180685
733.354	0.0181222
733.433	0.0180000
733.511	0.0180242
733.589	0.0180083
733.667	0.0179987
733.745	0.0179173
733.823	0.0179700
733.901	0.0178873
733.979	0.0179807
734.058	0.0180852
734.136	0.0180560
734.214	0.0181381
734.292	0.0181147
734.370	0.0180680
734.448	0.0182012
734.526	0.0181393
734.604	0.0183250
734.683	0.0182487
734.761	0.0182167
734.839	0.0183289
734.917	0.0183189
734.995	0.0182736
735.073	0.0182308
735.151	0.0181206
735.229	0.0181837
735.308	0.0180457
735.386	0.0180346
735.464	0.0180412
735.542	0.0181042
735.620	0.0181152
735.698	0.0179311
735.776	0.0179123
735.854	0.0180755
735.933	0.0181263
736.011	0.0181872
736.089	0.0181560
736.167	0.0181417
736.245	0.0181197
736.323	0.0182468
736.401	0.0181588
736.479	0.0181495
736.558	0.0182896
736.636	0.0181630
736.714	0.0181043
736.792	0.0181428
736.870	0.0181849
736.948	0.0181271
737.026	0.0181885
737.104	0.0180553
737.183	0.0179694
737.261	0.0181400
737.339	0.0179580
737.417	0.0179556
737.495	0.0179283
737.573	0.0180403
737.651	0.0179622
737.729	0.0179864
737.808	0.0179841
737.886	0.0180342
737.964	0.0179408
738.042	0.0178683
738.120	0.0180600
738.198	0.0179140
738.276	0.0179031
738.354	0.0179447
738.433	0.0179295
738.511	0.0177834
738.589	0.0180196
738.667	0.0179996
738.745	0.0179863
738.823	0.0180680
738.901	0.0180688
738.979	0.0180165
739.058	0.0179417
739.136	0.0181789
739.214	0.0180706
739.292	0.0180749
739.370	0.0181180
739.448	0.0180869
739.526	0.0182376
739.604	0.0182491
739.683	0.0180208
739.761	0.0181907
739.839	0.0182799
739.917	0.0183262
739.995	0.0183450
740.073	0.0183386
740.151	0.0182691
740.229	0.0184144
740.308	0.0182996
740.386	0.0184253
740.464	0.0182954
740.542	0.0182216
740.620	0.0181726
740.698	0.0183389
740.776	0.0183449
740.854	0.0181145
740.933	0.0182393
741.011	0.0181389
741.089	0.0179681
741.167	0.0180993
741.245	0.0181367
741.323	0.0179487
741.401	0.0180163
741.479	0.0180988
741.558	0.0179932
741.636	0.0179561
741.714	0.0179459
741.792	0.0179889
741.870	0.0179332
741.948	0.0180915
742.026	0.0179306
742.104	0.0178967
742.183	0.0181536
742.261	0.0179213
742.339	0.0180475
742.417	0.0179575
742.495	0.0180568
742.573	0.0180894
742.651	0.0180782
742.729	0.0180537
742.808	0.0181009
742.886	0.0179693
742.964	0.0179326
743.042	0.0179290
743.120	0.0179278
743.198	0.0180431
743.276	0.0180034
743.354	0.0179372
743.433	0.0178658
743.511	0.0180807
743.589	0.0180418
743.667	0.0180544
743.745	0.0180289
743.823	0.0181052
743.901	0.0181155
743.979	0.0181722
744.058	0.0181350
744.136	0.0181721
744.214	0.0180878
744.292	0.0181599
744.370	0.0182120
744.448	0.0180957
744.526	0.0180269
744.604	0.0180010
744.683	0.0180854
744.761	0.0179273
744.839	0.0179855
744.917	0.0180891
744.995	0.0179884
745.073	0.0180704
745.151	0.0180211
745.229	0.0181018
745.308	0.0181023
745.386	0.0180990
745.464	0.0180524
745.542	0.0181019
745.620	0.0182148
745.698	0.0182222
745.776	0.0181931
745.854	0.0181268
745.933	0.0181158
746.011	0.0182216
746.089	0.0182301
746.167	0.0180286
746.245	0.0181169
746.323	0.0181978
746.401	0.0180639
746.479	0.0180450
746.558	0.0181120
746.636	0.0181059
746.714	0.0180823
746.792	0.0180195
746.870	0.0180621
746.948	0.0180991
747.026	0.0181127
747.104	0.0181533
747.183	0.0180896
747.261	0.0180336
747.339	0.0180524
747.417	0.0179511
747.495	0.0179778
747.573	0.0178944
747.651	0.0180288
747.729	0.0180342
747.808	0.0179150
747.886	0.0181571
747.964	0.0180939
748.042	0.0179868
748.120	0.0180571
748.198	0.0179826
748.276	0.0181364
748.354	0.0181162
748.433	0.0180290
748.511	0.0180195
748.589	0.0180280
748.667	0.0182041
748.745	0.0181886
748.823	0.0180975
748.901	0.0180747
748.979	0.0179781
749.058	0.0180634
749.136	0.0179979
749.214	0.0181651
749.292	0.0181956
749.370	0.0181973
749.448	0.0180235
749.526	0.0182255
749.604	0.0181628
749.683	0.0183505
749.761	0.0182109
749.839	0.0183133
749.917	0.0181742
749.995	0.0181294
750.073	0.0182870
750.151	0.0183146
750.229	0.0181454
750.308	0.0181059
750.386	0.0179948
750.464	0.0179808
750.542	0.0179873
750.620	0.0179010
750.698	0.0179681
750.776	0.0178965
750.854	0.0178793
750.933	0.0179016
751.011	0.0179182
751.089	0.0178481
751.167	0.0179832
751.245	0.0180611
751.323	0.0181261
751.401	0.0180884
751.479	0.0181502
751.558	0.0180798
751.636	0.0179826
751.714	0.0180421
751.792	0.0179745
751.870	0.0180453
751.948	0.0181181
752.026	0.0180276
752.104	0.0179829
752.183	0.0179910
752.261	0.0179265
752.339	0.0178960
752.417	0.0179842
752.495	0.0177776
752.573	0.0179762
752.651	0.0179518
752.729	0.0181135
752.808	0.0179851
752.886	0.0180190
752.964	0.0181051
753.042	0.0181598
753.120	0.0181369
753.198	0.0182482
753.276	0.0182858
753.354	0.0181149
753.433	0.0182778
753.511	0.0182496
753.589	0.0183611
753.667	0.0184068
753.745	0.0182964
753.823	0.0183211
753.901	0.0183689
753.979	0.0181819
754.058	0.0181738
754.136	0.0181461
754.214	0.0182665
754.292	0.0182904
754.370	0.0182411
754.448	0.0183019
754.526	0.0181609
754.604	0.0181228
754.683	0.0181248
754.761	0.0181010
754.839	0.0181429
754.917	0.0180021
754.995	0.0179951
755.073	0.0178702
755.151	0.0179963
755.229	0.0179520
755.308	0.0179483
755.386	0.0178869
755.464	0.0180243
755.542	0.0179933
755.620	0.0179756
755.698	0.0180144
755.776	0.0179523
755.854	0.0180761
755.933	0.0181193
756.011	0.0181630
756.089	0.0181540
756.167	0.0181982
756.245	0.0181384
756.323	0.0181300
756.401	0.0182555
756.479	0.0180590
756.558	0.0181038
756.636	0.0180775
756.714	0.0180697
756.792	0.0180691
756.870	0.0181242
756.948	0.0180228
757.026	0.0179917
757.104	0.0179722
757.183	0.0180635
757.261	0.0179482
757.339	0.0179826
757.417	0.0178970
757.495	0.0178629
757.573	0.0179925
757.651	0.0179992
757.729	0.0180531
757.808	0.0179190
757.886	0.0179995
757.964	0.0180383
758.042	0.0180518
758.120	0.0180492
758.198	0.0182370
758.276	0.0182464
758.354	0.0181276
758.433	0.0179824
758.511	0.0181205
758.589	0.0183401
758.667	0.0181089
758.745	0.0181477
758.823	0.0181153
758.901	0.0180918
758.979	0.0180159
759.058	0.0180527
759.136	0.0179266
759.214	0.0179325
759.292	0.0179217
759.370	0.0179839
759.448	0.0178515
759.526	0.0180847
759.604	0.0179991
759.683	0.0181647
759.761	0.0181237
759.839	0.0181850
759.917	0.0181749
759.995	0.0182728
760.073	0.0180354
760.151	0.0181014
760.229	0.0181647
760.308	0.0182529
760.386	0.0183906
760.464	0.0182504
760.542	0.0181676
760.620	0.0182550
760.698	0.0182591
760.776	0.0182573
760.854	0.0182581
760.933	0.0181724
761.011	0.0181538
761.089	0.0181143
761.167	0.0181927
761.245	0.0181617
761.323	0.0180938
761.401	0.0180564
761.479	0.0179303
761.558	0.0181007
761.636	0.0180819
761.714	0.0180166
761.792	0.0181254
761.870	0.0181668
761.948	0.0180154
762.026	0.0181799
762.104	0.0180965
762.183	0.0182155
762.261	0.0181715
762.339	0.0181974
762.417	0.0182764
762.495	0.0182542
762.573	0.0182878
762.651	0.0182508
762.729	0.0182002
762.808	0.0182004
762.886	0.0182003
762.964	0.0180428
763.042	0.0181203
763.120	0.0181768
763.198	0.0181060
763.276	0.0181766
763.354	0.0181030
763.433	0.0182616
763.511	0.0181078
763.589	0.0180906
763.667	0.0182135
763.745	0.0183000
763.823	0.0180368
763.901	0.0182565
763.979	0.0183785
764.058	0.0181187
764.136	0.0181412
764.214	0.0181898
764.292	0.0181862
764.370	0.0181432
764.448	0.0180589
764.526	0.0181672
764.604	0.0181696
764.683	0.0180071
764.761	0.0180455
764.839	0.0180011
764.917	0.0179873
764.995	0.0179679
765.073	0.0179787
765.151	0.0179956
765.229	0.0179863
765.308	0.0178878
765.386	0.0178976
765.464	0.0180264
765.542	0.0180702
765.620	0.0180265
765.698	0.0180438
765.776	0.0179199
765.854	0.0180861
765.933	0.0178842
766.011	0.0180765
766.089	0.0181100
766.167	0.0181110
766.245	0.0180804
766.323	0.0181038
766.401	0.0180772
766.479	0.0181957
766.558	0.0182211
766.636	0.0180275
766.714	0.0181943
766.792	0.0181416
766.870	0.0180865
766.948	0.0181564
767.026	0.0182249
767.104	0.0180571
767.183	0.0182041
767.261	0.0182574
767.339	0.0180251
767.417	0.0180282
767.495	0.0180547
767.573	0.0181161
767.651	0.0180729
767.729	0.0180185
767.808	0.0180256
767.886	0.0180814
767.964	0.0180337
768.042	0.0179404
768.120	0.0180409
768.198	0.0180382
768.276	0.0181270
768.354	0.0181071
768.433	0.0180884
768.511	0.0181307
768.589	0.0180936
768.667	0.0180412
768.745	0.0180884
768.823	0.0181977
768.901	0.0181972
768.979	0.0182546
769.058	0.0180770
769.136	0.0182923
769.214	0.0180614
769.292	0.0182062
769.370	0.0181836
769.448	0.0181594
769.526	0.0180715
769.604	0.0180582
769.683	0.0181921
769.761	0.0182036
769.839	0.0182801
769.917	0.0182668
769.995	0.0181820
770.073	0.0181460
770.151	0.0180469
770.229	0.0180661
770.308	0.0180881
770.386	0.0180872
770.464	0.0180302
770.542	0.0180421
770.620	0.0181161
770.698	0.0179771
770.776	0.0180029
770.854	0.0180323
770.933	0.0179879
771.011	0.0180332
771.089	0.0181074
771.167	0.0180395
771.245	0.0181165
771.323	0.0181927
771.401	0.0180789
771.479	0.0182173
771.558	0.0182417
771.636	0.0179732
771.714	0.0180634
771.792	0.0180847
771.870	0.0180170
771.948	0.0180821
772.026	0.0181173
772.104	0.0180377
772.183	0.0180534
772.261	0.0178956
772.339	0.0180116
772.417	0.0181290
772.495	0.0179808
772.573	0.0179483
772.651	0.0178499
772.729	0.0180167
772.808	0.0180103
772.886	0.0178863
772.964	0.0179337
773.042	0.0180164
773.120	0.0180373
773.198	0.0179494
773.276	0.0181300
773.354	0.0182129
773.433	0.0182397
773.511	0.0180608
773.589	0.0180180
773.667	0.0181598
773.745	0.0181542
773.823	0.0181480
773.901	0.0181425
773.979	0.0180464
774.058	0.0180494
774.136	0.0181830
774.214	0.0181310
774.292	0.0179726
774.370	0.0180334
774.448	0.0180767
774.526	0.0180402
774.604	0.0180252
774.683	0.0180438
774.761	0.0178891
774.839	0.0179916
774.917	0.0179404
774.995	0.0179601
775.073	0.0181131
775.151	0.0180777
775.229	0.0180247
775.308	0.0179877
775.386	0.0180649
775.464	0.0179596
775.542	0.0180207
775.620	0.0179575
775.698	0.0181597
775.776	0.0182051
775.854	0.0181031
775.933	0.0182082
776.011	0.0184576
776.089	0.0182684
776.167	0.0183016
776.245	0.0183216
776.323	0.0183364
776.401	0.0182738
776.479	0.0183665
776.558	0.0182835
776.636	0.0182803
776.714	0.0183624
776.792	0.0181818
776.870	0.0181676
776.948	0.0183594
777.026	0.0181813
777.104	0.0180333
777.183	0.0179715
777.261	0.0180542
777.339	0.0179873
777.417	0.0179044
777.495	0.0178973
777.573	0.0180206
777.651	0.0180048
777.729	0.0179070
777.808	0.0180549
777.886	0.0181370
777.964	0.0181226
778.042	0.0180106
778.120	0.0180810
778.198	0.0182101
778.276	0.0182182
778.354	0.0182251
778.433	0.0183147
778.511	0.0182555
778.589	0.0182336
778.667	0.0182260
778.745	0.0182623
778.823	0.0182153
778.901	0.0181322
778.979	0.0181665
779.058	0.0183404
779.136	0.0182766
779.214	0.0180292
779.292	0.0180177
779.370	0.0180797
779.448	0.0180983
779.526	0.0181151
779.604	0.0181387
779.683	0.0180768
779.761	0.0182507
779.839	0.0181656
779.917	0.0180328
779.995	0.0182132
780.073	0.0181638
780.151	0.0181200
780.229	0.0180605
780.308	0.0180378
780.386	0.0180367
780.464	0.0181492
780.542	0.0180035
780.620	0.0181779
780.698	0.0180408
780.776	0.0181771
780.854	0.0182579
780.933	0.0179742
781.011	0.0181188
781.089	0.0180679
781.167	0.0180408
781.245	0.0180067
781.323	0.0179818
781.401	0.0181861
781.479	0.0181449
781.558	0.0180891
781.636	0.0179630
781.714	0.0181106
781.792	0.0180123
781.870	0.0179675
781.948	0.0178847
782.026	0.0179163
782.104	0.0179418
782.183	0.0181436
782.261	0.0180125
782.339	0.0179956
782.417	0.0179256
782.495	0.0179657
782.573	0.0179919
782.651	0.0178762
782.729	0.0179184
782.808	0.0181242
782.886	0.0180411
782.964	0.0179337
783.042	0.0181259
783.120	0.0181541
783.198	0.0181038
783.276	0.0181430
783.354	0.0181579
783.433	0.0182430
783.511	0.0181335
783.589	0.0182677
783.667	0.0181187
783.745	0.0180776
783.823	0.0180759
783.901	0.0183576
783.979	0.0182104
784.058	0.0182113
784.136	0.0182511
784.214	0.0182166
784.292	0.0181543
784.370	0.0180770
784.448	0.0181106
784.526	0.0182062
784.604	0.0180734
784.683	0.0182092
784.761	0.0181892
784.839	0.0182660
784.917	0.0181367
784.995	0.0181433
785.073	0.0180173
785.151	0.0180379
785.229	0.0180409
785.308	0.0181756
785.386	0.0181071
785.464	0.0179443
785.542	0.0180928
785.620	0.0180857
785.698	0.0181649
785.776	0.0180170
785.854	0.0181527
785.933	0.0180058
786.011	0.0181477
786.089	0.0180426
786.167	0.0180449
786.245	0.0181021
786.323	0.0180875
786.401	0.0181345
786.479	0.0180553
786.558	0.0180713
786.636	0.0180820
786.714	0.0180507
786.792	0.0180558
786.870	0.0181971
786.948	0.0182172
787.026	0.0181635
787.104	0.0180163
787.183	0.0181304
787.261	0.0179530
787.339	0.0181147
787.417	0.0182155
787.495	0.0180918
787.573	0.0178982
787.651	0.0181568
787.729	0.0181789
787.808	0.0181440
787.886	0.0181128
787.964	0.0180789
788.042	0.0181216
788.120	0.0181908
788.198	0.0180138
788.276	0.0179561
788.354	0.0181356
788.433	0.0180081
788.511	0.0178927
788.589	0.0179652
788.667	0.0180475
788.745	0.0181262
788.823	0.0180630
788.901	0.0179932
788.979	0.0179841
789.058	0.0180361
789.136	0.0180165
789.214	0.0181854
789.292	0.0181706
789.370	0.0181186
789.448	0.0181468
789.526	0.0181242
789.604	0.0180865
789.683	0.0181534
789.761	0.0181405
789.839	0.0181623
789.917	0.0179491
789.995	0.0181169
790.073	0.0181210
790.151	0.0181547
790.229	0.0180696
790.308	0.0179961
790.386	0.0178965
790.464	0.0180794
790.542	0.0181449
790.620	0.0179617
790.698	0.0180803
790.776	0.0180543
790.854	0.0179339
790.933	0.0180698
791.011	0.0181074
791.089	0.0181429
791.167	0.0181195
791.245	0.0179626
791.323	0.0181610
791.401	0.0180425
791.479	0.0179673
791.558	0.0180992
791.636	0.0181763
791.714	0.0181366
791.792	0.0180499
791.870	0.0181680
791.948	0.0181373
792.026	0.0180954
792.104	0.0181731
792.183	0.0181896
792.261	0.0182733
792.339	0.0181976
792.417	0.0181742
792.495	0.0182061
792.573	0.0180869
792.651	0.0181561
792.729	0.0181097
792.808	0.0181775
792.886	0.0180634
792.964	0.0181609
793.042	0.0181126
793.120	0.0180166
793.198	0.0179057
793.276	0.0179857
793.354	0.0180450
793.433	0.0181118
793.511	0.0180408
793.589	0.0181126
793.667	0.0181842
793.745	0.0181401
793.823	0.0181044
793.901	0.0180486
793.979	0.0181335
794.058	0.0181078
794.136	0.0181450
794.214	0.0182178
794.292	0.0181239
794.370	0.0181236
794.448	0.0182140
794.526	0.0181436
794.604	0.0181596
794.683	0.0181259
794.761	0.0180925
794.839	0.0182622
794.917	0.0181670
794.995	0.0180431
795.073	0.0180164
795.151	0.0179481
795.229	0.0180885
795.308	0.0179642
795.386	0.0179333
795.464	0.0182323
795.542	0.0182465
795.620	0.0181401
795.698	0.0182612
795.776	0.0182053
795.854	0.0181459
795.933	0.0181924
796.011	0.0181948
796.089	0.0183183
796.167	0.0181464
796.245	0.0180773
796.323	0.0183101
796.401	0.0181827
796.479	0.0182216
796.558	0.0183262
796.636	0.0182285
796.714	0.0182623
796.792	0.0182862
796.870	0.0181645
796.948	0.0180813
797.026	0.0182073
797.104	0.0181759
797.183	0.0181024
797.261	0.0180025
797.339	0.0181670
797.417	0.0180123
797.495	0.0180244
797.573	0.0179869
797.651	0.0181480
797.729	0.0181178
797.808	0.0179952
797.886	0.0181748
797.964	0.0181795
798.042	0.0181635
798.120	0.0180418
798.198	0.0181032
798.276	0.0181611
798.354	0.0180827
798.433	0.0180951
798.511	0.0180711
798.589	0.0182181
798.667	0.0182863
798.745	0.0182054
798.823	0.0181057
798.901	0.0181796
798.979	0.0182795
799.058	0.0182054
799.136	0.0179516
799.214	0.0179871
799.292	0.0180718
799.370	0.0180625
799.448	0.0178859
799.526	0.0179858
799.604	0.0179371
799.683	0.0179164
799.761	0.0180377
799.839	0.0180806
799.917	0.0180450
799.995	0.0179739
800.073	0.0180220
800.151	0.0180183
800.229	0.0180163
800.308	0.0179987
800.386	0.0182286
800.464	0.0180736
800.542	0.0181120
800.620	0.0182196
800.698	0.0181766
800.776	0.0180443
800.854	0.0180774
800.933	0.0181322
801.011	0.0181260
801.089	0.0182462
801.167	0.0181086
801.245	0.0181292
801.323	0.0181238
801.401	0.0182080
801.479	0.0181106
801.558	0.0179435
801.636	0.0180927
801.714	0.0181797
801.792	0.0183003
801.870	0.0181994
801.948	0.0180762
802.026	0.0181456
802.104	0.0181252
802.183	0.0181772
802.261	0.0181271
802.339	0.0181602
802.417	0.0181285
802.495	0.0180756
802.573	0.0182175
802.651	0.0181097
802.729	0.0179631
802.808	0.0179012
802.886	0.0180934
802.964	0.0181343
803.042	0.0181547
803.120	0.0179298
803.198	0.0179648
803.276	0.0180335
803.354	0.0178178
803.433	0.0179475
803.511	0.0179359
803.589	0.0180496
803.667	0.0178623
803.745	0.0178548
803.823	0.0180328
803.901	0.0179597
803.979	0.0179675
804.058	0.0180371
804.136	0.0180770
804.214	0.0179715
804.292	0.0181248
804.370	0.0179265
804.448	0.0180532
804.526	0.0181822
804.604	0.0181715
804.683	0.0181578
804.761	0.0180334
804.839	0.0181409
804.917	0.0181081
804.995	0.0182664
805.073	0.0181758
805.151	0.0182026
805.229	0.0181738
805.308	0.0181998
805.386	0.0180363
805.464	0.0180798
805.542	0.0179997
805.620	0.0181893
805.698	0.0181108
805.776	0.0180417
805.854	0.0181591
805.933	0.0180096
806.011	0.0180236
806.089	0.0180241
806.167	0.0181142
806.245	0.0181075
806.323	0.0180387
806.401	0.0181335
806.479	0.0182710
806.558	0.0181445
806.636	0.0179479
806.714	0.0179953
806.792	0.0181303
806.870	0.0180719
806.948	0.0181724
807.026	0.0180842
807.104	0.0182005
807.183	0.0181233
807.261	0.0180422
807.339	0.0180512
807.417	0.0181309
807.495	0.0180897
807.573	0.0181470
807.651	0.0182702
807.729	0.0182172
807.808	0.0183760
807.886	0.0181822
807.964	0.0181235
808.042	0.0182928
808.120	0.0183091
808.198	0.0183561
808.276	0.0182841
808.354	0.0183199
808.433	0.0183494
808.511	0.0183554
808.589	0.0182036
808.667	0.0182797
808.745	0.0182502
808.823	0.0182459
808.901	0.0181919
808.979	0.0181767
809.058	0.0181487
809.136	0.0181576
809.214	0.0182303
809.292	0.0181897
809.370	0.0180238
809.448	0.0181879
809.526	0.0181528
809.604	0.0181042
809.683	0.0180600
809.761	0.0180140
809.839	0.0179651
809.917	0.0181821
809.995	0.0180622
810.073	0.0180101
810.151	0.0180399
810.229	0.0179977
810.308	0.0180082
810.386	0.0180882
810.464	0.0181602
810.542	0.0181711
810.620	0.0181457
810.698	0.0180970
810.776	0.0181297
810.854	0.0179939
810.933	0.0181465
811.011	0.0181703
811.089	0.0181374
811.167	0.0181832
811.245	0.0181090
811.323	0.0180991
811.401	0.0179958
811.479	0.0180527
811.558	0.0179752
811.636	0.0181259
811.714	0.0180490
811.792	0.0182125
811.870	0.0180649
811.948	0.0179334
812.026	0.0180165
812.104	0.0181571
812.183	0.0180630
812.261	0.0180025
812.339	0.0179585
812.417	0.0181461
812.495	0.0180872
812.573	0.0181268
812.651	0.0180917
812.729	0.0180251
812.808	0.0180522
812.886	0.0180346
812.964	0.0180843
813.042	0.0180932
813.120	0.0181008
813.198	0.0182856
813.276	0.0181796
813.354	0.0180650
813.433	0.0180563
813.511	0.0179169
813.589	0.0180861
813.667	0.0181425
813.745	0.0180939
813.823	0.0181037
813.901	0.0180958
813.979	0.0179612
814.058	0.0181241
814.136	0.0180321
814.214	0.0180849
814.292	0.0181219
814.370	0.0179914
814.448	0.0181595
814.526	0.0182795
814.604	0.0181383
814.683	0.0181252
814.761	0.0183470
814.839	0.0181580
814.917	0.0181068
814.995	0.0182401
815.073	0.0181403
815.151	0.0181975
815.229	0.0181734
815.308	0.0181129
815.386	0.0182260
815.464	0.0182900
815.542	0.0180978
815.620	0.0181616
815.698	0.0180886
815.776	0.0180547
815.854	0.0179879
815.933	0.0179355
816.011	0.0179877
816.089	0.0179326
816.167	0.0179526
816.245	0.0179150
816.323	0.0180434
816.401	0.0180767
816.479	0.0179733
816.558	0.0179066
816.636	0.0181454
816.714	0.0180750
816.792	0.0180733
816.870	0.0180117
816.948	0.0181368
817.026	0.0181425
817.104	0.0180954
817.183	0.0181770
817.261	0.0181757
817.339	0.0182147
817.417	0.0180950
817.495	0.0180836
817.573	0.0181987
817.651	0.0181871
817.729	0.0180785
817.808	0.0181436
817.886	0.0181380
817.964	0.0181322
818.042	0.0180310
818.120	0.0180449
818.198	0.0179472
818.276	0.0179694
818.354	0.0180607
818.433	0.0181091
818.511	0.0179887
818.589	0.0178754
818.667	0.0180821
818.745	0.0182972
818.823	0.0181480
818.901	0.0181715
818.979	0.0180521
819.058	0.0182107
819.136	0.0182525
819.214	0.0181779
819.292	0.0181602
819.370	0.0182667
819.448	0.0182204
819.526	0.0180072
819.604	0.0181281
819.683	0.0181335
819.761	0.0181978
819.839	0.0182327
819.917	0.0182870
819.995	0.0182949
820.073	0.0181718
820.151	0.0180956
820.229	0.0179762
820.308	0.0180212
820.386	0.0180136
820.464	0.0181663
820.542	0.0181470
820.620	0.0179847
820.698	0.0180696
820.776	0.0181863
820.854	0.0179542
820.933	0.0181284
821.011	0.0181866
821.089	0.0180265
821.167	0.0180357
821.245	0.0181275
821.323	0.0181909
821.401	0.0182157
821.479	0.0179655
821.558	0.0181332
821.636	0.0181030
821.714	0.0181177
821.792	0.0181249
821.870	0.0180833
821.948	0.0181767
822.026	0.0180772
822.104	0.0180373
822.183	0.0180142
822.261	0.0180836
822.339	0.0181520
822.417	0.0180365
822.495	0.0180086
822.573	0.0181380
822.651	0.0180768
822.729	0.0181212
822.808	0.0180939
822.886	0.0180424
822.964	0.0181833
823.042	0.0181138
823.120	0.0181557
823.198	0.0180960
823.276	0.0181451
823.354	0.0182014
823.433	0.0182026
823.511	0.0182484
823.589	0.0182901
823.667	0.0181056
823.745	0.0181145
823.823	0.0181442
823.901	0.0180495
823.979	0.0181791
824.058	0.0180905
824.136	0.0180225
824.214	0.0182059
824.292	0.0181439
824.370	0.0180321
824.448	0.0180172
824.526	0.0179046
824.604	0.0178447
824.683	0.0180093
824.761	0.0180835
824.839	0.0179828
824.917	0.0179475
824.995	0.0179439
825.073	0.0179588
825.151	0.0179312
825.229	0.0178930
825.308	0.0178936
825.386	0.0179395
825.464	0.0179321
825.542	0.0180045
825.620	0.0181718
825.698	0.0181208
825.776	0.0180168
825.854	0.0181632
825.933	0.0181115
826.011	0.0181143
826.089	0.0181668
826.167	0.0181354
826.245	0.0180537
826.323	0.0180772
826.401	0.0181295
826.479	0.0181657
826.558	0.0180367
826.636	0.0180511
826.714	0.0180084
826.792	0.0180357
826.870	0.0181210
826.948	0.0179874
827.026	0.0180365
827.104	0.0181235
827.183	0.0180215
827.261	0.0180190
827.339	0.0180955
827.417	0.0179728
827.495	0.0180968
827.573	0.0181028
827.651	0.0180785
827.729	0.0180097
827.808	0.0180368
827.886	0.0181034
827.964	0.0182269
828.042	0.0181429
828.120	0.0179915
828.198	0.0180753
828.276	0.0180910
828.354	0.0180994
828.433	0.0180092
828.511	0.0180338
828.589	0.0182027
828.667	0.0181177
828.745	0.0180842
828.823	0.0181519
828.901	0.0180603
828.979	0.0180404
829.058	0.0179972
829.136	0.0180205
829.214	0.0180803
829.292	0.0180906
829.370	0.0182191
829.448	0.0180703
829.526	0.0182629
829.604	0.0180354
829.683	0.0179816
829.761	0.0181803
829.839	0.0179694
829.917	0.0179873
829.995	0.0181964
830.073	0.0180305
830.151	0.0179940
830.229	0.0180093
830.308	0.0180074
830.386	0.0180652
830.464	0.0180214
830.542	0.0180611
830.620	0.0179792
830.698	0.0180054
830.776	0.0178757
830.854	0.0179483
830.933	0.0178850
831.011	0.0178036
831.089	0.0178897
831.167	0.0179488
831.245	0.0179809
831.323	0.0180212
831.401	0.0179320
831.479	0.0180408
831.558	0.0180256
831.636	0.0179736
831.714	0.0179805
831.792	0.0180975
831.870	0.0182075
831.948	0.0180825
832.026	0.0181216
832.104	0.0181765
832.183	0.0181355
832.261	0.0180390
832.339	0.0181971
832.417	0.0182098
832.495	0.0181519
832.573	0.0181762
832.651	0.0182187
832.729	0.0181694
832.808	0.0179846
832.886	0.0181597
832.964	0.0182077
833.042	0.0179522
833.120	0.0179344
833.198	0.0180866
833.276	0.0180520
833.354	0.0180801
833.433	0.0179106
833.511	0.0181535
833.589	0.0181817
833.667	0.0180407
833.745	0.0179612
833.823	0.0180341
833.901	0.0180728
833.979	0.0180598
834.058	0.0180952
834.136	0.0180911
834.214	0.0181533
834.292	0.0182498
834.370	0.0181040
834.448	0.0179706
834.526	0.0181285
834.604	0.0182097
834.683	0.0180637
834.761	0.0181369
834.839	0.0181158
834.917	0.0181715
834.995	0.0180789
835.073	0.0180762
835.151	0.0181760
835.229	0.0181240
835.308	0.0180184
835.386	0.0181017
835.464	0.0181229
835.542	0.0180096
835.620	0.0181372
835.698	0.0181622
835.776	0.0181166
835.854	0.0181078
835.933	0.0180223
836.011	0.0180548
836.089	0.0180102
836.167	0.0180323
836.245	0.0179842
836.323	0.0179890
836.401	0.0180405
836.479	0.0179250
836.558	0.0178915
836.636	0.0178952
836.714	0.0178952
836.792	0.0178489
836.870	0.0179982
836.948	0.0180491
837.026	0.0179533
837.104	0.0178776
837.183	0.0180605
837.261	0.0181792
837.339	0.0181113
837.417	0.0179550
837.495	0.0180846
837.573	0.0180241
837.651	0.0181635
837.729	0.0181348
837.808	0.0180542
837.886	0.0180564
837.964	0.0180970
838.042	0.0181787
838.120	0.0182426
838.198	0.0180697
838.276	0.0181235
838.354	0.0181317
838.433	0.0180319
838.511	0.0181701
838.589	0.0180046
838.667	0.0180542
838.745	0.0181357
838.823	0.0180376
838.901	0.0181658
838.979	0.0180884
839.058	0.0178897
839.136	0.0180949
839.214	0.0179377
839.292	0.0178247
839.370	0.0179257
839.448	0.0181847
839.526	0.0180454
839.604	0.0179111
839.683	0.0179583
839.761	0.0179630
839.839	0.0180196
839.917	0.0179578
839.995	0.0180607
840.073	0.0180708
840.151	0.0180276
840.229	0.0180778
840.308	0.0181308
840.386	0.0181062
840.464	0.0180001
840.542	0.0180116
840.620	0.0181641
840.698	0.0181807
840.776	0.0180872
840.854	0.0180517
840.933	0.0180656
841.011	0.0180237
841.089	0.0180813
841.167	0.0180832
841.245	0.0181402
841.323	0.0179309
841.401	0.0178506
841.479	0.0178625
841.558	0.0179427
841.636	0.0180003
841.714	0.0179659
841.792	0.0180494
841.870	0.0180280
841.948	0.0179332
842.026	0.0180233
842.104	0.0179198
842.183	0.0179538
842.261	0.0179698
842.339	0.0181122
842.417	0.0182221
842.495	0.0180849
842.573	0.0180965
842.651	0.0180212
842.729	0.0181963
842.808	0.0179317
842.886	0.0181937
842.964	0.0182469
843.042	0.0181767
843.120	0.0181638
843.198	0.0180532
843.276	0.0180370
843.354	0.0180580
843.433	0.0181158
843.511	0.0181802
843.589	0.0181380
843.667	0.0181637
843.745	0.0181046
843.823	0.0181488
843.901	0.0180200
843.979	0.0180977
844.058	0.0181263
844.136	0.0182989
844.214	0.0180499
844.292	0.0181582
844.370	0.0182466
844.448	0.0181148
844.526	0.0180402
844.604	0.0182120
844.683	0.0181455
844.761	0.0181021
844.839	0.0181552
844.917	0.0181636
844.995	0.0182320
845.073	0.0180630
845.151	0.0180644
845.229	0.0182518
845.308	0.0181091
845.386	0.0180463
845.464	0.0179903
845.542	0.0180779
845.620	0.0180125
845.698	0.0180486
845.776	0.0180087
845.854	0.0180068
845.933	0.0179889
846.011	0.0179687
846.089	0.0179852
846.167	0.0180859
846.245	0.0179731
846.323	0.0179877
846.401	0.0180930
846.479	0.0180902
846.558	0.0180746
846.636	0.0179758
846.714	0.0181463
846.792	0.0181173
846.870	0.0179825
846.948	0.0180735
847.026	0.0180025
847.104	0.0180027
847.183	0.0179442
847.261	0.0181076
847.339	0.0180446
847.417	0.0181741
847.495	0.0181341
847.573	0.0180424
847.651	0.0181481
847.729	0.0180444
847.808	0.0181264
847.886	0.0182360
847.964	0.0180990
848.042	0.0179785
848.120	0.0181340
848.198	0.0180670
848.276	0.0179829
848.354	0.0180509
848.433	0.0181299
848.511	0.0181909
848.589	0.0180346
848.667	0.0180264
848.745	0.0181841
848.823	0.0181856
848.901	0.0181396
848.979	0.0182240
849.058	0.0181752
849.136	0.0181544
849.214	0.0181380
849.292	0.0181288
849.370	0.0181055
849.448	0.0180484
849.526	0.0181371
849.604	0.0180815
849.683	0.0180158
849.761	0.0180296
849.839	0.0180077
849.917	0.0179750
849.995	0.0179314
850.073	0.0179688
850.151	0.0180267
850.229	0.0179205
850.308	0.0179929
850.386	0.0179977
850.464	0.0179030
850.542	0.0179266
850.620	0.0180413
850.698	0.0180804
850.776	0.0179605
850.854	0.0179559
850.933	0.0180013
851.011	0.0179505
851.089	0.0180199
851.167	0.0180180
851.245	0.0179854
851.323	0.0180817
851.401	0.0181551
851.479	0.0182330
851.558	0.0181032
851.636	0.0179311
851.714	0.0180147
851.792	0.0181120
851.870	0.0181886
851.948	0.0181458
852.026	0.0180737
852.104	0.0181242
852.183	0.0179196
852.261	0.0179184
852.339	0.0179610
852.417	0.0181066
852.495	0.0181915
852.573	0.0180942
852.651	0.0180506
852.729	0.0179932
852.808	0.0180019
852.886	0.0179216
852.964	0.0181104
853.042	0.0179095
853.120	0.0180325
853.198	0.0180943
853.276	0.0180042
853.354	0.0179942
853.433	0.0180401
853.511	0.0180352
853.589	0.0180280
853.667	0.0180836
853.745	0.0180743
853.823	0.0180637
853.901	0.0179443
853.979	0.0178754
854.058	0.0180059
854.136	0.0180583
854.214	0.0179588
854.292	0.0178664
854.370	0.0177491
854.448	0.0179431
854.526	0.0180842
854.604	0.0180904
854.683	0.0179256
854.761	0.0178925
854.839	0.0178647
854.917	0.0179232
854.995	0.0179827
855.073	0.0179974
855.151	0.0179377
855.229	0.0179684
855.308	0.0179205
855.386	0.0179331
855.464	0.0181161
855.542	0.0180058
855.620	0.0180412
855.698	0.0179678
855.776	0.0182166
855.854	0.0180287
855.933	0.0180993
856.011	0.0180987
856.089	0.0181150
856.167	0.0181428
856.245	0.0182032
856.323	0.0181985
856.401	0.0181145
856.479	0.0182247
856.558	0.0180447
856.636	0.0181264
856.714	0.0181297
856.792	0.0180345
856.870	0.0181145
856.948	0.0180090
857.026	0.0180495
857.104	0.0181801
857.183	0.0181320
857.261	0.0182392
857.339	0.0180684
857.417	0.0181721
857.495	0.0182850
857.573	0.0180231
857.651	0.0183540
857.729	0.0180354
857.808	0.0181355
857.886	0.0181329
857.964	0.0181847
858.042	0.0180769
858.120	0.0182422
858.198	0.0180950
858.276	0.0181505
858.354	0.0181400
858.433	0.0181385
858.511	0.0181219
858.589	0.0181377
858.667	0.0181471
858.745	0.0181284
858.823	0.0179969
858.901	0.0181482
858.979	0.0180815
859.058	0.0181033
859.136	0.0181332
859.214	0.0180565
859.292	0.0180759
859.370	0.0182021
859.448	0.0181297
859.526	0.0180965
859.604	0.0180199
859.683	0.0182427
859.761	0.0181663
859.839	0.0181338
859.917	0.0181170
859.995	0.0180343
860.073	0.0180551
860.151	0.0181761
860.229	0.0181049
860.308	0.0180083
860.386	0.0182114
860.464	0.0178483
860.542	0.0179646
860.620	0.0181746
860.698	0.0180372
860.776	0.0180608
860.854	0.0181479
860.933	0.0180206
861.011	0.0180657
861.089	0.0179638
861.167	0.0181679
861.245	0.0181142
861.323	0.0179857
861.401	0.0181062
861.479	0.0181461
861.558	0.0180429
861.636	0.0179748
861.714	0.0181285
861.792	0.0179050
861.870	0.0179948
861.948	0.0182501
862.026	0.0181607
862.104	0.0180242
862.183	0.0181060
862.261	0.0180534
862.339	0.0181251
862.417	0.0180475
862.495	0.0180354
862.573	0.0180030
862.651	0.0179643
862.729	0.0180639
862.808	0.0179945
862.886	0.0178775
862.964	0.0179865
863.042	0.0179510
863.120	0.0179807
863.198	0.0180112
863.276	0.0179867
863.354	0.0179777
863.433	0.0180962
863.511	0.0179858
863.589	0.0180678
863.667	0.0179999
863.745	0.0181285
863.823	0.0180260
863.901	0.0181029
863.979	0.0181184
864.058	0.0179849
864.136	0.0180228
864.214	0.0180437
864.292	0.0179788
864.370	0.0181400
864.448	0.0181673
864.526	0.0179987
864.604	0.0181014
864.683	0.0180286
864.761	0.0181569
864.839	0.0180969
864.917	0.0180016
864.995	0.0181081
865.073	0.0181916
865.151	0.0180548
865.229	0.0180289
865.308	0.0180896
865.386	0.0180827
865.464	0.0181221
865.542	0.0181636
865.620	0.0180685
865.698	0.0181641
865.776	0.0182357
865.854	0.0182388
865.933	0.0181059
866.011	0.0181892
866.089	0.0181066
866.167	0.0181118
866.245	0.0182312
866.323	0.0181564
866.401	0.0180260
866.479	0.0180189
866.558	0.0181541
866.636	0.0180991
866.714	0.0182072
866.792	0.0179993
866.870	0.0180338
866.948	0.0179849
867.026	0.0180549
867.104	0.0180496
867.183	0.0179793
867.261	0.0180332
867.339	0.0179720
867.417	0.0180059
867.495	0.0180920
867.573	0.0180796
867.651	0.0180627
867.729	0.0180570
867.808	0.0181085
867.886	0.0180712
867.964	0.0179906
868.042	0.0180318
868.120	0.0181041
868.198	0.0181399
868.276	0.0181617
868.354	0.0182507
868.433	0.0181485
868.511	0.0181368
868.589	0.0182156
868.667	0.0180235
868.745	0.0181949
868.823	0.0183372
868.901	0.0182375
868.979	0.0182082
869.058	0.0182100
869.136	0.0182018
869.214	0.0182026
869.292	0.0183589
869.370	0.0182646
869.448	0.0181505
869.526	0.0182336
869.604	0.0181145
869.683	0.0181557
869.761	0.0181140
869.839	0.0181745
869.917	0.0182120
869.995	0.0182112
870.073	0.0181949
870.151	0.0181401
870.229	0.0181200
870.308	0.0181825
870.386	0.0181700
870.464	0.0180878
870.542	0.0178989
870.620	0.0179276
870.698	0.0180898
870.776	0.0180719
870.854	0.0179981
870.933	0.0179926
871.011	0.0179674
871.089	0.0179566
871.167	0.0179330
871.245	0.0181179
871.323	0.0179658
871.401	0.0179169
871.479	0.0179972
871.558	0.0181529
871.636	0.0180582
871.714	0.0179462
871.792	0.0181613
871.870	0.0180566
871.948	0.0179695
872.026	0.0181983
872.104	0.0181750
872.183	0.0181496
872.261	0.0180843
872.339	0.0181145
872.417	0.0181059
872.495	0.0181012
872.573	0.0181354
872.651	0.0181756
872.729	0.0182009
872.808	0.0181808
872.886	0.0182761
872.964	0.0181068
873.042	0.0180452
873.120	0.0180897
873.198	0.0181707
873.276	0.0180820
873.354	0.0180344
873.433	0.0180419
873.511	0.0181001
873.589	0.0180194
873.667	0.0181232
873.745	0.0180781
873.823	0.0180367
873.901	0.0181232
873.979	0.0181268
874.058	0.0181860
874.136	0.0181583
874.214	0.0180109
874.292	0.0180655
874.370	0.0182079
874.448	0.0181142
874.526	0.0181062
874.604	0.0180309
874.683	0.0181508
874.761	0.0181882
874.839	0.0179785
874.917	0.0181979
874.995	0.0181072
875.073	0.0181541
875.151	0.0182346
875.229	0.0181056
875.308	0.0180528
875.386	0.0180305
875.464	0.0179760
875.542	0.0180112
875.620	0.0180284
875.698	0.0180805
875.776	0.0179694
875.854	0.0178929
875.933	0.0180241
876.011	0.0180267
876.089	0.0180278
876.167	0.0178798
876.245	0.0179955
876.323	0.0179223
876.401	0.0180111
876.479	0.0180785
876.558	0.0179342
876.636	0.0181599
876.714	0.0180286
876.792	0.0180115
876.870	0.0181308
876.948	0.0180950
877.026	0.0179736
877.104	0.0180544
877.183	0.0181080
877.261	0.0182100
877.339	0.0182103
877.417	0.0181314
877.495	0.0181486
877.573	0.0181239
877.651	0.0181668
877.729	0.0181154
877.808	0.0179760
877.886	0.0179510
877.964	0.0181567
878.042	0.0181964
878.120	0.0180072
878.198	0.0178858
878.276	0.0179528
878.354	0.0179929
878.433	0.0178640
878.511	0.0180639
878.589	0.0180742
878.667	0.0179202
878.745	0.0177780
878.823	0.0181013
878.901	0.0179466
878.979	0.0179842
879.058	0.0179301
879.136	0.0179729
879.214	0.0179254
879.292	0.0179255
879.370	0.0180831
879.448	0.0180703
879.526	0.0179980
879.604	0.0181326
879.683	0.0181075
879.761	0.0181200
879.839	0.0181232
879.917	0.0179358
879.995	0.0181824
880.073	0.0182300
880.151	0.0180877
880.229	0.0180888
880.308	0.0181376
880.386	0.0181618
880.464	0.0181193
880.542	0.0180208
880.620	0.0182174
880.698	0.0181120
880.776	0.0180630
880.854	0.0180086
880.933	0.0180629
881.011	0.0179704
881.089	0.0180623
881.167	0.0180733
881.245	0.0182011
881.323	0.0180626
881.401	0.0181387
881.479	0.0181695
881.558	0.0181139
881.636	0.0180597
881.714	0.0180651
881.792	0.0181284
881.870	0.0181635
881.948	0.0181091
882.026	0.0182043
882.104	0.0181199
882.183	0.0180692
882.261	0.0180043
882.339	0.0181240
882.417	0.0182903
882.495	0.0181599
882.573	0.0181924
882.651	0.0181841
882.729	0.0181293
882.808	0.0182497
882.886	0.0181609
882.964	0.0180527
883.042	0.0181068
883.120	0.0180341
883.198	0.0180549
883.276	0.0181615
883.354	0.0182234
883.433	0.0180983
883.511	0.0180040
883.589	0.0181010
883.667	0.0180504
883.745	0.0180239
883.823	0.0181461
883.901	0.0181416
883.979	0.0181903
884.058	0.0181180
884.136	0.0179858
884.214	0.0180142
884.292	0.0181741
884.370	0.0181413
884.448	0.0180527
884.526	0.0180007
884.604	0.0181364
884.683	0.0180756
884.761	0.0180440
884.839	0.0180192
884.917	0.0179803
884.995	0.0179383
885.073	0.0180868
885.151	0.0181567
885.229	0.0181915
885.308	0.0180061
885.386	0.0180627
885.464	0.0181662
885.542	0.0181078
885.620	0.0181228
885.698	0.0181268
885.776	0.0180883
885.854	0.0180273
885.933	0.0180743
886.011	0.0182233
886.089	0.0182072
886.167	0.0181033
886.245	0.0181075
886.323	0.0179728
886.401	0.0182448
886.479	0.0181797
886.558	0.0181754
886.636	0.0181015
886.714	0.0180126
886.792	0.0180394
886.870	0.0180947
886.948	0.0180508
887.026	0.0180605
887.104	0.0181240
887.183	0.0182576
887.261	0.0181404
887.339	0.0181429
887.417	0.0182836
887.495	0.0181211
887.573	0.0181910
887.651	0.0180483
887.729	0.0181049
887.808	0.0181207
887.886	0.0182411
887.964	0.0181430
888.042	0.0180674
888.120	0.0181280
888.198	0.0181050
888.276	0.0181260
888.354	0.0179981
888.433	0.0180604
888.511	0.0180143
888.589	0.0180271
888.667	0.0180257
888.745	0.0179180
888.823	0.0179595
888.901	0.0180882
888.979	0.0180084
889.058	0.0180438
889.136	0.0181716
889.214	0.0179450
889.292	0.0180186
889.370	0.0180256
889.448	0.0180453
889.526	0.0179003
889.604	0.0180540
889.683	0.0179445
889.761	0.0179734
889.839	0.0179100
889.917	0.0179458
889.995	0.0179808
890.073	0.0181265
890.151	0.0181479
890.229	0.0180243
890.308	0.0179929
890.386	0.0181045
890.464	0.0180315
890.542	0.0180349
890.620	0.0183070
890.698	0.0181573
890.776	0.0181218
890.854	0.0182845
890.933	0.0183312
891.011	0.0183582
891.089	0.0181844
891.167	0.0181290
891.245	0.0181472
891.323	0.0181995
891.401	0.0182083
891.479	0.0182674
891.558	0.0181826
891.636	0.0180747
891.714	0.0181257
891.792	0.0180733
891.870	0.0181686
891.948	0.0180265
892.026	0.0180411
892.104	0.0179989
892.183	0.0179395
892.261	0.0179785
892.339	0.0179314
892.417	0.0178247
892.495	0.0179185
892.573	0.0179322
892.651	0.0180164
892.729	0.0179026
892.808	0.0179022
892.886	0.0179272
892.964	0.0178078
893.042	0.0179846
893.120	0.0181193
893.198	0.0181145
893.276	0.0180953
893.354	0.0180784
893.433	0.0182447
893.511	0.0181680
893.589	0.0182528
893.667	0.0183330
893.745	0.0182673
893.823	0.0182480
893.901	0.0183160
893.979	0.0182140
894.058	0.0183160
894.136	0.0183001
894.214	0.0182507
894.292	0.0181797
894.370	0.0181648
894.448	0.0180872
894.526	0.0180569
894.604	0.0182315
894.683	0.0180939
894.761	0.0180243
894.839	0.0180896
894.917	0.0179785
894.995	0.0179876
895.073	0.0179656
895.151	0.0179348
895.229	0.0180161
895.308	0.0180570
895.386	0.0181063
895.464	0.0180431
895.542	0.0178480
895.620	0.0178630
895.698	0.0180975
895.776	0.0181432
895.854	0.0179942
895.933	0.0179621
896.011	0.0181303
896.089	0.0180206
896.167	0.0181680
896.245	0.0182502
896.323	0.0181461
896.401	0.0181350
896.479	0.0182748
896.558	0.0182593
896.636	0.0181828
896.714	0.0182677
896.792	0.0181580
896.870	0.0181960
896.948	0.0181417
897.026	0.0181813
897.104	0.0181443
897.183	0.0181372
897.261	0.0181898
897.339	0.0180326
897.417	0.0179853
897.495	0.0180045
897.573	0.0179437
897.651	0.0180006
897.729	0.0179365
897.808	0.0180575
897.886	0.0181127
897.964	0.0178580
898.042	0.0179787
898.120	0.0181179
898.198	0.0179701
898.276	0.0179974
898.354	0.0180922
898.433	0.0180904
898.511	0.0180894
898.589	0.0180260
898.667	0.0179506
898.745	0.0179514
898.823	0.0180885
898.901	0.0181815
898.979	0.0181464
899.058	0.0181474
899.136	0.0181808
899.214	0.0181928
899.292	0.0180724
899.370	0.0181802
899.448	0.0181413
899.526	0.0181772
899.604	0.0182787
899.683	0.0180895
899.761	0.0181360
899.839	0.0181768
899.917	0.0180900
899.995	0.0179778
900.073	0.0179656
900.151	0.0180383
900.229	0.0177576
900.308	0.0178127
900.386	0.0179247
900.464	0.0178886
900.542	0.0180116
900.620	0.0179049
900.698	0.0178813
900.776	0.0178601
900.854	0.0178479
900.933	0.0179479
901.011	0.0179417
901.089	0.0180363
901.167	0.0179821
901.245	0.0179718
901.323	0.0181538
901.401	0.0181504
901.479	0.0181285
901.558	0.0181444
901.636	0.0181010
901.714	0.0181754
901.792	0.0182072
901.870	0.0180003
901.948	0.0180207
902.026	0.0180248
902.104	0.0180941
902.183	0.0180185
902.261	0.0180077
902.339	0.0179372
902.417	0.0180721
902.495	0.0180473
902.573	0.0180679
902.651	0.0179198
902.729	0.0179257
902.808	0.0179800
902.886	0.0178963
902.964	0.0180963
903.042	0.0180008
903.120	0.0180492
903.198	0.0180383
903.276	0.0181487
903.354	0.0179621
903.433	0.0180287
903.511	0.0180085
903.589	0.0181851
903.667	0.0180898
903.745	0.0180859
903.823	0.0180473
903.901	0.0179794
903.979	0.0180888
904.058	0.0180383
904.136	0.0180904
904.214	0.0180913
904.292	0.0180953
904.370	0.0180471
904.448	0.0180905
904.526	0.0181349
904.604	0.0180572
904.683	0.0180187
904.761	0.0180155
904.839	0.0181203
904.917	0.0180925
904.995	0.0180180
905.073	0.0181514
905.151	0.0181334
905.229	0.0181407
905.308	0.0180700
905.386	0.0179913
905.464	0.0180968
905.542	0.0178851
905.620	0.0181397
905.698	0.0181906
905.776	0.0181684
905.854	0.0180244
905.933	0.0180820
906.011	0.0180853
906.089	0.0180009
906.167	0.0180322
906.245	0.0181301
906.323	0.0181038
906.401	0.0180297
906.479	0.0180940
906.558	0.0180034
906.636	0.0181348
906.714	0.0181171
906.792	0.0181113
906.870	0.0179917
906.948	0.0180632
907.026	0.0181422
907.104	0.0181302
907.183	0.0180404
907.261	0.0179878
907.339	0.0179499
907.417	0.0179401
907.495	0.0179320
907.573	0.0180010
907.651	0.0180392
907.729	0.0180244
907.808	0.0181522
907.886	0.0181465
907.964	0.0180373
908.042	0.0181156
908.120	0.0181120
908.198	0.0180005
908.276	0.0181735
908.354	0.0181930
908.433	0.0180712
908.511	0.0181515
908.589	0.0182018
908.667	0.0181820
908.745	0.0180869
908.823	0.0179437
908.901	0.0180975
908.979	0.0180576
909.058	0.0179702
909.136	0.0180473
909.214	0.0179950
909.292	0.0181387
909.370	0.0180833
909.448	0.0179840
909.526	0.0180495
909.604	0.0180405
909.683	0.0179586
909.761	0.0180396
909.839	0.0180040
909.917	0.0179777
909.995	0.0179137
910.073	0.0180221
910.151	0.0180226
910.229	0.0180284
910.308	0.0180656
910.386	0.0181278
910.464	0.0180704
910.542	0.0181580
910.620	0.0180174
910.698	0.0180684
910.776	0.0181941
910.854	0.0180885
910.933	0.0179103
911.011	0.0182001
911.089	0.0180822
911.167	0.0180424
911.245	0.0181575
911.323	0.0179932
911.401	0.0180113
911.479	0.0180437
911.558	0.0180520
911.636	0.0181464
911.714	0.0180541
911.792	0.0179642
911.870	0.0180284
911.948	0.0179906
912.026	0.0180390
912.104	0.0181582
912.183	0.0180429
912.261	0.0181326
912.339	0.0180914
912.417	0.0180595
912.495	0.0180899
912.573	0.0181725
912.651	0.0182516
912.729	0.0180906
912.808	0.0181359
912.886	0.0180775
912.964	0.0182542
913.042	0.0181384
913.120	0.0180814
913.198	0.0179971
913.276	0.0180077
913.354	0.0180494
913.433	0.0179308
913.511	0.0180181
913.589	0.0180367
913.667	0.0179180
913.745	0.0180142
913.823	0.0179505
913.901	0.0179765
913.979	0.0178790
914.058	0.0179934
914.136	0.0180322
914.214	0.0180132
914.292	0.0181325
914.370	0.0181625
914.448	0.0180899
914.526	0.0181495
914.604	0.0181102
914.683	0.0181477
914.761	0.0181446
914.839	0.0180942
914.917	0.0181150
914.995	0.0181091
915.073	0.0181339
915.151	0.0179599
915.229	0.0181522
915.308	0.0179371
915.386	0.0179432
915.464	0.0180605
915.542	0.0179478
915.620	0.0180537
915.698	0.0179308
915.776	0.0179723
915.854	0.0180564
915.933	0.0180116
916.011	0.0179631
916.089	0.0179909
916.167	0.0180025
916.245	0.0180775
916.323	0.0181451
916.401	0.0180192
916.479	0.0180829
916.558	0.0182877
916.636	0.0181236
916.714	0.0181809
916.792	0.0183088
916.870	0.0181777
916.948	0.0180197
917.026	0.0181259
917.104	0.0182850
917.183	0.0183193
917.261	0.0181930
917.339	0.0180879
917.417	0.0183585
917.495	0.0181845
917.573	0.0181133
917.651	0.0181079
917.729	0.0180695
917.808	0.0181584
917.886	0.0181169
917.964	0.0180980
918.042	0.0180981
918.120	0.0179602
918.198	0.0180286
918.276	0.0180952
918.354	0.0181805
918.433	0.0181542
918.511	0.0181519
918.589	0.0181276
918.667	0.0180012
918.745	0.0180111
918.823	0.0180003
918.901	0.0182069
918.979	0.0182287
919.058	0.0181548
919.136	0.0180798
919.214	0.0181087
919.292	0.0179439
919.370	0.0181712
919.448	0.0181991
919.526	0.0179552
919.604	0.0181116
919.683	0.0180413
919.761	0.0182400
919.839	0.0181827
919.917	0.0181960
