06/03/2022	18:28:24	Ver.	4.1	UNKNOWN
Optical Delay	599.995081	Delta X		0.078125	Sweeps	1	Scan Rate	0/0
Coordinates	Axis 1	NaN	Axis 2	NaN	Axis 3	NaN	Axis 4	NaN	Axis 5	NaN	Axis 6	0.000000
TX Power	0.000000	RX Power	0.000000

599.995	0.0181169
600.073	0.0181095
600.151	0.0181332
600.229	0.0181539
600.308	0.0180949
600.386	0.0181247
600.464	0.0181190
600.542	0.0181758
600.620	0.0180611
600.698	0.0181126
600.776	0.0182487
600.854	0.0181619
600.933	0.0180959
601.011	0.0181419
601.089	0.0182463
601.167	0.0180610
601.245	0.0179893
601.323	0.0181345
601.401	0.0181386
601.479	0.0180574
601.558	0.0181092
601.636	0.0180966
601.714	0.0179462
601.792	0.0179702
601.870	0.0180444
601.948	0.0179501
602.026	0.0179534
602.104	0.0179242
602.183	0.0180036
602.261	0.0179358
602.339	0.0180448
602.417	0.0179198
602.495	0.0179470
602.573	0.0179595
602.651	0.0179484
602.729	0.0178347
602.808	0.0179488
602.886	0.0179303
602.964	0.0179362
603.042	0.0179675
603.120	0.0179675
603.198	0.0180153
603.276	0.0179625
603.354	0.0178974
603.433	0.0179042
603.511	0.0178329
603.589	0.0179034
603.667	0.0178175
603.745	0.0180215
603.823	0.0180042
603.901	0.0179527
603.979	0.0179629
604.058	0.0179986
604.136	0.0179427
604.214	0.0178932
604.292	0.0180769
604.370	0.0179590
604.448	0.0179850
604.526	0.0179263
604.604	0.0179869
604.683	0.0179379
604.761	0.0179466
604.839	0.0180435
604.917	0.0179555
604.995	0.0178686
605.073	0.0179891
605.151	0.0178990
605.229	0.0179848
605.308	0.0180063
605.386	0.0179339
605.464	0.0179636
605.542	0.0179040
605.620	0.0180199
605.698	0.0180021
605.776	0.0180833
605.854	0.0180137
605.933	0.0177930
606.011	0.0179578
606.089	0.0179717
606.167	0.0179314
606.245	0.0179356
606.323	0.0180971
606.401	0.0179582
606.479	0.0179916
606.558	0.0180721
606.636	0.0179831
606.714	0.0180107
606.792	0.0179646
606.870	0.0180023
606.948	0.0180384
607.026	0.0179048
607.104	0.0178450
607.183	0.0180471
607.261	0.0178861
607.339	0.0179350
607.417	0.0180346
607.495	0.0179356
607.573	0.0179706
607.651	0.0179655
607.729	0.0180252
607.808	0.0179663
607.886	0.0179479
607.964	0.0179448
608.042	0.0179591
608.120	0.0181236
608.198	0.0180372
608.276	0.0179345
608.354	0.0180321
608.433	0.0179906
608.511	0.0179101
608.589	0.0180727
608.667	0.0180920
608.745	0.0180921
608.823	0.0179003
608.901	0.0179185
608.979	0.0180791
609.058	0.0180618
609.136	0.0180604
609.214	0.0180471
609.292	0.0180762
609.370	0.0179359
609.448	0.0181416
609.526	0.0180984
609.604	0.0180572
609.683	0.0180230
609.761	0.0180653
609.839	0.0181056
609.917	0.0182082
609.995	0.0181386
610.073	0.0180342
610.151	0.0181329
610.229	0.0181325
610.308	0.0181606
610.386	0.0181387
610.464	0.0180424
610.542	0.0181475
610.620	0.0180982
610.698	0.0182172
610.776	0.0179877
610.854	0.0180824
610.933	0.0182538
611.011	0.0180358
611.089	0.0181083
611.167	0.0180537
611.245	0.0180011
611.323	0.0181751
611.401	0.0181059
611.479	0.0181714
611.558	0.0180024
611.636	0.0180757
611.714	0.0180079
611.792	0.0181672
611.870	0.0179855
611.948	0.0180137
612.026	0.0178849
612.104	0.0180748
612.183	0.0179443
612.261	0.0179990
612.339	0.0178963
612.417	0.0179552
612.495	0.0179716
612.573	0.0180572
612.651	0.0179629
612.729	0.0179293
612.808	0.0178789
612.886	0.0179395
612.964	0.0180029
613.042	0.0178835
613.120	0.0180680
613.198	0.0179290
613.276	0.0179897
613.354	0.0179544
613.433	0.0178461
613.511	0.0178820
613.589	0.0179543
613.667	0.0179642
613.745	0.0177763
613.823	0.0178189
613.901	0.0180280
613.979	0.0179987
614.058	0.0179154
614.136	0.0179473
614.214	0.0179217
614.292	0.0180594
614.370	0.0180087
614.448	0.0181496
614.526	0.0180302
614.604	0.0179940
614.683	0.0180061
614.761	0.0179513
614.839	0.0179784
614.917	0.0180135
614.995	0.0178871
615.073	0.0180112
615.151	0.0179749
615.229	0.0179694
615.308	0.0181321
615.386	0.0180225
615.464	0.0180495
615.542	0.0179918
615.620	0.0179597
615.698	0.0179427
615.776	0.0179982
615.854	0.0180190
615.933	0.0181333
616.011	0.0180206
616.089	0.0180753
616.167	0.0181167
616.245	0.0179789
616.323	0.0180692
616.401	0.0180317
616.479	0.0180869
616.558	0.0181054
616.636	0.0179604
616.714	0.0179096
616.792	0.0181521
616.870	0.0180209
616.948	0.0179694
617.026	0.0180365
617.104	0.0179843
617.183	0.0178993
617.261	0.0179182
617.339	0.0179079
617.417	0.0180663
617.495	0.0180344
617.573	0.0180679
617.651	0.0178967
617.729	0.0179377
617.808	0.0180877
617.886	0.0180515
617.964	0.0179870
618.042	0.0180233
618.120	0.0179261
618.198	0.0179734
618.276	0.0179649
618.354	0.0179914
618.433	0.0180040
618.511	0.0180009
618.589	0.0179582
618.667	0.0180079
618.745	0.0180453
618.823	0.0179971
618.901	0.0180306
618.979	0.0180157
619.058	0.0178469
619.136	0.0179843
619.214	0.0179310
619.292	0.0180188
619.370	0.0179702
619.448	0.0179008
619.526	0.0179434
619.604	0.0180215
619.683	0.0180117
619.761	0.0180942
619.839	0.0180279
619.917	0.0178742
619.995	0.0179871
620.073	0.0181638
620.151	0.0180424
620.229	0.0179868
620.308	0.0180377
620.386	0.0180625
620.464	0.0180039
620.542	0.0180164
620.620	0.0180264
620.698	0.0179337
620.776	0.0181255
620.854	0.0181767
620.933	0.0180908
621.011	0.0180562
621.089	0.0180392
621.167	0.0178725
621.245	0.0180409
621.323	0.0180420
621.401	0.0180547
621.479	0.0181655
621.558	0.0180010
621.636	0.0179926
621.714	0.0181677
621.792	0.0180980
621.870	0.0179085
621.948	0.0180259
622.026	0.0179318
622.104	0.0180884
622.183	0.0180731
622.261	0.0180733
622.339	0.0179417
622.417	0.0180622
622.495	0.0180322
622.573	0.0180006
622.651	0.0180122
622.729	0.0180520
622.808	0.0179452
622.886	0.0180888
622.964	0.0181683
623.042	0.0181110
623.120	0.0181225
623.198	0.0179475
623.276	0.0180832
623.354	0.0180594
623.433	0.0181339
623.511	0.0181215
623.589	0.0180553
623.667	0.0180359
623.745	0.0181195
623.823	0.0181143
623.901	0.0179924
623.979	0.0181106
624.058	0.0181676
624.136	0.0179887
624.214	0.0181042
624.292	0.0179992
624.370	0.0179830
624.448	0.0181171
624.526	0.0180186
624.604	0.0181276
624.683	0.0181580
624.761	0.0179990
624.839	0.0179958
624.917	0.0180956
624.995	0.0180885
625.073	0.0180039
625.151	0.0180933
625.229	0.0181358
625.308	0.0181650
625.386	0.0181353
625.464	0.0181774
625.542	0.0180998
625.620	0.0180242
625.698	0.0181223
625.776	0.0181194
625.854	0.0180657
625.933	0.0181794
626.011	0.0180025
626.089	0.0181171
626.167	0.0181761
626.245	0.0180048
626.323	0.0182561
626.401	0.0180678
626.479	0.0181225
626.558	0.0180477
626.636	0.0179633
626.714	0.0181612
626.792	0.0180966
626.870	0.0180451
626.948	0.0180714
627.026	0.0179794
627.104	0.0181464
627.183	0.0180642
627.261	0.0179942
627.339	0.0180578
627.417	0.0180802
627.495	0.0181863
627.573	0.0181572
627.651	0.0181522
627.729	0.0181873
627.808	0.0180669
627.886	0.0180634
627.964	0.0180260
628.042	0.0180289
628.120	0.0180820
628.198	0.0180126
628.276	0.0179774
628.354	0.0179847
628.433	0.0181212
628.511	0.0181402
628.589	0.0179477
628.667	0.0179395
628.745	0.0180406
628.823	0.0181208
628.901	0.0181223
628.979	0.0180560
629.058	0.0181015
629.136	0.0179494
629.214	0.0179911
629.292	0.0181902
629.370	0.0180087
629.448	0.0179272
629.526	0.0180071
629.604	0.0181116
629.683	0.0181399
629.761	0.0180592
629.839	0.0178861
629.917	0.0180972
629.995	0.0179643
630.073	0.0181275
630.151	0.0179321
630.229	0.0179550
630.308	0.0179980
630.386	0.0180630
630.464	0.0181332
630.542	0.0179510
630.620	0.0180466
630.698	0.0179684
630.776	0.0182040
630.854	0.0179202
630.933	0.0179765
631.011	0.0179752
631.089	0.0180433
631.167	0.0180167
631.245	0.0181210
631.323	0.0180358
631.401	0.0180093
631.479	0.0180360
631.558	0.0180254
631.636	0.0180060
631.714	0.0179852
631.792	0.0179745
631.870	0.0180373
631.948	0.0179950
632.026	0.0179121
632.104	0.0180283
632.183	0.0179762
632.261	0.0178723
632.339	0.0180521
632.417	0.0179939
632.495	0.0180566
632.573	0.0179297
632.651	0.0179477
632.729	0.0180930
632.808	0.0180164
632.886	0.0180811
632.964	0.0180906
633.042	0.0180736
633.120	0.0179746
633.198	0.0179629
633.276	0.0180682
633.354	0.0181252
633.433	0.0180185
633.511	0.0180739
633.589	0.0180628
633.667	0.0180929
633.745	0.0179977
633.823	0.0180359
633.901	0.0180623
633.979	0.0180930
634.058	0.0179965
634.136	0.0179708
634.214	0.0180048
634.292	0.0179806
634.370	0.0181085
634.448	0.0180978
634.526	0.0181389
634.604	0.0180269
634.683	0.0180071
634.761	0.0180743
634.839	0.0180233
634.917	0.0181078
634.995	0.0181042
635.073	0.0180181
635.151	0.0181512
635.229	0.0180507
635.308	0.0179797
635.386	0.0180621
635.464	0.0181684
635.542	0.0181725
635.620	0.0180935
635.698	0.0181115
635.776	0.0179964
635.854	0.0181349
635.933	0.0181019
636.011	0.0179796
636.089	0.0181866
636.167	0.0181565
636.245	0.0180514
636.323	0.0180251
636.401	0.0179266
636.479	0.0180631
636.558	0.0180497
636.636	0.0180832
636.714	0.0180183
636.792	0.0180622
636.870	0.0181257
636.948	0.0181268
637.026	0.0181111
637.104	0.0181396
637.183	0.0180623
637.261	0.0181174
637.339	0.0180180
637.417	0.0180663
637.495	0.0181230
637.573	0.0180828
637.651	0.0180670
637.729	0.0181754
637.808	0.0181621
637.886	0.0181312
637.964	0.0181911
638.042	0.0181432
638.120	0.0179711
638.198	0.0180290
638.276	0.0180541
638.354	0.0181041
638.433	0.0181997
638.511	0.0181939
638.589	0.0180478
638.667	0.0180508
638.745	0.0181001
638.823	0.0181020
638.901	0.0180113
638.979	0.0179140
639.058	0.0180694
639.136	0.0180969
639.214	0.0180856
639.292	0.0181478
639.370	0.0180270
639.448	0.0181145
639.526	0.0182114
639.604	0.0180923
639.683	0.0179391
639.761	0.0180414
639.839	0.0180254
639.917	0.0180107
639.995	0.0181197
640.073	0.0180351
640.151	0.0180025
640.229	0.0180145
640.308	0.0180483
640.386	0.0179645
640.464	0.0179591
640.542	0.0180569
640.620	0.0180576
640.698	0.0180344
640.776	0.0180610
640.854	0.0179842
640.933	0.0181937
641.011	0.0180225
641.089	0.0180842
641.167	0.0180956
641.245	0.0179528
641.323	0.0180806
641.401	0.0180479
641.479	0.0179812
641.558	0.0180707
641.636	0.0179525
641.714	0.0179465
641.792	0.0181627
641.870	0.0179984
641.948	0.0178644
642.026	0.0179305
642.104	0.0181310
642.183	0.0181655
642.261	0.0179593
642.339	0.0180077
642.417	0.0180624
642.495	0.0180602
642.573	0.0179350
642.651	0.0180691
642.729	0.0180259
642.808	0.0180283
642.886	0.0180396
642.964	0.0180119
643.042	0.0179768
643.120	0.0180328
643.198	0.0179190
643.276	0.0180170
643.354	0.0180207
643.433	0.0179128
643.511	0.0179380
643.589	0.0179633
643.667	0.0180708
643.745	0.0180508
643.823	0.0179898
643.901	0.0180003
643.979	0.0180099
644.058	0.0180685
644.136	0.0180592
644.214	0.0179799
644.292	0.0179866
644.370	0.0182088
644.448	0.0180484
644.526	0.0181950
644.604	0.0182384
644.683	0.0179406
644.761	0.0180569
644.839	0.0180679
644.917	0.0179539
644.995	0.0180683
645.073	0.0180167
645.151	0.0180581
645.229	0.0180350
645.308	0.0179962
645.386	0.0180952
645.464	0.0180164
645.542	0.0180730
645.620	0.0181556
645.698	0.0181568
645.776	0.0179708
645.854	0.0180058
645.933	0.0181937
646.011	0.0181552
646.089	0.0182803
646.167	0.0181654
646.245	0.0182632
646.323	0.0181300
646.401	0.0181609
646.479	0.0181367
646.558	0.0180272
646.636	0.0180112
646.714	0.0180622
646.792	0.0180420
646.870	0.0181145
646.948	0.0180582
647.026	0.0180331
647.104	0.0179308
647.183	0.0180524
647.261	0.0180378
647.339	0.0181028
647.417	0.0179041
647.495	0.0180382
647.573	0.0179372
647.651	0.0181659
647.729	0.0180763
647.808	0.0180421
647.886	0.0179724
647.964	0.0181478
648.042	0.0181757
648.120	0.0181815
648.198	0.0181085
648.276	0.0180734
648.354	0.0181947
648.433	0.0179446
648.511	0.0179478
648.589	0.0180208
648.667	0.0180592
648.745	0.0179563
648.823	0.0179993
648.901	0.0178236
648.979	0.0179173
649.058	0.0179687
649.136	0.0178860
649.214	0.0178889
649.292	0.0180262
649.370	0.0179627
649.448	0.0180161
649.526	0.0181601
649.604	0.0182523
649.683	0.0180967
649.761	0.0180531
649.839	0.0182388
649.917	0.0181490
649.995	0.0180553
650.073	0.0181361
650.151	0.0180559
650.229	0.0181496
650.308	0.0181458
650.386	0.0181215
650.464	0.0181287
650.542	0.0180685
650.620	0.0181506
650.698	0.0181345
650.776	0.0181435
650.854	0.0179373
650.933	0.0180437
651.011	0.0179959
651.089	0.0180257
651.167	0.0179437
651.245	0.0181031
651.323	0.0179773
651.401	0.0180818
651.479	0.0181085
651.558	0.0181058
651.636	0.0179948
651.714	0.0181081
651.792	0.0181811
651.870	0.0181361
651.948	0.0180188
652.026	0.0182684
652.104	0.0182655
652.183	0.0181502
652.261	0.0179652
652.339	0.0181373
652.417	0.0181227
652.495	0.0180193
652.573	0.0181202
652.651	0.0180936
652.729	0.0180648
652.808	0.0180119
652.886	0.0180983
652.964	0.0179479
653.042	0.0179315
653.120	0.0181030
653.198	0.0181174
653.276	0.0179924
653.354	0.0180669
653.433	0.0180876
653.511	0.0181186
653.589	0.0179851
653.667	0.0180527
653.745	0.0180912
653.823	0.0180436
653.901	0.0180962
653.979	0.0180801
654.058	0.0180161
654.136	0.0180787
654.214	0.0181219
654.292	0.0180138
654.370	0.0181210
654.448	0.0178962
654.526	0.0179517
654.604	0.0179239
654.683	0.0180719
654.761	0.0178822
654.839	0.0180051
654.917	0.0180480
654.995	0.0179855
655.073	0.0180208
655.151	0.0179470
655.229	0.0180444
655.308	0.0179292
655.386	0.0180890
655.464	0.0180547
655.542	0.0178925
655.620	0.0181541
655.698	0.0179734
655.776	0.0180116
655.854	0.0181763
655.933	0.0181733
656.011	0.0179526
656.089	0.0180405
656.167	0.0180516
656.245	0.0181392
656.323	0.0181087
656.401	0.0180905
656.479	0.0181254
656.558	0.0180580
656.636	0.0178854
656.714	0.0180261
656.792	0.0180959
656.870	0.0181559
656.948	0.0180502
657.026	0.0180770
657.104	0.0181530
657.183	0.0180017
657.261	0.0180813
657.339	0.0181123
657.417	0.0180154
657.495	0.0180365
657.573	0.0180981
657.651	0.0179440
657.729	0.0181525
657.808	0.0179143
657.886	0.0179920
657.964	0.0179904
658.042	0.0180292
658.120	0.0179836
658.198	0.0180956
658.276	0.0180373
658.354	0.0180892
658.433	0.0180770
658.511	0.0180457
658.589	0.0180708
658.667	0.0181335
658.745	0.0180059
658.823	0.0180556
658.901	0.0179350
658.979	0.0179449
659.058	0.0179306
659.136	0.0179406
659.214	0.0180656
659.292	0.0178861
659.370	0.0178930
659.448	0.0179144
659.526	0.0179070
659.604	0.0178657
659.683	0.0179210
659.761	0.0180567
659.839	0.0179402
659.917	0.0180110
659.995	0.0179710
660.073	0.0178946
660.151	0.0180559
660.229	0.0180445
660.308	0.0179088
660.386	0.0180249
660.464	0.0180570
660.542	0.0179911
660.620	0.0179956
660.698	0.0178871
660.776	0.0180858
660.854	0.0179261
660.933	0.0179176
661.011	0.0177785
661.089	0.0177909
661.167	0.0178697
661.245	0.0178846
661.323	0.0180083
661.401	0.0179536
661.479	0.0177774
661.558	0.0178989
661.636	0.0180090
661.714	0.0180447
661.792	0.0179776
661.870	0.0180152
661.948	0.0179923
662.026	0.0181522
662.104	0.0180497
662.183	0.0181539
662.261	0.0180987
662.339	0.0182068
662.417	0.0180167
662.495	0.0178885
662.573	0.0180318
662.651	0.0180738
662.729	0.0180015
662.808	0.0178872
662.886	0.0179951
662.964	0.0180164
663.042	0.0179404
663.120	0.0179762
663.198	0.0179115
663.276	0.0179908
663.354	0.0180122
663.433	0.0179207
663.511	0.0180354
663.589	0.0179362
663.667	0.0179794
663.745	0.0179516
663.823	0.0179660
663.901	0.0180882
663.979	0.0179682
664.058	0.0178822
664.136	0.0179497
664.214	0.0180221
664.292	0.0179871
664.370	0.0179292
664.448	0.0180180
664.526	0.0180189
664.604	0.0179003
664.683	0.0179290
664.761	0.0181094
664.839	0.0180000
664.917	0.0179257
664.995	0.0180523
665.073	0.0179874
665.151	0.0179685
665.229	0.0179659
665.308	0.0178379
665.386	0.0180133
665.464	0.0178082
665.542	0.0179784
665.620	0.0180460
665.698	0.0179249
665.776	0.0179691
665.854	0.0181398
665.933	0.0178483
666.011	0.0177369
666.089	0.0178678
666.167	0.0179321
666.245	0.0179510
666.323	0.0180566
666.401	0.0179604
666.479	0.0179520
666.558	0.0180846
666.636	0.0179843
666.714	0.0179182
666.792	0.0180091
666.870	0.0179422
666.948	0.0178572
667.026	0.0178516
667.104	0.0179652
667.183	0.0179691
667.261	0.0179221
667.339	0.0179722
667.417	0.0180003
667.495	0.0179592
667.573	0.0180322
667.651	0.0179749
667.729	0.0180252
667.808	0.0179464
667.886	0.0180811
667.964	0.0178711
668.042	0.0179156
668.120	0.0179447
668.198	0.0180448
668.276	0.0179230
668.354	0.0179815
668.433	0.0180443
668.511	0.0181112
668.589	0.0180770
668.667	0.0180056
668.745	0.0180907
668.823	0.0179852
668.901	0.0180473
668.979	0.0181054
669.058	0.0180701
669.136	0.0180653
669.214	0.0181561
669.292	0.0181700
669.370	0.0179778
669.448	0.0180626
669.526	0.0180350
669.604	0.0179530
669.683	0.0179926
669.761	0.0179379
669.839	0.0181960
669.917	0.0180997
669.995	0.0178661
670.073	0.0180260
670.151	0.0180442
670.229	0.0179182
670.308	0.0180062
670.386	0.0180290
670.464	0.0178837
670.542	0.0179128
670.620	0.0180051
670.698	0.0179340
670.776	0.0180213
670.854	0.0180160
670.933	0.0179649
671.011	0.0179426
671.089	0.0178530
671.167	0.0179503
671.245	0.0179597
671.323	0.0179716
671.401	0.0179398
671.479	0.0179538
671.558	0.0180538
671.636	0.0178502
671.714	0.0177941
671.792	0.0177579
671.870	0.0179841
671.948	0.0179243
672.026	0.0179221
672.104	0.0178790
672.183	0.0180071
672.261	0.0179858
672.339	0.0178781
672.417	0.0179913
672.495	0.0179724
672.573	0.0179128
672.651	0.0180843
672.729	0.0179845
672.808	0.0180602
672.886	0.0178584
672.964	0.0181080
673.042	0.0180205
673.120	0.0179478
673.198	0.0179055
673.276	0.0180116
673.354	0.0179668
673.433	0.0179142
673.511	0.0179337
673.589	0.0180509
673.667	0.0180426
673.745	0.0179343
673.823	0.0179230
673.901	0.0179843
673.979	0.0179587
674.058	0.0180119
674.136	0.0179212
674.214	0.0179915
674.292	0.0177721
674.370	0.0178104
674.448	0.0178882
674.526	0.0181176
674.604	0.0179739
674.683	0.0179559
674.761	0.0178468
674.839	0.0177958
674.917	0.0179972
674.995	0.0179121
675.073	0.0179143
675.151	0.0181360
675.229	0.0180680
675.308	0.0180360
675.386	0.0180433
675.464	0.0180252
675.542	0.0179983
675.620	0.0179707
675.698	0.0178693
675.776	0.0178693
675.854	0.0178806
675.933	0.0177888
676.011	0.0177643
676.089	0.0178563
676.167	0.0178945
676.245	0.0177907
676.323	0.0178394
676.401	0.0177934
676.479	0.0177888
676.558	0.0178156
676.636	0.0180810
676.714	0.0180627
676.792	0.0179692
676.870	0.0180302
676.948	0.0180550
677.026	0.0179642
677.104	0.0182029
677.183	0.0182813
677.261	0.0181467
677.339	0.0181466
677.417	0.0182871
677.495	0.0181865
677.573	0.0181599
677.651	0.0181892
677.729	0.0182192
677.808	0.0183770
677.886	0.0183803
677.964	0.0182827
678.042	0.0181953
678.120	0.0184067
678.198	0.0181966
678.276	0.0181618
678.354	0.0182917
678.433	0.0182687
678.511	0.0183817
678.589	0.0182224
678.667	0.0181567
678.745	0.0182246
678.823	0.0182401
678.901	0.0179974
678.979	0.0181758
679.058	0.0181130
679.136	0.0179700
679.214	0.0181721
679.292	0.0180078
679.370	0.0179937
679.448	0.0180414
679.526	0.0180545
679.604	0.0179784
679.683	0.0178627
679.761	0.0179435
679.839	0.0179549
679.917	0.0180995
679.995	0.0178914
680.073	0.0178334
680.151	0.0179160
680.229	0.0180563
680.308	0.0177985
680.386	0.0179155
680.464	0.0179512
680.542	0.0179277
680.620	0.0180075
680.698	0.0179171
680.776	0.0178003
680.854	0.0179076
680.933	0.0179279
681.011	0.0180866
681.089	0.0179628
681.167	0.0179066
681.245	0.0179652
681.323	0.0178986
681.401	0.0179330
681.479	0.0180325
681.558	0.0180119
681.636	0.0181139
681.714	0.0179430
681.792	0.0180990
681.870	0.0181217
681.948	0.0181360
682.026	0.0181258
682.104	0.0181871
682.183	0.0182704
682.261	0.0181756
682.339	0.0182613
682.417	0.0183031
682.495	0.0181676
682.573	0.0181699
682.651	0.0183570
682.729	0.0183363
682.808	0.0183942
682.886	0.0184647
682.964	0.0182934
683.042	0.0183494
683.120	0.0183450
683.198	0.0183158
683.276	0.0182107
683.354	0.0182066
683.433	0.0182627
683.511	0.0181844
683.589	0.0180894
683.667	0.0181982
683.745	0.0181541
683.823	0.0179627
683.901	0.0179594
683.979	0.0179527
684.058	0.0179722
684.136	0.0178887
684.214	0.0179115
684.292	0.0179316
684.370	0.0178814
684.448	0.0178980
684.526	0.0176569
684.604	0.0177690
684.683	0.0177895
684.761	0.0177309
684.839	0.0176836
684.917	0.0176635
684.995	0.0176660
685.073	0.0177321
685.151	0.0177846
685.229	0.0177529
685.308	0.0177237
685.386	0.0177274
685.464	0.0176940
685.542	0.0178358
685.620	0.0177774
685.698	0.0177994
685.776	0.0178831
685.854	0.0177617
685.933	0.0178764
686.011	0.0179330
686.089	0.0177713
686.167	0.0177892
686.245	0.0178865
686.323	0.0179202
686.401	0.0179092
686.479	0.0179546
686.558	0.0178651
686.636	0.0179211
686.714	0.0179602
686.792	0.0180046
686.870	0.0179984
686.948	0.0180085
687.026	0.0180677
687.104	0.0180955
687.183	0.0179334
687.261	0.0180149
687.339	0.0181306
687.417	0.0180894
687.495	0.0181991
687.573	0.0181785
687.651	0.0180643
687.729	0.0181606
687.808	0.0180870
687.886	0.0182671
687.964	0.0181627
688.042	0.0182036
688.120	0.0182556
688.198	0.0181799
688.276	0.0180937
688.354	0.0181341
688.433	0.0181841
688.511	0.0179730
688.589	0.0180204
688.667	0.0180548
688.745	0.0180045
688.823	0.0179500
688.901	0.0179224
688.979	0.0179677
689.058	0.0180266
689.136	0.0178297
689.214	0.0177557
689.292	0.0177554
689.370	0.0177416
689.448	0.0178571
689.526	0.0179310
689.604	0.0177017
689.683	0.0178271
689.761	0.0176009
689.839	0.0177455
689.917	0.0177567
689.995	0.0177261
690.073	0.0176995
690.151	0.0178252
690.229	0.0176661
690.308	0.0177568
690.386	0.0177194
690.464	0.0176667
690.542	0.0177978
690.620	0.0178659
690.698	0.0178688
690.776	0.0178845
690.854	0.0177917
690.933	0.0178595
691.011	0.0180457
691.089	0.0179074
691.167	0.0179422
691.245	0.0180113
691.323	0.0181631
691.401	0.0181976
691.479	0.0180991
691.558	0.0181276
691.636	0.0181422
691.714	0.0181108
691.792	0.0182139
691.870	0.0181522
691.948	0.0181838
692.026	0.0182667
692.104	0.0181039
692.183	0.0182370
692.261	0.0180967
692.339	0.0181254
692.417	0.0182536
692.495	0.0180171
692.573	0.0180920
692.651	0.0182436
692.729	0.0181476
692.808	0.0178609
692.886	0.0179142
692.964	0.0178875
693.042	0.0179926
693.120	0.0177895
693.198	0.0179253
693.276	0.0178568
693.354	0.0178853
693.433	0.0178830
693.511	0.0179748
693.589	0.0179784
693.667	0.0179805
693.745	0.0178734
693.823	0.0180338
693.901	0.0180154
693.979	0.0180927
694.058	0.0182136
694.136	0.0181290
694.214	0.0181557
694.292	0.0180349
694.370	0.0180686
694.448	0.0180884
694.526	0.0180132
694.604	0.0180264
694.683	0.0180209
694.761	0.0180978
694.839	0.0179591
694.917	0.0178368
694.995	0.0178788
695.073	0.0178169
695.151	0.0178019
695.229	0.0179292
695.308	0.0177617
695.386	0.0177258
695.464	0.0179073
695.542	0.0177074
695.620	0.0176701
695.698	0.0177933
695.776	0.0177987
695.854	0.0177811
695.933	0.0177927
696.011	0.0178849
696.089	0.0176967
696.167	0.0180038
696.245	0.0179082
696.323	0.0179958
696.401	0.0180497
696.479	0.0181184
696.558	0.0180495
696.636	0.0181229
696.714	0.0180766
696.792	0.0180713
696.870	0.0179606
696.948	0.0181905
697.026	0.0181517
697.104	0.0182548
697.183	0.0180689
697.261	0.0181492
697.339	0.0182776
697.417	0.0182028
697.495	0.0181909
697.573	0.0181146
697.651	0.0181688
697.729	0.0180647
697.808	0.0182748
697.886	0.0181966
697.964	0.0181170
698.042	0.0182212
698.120	0.0181612
698.198	0.0180983
698.276	0.0180272
698.354	0.0179510
698.433	0.0180545
698.511	0.0178313
698.589	0.0179860
698.667	0.0179107
698.745	0.0178497
698.823	0.0178149
698.901	0.0177607
698.979	0.0177090
699.058	0.0177266
699.136	0.0175706
699.214	0.0177158
699.292	0.0177094
699.370	0.0178031
699.448	0.0177206
699.526	0.0177848
699.604	0.0178026
699.683	0.0177944
699.761	0.0179678
699.839	0.0179013
699.917	0.0179394
699.995	0.0180116
700.073	0.0179743
700.151	0.0179581
700.229	0.0180630
700.308	0.0181712
700.386	0.0179998
700.464	0.0179879
700.542	0.0181181
700.620	0.0181474
700.698	0.0181648
700.776	0.0181410
700.854	0.0182854
700.933	0.0182748
701.011	0.0180949
701.089	0.0180473
701.167	0.0181673
701.245	0.0181924
701.323	0.0180359
701.401	0.0180285
701.479	0.0180699
701.558	0.0180620
701.636	0.0182016
701.714	0.0181002
701.792	0.0180518
701.870	0.0182505
701.948	0.0183462
702.026	0.0183681
702.104	0.0181951
702.183	0.0184269
702.261	0.0184695
702.339	0.0183367
702.417	0.0183717
702.495	0.0184162
702.573	0.0183810
702.651	0.0183964
702.729	0.0181491
702.808	0.0181355
702.886	0.0181893
702.964	0.0181751
703.042	0.0180444
703.120	0.0181135
703.198	0.0180586
703.276	0.0178855
703.354	0.0180173
703.433	0.0179282
703.511	0.0178107
703.589	0.0179675
703.667	0.0180325
703.745	0.0181192
703.823	0.0180752
703.901	0.0180466
703.979	0.0181635
704.058	0.0181797
704.136	0.0181446
704.214	0.0181435
704.292	0.0181290
704.370	0.0182168
704.448	0.0182980
704.526	0.0183125
704.604	0.0182800
704.683	0.0183724
704.761	0.0183324
704.839	0.0183455
704.917	0.0183571
704.995	0.0182549
705.073	0.0183770
705.151	0.0182092
705.229	0.0181873
705.308	0.0181081
705.386	0.0180656
705.464	0.0180676
705.542	0.0178952
705.620	0.0177959
705.698	0.0175437
705.776	0.0176515
705.854	0.0176038
705.933	0.0174906
706.011	0.0175346
706.089	0.0175934
706.167	0.0174523
706.245	0.0174239
706.323	0.0175050
706.401	0.0174949
706.479	0.0175498
706.558	0.0178956
706.636	0.0179044
706.714	0.0179250
706.792	0.0180350
706.870	0.0181304
706.948	0.0181077
707.026	0.0181048
707.104	0.0181416
707.183	0.0182668
707.261	0.0184386
707.339	0.0182754
707.417	0.0182526
707.495	0.0183297
707.573	0.0184653
707.651	0.0183393
707.729	0.0183769
707.808	0.0183280
707.886	0.0184453
707.964	0.0183962
708.042	0.0183157
708.120	0.0181814
708.198	0.0182744
708.276	0.0181814
708.354	0.0181446
708.433	0.0180904
708.511	0.0180679
708.589	0.0178786
708.667	0.0179060
708.745	0.0176828
708.823	0.0176596
708.901	0.0176340
708.979	0.0173737
709.058	0.0175402
709.136	0.0174558
709.214	0.0174711
709.292	0.0173399
709.370	0.0175302
709.448	0.0176432
709.526	0.0176151
709.604	0.0175691
709.683	0.0176746
709.761	0.0176309
709.839	0.0177747
709.917	0.0178825
709.995	0.0179887
710.073	0.0178873
710.151	0.0180544
710.229	0.0180229
710.308	0.0181338
710.386	0.0181995
710.464	0.0181981
710.542	0.0181159
710.620	0.0183522
710.698	0.0182768
710.776	0.0180984
710.854	0.0182295
710.933	0.0182027
711.011	0.0180371
711.089	0.0179439
711.167	0.0179938
711.245	0.0178258
711.323	0.0178745
711.401	0.0179170
711.479	0.0179374
711.558	0.0178870
711.636	0.0178268
711.714	0.0178635
711.792	0.0181257
711.870	0.0180359
711.948	0.0181086
712.026	0.0182233
712.104	0.0181572
712.183	0.0179998
712.261	0.0181815
712.339	0.0181225
712.417	0.0181641
712.495	0.0180004
712.573	0.0178389
712.651	0.0179646
712.729	0.0179391
712.808	0.0178657
712.886	0.0178152
712.964	0.0177088
713.042	0.0176747
713.120	0.0174188
713.198	0.0175535
713.276	0.0173654
713.354	0.0172594
713.433	0.0173788
713.511	0.0174779
713.589	0.0173896
713.667	0.0172521
713.745	0.0174480
713.823	0.0178068
713.901	0.0177882
713.979	0.0178455
714.058	0.0179686
714.136	0.0181994
714.214	0.0183306
714.292	0.0184602
714.370	0.0185580
714.448	0.0186029
714.526	0.0186781
714.604	0.0187895
714.683	0.0188803
714.761	0.0188336
714.839	0.0185896
714.917	0.0186736
714.995	0.0186257
715.073	0.0185544
715.151	0.0183620
715.229	0.0184175
715.308	0.0182316
715.386	0.0181844
715.464	0.0181386
715.542	0.0179232
715.620	0.0181047
715.698	0.0179822
715.776	0.0180148
715.854	0.0178770
715.933	0.0178088
716.011	0.0178542
716.089	0.0178421
716.167	0.0177357
716.245	0.0177096
716.323	0.0176952
716.401	0.0177738
716.479	0.0177497
716.558	0.0177441
716.636	0.0178378
716.714	0.0177253
716.792	0.0177995
716.870	0.0177711
716.948	0.0179194
717.026	0.0178546
717.104	0.0179975
717.183	0.0179546
717.261	0.0180987
717.339	0.0179800
717.417	0.0181405
717.495	0.0181155
717.573	0.0181895
717.651	0.0182630
717.729	0.0182827
717.808	0.0183365
717.886	0.0183478
717.964	0.0181442
718.042	0.0182706
718.120	0.0184888
718.198	0.0183596
718.276	0.0183804
718.354	0.0183858
718.433	0.0181313
718.511	0.0182132
718.589	0.0182317
718.667	0.0180578
718.745	0.0181166
718.823	0.0181613
718.901	0.0180972
718.979	0.0180090
719.058	0.0180527
719.136	0.0179639
719.214	0.0179871
719.292	0.0181001
719.370	0.0179995
719.448	0.0179414
719.526	0.0181396
719.604	0.0180807
719.683	0.0181101
719.761	0.0182150
719.839	0.0181268
719.917	0.0180377
719.995	0.0182997
720.073	0.0183831
720.151	0.0182589
720.229	0.0181944
720.308	0.0182993
720.386	0.0183351
720.464	0.0182330
720.542	0.0183681
720.620	0.0182296
720.698	0.0183116
720.776	0.0182800
720.854	0.0181246
720.933	0.0182093
721.011	0.0181368
721.089	0.0180347
721.167	0.0180212
721.245	0.0180858
721.323	0.0179250
721.401	0.0179549
721.479	0.0178507
721.558	0.0178546
721.636	0.0177648
721.714	0.0177154
721.792	0.0177573
721.870	0.0177767
721.948	0.0176437
722.026	0.0177967
722.104	0.0176860
722.183	0.0175950
722.261	0.0176656
722.339	0.0175944
722.417	0.0176176
722.495	0.0176993
722.573	0.0176788
722.651	0.0175740
722.729	0.0177859
722.808	0.0179098
722.886	0.0179823
722.964	0.0181014
723.042	0.0180608
723.120	0.0182969
723.198	0.0183800
723.276	0.0185439
723.354	0.0187181
723.433	0.0186392
723.511	0.0188234
723.589	0.0189426
723.667	0.0190202
723.745	0.0189889
723.823	0.0189964
723.901	0.0191148
723.979	0.0191885
724.058	0.0192790
724.136	0.0190842
724.214	0.0190850
724.292	0.0190000
724.370	0.0190768
724.448	0.0190221
724.526	0.0187285
724.604	0.0186087
724.683	0.0185176
724.761	0.0182595
724.839	0.0180792
724.917	0.0179347
724.995	0.0178903
725.073	0.0175773
725.151	0.0174689
725.229	0.0173272
725.308	0.0172395
725.386	0.0169999
725.464	0.0170509
725.542	0.0169926
725.620	0.0167915
725.698	0.0168594
725.776	0.0168659
725.854	0.0169629
725.933	0.0169638
726.011	0.0170203
726.089	0.0171140
726.167	0.0171850
726.245	0.0173473
726.323	0.0173866
726.401	0.0174048
726.479	0.0176028
726.558	0.0177328
726.636	0.0178898
726.714	0.0178464
726.792	0.0180074
726.870	0.0182172
726.948	0.0184055
727.026	0.0182795
727.104	0.0182478
727.183	0.0184070
727.261	0.0184078
727.339	0.0184681
727.417	0.0183098
727.495	0.0185088
727.573	0.0185225
727.651	0.0184579
727.729	0.0184171
727.808	0.0185107
727.886	0.0184273
727.964	0.0183921
728.042	0.0184817
728.120	0.0184148
728.198	0.0184161
728.276	0.0185186
728.354	0.0183928
728.433	0.0184485
728.511	0.0182404
728.589	0.0182980
728.667	0.0184415
728.745	0.0183760
728.823	0.0183434
728.901	0.0184409
728.979	0.0182799
729.058	0.0182696
729.136	0.0182462
729.214	0.0182851
729.292	0.0181509
729.370	0.0181271
729.448	0.0181886
729.526	0.0181812
729.604	0.0179719
729.683	0.0181000
729.761	0.0180537
729.839	0.0179162
729.917	0.0179269
729.995	0.0179381
730.073	0.0178554
730.151	0.0179877
730.229	0.0180646
730.308	0.0179736
730.386	0.0178307
730.464	0.0178349
730.542	0.0177750
730.620	0.0177382
730.698	0.0178796
730.776	0.0177441
730.854	0.0177433
730.933	0.0178070
731.011	0.0177905
731.089	0.0176868
731.167	0.0177303
731.245	0.0175742
731.323	0.0176221
731.401	0.0174612
731.479	0.0175794
731.558	0.0175440
731.636	0.0176294
731.714	0.0176875
731.792	0.0176326
731.870	0.0176560
731.948	0.0177369
732.026	0.0178933
732.104	0.0178000
732.183	0.0178912
732.261	0.0181090
732.339	0.0179204
732.417	0.0180724
732.495	0.0182905
732.573	0.0180273
732.651	0.0181731
732.729	0.0182486
732.808	0.0183438
732.886	0.0183899
732.964	0.0184208
733.042	0.0184446
733.120	0.0184911
733.198	0.0185162
733.276	0.0183747
733.354	0.0183040
733.433	0.0185349
733.511	0.0185526
733.589	0.0184082
733.667	0.0183852
733.745	0.0183710
733.823	0.0182050
733.901	0.0181875
733.979	0.0182131
734.058	0.0181355
734.136	0.0181443
734.214	0.0179165
734.292	0.0176984
734.370	0.0178501
734.448	0.0179618
734.526	0.0177438
734.604	0.0179200
734.683	0.0178782
734.761	0.0178767
734.839	0.0178591
734.917	0.0180020
734.995	0.0178850
735.073	0.0178259
735.151	0.0179588
735.229	0.0179269
735.308	0.0179720
735.386	0.0179337
735.464	0.0178990
735.542	0.0179311
735.620	0.0180744
735.698	0.0180556
735.776	0.0180499
735.854	0.0180440
735.933	0.0181093
736.011	0.0180690
736.089	0.0180283
736.167	0.0179844
736.245	0.0179372
736.323	0.0180720
736.401	0.0180553
736.479	0.0178777
736.558	0.0178977
736.636	0.0180016
736.714	0.0178818
736.792	0.0178269
736.870	0.0178771
736.948	0.0179723
737.026	0.0177998
737.104	0.0178345
737.183	0.0178507
737.261	0.0178756
737.339	0.0177642
737.417	0.0178921
737.495	0.0178618
737.573	0.0178409
737.651	0.0178323
737.729	0.0178397
737.808	0.0179077
737.886	0.0179735
737.964	0.0179134
738.042	0.0181782
738.120	0.0181371
738.198	0.0179995
738.276	0.0180762
738.354	0.0181007
738.433	0.0180585
738.511	0.0182634
738.589	0.0180770
738.667	0.0180669
738.745	0.0180995
738.823	0.0180719
738.901	0.0180587
738.979	0.0181786
739.058	0.0181895
739.136	0.0181239
739.214	0.0181727
739.292	0.0181129
739.370	0.0182658
739.448	0.0183091
739.526	0.0182451
739.604	0.0183755
739.683	0.0182610
739.761	0.0182391
739.839	0.0182755
739.917	0.0181886
739.995	0.0181801
740.073	0.0183206
740.151	0.0181979
740.229	0.0181615
740.308	0.0181627
740.386	0.0181422
740.464	0.0180481
740.542	0.0181030
740.620	0.0180061
740.698	0.0180872
740.776	0.0179328
740.854	0.0179420
740.933	0.0178919
741.011	0.0178035
741.089	0.0178357
741.167	0.0178763
741.245	0.0178428
741.323	0.0176909
741.401	0.0175187
741.479	0.0177690
741.558	0.0178510
741.636	0.0174892
741.714	0.0176173
741.792	0.0177463
741.870	0.0176688
741.948	0.0177505
742.026	0.0177323
742.104	0.0177706
742.183	0.0178306
742.261	0.0177923
742.339	0.0180246
742.417	0.0180058
742.495	0.0180157
742.573	0.0180502
742.651	0.0181773
742.729	0.0182230
742.808	0.0181821
742.886	0.0182405
742.964	0.0182584
743.042	0.0181831
743.120	0.0184016
743.198	0.0182597
743.276	0.0183050
743.354	0.0184093
743.433	0.0182408
743.511	0.0182471
743.589	0.0182409
743.667	0.0183611
743.745	0.0182715
743.823	0.0181973
743.901	0.0181300
743.979	0.0180870
744.058	0.0181805
744.136	0.0181628
744.214	0.0181438
744.292	0.0181947
744.370	0.0180276
744.448	0.0180747
744.526	0.0182305
744.604	0.0181881
744.683	0.0180740
744.761	0.0182330
744.839	0.0182144
744.917	0.0181660
744.995	0.0182294
745.073	0.0181171
745.151	0.0182156
745.229	0.0182536
745.308	0.0183350
745.386	0.0183453
745.464	0.0182717
745.542	0.0183501
745.620	0.0181792
745.698	0.0181496
745.776	0.0181268
745.854	0.0181611
745.933	0.0182153
746.011	0.0179738
746.089	0.0180337
746.167	0.0178423
746.245	0.0179304
746.323	0.0179441
746.401	0.0179050
746.479	0.0177376
746.558	0.0177984
746.636	0.0177841
746.714	0.0175972
746.792	0.0176206
746.870	0.0175903
746.948	0.0178049
747.026	0.0176392
747.104	0.0175325
747.183	0.0175864
747.261	0.0176733
747.339	0.0176335
747.417	0.0177132
747.495	0.0176334
747.573	0.0177250
747.651	0.0177005
747.729	0.0178064
747.808	0.0179089
747.886	0.0179817
747.964	0.0179391
748.042	0.0181129
748.120	0.0181036
748.198	0.0182765
748.276	0.0181585
748.354	0.0181882
748.433	0.0179757
748.511	0.0180485
748.589	0.0181069
748.667	0.0181739
748.745	0.0180698
748.823	0.0181596
748.901	0.0181876
748.979	0.0183501
749.058	0.0183945
749.136	0.0182547
749.214	0.0181848
749.292	0.0182185
749.370	0.0181924
749.448	0.0181121
749.526	0.0182823
749.604	0.0182816
749.683	0.0181763
749.761	0.0182995
749.839	0.0180625
749.917	0.0182214
749.995	0.0181129
750.073	0.0181132
750.151	0.0179570
750.229	0.0178732
750.308	0.0180047
750.386	0.0181973
750.464	0.0179873
750.542	0.0180435
750.620	0.0179938
750.698	0.0181048
750.776	0.0181286
750.854	0.0180991
750.933	0.0180597
751.011	0.0180322
751.089	0.0179883
751.167	0.0179079
751.245	0.0179147
751.323	0.0178839
751.401	0.0177493
751.479	0.0178483
751.558	0.0177027
751.636	0.0176530
751.714	0.0176658
751.792	0.0176099
751.870	0.0176546
751.948	0.0175856
752.026	0.0175488
752.104	0.0176249
752.183	0.0176252
752.261	0.0176317
752.339	0.0176947
752.417	0.0176637
752.495	0.0176543
752.573	0.0176759
752.651	0.0178889
752.729	0.0178667
752.808	0.0179632
752.886	0.0179809
752.964	0.0179856
753.042	0.0180467
753.120	0.0180610
753.198	0.0180442
753.276	0.0181811
753.354	0.0181420
753.433	0.0181125
753.511	0.0184003
753.589	0.0184263
753.667	0.0183440
753.745	0.0182874
753.823	0.0182735
753.901	0.0184887
753.979	0.0182063
754.058	0.0184218
754.136	0.0182446
754.214	0.0180903
754.292	0.0181303
754.370	0.0182591
754.448	0.0182088
754.526	0.0182328
754.604	0.0179642
754.683	0.0181552
754.761	0.0179141
754.839	0.0178291
754.917	0.0180358
754.995	0.0179500
755.073	0.0178327
755.151	0.0178509
755.229	0.0178799
755.308	0.0179426
755.386	0.0179433
755.464	0.0178528
755.542	0.0179093
755.620	0.0179794
755.698	0.0179237
755.776	0.0179845
755.854	0.0180278
755.933	0.0181946
756.011	0.0180160
756.089	0.0181856
756.167	0.0181586
756.245	0.0181051
756.323	0.0181766
756.401	0.0182461
756.479	0.0181767
756.558	0.0182078
756.636	0.0181716
756.714	0.0182778
756.792	0.0181226
756.870	0.0180022
756.948	0.0178958
757.026	0.0179439
757.104	0.0179719
757.183	0.0179592
757.261	0.0178863
757.339	0.0177744
757.417	0.0177839
757.495	0.0177511
757.573	0.0177880
757.651	0.0178479
757.729	0.0177873
757.808	0.0177961
757.886	0.0177628
757.964	0.0178398
758.042	0.0178828
758.120	0.0178101
758.198	0.0176929
758.276	0.0178545
758.354	0.0178069
758.433	0.0176413
758.511	0.0177772
758.589	0.0178079
758.667	0.0177740
758.745	0.0179137
758.823	0.0178641
758.901	0.0180643
758.979	0.0180739
759.058	0.0179075
759.136	0.0181351
759.214	0.0180785
759.292	0.0182597
759.370	0.0181734
759.448	0.0181874
759.526	0.0182375
759.604	0.0181690
759.683	0.0182719
759.761	0.0182201
759.839	0.0182230
759.917	0.0182714
759.995	0.0182323
760.073	0.0182913
760.151	0.0180774
760.229	0.0181081
760.308	0.0182241
760.386	0.0181651
760.464	0.0180618
760.542	0.0181323
760.620	0.0180564
760.698	0.0180267
760.776	0.0179401
760.854	0.0178725
760.933	0.0178459
761.011	0.0178292
761.089	0.0178883
761.167	0.0179097
761.245	0.0176285
761.323	0.0177152
761.401	0.0178300
761.479	0.0179491
761.558	0.0178201
761.636	0.0177705
761.714	0.0176974
761.792	0.0177588
761.870	0.0179046
761.948	0.0179305
762.026	0.0179657
762.104	0.0180195
762.183	0.0177395
762.261	0.0178036
762.339	0.0179122
762.417	0.0178271
762.495	0.0180005
762.573	0.0179092
762.651	0.0178165
762.729	0.0178790
762.808	0.0178527
762.886	0.0178613
762.964	0.0178110
763.042	0.0179281
763.120	0.0179494
763.198	0.0179121
763.276	0.0178529
763.354	0.0180915
763.433	0.0180408
763.511	0.0180354
763.589	0.0180959
763.667	0.0179757
763.745	0.0182603
763.823	0.0182965
763.901	0.0182247
763.979	0.0181657
764.058	0.0183082
764.136	0.0182923
764.214	0.0183952
764.292	0.0183022
764.370	0.0183200
764.448	0.0182122
764.526	0.0183607
764.604	0.0181926
764.683	0.0182257
764.761	0.0182531
764.839	0.0181737
764.917	0.0181394
764.995	0.0182417
765.073	0.0180983
765.151	0.0181195
765.229	0.0180493
765.308	0.0180233
765.386	0.0181998
765.464	0.0179321
765.542	0.0180432
765.620	0.0179192
765.698	0.0177276
765.776	0.0178643
765.854	0.0178732
765.933	0.0177156
766.011	0.0178763
766.089	0.0178655
766.167	0.0177601
766.245	0.0177900
766.323	0.0179745
766.401	0.0178435
766.479	0.0180402
766.558	0.0177917
766.636	0.0179681
766.714	0.0180353
766.792	0.0181038
766.870	0.0180968
766.948	0.0182687
767.026	0.0181183
767.104	0.0179544
767.183	0.0181396
767.261	0.0181000
767.339	0.0182082
767.417	0.0181600
767.495	0.0179787
767.573	0.0179118
767.651	0.0178484
767.729	0.0178716
767.808	0.0179517
767.886	0.0179804
767.964	0.0178334
768.042	0.0177579
768.120	0.0178568
768.198	0.0180424
768.276	0.0179321
768.354	0.0177541
768.433	0.0179055
768.511	0.0178418
768.589	0.0179631
768.667	0.0180162
768.745	0.0178837
768.823	0.0179963
768.901	0.0179252
768.979	0.0179468
769.058	0.0180549
769.136	0.0180431
769.214	0.0179403
769.292	0.0179661
769.370	0.0179768
769.448	0.0179331
769.526	0.0179789
769.604	0.0180254
769.683	0.0178185
769.761	0.0178455
769.839	0.0179505
769.917	0.0180881
769.995	0.0178838
770.073	0.0178535
770.151	0.0175831
770.229	0.0179348
770.308	0.0176931
770.386	0.0178213
770.464	0.0177390
770.542	0.0176519
770.620	0.0178053
770.698	0.0178407
770.776	0.0178503
770.854	0.0178481
770.933	0.0179151
771.011	0.0179987
771.089	0.0179649
771.167	0.0180705
771.245	0.0180896
771.323	0.0181554
771.401	0.0182074
771.479	0.0182393
771.558	0.0181909
771.636	0.0181226
771.714	0.0181989
771.792	0.0182056
771.870	0.0181532
771.948	0.0182597
772.026	0.0181941
772.104	0.0181765
772.183	0.0182446
772.261	0.0181667
772.339	0.0182306
772.417	0.0182206
772.495	0.0182773
772.573	0.0180098
772.651	0.0179883
772.729	0.0179893
772.808	0.0177707
772.886	0.0179662
772.964	0.0179035
773.042	0.0178629
773.120	0.0178740
773.198	0.0176376
773.276	0.0175667
773.354	0.0177074
773.433	0.0175842
773.511	0.0177386
773.589	0.0176272
773.667	0.0176123
773.745	0.0176856
773.823	0.0177772
773.901	0.0176905
773.979	0.0177319
774.058	0.0177344
774.136	0.0178493
774.214	0.0177967
774.292	0.0178676
774.370	0.0179311
774.448	0.0179824
774.526	0.0179396
774.604	0.0178938
774.683	0.0180195
774.761	0.0179906
774.839	0.0179575
774.917	0.0180514
774.995	0.0178510
775.073	0.0179424
775.151	0.0179739
775.229	0.0178500
775.308	0.0179081
775.386	0.0179456
775.464	0.0177918
775.542	0.0177497
775.620	0.0179252
775.698	0.0179574
775.776	0.0179181
775.854	0.0178751
775.933	0.0179145
776.011	0.0179049
776.089	0.0181295
776.167	0.0179788
776.245	0.0179793
776.323	0.0180470
776.401	0.0180540
776.479	0.0179872
776.558	0.0180305
776.636	0.0180999
776.714	0.0180972
776.792	0.0181042
776.870	0.0181510
776.948	0.0180261
777.026	0.0180965
777.104	0.0180833
777.183	0.0181216
777.261	0.0181548
777.339	0.0181785
777.417	0.0180923
777.495	0.0180456
777.573	0.0180750
777.651	0.0179915
777.729	0.0179185
777.808	0.0177795
777.886	0.0179836
777.964	0.0178819
778.042	0.0178640
778.120	0.0180423
778.198	0.0178687
778.276	0.0178655
778.354	0.0177668
778.433	0.0178538
778.511	0.0178936
778.589	0.0178889
778.667	0.0179530
778.745	0.0178474
778.823	0.0178386
778.901	0.0180183
778.979	0.0180078
779.058	0.0180231
779.136	0.0179637
779.214	0.0179675
779.292	0.0180234
779.370	0.0182070
779.448	0.0181864
779.526	0.0182307
779.604	0.0181785
779.683	0.0181232
779.761	0.0181388
779.839	0.0183033
779.917	0.0181232
779.995	0.0182385
780.073	0.0182806
780.151	0.0182101
780.229	0.0182264
780.308	0.0181670
780.386	0.0179758
780.464	0.0181004
780.542	0.0180069
780.620	0.0180996
780.698	0.0181017
780.776	0.0180244
780.854	0.0180759
780.933	0.0179240
781.011	0.0181011
781.089	0.0180096
781.167	0.0179171
781.245	0.0180784
781.323	0.0179652
781.401	0.0179411
781.479	0.0178608
781.558	0.0179289
781.636	0.0178613
781.714	0.0179385
781.792	0.0178497
781.870	0.0179358
781.948	0.0178652
782.026	0.0178587
782.104	0.0179317
782.183	0.0178402
782.261	0.0179660
782.339	0.0178067
782.417	0.0178202
782.495	0.0177412
782.573	0.0179763
782.651	0.0180114
782.729	0.0180937
782.808	0.0179201
782.886	0.0179033
782.964	0.0179906
783.042	0.0181667
783.120	0.0181623
783.198	0.0181702
783.276	0.0182355
783.354	0.0181808
783.433	0.0181380
783.511	0.0182053
783.589	0.0181271
783.667	0.0181564
783.745	0.0180401
783.823	0.0180289
783.901	0.0181045
783.979	0.0180102
784.058	0.0179786
784.136	0.0180604
784.214	0.0179457
784.292	0.0179051
784.370	0.0180160
784.448	0.0180339
784.526	0.0180572
784.604	0.0180785
784.683	0.0180404
784.761	0.0179481
784.839	0.0181419
784.917	0.0180225
784.995	0.0181325
785.073	0.0181318
785.151	0.0181823
785.229	0.0180323
785.308	0.0181561
785.386	0.0181003
785.464	0.0182962
785.542	0.0181863
785.620	0.0182591
785.698	0.0181989
785.776	0.0181009
785.854	0.0181548
785.933	0.0180425
786.011	0.0180802
786.089	0.0179906
786.167	0.0179179
786.245	0.0177824
786.323	0.0177290
786.401	0.0177902
786.479	0.0176968
786.558	0.0177199
786.636	0.0177319
786.714	0.0177138
786.792	0.0176551
786.870	0.0177853
786.948	0.0178270
787.026	0.0178930
787.104	0.0177799
787.183	0.0179591
787.261	0.0180444
787.339	0.0181758
787.417	0.0182045
787.495	0.0181569
787.573	0.0181947
787.651	0.0183111
787.729	0.0183281
787.808	0.0184779
787.886	0.0184782
787.964	0.0183315
788.042	0.0183279
788.120	0.0183925
788.198	0.0183426
788.276	0.0183669
788.354	0.0184642
788.433	0.0182330
788.511	0.0182540
788.589	0.0183712
788.667	0.0183035
788.745	0.0180931
788.823	0.0182087
788.901	0.0182163
788.979	0.0180110
789.058	0.0179281
789.136	0.0180817
789.214	0.0180388
789.292	0.0178546
789.370	0.0179180
789.448	0.0177608
789.526	0.0177843
789.604	0.0177559
789.683	0.0178232
789.761	0.0178524
789.839	0.0179393
789.917	0.0178085
789.995	0.0179478
790.073	0.0178091
790.151	0.0178371
790.229	0.0179932
790.308	0.0179451
790.386	0.0180627
790.464	0.0180377
790.542	0.0179661
790.620	0.0180683
790.698	0.0180425
790.776	0.0179874
790.854	0.0181379
790.933	0.0180594
791.011	0.0180788
791.089	0.0182508
791.167	0.0181197
791.245	0.0181187
791.323	0.0180020
791.401	0.0182121
791.479	0.0180896
791.558	0.0179024
791.636	0.0179993
791.714	0.0181201
791.792	0.0180579
791.870	0.0180617
791.948	0.0179617
792.026	0.0179278
792.104	0.0179520
792.183	0.0177374
792.261	0.0177814
792.339	0.0176964
792.417	0.0177198
792.495	0.0177181
792.573	0.0178124
792.651	0.0177491
792.729	0.0175930
792.808	0.0176040
792.886	0.0179705
792.964	0.0178791
793.042	0.0177538
793.120	0.0180490
793.198	0.0179039
793.276	0.0180708
793.354	0.0181835
793.433	0.0181071
793.511	0.0182111
793.589	0.0181475
793.667	0.0182552
793.745	0.0181051
793.823	0.0181674
793.901	0.0182388
793.979	0.0182223
794.058	0.0181812
794.136	0.0180991
794.214	0.0180787
794.292	0.0179756
794.370	0.0181319
794.448	0.0180601
794.526	0.0179568
794.604	0.0179446
794.683	0.0178998
794.761	0.0177106
794.839	0.0179736
794.917	0.0177483
794.995	0.0176735
795.073	0.0177370
795.151	0.0177879
795.229	0.0178743
795.308	0.0179177
795.386	0.0177203
795.464	0.0177509
795.542	0.0178059
795.620	0.0177467
795.698	0.0178255
795.776	0.0178184
795.854	0.0178480
795.933	0.0178108
796.011	0.0180548
796.089	0.0179778
796.167	0.0179601
796.245	0.0179266
796.323	0.0181265
796.401	0.0181271
796.479	0.0180811
796.558	0.0180518
796.636	0.0179969
796.714	0.0181142
796.792	0.0181033
796.870	0.0180681
796.948	0.0180742
797.026	0.0181308
797.104	0.0181377
797.183	0.0180558
797.261	0.0181632
797.339	0.0179206
797.417	0.0179541
797.495	0.0180428
797.573	0.0179050
797.651	0.0177919
797.729	0.0179657
797.808	0.0178543
797.886	0.0177329
797.964	0.0179015
798.042	0.0180503
798.120	0.0178751
798.198	0.0177163
798.276	0.0179860
798.354	0.0179816
798.433	0.0178518
798.511	0.0178930
798.589	0.0180177
798.667	0.0179915
798.745	0.0179645
798.823	0.0179052
798.901	0.0179002
798.979	0.0180026
799.058	0.0179388
799.136	0.0178951
799.214	0.0177332
799.292	0.0179169
799.370	0.0178968
799.448	0.0180619
799.526	0.0180070
799.604	0.0179353
799.683	0.0180084
799.761	0.0180493
799.839	0.0179439
799.917	0.0180615
799.995	0.0180457
800.073	0.0180654
800.151	0.0182526
800.229	0.0181251
800.308	0.0181180
800.386	0.0181800
800.464	0.0181030
800.542	0.0181348
800.620	0.0181712
800.698	0.0180750
800.776	0.0180599
800.854	0.0180289
800.933	0.0179746
801.011	0.0179624
801.089	0.0181711
801.167	0.0181362
801.245	0.0179962
801.323	0.0181384
801.401	0.0179604
801.479	0.0181071
801.558	0.0180537
801.636	0.0178618
801.714	0.0179457
801.792	0.0180003
801.870	0.0179346
801.948	0.0180585
802.026	0.0179778
802.104	0.0179179
802.183	0.0178494
802.261	0.0178313
802.339	0.0179087
802.417	0.0178717
802.495	0.0178233
802.573	0.0178593
802.651	0.0178503
802.729	0.0178397
802.808	0.0178163
802.886	0.0178268
802.964	0.0178152
803.042	0.0176793
803.120	0.0176428
803.198	0.0178522
803.276	0.0177318
803.354	0.0178735
803.433	0.0178957
803.511	0.0179025
803.589	0.0178078
803.667	0.0178629
803.745	0.0179729
803.823	0.0179967
803.901	0.0180379
803.979	0.0180853
804.058	0.0180542
804.136	0.0180030
804.214	0.0181210
804.292	0.0181872
804.370	0.0179585
804.448	0.0181271
804.526	0.0182178
804.604	0.0180331
804.683	0.0179417
804.761	0.0180753
804.839	0.0180073
804.917	0.0179359
804.995	0.0180357
805.073	0.0179462
805.151	0.0178315
805.229	0.0179721
805.308	0.0178856
805.386	0.0177483
805.464	0.0177473
805.542	0.0177855
805.620	0.0177850
805.698	0.0177607
805.776	0.0176659
805.854	0.0177828
805.933	0.0179272
806.011	0.0179043
806.089	0.0178688
806.167	0.0179052
806.245	0.0180681
806.323	0.0179928
806.401	0.0179064
806.479	0.0179723
806.558	0.0180235
806.636	0.0181599
806.714	0.0180202
806.792	0.0179655
806.870	0.0180003
806.948	0.0180672
807.026	0.0180077
807.104	0.0179528
807.183	0.0177269
807.261	0.0178452
807.339	0.0179398
807.417	0.0179279
807.495	0.0179710
807.573	0.0178939
807.651	0.0179566
807.729	0.0179219
807.808	0.0178204
807.886	0.0178333
807.964	0.0178600
808.042	0.0178404
808.120	0.0179002
808.198	0.0179115
808.276	0.0179151
808.354	0.0178683
808.433	0.0179333
808.511	0.0180412
808.589	0.0179584
808.667	0.0180066
808.745	0.0178260
808.823	0.0180625
808.901	0.0179253
808.979	0.0180640
809.058	0.0181174
809.136	0.0179218
809.214	0.0180305
809.292	0.0179376
809.370	0.0181098
809.448	0.0181725
809.526	0.0182262
809.604	0.0182174
809.683	0.0182191
809.761	0.0181351
809.839	0.0182350
809.917	0.0181705
809.995	0.0181056
810.073	0.0180903
810.151	0.0182688
810.229	0.0182307
810.308	0.0181138
810.386	0.0181140
810.464	0.0181363
810.542	0.0182319
810.620	0.0182913
810.698	0.0182702
810.776	0.0182589
810.854	0.0182079
810.933	0.0183000
811.011	0.0181498
811.089	0.0181934
811.167	0.0181524
811.245	0.0183228
811.323	0.0181954
811.401	0.0182358
811.479	0.0180408
811.558	0.0181889
811.636	0.0181517
811.714	0.0180732
811.792	0.0178902
811.870	0.0179642
811.948	0.0179707
812.026	0.0179673
812.104	0.0180205
812.183	0.0179936
812.261	0.0180603
812.339	0.0179626
812.417	0.0179722
812.495	0.0180533
812.573	0.0179955
812.651	0.0180044
812.729	0.0180638
812.808	0.0180090
812.886	0.0181382
812.964	0.0182494
813.042	0.0182690
813.120	0.0181441
813.198	0.0181898
813.276	0.0180123
813.354	0.0180642
813.433	0.0181502
813.511	0.0182069
813.589	0.0181995
813.667	0.0180225
813.745	0.0180079
813.823	0.0179811
813.901	0.0181028
813.979	0.0180685
814.058	0.0181310
814.136	0.0182008
814.214	0.0181710
814.292	0.0182168
814.370	0.0180869
814.448	0.0180865
814.526	0.0180502
814.604	0.0180562
814.683	0.0180853
814.761	0.0180447
814.839	0.0181431
814.917	0.0181442
814.995	0.0179565
815.073	0.0180841
815.151	0.0179892
815.229	0.0181305
815.308	0.0181499
815.386	0.0180264
815.464	0.0179785
815.542	0.0181841
815.620	0.0180703
815.698	0.0181750
815.776	0.0181566
815.854	0.0181001
815.933	0.0180948
816.011	0.0180980
816.089	0.0181269
816.167	0.0181241
816.245	0.0179784
816.323	0.0180888
816.401	0.0180786
816.479	0.0179505
816.558	0.0179397
816.636	0.0179330
816.714	0.0181203
816.792	0.0180289
816.870	0.0179546
816.948	0.0180927
817.026	0.0181785
817.104	0.0179729
817.183	0.0180008
817.261	0.0181067
817.339	0.0182124
817.417	0.0181014
817.495	0.0182162
817.573	0.0180914
817.651	0.0181597
817.729	0.0181906
817.808	0.0181244
817.886	0.0181434
817.964	0.0181504
818.042	0.0181108
818.120	0.0180164
818.198	0.0180530
818.276	0.0180911
818.354	0.0180333
818.433	0.0180231
818.511	0.0179075
818.589	0.0179123
818.667	0.0180285
818.745	0.0180508
818.823	0.0179347
818.901	0.0178502
818.979	0.0178521
819.058	0.0179905
819.136	0.0180518
819.214	0.0178867
819.292	0.0179348
819.370	0.0178746
819.448	0.0180558
819.526	0.0178560
819.604	0.0179503
819.683	0.0179106
819.761	0.0180743
819.839	0.0179633
819.917	0.0179737
819.995	0.0179096
820.073	0.0177632
820.151	0.0178619
820.229	0.0179230
820.308	0.0177771
820.386	0.0179098
820.464	0.0179253
820.542	0.0179288
820.620	0.0178571
820.698	0.0178976
820.776	0.0180032
820.854	0.0178165
820.933	0.0179628
821.011	0.0179488
821.089	0.0179826
821.167	0.0179623
821.245	0.0179919
821.323	0.0179235
821.401	0.0179737
821.479	0.0180206
821.558	0.0177461
821.636	0.0180322
821.714	0.0178949
821.792	0.0180530
821.870	0.0179092
821.948	0.0179214
822.026	0.0178530
822.104	0.0178930
822.183	0.0179349
822.261	0.0179782
822.339	0.0178555
822.417	0.0178403
822.495	0.0179650
822.573	0.0178136
822.651	0.0178842
822.729	0.0178453
822.808	0.0177905
822.886	0.0179394
822.964	0.0177818
823.042	0.0178389
823.120	0.0178563
823.198	0.0177759
823.276	0.0178523
823.354	0.0178392
823.433	0.0178101
823.511	0.0178779
823.589	0.0179084
823.667	0.0178784
823.745	0.0179355
823.823	0.0180453
823.901	0.0179509
823.979	0.0179813
824.058	0.0180195
824.136	0.0180495
824.214	0.0179392
824.292	0.0179532
824.370	0.0181374
824.448	0.0180895
824.526	0.0179831
824.604	0.0181426
824.683	0.0180450
824.761	0.0179727
824.839	0.0181239
824.917	0.0179362
824.995	0.0181194
825.073	0.0181077
825.151	0.0180727
825.229	0.0180740
825.308	0.0180979
825.386	0.0180312
825.464	0.0180005
825.542	0.0179985
825.620	0.0180992
825.698	0.0178619
825.776	0.0181075
825.854	0.0181071
825.933	0.0181580
826.011	0.0182154
826.089	0.0180064
826.167	0.0179181
826.245	0.0181831
826.323	0.0181576
826.401	0.0180209
826.479	0.0179531
826.558	0.0181245
826.636	0.0179878
826.714	0.0181207
826.792	0.0180135
826.870	0.0179253
826.948	0.0180035
827.026	0.0180279
827.104	0.0180505
827.183	0.0179955
827.261	0.0180801
827.339	0.0179688
827.417	0.0179308
827.495	0.0179666
827.573	0.0179890
827.651	0.0180109
827.729	0.0179329
827.808	0.0179632
827.886	0.0180451
827.964	0.0178659
828.042	0.0180582
828.120	0.0179536
828.198	0.0178799
828.276	0.0180267
828.354	0.0180124
828.433	0.0179583
828.511	0.0180979
828.589	0.0179446
828.667	0.0180391
828.745	0.0180664
828.823	0.0180814
828.901	0.0179482
828.979	0.0180878
829.058	0.0181354
829.136	0.0179788
829.214	0.0180739
829.292	0.0181673
829.370	0.0180810
829.448	0.0179850
829.526	0.0181464
829.604	0.0180512
829.683	0.0180058
829.761	0.0181165
829.839	0.0181377
829.917	0.0180418
829.995	0.0178882
830.073	0.0179704
830.151	0.0181095
830.229	0.0179195
830.308	0.0181184
830.386	0.0180984
830.464	0.0179604
830.542	0.0179400
830.620	0.0181598
830.698	0.0181224
830.776	0.0180407
830.854	0.0180991
830.933	0.0180271
831.011	0.0179647
831.089	0.0181142
831.167	0.0179896
831.245	0.0179076
831.323	0.0179424
831.401	0.0179642
831.479	0.0178000
831.558	0.0178468
831.636	0.0180015
831.714	0.0179826
831.792	0.0177822
831.870	0.0177928
831.948	0.0178628
832.026	0.0178191
832.104	0.0178539
832.183	0.0177459
832.261	0.0179122
832.339	0.0180486
832.417	0.0179594
832.495	0.0178777
832.573	0.0178882
832.651	0.0179231
832.729	0.0179371
832.808	0.0178071
832.886	0.0179078
832.964	0.0180618
833.042	0.0179629
833.120	0.0178101
833.198	0.0178274
833.276	0.0180347
833.354	0.0178931
833.433	0.0179315
833.511	0.0178621
833.589	0.0178758
833.667	0.0179494
833.745	0.0178926
833.823	0.0179570
833.901	0.0178896
833.979	0.0179752
834.058	0.0179488
834.136	0.0179274
834.214	0.0179084
834.292	0.0179109
834.370	0.0180236
834.448	0.0180774
834.526	0.0179558
834.604	0.0181502
834.683	0.0180206
834.761	0.0180042
834.839	0.0180031
834.917	0.0180941
834.995	0.0182043
835.073	0.0181270
835.151	0.0180152
835.229	0.0179852
835.308	0.0180381
835.386	0.0178929
835.464	0.0180003
835.542	0.0181463
835.620	0.0179897
835.698	0.0180688
835.776	0.0179520
835.854	0.0180230
835.933	0.0180895
836.011	0.0178587
836.089	0.0179652
836.167	0.0181118
836.245	0.0179810
836.323	0.0180088
836.401	0.0180673
836.479	0.0179214
836.558	0.0180742
836.636	0.0180289
836.714	0.0180414
836.792	0.0182405
836.870	0.0180495
836.948	0.0181805
837.026	0.0180801
837.104	0.0181194
837.183	0.0180654
837.261	0.0180209
837.339	0.0183137
837.417	0.0181180
837.495	0.0180588
837.573	0.0180498
837.651	0.0181456
837.729	0.0180266
837.808	0.0180233
837.886	0.0181087
837.964	0.0181889
838.042	0.0180097
838.120	0.0182498
838.198	0.0180531
838.276	0.0181174
838.354	0.0181745
838.433	0.0181558
838.511	0.0182560
838.589	0.0181619
838.667	0.0182019
838.745	0.0182427
838.823	0.0181327
838.901	0.0181454
838.979	0.0182587
839.058	0.0182180
839.136	0.0181698
839.214	0.0182259
839.292	0.0182497
839.370	0.0181171
839.448	0.0180833
839.526	0.0180076
839.604	0.0181252
839.683	0.0181528
839.761	0.0180421
839.839	0.0179691
839.917	0.0180320
839.995	0.0180063
840.073	0.0180233
840.151	0.0179761
840.229	0.0180015
840.308	0.0179382
840.386	0.0179094
840.464	0.0180023
840.542	0.0181268
840.620	0.0180652
840.698	0.0179774
840.776	0.0179674
840.854	0.0180402
840.933	0.0179920
841.011	0.0180950
841.089	0.0180115
841.167	0.0180670
841.245	0.0179931
841.323	0.0180665
841.401	0.0180640
841.479	0.0181492
841.558	0.0179846
841.636	0.0182585
841.714	0.0182135
841.792	0.0181142
841.870	0.0181990
841.948	0.0179953
842.026	0.0181934
842.104	0.0180933
842.183	0.0180347
842.261	0.0180891
842.339	0.0181593
842.417	0.0181041
842.495	0.0181007
842.573	0.0180322
842.651	0.0179856
842.729	0.0182163
842.808	0.0181297
842.886	0.0180254
842.964	0.0180112
843.042	0.0180927
843.120	0.0180119
843.198	0.0181047
843.276	0.0180458
843.354	0.0180672
843.433	0.0180736
843.511	0.0180526
843.589	0.0181355
843.667	0.0181174
843.745	0.0180665
843.823	0.0180097
843.901	0.0179943
843.979	0.0180486
844.058	0.0180894
844.136	0.0180862
844.214	0.0179778
844.292	0.0179601
844.370	0.0179705
844.448	0.0179784
844.526	0.0179680
844.604	0.0181481
844.683	0.0181464
844.761	0.0180938
844.839	0.0181780
844.917	0.0179844
844.995	0.0181488
845.073	0.0182374
845.151	0.0181712
845.229	0.0181643
845.308	0.0182291
845.386	0.0182846
845.464	0.0181863
845.542	0.0181697
845.620	0.0182173
845.698	0.0181514
845.776	0.0181415
845.854	0.0180437
845.933	0.0180688
846.011	0.0181763
846.089	0.0182066
846.167	0.0181126
846.245	0.0181158
846.323	0.0181985
846.401	0.0181249
846.479	0.0180819
846.558	0.0181973
846.636	0.0182070
846.714	0.0178957
846.792	0.0180747
846.870	0.0180891
846.948	0.0181513
847.026	0.0180110
847.104	0.0180900
847.183	0.0179488
847.261	0.0179166
847.339	0.0180591
847.417	0.0180689
847.495	0.0179704
847.573	0.0179249
847.651	0.0179868
847.729	0.0180432
847.808	0.0179998
847.886	0.0178947
847.964	0.0179807
848.042	0.0178953
848.120	0.0179421
848.198	0.0179484
848.276	0.0179121
848.354	0.0179312
848.433	0.0179105
848.511	0.0177606
848.589	0.0178912
848.667	0.0179781
848.745	0.0179714
848.823	0.0180144
848.901	0.0179578
848.979	0.0179635
849.058	0.0177821
849.136	0.0179227
849.214	0.0179566
849.292	0.0181055
849.370	0.0180479
849.448	0.0180740
849.526	0.0179417
849.604	0.0178968
849.683	0.0180469
849.761	0.0179582
849.839	0.0178328
849.917	0.0180643
849.995	0.0180198
850.073	0.0180923
850.151	0.0181056
850.229	0.0179546
850.308	0.0180936
850.386	0.0180852
850.464	0.0180633
850.542	0.0180414
850.620	0.0179958
850.698	0.0180359
850.776	0.0181496
850.854	0.0180844
850.933	0.0180392
851.011	0.0179279
851.089	0.0179346
851.167	0.0178877
851.245	0.0179172
851.323	0.0179127
851.401	0.0179266
851.479	0.0178848
851.558	0.0180232
851.636	0.0179965
851.714	0.0179031
851.792	0.0180446
851.870	0.0179099
851.948	0.0179012
852.026	0.0179300
852.104	0.0179140
852.183	0.0180131
852.261	0.0180485
852.339	0.0179269
852.417	0.0178548
852.495	0.0179826
852.573	0.0180399
852.651	0.0179834
852.729	0.0178636
852.808	0.0181133
852.886	0.0179903
852.964	0.0179758
853.042	0.0180355
853.120	0.0179945
853.198	0.0180727
853.276	0.0179970
853.354	0.0180543
853.433	0.0181492
853.511	0.0180838
853.589	0.0180133
853.667	0.0180987
853.745	0.0180632
853.823	0.0180857
853.901	0.0180998
853.979	0.0179119
854.058	0.0180315
854.136	0.0180533
854.214	0.0180715
854.292	0.0180067
854.370	0.0179502
854.448	0.0179569
854.526	0.0180453
854.604	0.0181208
854.683	0.0180873
854.761	0.0179950
854.839	0.0179259
854.917	0.0179424
854.995	0.0179644
855.073	0.0180972
855.151	0.0179637
855.229	0.0179720
855.308	0.0181047
855.386	0.0179614
855.464	0.0180638
855.542	0.0180254
855.620	0.0178707
855.698	0.0178775
855.776	0.0179592
855.854	0.0179366
855.933	0.0181121
856.011	0.0180415
856.089	0.0180047
856.167	0.0179241
856.245	0.0180070
856.323	0.0179347
856.401	0.0180335
856.479	0.0180801
856.558	0.0179916
856.636	0.0179178
856.714	0.0180078
856.792	0.0181293
856.870	0.0180666
856.948	0.0181054
857.026	0.0178867
857.104	0.0179555
857.183	0.0179931
857.261	0.0179575
857.339	0.0181068
857.417	0.0179810
857.495	0.0178855
857.573	0.0179945
857.651	0.0180699
857.729	0.0179131
857.808	0.0178976
857.886	0.0180419
857.964	0.0181622
858.042	0.0179449
858.120	0.0179105
858.198	0.0180479
858.276	0.0181213
858.354	0.0180872
858.433	0.0178461
858.511	0.0179978
858.589	0.0179236
858.667	0.0179261
858.745	0.0179459
858.823	0.0177910
858.901	0.0177993
858.979	0.0177855
859.058	0.0179505
859.136	0.0179150
859.214	0.0177879
859.292	0.0177609
859.370	0.0177972
859.448	0.0179386
859.526	0.0180476
859.604	0.0178576
859.683	0.0177340
859.761	0.0177782
859.839	0.0177667
859.917	0.0178358
859.995	0.0179073
860.073	0.0178722
860.151	0.0178017
860.229	0.0179302
860.308	0.0178500
860.386	0.0178907
860.464	0.0178539
860.542	0.0177861
860.620	0.0179665
860.698	0.0179269
860.776	0.0179084
860.854	0.0179431
860.933	0.0179817
861.011	0.0179967
861.089	0.0180029
861.167	0.0178787
861.245	0.0180161
861.323	0.0180086
861.401	0.0179207
861.479	0.0179006
861.558	0.0179688
861.636	0.0180122
861.714	0.0180414
861.792	0.0178990
861.870	0.0180732
861.948	0.0181566
862.026	0.0180122
862.104	0.0180894
862.183	0.0180292
862.261	0.0180925
862.339	0.0180945
862.417	0.0180339
862.495	0.0179011
862.573	0.0181578
862.651	0.0180017
862.729	0.0180447
862.808	0.0181451
862.886	0.0178402
862.964	0.0180135
863.042	0.0181032
863.120	0.0179649
863.198	0.0179971
863.276	0.0179138
863.354	0.0179151
863.433	0.0179923
863.511	0.0180260
863.589	0.0179508
863.667	0.0178587
863.745	0.0178948
863.823	0.0179015
863.901	0.0179267
863.979	0.0178323
864.058	0.0179568
864.136	0.0178529
864.214	0.0177904
864.292	0.0178527
864.370	0.0178281
864.448	0.0177559
864.526	0.0178479
864.604	0.0178963
864.683	0.0178695
864.761	0.0178542
864.839	0.0179092
864.917	0.0178288
864.995	0.0178582
865.073	0.0180486
865.151	0.0179626
865.229	0.0181109
865.308	0.0179995
865.386	0.0180622
865.464	0.0180162
865.542	0.0181111
865.620	0.0181318
865.698	0.0181789
865.776	0.0182333
865.854	0.0182400
865.933	0.0182062
866.011	0.0181528
866.089	0.0180534
866.167	0.0183080
866.245	0.0181473
866.323	0.0181579
866.401	0.0182751
866.479	0.0181133
866.558	0.0181849
866.636	0.0181955
866.714	0.0181654
866.792	0.0181136
866.870	0.0180784
866.948	0.0181898
867.026	0.0180264
867.104	0.0181113
867.183	0.0181148
867.261	0.0180440
867.339	0.0181140
867.417	0.0179433
867.495	0.0179939
867.573	0.0180807
867.651	0.0179565
867.729	0.0179142
867.808	0.0179711
867.886	0.0180924
867.964	0.0179947
868.042	0.0179970
868.120	0.0179731
868.198	0.0179926
868.276	0.0180169
868.354	0.0181049
868.433	0.0180495
868.511	0.0178565
868.589	0.0179791
868.667	0.0179294
868.745	0.0178767
868.823	0.0180907
868.901	0.0180317
868.979	0.0180940
869.058	0.0181426
869.136	0.0179359
869.214	0.0179326
869.292	0.0180923
869.370	0.0179755
869.448	0.0179479
869.526	0.0179910
869.604	0.0180580
869.683	0.0181953
869.761	0.0180865
869.839	0.0179626
869.917	0.0179582
869.995	0.0180644
870.073	0.0180747
870.151	0.0181324
870.229	0.0180517
870.308	0.0180437
870.386	0.0181230
870.464	0.0180256
870.542	0.0179755
870.620	0.0179329
870.698	0.0180338
870.776	0.0180244
870.854	0.0179845
870.933	0.0180190
871.011	0.0180766
871.089	0.0179637
871.167	0.0180293
871.245	0.0179237
871.323	0.0180738
871.401	0.0180496
871.479	0.0179703
871.558	0.0179881
871.636	0.0180869
871.714	0.0180794
871.792	0.0179051
871.870	0.0178944
871.948	0.0180889
872.026	0.0181508
872.104	0.0180748
872.183	0.0181365
872.261	0.0181307
872.339	0.0181017
872.417	0.0180721
872.495	0.0180146
872.573	0.0180545
872.651	0.0181528
872.729	0.0180698
872.808	0.0179594
872.886	0.0180645
872.964	0.0180379
873.042	0.0179244
873.120	0.0181540
873.198	0.0181020
873.276	0.0180116
873.354	0.0180775
873.433	0.0181084
873.511	0.0181587
873.589	0.0181375
873.667	0.0180244
873.745	0.0181878
873.823	0.0180743
873.901	0.0181457
873.979	0.0180621
874.058	0.0181899
874.136	0.0180875
874.214	0.0182403
874.292	0.0181516
874.370	0.0180731
874.448	0.0182120
874.526	0.0182819
874.604	0.0182557
874.683	0.0181683
874.761	0.0181117
874.839	0.0181460
874.917	0.0181442
874.995	0.0182471
875.073	0.0181407
875.151	0.0180651
875.229	0.0180087
875.308	0.0181127
875.386	0.0180415
875.464	0.0180053
875.542	0.0180843
875.620	0.0179917
875.698	0.0180957
875.776	0.0180545
875.854	0.0181735
875.933	0.0179946
876.011	0.0179614
876.089	0.0179702
876.167	0.0179813
876.245	0.0180219
876.323	0.0180722
876.401	0.0181058
876.479	0.0180316
876.558	0.0179487
876.636	0.0179266
876.714	0.0179284
876.792	0.0179338
876.870	0.0180795
876.948	0.0179950
877.026	0.0180195
877.104	0.0179664
877.183	0.0180167
877.261	0.0179482
877.339	0.0179715
877.417	0.0179681
877.495	0.0180576
877.573	0.0180283
877.651	0.0179285
877.729	0.0180143
877.808	0.0180031
877.886	0.0180302
877.964	0.0179639
878.042	0.0179929
878.120	0.0178681
878.198	0.0181159
878.276	0.0181526
878.354	0.0181361
878.433	0.0180231
878.511	0.0180743
878.589	0.0180389
878.667	0.0179970
878.745	0.0179787
878.823	0.0180507
878.901	0.0179940
878.979	0.0178601
879.058	0.0179388
879.136	0.0179705
879.214	0.0178981
879.292	0.0179114
879.370	0.0179321
879.448	0.0179149
879.526	0.0180082
879.604	0.0178540
879.683	0.0178992
879.761	0.0179887
879.839	0.0179773
879.917	0.0178274
879.995	0.0177792
880.073	0.0178417
880.151	0.0179800
880.229	0.0178267
880.308	0.0178566
880.386	0.0178291
880.464	0.0178523
880.542	0.0179279
880.620	0.0177425
880.698	0.0179049
880.776	0.0179464
880.854	0.0178654
880.933	0.0178376
881.011	0.0178952
881.089	0.0178951
881.167	0.0178950
881.245	0.0178872
881.323	0.0180647
881.401	0.0179832
881.479	0.0178727
881.558	0.0178616
881.636	0.0180824
881.714	0.0179932
881.792	0.0180788
881.870	0.0180325
881.948	0.0179655
882.026	0.0178925
882.104	0.0179546
882.183	0.0179726
882.261	0.0179664
882.339	0.0181042
882.417	0.0179600
882.495	0.0179565
882.573	0.0179595
882.651	0.0180493
882.729	0.0179540
882.808	0.0180886
882.886	0.0182027
882.964	0.0180939
883.042	0.0180724
883.120	0.0179716
883.198	0.0180536
883.276	0.0180668
883.354	0.0179535
883.433	0.0180630
883.511	0.0180576
883.589	0.0181612
883.667	0.0180463
883.745	0.0181059
883.823	0.0180747
883.901	0.0178805
883.979	0.0181256
884.058	0.0179830
884.136	0.0179243
884.214	0.0180235
884.292	0.0180373
884.370	0.0180198
884.448	0.0180087
884.526	0.0180730
884.604	0.0180989
884.683	0.0178580
884.761	0.0180791
884.839	0.0180346
884.917	0.0179467
884.995	0.0180347
885.073	0.0179191
885.151	0.0179176
885.229	0.0179350
885.308	0.0179470
885.386	0.0179491
885.464	0.0179169
885.542	0.0180409
885.620	0.0178971
885.698	0.0180254
885.776	0.0179700
885.854	0.0179898
885.933	0.0179950
886.011	0.0179697
886.089	0.0178691
886.167	0.0180107
886.245	0.0179792
886.323	0.0180239
886.401	0.0180516
886.479	0.0179481
886.558	0.0181163
886.636	0.0181457
886.714	0.0178104
886.792	0.0179694
886.870	0.0179524
886.948	0.0180307
887.026	0.0180338
887.104	0.0180544
887.183	0.0181527
887.261	0.0179137
887.339	0.0180247
887.417	0.0178726
887.495	0.0180055
887.573	0.0180962
887.651	0.0180011
887.729	0.0178885
887.808	0.0179974
887.886	0.0179414
887.964	0.0180085
888.042	0.0179680
888.120	0.0180657
888.198	0.0180055
888.276	0.0178831
888.354	0.0179281
888.433	0.0179015
888.511	0.0180035
888.589	0.0179356
888.667	0.0178273
888.745	0.0179575
888.823	0.0179160
888.901	0.0179512
888.979	0.0178677
889.058	0.0178975
889.136	0.0178330
889.214	0.0178834
889.292	0.0179293
889.370	0.0180290
889.448	0.0179739
889.526	0.0179259
889.604	0.0177263
889.683	0.0178333
889.761	0.0180822
889.839	0.0179366
889.917	0.0179088
889.995	0.0180363
890.073	0.0181131
890.151	0.0179959
890.229	0.0179327
890.308	0.0180509
890.386	0.0179797
890.464	0.0180486
890.542	0.0180256
890.620	0.0180383
890.698	0.0180371
890.776	0.0180177
890.854	0.0180144
890.933	0.0180458
891.011	0.0181284
891.089	0.0179488
891.167	0.0180593
891.245	0.0180232
891.323	0.0179504
891.401	0.0179218
891.479	0.0179521
891.558	0.0178668
891.636	0.0179148
891.714	0.0181433
891.792	0.0180679
891.870	0.0179698
891.948	0.0181581
892.026	0.0181002
892.104	0.0179935
892.183	0.0180901
892.261	0.0180962
892.339	0.0181066
892.417	0.0180473
892.495	0.0179968
892.573	0.0179669
892.651	0.0180444
892.729	0.0179610
892.808	0.0180496
892.886	0.0178860
892.964	0.0181155
893.042	0.0180307
893.120	0.0180888
893.198	0.0180502
893.276	0.0179108
893.354	0.0179847
893.433	0.0181229
893.511	0.0180605
893.589	0.0179050
893.667	0.0178400
893.745	0.0179909
893.823	0.0180415
893.901	0.0181327
893.979	0.0180202
894.058	0.0179962
894.136	0.0179526
894.214	0.0179063
894.292	0.0178666
894.370	0.0178352
894.448	0.0178996
894.526	0.0180394
894.604	0.0178727
894.683	0.0178841
894.761	0.0177868
894.839	0.0179285
894.917	0.0178793
894.995	0.0177621
895.073	0.0177946
895.151	0.0180180
895.229	0.0178377
895.308	0.0179797
895.386	0.0177348
895.464	0.0178229
895.542	0.0179053
895.620	0.0179906
895.698	0.0179225
895.776	0.0178876
895.854	0.0178735
895.933	0.0179996
896.011	0.0180380
896.089	0.0179758
896.167	0.0179539
896.245	0.0180107
896.323	0.0181456
896.401	0.0179808
896.479	0.0181144
896.558	0.0180305
896.636	0.0179717
896.714	0.0180755
896.792	0.0181018
896.870	0.0180937
896.948	0.0179446
897.026	0.0180355
897.104	0.0180224
897.183	0.0179744
897.261	0.0180845
897.339	0.0180809
897.417	0.0179758
897.495	0.0179143
897.573	0.0178951
897.651	0.0178225
897.729	0.0180285
897.808	0.0179493
897.886	0.0179012
897.964	0.0178922
898.042	0.0180758
898.120	0.0180206
898.198	0.0179899
898.276	0.0182022
898.354	0.0181609
898.433	0.0180600
898.511	0.0180951
898.589	0.0182268
898.667	0.0183538
898.745	0.0182701
898.823	0.0182602
898.901	0.0182202
898.979	0.0183073
899.058	0.0182676
899.136	0.0181712
899.214	0.0182281
899.292	0.0182344
899.370	0.0182939
899.448	0.0181444
899.526	0.0182263
899.604	0.0180988
899.683	0.0181995
899.761	0.0181301
899.839	0.0182237
899.917	0.0182083
899.995	0.0181380
900.073	0.0181181
900.151	0.0180460
900.229	0.0179987
900.308	0.0180943
900.386	0.0180335
900.464	0.0179662
900.542	0.0179191
900.620	0.0179363
900.698	0.0180565
900.776	0.0180868
900.854	0.0180411
900.933	0.0180625
901.011	0.0180582
901.089	0.0179127
901.167	0.0178793
901.245	0.0180633
901.323	0.0181045
901.401	0.0179572
901.479	0.0179241
901.558	0.0180569
901.636	0.0181093
901.714	0.0179520
901.792	0.0180016
901.870	0.0181210
901.948	0.0180125
902.026	0.0179764
902.104	0.0181296
902.183	0.0179615
902.261	0.0180214
902.339	0.0179420
902.417	0.0178986
902.495	0.0180274
902.573	0.0181625
902.651	0.0179365
902.729	0.0179478
902.808	0.0179177
902.886	0.0178664
902.964	0.0178454
903.042	0.0179565
903.120	0.0178615
903.198	0.0178506
903.276	0.0179884
903.354	0.0177072
903.433	0.0178162
903.511	0.0179148
903.589	0.0177892
903.667	0.0178426
903.745	0.0179449
903.823	0.0178926
903.901	0.0178381
903.979	0.0178248
904.058	0.0178632
904.136	0.0178871
904.214	0.0180485
904.292	0.0180025
904.370	0.0177981
904.448	0.0178950
904.526	0.0179477
904.604	0.0179554
904.683	0.0179160
904.761	0.0180766
904.839	0.0179500
904.917	0.0179156
904.995	0.0178960
905.073	0.0178187
905.151	0.0178451
905.229	0.0178764
905.308	0.0179694
905.386	0.0178609
905.464	0.0179800
905.542	0.0179210
905.620	0.0178799
905.698	0.0179510
905.776	0.0178946
905.854	0.0178870
905.933	0.0179512
906.011	0.0179801
906.089	0.0179865
906.167	0.0179595
906.245	0.0179812
906.323	0.0179728
906.401	0.0180292
906.479	0.0179918
906.558	0.0179769
906.636	0.0180386
906.714	0.0179121
906.792	0.0180053
906.870	0.0179768
906.948	0.0179562
907.026	0.0180148
907.104	0.0179546
907.183	0.0179444
907.261	0.0180162
907.339	0.0180125
907.417	0.0180059
907.495	0.0180766
907.573	0.0181239
907.651	0.0179458
907.729	0.0180720
907.808	0.0180386
907.886	0.0180057
907.964	0.0179221
908.042	0.0180995
908.120	0.0180845
908.198	0.0181974
908.276	0.0180201
908.354	0.0181869
908.433	0.0180121
908.511	0.0180687
908.589	0.0181389
908.667	0.0181913
908.745	0.0180862
908.823	0.0182010
908.901	0.0180940
908.979	0.0180865
909.058	0.0180312
909.136	0.0182265
909.214	0.0180093
909.292	0.0182237
909.370	0.0180233
909.448	0.0181519
909.526	0.0180762
909.604	0.0180722
909.683	0.0182288
909.761	0.0180432
909.839	0.0181358
909.917	0.0181526
909.995	0.0180383
910.073	0.0180556
910.151	0.0180686
910.229	0.0181231
910.308	0.0181689
910.386	0.0180222
910.464	0.0180373
910.542	0.0180811
910.620	0.0179959
910.698	0.0181283
910.776	0.0180292
910.854	0.0180424
910.933	0.0180298
911.011	0.0180605
911.089	0.0181241
911.167	0.0181484
911.245	0.0180940
911.323	0.0181284
911.401	0.0181304
911.479	0.0181573
911.558	0.0179824
911.636	0.0180318
911.714	0.0181786
911.792	0.0180612
911.870	0.0181280
911.948	0.0181800
912.026	0.0181794
912.104	0.0181352
912.183	0.0181535
912.261	0.0181414
912.339	0.0181039
912.417	0.0179709
912.495	0.0181843
912.573	0.0182138
912.651	0.0181474
912.729	0.0179483
912.808	0.0179927
912.886	0.0180634
912.964	0.0178984
913.042	0.0180690
913.120	0.0179832
913.198	0.0180237
913.276	0.0179135
913.354	0.0179874
913.433	0.0178916
913.511	0.0179689
913.589	0.0181338
913.667	0.0179475
913.745	0.0178740
913.823	0.0181163
913.901	0.0180019
913.979	0.0179595
914.058	0.0178808
914.136	0.0179230
914.214	0.0180063
914.292	0.0179963
914.370	0.0179922
914.448	0.0179068
914.526	0.0179897
914.604	0.0180512
914.683	0.0180315
914.761	0.0180499
914.839	0.0181479
914.917	0.0180296
914.995	0.0179089
915.073	0.0180034
915.151	0.0178590
915.229	0.0181075
915.308	0.0182265
915.386	0.0179976
915.464	0.0179971
915.542	0.0179385
915.620	0.0179977
915.698	0.0181512
915.776	0.0180713
915.854	0.0179697
915.933	0.0180457
916.011	0.0178763
916.089	0.0178561
916.167	0.0178684
916.245	0.0178461
916.323	0.0179717
916.401	0.0179529
916.479	0.0178381
916.558	0.0178271
916.636	0.0177694
916.714	0.0178735
916.792	0.0178551
916.870	0.0178969
916.948	0.0178381
917.026	0.0177774
917.104	0.0177964
917.183	0.0178086
917.261	0.0178744
917.339	0.0179688
917.417	0.0179135
917.495	0.0178278
917.573	0.0178839
917.651	0.0177818
917.729	0.0178985
917.808	0.0178840
917.886	0.0178640
917.964	0.0179068
918.042	0.0179354
918.120	0.0181432
918.198	0.0179917
918.276	0.0179173
918.354	0.0181503
918.433	0.0180729
918.511	0.0180665
918.589	0.0178918
918.667	0.0180898
918.745	0.0180367
918.823	0.0179415
918.901	0.0180434
918.979	0.0179811
919.058	0.0178928
919.136	0.0179746
919.214	0.0181197
919.292	0.0181447
919.370	0.0180278
919.448	0.0181014
919.526	0.0179971
919.604	0.0180696
919.683	0.0180198
919.761	0.0179659
919.839	0.0179433
919.917	0.0181149
