06/03/2022	18:28:54	Ver.	4.1	UNKNOWN
Optical Delay	599.995081	Delta X		0.078125	Sweeps	1	Scan Rate	0/0
Coordinates	Axis 1	NaN	Axis 2	NaN	Axis 3	NaN	Axis 4	NaN	Axis 5	NaN	Axis 6	0.000000
TX Power	0.000000	RX Power	0.000000

599.995	0.0181135
600.073	0.0181047
600.151	0.0180918
600.229	0.0181898
600.308	0.0181279
600.386	0.0181319
600.464	0.0182250
600.542	0.0180242
600.620	0.0180474
600.698	0.0181583
600.776	0.0181255
600.854	0.0181480
600.933	0.0181030
601.011	0.0181730
601.089	0.0181908
601.167	0.0181161
601.245	0.0180555
601.323	0.0181818
601.401	0.0180859
601.479	0.0182239
601.558	0.0182653
601.636	0.0181526
601.714	0.0181074
601.792	0.0181584
601.870	0.0181574
601.948	0.0182676
602.026	0.0181358
602.104	0.0180270
602.183	0.0181232
602.261	0.0181258
602.339	0.0181574
602.417	0.0181559
602.495	0.0182088
602.573	0.0181135
602.651	0.0181660
602.729	0.0181573
602.808	0.0182181
602.886	0.0180894
602.964	0.0180338
603.042	0.0181280
603.120	0.0181920
603.198	0.0180447
603.276	0.0181715
603.354	0.0180950
603.433	0.0181748
603.511	0.0180311
603.589	0.0180242
603.667	0.0181055
603.745	0.0181764
603.823	0.0180135
603.901	0.0180991
603.979	0.0181416
604.058	0.0180480
604.136	0.0181335
604.214	0.0180256
604.292	0.0181129
604.370	0.0179674
604.448	0.0181024
604.526	0.0181281
604.604	0.0179312
604.683	0.0180255
604.761	0.0180759
604.839	0.0181197
604.917	0.0180668
604.995	0.0181057
605.073	0.0181272
605.151	0.0180080
605.229	0.0181818
605.308	0.0181897
605.386	0.0181268
605.464	0.0182632
605.542	0.0179884
605.620	0.0180111
605.698	0.0181300
605.776	0.0180511
605.854	0.0181555
605.933	0.0181636
606.011	0.0180628
606.089	0.0180795
606.167	0.0180364
606.245	0.0181077
606.323	0.0180342
606.401	0.0180441
606.479	0.0180309
606.558	0.0181781
606.636	0.0180056
606.714	0.0180982
606.792	0.0180381
606.870	0.0180941
606.948	0.0180386
607.026	0.0180544
607.104	0.0180714
607.183	0.0179660
607.261	0.0179759
607.339	0.0180334
607.417	0.0181101
607.495	0.0180484
607.573	0.0181062
607.651	0.0180965
607.729	0.0179775
607.808	0.0179733
607.886	0.0179707
607.964	0.0180193
608.042	0.0180450
608.120	0.0179684
608.198	0.0179272
608.276	0.0180732
608.354	0.0180331
608.433	0.0181127
608.511	0.0181979
608.589	0.0181494
608.667	0.0179801
608.745	0.0180091
608.823	0.0179856
608.901	0.0179733
608.979	0.0179668
609.058	0.0181979
609.136	0.0180666
609.214	0.0179559
609.292	0.0181133
609.370	0.0180669
609.448	0.0180344
609.526	0.0179138
609.604	0.0180989
609.683	0.0180076
609.761	0.0180056
609.839	0.0180254
609.917	0.0180094
609.995	0.0180358
610.073	0.0180228
610.151	0.0180297
610.229	0.0181010
610.308	0.0180791
610.386	0.0182126
610.464	0.0181889
610.542	0.0180497
610.620	0.0180722
610.698	0.0181754
610.776	0.0182071
610.854	0.0182068
610.933	0.0181277
611.011	0.0179710
611.089	0.0180466
611.167	0.0181281
611.245	0.0181875
611.323	0.0181650
611.401	0.0181061
611.479	0.0181145
611.558	0.0180399
611.636	0.0180943
611.714	0.0181794
611.792	0.0181730
611.870	0.0180952
611.948	0.0181448
612.026	0.0180242
612.104	0.0180823
612.183	0.0179775
612.261	0.0181555
612.339	0.0180953
612.417	0.0181315
612.495	0.0181522
612.573	0.0180900
612.651	0.0182046
612.729	0.0181606
612.808	0.0181803
612.886	0.0181352
612.964	0.0180365
613.042	0.0182482
613.120	0.0182351
613.198	0.0182850
613.276	0.0181719
613.354	0.0180956
613.433	0.0181954
613.511	0.0181640
613.589	0.0181416
613.667	0.0182214
613.745	0.0181910
613.823	0.0181988
613.901	0.0182846
613.979	0.0182163
614.058	0.0182049
614.136	0.0181906
614.214	0.0182125
614.292	0.0179965
614.370	0.0181179
614.448	0.0181672
614.526	0.0181857
614.604	0.0180606
614.683	0.0181397
614.761	0.0180856
614.839	0.0180913
614.917	0.0181824
614.995	0.0179966
615.073	0.0181507
615.151	0.0182363
615.229	0.0181445
615.308	0.0182264
615.386	0.0182258
615.464	0.0182116
615.542	0.0181973
615.620	0.0181768
615.698	0.0180606
615.776	0.0180488
615.854	0.0182352
615.933	0.0181457
616.011	0.0180116
616.089	0.0181875
616.167	0.0181377
616.245	0.0180711
616.323	0.0181569
616.401	0.0183215
616.479	0.0182023
616.558	0.0181544
616.636	0.0182105
616.714	0.0180222
616.792	0.0181860
616.870	0.0182148
616.948	0.0179131
617.026	0.0181675
617.104	0.0182157
617.183	0.0181725
617.261	0.0182449
617.339	0.0182462
617.417	0.0180345
617.495	0.0180739
617.573	0.0180482
617.651	0.0181291
617.729	0.0181157
617.808	0.0180861
617.886	0.0180848
617.964	0.0181178
618.042	0.0181487
618.120	0.0181940
618.198	0.0180344
618.276	0.0181006
618.354	0.0181272
618.433	0.0180086
618.511	0.0182084
618.589	0.0181953
618.667	0.0180680
618.745	0.0180355
618.823	0.0181290
618.901	0.0182376
618.979	0.0182253
619.058	0.0180776
619.136	0.0181829
619.214	0.0181121
619.292	0.0181583
619.370	0.0181405
619.448	0.0181697
619.526	0.0182246
619.604	0.0181176
619.683	0.0182574
619.761	0.0182216
619.839	0.0181557
619.917	0.0182003
619.995	0.0181209
620.073	0.0181793
620.151	0.0181864
620.229	0.0181860
620.308	0.0182265
620.386	0.0181494
620.464	0.0182794
620.542	0.0183078
620.620	0.0182577
620.698	0.0182481
620.776	0.0182101
620.854	0.0180808
620.933	0.0181957
621.011	0.0182410
621.089	0.0182037
621.167	0.0180948
621.245	0.0181831
621.323	0.0182064
621.401	0.0181671
621.479	0.0182490
621.558	0.0182174
621.636	0.0181757
621.714	0.0181403
621.792	0.0182069
621.870	0.0182626
621.948	0.0182346
622.026	0.0181836
622.104	0.0180415
622.183	0.0181683
622.261	0.0181084
622.339	0.0181893
622.417	0.0180785
622.495	0.0181990
622.573	0.0181658
622.651	0.0180917
622.729	0.0181711
622.808	0.0180743
622.886	0.0182345
622.964	0.0181976
623.042	0.0180308
623.120	0.0181618
623.198	0.0181388
623.276	0.0182193
623.354	0.0182998
623.433	0.0183470
623.511	0.0181113
623.589	0.0181555
623.667	0.0182512
623.745	0.0181161
623.823	0.0181434
623.901	0.0181796
623.979	0.0181350
624.058	0.0181911
624.136	0.0181916
624.214	0.0181155
624.292	0.0181440
624.370	0.0181647
624.448	0.0183760
624.526	0.0181847
624.604	0.0182534
624.683	0.0182368
624.761	0.0181904
624.839	0.0182415
624.917	0.0182265
624.995	0.0182084
625.073	0.0183514
625.151	0.0181861
625.229	0.0182486
625.308	0.0181621
625.386	0.0182483
625.464	0.0182671
625.542	0.0181360
625.620	0.0181901
625.698	0.0182259
625.776	0.0180728
625.854	0.0181257
625.933	0.0181778
626.011	0.0181497
626.089	0.0182283
626.167	0.0181247
626.245	0.0182086
626.323	0.0183644
626.401	0.0182893
626.479	0.0182063
626.558	0.0181881
626.636	0.0180582
626.714	0.0182008
626.792	0.0182276
626.870	0.0181666
626.948	0.0181652
627.026	0.0180599
627.104	0.0181342
627.183	0.0181957
627.261	0.0181065
627.339	0.0180881
627.417	0.0180637
627.495	0.0181767
627.573	0.0180479
627.651	0.0181535
627.729	0.0180155
627.808	0.0180916
627.886	0.0180455
627.964	0.0181259
628.042	0.0180556
628.120	0.0182716
628.198	0.0180695
628.276	0.0180272
628.354	0.0180901
628.433	0.0181898
628.511	0.0181448
628.589	0.0180865
628.667	0.0181639
628.745	0.0180561
628.823	0.0181462
628.901	0.0180371
628.979	0.0181443
629.058	0.0181159
629.136	0.0181242
629.214	0.0181436
629.292	0.0180224
629.370	0.0181821
629.448	0.0181255
629.526	0.0181451
629.604	0.0180814
629.683	0.0181548
629.761	0.0180876
629.839	0.0179793
629.917	0.0180447
629.995	0.0180040
630.073	0.0180063
630.151	0.0181330
630.229	0.0180953
630.308	0.0180839
630.386	0.0181274
630.464	0.0181095
630.542	0.0179745
630.620	0.0181275
630.698	0.0181818
630.776	0.0181729
630.854	0.0181580
630.933	0.0180609
631.011	0.0182556
631.089	0.0180757
631.167	0.0180889
631.245	0.0180430
631.323	0.0180198
631.401	0.0179826
631.479	0.0181364
631.558	0.0180527
631.636	0.0180213
631.714	0.0178788
631.792	0.0179543
631.870	0.0179362
631.948	0.0179213
632.026	0.0180777
632.104	0.0180811
632.183	0.0181100
632.261	0.0180034
632.339	0.0179699
632.417	0.0181273
632.495	0.0180726
632.573	0.0181702
632.651	0.0180465
632.729	0.0179915
632.808	0.0180668
632.886	0.0181904
632.964	0.0180550
633.042	0.0179442
633.120	0.0181219
633.198	0.0179545
633.276	0.0180000
633.354	0.0179581
633.433	0.0180531
633.511	0.0181505
633.589	0.0181111
633.667	0.0179724
633.745	0.0179764
633.823	0.0180507
633.901	0.0180113
633.979	0.0179524
634.058	0.0180676
634.136	0.0181198
634.214	0.0181467
634.292	0.0180122
634.370	0.0179595
634.448	0.0180605
634.526	0.0181065
634.604	0.0182180
634.683	0.0180377
634.761	0.0179828
634.839	0.0181008
634.917	0.0181187
634.995	0.0181348
635.073	0.0180376
635.151	0.0179549
635.229	0.0180440
635.308	0.0181462
635.386	0.0181180
635.464	0.0182326
635.542	0.0180349
635.620	0.0180428
635.698	0.0181487
635.776	0.0181535
635.854	0.0181306
635.933	0.0179769
636.011	0.0180492
636.089	0.0180591
636.167	0.0182118
636.245	0.0182053
636.323	0.0182023
636.401	0.0180487
636.479	0.0181783
636.558	0.0181911
636.636	0.0182137
636.714	0.0181573
636.792	0.0181542
636.870	0.0182091
636.948	0.0180237
637.026	0.0180798
637.104	0.0180091
637.183	0.0181817
637.261	0.0181084
637.339	0.0180634
637.417	0.0180893
637.495	0.0181794
637.573	0.0181857
637.651	0.0181062
637.729	0.0181534
637.808	0.0181366
637.886	0.0179774
637.964	0.0181374
638.042	0.0181227
638.120	0.0180500
638.198	0.0181168
638.276	0.0181121
638.354	0.0180650
638.433	0.0182194
638.511	0.0182143
638.589	0.0180736
638.667	0.0181644
638.745	0.0181384
638.823	0.0182433
638.901	0.0182198
638.979	0.0181979
639.058	0.0179977
639.136	0.0180522
639.214	0.0182201
639.292	0.0182413
639.370	0.0182275
639.448	0.0182539
639.526	0.0182419
639.604	0.0181767
639.683	0.0181824
639.761	0.0181481
639.839	0.0181451
639.917	0.0181750
639.995	0.0182896
640.073	0.0181680
640.151	0.0181104
640.229	0.0181989
640.308	0.0181561
640.386	0.0181386
640.464	0.0182429
640.542	0.0181963
640.620	0.0181815
640.698	0.0182368
640.776	0.0181827
640.854	0.0182065
640.933	0.0182354
641.011	0.0181229
641.089	0.0182819
641.167	0.0182391
641.245	0.0183777
641.323	0.0182241
641.401	0.0183173
641.479	0.0183192
641.558	0.0183183
641.636	0.0183635
641.714	0.0182245
641.792	0.0182563
641.870	0.0182483
641.948	0.0182137
642.026	0.0181748
642.104	0.0182442
642.183	0.0182146
642.261	0.0181942
642.339	0.0181879
642.417	0.0182456
642.495	0.0180582
642.573	0.0181233
642.651	0.0182071
642.729	0.0183301
642.808	0.0180733
642.886	0.0182831
642.964	0.0182065
643.042	0.0182391
643.120	0.0181702
643.198	0.0183117
643.276	0.0182543
643.354	0.0183375
643.433	0.0184029
643.511	0.0181715
643.589	0.0182262
643.667	0.0181580
643.745	0.0183142
643.823	0.0182412
643.901	0.0182636
643.979	0.0181556
644.058	0.0181721
644.136	0.0182924
644.214	0.0180450
644.292	0.0181853
644.370	0.0180816
644.448	0.0181614
644.526	0.0180937
644.604	0.0181763
644.683	0.0181105
644.761	0.0180834
644.839	0.0182606
644.917	0.0182136
644.995	0.0181966
645.073	0.0182653
645.151	0.0182581
645.229	0.0183186
645.308	0.0182674
645.386	0.0184097
645.464	0.0182648
645.542	0.0182085
645.620	0.0181956
645.698	0.0181313
645.776	0.0181717
645.854	0.0181871
645.933	0.0181660
646.011	0.0181548
646.089	0.0181818
646.167	0.0180970
646.245	0.0181705
646.323	0.0182393
646.401	0.0181669
646.479	0.0181938
646.558	0.0181450
646.636	0.0182363
646.714	0.0182287
646.792	0.0183558
646.870	0.0182093
646.948	0.0183208
647.026	0.0182957
647.104	0.0183112
647.183	0.0184904
647.261	0.0184326
647.339	0.0182846
647.417	0.0183142
647.495	0.0183805
647.573	0.0182917
647.651	0.0182670
647.729	0.0183174
647.808	0.0182940
647.886	0.0183072
647.964	0.0182843
648.042	0.0180836
648.120	0.0182107
648.198	0.0181898
648.276	0.0181982
648.354	0.0182055
648.433	0.0180808
648.511	0.0181729
648.589	0.0183205
648.667	0.0182149
648.745	0.0181985
648.823	0.0182746
648.901	0.0180986
648.979	0.0182889
649.058	0.0184064
649.136	0.0182043
649.214	0.0183228
649.292	0.0182165
649.370	0.0182269
649.448	0.0182630
649.526	0.0182866
649.604	0.0183040
649.683	0.0183266
649.761	0.0183381
649.839	0.0181369
649.917	0.0181604
649.995	0.0181112
650.073	0.0180614
650.151	0.0182085
650.229	0.0181299
650.308	0.0180785
650.386	0.0180733
650.464	0.0180927
650.542	0.0181968
650.620	0.0181837
650.698	0.0182285
650.776	0.0180633
650.854	0.0180584
650.933	0.0181107
651.011	0.0181823
651.089	0.0180585
651.167	0.0180785
651.245	0.0181248
651.323	0.0181231
651.401	0.0182371
651.479	0.0180874
651.558	0.0180142
651.636	0.0180313
651.714	0.0181770
651.792	0.0181010
651.870	0.0180200
651.948	0.0179229
652.026	0.0181099
652.104	0.0180761
652.183	0.0181336
652.261	0.0179836
652.339	0.0181027
652.417	0.0180261
652.495	0.0181322
652.573	0.0181165
652.651	0.0180286
652.729	0.0180579
652.808	0.0180727
652.886	0.0180293
652.964	0.0179669
653.042	0.0180867
653.120	0.0181403
653.198	0.0180318
653.276	0.0179254
653.354	0.0181290
653.433	0.0180747
653.511	0.0179726
653.589	0.0180798
653.667	0.0180122
653.745	0.0180618
653.823	0.0180392
653.901	0.0179239
653.979	0.0181563
654.058	0.0179828
654.136	0.0179060
654.214	0.0181532
654.292	0.0179732
654.370	0.0179670
654.448	0.0180275
654.526	0.0180204
654.604	0.0179552
654.683	0.0180090
654.761	0.0181306
654.839	0.0180558
654.917	0.0180450
654.995	0.0180594
655.073	0.0180498
655.151	0.0180508
655.229	0.0181668
655.308	0.0181035
655.386	0.0179417
655.464	0.0181633
655.542	0.0180018
655.620	0.0180143
655.698	0.0180087
655.776	0.0180515
655.854	0.0181462
655.933	0.0181260
656.011	0.0181292
656.089	0.0181473
656.167	0.0180554
656.245	0.0181196
656.323	0.0181290
656.401	0.0181038
656.479	0.0181140
656.558	0.0180630
656.636	0.0180344
656.714	0.0179678
656.792	0.0179095
656.870	0.0179964
656.948	0.0179955
657.026	0.0179567
657.104	0.0180265
657.183	0.0179925
657.261	0.0180238
657.339	0.0180267
657.417	0.0180689
657.495	0.0180003
657.573	0.0180766
657.651	0.0181712
657.729	0.0181625
657.808	0.0181392
657.886	0.0180124
657.964	0.0180402
658.042	0.0180269
658.120	0.0179835
658.198	0.0180207
658.276	0.0179886
658.354	0.0180836
658.433	0.0179133
658.511	0.0178500
658.589	0.0179846
658.667	0.0181727
658.745	0.0180489
658.823	0.0180193
658.901	0.0180648
658.979	0.0180095
659.058	0.0180243
659.136	0.0179838
659.214	0.0179740
659.292	0.0179662
659.370	0.0179698
659.448	0.0180118
659.526	0.0178561
659.604	0.0178742
659.683	0.0179494
659.761	0.0180405
659.839	0.0179321
659.917	0.0180323
659.995	0.0180141
660.073	0.0179881
660.151	0.0179087
660.229	0.0179284
660.308	0.0179111
660.386	0.0178601
660.464	0.0178481
660.542	0.0180163
660.620	0.0179106
660.698	0.0179980
660.776	0.0181106
660.854	0.0179495
660.933	0.0178889
661.011	0.0180037
661.089	0.0180449
661.167	0.0180414
661.245	0.0180407
661.323	0.0179502
661.401	0.0179893
661.479	0.0180772
661.558	0.0181139
661.636	0.0180722
661.714	0.0181622
661.792	0.0180998
661.870	0.0179156
661.948	0.0181108
662.026	0.0180865
662.104	0.0180198
662.183	0.0179309
662.261	0.0178885
662.339	0.0180428
662.417	0.0181194
662.495	0.0180247
662.573	0.0180655
662.651	0.0180779
662.729	0.0180806
662.808	0.0179729
662.886	0.0180326
662.964	0.0180463
663.042	0.0179617
663.120	0.0180424
663.198	0.0180988
663.276	0.0180309
663.354	0.0180617
663.433	0.0181827
663.511	0.0182912
663.589	0.0180704
663.667	0.0181204
663.745	0.0182015
663.823	0.0180848
663.901	0.0181941
663.979	0.0180904
664.058	0.0180994
664.136	0.0181056
664.214	0.0181234
664.292	0.0180978
664.370	0.0180070
664.448	0.0181287
664.526	0.0181129
664.604	0.0180170
664.683	0.0181229
664.761	0.0181805
664.839	0.0180964
664.917	0.0181526
664.995	0.0180733
665.073	0.0180659
665.151	0.0181297
665.229	0.0182267
665.308	0.0181356
665.386	0.0181123
665.464	0.0181149
665.542	0.0182212
665.620	0.0182665
665.698	0.0181171
665.776	0.0180280
665.854	0.0181543
665.933	0.0181287
666.011	0.0180892
666.089	0.0181552
666.167	0.0180846
666.245	0.0182798
666.323	0.0182381
666.401	0.0180987
666.479	0.0181353
666.558	0.0182461
666.636	0.0182303
666.714	0.0182256
666.792	0.0183275
666.870	0.0182879
666.948	0.0183441
667.026	0.0183916
667.104	0.0182108
667.183	0.0181718
667.261	0.0181921
667.339	0.0182939
667.417	0.0182541
667.495	0.0182240
667.573	0.0181535
667.651	0.0182722
667.729	0.0183010
667.808	0.0182938
667.886	0.0182957
667.964	0.0182958
668.042	0.0182733
668.120	0.0181745
668.198	0.0183645
668.276	0.0183144
668.354	0.0182289
668.433	0.0182072
668.511	0.0184138
668.589	0.0182410
668.667	0.0181323
668.745	0.0181546
668.823	0.0181911
668.901	0.0180936
668.979	0.0181785
669.058	0.0181940
669.136	0.0182384
669.214	0.0182557
669.292	0.0182931
669.370	0.0181462
669.448	0.0183407
669.526	0.0182082
669.604	0.0181966
669.683	0.0182201
669.761	0.0181123
669.839	0.0182296
669.917	0.0181479
669.995	0.0181256
670.073	0.0181709
670.151	0.0182014
670.229	0.0182324
670.308	0.0181163
670.386	0.0181365
670.464	0.0182417
670.542	0.0181581
670.620	0.0180598
670.698	0.0181651
670.776	0.0182443
670.854	0.0181934
670.933	0.0183323
671.011	0.0183591
671.089	0.0181464
671.167	0.0182016
671.245	0.0182819
671.323	0.0182697
671.401	0.0181438
671.479	0.0182574
671.558	0.0182421
671.636	0.0182845
671.714	0.0183028
671.792	0.0182085
671.870	0.0183231
671.948	0.0181607
672.026	0.0180218
672.104	0.0181872
672.183	0.0182838
672.261	0.0180884
672.339	0.0182380
672.417	0.0181162
672.495	0.0179353
672.573	0.0182057
672.651	0.0181374
672.729	0.0180550
672.808	0.0181340
672.886	0.0180856
672.964	0.0182651
673.042	0.0181068
673.120	0.0180194
673.198	0.0180800
673.276	0.0182515
673.354	0.0180206
673.433	0.0181087
673.511	0.0181519
673.589	0.0180485
673.667	0.0181496
673.745	0.0179381
673.823	0.0180238
673.901	0.0180373
673.979	0.0181228
674.058	0.0180906
674.136	0.0182287
674.214	0.0181893
674.292	0.0181251
674.370	0.0180953
674.448	0.0181087
674.526	0.0179285
674.604	0.0181375
674.683	0.0180449
674.761	0.0179291
674.839	0.0179475
674.917	0.0180057
674.995	0.0178120
675.073	0.0179253
675.151	0.0179469
675.229	0.0180391
675.308	0.0179498
675.386	0.0179707
675.464	0.0180704
675.542	0.0180234
675.620	0.0180029
675.698	0.0180025
675.776	0.0181095
675.854	0.0179614
675.933	0.0181245
676.011	0.0182056
676.089	0.0181755
676.167	0.0181921
676.245	0.0182133
676.323	0.0180215
676.401	0.0181319
676.479	0.0182628
676.558	0.0182843
676.636	0.0182614
676.714	0.0182025
676.792	0.0181866
676.870	0.0181941
676.948	0.0184364
677.026	0.0183396
677.104	0.0184073
677.183	0.0182357
677.261	0.0183438
677.339	0.0182549
677.417	0.0182104
677.495	0.0182107
677.573	0.0183085
677.651	0.0181346
677.729	0.0181619
677.808	0.0181583
677.886	0.0180884
677.964	0.0180147
678.042	0.0180214
678.120	0.0178771
678.198	0.0178778
678.276	0.0177927
678.354	0.0179179
678.433	0.0177629
678.511	0.0179444
678.589	0.0178072
678.667	0.0178519
678.745	0.0178955
678.823	0.0178282
678.901	0.0176868
678.979	0.0178193
679.058	0.0179868
679.136	0.0177873
679.214	0.0178511
679.292	0.0177614
679.370	0.0179558
679.448	0.0179099
679.526	0.0177194
679.604	0.0179195
679.683	0.0180070
679.761	0.0178072
679.839	0.0178239
679.917	0.0179704
679.995	0.0179634
680.073	0.0178333
680.151	0.0178728
680.229	0.0179236
680.308	0.0179427
680.386	0.0180183
680.464	0.0180777
680.542	0.0177676
680.620	0.0180106
680.698	0.0181128
680.776	0.0181548
680.854	0.0180363
680.933	0.0181612
681.011	0.0182911
681.089	0.0181514
681.167	0.0181761
681.245	0.0182230
681.323	0.0182077
681.401	0.0182748
681.479	0.0182140
681.558	0.0182382
681.636	0.0182256
681.714	0.0182196
681.792	0.0181674
681.870	0.0182850
681.948	0.0182858
682.026	0.0182099
682.104	0.0183067
682.183	0.0182043
682.261	0.0181666
682.339	0.0182040
682.417	0.0182072
682.495	0.0181053
682.573	0.0180843
682.651	0.0180733
682.729	0.0181747
682.808	0.0181403
682.886	0.0180176
682.964	0.0179979
683.042	0.0178639
683.120	0.0180186
683.198	0.0179385
683.276	0.0178097
683.354	0.0178767
683.433	0.0177772
683.511	0.0177314
683.589	0.0177612
683.667	0.0177345
683.745	0.0177731
683.823	0.0177608
683.901	0.0176537
683.979	0.0176086
684.058	0.0178239
684.136	0.0176630
684.214	0.0177485
684.292	0.0177206
684.370	0.0177030
684.448	0.0176706
684.526	0.0177308
684.604	0.0178384
684.683	0.0179935
684.761	0.0179055
684.839	0.0179840
684.917	0.0179692
684.995	0.0179475
685.073	0.0180329
685.151	0.0181252
685.229	0.0180535
685.308	0.0181039
685.386	0.0181721
685.464	0.0181380
685.542	0.0181969
685.620	0.0180894
685.698	0.0182776
685.776	0.0182191
685.854	0.0181208
685.933	0.0181873
686.011	0.0182838
686.089	0.0183379
686.167	0.0183274
686.245	0.0182072
686.323	0.0181996
686.401	0.0182590
686.479	0.0182533
686.558	0.0181799
686.636	0.0182166
686.714	0.0183283
686.792	0.0181760
686.870	0.0182469
686.948	0.0182057
687.026	0.0181915
687.104	0.0182296
687.183	0.0180495
687.261	0.0180682
687.339	0.0181747
687.417	0.0182506
687.495	0.0181671
687.573	0.0179864
687.651	0.0180026
687.729	0.0182677
687.808	0.0181396
687.886	0.0180277
687.964	0.0180935
688.042	0.0179988
688.120	0.0181180
688.198	0.0180401
688.276	0.0180083
688.354	0.0178748
688.433	0.0180170
688.511	0.0180484
688.589	0.0179059
688.667	0.0179153
688.745	0.0181097
688.823	0.0180844
688.901	0.0179613
688.979	0.0179301
689.058	0.0179215
689.136	0.0180610
689.214	0.0180668
689.292	0.0179604
689.370	0.0179339
689.448	0.0179940
689.526	0.0179578
689.604	0.0178641
689.683	0.0178700
689.761	0.0178749
689.839	0.0177893
689.917	0.0177692
689.995	0.0180166
690.073	0.0180258
690.151	0.0180840
690.229	0.0180801
690.308	0.0182260
690.386	0.0181813
690.464	0.0181094
690.542	0.0182019
690.620	0.0184893
690.698	0.0184454
690.776	0.0183704
690.854	0.0183991
690.933	0.0184845
691.011	0.0185505
691.089	0.0187524
691.167	0.0185346
691.245	0.0186199
691.323	0.0185601
691.401	0.0184995
691.479	0.0184771
691.558	0.0184192
691.636	0.0184063
691.714	0.0184515
691.792	0.0182517
691.870	0.0182352
691.948	0.0182184
692.026	0.0180436
692.104	0.0179836
692.183	0.0180495
692.261	0.0178775
692.339	0.0179270
692.417	0.0178767
692.495	0.0179609
692.573	0.0179149
692.651	0.0178569
692.729	0.0179562
692.808	0.0179144
692.886	0.0179339
692.964	0.0179113
693.042	0.0178755
693.120	0.0180321
693.198	0.0179591
693.276	0.0181219
693.354	0.0180984
693.433	0.0181377
693.511	0.0181670
693.589	0.0182088
693.667	0.0182008
693.745	0.0181536
693.823	0.0182511
693.901	0.0181777
693.979	0.0182961
694.058	0.0182834
694.136	0.0182159
694.214	0.0182955
694.292	0.0183119
694.370	0.0181619
694.448	0.0183299
694.526	0.0181198
694.604	0.0181532
694.683	0.0181592
694.761	0.0182899
694.839	0.0182910
694.917	0.0182037
694.995	0.0180607
695.073	0.0181242
695.151	0.0182107
695.229	0.0182348
695.308	0.0182418
695.386	0.0180511
695.464	0.0180647
695.542	0.0180668
695.620	0.0180977
695.698	0.0181686
695.776	0.0182211
695.854	0.0182949
695.933	0.0183868
696.011	0.0181666
696.089	0.0183485
696.167	0.0182835
696.245	0.0184863
696.323	0.0184201
696.401	0.0183862
696.479	0.0183699
696.558	0.0183222
696.636	0.0185226
696.714	0.0184280
696.792	0.0183091
696.870	0.0183797
696.948	0.0183733
697.026	0.0184131
697.104	0.0181648
697.183	0.0183393
697.261	0.0183040
697.339	0.0181144
697.417	0.0183086
697.495	0.0183703
697.573	0.0182158
697.651	0.0183467
697.729	0.0181259
697.808	0.0180196
697.886	0.0180184
697.964	0.0180933
698.042	0.0179458
698.120	0.0179829
698.198	0.0179813
698.276	0.0179300
698.354	0.0179251
698.433	0.0178655
698.511	0.0178376
698.589	0.0177570
698.667	0.0177898
698.745	0.0178113
698.823	0.0177231
698.901	0.0176668
698.979	0.0178261
699.058	0.0178227
699.136	0.0178456
699.214	0.0178503
699.292	0.0178253
699.370	0.0179118
699.448	0.0179245
699.526	0.0179384
699.604	0.0180145
699.683	0.0182055
699.761	0.0180838
699.839	0.0182695
699.917	0.0182315
699.995	0.0182778
700.073	0.0183110
700.151	0.0182809
700.229	0.0183019
700.308	0.0184634
700.386	0.0184062
700.464	0.0183138
700.542	0.0182457
700.620	0.0183588
700.698	0.0182916
700.776	0.0182655
700.854	0.0182224
700.933	0.0180970
701.011	0.0183211
701.089	0.0182901
701.167	0.0179933
701.245	0.0182011
701.323	0.0179927
701.401	0.0178448
701.479	0.0178331
701.558	0.0178680
701.636	0.0179301
701.714	0.0179781
701.792	0.0179132
701.870	0.0180408
701.948	0.0180466
702.026	0.0180833
702.104	0.0179581
702.183	0.0181319
702.261	0.0182279
702.339	0.0180438
702.417	0.0182076
702.495	0.0181534
702.573	0.0181354
702.651	0.0181570
702.729	0.0181264
702.808	0.0181702
702.886	0.0180640
702.964	0.0181129
703.042	0.0180956
703.120	0.0180743
703.198	0.0178793
703.276	0.0179398
703.354	0.0180188
703.433	0.0179501
703.511	0.0180254
703.589	0.0179137
703.667	0.0177659
703.745	0.0178734
703.823	0.0179655
703.901	0.0177797
703.979	0.0179433
704.058	0.0181713
704.136	0.0179670
704.214	0.0179370
704.292	0.0179926
704.370	0.0179618
704.448	0.0181048
704.526	0.0182430
704.604	0.0181445
704.683	0.0183329
704.761	0.0183027
704.839	0.0181358
704.917	0.0181927
704.995	0.0182872
705.073	0.0181979
705.151	0.0183338
705.229	0.0182266
705.308	0.0182432
705.386	0.0181998
705.464	0.0181605
705.542	0.0181783
705.620	0.0179472
705.698	0.0179323
705.776	0.0179554
705.854	0.0178703
705.933	0.0177676
706.011	0.0178664
706.089	0.0179064
706.167	0.0178052
706.245	0.0177935
706.323	0.0178438
706.401	0.0178680
706.479	0.0178410
706.558	0.0179575
706.636	0.0180055
706.714	0.0180661
706.792	0.0181409
706.870	0.0183266
706.948	0.0183016
707.026	0.0183981
707.104	0.0185049
707.183	0.0185721
707.261	0.0187782
707.339	0.0186684
707.417	0.0186417
707.495	0.0187869
707.573	0.0187265
707.651	0.0187276
707.729	0.0189801
707.808	0.0189494
707.886	0.0188461
707.964	0.0187766
708.042	0.0185853
708.120	0.0186631
708.198	0.0187712
708.276	0.0185509
708.354	0.0185028
708.433	0.0183438
708.511	0.0184090
708.589	0.0181699
708.667	0.0179186
708.745	0.0179143
708.823	0.0179386
708.901	0.0176356
708.979	0.0176742
709.058	0.0176945
709.136	0.0176156
709.214	0.0175618
709.292	0.0176903
709.370	0.0176176
709.448	0.0176698
709.526	0.0177338
709.604	0.0179018
709.683	0.0179630
709.761	0.0178735
709.839	0.0180822
709.917	0.0182784
709.995	0.0182642
710.073	0.0183226
710.151	0.0183319
710.229	0.0183818
710.308	0.0184673
710.386	0.0184958
710.464	0.0184911
710.542	0.0185052
710.620	0.0185310
710.698	0.0183867
710.776	0.0184484
710.854	0.0183573
710.933	0.0184569
711.011	0.0183134
711.089	0.0183285
711.167	0.0180907
711.245	0.0180408
711.323	0.0180740
711.401	0.0179608
711.479	0.0179869
711.558	0.0179116
711.636	0.0178932
711.714	0.0179855
711.792	0.0179131
711.870	0.0180271
711.948	0.0179852
712.026	0.0180148
712.104	0.0182227
712.183	0.0180530
712.261	0.0180781
712.339	0.0181856
712.417	0.0181657
712.495	0.0181655
712.573	0.0181942
712.651	0.0181602
712.729	0.0181887
712.808	0.0179877
712.886	0.0179332
712.964	0.0179020
713.042	0.0181052
713.120	0.0179549
713.198	0.0179567
713.276	0.0179472
713.354	0.0179218
713.433	0.0179585
713.511	0.0180344
713.589	0.0179144
713.667	0.0180801
713.745	0.0180900
713.823	0.0181557
713.901	0.0179666
713.979	0.0181602
714.058	0.0182793
714.136	0.0183004
714.214	0.0183477
714.292	0.0184566
714.370	0.0184372
714.448	0.0185882
714.526	0.0185558
714.604	0.0185370
714.683	0.0184753
714.761	0.0186040
714.839	0.0184177
714.917	0.0183936
714.995	0.0183652
715.073	0.0183702
715.151	0.0182668
715.229	0.0182385
715.308	0.0182296
715.386	0.0183387
715.464	0.0183528
715.542	0.0183158
715.620	0.0182196
715.698	0.0181005
715.776	0.0181734
715.854	0.0180912
715.933	0.0182256
716.011	0.0181561
716.089	0.0182092
716.167	0.0180244
716.245	0.0180937
716.323	0.0179830
716.401	0.0180013
716.479	0.0181594
716.558	0.0180884
716.636	0.0179790
716.714	0.0178938
716.792	0.0179326
716.870	0.0179469
716.948	0.0179520
717.026	0.0177219
717.104	0.0178492
717.183	0.0177969
717.261	0.0177631
717.339	0.0178468
717.417	0.0178152
717.495	0.0178955
717.573	0.0179707
717.651	0.0179294
717.729	0.0180309
717.808	0.0182611
717.886	0.0183096
717.964	0.0181878
718.042	0.0184097
718.120	0.0184500
718.198	0.0184615
718.276	0.0185754
718.354	0.0185637
718.433	0.0186674
718.511	0.0185905
718.589	0.0185784
718.667	0.0185691
718.745	0.0183958
718.823	0.0183763
718.901	0.0183363
718.979	0.0184057
719.058	0.0181509
719.136	0.0181217
719.214	0.0181928
719.292	0.0180346
719.370	0.0180916
719.448	0.0180881
719.526	0.0180711
719.604	0.0180540
719.683	0.0180897
719.761	0.0180999
719.839	0.0180875
719.917	0.0182384
719.995	0.0180265
720.073	0.0180524
720.151	0.0181985
720.229	0.0182130
720.308	0.0181487
720.386	0.0183475
720.464	0.0182858
720.542	0.0183456
720.620	0.0182629
720.698	0.0182057
720.776	0.0184248
720.854	0.0183928
720.933	0.0184090
721.011	0.0182366
721.089	0.0183694
721.167	0.0184561
721.245	0.0181895
721.323	0.0183569
721.401	0.0182140
721.479	0.0182730
721.558	0.0181236
721.636	0.0182803
721.714	0.0184187
721.792	0.0182702
721.870	0.0181845
721.948	0.0180221
722.026	0.0181993
722.104	0.0182094
722.183	0.0179615
722.261	0.0179287
722.339	0.0177806
722.417	0.0177068
722.495	0.0177606
722.573	0.0178516
722.651	0.0177583
722.729	0.0175183
722.808	0.0176302
722.886	0.0178285
722.964	0.0177358
723.042	0.0178986
723.120	0.0179622
723.198	0.0183063
723.276	0.0183222
723.354	0.0182623
723.433	0.0182899
723.511	0.0184978
723.589	0.0186800
723.667	0.0186338
723.745	0.0187373
723.823	0.0187651
723.901	0.0187959
723.979	0.0189194
724.058	0.0188349
724.136	0.0189124
724.214	0.0188549
724.292	0.0187882
724.370	0.0188062
724.448	0.0188071
724.526	0.0186966
724.604	0.0186543
724.683	0.0185777
724.761	0.0185438
724.839	0.0183449
724.917	0.0182060
724.995	0.0181491
725.073	0.0180177
725.151	0.0180047
725.229	0.0178558
725.308	0.0177399
725.386	0.0177248
725.464	0.0175710
725.542	0.0176282
725.620	0.0176421
725.698	0.0174907
725.776	0.0175163
725.854	0.0175935
725.933	0.0175184
726.011	0.0174103
726.089	0.0175917
726.167	0.0174203
726.245	0.0174256
726.323	0.0174762
726.401	0.0174499
726.479	0.0173634
726.558	0.0175418
726.636	0.0177235
726.714	0.0177418
726.792	0.0178631
726.870	0.0179098
726.948	0.0178378
727.026	0.0180446
727.104	0.0180730
727.183	0.0181822
727.261	0.0183416
727.339	0.0182213
727.417	0.0183769
727.495	0.0185626
727.573	0.0186272
727.651	0.0186623
727.729	0.0186710
727.808	0.0187891
727.886	0.0187802
727.964	0.0187247
728.042	0.0187556
728.120	0.0188753
728.198	0.0190517
728.276	0.0189452
728.354	0.0188099
728.433	0.0187833
728.511	0.0189453
728.589	0.0188696
728.667	0.0187606
728.745	0.0186649
728.823	0.0186949
728.901	0.0184406
728.979	0.0185169
729.058	0.0183588
729.136	0.0182428
729.214	0.0180614
729.292	0.0180368
729.370	0.0181351
729.448	0.0178838
729.526	0.0177881
729.604	0.0178076
729.683	0.0178576
729.761	0.0177596
729.839	0.0175850
729.917	0.0176110
729.995	0.0176016
730.073	0.0177839
730.151	0.0177053
730.229	0.0177259
730.308	0.0176567
730.386	0.0175706
730.464	0.0176257
730.542	0.0176126
730.620	0.0177462
730.698	0.0177297
730.776	0.0176086
730.854	0.0175687
730.933	0.0176479
731.011	0.0177473
731.089	0.0176896
731.167	0.0175832
731.245	0.0176852
731.323	0.0177299
731.401	0.0177207
731.479	0.0176673
731.558	0.0177351
731.636	0.0178191
731.714	0.0177183
731.792	0.0178894
731.870	0.0179785
731.948	0.0179703
732.026	0.0178804
732.104	0.0181300
732.183	0.0181207
732.261	0.0181026
732.339	0.0181435
732.417	0.0181036
732.495	0.0181344
732.573	0.0181899
732.651	0.0183378
732.729	0.0184385
732.808	0.0184398
732.886	0.0185045
732.964	0.0185393
733.042	0.0185823
733.120	0.0184527
733.198	0.0185605
733.276	0.0185752
733.354	0.0186912
733.433	0.0185506
733.511	0.0186860
733.589	0.0184743
733.667	0.0184608
733.745	0.0185179
733.823	0.0184269
733.901	0.0185434
733.979	0.0185561
734.058	0.0183268
734.136	0.0183804
734.214	0.0183672
734.292	0.0181816
734.370	0.0182393
734.448	0.0182382
734.526	0.0181763
734.604	0.0180333
734.683	0.0180391
734.761	0.0179609
734.839	0.0180222
734.917	0.0178534
734.995	0.0179284
735.073	0.0179037
735.151	0.0179062
735.229	0.0179633
735.308	0.0178948
735.386	0.0179464
735.464	0.0179090
735.542	0.0180118
735.620	0.0179646
735.698	0.0179195
735.776	0.0179557
735.854	0.0178139
735.933	0.0178288
736.011	0.0179177
736.089	0.0178165
736.167	0.0177364
736.245	0.0179086
736.323	0.0177613
736.401	0.0178205
736.479	0.0179392
736.558	0.0178800
736.636	0.0180148
736.714	0.0181948
736.792	0.0181538
736.870	0.0182469
736.948	0.0183842
737.026	0.0184412
737.104	0.0185205
737.183	0.0184921
737.261	0.0185234
737.339	0.0185948
737.417	0.0185876
737.495	0.0186245
737.573	0.0185297
737.651	0.0184328
737.729	0.0183455
737.808	0.0183060
737.886	0.0181890
737.964	0.0182595
738.042	0.0179935
738.120	0.0179314
738.198	0.0180158
738.276	0.0180038
738.354	0.0178150
738.433	0.0178813
738.511	0.0180504
738.589	0.0179023
738.667	0.0179919
738.745	0.0179697
738.823	0.0179337
738.901	0.0180514
738.979	0.0180283
739.058	0.0179785
739.136	0.0181102
739.214	0.0182252
739.292	0.0181294
739.370	0.0182057
739.448	0.0182791
739.526	0.0183875
739.604	0.0184211
739.683	0.0184340
739.761	0.0185959
739.839	0.0186652
739.917	0.0185563
739.995	0.0185155
740.073	0.0187132
740.151	0.0184484
740.229	0.0186005
740.308	0.0187633
740.386	0.0187395
740.464	0.0184137
740.542	0.0185783
740.620	0.0185217
740.698	0.0184377
740.776	0.0184006
740.854	0.0182034
740.933	0.0181744
741.011	0.0180476
741.089	0.0180679
741.167	0.0179737
741.245	0.0177962
741.323	0.0176606
741.401	0.0175720
741.479	0.0176868
741.558	0.0176070
741.636	0.0177834
741.714	0.0175619
741.792	0.0176624
741.870	0.0178085
741.948	0.0175078
742.026	0.0175636
742.104	0.0177159
742.183	0.0176956
742.261	0.0176367
742.339	0.0177836
742.417	0.0178709
742.495	0.0179668
742.573	0.0182146
742.651	0.0181813
742.729	0.0182318
742.808	0.0182240
742.886	0.0184292
742.964	0.0184782
743.042	0.0184574
743.120	0.0184256
743.198	0.0184127
743.276	0.0184685
743.354	0.0184727
743.433	0.0184846
743.511	0.0183822
743.589	0.0180724
743.667	0.0182048
743.745	0.0181898
743.823	0.0179347
743.901	0.0180925
743.979	0.0180542
744.058	0.0179281
744.136	0.0181273
744.214	0.0180898
744.292	0.0180568
744.370	0.0181850
744.448	0.0180433
744.526	0.0180502
744.604	0.0180579
744.683	0.0180670
744.761	0.0181448
744.839	0.0182925
744.917	0.0180435
744.995	0.0181802
745.073	0.0182066
745.151	0.0182310
745.229	0.0181959
745.308	0.0181425
745.386	0.0182877
745.464	0.0182441
745.542	0.0184938
745.620	0.0183912
745.698	0.0182375
745.776	0.0182610
745.854	0.0183596
745.933	0.0183511
746.011	0.0183829
746.089	0.0181134
746.167	0.0181678
746.245	0.0181474
746.323	0.0181750
746.401	0.0180063
746.479	0.0179396
746.558	0.0181811
746.636	0.0179913
746.714	0.0180556
746.792	0.0180347
746.870	0.0178802
746.948	0.0179551
747.026	0.0179733
747.104	0.0179709
747.183	0.0178855
747.261	0.0178739
747.339	0.0178550
747.417	0.0178257
747.495	0.0177962
747.573	0.0177512
747.651	0.0177161
747.729	0.0177628
747.808	0.0176637
747.886	0.0177298
747.964	0.0178602
748.042	0.0178423
748.120	0.0176424
748.198	0.0178453
748.276	0.0179637
748.354	0.0178712
748.433	0.0177612
748.511	0.0179515
748.589	0.0180029
748.667	0.0180403
748.745	0.0180345
748.823	0.0180138
748.901	0.0180951
748.979	0.0182590
749.058	0.0182269
749.136	0.0182744
749.214	0.0183711
749.292	0.0183446
749.370	0.0184709
749.448	0.0184684
749.526	0.0184513
749.604	0.0183718
749.683	0.0184135
749.761	0.0184763
749.839	0.0185113
749.917	0.0185863
749.995	0.0186507
750.073	0.0185002
750.151	0.0183527
750.229	0.0183665
750.308	0.0184329
750.386	0.0183374
750.464	0.0183729
750.542	0.0183553
750.620	0.0182350
750.698	0.0181819
750.776	0.0182980
750.854	0.0183012
750.933	0.0180884
751.011	0.0181651
751.089	0.0182111
751.167	0.0180675
751.245	0.0180743
751.323	0.0180859
751.401	0.0180288
751.479	0.0179114
751.558	0.0178861
751.636	0.0178481
751.714	0.0178215
751.792	0.0179314
751.870	0.0179071
751.948	0.0176005
752.026	0.0177821
752.104	0.0178172
752.183	0.0177098
752.261	0.0175893
752.339	0.0176592
752.417	0.0176268
752.495	0.0176621
752.573	0.0176936
752.651	0.0175900
752.729	0.0176174
752.808	0.0176237
752.886	0.0178069
752.964	0.0178598
753.042	0.0178922
753.120	0.0178605
753.198	0.0179310
753.276	0.0179213
753.354	0.0180642
753.433	0.0180631
753.511	0.0181396
753.589	0.0180331
753.667	0.0180750
753.745	0.0182521
753.823	0.0182059
753.901	0.0182895
753.979	0.0184381
754.058	0.0184217
754.136	0.0184550
754.214	0.0185683
754.292	0.0184318
754.370	0.0185551
754.448	0.0186014
754.526	0.0184620
754.604	0.0184374
754.683	0.0185506
754.761	0.0185408
754.839	0.0185432
754.917	0.0183841
754.995	0.0183778
755.073	0.0182570
755.151	0.0182212
755.229	0.0182235
755.308	0.0181098
755.386	0.0181153
755.464	0.0180795
755.542	0.0180711
755.620	0.0181101
755.698	0.0182375
755.776	0.0180667
755.854	0.0181667
755.933	0.0182822
756.011	0.0183366
756.089	0.0182320
756.167	0.0183392
756.245	0.0182969
756.323	0.0183276
756.401	0.0180990
756.479	0.0181746
756.558	0.0181441
756.636	0.0180930
756.714	0.0180984
756.792	0.0179929
756.870	0.0179069
756.948	0.0180481
757.026	0.0180796
757.104	0.0179753
757.183	0.0180267
757.261	0.0180653
757.339	0.0179053
757.417	0.0178151
757.495	0.0179893
757.573	0.0178206
757.651	0.0179613
757.729	0.0179778
757.808	0.0180341
757.886	0.0178561
757.964	0.0178016
758.042	0.0179934
758.120	0.0178892
758.198	0.0179034
758.276	0.0178680
758.354	0.0178014
758.433	0.0177288
758.511	0.0179111
758.589	0.0178754
758.667	0.0178610
758.745	0.0177760
758.823	0.0178400
758.901	0.0179201
758.979	0.0180202
759.058	0.0181163
759.136	0.0181686
759.214	0.0182008
759.292	0.0182573
759.370	0.0181993
759.448	0.0183063
759.526	0.0183533
759.604	0.0183976
759.683	0.0184603
759.761	0.0185425
759.839	0.0184946
759.917	0.0183920
759.995	0.0185511
760.073	0.0184620
760.151	0.0184295
760.229	0.0185014
760.308	0.0183788
760.386	0.0181721
760.464	0.0182273
760.542	0.0183620
760.620	0.0182877
760.698	0.0181181
760.776	0.0181272
760.854	0.0180944
760.933	0.0180637
761.011	0.0180128
761.089	0.0178815
761.167	0.0179769
761.245	0.0180747
761.323	0.0177497
761.401	0.0178319
761.479	0.0178207
761.558	0.0177671
761.636	0.0176626
761.714	0.0177176
761.792	0.0176527
761.870	0.0175981
761.948	0.0176319
762.026	0.0176711
762.104	0.0177241
762.183	0.0177074
762.261	0.0177119
762.339	0.0177833
762.417	0.0177895
762.495	0.0177091
762.573	0.0179854
762.651	0.0179253
762.729	0.0179460
762.808	0.0180075
762.886	0.0179880
762.964	0.0181971
763.042	0.0182726
763.120	0.0180728
763.198	0.0180709
763.276	0.0180863
763.354	0.0181458
763.433	0.0181887
763.511	0.0181621
763.589	0.0180953
763.667	0.0181641
763.745	0.0182255
763.823	0.0181579
763.901	0.0182055
763.979	0.0182761
764.058	0.0181487
764.136	0.0180946
764.214	0.0181890
764.292	0.0182346
764.370	0.0183140
764.448	0.0180672
764.526	0.0181174
764.604	0.0180749
764.683	0.0182899
764.761	0.0182553
764.839	0.0180908
764.917	0.0181596
764.995	0.0181861
765.073	0.0180804
765.151	0.0181931
765.229	0.0182310
765.308	0.0181877
765.386	0.0181580
765.464	0.0181646
765.542	0.0182029
765.620	0.0180431
765.698	0.0182368
765.776	0.0180620
765.854	0.0181448
765.933	0.0181159
766.011	0.0180487
766.089	0.0180879
766.167	0.0180242
766.245	0.0181960
766.323	0.0181451
766.401	0.0181509
766.479	0.0181115
766.558	0.0180367
766.636	0.0180908
766.714	0.0182660
766.792	0.0181219
766.870	0.0182640
766.948	0.0182543
767.026	0.0183199
767.104	0.0182425
767.183	0.0183725
767.261	0.0182851
767.339	0.0182327
767.417	0.0181946
767.495	0.0182459
767.573	0.0181681
767.651	0.0180993
767.729	0.0181702
767.808	0.0181858
767.886	0.0181359
767.964	0.0180949
768.042	0.0182977
768.120	0.0181922
768.198	0.0182038
768.276	0.0182011
768.354	0.0183060
768.433	0.0181393
768.511	0.0181270
768.589	0.0182180
768.667	0.0182778
768.745	0.0184252
768.823	0.0182499
768.901	0.0182159
768.979	0.0184157
769.058	0.0182870
769.136	0.0183799
769.214	0.0183769
769.292	0.0182204
769.370	0.0182673
769.448	0.0181337
769.526	0.0182168
769.604	0.0180617
769.683	0.0181334
769.761	0.0182426
769.839	0.0181123
769.917	0.0181993
769.995	0.0181154
770.073	0.0180939
770.151	0.0181842
770.229	0.0179740
770.308	0.0180207
770.386	0.0180132
770.464	0.0178939
770.542	0.0179589
770.620	0.0179343
770.698	0.0179655
770.776	0.0180797
770.854	0.0179935
770.933	0.0179874
771.011	0.0180814
771.089	0.0181808
771.167	0.0180816
771.245	0.0180157
771.323	0.0181116
771.401	0.0181750
771.479	0.0182211
771.558	0.0183127
771.636	0.0181361
771.714	0.0181664
771.792	0.0182041
771.870	0.0182529
771.948	0.0183309
772.026	0.0182630
772.104	0.0181194
772.183	0.0184176
772.261	0.0182583
772.339	0.0183187
772.417	0.0183368
772.495	0.0182385
772.573	0.0182048
772.651	0.0181539
772.729	0.0183123
772.808	0.0181480
772.886	0.0181652
772.964	0.0181735
773.042	0.0182078
773.120	0.0181999
773.198	0.0181210
773.276	0.0179931
773.354	0.0179285
773.433	0.0177834
773.511	0.0180238
773.589	0.0178670
773.667	0.0179450
773.745	0.0179203
773.823	0.0178294
773.901	0.0177312
773.979	0.0179477
774.058	0.0178978
774.136	0.0179097
774.214	0.0178783
774.292	0.0179879
774.370	0.0179646
774.448	0.0178615
774.526	0.0180543
774.604	0.0181859
774.683	0.0182167
774.761	0.0181532
774.839	0.0182453
774.917	0.0181256
774.995	0.0181473
775.073	0.0182044
775.151	0.0180910
775.229	0.0182355
775.308	0.0182273
775.386	0.0182740
775.464	0.0181205
775.542	0.0180504
775.620	0.0181170
775.698	0.0181705
775.776	0.0182901
775.854	0.0182907
775.933	0.0181701
776.011	0.0181415
776.089	0.0181689
776.167	0.0181077
776.245	0.0182793
776.323	0.0180536
776.401	0.0182723
776.479	0.0183115
776.558	0.0183594
776.636	0.0182208
776.714	0.0182012
776.792	0.0182323
776.870	0.0184060
776.948	0.0185549
777.026	0.0184774
777.104	0.0184650
777.183	0.0185183
777.261	0.0184182
777.339	0.0184089
777.417	0.0183895
777.495	0.0184491
777.573	0.0183861
777.651	0.0183916
777.729	0.0182358
777.808	0.0183328
777.886	0.0182455
777.964	0.0181824
778.042	0.0183006
778.120	0.0181944
778.198	0.0180344
778.276	0.0181836
778.354	0.0180636
778.433	0.0181025
778.511	0.0181734
778.589	0.0181241
778.667	0.0182055
778.745	0.0182063
778.823	0.0181918
778.901	0.0181031
778.979	0.0182170
779.058	0.0182881
779.136	0.0182738
779.214	0.0182319
779.292	0.0183396
779.370	0.0184039
779.448	0.0182494
779.526	0.0183072
779.604	0.0183357
779.683	0.0182928
779.761	0.0182793
779.839	0.0182252
779.917	0.0181610
779.995	0.0180623
780.073	0.0182059
780.151	0.0181799
780.229	0.0182572
780.308	0.0182297
780.386	0.0181326
780.464	0.0180935
780.542	0.0182143
780.620	0.0182936
780.698	0.0182918
780.776	0.0183076
780.854	0.0183291
780.933	0.0183617
781.011	0.0181104
781.089	0.0181898
781.167	0.0179506
781.245	0.0182477
781.323	0.0183246
781.401	0.0179672
781.479	0.0181055
781.558	0.0180248
781.636	0.0180650
781.714	0.0182350
781.792	0.0181659
781.870	0.0179678
781.948	0.0179414
782.026	0.0181068
782.104	0.0180744
782.183	0.0178635
782.261	0.0179871
782.339	0.0179533
782.417	0.0179050
782.495	0.0180338
782.573	0.0179815
782.651	0.0180161
782.729	0.0180567
782.808	0.0181062
782.886	0.0181497
782.964	0.0182491
783.042	0.0181939
783.120	0.0181824
783.198	0.0181061
783.276	0.0182214
783.354	0.0182005
783.433	0.0182497
783.511	0.0181573
783.589	0.0182446
783.667	0.0181211
783.745	0.0181226
783.823	0.0181741
783.901	0.0181579
783.979	0.0181096
784.058	0.0181280
784.136	0.0182404
784.214	0.0180081
784.292	0.0179718
784.370	0.0180581
784.448	0.0180522
784.526	0.0180288
784.604	0.0182349
784.683	0.0181921
784.761	0.0181029
784.839	0.0180709
784.917	0.0180973
784.995	0.0180701
785.073	0.0181577
785.151	0.0182346
785.229	0.0182243
785.308	0.0181225
785.386	0.0182372
785.464	0.0182577
785.542	0.0182056
785.620	0.0182645
785.698	0.0181959
785.776	0.0182171
785.854	0.0181300
785.933	0.0181767
786.011	0.0182239
786.089	0.0181120
786.167	0.0180739
786.245	0.0180212
786.323	0.0181004
786.401	0.0179794
786.479	0.0180740
786.558	0.0180732
786.636	0.0179804
786.714	0.0178898
786.792	0.0180206
786.870	0.0179271
786.948	0.0179408
787.026	0.0179250
787.104	0.0179858
787.183	0.0180041
787.261	0.0180608
787.339	0.0182024
787.417	0.0181495
787.495	0.0180786
787.573	0.0180432
787.651	0.0181493
787.729	0.0182230
787.808	0.0182310
787.886	0.0182085
787.964	0.0183436
788.042	0.0183359
788.120	0.0182432
788.198	0.0183089
788.276	0.0181927
788.354	0.0182658
788.433	0.0182424
788.511	0.0182162
788.589	0.0183221
788.667	0.0182693
788.745	0.0181393
788.823	0.0181539
788.901	0.0183488
788.979	0.0180836
789.058	0.0180756
789.136	0.0182140
789.214	0.0183870
789.292	0.0181461
789.370	0.0181726
789.448	0.0181764
789.526	0.0182298
789.604	0.0183472
789.683	0.0182093
789.761	0.0182485
789.839	0.0183421
789.917	0.0183007
789.995	0.0182224
790.073	0.0182632
790.151	0.0182578
790.229	0.0183746
790.308	0.0180417
790.386	0.0182228
790.464	0.0181074
790.542	0.0180389
790.620	0.0180926
790.698	0.0180002
790.776	0.0181197
790.854	0.0182355
790.933	0.0180914
791.011	0.0180257
791.089	0.0181411
791.167	0.0180593
791.245	0.0181665
791.323	0.0182866
791.401	0.0180998
791.479	0.0182176
791.558	0.0182561
791.636	0.0182854
791.714	0.0183968
791.792	0.0182801
791.870	0.0182944
791.948	0.0183134
792.026	0.0183759
792.104	0.0182396
792.183	0.0181023
792.261	0.0180740
792.339	0.0182131
792.417	0.0180170
792.495	0.0180555
792.573	0.0180291
792.651	0.0179942
792.729	0.0179225
792.808	0.0179268
792.886	0.0178672
792.964	0.0179131
793.042	0.0179795
793.120	0.0180690
793.198	0.0182435
793.276	0.0182240
793.354	0.0181223
793.433	0.0180824
793.511	0.0182591
793.589	0.0183141
793.667	0.0183772
793.745	0.0184126
793.823	0.0182561
793.901	0.0183166
793.979	0.0183060
794.058	0.0182591
794.136	0.0182833
794.214	0.0182930
794.292	0.0182728
794.370	0.0182281
794.448	0.0180421
794.526	0.0181362
794.604	0.0182089
794.683	0.0179601
794.761	0.0178928
794.839	0.0180282
794.917	0.0178436
794.995	0.0179758
795.073	0.0179143
795.151	0.0178288
795.229	0.0176574
795.308	0.0177671
795.386	0.0177949
795.464	0.0177375
795.542	0.0177632
795.620	0.0177415
795.698	0.0178825
795.776	0.0180056
795.854	0.0179295
795.933	0.0179092
796.011	0.0180796
796.089	0.0181234
796.167	0.0182029
796.245	0.0181676
796.323	0.0181737
796.401	0.0181333
796.479	0.0183287
796.558	0.0182478
796.636	0.0181817
796.714	0.0182128
796.792	0.0181827
796.870	0.0182671
796.948	0.0181133
797.026	0.0182238
797.104	0.0182151
797.183	0.0183383
797.261	0.0182019
797.339	0.0181503
797.417	0.0180812
797.495	0.0180283
797.573	0.0182697
797.651	0.0181477
797.729	0.0182039
797.808	0.0180466
797.886	0.0181071
797.964	0.0181395
798.042	0.0181068
798.120	0.0180010
798.198	0.0181593
798.276	0.0181007
798.354	0.0181082
798.433	0.0181252
798.511	0.0181500
798.589	0.0182364
798.667	0.0181345
798.745	0.0180453
798.823	0.0181824
798.901	0.0181416
798.979	0.0182681
799.058	0.0180391
799.136	0.0181615
799.214	0.0181531
799.292	0.0182892
799.370	0.0182026
799.448	0.0182487
799.526	0.0181702
799.604	0.0183709
799.683	0.0183114
799.761	0.0183089
799.839	0.0184053
799.917	0.0184065
799.995	0.0184109
800.073	0.0182866
800.151	0.0183238
800.229	0.0182926
800.308	0.0184009
800.386	0.0183348
800.464	0.0182518
800.542	0.0182777
800.620	0.0183096
800.698	0.0182431
800.776	0.0181554
800.854	0.0182718
800.933	0.0183066
801.011	0.0183632
801.089	0.0182574
801.167	0.0181609
801.245	0.0182728
801.323	0.0182253
801.401	0.0180367
801.479	0.0182146
801.558	0.0183008
801.636	0.0183059
801.714	0.0181440
801.792	0.0182072
801.870	0.0183896
801.948	0.0183191
802.026	0.0183808
802.104	0.0181361
802.183	0.0182558
802.261	0.0183951
802.339	0.0182411
802.417	0.0183448
802.495	0.0183659
802.573	0.0184180
802.651	0.0184274
802.729	0.0183459
802.808	0.0183904
802.886	0.0183691
802.964	0.0181793
803.042	0.0183024
803.120	0.0181704
803.198	0.0182670
803.276	0.0184012
803.354	0.0181904
803.433	0.0181799
803.511	0.0183314
803.589	0.0181821
803.667	0.0183465
803.745	0.0182606
803.823	0.0182382
803.901	0.0181340
803.979	0.0182193
804.058	0.0182614
804.136	0.0182986
804.214	0.0182867
804.292	0.0180875
804.370	0.0182154
804.448	0.0183006
804.526	0.0183046
804.604	0.0182071
804.683	0.0182122
804.761	0.0183897
804.839	0.0183035
804.917	0.0181376
804.995	0.0182038
805.073	0.0181928
805.151	0.0182639
805.229	0.0180972
805.308	0.0180983
805.386	0.0181493
805.464	0.0180558
805.542	0.0181290
805.620	0.0179974
805.698	0.0179569
805.776	0.0181351
805.854	0.0179428
805.933	0.0180265
806.011	0.0180758
806.089	0.0179420
806.167	0.0180052
806.245	0.0179710
806.323	0.0180276
806.401	0.0180810
806.479	0.0181003
806.558	0.0181438
806.636	0.0182613
806.714	0.0181830
806.792	0.0183257
806.870	0.0183254
806.948	0.0182339
807.026	0.0182414
807.104	0.0183495
807.183	0.0184212
807.261	0.0182928
807.339	0.0183321
807.417	0.0184431
807.495	0.0183317
807.573	0.0182753
807.651	0.0183514
807.729	0.0183546
807.808	0.0183381
807.886	0.0181964
807.964	0.0181781
808.042	0.0182769
808.120	0.0181456
808.198	0.0180987
808.276	0.0181796
808.354	0.0180785
808.433	0.0179765
808.511	0.0180769
808.589	0.0179911
808.667	0.0180247
808.745	0.0179293
808.823	0.0179459
808.901	0.0180103
808.979	0.0179182
809.058	0.0178819
809.136	0.0180173
809.214	0.0180280
809.292	0.0180669
809.370	0.0181282
809.448	0.0180690
809.526	0.0181101
809.604	0.0181268
809.683	0.0180633
809.761	0.0180997
809.839	0.0182672
809.917	0.0183202
809.995	0.0182452
810.073	0.0181683
810.151	0.0183334
810.229	0.0180333
810.308	0.0181922
810.386	0.0183098
810.464	0.0182069
810.542	0.0182203
810.620	0.0181202
810.698	0.0181428
810.776	0.0181555
810.854	0.0182327
810.933	0.0181511
811.011	0.0180584
811.089	0.0180695
811.167	0.0180934
811.245	0.0180282
811.323	0.0180135
811.401	0.0180302
811.479	0.0179185
811.558	0.0178648
811.636	0.0177769
811.714	0.0177906
811.792	0.0178070
811.870	0.0178223
811.948	0.0178036
812.026	0.0177264
812.104	0.0179132
812.183	0.0178737
812.261	0.0179693
812.339	0.0178762
812.417	0.0178984
812.495	0.0179187
812.573	0.0178775
812.651	0.0180219
812.729	0.0182162
812.808	0.0181882
812.886	0.0181133
812.964	0.0181071
813.042	0.0181898
813.120	0.0183256
813.198	0.0182497
813.276	0.0182992
813.354	0.0181717
813.433	0.0183394
813.511	0.0184087
813.589	0.0182321
813.667	0.0183545
813.745	0.0182955
813.823	0.0181146
813.901	0.0180486
813.979	0.0182059
814.058	0.0182108
814.136	0.0181667
814.214	0.0181161
814.292	0.0179826
814.370	0.0181511
814.448	0.0181055
814.526	0.0179743
814.604	0.0179443
814.683	0.0180286
814.761	0.0180809
814.839	0.0179959
814.917	0.0181106
814.995	0.0181094
815.073	0.0181624
815.151	0.0179854
815.229	0.0181347
815.308	0.0180406
815.386	0.0181643
815.464	0.0181295
815.542	0.0182226
815.620	0.0182037
815.698	0.0181169
815.776	0.0181902
815.854	0.0182259
815.933	0.0182520
816.011	0.0182202
816.089	0.0183440
816.167	0.0182705
816.245	0.0182638
816.323	0.0181676
816.401	0.0181353
816.479	0.0182375
816.558	0.0181886
816.636	0.0180705
816.714	0.0180291
816.792	0.0181788
816.870	0.0181162
816.948	0.0182784
817.026	0.0182742
817.104	0.0182917
817.183	0.0181812
817.261	0.0181170
817.339	0.0182405
817.417	0.0182737
817.495	0.0183517
817.573	0.0183289
817.651	0.0182398
817.729	0.0183142
817.808	0.0182140
817.886	0.0183427
817.964	0.0181639
818.042	0.0181853
818.120	0.0182323
818.198	0.0180919
818.276	0.0181757
818.354	0.0181537
818.433	0.0180714
818.511	0.0180780
818.589	0.0181802
818.667	0.0180402
818.745	0.0182392
818.823	0.0181176
818.901	0.0182287
818.979	0.0183392
819.058	0.0180285
819.136	0.0181606
819.214	0.0180235
819.292	0.0182380
819.370	0.0181447
819.448	0.0182207
819.526	0.0182517
819.604	0.0183013
819.683	0.0182521
819.761	0.0183450
819.839	0.0182668
819.917	0.0182506
819.995	0.0181787
820.073	0.0182452
820.151	0.0181995
820.229	0.0181935
820.308	0.0182040
820.386	0.0179952
820.464	0.0182458
820.542	0.0181806
820.620	0.0180789
820.698	0.0181399
820.776	0.0182565
820.854	0.0181674
820.933	0.0180956
821.011	0.0180640
821.089	0.0182529
821.167	0.0181869
821.245	0.0183086
821.323	0.0179964
821.401	0.0180514
821.479	0.0181306
821.558	0.0182657
821.636	0.0181608
821.714	0.0180133
821.792	0.0181224
821.870	0.0179816
821.948	0.0181188
822.026	0.0180244
822.104	0.0181193
822.183	0.0180106
822.261	0.0179396
822.339	0.0180486
822.417	0.0181757
822.495	0.0180251
822.573	0.0178790
822.651	0.0180737
822.729	0.0180347
822.808	0.0179693
822.886	0.0180314
822.964	0.0180334
823.042	0.0179848
823.120	0.0180544
823.198	0.0180942
823.276	0.0178513
823.354	0.0179144
823.433	0.0179567
823.511	0.0179929
823.589	0.0179720
823.667	0.0181223
823.745	0.0181059
823.823	0.0181757
823.901	0.0181636
823.979	0.0181575
824.058	0.0182158
824.136	0.0183199
824.214	0.0182162
824.292	0.0183109
824.370	0.0180720
824.448	0.0180614
824.526	0.0183752
824.604	0.0182214
824.683	0.0181053
824.761	0.0180766
824.839	0.0181237
824.917	0.0180212
824.995	0.0181361
825.073	0.0182030
825.151	0.0181557
825.229	0.0180441
825.308	0.0181478
825.386	0.0181491
825.464	0.0180431
825.542	0.0181435
825.620	0.0182561
825.698	0.0182678
825.776	0.0182162
825.854	0.0182156
825.933	0.0182368
826.011	0.0182920
826.089	0.0182206
826.167	0.0181824
826.245	0.0182652
826.323	0.0183387
826.401	0.0182690
826.479	0.0180945
826.558	0.0180766
826.636	0.0181814
826.714	0.0183434
826.792	0.0182190
826.870	0.0180323
826.948	0.0181104
827.026	0.0179759
827.104	0.0180997
827.183	0.0181794
827.261	0.0180710
827.339	0.0180415
827.417	0.0179728
827.495	0.0179153
827.573	0.0180868
827.651	0.0180444
827.729	0.0181382
827.808	0.0179790
827.886	0.0181008
827.964	0.0181033
828.042	0.0181041
828.120	0.0180147
828.198	0.0179864
828.276	0.0181063
828.354	0.0181156
828.433	0.0181554
828.511	0.0181786
828.589	0.0182133
828.667	0.0182488
828.745	0.0181338
828.823	0.0181718
828.901	0.0180686
828.979	0.0182246
829.058	0.0184381
829.136	0.0182097
829.214	0.0181410
829.292	0.0182733
829.370	0.0183645
829.448	0.0183698
829.526	0.0181213
829.604	0.0182603
829.683	0.0182349
829.761	0.0182365
829.839	0.0183973
829.917	0.0183361
829.995	0.0183833
830.073	0.0181855
830.151	0.0182114
830.229	0.0182883
830.308	0.0183123
830.386	0.0181796
830.464	0.0182336
830.542	0.0182984
830.620	0.0182869
830.698	0.0181805
830.776	0.0181052
830.854	0.0181425
830.933	0.0182118
831.011	0.0181216
831.089	0.0181481
831.167	0.0181955
831.245	0.0181851
831.323	0.0180946
831.401	0.0181049
831.479	0.0181244
831.558	0.0181148
831.636	0.0181525
831.714	0.0182236
831.792	0.0182701
831.870	0.0182433
831.948	0.0182502
832.026	0.0181688
832.104	0.0183925
832.183	0.0182800
832.261	0.0181556
832.339	0.0181627
832.417	0.0181911
832.495	0.0182758
832.573	0.0181192
832.651	0.0182430
832.729	0.0181496
832.808	0.0181864
832.886	0.0181358
832.964	0.0182204
833.042	0.0183681
833.120	0.0182192
833.198	0.0180608
833.276	0.0181415
833.354	0.0181638
833.433	0.0181355
833.511	0.0182815
833.589	0.0182767
833.667	0.0181487
833.745	0.0181630
833.823	0.0181720
833.901	0.0182260
833.979	0.0181529
834.058	0.0182610
834.136	0.0182547
834.214	0.0181264
834.292	0.0181790
834.370	0.0182350
834.448	0.0180949
834.526	0.0181190
834.604	0.0180750
834.683	0.0181755
834.761	0.0181549
834.839	0.0181355
834.917	0.0181563
834.995	0.0181229
835.073	0.0181221
835.151	0.0182245
835.229	0.0182159
835.308	0.0182241
835.386	0.0181481
835.464	0.0180099
835.542	0.0181815
835.620	0.0183125
835.698	0.0181233
835.776	0.0181460
835.854	0.0180379
835.933	0.0180691
836.011	0.0182915
836.089	0.0181844
836.167	0.0181537
836.245	0.0181524
836.323	0.0181471
836.401	0.0181190
836.479	0.0180577
836.558	0.0181834
836.636	0.0183038
836.714	0.0182601
836.792	0.0181324
836.870	0.0181615
836.948	0.0181080
837.026	0.0182416
837.104	0.0182308
837.183	0.0181511
837.261	0.0183362
837.339	0.0182780
837.417	0.0182353
837.495	0.0182154
837.573	0.0183554
837.651	0.0181815
837.729	0.0181901
837.808	0.0182642
837.886	0.0182449
837.964	0.0184648
838.042	0.0182677
838.120	0.0182793
838.198	0.0182883
838.276	0.0182260
838.354	0.0182683
838.433	0.0182896
838.511	0.0183247
838.589	0.0183268
838.667	0.0182913
838.745	0.0183257
838.823	0.0182893
838.901	0.0182934
838.979	0.0182407
839.058	0.0182751
839.136	0.0182121
839.214	0.0182169
839.292	0.0181995
839.370	0.0182681
839.448	0.0182007
839.526	0.0180706
839.604	0.0182139
839.683	0.0181210
839.761	0.0181017
839.839	0.0181091
839.917	0.0180943
839.995	0.0181843
840.073	0.0181812
840.151	0.0181747
840.229	0.0180783
840.308	0.0181734
840.386	0.0181691
840.464	0.0181853
840.542	0.0181302
840.620	0.0182680
840.698	0.0181008
840.776	0.0180793
840.854	0.0181170
840.933	0.0181023
841.011	0.0181606
841.089	0.0180613
841.167	0.0180466
841.245	0.0182988
841.323	0.0182016
841.401	0.0180955
841.479	0.0180470
841.558	0.0180914
841.636	0.0181848
841.714	0.0181590
841.792	0.0182359
841.870	0.0180492
841.948	0.0180959
842.026	0.0180746
842.104	0.0181157
842.183	0.0181495
842.261	0.0181221
842.339	0.0180867
842.417	0.0182008
842.495	0.0180280
842.573	0.0182220
842.651	0.0181511
842.729	0.0180976
842.808	0.0182517
842.886	0.0181486
842.964	0.0180666
843.042	0.0181028
843.120	0.0181517
843.198	0.0180809
843.276	0.0180560
843.354	0.0181803
843.433	0.0182397
843.511	0.0180956
843.589	0.0181702
843.667	0.0181242
843.745	0.0181088
843.823	0.0182246
843.901	0.0181583
843.979	0.0181548
844.058	0.0179552
844.136	0.0180724
844.214	0.0181667
844.292	0.0182259
844.370	0.0181590
844.448	0.0181118
844.526	0.0180348
844.604	0.0181003
844.683	0.0181134
844.761	0.0181283
844.839	0.0182702
844.917	0.0181690
844.995	0.0181512
845.073	0.0181850
845.151	0.0181680
845.229	0.0181769
845.308	0.0182036
845.386	0.0182333
845.464	0.0183289
845.542	0.0182779
845.620	0.0182410
845.698	0.0181996
845.776	0.0183006
845.854	0.0182499
845.933	0.0182449
846.011	0.0182235
846.089	0.0182028
846.167	0.0181323
846.245	0.0181590
846.323	0.0181892
846.401	0.0181801
846.479	0.0182322
846.558	0.0182137
846.636	0.0182822
846.714	0.0181352
846.792	0.0182565
846.870	0.0182062
846.948	0.0182958
847.026	0.0182154
847.104	0.0180868
847.183	0.0182251
847.261	0.0181126
847.339	0.0181657
847.417	0.0181655
847.495	0.0180873
847.573	0.0181439
847.651	0.0182319
847.729	0.0180935
847.808	0.0181075
847.886	0.0181125
847.964	0.0180459
848.042	0.0181149
848.120	0.0180126
848.198	0.0180688
848.276	0.0181165
848.354	0.0180006
848.433	0.0179898
848.511	0.0180003
848.589	0.0180183
848.667	0.0180433
848.745	0.0180664
848.823	0.0181035
848.901	0.0180182
848.979	0.0180123
849.058	0.0181596
849.136	0.0180322
849.214	0.0180288
849.292	0.0180376
849.370	0.0179082
849.448	0.0181151
849.526	0.0179961
849.604	0.0180596
849.683	0.0180005
849.761	0.0181857
849.839	0.0183070
849.917	0.0180574
849.995	0.0180078
850.073	0.0181284
850.151	0.0180851
850.229	0.0181168
850.308	0.0182291
850.386	0.0181496
850.464	0.0180884
850.542	0.0181240
850.620	0.0181615
850.698	0.0181123
850.776	0.0181435
850.854	0.0182133
850.933	0.0181863
851.011	0.0182541
851.089	0.0180771
851.167	0.0181019
851.245	0.0181324
851.323	0.0180604
851.401	0.0182032
851.479	0.0182282
851.558	0.0182132
851.636	0.0182642
851.714	0.0180781
851.792	0.0181467
851.870	0.0182879
851.948	0.0181647
852.026	0.0181244
852.104	0.0182083
852.183	0.0181067
852.261	0.0180407
852.339	0.0181960
852.417	0.0181915
852.495	0.0180074
852.573	0.0180227
852.651	0.0181882
852.729	0.0181765
852.808	0.0181166
852.886	0.0181013
852.964	0.0180737
853.042	0.0180725
853.120	0.0180054
853.198	0.0180929
853.276	0.0180811
853.354	0.0181864
853.433	0.0181108
853.511	0.0181879
853.589	0.0182359
853.667	0.0179737
853.745	0.0180834
853.823	0.0182746
853.901	0.0181209
853.979	0.0181042
854.058	0.0181351
854.136	0.0180402
854.214	0.0180698
854.292	0.0182520
854.370	0.0181763
854.448	0.0181091
854.526	0.0180360
854.604	0.0180553
854.683	0.0181061
854.761	0.0180762
854.839	0.0182147
854.917	0.0181725
854.995	0.0182130
855.073	0.0181264
855.151	0.0180817
855.229	0.0181738
855.308	0.0180627
855.386	0.0181657
855.464	0.0180943
855.542	0.0182430
855.620	0.0181036
855.698	0.0180988
855.776	0.0181986
855.854	0.0181841
855.933	0.0181276
856.011	0.0179629
856.089	0.0180814
856.167	0.0181159
856.245	0.0182126
856.323	0.0180869
856.401	0.0181858
856.479	0.0182182
856.558	0.0181610
856.636	0.0181274
856.714	0.0182685
856.792	0.0181489
856.870	0.0181836
856.948	0.0183423
857.026	0.0183543
857.104	0.0182956
857.183	0.0182694
857.261	0.0182375
857.339	0.0183340
857.417	0.0184377
857.495	0.0184639
857.573	0.0182550
857.651	0.0182381
857.729	0.0183541
857.808	0.0182538
857.886	0.0182925
857.964	0.0184300
858.042	0.0184248
858.120	0.0183414
858.198	0.0181932
858.276	0.0183226
858.354	0.0183641
858.433	0.0182505
858.511	0.0183060
858.589	0.0182095
858.667	0.0181921
858.745	0.0182609
858.823	0.0182055
858.901	0.0183047
858.979	0.0182242
859.058	0.0181454
859.136	0.0181953
859.214	0.0182558
859.292	0.0182990
859.370	0.0181662
859.448	0.0182804
859.526	0.0182932
859.604	0.0181713
859.683	0.0181557
859.761	0.0182639
859.839	0.0183339
859.917	0.0181897
859.995	0.0182610
860.073	0.0181368
860.151	0.0182926
860.229	0.0182578
860.308	0.0182037
860.386	0.0180932
860.464	0.0181095
860.542	0.0182857
860.620	0.0181612
860.698	0.0181857
860.776	0.0181208
860.854	0.0180873
860.933	0.0182520
861.011	0.0182423
861.089	0.0181939
861.167	0.0182085
861.245	0.0181308
861.323	0.0182533
861.401	0.0182269
861.479	0.0181355
861.558	0.0182858
861.636	0.0183449
861.714	0.0183884
861.792	0.0183080
861.870	0.0182808
861.948	0.0183178
862.026	0.0183273
862.104	0.0182638
862.183	0.0182471
862.261	0.0181643
862.339	0.0183773
862.417	0.0182272
862.495	0.0181620
862.573	0.0183447
862.651	0.0182544
862.729	0.0180503
862.808	0.0182364
862.886	0.0183070
862.964	0.0181666
863.042	0.0180848
863.120	0.0181137
863.198	0.0182912
863.276	0.0181493
863.354	0.0182122
863.433	0.0181528
863.511	0.0180788
863.589	0.0180159
863.667	0.0179558
863.745	0.0179692
863.823	0.0180895
863.901	0.0180872
863.979	0.0180951
864.058	0.0180390
864.136	0.0179647
864.214	0.0179485
864.292	0.0179392
864.370	0.0179637
864.448	0.0180543
864.526	0.0181049
864.604	0.0179858
864.683	0.0181535
864.761	0.0180001
864.839	0.0179291
864.917	0.0180714
864.995	0.0180716
865.073	0.0179664
865.151	0.0181470
865.229	0.0181229
865.308	0.0182587
865.386	0.0182269
865.464	0.0181757
865.542	0.0180695
865.620	0.0182050
865.698	0.0181921
865.776	0.0182103
865.854	0.0183196
865.933	0.0181701
866.011	0.0182173
866.089	0.0182303
866.167	0.0182230
866.245	0.0181584
866.323	0.0182469
866.401	0.0182090
866.479	0.0182586
866.558	0.0182192
866.636	0.0181673
866.714	0.0182450
866.792	0.0181764
866.870	0.0181366
866.948	0.0183231
867.026	0.0181599
867.104	0.0182227
867.183	0.0182248
867.261	0.0182714
867.339	0.0181583
867.417	0.0182733
867.495	0.0182238
867.573	0.0181712
867.651	0.0181464
867.729	0.0181239
867.808	0.0182182
867.886	0.0181579
867.964	0.0182516
868.042	0.0181210
868.120	0.0181241
868.198	0.0181219
868.276	0.0181788
868.354	0.0182299
868.433	0.0180778
868.511	0.0180753
868.589	0.0179889
868.667	0.0181005
868.745	0.0182243
868.823	0.0182102
868.901	0.0181693
868.979	0.0181068
869.058	0.0181612
869.136	0.0181850
869.214	0.0182327
869.292	0.0182180
869.370	0.0181345
869.448	0.0182703
869.526	0.0181999
869.604	0.0181322
869.683	0.0181837
869.761	0.0181601
869.839	0.0181414
869.917	0.0182290
869.995	0.0182583
870.073	0.0181995
870.151	0.0180028
870.229	0.0181161
870.308	0.0180804
870.386	0.0181503
870.464	0.0182089
870.542	0.0181461
870.620	0.0181394
870.698	0.0181882
870.776	0.0181510
870.854	0.0181668
870.933	0.0183102
871.011	0.0181651
871.089	0.0182146
871.167	0.0182793
871.245	0.0181390
871.323	0.0183287
871.401	0.0182281
871.479	0.0182625
871.558	0.0180947
871.636	0.0181326
871.714	0.0182706
871.792	0.0181909
871.870	0.0181187
871.948	0.0180235
872.026	0.0180865
872.104	0.0182210
872.183	0.0180408
872.261	0.0179682
872.339	0.0180822
872.417	0.0179657
872.495	0.0179473
872.573	0.0179724
872.651	0.0179630
872.729	0.0178476
872.808	0.0179592
872.886	0.0178615
872.964	0.0179546
873.042	0.0180305
873.120	0.0179783
873.198	0.0179636
873.276	0.0178715
873.354	0.0180070
873.433	0.0179131
873.511	0.0180925
873.589	0.0180624
873.667	0.0179614
873.745	0.0179027
873.823	0.0179904
873.901	0.0182091
873.979	0.0180810
874.058	0.0179767
874.136	0.0182121
874.214	0.0180150
874.292	0.0179668
874.370	0.0179467
874.448	0.0179276
874.526	0.0179274
874.604	0.0179784
874.683	0.0181773
874.761	0.0179533
874.839	0.0181409
874.917	0.0180923
874.995	0.0179935
875.073	0.0180701
875.151	0.0179570
875.229	0.0178987
875.308	0.0181442
875.386	0.0180866
875.464	0.0180084
875.542	0.0179998
875.620	0.0179705
875.698	0.0179604
875.776	0.0180099
875.854	0.0180521
875.933	0.0179545
876.011	0.0178498
876.089	0.0178625
876.167	0.0181055
876.245	0.0178733
876.323	0.0179859
876.401	0.0179079
876.479	0.0180024
876.558	0.0178782
876.636	0.0179333
876.714	0.0180285
876.792	0.0180579
876.870	0.0179544
876.948	0.0181708
877.026	0.0181372
877.104	0.0180792
877.183	0.0181407
877.261	0.0181557
877.339	0.0182359
877.417	0.0181733
877.495	0.0182541
877.573	0.0182252
877.651	0.0181712
877.729	0.0180779
877.808	0.0181202
877.886	0.0182770
877.964	0.0181063
878.042	0.0181912
878.120	0.0182410
878.198	0.0181551
878.276	0.0181033
878.354	0.0182289
878.433	0.0182392
878.511	0.0182693
878.589	0.0182407
878.667	0.0181406
878.745	0.0182157
878.823	0.0181301
878.901	0.0181477
878.979	0.0183177
879.058	0.0182239
879.136	0.0181686
879.214	0.0182372
879.292	0.0181868
879.370	0.0181058
879.448	0.0181272
879.526	0.0182514
879.604	0.0182895
879.683	0.0182917
879.761	0.0181860
879.839	0.0182294
879.917	0.0181956
879.995	0.0182567
880.073	0.0181979
880.151	0.0181526
880.229	0.0182225
880.308	0.0182403
880.386	0.0181344
880.464	0.0182428
880.542	0.0181731
880.620	0.0181093
880.698	0.0180766
880.776	0.0181689
880.854	0.0182176
880.933	0.0181310
881.011	0.0180986
881.089	0.0182408
881.167	0.0180548
881.245	0.0180772
881.323	0.0180630
881.401	0.0180289
881.479	0.0181992
881.558	0.0182616
881.636	0.0180937
881.714	0.0181895
881.792	0.0181974
881.870	0.0181173
881.948	0.0182695
882.026	0.0182442
882.104	0.0183289
882.183	0.0183587
882.261	0.0184151
882.339	0.0183346
882.417	0.0181693
882.495	0.0183311
882.573	0.0181296
882.651	0.0183073
882.729	0.0183163
882.808	0.0183586
882.886	0.0183808
882.964	0.0182512
883.042	0.0180482
883.120	0.0181909
883.198	0.0183004
883.276	0.0182189
883.354	0.0181672
883.433	0.0180595
883.511	0.0181335
883.589	0.0182439
883.667	0.0182317
883.745	0.0180676
883.823	0.0182522
883.901	0.0181790
883.979	0.0180518
884.058	0.0181940
884.136	0.0181037
884.214	0.0179951
884.292	0.0180216
884.370	0.0181788
884.448	0.0181321
884.526	0.0181168
884.604	0.0180335
884.683	0.0180250
884.761	0.0181232
884.839	0.0181825
884.917	0.0181123
884.995	0.0180846
885.073	0.0181207
885.151	0.0180224
885.229	0.0179514
885.308	0.0179334
885.386	0.0180477
885.464	0.0180141
885.542	0.0181226
885.620	0.0181003
885.698	0.0180879
885.776	0.0181047
885.854	0.0179957
885.933	0.0181143
886.011	0.0181166
886.089	0.0181020
886.167	0.0181422
886.245	0.0181320
886.323	0.0181188
886.401	0.0181449
886.479	0.0182130
886.558	0.0182634
886.636	0.0181951
886.714	0.0180907
886.792	0.0181888
886.870	0.0182525
886.948	0.0181958
887.026	0.0184237
887.104	0.0182912
887.183	0.0180973
887.261	0.0183244
887.339	0.0182789
887.417	0.0182883
887.495	0.0183515
887.573	0.0182211
887.651	0.0183376
887.729	0.0183781
887.808	0.0184788
887.886	0.0182629
887.964	0.0182952
888.042	0.0183005
888.120	0.0183183
888.198	0.0184174
888.276	0.0183654
888.354	0.0183848
888.433	0.0181500
888.511	0.0182515
888.589	0.0181196
888.667	0.0182083
888.745	0.0181654
888.823	0.0181868
888.901	0.0180543
888.979	0.0179614
889.058	0.0180134
889.136	0.0181831
889.214	0.0181197
889.292	0.0180521
889.370	0.0179900
889.448	0.0180176
889.526	0.0181887
889.604	0.0179603
889.683	0.0180091
889.761	0.0181613
889.839	0.0179135
889.917	0.0180057
889.995	0.0179185
890.073	0.0178968
890.151	0.0180690
890.229	0.0179934
890.308	0.0179816
890.386	0.0180715
890.464	0.0179816
890.542	0.0181316
890.620	0.0181106
890.698	0.0181686
890.776	0.0181354
890.854	0.0181527
890.933	0.0180029
891.011	0.0180527
891.089	0.0180852
891.167	0.0182332
891.245	0.0180912
891.323	0.0180478
891.401	0.0180303
891.479	0.0181590
891.558	0.0182088
891.636	0.0181986
891.714	0.0182269
891.792	0.0180486
891.870	0.0181936
891.948	0.0182935
892.026	0.0179928
892.104	0.0180341
892.183	0.0181055
892.261	0.0180553
892.339	0.0178802
892.417	0.0180663
892.495	0.0181921
892.573	0.0181475
892.651	0.0179770
892.729	0.0180428
892.808	0.0181218
892.886	0.0181384
892.964	0.0180930
893.042	0.0181467
893.120	0.0179411
893.198	0.0181509
893.276	0.0180858
893.354	0.0180434
893.433	0.0181368
893.511	0.0181308
893.589	0.0182095
893.667	0.0180742
893.745	0.0181361
893.823	0.0181424
893.901	0.0181260
893.979	0.0182403
894.058	0.0181742
894.136	0.0180371
894.214	0.0181286
894.292	0.0181570
894.370	0.0182999
894.448	0.0182323
894.526	0.0181998
894.604	0.0182643
894.683	0.0181281
894.761	0.0183183
894.839	0.0182128
894.917	0.0180605
894.995	0.0181990
895.073	0.0181668
895.151	0.0181789
895.229	0.0182675
895.308	0.0181657
895.386	0.0182973
895.464	0.0181310
895.542	0.0182649
895.620	0.0183547
895.698	0.0181605
895.776	0.0181021
895.854	0.0183378
895.933	0.0183379
896.011	0.0182861
896.089	0.0183069
896.167	0.0181886
896.245	0.0182664
896.323	0.0184231
896.401	0.0182265
896.479	0.0182244
896.558	0.0182072
896.636	0.0182344
896.714	0.0183176
896.792	0.0182867
896.870	0.0182088
896.948	0.0182014
897.026	0.0183041
897.104	0.0181863
897.183	0.0182291
897.261	0.0181287
897.339	0.0180561
897.417	0.0181998
897.495	0.0182254
897.573	0.0181472
897.651	0.0181062
897.729	0.0180995
897.808	0.0179873
897.886	0.0180511
897.964	0.0180403
898.042	0.0181003
898.120	0.0182941
898.198	0.0182652
898.276	0.0180444
898.354	0.0181738
898.433	0.0182370
898.511	0.0180774
898.589	0.0182475
898.667	0.0181802
898.745	0.0182256
898.823	0.0182594
898.901	0.0182256
898.979	0.0182320
899.058	0.0182700
899.136	0.0180778
899.214	0.0181898
899.292	0.0182006
899.370	0.0182173
899.448	0.0181879
899.526	0.0180939
899.604	0.0180013
899.683	0.0182225
899.761	0.0181387
899.839	0.0180412
899.917	0.0181341
899.995	0.0181490
900.073	0.0181232
900.151	0.0179571
900.229	0.0179984
900.308	0.0181240
900.386	0.0181975
900.464	0.0180762
900.542	0.0179802
900.620	0.0180446
900.698	0.0181699
900.776	0.0180966
900.854	0.0180203
900.933	0.0180539
901.011	0.0180259
901.089	0.0180841
901.167	0.0181091
901.245	0.0181174
901.323	0.0180825
901.401	0.0182510
901.479	0.0182616
901.558	0.0181409
901.636	0.0180770
901.714	0.0180872
901.792	0.0181114
901.870	0.0182124
901.948	0.0181811
902.026	0.0181293
902.104	0.0181771
902.183	0.0181992
902.261	0.0181483
902.339	0.0181274
902.417	0.0181767
902.495	0.0180640
902.573	0.0183218
902.651	0.0180383
902.729	0.0181152
902.808	0.0181406
902.886	0.0181786
902.964	0.0182298
903.042	0.0181918
903.120	0.0181700
903.198	0.0181075
903.276	0.0182648
903.354	0.0182051
903.433	0.0182817
903.511	0.0182757
903.589	0.0182641
903.667	0.0181897
903.745	0.0181530
903.823	0.0182079
903.901	0.0181387
903.979	0.0182944
904.058	0.0182130
904.136	0.0181606
904.214	0.0181612
904.292	0.0181675
904.370	0.0181937
904.448	0.0181855
904.526	0.0181440
904.604	0.0181865
904.683	0.0180686
904.761	0.0181245
904.839	0.0181944
904.917	0.0182051
904.995	0.0180824
905.073	0.0180615
905.151	0.0181438
905.229	0.0179963
905.308	0.0181330
905.386	0.0180576
905.464	0.0181078
905.542	0.0180917
905.620	0.0179680
905.698	0.0180510
905.776	0.0180732
905.854	0.0181112
905.933	0.0181543
906.011	0.0181999
906.089	0.0180699
906.167	0.0181136
906.245	0.0181729
906.323	0.0182162
906.401	0.0182310
906.479	0.0181962
906.558	0.0182218
906.636	0.0182951
906.714	0.0182171
906.792	0.0181984
906.870	0.0182362
906.948	0.0182701
907.026	0.0181733
907.104	0.0182623
907.183	0.0182147
907.261	0.0182145
907.339	0.0181335
907.417	0.0181831
907.495	0.0180918
907.573	0.0182509
907.651	0.0182911
907.729	0.0182359
907.808	0.0182401
907.886	0.0181408
907.964	0.0182049
908.042	0.0182001
908.120	0.0181868
908.198	0.0180957
908.276	0.0181496
908.354	0.0180581
908.433	0.0182160
908.511	0.0181953
908.589	0.0181950
908.667	0.0180217
908.745	0.0179743
908.823	0.0180440
908.901	0.0180783
908.979	0.0182455
909.058	0.0181184
909.136	0.0180835
909.214	0.0180471
909.292	0.0179681
909.370	0.0180540
909.448	0.0182397
909.526	0.0180950
909.604	0.0180084
909.683	0.0180341
909.761	0.0181093
909.839	0.0181886
909.917	0.0181420
909.995	0.0181773
910.073	0.0181590
910.151	0.0181641
910.229	0.0181464
910.308	0.0181010
910.386	0.0181709
910.464	0.0181051
910.542	0.0181420
910.620	0.0180276
910.698	0.0181307
910.776	0.0180973
910.854	0.0181173
910.933	0.0180740
911.011	0.0179679
911.089	0.0181301
911.167	0.0180349
911.245	0.0180753
911.323	0.0180840
911.401	0.0180591
911.479	0.0181506
911.558	0.0180454
911.636	0.0180035
911.714	0.0181064
911.792	0.0180031
911.870	0.0181261
911.948	0.0181967
912.026	0.0181216
912.104	0.0181275
912.183	0.0182255
912.261	0.0182217
912.339	0.0180843
912.417	0.0181171
912.495	0.0181081
912.573	0.0181886
912.651	0.0181787
912.729	0.0179754
912.808	0.0182426
912.886	0.0181653
912.964	0.0184198
913.042	0.0181806
913.120	0.0181489
913.198	0.0180524
913.276	0.0180596
913.354	0.0181762
913.433	0.0181742
913.511	0.0181980
913.589	0.0181526
913.667	0.0179688
913.745	0.0181029
913.823	0.0180751
913.901	0.0180654
913.979	0.0180751
914.058	0.0181026
914.136	0.0181325
914.214	0.0179901
914.292	0.0180576
914.370	0.0181223
914.448	0.0180525
914.526	0.0181880
914.604	0.0180666
914.683	0.0180997
914.761	0.0182241
914.839	0.0181023
914.917	0.0182200
914.995	0.0182437
915.073	0.0182622
915.151	0.0183273
915.229	0.0182129
915.308	0.0182397
915.386	0.0182895
915.464	0.0182590
915.542	0.0183530
915.620	0.0183038
915.698	0.0182710
915.776	0.0184204
915.854	0.0182339
915.933	0.0183094
916.011	0.0182237
916.089	0.0180789
916.167	0.0182636
916.245	0.0182471
916.323	0.0180815
916.401	0.0181639
916.479	0.0182293
916.558	0.0182703
916.636	0.0181293
916.714	0.0179831
916.792	0.0180840
916.870	0.0181502
916.948	0.0181786
917.026	0.0182174
917.104	0.0182008
917.183	0.0180629
917.261	0.0182119
917.339	0.0182661
917.417	0.0182594
917.495	0.0182486
917.573	0.0182584
917.651	0.0182396
917.729	0.0182393
917.808	0.0182406
917.886	0.0181563
917.964	0.0181533
918.042	0.0181802
918.120	0.0182079
918.198	0.0181757
918.276	0.0181787
918.354	0.0182645
918.433	0.0183000
918.511	0.0181951
918.589	0.0182090
918.667	0.0181194
918.745	0.0181244
918.823	0.0182648
918.901	0.0180850
918.979	0.0181897
919.058	0.0182973
919.136	0.0182027
919.214	0.0181582
919.292	0.0180934
919.370	0.0181113
919.448	0.0181277
919.526	0.0182236
919.604	0.0180661
919.683	0.0180273
919.761	0.0179845
919.839	0.0181100
919.917	0.0181042
