05/25/2022	23:10:46	Ver.	4.1	UNKNOWN
Optical Delay	599.988409	Delta X		0.078125	Sweeps	1	Scan Rate	0/0
Coordinates	Axis 1	NaN	Axis 2	NaN	Axis 3	NaN	Axis 4	NaN	Axis 5	NaN	Axis 6	0.000000
TX Power	0.000000	RX Power	0.000000

599.988	0.0162958
600.067	0.0162875
600.145	0.0162039
600.223	0.0162672
600.301	0.0162804
600.379	0.0162676
600.457	0.0163918
600.535	0.0162097
600.613	0.0162624
600.692	0.0164238
600.770	0.0162888
600.848	0.0162623
600.926	0.0162510
601.004	0.0162007
601.082	0.0163501
601.160	0.0163622
601.238	0.0162632
601.317	0.0163042
601.395	0.0163174
601.473	0.0162995
601.551	0.0162362
601.629	0.0163993
601.707	0.0164056
601.785	0.0163584
601.863	0.0162595
601.942	0.0162180
602.020	0.0163308
602.098	0.0164152
602.176	0.0162569
602.254	0.0162668
602.332	0.0162492
602.410	0.0163459
602.488	0.0162151
602.567	0.0163917
602.645	0.0163049
602.723	0.0162378
602.801	0.0162663
602.879	0.0162475
602.957	0.0162728
603.035	0.0163741
603.113	0.0163427
603.192	0.0161001
603.270	0.0162898
603.348	0.0162894
603.426	0.0162685
603.504	0.0163763
603.582	0.0161984
603.660	0.0162878
603.738	0.0162955
603.817	0.0162427
603.895	0.0162928
603.973	0.0163062
604.051	0.0162633
604.129	0.0162617
604.207	0.0162648
604.285	0.0162862
604.363	0.0162659
604.442	0.0163015
604.520	0.0164063
604.598	0.0162907
604.676	0.0163229
604.754	0.0161884
604.832	0.0162430
604.910	0.0163475
604.988	0.0162569
605.067	0.0163695
605.145	0.0164464
605.223	0.0163795
605.301	0.0163091
605.379	0.0162252
605.457	0.0164262
605.535	0.0163210
605.613	0.0161978
605.692	0.0162637
605.770	0.0164121
605.848	0.0164338
605.926	0.0164256
606.004	0.0161741
606.082	0.0163306
606.160	0.0162363
606.238	0.0163175
606.317	0.0163280
606.395	0.0162536
606.473	0.0162888
606.551	0.0163560
606.629	0.0162604
606.707	0.0162695
606.785	0.0163598
606.863	0.0164187
606.942	0.0162413
607.020	0.0162572
607.098	0.0162363
607.176	0.0162850
607.254	0.0162689
607.332	0.0162971
607.410	0.0163191
607.488	0.0162646
607.567	0.0163152
607.645	0.0162399
607.723	0.0163734
607.801	0.0160756
607.879	0.0162023
607.957	0.0162262
608.035	0.0163429
608.113	0.0162945
608.192	0.0163385
608.270	0.0164481
608.348	0.0163198
608.426	0.0163458
608.504	0.0163475
608.582	0.0162878
608.660	0.0163344
608.738	0.0161885
608.817	0.0163327
608.895	0.0163984
608.973	0.0161313
609.051	0.0161710
609.129	0.0162434
609.207	0.0162557
609.285	0.0161964
609.363	0.0160738
609.442	0.0161459
609.520	0.0162259
609.598	0.0161185
609.676	0.0162516
609.754	0.0162000
609.832	0.0162316
609.910	0.0161382
609.988	0.0161160
610.067	0.0164211
610.145	0.0163293
610.223	0.0162402
610.301	0.0161939
610.379	0.0162887
610.457	0.0164629
610.535	0.0163742
610.613	0.0163935
610.692	0.0164353
610.770	0.0164560
610.848	0.0166056
610.926	0.0164826
611.004	0.0165182
611.082	0.0164582
611.160	0.0165337
611.238	0.0165248
611.317	0.0164802
611.395	0.0163346
611.473	0.0162623
611.551	0.0163795
611.629	0.0163850
611.707	0.0162690
611.785	0.0163653
611.863	0.0163066
611.942	0.0161478
612.020	0.0162469
612.098	0.0162508
612.176	0.0162143
612.254	0.0160622
612.332	0.0161273
612.410	0.0162029
612.488	0.0161810
612.567	0.0162141
612.645	0.0161808
612.723	0.0160691
612.801	0.0161210
612.879	0.0162596
612.957	0.0162589
613.035	0.0160728
613.113	0.0161787
613.192	0.0162684
613.270	0.0162082
613.348	0.0161127
613.426	0.0161874
613.504	0.0162724
613.582	0.0162823
613.660	0.0161966
613.738	0.0162879
613.817	0.0163466
613.895	0.0164063
613.973	0.0162339
614.051	0.0163774
614.129	0.0165116
614.207	0.0162031
614.285	0.0163785
614.363	0.0164520
614.442	0.0162381
614.520	0.0163844
614.598	0.0164742
614.676	0.0163758
614.754	0.0162688
614.832	0.0163467
614.910	0.0164435
614.988	0.0163923
615.067	0.0162779
615.145	0.0163422
615.223	0.0164242
615.301	0.0163860
615.379	0.0163345
615.457	0.0165015
615.535	0.0164320
615.613	0.0162955
615.692	0.0163079
615.770	0.0163461
615.848	0.0162879
615.926	0.0163319
616.004	0.0163509
616.082	0.0163081
616.160	0.0162171
616.238	0.0163373
616.317	0.0162643
616.395	0.0163902
616.473	0.0161722
616.551	0.0162307
616.629	0.0161757
616.707	0.0162981
616.785	0.0162293
616.863	0.0162067
616.942	0.0162837
617.020	0.0163398
617.098	0.0161932
617.176	0.0162476
617.254	0.0162654
617.332	0.0162350
617.410	0.0163789
617.488	0.0161711
617.567	0.0160719
617.645	0.0162704
617.723	0.0163164
617.801	0.0162405
617.879	0.0162682
617.957	0.0161153
618.035	0.0163093
618.113	0.0162820
618.192	0.0162907
618.270	0.0163464
618.348	0.0162277
618.426	0.0163605
618.504	0.0162778
618.582	0.0162729
618.660	0.0163955
618.738	0.0163113
618.817	0.0163526
618.895	0.0162746
618.973	0.0161362
619.051	0.0162862
619.129	0.0163992
619.207	0.0163057
619.285	0.0163011
619.363	0.0163519
619.442	0.0163029
619.520	0.0163223
619.598	0.0164381
619.676	0.0164320
619.754	0.0163185
619.832	0.0163432
619.910	0.0163125
619.988	0.0164017
620.067	0.0162604
620.145	0.0163948
620.223	0.0162512
620.301	0.0162833
620.379	0.0162704
620.457	0.0164867
620.535	0.0163515
620.613	0.0163116
620.692	0.0163285
620.770	0.0164029
620.848	0.0162486
620.926	0.0164323
621.004	0.0163609
621.082	0.0162963
621.160	0.0164298
621.238	0.0164466
621.317	0.0162982
621.395	0.0163908
621.473	0.0164822
621.551	0.0165245
621.629	0.0163929
621.707	0.0163411
621.785	0.0164582
621.863	0.0162238
621.942	0.0162930
622.020	0.0163918
622.098	0.0163496
622.176	0.0163221
622.254	0.0165023
622.332	0.0164563
622.410	0.0163405
622.488	0.0162979
622.567	0.0164044
622.645	0.0164520
622.723	0.0163028
622.801	0.0161028
622.879	0.0161905
622.957	0.0161844
623.035	0.0162669
623.113	0.0164095
623.192	0.0163579
623.270	0.0163032
623.348	0.0162688
623.426	0.0163235
623.504	0.0162345
623.582	0.0163189
623.660	0.0162347
623.738	0.0161897
623.817	0.0162157
623.895	0.0163100
623.973	0.0164328
624.051	0.0162037
624.129	0.0161511
624.207	0.0162927
624.285	0.0164503
624.363	0.0164935
624.442	0.0161880
624.520	0.0162305
624.598	0.0163570
624.676	0.0161747
624.754	0.0161514
624.832	0.0162714
624.910	0.0164205
624.988	0.0163697
625.067	0.0162463
625.145	0.0162118
625.223	0.0163572
625.301	0.0162752
625.379	0.0162532
625.457	0.0163926
625.535	0.0163638
625.613	0.0164111
625.692	0.0162052
625.770	0.0162145
625.848	0.0163279
625.926	0.0162746
626.004	0.0163200
626.082	0.0163332
626.160	0.0163792
626.238	0.0162376
626.317	0.0163286
626.395	0.0163251
626.473	0.0164056
626.551	0.0162527
626.629	0.0162155
626.707	0.0162128
626.785	0.0163407
626.863	0.0164119
626.942	0.0164036
627.020	0.0163563
627.098	0.0162735
627.176	0.0162430
627.254	0.0162901
627.332	0.0163139
627.410	0.0164043
627.488	0.0163988
627.567	0.0163955
627.645	0.0162865
627.723	0.0162048
627.801	0.0163253
627.879	0.0163044
627.957	0.0163097
628.035	0.0162606
628.113	0.0162253
628.192	0.0162830
628.270	0.0164259
628.348	0.0163889
628.426	0.0163346
628.504	0.0163578
628.582	0.0162464
628.660	0.0163594
628.738	0.0164265
628.817	0.0163439
628.895	0.0163757
628.973	0.0163435
629.051	0.0162557
629.129	0.0163115
629.207	0.0163480
629.285	0.0163320
629.363	0.0161570
629.442	0.0163208
629.520	0.0164275
629.598	0.0163001
629.676	0.0162884
629.754	0.0162671
629.832	0.0164055
629.910	0.0164651
629.988	0.0162495
630.067	0.0162276
630.145	0.0163421
630.223	0.0162868
630.301	0.0161044
630.379	0.0163232
630.457	0.0163944
630.535	0.0163448
630.613	0.0162814
630.692	0.0162334
630.770	0.0161676
630.848	0.0164191
630.926	0.0163467
631.004	0.0163632
631.082	0.0162602
631.160	0.0162849
631.238	0.0162499
631.317	0.0164732
631.395	0.0163081
631.473	0.0161829
631.551	0.0162891
631.629	0.0162212
631.707	0.0162196
631.785	0.0161744
631.863	0.0163356
631.942	0.0160594
632.020	0.0163354
632.098	0.0162424
632.176	0.0161850
632.254	0.0162595
632.332	0.0164079
632.410	0.0161635
632.488	0.0162328
632.567	0.0162429
632.645	0.0162206
632.723	0.0162268
632.801	0.0163087
632.879	0.0162397
632.957	0.0162740
633.035	0.0163612
633.113	0.0163261
633.192	0.0162633
633.270	0.0163477
633.348	0.0162841
633.426	0.0162230
633.504	0.0162244
633.582	0.0163480
633.660	0.0163713
633.738	0.0163191
633.817	0.0162523
633.895	0.0164099
633.973	0.0163541
634.051	0.0162740
634.129	0.0163753
634.207	0.0162978
634.285	0.0163891
634.363	0.0164210
634.442	0.0163244
634.520	0.0163064
634.598	0.0162922
634.676	0.0163081
634.754	0.0163998
634.832	0.0163678
634.910	0.0163699
634.988	0.0164221
635.067	0.0162693
635.145	0.0162826
635.223	0.0162061
635.301	0.0162366
635.379	0.0161943
635.457	0.0163426
635.535	0.0161942
635.613	0.0163455
635.692	0.0163844
635.770	0.0163283
635.848	0.0162843
635.926	0.0163764
636.004	0.0163051
636.082	0.0164884
636.160	0.0161884
636.238	0.0163126
636.317	0.0163927
636.395	0.0163075
636.473	0.0163135
636.551	0.0162320
636.629	0.0163558
636.707	0.0164111
636.785	0.0163393
636.863	0.0162926
636.942	0.0164053
637.020	0.0163245
637.098	0.0162981
637.176	0.0163229
637.254	0.0164099
637.332	0.0162505
637.410	0.0163353
637.488	0.0163797
637.567	0.0163607
637.645	0.0162991
637.723	0.0162808
637.801	0.0163918
637.879	0.0165094
637.957	0.0162663
638.035	0.0162180
638.113	0.0162232
638.192	0.0161057
638.270	0.0164927
638.348	0.0163668
638.426	0.0163277
638.504	0.0162925
638.582	0.0163827
638.660	0.0162729
638.738	0.0164674
638.817	0.0162636
638.895	0.0161990
638.973	0.0163211
639.051	0.0163117
639.129	0.0162953
639.207	0.0162549
639.285	0.0162500
639.363	0.0162645
639.442	0.0162955
639.520	0.0162878
639.598	0.0161140
639.676	0.0162107
639.754	0.0162036
639.832	0.0163454
639.910	0.0163023
639.988	0.0161649
640.067	0.0161411
640.145	0.0162700
640.223	0.0162290
640.301	0.0161151
640.379	0.0163026
640.457	0.0161915
640.535	0.0162044
640.613	0.0163320
640.692	0.0163422
640.770	0.0161998
640.848	0.0162814
640.926	0.0162305
641.004	0.0161650
641.082	0.0163911
641.160	0.0163457
641.238	0.0161987
641.317	0.0162347
641.395	0.0163197
641.473	0.0163232
641.551	0.0163172
641.629	0.0162622
641.707	0.0163146
641.785	0.0163941
641.863	0.0163837
641.942	0.0161060
642.020	0.0162621
642.098	0.0163046
642.176	0.0162489
642.254	0.0162488
642.332	0.0162691
642.410	0.0162560
642.488	0.0164226
642.567	0.0163131
642.645	0.0161356
642.723	0.0162521
642.801	0.0162070
642.879	0.0163893
642.957	0.0163427
643.035	0.0163589
643.113	0.0162376
643.192	0.0163416
643.270	0.0161948
643.348	0.0162679
643.426	0.0163831
643.504	0.0163382
643.582	0.0162971
643.660	0.0164347
643.738	0.0162795
643.817	0.0163409
643.895	0.0163708
643.973	0.0163477
644.051	0.0162933
644.129	0.0163255
644.207	0.0163518
644.285	0.0163228
644.363	0.0163052
644.442	0.0162930
644.520	0.0162236
644.598	0.0161592
644.676	0.0163915
644.754	0.0163782
644.832	0.0161952
644.910	0.0163354
644.988	0.0165366
645.067	0.0162434
645.145	0.0162724
645.223	0.0162601
645.301	0.0163454
645.379	0.0164140
645.457	0.0162238
645.535	0.0162908
645.613	0.0163615
645.692	0.0163945
645.770	0.0163271
645.848	0.0163924
645.926	0.0163268
646.004	0.0162392
646.082	0.0163257
646.160	0.0163077
646.238	0.0163756
646.317	0.0162564
646.395	0.0163634
646.473	0.0164423
646.551	0.0163037
646.629	0.0162646
646.707	0.0161783
646.785	0.0162254
646.863	0.0163928
646.942	0.0162443
647.020	0.0162843
647.098	0.0163665
647.176	0.0161517
647.254	0.0163233
647.332	0.0162682
647.410	0.0163015
647.488	0.0162695
647.567	0.0162511
647.645	0.0162204
647.723	0.0163965
647.801	0.0162285
647.879	0.0162805
647.957	0.0164824
648.035	0.0163066
648.113	0.0162717
648.192	0.0165017
648.270	0.0162749
648.348	0.0162157
648.426	0.0164429
648.504	0.0163199
648.582	0.0163282
648.660	0.0162878
648.738	0.0163715
648.817	0.0164003
648.895	0.0163400
648.973	0.0163010
649.051	0.0164091
649.129	0.0163734
649.207	0.0162843
649.285	0.0162620
649.363	0.0164091
649.442	0.0161829
649.520	0.0162544
649.598	0.0162473
649.676	0.0164684
649.754	0.0163351
649.832	0.0163618
649.910	0.0164622
649.988	0.0163709
650.067	0.0162999
650.145	0.0162759
650.223	0.0162698
650.301	0.0162441
650.379	0.0163507
650.457	0.0163189
650.535	0.0163159
650.613	0.0162482
650.692	0.0163768
650.770	0.0163710
650.848	0.0163103
650.926	0.0163859
651.004	0.0164101
651.082	0.0163055
651.160	0.0163908
651.238	0.0162794
651.317	0.0164441
651.395	0.0163947
651.473	0.0162809
651.551	0.0162145
651.629	0.0162946
651.707	0.0162392
651.785	0.0163359
651.863	0.0164462
651.942	0.0164480
652.020	0.0163438
652.098	0.0163927
652.176	0.0163260
652.254	0.0161973
652.332	0.0161450
652.410	0.0163434
652.488	0.0161775
652.567	0.0162096
652.645	0.0163575
652.723	0.0163477
652.801	0.0163752
652.879	0.0163057
652.957	0.0162634
653.035	0.0164677
653.113	0.0163271
653.192	0.0162699
653.270	0.0162679
653.348	0.0162518
653.426	0.0162218
653.504	0.0162402
653.582	0.0161962
653.660	0.0162357
653.738	0.0162907
653.817	0.0162331
653.895	0.0161743
653.973	0.0161833
654.051	0.0162665
654.129	0.0162383
654.207	0.0162414
654.285	0.0163032
654.363	0.0161966
654.442	0.0162714
654.520	0.0162007
654.598	0.0162911
654.676	0.0163137
654.754	0.0162482
654.832	0.0162711
654.910	0.0161974
654.988	0.0162533
655.067	0.0163314
655.145	0.0163330
655.223	0.0162380
655.301	0.0163905
655.379	0.0162912
655.457	0.0161712
655.535	0.0162798
655.613	0.0162175
655.692	0.0161779
655.770	0.0162003
655.848	0.0162186
655.926	0.0162057
656.004	0.0162912
656.082	0.0163803
656.160	0.0164028
656.238	0.0162958
656.317	0.0161712
656.395	0.0162577
656.473	0.0162293
656.551	0.0162479
656.629	0.0163539
656.707	0.0164606
656.785	0.0162691
656.863	0.0161441
656.942	0.0162738
657.020	0.0163704
657.098	0.0162235
657.176	0.0162853
657.254	0.0163416
657.332	0.0162498
657.410	0.0163176
657.488	0.0162840
657.567	0.0162258
657.645	0.0162528
657.723	0.0162735
657.801	0.0163727
657.879	0.0162241
657.957	0.0163042
658.035	0.0161589
658.113	0.0163074
658.192	0.0163121
658.270	0.0163239
658.348	0.0163334
658.426	0.0164799
658.504	0.0162965
658.582	0.0162025
658.660	0.0163400
658.738	0.0162168
658.817	0.0161707
658.895	0.0162199
658.973	0.0163802
659.051	0.0163811
659.129	0.0161776
659.207	0.0163517
659.285	0.0164081
659.363	0.0162685
659.442	0.0162928
659.520	0.0162452
659.598	0.0163048
659.676	0.0162073
659.754	0.0164111
659.832	0.0163412
659.910	0.0164412
659.988	0.0164253
660.067	0.0162198
660.145	0.0162400
660.223	0.0162856
660.301	0.0163010
660.379	0.0164101
660.457	0.0162467
660.535	0.0162783
660.613	0.0163176
660.692	0.0162151
660.770	0.0161326
660.848	0.0161589
660.926	0.0162263
661.004	0.0162875
661.082	0.0162645
661.160	0.0161290
661.238	0.0161238
661.317	0.0162962
661.395	0.0162323
661.473	0.0161914
661.551	0.0163001
661.629	0.0161893
661.707	0.0161858
661.785	0.0161117
661.863	0.0164021
661.942	0.0164584
662.020	0.0161443
662.098	0.0163378
662.176	0.0163261
662.254	0.0162448
662.332	0.0163477
662.410	0.0162477
662.488	0.0162173
662.567	0.0161477
662.645	0.0163422
662.723	0.0162776
662.801	0.0162666
662.879	0.0161293
662.957	0.0163206
663.035	0.0162804
663.113	0.0162477
663.192	0.0161387
663.270	0.0162526
663.348	0.0161964
663.426	0.0162924
663.504	0.0163040
663.582	0.0161887
663.660	0.0162769
663.738	0.0162672
663.817	0.0162786
663.895	0.0163654
663.973	0.0162064
664.051	0.0162223
664.129	0.0160706
664.207	0.0163659
664.285	0.0163890
664.363	0.0162550
664.442	0.0163203
664.520	0.0163622
664.598	0.0163205
664.676	0.0163297
664.754	0.0163316
664.832	0.0162124
664.910	0.0163280
664.988	0.0164001
665.067	0.0163661
665.145	0.0162488
665.223	0.0163609
665.301	0.0163242
665.379	0.0162247
665.457	0.0163223
665.535	0.0163077
665.613	0.0163499
665.692	0.0163280
665.770	0.0162530
665.848	0.0163407
665.926	0.0163972
666.004	0.0163063
666.082	0.0162576
666.160	0.0163663
666.238	0.0163478
666.317	0.0164050
666.395	0.0164392
666.473	0.0163268
666.551	0.0162978
666.629	0.0161825
666.707	0.0162902
666.785	0.0162964
666.863	0.0163477
666.942	0.0162183
667.020	0.0162432
667.098	0.0163820
667.176	0.0163644
667.254	0.0163769
667.332	0.0162555
667.410	0.0162495
667.488	0.0162988
667.567	0.0163763
667.645	0.0164309
667.723	0.0162809
667.801	0.0162740
667.879	0.0162019
667.957	0.0162950
668.035	0.0159875
668.113	0.0161333
668.192	0.0164295
668.270	0.0162679
668.348	0.0163914
668.426	0.0162133
668.504	0.0163156
668.582	0.0163691
668.660	0.0162072
668.738	0.0163489
668.817	0.0162230
668.895	0.0162705
668.973	0.0163118
669.051	0.0162167
669.129	0.0163287
669.207	0.0163657
669.285	0.0161520
669.363	0.0161774
669.442	0.0163306
669.520	0.0161414
669.598	0.0162749
669.676	0.0163602
669.754	0.0162415
669.832	0.0162450
669.910	0.0163547
669.988	0.0163265
670.067	0.0162273
670.145	0.0161967
670.223	0.0163549
670.301	0.0164832
670.379	0.0162585
670.457	0.0164618
670.535	0.0163110
670.613	0.0163956
670.692	0.0161530
670.770	0.0162717
670.848	0.0164728
670.926	0.0163684
671.004	0.0162398
671.082	0.0162825
671.160	0.0163490
671.238	0.0161736
671.317	0.0161777
671.395	0.0163554
671.473	0.0161318
671.551	0.0162373
671.629	0.0163583
671.707	0.0162870
671.785	0.0161803
671.863	0.0162978
671.942	0.0162857
672.020	0.0162569
672.098	0.0162917
672.176	0.0162392
672.254	0.0163401
672.332	0.0164377
672.410	0.0163577
672.488	0.0163447
672.567	0.0163555
672.645	0.0163535
672.723	0.0164604
672.801	0.0163555
672.879	0.0162775
672.957	0.0163361
673.035	0.0163866
673.113	0.0163128
673.192	0.0162951
673.270	0.0163168
673.348	0.0165137
673.426	0.0162538
673.504	0.0163899
673.582	0.0163792
673.660	0.0162820
673.738	0.0164082
673.817	0.0163345
673.895	0.0162492
673.973	0.0164072
674.051	0.0164349
674.129	0.0162148
674.207	0.0163947
674.285	0.0163465
674.363	0.0163223
674.442	0.0162845
674.520	0.0163307
674.598	0.0162823
674.676	0.0161955
674.754	0.0163506
674.832	0.0162613
674.910	0.0164264
674.988	0.0163288
675.067	0.0163484
675.145	0.0163834
675.223	0.0164186
675.301	0.0162891
675.379	0.0163130
675.457	0.0163374
675.535	0.0162790
675.613	0.0163416
675.692	0.0162562
675.770	0.0163291
675.848	0.0163702
675.926	0.0164159
676.004	0.0163858
676.082	0.0162916
676.160	0.0161914
676.238	0.0163192
676.317	0.0163509
676.395	0.0162350
676.473	0.0161609
676.551	0.0161909
676.629	0.0162608
676.707	0.0163123
676.785	0.0164053
676.863	0.0161891
676.942	0.0161358
677.020	0.0162007
677.098	0.0162521
677.176	0.0163059
677.254	0.0161449
677.332	0.0162012
677.410	0.0163181
677.488	0.0161755
677.567	0.0162819
677.645	0.0161906
677.723	0.0163692
677.801	0.0163888
677.879	0.0164632
677.957	0.0163121
678.035	0.0163283
678.113	0.0163191
678.192	0.0165394
678.270	0.0162571
678.348	0.0164619
678.426	0.0163784
678.504	0.0163399
678.582	0.0164545
678.660	0.0163556
678.738	0.0163597
678.817	0.0163983
678.895	0.0164606
678.973	0.0164010
679.051	0.0163840
679.129	0.0162956
679.207	0.0163329
679.285	0.0162875
679.363	0.0163466
679.442	0.0164222
679.520	0.0163216
679.598	0.0161739
679.676	0.0162708
679.754	0.0163187
679.832	0.0161539
679.910	0.0162453
679.988	0.0161413
680.067	0.0160733
680.145	0.0162834
680.223	0.0162182
680.301	0.0162860
680.379	0.0162124
680.457	0.0161285
680.535	0.0161887
680.613	0.0162025
680.692	0.0163224
680.770	0.0162859
680.848	0.0162334
680.926	0.0163251
681.004	0.0162430
681.082	0.0162873
681.160	0.0163603
681.238	0.0162012
681.317	0.0164049
681.395	0.0164264
681.473	0.0163519
681.551	0.0163911
681.629	0.0164745
681.707	0.0163681
681.785	0.0163660
681.863	0.0163477
681.942	0.0162486
682.020	0.0162467
682.098	0.0163010
682.176	0.0163338
682.254	0.0164246
682.332	0.0163892
682.410	0.0163839
682.488	0.0163908
682.567	0.0163182
682.645	0.0163956
682.723	0.0162695
682.801	0.0163106
682.879	0.0163345
682.957	0.0162575
683.035	0.0162160
683.113	0.0163731
683.192	0.0161328
683.270	0.0163837
683.348	0.0163340
683.426	0.0161919
683.504	0.0161836
683.582	0.0161197
683.660	0.0162813
683.738	0.0162150
683.817	0.0162901
683.895	0.0161720
683.973	0.0163803
684.051	0.0163527
684.129	0.0162544
684.207	0.0165509
684.285	0.0163065
684.363	0.0163007
684.442	0.0164068
684.520	0.0164000
684.598	0.0164726
684.676	0.0163610
684.754	0.0164571
684.832	0.0165513
684.910	0.0163805
684.988	0.0163907
685.067	0.0164491
685.145	0.0163943
685.223	0.0164143
685.301	0.0164119
685.379	0.0164886
685.457	0.0162313
685.535	0.0163585
685.613	0.0162560
685.692	0.0162057
685.770	0.0162955
685.848	0.0163076
685.926	0.0164230
686.004	0.0161520
686.082	0.0160567
686.160	0.0161234
686.238	0.0162162
686.317	0.0161683
686.395	0.0161624
686.473	0.0159798
686.551	0.0160125
686.629	0.0157734
686.707	0.0155657
686.785	0.0153018
686.863	0.0151051
686.942	0.0148434
687.020	0.0147890
687.098	0.0148615
687.176	0.0154785
687.254	0.0163235
687.332	0.0177679
687.410	0.0197427
687.488	0.0221090
687.567	0.0244684
687.645	0.0266708
687.723	0.0281979
687.801	0.0290134
687.879	0.0288261
687.957	0.0273265
688.035	0.0248863
688.113	0.0211916
688.192	0.0167793
688.270	0.0118380
688.348	0.00678596
688.426	0.00203331
688.504	-0.00255028
688.582	-0.00645798
688.660	-0.00942902
688.738	-0.0112107
688.817	-0.0121030
688.895	-0.0116975
688.973	-0.0101488
689.051	-0.00767891
689.129	-0.00437431
689.207	-0.00000938416
689.285	0.00483894
689.363	0.00995697
689.442	0.0152560
689.520	0.0206752
689.598	0.0260095
689.676	0.0313284
689.754	0.0361829
689.832	0.0407609
689.910	0.0450920
689.988	0.0489421
690.067	0.0522833
690.145	0.0546268
690.223	0.0563718
690.301	0.0569674
690.379	0.0565307
690.457	0.0551746
690.535	0.0525536
690.613	0.0491810
690.692	0.0447285
690.770	0.0397453
690.848	0.0340849
690.926	0.0278521
691.004	0.0212482
691.082	0.0148643
691.160	0.00829964
691.238	0.00191696
691.317	-0.00375038
691.395	-0.00912102
691.473	-0.0140680
691.551	-0.0180596
691.629	-0.0213514
691.707	-0.0237743
691.785	-0.0252811
691.863	-0.0258775
691.942	-0.0255208
692.020	-0.0243362
692.098	-0.0222308
692.176	-0.0195063
692.254	-0.0162138
692.332	-0.0125811
692.410	-0.00848541
692.488	-0.00438843
692.567	-0.0000742340
692.645	0.00422165
692.723	0.00833534
692.801	0.0123963
692.879	0.0158732
692.957	0.0192053
693.035	0.0220324
693.113	0.0244834
693.192	0.0264963
693.270	0.0283208
693.348	0.0299416
693.426	0.0311864
693.504	0.0324283
693.582	0.0335306
693.660	0.0346872
693.738	0.0357544
693.817	0.0366640
693.895	0.0375107
693.973	0.0384221
694.051	0.0388713
694.129	0.0395448
694.207	0.0398951
694.285	0.0399288
694.363	0.0398469
694.442	0.0393948
694.520	0.0386729
694.598	0.0378355
694.676	0.0366032
694.754	0.0353934
694.832	0.0336426
694.910	0.0319495
694.988	0.0301003
695.067	0.0281413
695.145	0.0259081
695.223	0.0237245
695.301	0.0217583
695.379	0.0198569
695.457	0.0177149
695.535	0.0156383
695.613	0.0135510
695.692	0.0117230
695.770	0.0102237
695.848	0.00861816
695.926	0.00705582
696.004	0.00573318
696.082	0.00455368
696.160	0.00358971
696.238	0.00283356
696.317	0.00200775
696.395	0.00128258
696.473	0.000956039
696.551	0.000504608
696.629	0.0000572205
696.707	-0.000242157
696.785	-0.000566711
696.863	-0.000707779
696.942	-0.000835342
697.020	-0.000742950
697.098	-0.000615082
697.176	-0.000383072
697.254	0.000174026
697.332	0.000753479
697.410	0.00147591
697.488	0.00225746
697.567	0.00336960
697.645	0.00437645
697.723	0.00573067
697.801	0.00713837
697.879	0.00876442
697.957	0.0101560
698.035	0.0118491
698.113	0.0134428
698.192	0.0149426
698.270	0.0163385
698.348	0.0179344
698.426	0.0191583
698.504	0.0202390
698.582	0.0211487
698.660	0.0220930
698.738	0.0226354
698.817	0.0233433
698.895	0.0236613
698.973	0.0240460
699.051	0.0240284
699.129	0.0241559
699.207	0.0241634
699.285	0.0240708
699.363	0.0239351
699.442	0.0238410
699.520	0.0235976
699.598	0.0233245
699.676	0.0230932
699.754	0.0229380
699.832	0.0229570
699.910	0.0228799
699.988	0.0231397
700.067	0.0233842
700.145	0.0237851
700.223	0.0243441
700.301	0.0248302
700.379	0.0253069
700.457	0.0260553
700.535	0.0265600
700.613	0.0270849
700.692	0.0274129
700.770	0.0275648
700.848	0.0275669
700.926	0.0274334
701.004	0.0268684
701.082	0.0261452
701.160	0.0251451
701.238	0.0242431
701.317	0.0229588
701.395	0.0216536
701.473	0.0202900
701.551	0.0188414
701.629	0.0176038
701.707	0.0163030
701.785	0.0151878
701.863	0.0138697
701.942	0.0127245
702.020	0.0119727
702.098	0.0107790
702.176	0.0101128
702.254	0.00971947
702.332	0.00915894
702.410	0.00863022
702.488	0.00857460
702.567	0.00864326
702.645	0.00896271
702.723	0.00927895
702.801	0.00951012
702.879	0.00999031
702.957	0.0102356
703.035	0.0106822
703.113	0.0109811
703.192	0.0110628
703.270	0.0113013
703.348	0.0113065
703.426	0.0113119
703.504	0.0111648
703.582	0.0111503
703.660	0.0108942
703.738	0.0102334
703.817	0.00986565
703.895	0.00939041
703.973	0.00896477
704.051	0.00849785
704.129	0.00830910
704.207	0.00820572
704.285	0.00824669
704.363	0.00862549
704.442	0.00903046
704.520	0.00943703
704.598	0.00985504
704.676	0.0107573
704.754	0.0115182
704.832	0.0121397
704.910	0.0129445
704.988	0.0137263
705.067	0.0145689
705.145	0.0154851
705.223	0.0163396
705.301	0.0171632
705.379	0.0177933
705.457	0.0185574
705.535	0.0191665
705.613	0.0195335
705.692	0.0197868
705.770	0.0202532
705.848	0.0202660
705.926	0.0205257
706.004	0.0206132
706.082	0.0207483
706.160	0.0208561
706.238	0.0206931
706.317	0.0207268
706.395	0.0208562
706.473	0.0205974
706.551	0.0204656
706.629	0.0203563
706.707	0.0203814
706.785	0.0203740
706.863	0.0203723
706.942	0.0204134
707.020	0.0205285
707.098	0.0205872
707.176	0.0206613
707.254	0.0208762
707.332	0.0211254
707.410	0.0212937
707.488	0.0214226
707.567	0.0214838
707.645	0.0217451
707.723	0.0218275
707.801	0.0220396
707.879	0.0222189
707.957	0.0223308
708.035	0.0222977
708.113	0.0220866
708.192	0.0218165
708.270	0.0216127
708.348	0.0210851
708.426	0.0206627
708.504	0.0201821
708.582	0.0194154
708.660	0.0188898
708.738	0.0182694
708.817	0.0176077
708.895	0.0168465
708.973	0.0162482
709.051	0.0157874
709.129	0.0152620
709.207	0.0146461
709.285	0.0141620
709.363	0.0137386
709.442	0.0135435
709.520	0.0132753
709.598	0.0131068
709.676	0.0128899
709.754	0.0129333
709.832	0.0129884
709.910	0.0129607
709.988	0.0129018
710.067	0.0128390
710.145	0.0129071
710.223	0.0129864
710.301	0.0129288
710.379	0.0128239
710.457	0.0130868
710.535	0.0130660
710.613	0.0130988
710.692	0.0132516
710.770	0.0130235
710.848	0.0130501
710.926	0.0131132
711.004	0.0128220
711.082	0.0128293
711.160	0.0126945
711.238	0.0123994
711.317	0.0124333
711.395	0.0120422
711.473	0.0121417
711.551	0.0118855
711.629	0.0115937
711.707	0.0114443
711.785	0.0116621
711.863	0.0116353
711.942	0.0116616
712.020	0.0117824
712.098	0.0119338
712.176	0.0123055
712.254	0.0125309
712.332	0.0129388
712.410	0.0133305
712.488	0.0137253
712.567	0.0143333
712.645	0.0147162
712.723	0.0150137
712.801	0.0155672
712.879	0.0160348
712.957	0.0165933
713.035	0.0167895
713.113	0.0174524
713.192	0.0178374
713.270	0.0180188
713.348	0.0184141
713.426	0.0187697
713.504	0.0190111
713.582	0.0192596
713.660	0.0194528
713.738	0.0193534
713.817	0.0195588
713.895	0.0195565
713.973	0.0193908
714.051	0.0193302
714.129	0.0191601
714.207	0.0190717
714.285	0.0189165
714.363	0.0188992
714.442	0.0186906
714.520	0.0186166
714.598	0.0185705
714.676	0.0186416
714.754	0.0188091
714.832	0.0188406
714.910	0.0192037
714.988	0.0193155
715.067	0.0196371
715.145	0.0197153
715.223	0.0201019
715.301	0.0204277
715.379	0.0205798
715.457	0.0207317
715.535	0.0208710
715.613	0.0208273
715.692	0.0207599
715.770	0.0204279
715.848	0.0202401
715.926	0.0199107
716.004	0.0194942
716.082	0.0192722
716.160	0.0186940
716.238	0.0181036
716.317	0.0179353
716.395	0.0175242
716.473	0.0170911
716.551	0.0169215
716.629	0.0166856
716.707	0.0161680
716.785	0.0159930
716.863	0.0158399
716.942	0.0156789
717.020	0.0155231
717.098	0.0154028
717.176	0.0153145
717.254	0.0153958
717.332	0.0152966
717.410	0.0151775
717.488	0.0151451
717.567	0.0150710
717.645	0.0149461
717.723	0.0149088
717.801	0.0147974
717.879	0.0150066
717.957	0.0148161
718.035	0.0148341
718.113	0.0146914
718.192	0.0146356
718.270	0.0145718
718.348	0.0144380
718.426	0.0145358
718.504	0.0142653
718.582	0.0140516
718.660	0.0138986
718.738	0.0137273
718.817	0.0134668
718.895	0.0132775
718.973	0.0129926
719.051	0.0129105
719.129	0.0125764
719.207	0.0123996
719.285	0.0123395
719.363	0.0120777
719.442	0.0118661
719.520	0.0117721
719.598	0.0117827
719.676	0.0117877
719.754	0.0118078
719.832	0.0120163
719.910	0.0123418
719.988	0.0126700
720.067	0.0128727
720.145	0.0134618
720.223	0.0137998
720.301	0.0141281
720.379	0.0147840
720.457	0.0150740
720.535	0.0153075
720.613	0.0159027
720.692	0.0161173
720.770	0.0164051
720.848	0.0168461
720.926	0.0171640
721.004	0.0171861
721.082	0.0173994
721.160	0.0174907
721.238	0.0174948
721.317	0.0175840
721.395	0.0178310
721.473	0.0176679
721.551	0.0177036
721.629	0.0177334
721.707	0.0178165
721.785	0.0177859
721.863	0.0178030
721.942	0.0177487
722.020	0.0177643
722.098	0.0179066
722.176	0.0179221
722.254	0.0179850
722.332	0.0183412
722.410	0.0184553
722.488	0.0185582
722.567	0.0188944
722.645	0.0191312
722.723	0.0194278
722.801	0.0198180
722.879	0.0199104
722.957	0.0202229
723.035	0.0204167
723.113	0.0204980
723.192	0.0207690
723.270	0.0206453
723.348	0.0206126
723.426	0.0205181
723.504	0.0203429
723.582	0.0200414
723.660	0.0196019
723.738	0.0191751
723.817	0.0188853
723.895	0.0184975
723.973	0.0183390
724.051	0.0178239
724.129	0.0176024
724.207	0.0173316
724.285	0.0172282
724.363	0.0166991
724.442	0.0166660
724.520	0.0165047
724.598	0.0162685
724.676	0.0161478
724.754	0.0160343
724.832	0.0158997
724.910	0.0157799
724.988	0.0156660
725.067	0.0154213
725.145	0.0154000
725.223	0.0153540
725.301	0.0152881
725.379	0.0152737
725.457	0.0153580
725.535	0.0152261
725.613	0.0153683
725.692	0.0154478
725.770	0.0154221
725.848	0.0153540
725.926	0.0152570
726.004	0.0152087
726.082	0.0153016
726.160	0.0151088
726.238	0.0150531
726.317	0.0150329
726.395	0.0147668
726.473	0.0144919
726.551	0.0143200
726.629	0.0140889
726.707	0.0138815
726.785	0.0135668
726.863	0.0133400
726.942	0.0132294
727.020	0.0129995
727.098	0.0127901
727.176	0.0125652
727.254	0.0124280
727.332	0.0122706
727.410	0.0122112
727.488	0.0122045
727.567	0.0123854
727.645	0.0124959
727.723	0.0126781
727.801	0.0127411
727.879	0.0130379
727.957	0.0134128
728.035	0.0137394
728.113	0.0140655
728.192	0.0145611
728.270	0.0147820
728.348	0.0151788
728.426	0.0154008
728.504	0.0157706
728.582	0.0159541
728.660	0.0163132
728.738	0.0164951
728.817	0.0166669
728.895	0.0168414
728.973	0.0167622
729.051	0.0171155
729.129	0.0172922
729.207	0.0174970
729.285	0.0175729
729.363	0.0177831
729.442	0.0179623
729.520	0.0181717
729.598	0.0181467
729.676	0.0183061
729.754	0.0184172
729.832	0.0184346
729.910	0.0183653
729.988	0.0183103
730.067	0.0185761
730.145	0.0184977
730.223	0.0183119
730.301	0.0182566
730.379	0.0184008
730.457	0.0182475
730.535	0.0183708
730.613	0.0183866
730.692	0.0185406
730.770	0.0187044
730.848	0.0189944
730.926	0.0191725
731.004	0.0194881
731.082	0.0197718
731.160	0.0198127
731.238	0.0202096
731.317	0.0202766
731.395	0.0201176
731.473	0.0200146
731.551	0.0200353
731.629	0.0198024
731.707	0.0194994
731.785	0.0192659
731.863	0.0188541
731.942	0.0185268
732.020	0.0180170
732.098	0.0175279
732.176	0.0171039
732.254	0.0165765
732.332	0.0161900
732.410	0.0156949
732.488	0.0153131
732.567	0.0152499
732.645	0.0149044
732.723	0.0146242
732.801	0.0146087
732.879	0.0144465
732.957	0.0143757
733.035	0.0144215
733.113	0.0144586
733.192	0.0144389
733.270	0.0144898
733.348	0.0146564
733.426	0.0146829
733.504	0.0149236
733.582	0.0150725
733.660	0.0150277
733.738	0.0151460
733.817	0.0153612
733.895	0.0153133
733.973	0.0152973
734.051	0.0151464
734.129	0.0151192
734.207	0.0150978
734.285	0.0150562
734.363	0.0148100
734.442	0.0148004
734.520	0.0145571
734.598	0.0145836
734.676	0.0145661
734.754	0.0141804
734.832	0.0142136
734.910	0.0141026
734.988	0.0138847
735.067	0.0138168
735.145	0.0138855
735.223	0.0137310
735.301	0.0138778
735.379	0.0140054
735.457	0.0138685
735.535	0.0139750
735.613	0.0143600
735.692	0.0145825
735.770	0.0146664
735.848	0.0149512
735.926	0.0151585
736.004	0.0153680
736.082	0.0156778
736.160	0.0159216
736.238	0.0161654
736.317	0.0164892
736.395	0.0165446
736.473	0.0166596
736.551	0.0169646
736.629	0.0170165
736.707	0.0170537
736.785	0.0172690
736.863	0.0171524
736.942	0.0172073
737.020	0.0171105
737.098	0.0172121
737.176	0.0173914
737.254	0.0173978
737.332	0.0173293
737.410	0.0172935
737.488	0.0172681
737.567	0.0172655
737.645	0.0171236
737.723	0.0171640
737.801	0.0169812
737.879	0.0170161
737.957	0.0168913
738.035	0.0168754
738.113	0.0169605
738.192	0.0167324
738.270	0.0169370
738.348	0.0171108
738.426	0.0172294
738.504	0.0174004
738.582	0.0176283
738.660	0.0178290
738.738	0.0178626
738.817	0.0183440
738.895	0.0184200
738.973	0.0186494
739.051	0.0189671
739.129	0.0190955
739.207	0.0193396
739.285	0.0191128
739.363	0.0191866
739.442	0.0191013
739.520	0.0191963
739.598	0.0190011
739.676	0.0188994
739.754	0.0187248
739.832	0.0183385
739.910	0.0182632
739.988	0.0178686
740.067	0.0175507
740.145	0.0172752
740.223	0.0170409
740.301	0.0166916
740.379	0.0164600
740.457	0.0161946
740.535	0.0156819
740.613	0.0155650
740.692	0.0152196
740.770	0.0150674
740.848	0.0150103
740.926	0.0148174
741.004	0.0146593
741.082	0.0145790
741.160	0.0144135
741.238	0.0144701
741.317	0.0143050
741.395	0.0142551
741.473	0.0143844
741.551	0.0144339
741.629	0.0146394
741.707	0.0145352
741.785	0.0146623
741.863	0.0147842
741.942	0.0150591
742.020	0.0150340
742.098	0.0152805
742.176	0.0152773
742.254	0.0153807
742.332	0.0155388
742.410	0.0155171
742.488	0.0156664
742.567	0.0156016
742.645	0.0156631
742.723	0.0157175
742.801	0.0157082
742.879	0.0155784
742.957	0.0154227
743.035	0.0155437
743.113	0.0153740
743.192	0.0153280
743.270	0.0150972
743.348	0.0151249
743.426	0.0151281
743.504	0.0149033
743.582	0.0151414
743.660	0.0150699
743.738	0.0153123
743.817	0.0153899
743.895	0.0155922
743.973	0.0155524
744.051	0.0157496
744.129	0.0157600
744.207	0.0160471
744.285	0.0161078
744.363	0.0161609
744.442	0.0163488
744.520	0.0163068
744.598	0.0164259
744.676	0.0165390
744.754	0.0164699
744.832	0.0163943
744.910	0.0164208
744.988	0.0165079
745.067	0.0164988
745.145	0.0166021
745.223	0.0166068
745.301	0.0165723
745.379	0.0167061
745.457	0.0168275
745.535	0.0167554
745.613	0.0168787
745.692	0.0168533
745.770	0.0168050
745.848	0.0170155
745.926	0.0170808
746.004	0.0171154
746.082	0.0172303
746.160	0.0171082
746.238	0.0171766
746.317	0.0172699
746.395	0.0175173
746.473	0.0174434
746.551	0.0177080
746.629	0.0176451
746.707	0.0177089
746.785	0.0177672
746.863	0.0179052
746.942	0.0179397
747.020	0.0179065
747.098	0.0181003
747.176	0.0180211
747.254	0.0178284
747.332	0.0179084
747.410	0.0178506
747.488	0.0177363
747.567	0.0176942
747.645	0.0175539
747.723	0.0174158
747.801	0.0173407
747.879	0.0172579
747.957	0.0168788
748.035	0.0168044
748.113	0.0166490
748.192	0.0164471
748.270	0.0162651
748.348	0.0160859
748.426	0.0160283
748.504	0.0159087
748.582	0.0155766
748.660	0.0155450
748.738	0.0153901
748.817	0.0154348
748.895	0.0152862
748.973	0.0152465
749.051	0.0152137
749.129	0.0152738
749.207	0.0154437
749.285	0.0154516
749.363	0.0154307
749.442	0.0153951
749.520	0.0156136
749.598	0.0156287
749.676	0.0157393
749.754	0.0156681
749.832	0.0157321
749.910	0.0158247
749.988	0.0157414
750.067	0.0158152
750.145	0.0157606
750.223	0.0158804
750.301	0.0158121
750.379	0.0158224
750.457	0.0157536
750.535	0.0157355
750.613	0.0157670
750.692	0.0155555
750.770	0.0156694
750.848	0.0155621
750.926	0.0155129
751.004	0.0156342
751.082	0.0156628
751.160	0.0153722
751.238	0.0153104
751.317	0.0153248
751.395	0.0152462
751.473	0.0150804
751.551	0.0152419
751.629	0.0152810
751.707	0.0151226
751.785	0.0151620
751.863	0.0152779
751.942	0.0154283
752.020	0.0154065
752.098	0.0155408
752.176	0.0156593
752.254	0.0156705
752.332	0.0157406
752.410	0.0159591
752.488	0.0162003
752.567	0.0163379
752.645	0.0164838
752.723	0.0166053
752.801	0.0167133
752.879	0.0168310
752.957	0.0169722
753.035	0.0170771
753.113	0.0170600
753.192	0.0170942
753.270	0.0172176
753.348	0.0171778
753.426	0.0172955
753.504	0.0173333
753.582	0.0171822
753.660	0.0173096
753.738	0.0171015
753.817	0.0169781
753.895	0.0170145
753.973	0.0169057
754.051	0.0167487
754.129	0.0167541
754.207	0.0167577
754.285	0.0166504
754.363	0.0166147
754.442	0.0167156
754.520	0.0167506
754.598	0.0168707
754.676	0.0169847
754.754	0.0169263
754.832	0.0170037
754.910	0.0171233
754.988	0.0171404
755.067	0.0171736
755.145	0.0173393
755.223	0.0172624
755.301	0.0173357
755.379	0.0173790
755.457	0.0173105
755.535	0.0173909
755.613	0.0172005
755.692	0.0172957
755.770	0.0172015
755.848	0.0170831
755.926	0.0168206
756.004	0.0168546
756.082	0.0167216
756.160	0.0166061
756.238	0.0166809
756.317	0.0164267
756.395	0.0163613
756.473	0.0161837
756.551	0.0162132
756.629	0.0160527
756.707	0.0161115
756.785	0.0159434
756.863	0.0157464
756.942	0.0158722
757.020	0.0158359
757.098	0.0156519
757.176	0.0156825
757.254	0.0157410
757.332	0.0156905
757.410	0.0155148
757.488	0.0155585
757.567	0.0154477
757.645	0.0155228
757.723	0.0157097
757.801	0.0156300
757.879	0.0157728
757.957	0.0156681
758.035	0.0157082
758.113	0.0158656
758.192	0.0158515
758.270	0.0158873
758.348	0.0157950
758.426	0.0159087
758.504	0.0159142
758.582	0.0158656
758.660	0.0157768
758.738	0.0160946
758.817	0.0159456
758.895	0.0158475
758.973	0.0158423
759.051	0.0158662
759.129	0.0157894
759.207	0.0156995
759.285	0.0156549
759.363	0.0155641
759.442	0.0156477
759.520	0.0157470
759.598	0.0154926
759.676	0.0155965
759.754	0.0156590
759.832	0.0156269
759.910	0.0156806
759.988	0.0157290
760.067	0.0158205
760.145	0.0158978
760.223	0.0160106
760.301	0.0160935
760.379	0.0161808
760.457	0.0161668
760.535	0.0163145
760.613	0.0164284
760.692	0.0163423
760.770	0.0165334
760.848	0.0165772
760.926	0.0167126
761.004	0.0165893
761.082	0.0166377
761.160	0.0168620
761.238	0.0168856
761.317	0.0167129
761.395	0.0167329
761.473	0.0166579
761.551	0.0169144
761.629	0.0168378
761.707	0.0167425
761.785	0.0165294
761.863	0.0166726
761.942	0.0165581
762.020	0.0164941
762.098	0.0165614
762.176	0.0164977
762.254	0.0164365
762.332	0.0164748
762.410	0.0165923
762.488	0.0165698
762.567	0.0164761
762.645	0.0165217
762.723	0.0165350
762.801	0.0167345
762.879	0.0166670
762.957	0.0166881
763.035	0.0168324
763.113	0.0167350
763.192	0.0168655
763.270	0.0169061
763.348	0.0170011
763.426	0.0170211
763.504	0.0171675
763.582	0.0171439
763.660	0.0171896
763.738	0.0171461
763.817	0.0170848
763.895	0.0169872
763.973	0.0169555
764.051	0.0169447
764.129	0.0168871
764.207	0.0167383
764.285	0.0168375
764.363	0.0165907
764.442	0.0163489
764.520	0.0162117
764.598	0.0160775
764.676	0.0159256
764.754	0.0159040
764.832	0.0157915
764.910	0.0157206
764.988	0.0156483
765.067	0.0156277
765.145	0.0155624
765.223	0.0155887
765.301	0.0157047
765.379	0.0157301
765.457	0.0157158
765.535	0.0157626
765.613	0.0158727
765.692	0.0159776
765.770	0.0159499
765.848	0.0161133
765.926	0.0160764
766.004	0.0160453
766.082	0.0160258
766.160	0.0160881
766.238	0.0161808
766.317	0.0162689
766.395	0.0163217
766.473	0.0160616
766.551	0.0161965
766.629	0.0161633
766.707	0.0161415
766.785	0.0162917
766.863	0.0160796
766.942	0.0160725
767.020	0.0160326
767.098	0.0160506
767.176	0.0159437
767.254	0.0159353
767.332	0.0157672
767.410	0.0157510
767.488	0.0156712
767.567	0.0155951
767.645	0.0154556
767.723	0.0154068
767.801	0.0153414
767.879	0.0153522
767.957	0.0154160
768.035	0.0154721
768.113	0.0155704
768.192	0.0156532
768.270	0.0156716
768.348	0.0158788
768.426	0.0159631
768.504	0.0159652
768.582	0.0161415
768.660	0.0163052
768.738	0.0163649
768.817	0.0165268
768.895	0.0166396
768.973	0.0166119
769.051	0.0166241
769.129	0.0167264
769.207	0.0168814
769.285	0.0168875
769.363	0.0169922
769.442	0.0170065
769.520	0.0170506
769.598	0.0169666
769.676	0.0169458
769.754	0.0169402
769.832	0.0168543
769.910	0.0167188
769.988	0.0167433
770.067	0.0166746
770.145	0.0166289
770.223	0.0164001
770.301	0.0163107
770.379	0.0163219
770.457	0.0163328
770.535	0.0160798
770.613	0.0159411
770.692	0.0161307
770.770	0.0161783
770.848	0.0162119
770.926	0.0162694
771.004	0.0162144
771.082	0.0162845
771.160	0.0163005
771.238	0.0164253
771.317	0.0165415
771.395	0.0164818
771.473	0.0165939
771.551	0.0165161
771.629	0.0166833
771.707	0.0167208
771.785	0.0167948
771.863	0.0167101
771.942	0.0166904
772.020	0.0167499
772.098	0.0167093
772.176	0.0165089
772.254	0.0165173
772.332	0.0165303
772.410	0.0164252
772.488	0.0164005
772.567	0.0164729
772.645	0.0163477
772.723	0.0163075
772.801	0.0163573
772.879	0.0162633
772.957	0.0162780
773.035	0.0163680
773.113	0.0162768
773.192	0.0163581
773.270	0.0163225
773.348	0.0165047
773.426	0.0163853
773.504	0.0164623
773.582	0.0164456
773.660	0.0164167
773.738	0.0165616
773.817	0.0163504
773.895	0.0164571
773.973	0.0164314
774.051	0.0163718
774.129	0.0163552
774.207	0.0163303
774.285	0.0164561
774.363	0.0162698
774.442	0.0163541
774.520	0.0164111
774.598	0.0162173
774.676	0.0161722
774.754	0.0161317
774.832	0.0160545
774.910	0.0160230
774.988	0.0160851
775.067	0.0160239
775.145	0.0158250
775.223	0.0157677
775.301	0.0156976
775.379	0.0156119
775.457	0.0157735
775.535	0.0155671
775.613	0.0154280
775.692	0.0154961
775.770	0.0157137
775.848	0.0155845
775.926	0.0156142
776.004	0.0156191
776.082	0.0155737
776.160	0.0157491
776.238	0.0157578
776.317	0.0157511
776.395	0.0159433
776.473	0.0159441
776.551	0.0160123
776.629	0.0159716
776.707	0.0158981
776.785	0.0160133
776.863	0.0161511
776.942	0.0161041
777.020	0.0161008
777.098	0.0161253
777.176	0.0161681
777.254	0.0162607
777.332	0.0163130
777.410	0.0162904
777.488	0.0164370
777.567	0.0163373
777.645	0.0165259
777.723	0.0165497
777.801	0.0165175
777.879	0.0164777
777.957	0.0166959
778.035	0.0165616
778.113	0.0165961
778.192	0.0167661
778.270	0.0166299
778.348	0.0165786
778.426	0.0167635
778.504	0.0167352
778.582	0.0166485
778.660	0.0166787
778.738	0.0166605
778.817	0.0167815
778.895	0.0167435
778.973	0.0166160
779.051	0.0167470
779.129	0.0166193
779.207	0.0167468
779.285	0.0168005
779.363	0.0167390
779.442	0.0168298
779.520	0.0168192
779.598	0.0169180
779.676	0.0167188
779.754	0.0168425
779.832	0.0169012
779.910	0.0168739
779.988	0.0166789
780.067	0.0167260
780.145	0.0167590
780.223	0.0167946
780.301	0.0165470
780.379	0.0165897
780.457	0.0165246
780.535	0.0165064
780.613	0.0163811
780.692	0.0163831
780.770	0.0163412
780.848	0.0163314
780.926	0.0163849
781.004	0.0164929
781.082	0.0161433
781.160	0.0163253
781.238	0.0162606
781.317	0.0162253
781.395	0.0162091
781.473	0.0162659
781.551	0.0162445
781.629	0.0162637
781.707	0.0160711
781.785	0.0161066
781.863	0.0161090
781.942	0.0159010
782.020	0.0160118
782.098	0.0159665
782.176	0.0159163
782.254	0.0158144
782.332	0.0158498
782.410	0.0158944
782.488	0.0158881
782.567	0.0159316
782.645	0.0157656
782.723	0.0157248
782.801	0.0157150
782.879	0.0158276
782.957	0.0157785
783.035	0.0157504
783.113	0.0158360
783.192	0.0159195
783.270	0.0158950
783.348	0.0159641
783.426	0.0160043
783.504	0.0160417
783.582	0.0161356
783.660	0.0162436
783.738	0.0162889
783.817	0.0165000
783.895	0.0166589
783.973	0.0166253
784.051	0.0168007
784.129	0.0168587
784.207	0.0168391
784.285	0.0168106
784.363	0.0168320
784.442	0.0167130
784.520	0.0165408
784.598	0.0163026
784.676	0.0161814
784.754	0.0159878
784.832	0.0154944
784.910	0.0153226
784.988	0.0150354
785.067	0.0148161
785.145	0.0145600
785.223	0.0144236
785.301	0.0142106
785.379	0.0142509
785.457	0.0142615
785.535	0.0142426
785.613	0.0144148
785.692	0.0144514
785.770	0.0146529
785.848	0.0150827
785.926	0.0154689
786.004	0.0158116
786.082	0.0161944
786.160	0.0168989
786.238	0.0176480
786.317	0.0182070
786.395	0.0186969
786.473	0.0193800
786.551	0.0199952
786.629	0.0202215
786.707	0.0205961
786.785	0.0207732
786.863	0.0209933
786.942	0.0209417
787.020	0.0208750
787.098	0.0205355
787.176	0.0202052
787.254	0.0198328
787.332	0.0193236
787.410	0.0188419
787.488	0.0182077
787.567	0.0177992
787.645	0.0170152
787.723	0.0163527
787.801	0.0156196
787.879	0.0150553
787.957	0.0144392
788.035	0.0137817
788.113	0.0132969
788.192	0.0127589
788.270	0.0123546
788.348	0.0121802
788.426	0.0118873
788.504	0.0117079
788.582	0.0118266
788.660	0.0116830
788.738	0.0118185
788.817	0.0119597
788.895	0.0120102
788.973	0.0123936
789.051	0.0126610
789.129	0.0128339
789.207	0.0134676
789.285	0.0137180
789.363	0.0141489
789.442	0.0144455
789.520	0.0150198
789.598	0.0152875
789.676	0.0157812
789.754	0.0162328
789.832	0.0164383
789.910	0.0169964
789.988	0.0174151
790.067	0.0177144
790.145	0.0181588
790.223	0.0184441
790.301	0.0188519
790.379	0.0190034
790.457	0.0192722
790.535	0.0193543
790.613	0.0197124
790.692	0.0197649
790.770	0.0198653
790.848	0.0201277
790.926	0.0200111
791.004	0.0200349
791.082	0.0200554
791.160	0.0198862
791.238	0.0197610
791.317	0.0196850
791.395	0.0194827
791.473	0.0192418
791.551	0.0188601
791.629	0.0186729
791.707	0.0184430
791.785	0.0179710
791.863	0.0176184
791.942	0.0172308
792.020	0.0167814
792.098	0.0164803
792.176	0.0161446
792.254	0.0158687
792.332	0.0156851
792.410	0.0154299
792.488	0.0150181
792.567	0.0147290
792.645	0.0146746
792.723	0.0144349
792.801	0.0143237
792.879	0.0141590
792.957	0.0140269
793.035	0.0137569
793.113	0.0137777
793.192	0.0135841
793.270	0.0135401
793.348	0.0133418
793.426	0.0131255
793.504	0.0132122
793.582	0.0129365
793.660	0.0129205
793.738	0.0129242
793.817	0.0128265
793.895	0.0127956
793.973	0.0129404
794.051	0.0130926
794.129	0.0132456
794.207	0.0136081
794.285	0.0136169
794.363	0.0139165
794.442	0.0142625
794.520	0.0146262
794.598	0.0148438
794.676	0.0153970
794.754	0.0155096
794.832	0.0157964
794.910	0.0161737
794.988	0.0166470
795.067	0.0167812
795.145	0.0170028
795.223	0.0172876
795.301	0.0174393
795.379	0.0175860
795.457	0.0178684
795.535	0.0180252
795.613	0.0179368
795.692	0.0181840
795.770	0.0182188
795.848	0.0182522
795.926	0.0184500
796.004	0.0186882
796.082	0.0186022
796.160	0.0186827
796.238	0.0187899
796.317	0.0187777
796.395	0.0188597
796.473	0.0189550
796.551	0.0190814
796.629	0.0190094
796.707	0.0190329
796.785	0.0189281
796.863	0.0188323
796.942	0.0188280
797.020	0.0186494
797.098	0.0183796
797.176	0.0183125
797.254	0.0182406
797.332	0.0180471
797.410	0.0180127
797.488	0.0176743
797.567	0.0173972
797.645	0.0173790
797.723	0.0171539
797.801	0.0170060
797.879	0.0167850
797.957	0.0166090
798.035	0.0164794
798.113	0.0162713
798.192	0.0161223
798.270	0.0159807
798.348	0.0157262
798.426	0.0155058
798.504	0.0153385
798.582	0.0153783
798.660	0.0151068
798.738	0.0150047
798.817	0.0149530
798.895	0.0147475
798.973	0.0145380
799.051	0.0144784
799.129	0.0144732
799.207	0.0144244
799.285	0.0142509
799.363	0.0143014
799.442	0.0142392
799.520	0.0141673
799.598	0.0141480
799.676	0.0142983
799.754	0.0143925
799.832	0.0143793
799.910	0.0144576
799.988	0.0143236
800.067	0.0144169
800.145	0.0143431
800.223	0.0144328
800.301	0.0145494
800.379	0.0145016
800.457	0.0146310
800.535	0.0145206
800.613	0.0146249
800.692	0.0146755
800.770	0.0147287
800.848	0.0148019
800.926	0.0147565
801.004	0.0149252
801.082	0.0151779
801.160	0.0152493
801.238	0.0152676
801.317	0.0154308
801.395	0.0157439
801.473	0.0158807
801.551	0.0159903
801.629	0.0161740
801.707	0.0163925
801.785	0.0166476
801.863	0.0169653
801.942	0.0171360
802.020	0.0174384
802.098	0.0174339
802.176	0.0175260
802.254	0.0178258
802.332	0.0181216
802.410	0.0182116
802.488	0.0182859
802.567	0.0184293
802.645	0.0184761
802.723	0.0186079
802.801	0.0185373
802.879	0.0185803
802.957	0.0188248
803.035	0.0185256
803.113	0.0184817
803.192	0.0185008
803.270	0.0182104
803.348	0.0182145
803.426	0.0179897
803.504	0.0177309
803.582	0.0175250
803.660	0.0174532
803.738	0.0171745
803.817	0.0170410
803.895	0.0168947
803.973	0.0166194
804.051	0.0165097
804.129	0.0165782
804.207	0.0164159
804.285	0.0165687
804.363	0.0163404
804.442	0.0163003
804.520	0.0162350
804.598	0.0162330
804.676	0.0162177
804.754	0.0160342
804.832	0.0160245
804.910	0.0160554
804.988	0.0161636
805.067	0.0159600
805.145	0.0159599
805.223	0.0158377
805.301	0.0160078
805.379	0.0159183
805.457	0.0158685
805.535	0.0158289
805.613	0.0158138
805.692	0.0156940
805.770	0.0157616
805.848	0.0157045
805.926	0.0157362
806.004	0.0157044
806.082	0.0156268
806.160	0.0156984
806.238	0.0157131
806.317	0.0156857
806.395	0.0156842
806.473	0.0156975
806.551	0.0158629
806.629	0.0158434
806.707	0.0158670
806.785	0.0160141
806.863	0.0158111
806.942	0.0160248
807.020	0.0160926
807.098	0.0160072
807.176	0.0160197
807.254	0.0159946
807.332	0.0160561
807.410	0.0160088
807.488	0.0157236
807.567	0.0157608
807.645	0.0159283
807.723	0.0158083
807.801	0.0156749
807.879	0.0156935
807.957	0.0156800
808.035	0.0157937
808.113	0.0155772
808.192	0.0157496
808.270	0.0157793
808.348	0.0156179
808.426	0.0158738
808.504	0.0158691
808.582	0.0154865
808.660	0.0155388
808.738	0.0156803
808.817	0.0155229
808.895	0.0155562
808.973	0.0155668
809.051	0.0155589
809.129	0.0156689
809.207	0.0159944
809.285	0.0158391
809.363	0.0157994
809.442	0.0160471
809.520	0.0163409
809.598	0.0162675
809.676	0.0163628
809.754	0.0166862
809.832	0.0166331
809.910	0.0166184
809.988	0.0167748
810.067	0.0167435
810.145	0.0168452
810.223	0.0169157
810.301	0.0167401
810.379	0.0168462
810.457	0.0168420
810.535	0.0168343
810.613	0.0170504
810.692	0.0169476
810.770	0.0168491
810.848	0.0168166
810.926	0.0168359
811.004	0.0169353
811.082	0.0168562
811.160	0.0170776
811.238	0.0170596
811.317	0.0169826
811.395	0.0171110
811.473	0.0170737
811.551	0.0171964
811.629	0.0171467
811.707	0.0171376
811.785	0.0172102
811.863	0.0171622
811.942	0.0171757
812.020	0.0172534
812.098	0.0171278
812.176	0.0171254
812.254	0.0171158
812.332	0.0170950
812.410	0.0170854
812.488	0.0170663
812.567	0.0170940
812.645	0.0169026
812.723	0.0166764
812.801	0.0165589
812.879	0.0165236
812.957	0.0162881
813.035	0.0163187
813.113	0.0159656
813.192	0.0158387
813.270	0.0158488
813.348	0.0158063
813.426	0.0155415
813.504	0.0156672
813.582	0.0155322
813.660	0.0157143
813.738	0.0158037
813.817	0.0159334
813.895	0.0158926
813.973	0.0159589
814.051	0.0160621
814.129	0.0159580
814.207	0.0163751
814.285	0.0163344
814.363	0.0161798
814.442	0.0163988
814.520	0.0165000
814.598	0.0163779
814.676	0.0165575
814.754	0.0164248
814.832	0.0160377
814.910	0.0161473
814.988	0.0158764
815.067	0.0156760
815.145	0.0156136
815.223	0.0154191
815.301	0.0153104
815.379	0.0150313
815.457	0.0149540
815.535	0.0149449
815.613	0.0148797
815.692	0.0150213
815.770	0.0150321
815.848	0.0149613
815.926	0.0150218
816.004	0.0151599
816.082	0.0154092
816.160	0.0154813
816.238	0.0155779
816.317	0.0156421
816.395	0.0157389
816.473	0.0160323
816.551	0.0161841
816.629	0.0162256
816.707	0.0163286
816.785	0.0164059
816.863	0.0164803
816.942	0.0165340
817.020	0.0166216
817.098	0.0165913
817.176	0.0165998
817.254	0.0167219
817.332	0.0167399
817.410	0.0168517
817.488	0.0167467
817.567	0.0167913
817.645	0.0166492
817.723	0.0165773
817.801	0.0167220
817.879	0.0165176
817.957	0.0165939
818.035	0.0165493
818.113	0.0164661
818.192	0.0163486
818.270	0.0162608
818.348	0.0162468
818.426	0.0162227
818.504	0.0161152
818.582	0.0160811
818.660	0.0161745
818.738	0.0162755
818.817	0.0161986
818.895	0.0162530
818.973	0.0162144
819.051	0.0162473
819.129	0.0162823
819.207	0.0165046
819.285	0.0163770
819.363	0.0165093
819.442	0.0166624
819.520	0.0168795
819.598	0.0169564
819.676	0.0171009
819.754	0.0172389
819.832	0.0172840
819.910	0.0173417
819.988	0.0175997
820.067	0.0177824
820.145	0.0175323
820.223	0.0174129
820.301	0.0175222
820.379	0.0174854
820.457	0.0172553
820.535	0.0172511
820.613	0.0170882
820.692	0.0170770
820.770	0.0169637
820.848	0.0168091
820.926	0.0166460
821.004	0.0165917
821.082	0.0165156
821.160	0.0165615
821.238	0.0164656
821.317	0.0161000
821.395	0.0161813
821.473	0.0162160
821.551	0.0161593
821.629	0.0161087
821.707	0.0160220
821.785	0.0160715
821.863	0.0160271
821.942	0.0159157
822.020	0.0160324
822.098	0.0158745
822.176	0.0161597
822.254	0.0159718
822.332	0.0159510
822.410	0.0160123
822.488	0.0160957
822.567	0.0161179
822.645	0.0159875
822.723	0.0160220
822.801	0.0160334
822.879	0.0158675
822.957	0.0160380
823.035	0.0161632
823.113	0.0160611
823.192	0.0160970
823.270	0.0161242
823.348	0.0161094
823.426	0.0160060
823.504	0.0159262
823.582	0.0158939
823.660	0.0158325
823.738	0.0158411
823.817	0.0156461
823.895	0.0155260
823.973	0.0155186
824.051	0.0154365
824.129	0.0153368
824.207	0.0152792
824.285	0.0153100
824.363	0.0150983
824.442	0.0151432
824.520	0.0150945
824.598	0.0152427
824.676	0.0153000
824.754	0.0153944
824.832	0.0153768
824.910	0.0155930
824.988	0.0156622
825.067	0.0158405
825.145	0.0160058
825.223	0.0161719
825.301	0.0160474
825.379	0.0162514
825.457	0.0162856
825.535	0.0164971
825.613	0.0165665
825.692	0.0166174
825.770	0.0167558
825.848	0.0167126
825.926	0.0168276
826.004	0.0168819
826.082	0.0167940
826.160	0.0169842
826.238	0.0168307
826.317	0.0168827
826.395	0.0170023
826.473	0.0168549
826.551	0.0169827
826.629	0.0169391
826.707	0.0169656
826.785	0.0169074
826.863	0.0169830
826.942	0.0170988
827.020	0.0171196
827.098	0.0171189
827.176	0.0173062
827.254	0.0172318
827.332	0.0173328
827.410	0.0171562
827.488	0.0173331
827.567	0.0173897
827.645	0.0174293
827.723	0.0172072
827.801	0.0171762
827.879	0.0173347
827.957	0.0173106
828.035	0.0171080
828.113	0.0171889
828.192	0.0171154
828.270	0.0171088
828.348	0.0169135
828.426	0.0168693
828.504	0.0168089
828.582	0.0166986
828.660	0.0166802
828.738	0.0164428
828.817	0.0163051
828.895	0.0160788
828.973	0.0161961
829.051	0.0159702
829.129	0.0158834
829.207	0.0158688
829.285	0.0158931
829.363	0.0155409
829.442	0.0156362
829.520	0.0155042
829.598	0.0155022
829.676	0.0154160
829.754	0.0154499
829.832	0.0154964
829.910	0.0154532
829.988	0.0154518
830.067	0.0154351
830.145	0.0154665
830.223	0.0153074
830.301	0.0154633
830.379	0.0153748
830.457	0.0155086
830.535	0.0155641
830.613	0.0155719
830.692	0.0154818
830.770	0.0157100
830.848	0.0154630
830.926	0.0155457
831.004	0.0154928
831.082	0.0156337
831.160	0.0157289
831.238	0.0156890
831.317	0.0156351
831.395	0.0158106
831.473	0.0158240
831.551	0.0158595
831.629	0.0159083
831.707	0.0160028
831.785	0.0161889
831.863	0.0164037
831.942	0.0164778
832.020	0.0165248
832.098	0.0165252
832.176	0.0166538
832.254	0.0168369
832.332	0.0167528
832.410	0.0169094
832.488	0.0169014
832.567	0.0170499
832.645	0.0170638
832.723	0.0170985
832.801	0.0170969
832.879	0.0170123
832.957	0.0169135
833.035	0.0169012
833.113	0.0168812
833.192	0.0168248
833.270	0.0167085
833.348	0.0166586
833.426	0.0166776
833.504	0.0166426
833.582	0.0165282
833.660	0.0164865
833.738	0.0164630
833.817	0.0164749
833.895	0.0163281
833.973	0.0163306
834.051	0.0162843
834.129	0.0163264
834.207	0.0162599
834.285	0.0161863
834.363	0.0162608
834.442	0.0161395
834.520	0.0160237
834.598	0.0158830
834.676	0.0159675
834.754	0.0159570
834.832	0.0159013
834.910	0.0160034
834.988	0.0157841
835.067	0.0158628
835.145	0.0159024
835.223	0.0158122
835.301	0.0158463
835.379	0.0160507
835.457	0.0159588
835.535	0.0159806
835.613	0.0161188
835.692	0.0162766
835.770	0.0162019
835.848	0.0162173
835.926	0.0163428
836.004	0.0164464
836.082	0.0164725
836.160	0.0163982
836.238	0.0164935
836.317	0.0165241
836.395	0.0166564
836.473	0.0164506
836.551	0.0165491
836.629	0.0165995
836.707	0.0165065
836.785	0.0164940
836.863	0.0167031
836.942	0.0166544
837.020	0.0165176
837.098	0.0166779
837.176	0.0167980
837.254	0.0165427
837.332	0.0166341
837.410	0.0166397
837.488	0.0167369
837.567	0.0167026
837.645	0.0165406
837.723	0.0164041
837.801	0.0163775
837.879	0.0165944
837.957	0.0162601
838.035	0.0164423
838.113	0.0164781
838.192	0.0164474
838.270	0.0164708
838.348	0.0164236
838.426	0.0165147
838.504	0.0164301
838.582	0.0164217
838.660	0.0165238
838.738	0.0165025
838.817	0.0163904
838.895	0.0163026
838.973	0.0164043
839.051	0.0165440
839.129	0.0164786
839.207	0.0164272
839.285	0.0163684
839.363	0.0162899
839.442	0.0161782
839.520	0.0160320
839.598	0.0160400
839.676	0.0158572
839.754	0.0158605
839.832	0.0158791
839.910	0.0158764
839.988	0.0159126
840.067	0.0156348
840.145	0.0157751
840.223	0.0157522
840.301	0.0157037
840.379	0.0156231
840.457	0.0156789
840.535	0.0156862
840.613	0.0157798
840.692	0.0158068
840.770	0.0158305
840.848	0.0158081
840.926	0.0158820
841.004	0.0159811
841.082	0.0160001
841.160	0.0160147
841.238	0.0159138
841.317	0.0159265
841.395	0.0160162
841.473	0.0158733
841.551	0.0159767
841.629	0.0159464
841.707	0.0159821
841.785	0.0160940
841.863	0.0159687
841.942	0.0160127
842.020	0.0159814
842.098	0.0160916
842.176	0.0160334
842.254	0.0159285
842.332	0.0161314
842.410	0.0161015
842.488	0.0162415
842.567	0.0162667
842.645	0.0161949
842.723	0.0162299
842.801	0.0164525
842.879	0.0163246
842.957	0.0163263
843.035	0.0164870
843.113	0.0164938
843.192	0.0165047
843.270	0.0166420
843.348	0.0167693
843.426	0.0167999
843.504	0.0167626
843.582	0.0168775
843.660	0.0169736
843.738	0.0168471
843.817	0.0168602
843.895	0.0169943
843.973	0.0171223
844.051	0.0171458
844.129	0.0171300
844.207	0.0172013
844.285	0.0171660
844.363	0.0170642
844.442	0.0170350
844.520	0.0169962
844.598	0.0170535
844.676	0.0169696
844.754	0.0169206
844.832	0.0170420
844.910	0.0168151
844.988	0.0166908
845.067	0.0165697
845.145	0.0165728
845.223	0.0164662
845.301	0.0162997
845.379	0.0164329
845.457	0.0162540
845.535	0.0162618
845.613	0.0161961
845.692	0.0162358
845.770	0.0160045
845.848	0.0161011
845.926	0.0160410
846.004	0.0160753
846.082	0.0159218
846.160	0.0160050
846.238	0.0159891
846.317	0.0159241
846.395	0.0160255
846.473	0.0158814
846.551	0.0158293
846.629	0.0159191
846.707	0.0160018
846.785	0.0160352
846.863	0.0159488
846.942	0.0158829
847.020	0.0157692
847.098	0.0159998
847.176	0.0160195
847.254	0.0159639
847.332	0.0160059
847.410	0.0159212
847.488	0.0158560
847.567	0.0158458
847.645	0.0159676
847.723	0.0159454
847.801	0.0160535
847.879	0.0159510
847.957	0.0158393
848.035	0.0158328
848.113	0.0158189
848.192	0.0157807
848.270	0.0158783
848.348	0.0157229
848.426	0.0157832
848.504	0.0158601
848.582	0.0158536
848.660	0.0157668
848.738	0.0160161
848.817	0.0161835
848.895	0.0161417
848.973	0.0161247
849.051	0.0163216
849.129	0.0163668
849.207	0.0164193
849.285	0.0165024
849.363	0.0165846
849.442	0.0167781
849.520	0.0166858
849.598	0.0167981
849.676	0.0170060
849.754	0.0167451
849.832	0.0169065
849.910	0.0168885
849.988	0.0167224
850.067	0.0167994
850.145	0.0167762
850.223	0.0169210
850.301	0.0168808
850.379	0.0167805
850.457	0.0167736
850.535	0.0167346
850.613	0.0168357
850.692	0.0167056
850.770	0.0167390
850.848	0.0167387
850.926	0.0166708
851.004	0.0166659
851.082	0.0165659
851.160	0.0164632
851.238	0.0164012
851.317	0.0163398
851.395	0.0165311
851.473	0.0163229
851.551	0.0162319
851.629	0.0161932
851.707	0.0162157
851.785	0.0161283
851.863	0.0160995
851.942	0.0161585
852.020	0.0160267
852.098	0.0160235
852.176	0.0159805
852.254	0.0159860
852.332	0.0159998
852.410	0.0161079
852.488	0.0158932
852.567	0.0160550
852.645	0.0159770
852.723	0.0160603
852.801	0.0160184
852.879	0.0160785
852.957	0.0162153
853.035	0.0162422
853.113	0.0163811
853.192	0.0163573
853.270	0.0163041
853.348	0.0162705
853.426	0.0162279
853.504	0.0163863
853.582	0.0164178
853.660	0.0164874
853.738	0.0162852
853.817	0.0164848
853.895	0.0164942
853.973	0.0165032
854.051	0.0164807
854.129	0.0165031
854.207	0.0164369
854.285	0.0165401
854.363	0.0165833
854.442	0.0164485
854.520	0.0164265
854.598	0.0163437
854.676	0.0162670
854.754	0.0163229
854.832	0.0161848
854.910	0.0160703
854.988	0.0161675
855.067	0.0161427
855.145	0.0161678
855.223	0.0160794
855.301	0.0161923
855.379	0.0161806
855.457	0.0161823
855.535	0.0162759
855.613	0.0160899
855.692	0.0162792
855.770	0.0161067
855.848	0.0163836
855.926	0.0161588
856.004	0.0161372
856.082	0.0162164
856.160	0.0163324
856.238	0.0162160
856.317	0.0163717
856.395	0.0163444
856.473	0.0162943
856.551	0.0161839
856.629	0.0163136
856.707	0.0163801
856.785	0.0162101
856.863	0.0162440
856.942	0.0162117
857.020	0.0162282
857.098	0.0161176
857.176	0.0161635
857.254	0.0161951
857.332	0.0160462
857.410	0.0161247
857.488	0.0161016
857.567	0.0162140
857.645	0.0163934
857.723	0.0163158
857.801	0.0162823
857.879	0.0162129
857.957	0.0163637
858.035	0.0162979
858.113	0.0164340
858.192	0.0164626
858.270	0.0163034
858.348	0.0163802
858.426	0.0162248
858.504	0.0162710
858.582	0.0161944
858.660	0.0161640
858.738	0.0162049
858.817	0.0161724
858.895	0.0161299
858.973	0.0159808
859.051	0.0160062
859.129	0.0160483
859.207	0.0160571
859.285	0.0160040
859.363	0.0159795
859.442	0.0160081
859.520	0.0159704
859.598	0.0159238
859.676	0.0159627
859.754	0.0159510
859.832	0.0160222
859.910	0.0160040
859.988	0.0161372
860.067	0.0161540
860.145	0.0161716
860.223	0.0162817
860.301	0.0164079
860.379	0.0164644
860.457	0.0167120
860.535	0.0165314
860.613	0.0168444
860.692	0.0166695
860.770	0.0167370
860.848	0.0169107
860.926	0.0167768
861.004	0.0166113
861.082	0.0167496
861.160	0.0166932
861.238	0.0166813
861.317	0.0167154
861.395	0.0167371
861.473	0.0166539
861.551	0.0166129
861.629	0.0167307
861.707	0.0168575
861.785	0.0167593
861.863	0.0166207
861.942	0.0164916
862.020	0.0165001
862.098	0.0165710
862.176	0.0164789
862.254	0.0163400
862.332	0.0162184
862.410	0.0163960
862.488	0.0162284
862.567	0.0161189
862.645	0.0162180
862.723	0.0160649
862.801	0.0161076
862.879	0.0160891
862.957	0.0161244
863.035	0.0160596
863.113	0.0160170
863.192	0.0160851
863.270	0.0160804
863.348	0.0161055
863.426	0.0161343
863.504	0.0162035
863.582	0.0162189
863.660	0.0161691
863.738	0.0160950
863.817	0.0160927
863.895	0.0160122
863.973	0.0159763
864.051	0.0158788
864.129	0.0158995
864.207	0.0159362
864.285	0.0158840
864.363	0.0159134
864.442	0.0158437
864.520	0.0159972
864.598	0.0161055
864.676	0.0160811
864.754	0.0161727
864.832	0.0161977
864.910	0.0162994
864.988	0.0162105
865.067	0.0162339
865.145	0.0160510
865.223	0.0160715
865.301	0.0160795
865.379	0.0158974
865.457	0.0159688
865.535	0.0157401
865.613	0.0158767
865.692	0.0159930
865.770	0.0159473
865.848	0.0158697
865.926	0.0159828
866.004	0.0161935
866.082	0.0162893
866.160	0.0162378
866.238	0.0163669
866.317	0.0165185
866.395	0.0164617
866.473	0.0165525
866.551	0.0164821
866.629	0.0164497
866.707	0.0164055
866.785	0.0164481
866.863	0.0163292
866.942	0.0163701
867.020	0.0163448
867.098	0.0164043
867.176	0.0164005
867.254	0.0163892
867.332	0.0165176
867.410	0.0164590
867.488	0.0165849
867.567	0.0165646
867.645	0.0166645
867.723	0.0166205
867.801	0.0166563
867.879	0.0165662
867.957	0.0165589
868.035	0.0167551
868.113	0.0166539
868.192	0.0165913
868.270	0.0165642
868.348	0.0164783
868.426	0.0163960
868.504	0.0164169
868.582	0.0163088
868.660	0.0164896
868.738	0.0163320
868.817	0.0163381
868.895	0.0162225
868.973	0.0161922
869.051	0.0162707
869.129	0.0161596
869.207	0.0163046
869.285	0.0162011
869.363	0.0162275
869.442	0.0162786
869.520	0.0162154
869.598	0.0161967
869.676	0.0161623
869.754	0.0161922
869.832	0.0162405
869.910	0.0160751
869.988	0.0160206
870.067	0.0162373
870.145	0.0163396
870.223	0.0161597
870.301	0.0161725
870.379	0.0161395
870.457	0.0162206
870.535	0.0162558
870.613	0.0163024
870.692	0.0162480
870.770	0.0164008
870.848	0.0163232
870.926	0.0163061
871.004	0.0163801
871.082	0.0164979
871.160	0.0164715
871.238	0.0163215
871.317	0.0164292
871.395	0.0163320
871.473	0.0162862
871.551	0.0164139
871.629	0.0164348
871.707	0.0163078
871.785	0.0161917
871.863	0.0162816
871.942	0.0161426
872.020	0.0161639
872.098	0.0162064
872.176	0.0162669
872.254	0.0162946
872.332	0.0163152
872.410	0.0163345
872.488	0.0162807
872.567	0.0162962
872.645	0.0163538
872.723	0.0163118
872.801	0.0163450
872.879	0.0164563
872.957	0.0163698
873.035	0.0161095
873.113	0.0162878
873.192	0.0161872
873.270	0.0161931
873.348	0.0162217
873.426	0.0160577
873.504	0.0160975
873.582	0.0160773
873.660	0.0161083
873.738	0.0161634
873.817	0.0161934
873.895	0.0159946
873.973	0.0160278
874.051	0.0158552
874.129	0.0160713
874.207	0.0159136
874.285	0.0161093
874.363	0.0158955
874.442	0.0160258
874.520	0.0161606
874.598	0.0161456
874.676	0.0161807
874.754	0.0162569
874.832	0.0163085
874.910	0.0163045
874.988	0.0161694
875.067	0.0161834
875.145	0.0162469
875.223	0.0162962
875.301	0.0162401
875.379	0.0162522
875.457	0.0161541
875.535	0.0161907
875.613	0.0161904
875.692	0.0161634
875.770	0.0160622
875.848	0.0162475
875.926	0.0161350
876.004	0.0163188
876.082	0.0163316
876.160	0.0162844
876.238	0.0163853
876.317	0.0163636
876.395	0.0164288
876.473	0.0166110
876.551	0.0166727
876.629	0.0167224
876.707	0.0166814
876.785	0.0168205
876.863	0.0167731
876.942	0.0167578
877.020	0.0166660
877.098	0.0168508
877.176	0.0168687
877.254	0.0168427
877.332	0.0166447
877.410	0.0166468
877.488	0.0166396
877.567	0.0165408
877.645	0.0164281
877.723	0.0164391
877.801	0.0164849
877.879	0.0163567
877.957	0.0163907
878.035	0.0164241
878.113	0.0162295
878.192	0.0162391
878.270	0.0162524
878.348	0.0162753
878.426	0.0161539
878.504	0.0160393
878.582	0.0158658
878.660	0.0158985
878.738	0.0158180
878.817	0.0158765
878.895	0.0159404
878.973	0.0159084
879.051	0.0162047
879.129	0.0164243
879.207	0.0167478
879.285	0.0167735
879.363	0.0170297
879.442	0.0171408
879.520	0.0170911
879.598	0.0172063
879.676	0.0170670
879.754	0.0168143
879.832	0.0165776
879.910	0.0162122
879.988	0.0157837
880.067	0.0151591
880.145	0.0146348
880.223	0.0142305
880.301	0.0138469
880.379	0.0135542
880.457	0.0135799
880.535	0.0137121
880.613	0.0138734
880.692	0.0142207
880.770	0.0150374
880.848	0.0155486
880.926	0.0161850
881.004	0.0168719
881.082	0.0174944
881.160	0.0180955
881.238	0.0185344
881.317	0.0189381
881.395	0.0193830
881.473	0.0194848
881.551	0.0195094
881.629	0.0194821
881.707	0.0193835
881.785	0.0193600
881.863	0.0190697
881.942	0.0187350
882.020	0.0183469
882.098	0.0178854
882.176	0.0172124
882.254	0.0167109
882.332	0.0161262
882.410	0.0154784
882.488	0.0149457
882.567	0.0144547
882.645	0.0140104
882.723	0.0135668
882.801	0.0130891
882.879	0.0129060
882.957	0.0126649
883.035	0.0128102
883.113	0.0127113
883.192	0.0127032
883.270	0.0129122
883.348	0.0131606
883.426	0.0134202
883.504	0.0137737
883.582	0.0140443
883.660	0.0144727
883.738	0.0149038
883.817	0.0153423
883.895	0.0157847
883.973	0.0162910
884.051	0.0168501
884.129	0.0174352
884.207	0.0177151
884.285	0.0179081
884.363	0.0183850
884.442	0.0188268
884.520	0.0188624
884.598	0.0188498
884.676	0.0191472
884.754	0.0190065
884.832	0.0185711
884.910	0.0185059
884.988	0.0184840
885.067	0.0181072
885.145	0.0178987
885.223	0.0177302
885.301	0.0175388
885.379	0.0175066
885.457	0.0171950
885.535	0.0171143
885.613	0.0170387
885.692	0.0168012
885.770	0.0165391
885.848	0.0164137
885.926	0.0162618
886.004	0.0161608
886.082	0.0160474
886.160	0.0159964
886.238	0.0160598
886.317	0.0160175
886.395	0.0159582
886.473	0.0159689
886.551	0.0162049
886.629	0.0162852
886.707	0.0161933
886.785	0.0162313
886.863	0.0162075
886.942	0.0162151
887.020	0.0160818
887.098	0.0160267
887.176	0.0159691
887.254	0.0158939
887.332	0.0157244
887.410	0.0156275
887.488	0.0154085
887.567	0.0154317
887.645	0.0154057
887.723	0.0154105
887.801	0.0153969
887.879	0.0153325
887.957	0.0152934
888.035	0.0153381
888.113	0.0154359
888.192	0.0154273
888.270	0.0157606
888.348	0.0157203
888.426	0.0157273
888.504	0.0159537
888.582	0.0161380
888.660	0.0160138
888.738	0.0159809
888.817	0.0161031
888.895	0.0162732
888.973	0.0163350
889.051	0.0164282
889.129	0.0163927
889.207	0.0165208
889.285	0.0165057
889.363	0.0166003
889.442	0.0167702
889.520	0.0166882
889.598	0.0167231
889.676	0.0167475
889.754	0.0168889
889.832	0.0166724
889.910	0.0167451
889.988	0.0167200
890.067	0.0168999
890.145	0.0167794
890.223	0.0168917
890.301	0.0167999
890.379	0.0167928
890.457	0.0167522
890.535	0.0167000
890.613	0.0166334
890.692	0.0165235
890.770	0.0162791
890.848	0.0162205
890.926	0.0160496
891.004	0.0159515
891.082	0.0156992
891.160	0.0156228
891.238	0.0156268
891.317	0.0155502
891.395	0.0155130
891.473	0.0155713
891.551	0.0153905
891.629	0.0154258
891.707	0.0155898
891.785	0.0155594
891.863	0.0156644
891.942	0.0156982
892.020	0.0157636
892.098	0.0157352
892.176	0.0158710
892.254	0.0160027
892.332	0.0161803
892.410	0.0162415
892.488	0.0162331
892.567	0.0162701
892.645	0.0162928
892.723	0.0163358
892.801	0.0162749
892.879	0.0162444
892.957	0.0163262
893.035	0.0163048
893.113	0.0163687
893.192	0.0163200
893.270	0.0164068
893.348	0.0164542
893.426	0.0164291
893.504	0.0163338
893.582	0.0163764
893.660	0.0164603
893.738	0.0165720
893.817	0.0167535
893.895	0.0168753
893.973	0.0169852
894.051	0.0169009
894.129	0.0170520
894.207	0.0170929
894.285	0.0171590
894.363	0.0172563
894.442	0.0173522
894.520	0.0173767
894.598	0.0174861
894.676	0.0174767
894.754	0.0173767
894.832	0.0173898
894.910	0.0174352
894.988	0.0173193
895.067	0.0172368
895.145	0.0171912
895.223	0.0169350
895.301	0.0168993
895.379	0.0167490
895.457	0.0165492
895.535	0.0164176
895.613	0.0163132
895.692	0.0162126
895.770	0.0161060
895.848	0.0158611
895.926	0.0158083
896.004	0.0156969
896.082	0.0157551
896.160	0.0157897
896.238	0.0157726
896.317	0.0156776
896.395	0.0159388
896.473	0.0158063
896.551	0.0158788
896.629	0.0159225
896.707	0.0159561
896.785	0.0159352
896.863	0.0159573
896.942	0.0160466
897.020	0.0159865
897.098	0.0160721
897.176	0.0160878
897.254	0.0161185
897.332	0.0160017
897.410	0.0159628
897.488	0.0159404
897.567	0.0161015
897.645	0.0160297
897.723	0.0159241
897.801	0.0157614
897.879	0.0156631
897.957	0.0156721
898.035	0.0154018
898.113	0.0153491
898.192	0.0151784
898.270	0.0149896
898.348	0.0148939
898.426	0.0148763
898.504	0.0148335
898.582	0.0147893
898.660	0.0147784
898.738	0.0147428
898.817	0.0146611
898.895	0.0145377
898.973	0.0146149
899.051	0.0147499
899.129	0.0149649
899.207	0.0149705
899.285	0.0152549
899.363	0.0154738
899.442	0.0158121
899.520	0.0159854
899.598	0.0163078
899.676	0.0166076
899.754	0.0170017
899.832	0.0174077
899.910	0.0175233
899.988	0.0177527
900.067	0.0179789
900.145	0.0181992
900.223	0.0182121
900.301	0.0183305
900.379	0.0181679
900.457	0.0183454
900.535	0.0181059
900.613	0.0183429
900.692	0.0181440
900.770	0.0179049
900.848	0.0178749
900.926	0.0178054
901.004	0.0176667
901.082	0.0175510
901.160	0.0172929
901.238	0.0170815
901.317	0.0170743
901.395	0.0169772
901.473	0.0168954
901.551	0.0168529
901.629	0.0167694
901.707	0.0167628
901.785	0.0165581
901.863	0.0165173
901.942	0.0165134
902.020	0.0164958
902.098	0.0164437
902.176	0.0163996
902.254	0.0164011
902.332	0.0163593
902.410	0.0163521
902.488	0.0162843
902.567	0.0162563
902.645	0.0161605
902.723	0.0162191
902.801	0.0159174
902.879	0.0158285
902.957	0.0159895
903.035	0.0157750
903.113	0.0157124
903.192	0.0157661
903.270	0.0156001
903.348	0.0153912
903.426	0.0155595
903.504	0.0155978
903.582	0.0155824
903.660	0.0155707
903.738	0.0155629
903.817	0.0155865
903.895	0.0155669
903.973	0.0155540
904.051	0.0156441
904.129	0.0157542
904.207	0.0157875
904.285	0.0158983
904.363	0.0156848
904.442	0.0158237
904.520	0.0160030
904.598	0.0157777
904.676	0.0158620
904.754	0.0158305
904.832	0.0158997
904.910	0.0157687
904.988	0.0157238
905.067	0.0158603
905.145	0.0160427
905.223	0.0160250
905.301	0.0158750
905.379	0.0159695
905.457	0.0160291
905.535	0.0159445
905.613	0.0159402
905.692	0.0158490
905.770	0.0159226
905.848	0.0157298
905.926	0.0158878
906.004	0.0158773
906.082	0.0158729
906.160	0.0159205
906.238	0.0158373
906.317	0.0159441
906.395	0.0160712
906.473	0.0161383
906.551	0.0162193
906.629	0.0163694
906.707	0.0162976
906.785	0.0162564
906.863	0.0166508
906.942	0.0166889
907.020	0.0166637
907.098	0.0167793
907.176	0.0166824
907.254	0.0167488
907.332	0.0167953
907.410	0.0167281
907.488	0.0166408
907.567	0.0166041
907.645	0.0166911
907.723	0.0165119
907.801	0.0166132
907.879	0.0165206
907.957	0.0166229
908.035	0.0166460
908.113	0.0166529
908.192	0.0165283
908.270	0.0166179
908.348	0.0166942
908.426	0.0167673
908.504	0.0168311
908.582	0.0169025
908.660	0.0169846
908.738	0.0168781
908.817	0.0167551
908.895	0.0168147
908.973	0.0169328
909.051	0.0167495
909.129	0.0170251
909.207	0.0167317
909.285	0.0167948
909.363	0.0167319
909.442	0.0167601
909.520	0.0167650
909.598	0.0165830
909.676	0.0164827
909.754	0.0164841
909.832	0.0164042
909.910	0.0164666
909.988	0.0165819
910.067	0.0164275
910.145	0.0164180
910.223	0.0165551
910.301	0.0162881
910.379	0.0163920
910.457	0.0163079
910.535	0.0162793
910.613	0.0163698
910.692	0.0162325
910.770	0.0161401
910.848	0.0160587
910.926	0.0159655
911.004	0.0159586
911.082	0.0159426
911.160	0.0158920
911.238	0.0158465
911.317	0.0159070
911.395	0.0158950
911.473	0.0159547
911.551	0.0159752
911.629	0.0159606
911.707	0.0159911
911.785	0.0160592
911.863	0.0161095
911.942	0.0162199
912.020	0.0162326
912.098	0.0162268
912.176	0.0163181
912.254	0.0163480
912.332	0.0163052
912.410	0.0163078
912.488	0.0163708
912.567	0.0164725
912.645	0.0162836
912.723	0.0164624
912.801	0.0162842
912.879	0.0164725
912.957	0.0163132
913.035	0.0163849
913.113	0.0163463
913.192	0.0162327
913.270	0.0162524
913.348	0.0162408
913.426	0.0163521
913.504	0.0160866
913.582	0.0160419
913.660	0.0160500
913.738	0.0159190
913.817	0.0159328
913.895	0.0158782
913.973	0.0158963
914.051	0.0158342
914.129	0.0157588
914.207	0.0157599
914.285	0.0157935
914.363	0.0159243
914.442	0.0159275
914.520	0.0157520
914.598	0.0157933
914.676	0.0159244
914.754	0.0158066
914.832	0.0158625
914.910	0.0156718
914.988	0.0158632
915.067	0.0159068
915.145	0.0158089
915.223	0.0158131
915.301	0.0158038
915.379	0.0157662
915.457	0.0159184
915.535	0.0160590
915.613	0.0160609
915.692	0.0159436
915.770	0.0158851
915.848	0.0159101
915.926	0.0160342
916.004	0.0159833
916.082	0.0159769
916.160	0.0161273
916.238	0.0160156
916.317	0.0158731
916.395	0.0158843
916.473	0.0161759
916.551	0.0162508
916.629	0.0162904
916.707	0.0163973
916.785	0.0166881
916.863	0.0166477
916.942	0.0169090
917.020	0.0170631
917.098	0.0172797
917.176	0.0173779
917.254	0.0175708
917.332	0.0176704
917.410	0.0179192
917.488	0.0180931
917.567	0.0176871
917.645	0.0179855
917.723	0.0179266
917.801	0.0177768
917.879	0.0179434
917.957	0.0178348
918.035	0.0177019
918.113	0.0175589
918.192	0.0173400
918.270	0.0173434
918.348	0.0172277
918.426	0.0170430
918.504	0.0170459
918.582	0.0167165
918.660	0.0167302
918.738	0.0166262
918.817	0.0164978
918.895	0.0165022
918.973	0.0163087
919.051	0.0161722
919.129	0.0162144
919.207	0.0161652
919.285	0.0159763
919.363	0.0158952
919.442	0.0157985
919.520	0.0157877
919.598	0.0156617
919.676	0.0156607
919.754	0.0155075
919.832	0.0156358
919.910	0.0154996
