05/25/2022	22:59:25	Ver.	4.1	UNKNOWN
Optical Delay	599.995081	Delta X		0.078125	Sweeps	1	Scan Rate	0/0
Coordinates	Axis 1	NaN	Axis 2	NaN	Axis 3	NaN	Axis 4	NaN	Axis 5	NaN	Axis 6	0.000000
TX Power	0.000000	RX Power	0.000000

599.995	0.0171854
600.073	0.0173055
600.151	0.0172453
600.229	0.0170400
600.308	0.0171693
600.386	0.0171426
600.464	0.0171817
600.542	0.0171436
600.620	0.0171828
600.698	0.0172903
600.776	0.0172887
600.854	0.0172044
600.933	0.0172659
601.011	0.0172412
601.089	0.0172028
601.167	0.0171114
601.245	0.0172008
601.323	0.0173467
601.401	0.0172518
601.479	0.0171966
601.558	0.0172304
601.636	0.0172758
601.714	0.0171529
601.792	0.0172694
601.870	0.0172161
601.948	0.0172317
602.026	0.0172721
602.104	0.0172430
602.183	0.0172305
602.261	0.0171730
602.339	0.0170689
602.417	0.0172421
602.495	0.0172214
602.573	0.0171764
602.651	0.0173289
602.729	0.0172206
602.808	0.0172482
602.886	0.0172510
602.964	0.0170786
603.042	0.0172314
603.120	0.0171562
603.198	0.0173153
603.276	0.0172698
603.354	0.0172391
603.433	0.0172002
603.511	0.0171316
603.589	0.0171904
603.667	0.0173182
603.745	0.0172369
603.823	0.0171264
603.901	0.0173445
603.979	0.0173259
604.058	0.0171906
604.136	0.0173486
604.214	0.0172915
604.292	0.0172910
604.370	0.0172464
604.448	0.0172780
604.526	0.0172259
604.604	0.0171066
604.683	0.0172894
604.761	0.0173465
604.839	0.0171014
604.917	0.0172329
604.995	0.0172872
605.073	0.0171466
605.151	0.0173217
605.229	0.0172373
605.308	0.0171983
605.386	0.0173360
605.464	0.0173170
605.542	0.0172845
605.620	0.0172206
605.698	0.0172044
605.776	0.0171404
605.854	0.0172545
605.933	0.0172667
606.011	0.0170901
606.089	0.0172690
606.167	0.0172147
606.245	0.0171701
606.323	0.0171723
606.401	0.0174004
606.479	0.0172220
606.558	0.0172096
606.636	0.0173093
606.714	0.0171832
606.792	0.0172534
606.870	0.0171783
606.948	0.0173032
607.026	0.0173278
607.104	0.0172884
607.183	0.0172355
607.261	0.0171862
607.339	0.0173559
607.417	0.0171661
607.495	0.0172631
607.573	0.0171107
607.651	0.0171409
607.729	0.0172440
607.808	0.0171980
607.886	0.0172626
607.964	0.0172871
608.042	0.0172392
608.120	0.0173328
608.198	0.0173192
608.276	0.0172860
608.354	0.0172589
608.433	0.0173672
608.511	0.0172548
608.589	0.0173017
608.667	0.0171603
608.745	0.0171945
608.823	0.0173278
608.901	0.0172342
608.979	0.0171120
609.058	0.0171859
609.136	0.0171305
609.214	0.0171593
609.292	0.0170597
609.370	0.0172136
609.448	0.0170345
609.526	0.0170506
609.604	0.0168602
609.683	0.0170439
609.761	0.0170628
609.839	0.0170849
609.917	0.0171056
609.995	0.0171081
610.073	0.0172233
610.151	0.0172484
610.229	0.0171482
610.308	0.0172200
610.386	0.0173756
610.464	0.0173432
610.542	0.0173104
610.620	0.0172562
610.698	0.0174091
610.776	0.0174232
610.854	0.0174514
610.933	0.0174375
611.011	0.0173508
611.089	0.0174458
611.167	0.0173663
611.245	0.0174752
611.323	0.0173226
611.401	0.0172185
611.479	0.0173280
611.558	0.0172339
611.636	0.0172485
611.714	0.0172929
611.792	0.0172018
611.870	0.0170097
611.948	0.0172276
612.026	0.0172106
612.104	0.0170986
612.183	0.0170547
612.261	0.0171405
612.339	0.0170691
612.417	0.0171859
612.495	0.0170925
612.573	0.0170913
612.651	0.0172049
612.729	0.0169737
612.808	0.0170017
612.886	0.0170668
612.964	0.0171207
613.042	0.0170882
613.120	0.0170647
613.198	0.0172330
613.276	0.0172610
613.354	0.0171206
613.433	0.0171428
613.511	0.0172449
613.589	0.0171931
613.667	0.0172050
613.745	0.0172603
613.823	0.0173485
613.901	0.0172862
613.979	0.0173310
614.058	0.0173695
614.136	0.0172294
614.214	0.0173332
614.292	0.0171352
614.370	0.0173380
614.448	0.0172960
614.526	0.0173129
614.604	0.0173534
614.683	0.0173211
614.761	0.0172983
614.839	0.0172337
614.917	0.0172566
614.995	0.0171859
615.073	0.0172839
615.151	0.0174281
615.229	0.0173046
615.308	0.0173253
615.386	0.0172612
615.464	0.0173145
615.542	0.0173923
615.620	0.0173099
615.698	0.0173362
615.776	0.0174185
615.854	0.0173063
615.933	0.0173236
616.011	0.0173356
616.089	0.0172894
616.167	0.0173347
616.245	0.0171590
616.323	0.0172413
616.401	0.0171962
616.479	0.0172970
616.558	0.0172009
616.636	0.0171426
616.714	0.0171969
616.792	0.0171758
616.870	0.0171922
616.948	0.0171188
617.026	0.0171777
617.104	0.0171364
617.183	0.0172038
617.261	0.0172304
617.339	0.0171899
617.417	0.0170944
617.495	0.0172604
617.573	0.0171371
617.651	0.0171720
617.729	0.0170792
617.808	0.0171210
617.886	0.0171301
617.964	0.0171423
618.042	0.0171063
618.120	0.0170961
618.198	0.0172032
618.276	0.0171142
618.354	0.0170448
618.433	0.0172203
618.511	0.0172325
618.589	0.0172591
618.667	0.0170761
618.745	0.0171310
618.823	0.0172416
618.901	0.0172057
618.979	0.0172633
619.058	0.0171391
619.136	0.0170915
619.214	0.0172060
619.292	0.0173022
619.370	0.0172999
619.448	0.0171218
619.526	0.0172015
619.604	0.0171298
619.683	0.0171039
619.761	0.0173119
619.839	0.0172623
619.917	0.0172170
619.995	0.0172514
620.073	0.0172481
620.151	0.0171816
620.229	0.0171727
620.308	0.0172008
620.386	0.0172800
620.464	0.0173360
620.542	0.0172692
620.620	0.0172829
620.698	0.0172819
620.776	0.0170934
620.854	0.0171854
620.933	0.0173472
621.011	0.0171384
621.089	0.0172266
621.167	0.0174076
621.245	0.0172651
621.323	0.0172865
621.401	0.0173151
621.479	0.0173582
621.558	0.0173138
621.636	0.0172359
621.714	0.0172540
621.792	0.0173659
621.870	0.0173341
621.948	0.0174234
622.026	0.0173185
622.104	0.0171744
622.183	0.0172126
622.261	0.0173751
622.339	0.0172453
622.417	0.0172904
622.495	0.0174168
622.573	0.0173737
622.651	0.0172234
622.729	0.0172442
622.808	0.0171441
622.886	0.0172148
622.964	0.0173000
623.042	0.0171658
623.120	0.0171775
623.198	0.0172263
623.276	0.0170779
623.354	0.0171988
623.433	0.0171548
623.511	0.0171993
623.589	0.0171653
623.667	0.0171786
623.745	0.0171169
623.823	0.0171967
623.901	0.0172791
623.979	0.0172469
624.058	0.0171922
624.136	0.0172375
624.214	0.0172906
624.292	0.0171283
624.370	0.0171017
624.448	0.0172480
624.526	0.0172635
624.604	0.0172011
624.683	0.0172351
624.761	0.0172078
624.839	0.0173629
624.917	0.0172263
624.995	0.0173185
625.073	0.0171633
625.151	0.0172434
625.229	0.0171837
625.308	0.0171754
625.386	0.0172607
625.464	0.0171185
625.542	0.0172974
625.620	0.0172878
625.698	0.0171478
625.776	0.0172353
625.854	0.0172128
625.933	0.0173469
626.011	0.0172845
626.089	0.0172757
626.167	0.0171057
626.245	0.0171185
626.323	0.0173239
626.401	0.0172642
626.479	0.0172350
626.558	0.0171593
626.636	0.0172890
626.714	0.0172768
626.792	0.0171829
626.870	0.0172859
626.948	0.0173441
627.026	0.0172842
627.104	0.0173631
627.183	0.0172366
627.261	0.0173041
627.339	0.0171475
627.417	0.0171982
627.495	0.0173573
627.573	0.0172340
627.651	0.0173796
627.729	0.0172900
627.808	0.0171821
627.886	0.0172794
627.964	0.0171735
628.042	0.0172198
628.120	0.0172589
628.198	0.0171577
628.276	0.0172527
628.354	0.0172883
628.433	0.0171283
628.511	0.0172540
628.589	0.0172650
628.667	0.0172989
628.745	0.0172553
628.823	0.0172239
628.901	0.0172294
628.979	0.0173093
629.058	0.0172981
629.136	0.0171587
629.214	0.0171985
629.292	0.0173379
629.370	0.0172749
629.448	0.0171696
629.526	0.0172110
629.604	0.0173177
629.683	0.0173123
629.761	0.0172791
629.839	0.0171577
629.917	0.0172922
629.995	0.0172475
630.073	0.0172186
630.151	0.0172174
630.229	0.0172370
630.308	0.0173028
630.386	0.0171426
630.464	0.0171395
630.542	0.0171170
630.620	0.0172023
630.698	0.0173273
630.776	0.0172520
630.854	0.0173111
630.933	0.0172392
631.011	0.0170353
631.089	0.0171757
631.167	0.0171629
631.245	0.0171612
631.323	0.0171821
631.401	0.0172132
631.479	0.0173090
631.558	0.0171890
631.636	0.0172910
631.714	0.0171458
631.792	0.0171321
631.870	0.0172513
631.948	0.0172090
632.026	0.0172585
632.104	0.0172390
632.183	0.0171122
632.261	0.0171777
632.339	0.0170480
632.417	0.0171990
632.495	0.0171098
632.573	0.0172101
632.651	0.0173271
632.729	0.0171638
632.808	0.0172375
632.886	0.0171217
632.964	0.0171799
633.042	0.0171111
633.120	0.0171629
633.198	0.0171840
633.276	0.0171271
633.354	0.0171655
633.433	0.0172879
633.511	0.0172810
633.589	0.0172054
633.667	0.0172953
633.745	0.0172962
633.823	0.0171374
633.901	0.0170538
633.979	0.0172439
634.058	0.0172903
634.136	0.0171895
634.214	0.0172816
634.292	0.0172520
634.370	0.0172491
634.448	0.0172227
634.526	0.0172662
634.604	0.0172272
634.683	0.0172089
634.761	0.0173470
634.839	0.0173274
634.917	0.0173566
634.995	0.0172707
635.073	0.0172768
635.151	0.0172209
635.229	0.0172771
635.308	0.0173864
635.386	0.0172089
635.464	0.0173669
635.542	0.0172388
635.620	0.0173078
635.698	0.0173354
635.776	0.0172610
635.854	0.0172433
635.933	0.0172647
636.011	0.0173143
636.089	0.0172997
636.167	0.0171744
636.245	0.0172308
636.323	0.0173255
636.401	0.0173885
636.479	0.0172362
636.558	0.0172236
636.636	0.0172531
636.714	0.0172778
636.792	0.0172765
636.870	0.0173925
636.948	0.0172831
637.026	0.0171701
637.104	0.0172527
637.183	0.0172009
637.261	0.0173115
637.339	0.0171596
637.417	0.0171201
637.495	0.0171939
637.573	0.0172180
637.651	0.0172550
637.729	0.0172374
637.808	0.0172722
637.886	0.0172118
637.964	0.0172795
638.042	0.0171478
638.120	0.0171893
638.198	0.0172483
638.276	0.0171215
638.354	0.0171360
638.433	0.0173279
638.511	0.0174131
638.589	0.0172260
638.667	0.0171695
638.745	0.0171743
638.823	0.0171873
638.901	0.0171832
638.979	0.0171429
639.058	0.0172997
639.136	0.0173617
639.214	0.0171553
639.292	0.0171867
639.370	0.0172680
639.448	0.0172982
639.526	0.0172269
639.604	0.0172027
639.683	0.0172612
639.761	0.0172416
639.839	0.0172694
639.917	0.0171846
639.995	0.0170081
640.073	0.0171044
640.151	0.0172978
640.229	0.0172359
640.308	0.0171253
640.386	0.0172091
640.464	0.0172599
640.542	0.0172298
640.620	0.0170710
640.698	0.0173158
640.776	0.0171774
640.854	0.0171624
640.933	0.0173371
641.011	0.0171806
641.089	0.0172174
641.167	0.0172457
641.245	0.0171955
641.323	0.0172179
641.401	0.0171545
641.479	0.0171246
641.558	0.0172013
641.636	0.0171507
641.714	0.0171719
641.792	0.0171306
641.870	0.0173703
641.948	0.0171627
642.026	0.0171189
642.104	0.0172639
642.183	0.0172517
642.261	0.0173080
642.339	0.0173327
642.417	0.0171371
642.495	0.0172823
642.573	0.0172810
642.651	0.0173425
642.729	0.0173534
642.808	0.0170947
642.886	0.0170993
642.964	0.0171694
643.042	0.0173355
643.120	0.0173807
643.198	0.0172549
643.276	0.0172599
643.354	0.0172087
643.433	0.0172347
643.511	0.0172065
643.589	0.0172292
643.667	0.0173316
643.745	0.0171854
643.823	0.0171629
643.901	0.0172688
643.979	0.0173003
644.058	0.0172446
644.136	0.0172655
644.214	0.0173124
644.292	0.0172782
644.370	0.0171117
644.448	0.0172807
644.526	0.0172356
644.604	0.0172361
644.683	0.0172475
644.761	0.0171600
644.839	0.0171986
644.917	0.0171997
644.995	0.0173476
645.073	0.0172778
645.151	0.0171009
645.229	0.0171240
645.308	0.0173607
645.386	0.0172700
645.464	0.0172530
645.542	0.0172447
645.620	0.0171659
645.698	0.0171738
645.776	0.0172726
645.854	0.0170984
645.933	0.0170814
646.011	0.0172637
646.089	0.0172659
646.167	0.0170777
646.245	0.0171928
646.323	0.0173859
646.401	0.0171407
646.479	0.0171828
646.558	0.0172488
646.636	0.0172425
646.714	0.0172055
646.792	0.0172390
646.870	0.0171336
646.948	0.0172022
647.026	0.0172375
647.104	0.0170660
647.183	0.0172122
647.261	0.0173450
647.339	0.0171532
647.417	0.0171353
647.495	0.0171201
647.573	0.0171665
647.651	0.0172104
647.729	0.0171438
647.808	0.0172214
647.886	0.0171991
647.964	0.0172993
648.042	0.0171613
648.120	0.0171053
648.198	0.0170940
648.276	0.0171948
648.354	0.0172575
648.433	0.0172836
648.511	0.0171684
648.589	0.0172692
648.667	0.0172031
648.745	0.0171870
648.823	0.0172117
648.901	0.0171304
648.979	0.0173267
649.058	0.0171151
649.136	0.0170411
649.214	0.0171789
649.292	0.0171754
649.370	0.0172726
649.448	0.0172641
649.526	0.0171037
649.604	0.0173417
649.683	0.0173825
649.761	0.0172130
649.839	0.0171980
649.917	0.0171313
649.995	0.0172544
650.073	0.0171618
650.151	0.0170993
650.229	0.0172292
650.308	0.0172369
650.386	0.0173344
650.464	0.0172782
650.542	0.0172013
650.620	0.0171198
650.698	0.0172115
650.776	0.0172671
650.854	0.0172986
650.933	0.0173164
651.011	0.0171240
651.089	0.0171175
651.167	0.0172890
651.245	0.0171339
651.323	0.0173329
651.401	0.0173199
651.479	0.0172781
651.558	0.0173266
651.636	0.0171345
651.714	0.0171935
651.792	0.0173281
651.870	0.0171906
651.948	0.0173169
652.026	0.0171602
652.104	0.0171864
652.183	0.0172155
652.261	0.0172427
652.339	0.0173158
652.417	0.0171737
652.495	0.0171016
652.573	0.0172337
652.651	0.0171753
652.729	0.0172121
652.808	0.0172337
652.886	0.0173643
652.964	0.0172591
653.042	0.0171069
653.120	0.0172002
653.198	0.0172070
653.276	0.0172610
653.354	0.0171770
653.433	0.0171843
653.511	0.0171786
653.589	0.0172987
653.667	0.0170454
653.745	0.0172010
653.823	0.0173377
653.901	0.0172443
653.979	0.0172416
654.058	0.0172087
654.136	0.0171436
654.214	0.0172530
654.292	0.0172397
654.370	0.0172107
654.448	0.0170555
654.526	0.0172379
654.604	0.0171453
654.683	0.0171760
654.761	0.0173126
654.839	0.0172572
654.917	0.0172210
654.995	0.0171016
655.073	0.0171477
655.151	0.0171743
655.229	0.0170300
655.308	0.0171658
655.386	0.0172083
655.464	0.0170635
655.542	0.0172243
655.620	0.0172290
655.698	0.0171122
655.776	0.0171703
655.854	0.0171319
655.933	0.0173231
656.011	0.0172167
656.089	0.0172345
656.167	0.0172689
656.245	0.0171800
656.323	0.0171778
656.401	0.0173279
656.479	0.0171112
656.558	0.0172064
656.636	0.0172430
656.714	0.0171825
656.792	0.0172869
656.870	0.0174488
656.948	0.0171013
657.026	0.0173031
657.104	0.0173096
657.183	0.0171953
657.261	0.0173502
657.339	0.0173248
657.417	0.0172449
657.495	0.0172047
657.573	0.0172383
657.651	0.0173913
657.729	0.0172123
657.808	0.0171584
657.886	0.0172527
657.964	0.0172865
658.042	0.0171446
658.120	0.0172086
658.198	0.0171605
658.276	0.0172550
658.354	0.0172571
658.433	0.0172120
658.511	0.0172495
658.589	0.0172795
658.667	0.0171754
658.745	0.0172308
658.823	0.0173124
658.901	0.0172158
658.979	0.0172833
659.058	0.0172857
659.136	0.0173492
659.214	0.0170380
659.292	0.0171706
659.370	0.0172507
659.448	0.0173003
659.526	0.0174181
659.604	0.0172037
659.683	0.0173032
659.761	0.0172978
659.839	0.0171927
659.917	0.0174200
659.995	0.0172391
660.073	0.0173151
660.151	0.0173377
660.229	0.0172285
660.308	0.0171370
660.386	0.0172815
660.464	0.0171247
660.542	0.0172694
660.620	0.0173037
660.698	0.0171744
660.776	0.0171561
660.854	0.0173354
660.933	0.0171761
661.011	0.0172351
661.089	0.0171091
661.167	0.0172118
661.245	0.0172443
661.323	0.0171461
661.401	0.0173471
661.479	0.0172060
661.558	0.0173091
661.636	0.0173164
661.714	0.0171612
661.792	0.0172488
661.870	0.0171075
661.948	0.0172834
662.026	0.0172070
662.104	0.0171314
662.183	0.0172752
662.261	0.0171738
662.339	0.0170795
662.417	0.0172517
662.495	0.0172070
662.573	0.0171304
662.651	0.0172371
662.729	0.0172553
662.808	0.0172923
662.886	0.0173519
662.964	0.0172929
663.042	0.0171712
663.120	0.0173287
663.198	0.0171592
663.276	0.0172325
663.354	0.0172443
663.433	0.0171513
663.511	0.0172137
663.589	0.0171953
663.667	0.0172053
663.745	0.0173035
663.823	0.0172182
663.901	0.0172198
663.979	0.0171216
664.058	0.0173312
664.136	0.0172243
664.214	0.0171247
664.292	0.0172285
664.370	0.0171875
664.448	0.0172810
664.526	0.0171658
664.604	0.0171673
664.683	0.0171468
664.761	0.0172709
664.839	0.0170593
664.917	0.0171365
664.995	0.0171943
665.073	0.0171138
665.151	0.0172120
665.229	0.0172707
665.308	0.0172575
665.386	0.0172115
665.464	0.0172320
665.542	0.0171371
665.620	0.0172318
665.698	0.0171671
665.776	0.0171939
665.854	0.0171644
665.933	0.0172044
666.011	0.0172134
666.089	0.0172868
666.167	0.0172511
666.245	0.0173096
666.323	0.0171899
666.401	0.0172096
666.479	0.0172762
666.558	0.0171512
666.636	0.0172128
666.714	0.0171954
666.792	0.0172664
666.870	0.0172776
666.948	0.0173295
667.026	0.0172964
667.104	0.0171960
667.183	0.0171449
667.261	0.0172723
667.339	0.0172938
667.417	0.0171872
667.495	0.0171920
667.573	0.0172963
667.651	0.0174012
667.729	0.0173904
667.808	0.0172360
667.886	0.0171902
667.964	0.0171525
668.042	0.0172160
668.120	0.0171916
668.198	0.0172942
668.276	0.0173045
668.354	0.0172390
668.433	0.0172547
668.511	0.0173164
668.589	0.0173129
668.667	0.0171551
668.745	0.0170876
668.823	0.0172948
668.901	0.0174198
668.979	0.0172988
669.058	0.0172073
669.136	0.0172063
669.214	0.0172456
669.292	0.0172763
669.370	0.0171613
669.448	0.0171436
669.526	0.0171870
669.604	0.0172764
669.683	0.0172887
669.761	0.0173165
669.839	0.0171414
669.917	0.0170467
669.995	0.0172508
670.073	0.0171426
670.151	0.0172995
670.229	0.0173107
670.308	0.0172846
670.386	0.0172832
670.464	0.0172791
670.542	0.0172572
670.620	0.0171320
670.698	0.0172951
670.776	0.0172898
670.854	0.0172505
670.933	0.0172053
671.011	0.0171779
671.089	0.0173400
671.167	0.0174338
671.245	0.0171693
671.323	0.0172639
671.401	0.0172282
671.479	0.0173022
671.558	0.0172699
671.636	0.0171957
671.714	0.0172985
671.792	0.0171967
671.870	0.0171986
671.948	0.0172950
672.026	0.0172885
672.104	0.0171137
672.183	0.0172501
672.261	0.0172430
672.339	0.0172797
672.417	0.0171573
672.495	0.0170473
672.573	0.0171452
672.651	0.0173595
672.729	0.0172281
672.808	0.0172044
672.886	0.0172329
672.964	0.0171489
673.042	0.0171987
673.120	0.0172624
673.198	0.0171574
673.276	0.0172338
673.354	0.0173557
673.433	0.0171710
673.511	0.0171883
673.589	0.0171968
673.667	0.0171913
673.745	0.0172311
673.823	0.0172488
673.901	0.0172158
673.979	0.0173367
674.058	0.0171771
674.136	0.0172208
674.214	0.0171569
674.292	0.0171899
674.370	0.0173360
674.448	0.0172591
674.526	0.0171117
674.604	0.0173532
674.683	0.0172003
674.761	0.0171858
674.839	0.0172095
674.917	0.0171447
674.995	0.0172923
675.073	0.0173264
675.151	0.0171691
675.229	0.0171918
675.308	0.0172774
675.386	0.0171597
675.464	0.0172021
675.542	0.0171852
675.620	0.0172962
675.698	0.0172322
675.776	0.0171864
675.854	0.0171665
675.933	0.0172616
676.011	0.0172646
676.089	0.0171962
676.167	0.0172005
676.245	0.0172995
676.323	0.0173687
676.401	0.0172884
676.479	0.0172890
676.558	0.0171947
676.636	0.0171888
676.714	0.0171531
676.792	0.0172538
676.870	0.0170343
676.948	0.0170044
677.026	0.0171903
677.104	0.0171508
677.183	0.0171704
677.261	0.0171817
677.339	0.0172056
677.417	0.0172330
677.495	0.0172404
677.573	0.0171852
677.651	0.0172189
677.729	0.0172198
677.808	0.0172813
677.886	0.0172202
677.964	0.0173217
678.042	0.0173746
678.120	0.0173367
678.198	0.0172586
678.276	0.0172032
678.354	0.0173487
678.433	0.0173132
678.511	0.0172205
678.589	0.0173959
678.667	0.0172443
678.745	0.0172927
678.823	0.0172482
678.901	0.0173890
678.979	0.0171568
679.058	0.0173450
679.136	0.0173422
679.214	0.0173705
679.292	0.0173525
679.370	0.0172899
679.448	0.0173065
679.526	0.0172280
679.604	0.0171873
679.683	0.0172810
679.761	0.0172832
679.839	0.0171830
679.917	0.0171153
679.995	0.0171711
680.073	0.0170679
680.151	0.0172164
680.229	0.0170266
680.308	0.0171164
680.386	0.0170750
680.464	0.0172215
680.542	0.0171165
680.620	0.0171358
680.698	0.0171006
680.776	0.0171288
680.854	0.0172614
680.933	0.0171896
681.011	0.0173162
681.089	0.0173313
681.167	0.0171763
681.245	0.0172883
681.323	0.0172501
681.401	0.0172070
681.479	0.0173016
681.558	0.0173887
681.636	0.0172276
681.714	0.0172309
681.792	0.0172567
681.870	0.0173283
681.948	0.0173008
682.026	0.0172465
682.104	0.0172747
682.183	0.0173097
682.261	0.0173356
682.339	0.0173859
682.417	0.0173814
682.495	0.0172298
682.573	0.0171662
682.651	0.0172458
682.729	0.0173276
682.808	0.0171983
682.886	0.0171426
682.964	0.0171865
683.042	0.0172060
683.120	0.0172038
683.198	0.0171880
683.276	0.0171026
683.354	0.0171957
683.433	0.0171199
683.511	0.0171572
683.589	0.0172222
683.667	0.0172294
683.745	0.0172985
683.823	0.0171772
683.901	0.0170679
683.979	0.0171175
684.058	0.0171849
684.136	0.0172536
684.214	0.0172360
684.292	0.0171773
684.370	0.0172299
684.448	0.0173433
684.526	0.0174181
684.604	0.0172352
684.683	0.0172684
684.761	0.0173058
684.839	0.0173049
684.917	0.0172918
684.995	0.0173055
685.073	0.0174956
685.151	0.0173159
685.229	0.0172926
685.308	0.0173814
685.386	0.0172523
685.464	0.0171704
685.542	0.0173304
685.620	0.0172405
685.698	0.0172815
685.776	0.0171950
685.854	0.0172086
685.933	0.0171758
686.011	0.0173283
686.089	0.0172179
686.167	0.0171543
686.245	0.0171478
686.323	0.0171127
686.401	0.0171419
686.479	0.0169485
686.558	0.0169097
686.636	0.0166079
686.714	0.0165854
686.792	0.0164687
686.870	0.0161560
686.948	0.0158057
687.026	0.0158303
687.104	0.0159740
687.183	0.0162189
687.261	0.0170010
687.339	0.0181980
687.417	0.0199840
687.495	0.0219878
687.573	0.0239610
687.651	0.0261741
687.729	0.0276385
687.808	0.0288554
687.886	0.0288577
687.964	0.0280878
688.042	0.0263499
688.120	0.0235208
688.198	0.0199043
688.276	0.0156084
688.354	0.0110172
688.433	0.00619179
688.511	0.00146355
688.589	-0.00282211
688.667	-0.00644760
688.745	-0.00906120
688.823	-0.0104604
688.901	-0.0108257
688.979	-0.0100507
689.058	-0.00803596
689.136	-0.00511688
689.214	-0.00111313
689.292	0.00360390
689.370	0.00875381
689.448	0.0141502
689.526	0.0198421
689.604	0.0252233
689.683	0.0307873
689.761	0.0356045
689.839	0.0404029
689.917	0.0446274
689.995	0.0483342
690.073	0.0513152
690.151	0.0535384
690.229	0.0552514
690.308	0.0558794
690.386	0.0556258
690.464	0.0544920
690.542	0.0523116
690.620	0.0493913
690.698	0.0458309
690.776	0.0412376
690.854	0.0362418
690.933	0.0307880
691.011	0.0248262
691.089	0.0185993
691.167	0.0124179
691.245	0.00647362
691.323	0.000588074
691.401	-0.00467560
691.479	-0.00963753
691.558	-0.0139883
691.636	-0.0175964
691.714	-0.0203830
691.792	-0.0221592
691.870	-0.0231393
691.948	-0.0232220
692.026	-0.0223820
692.104	-0.0207185
692.183	-0.0184307
692.261	-0.0153278
692.339	-0.0119735
692.417	-0.00823723
692.495	-0.00423004
692.573	-0.000244141
692.651	0.00408524
692.729	0.00814224
692.808	0.0118919
692.886	0.0153880
692.964	0.0186998
693.042	0.0214920
693.120	0.0236793
693.198	0.0258690
693.276	0.0274955
693.354	0.0291442
693.433	0.0302639
693.511	0.0313847
693.589	0.0324879
693.667	0.0336050
693.745	0.0345293
693.823	0.0354027
693.901	0.0363880
693.979	0.0372543
694.058	0.0380948
694.136	0.0388538
694.214	0.0394410
694.292	0.0397515
694.370	0.0398480
694.448	0.0398595
694.526	0.0394605
694.604	0.0387178
694.683	0.0379388
694.761	0.0366438
694.839	0.0352766
694.917	0.0336996
694.995	0.0320312
695.073	0.0300028
695.151	0.0281985
695.229	0.0261796
695.308	0.0240765
695.386	0.0221857
695.464	0.0201542
695.542	0.0181842
695.620	0.0162698
695.698	0.0144177
695.776	0.0127210
695.854	0.0110456
695.933	0.00957359
696.011	0.00823807
696.089	0.00712166
696.167	0.00584114
696.245	0.00491402
696.323	0.00419891
696.401	0.00334778
696.479	0.00265709
696.558	0.00214867
696.636	0.00176125
696.714	0.00126114
696.792	0.00105194
696.870	0.000741119
696.948	0.000548172
697.026	0.000372543
697.104	0.000376892
697.183	0.000710373
697.261	0.000764618
697.339	0.00138908
697.417	0.00187721
697.495	0.00264091
697.573	0.00352867
697.651	0.00459442
697.729	0.00591568
697.808	0.00716003
697.886	0.00842110
697.964	0.00998917
698.042	0.0117004
698.120	0.0132664
698.198	0.0146748
698.276	0.0162627
698.354	0.0176345
698.433	0.0189790
698.511	0.0202417
698.589	0.0213166
698.667	0.0220753
698.745	0.0227906
698.823	0.0235289
698.901	0.0239674
698.979	0.0243211
699.058	0.0247287
699.136	0.0248760
699.214	0.0247756
699.292	0.0248421
699.370	0.0248737
699.448	0.0247076
699.526	0.0245023
699.604	0.0242455
699.683	0.0241040
699.761	0.0241196
699.839	0.0241565
699.917	0.0242064
699.995	0.0242381
700.073	0.0245685
700.151	0.0248818
700.229	0.0251161
700.308	0.0256429
700.386	0.0263600
700.464	0.0268259
700.542	0.0270150
700.620	0.0277719
700.698	0.0280181
700.776	0.0282914
700.854	0.0282978
700.933	0.0282335
701.011	0.0279594
701.089	0.0274015
701.167	0.0267098
701.245	0.0256603
701.323	0.0244190
701.401	0.0232510
701.479	0.0219242
701.558	0.0205791
701.636	0.0192758
701.714	0.0179077
701.792	0.0166388
701.870	0.0154529
701.948	0.0144037
702.026	0.0132528
702.104	0.0122582
702.183	0.0117274
702.261	0.0109139
702.339	0.0104461
702.417	0.0101462
702.495	0.00983559
702.573	0.00994377
702.651	0.0100238
702.729	0.0103350
702.808	0.0106104
702.886	0.0107536
702.964	0.0111994
703.042	0.0115363
703.120	0.0118507
703.198	0.0120155
703.276	0.0121276
703.354	0.0123701
703.433	0.0123329
703.511	0.0122183
703.589	0.0120898
703.667	0.0118407
703.745	0.0113152
703.823	0.0108491
703.901	0.0105801
703.979	0.0100179
704.058	0.00961449
704.136	0.00936897
704.214	0.00913788
704.292	0.00928757
704.370	0.00932228
704.448	0.00975540
704.526	0.0100706
704.604	0.0107128
704.683	0.0113376
704.761	0.0121088
704.839	0.0127399
704.917	0.0135833
704.995	0.0143443
705.073	0.0153343
705.151	0.0160628
705.229	0.0168411
705.308	0.0177187
705.386	0.0184695
705.464	0.0191621
705.542	0.0195742
705.620	0.0200192
705.698	0.0204971
705.776	0.0207010
705.854	0.0210491
705.933	0.0211507
706.011	0.0213207
706.089	0.0214127
706.167	0.0215366
706.245	0.0216190
706.323	0.0214555
706.401	0.0216846
706.479	0.0214232
706.558	0.0213123
706.636	0.0214143
706.714	0.0211183
706.792	0.0210487
706.870	0.0212168
706.948	0.0212369
707.026	0.0214432
707.104	0.0214119
707.183	0.0214852
707.261	0.0217068
707.339	0.0218845
707.417	0.0220596
707.495	0.0221021
707.573	0.0223337
707.651	0.0226508
707.729	0.0227442
707.808	0.0230797
707.886	0.0231502
707.964	0.0232436
708.042	0.0232688
708.120	0.0231430
708.198	0.0229763
708.276	0.0227743
708.354	0.0223472
708.433	0.0218717
708.511	0.0214491
708.589	0.0208710
708.667	0.0203641
708.745	0.0197391
708.823	0.0189084
708.901	0.0184497
708.979	0.0176547
709.058	0.0171413
709.136	0.0164864
709.214	0.0158994
709.292	0.0154365
709.370	0.0151250
709.448	0.0147279
709.526	0.0145741
709.604	0.0143869
709.683	0.0142469
709.761	0.0140944
709.839	0.0140852
709.917	0.0141342
709.995	0.0140326
710.073	0.0139685
710.151	0.0139692
710.229	0.0139101
710.308	0.0139079
710.386	0.0140091
710.464	0.0141704
710.542	0.0139105
710.620	0.0140797
710.698	0.0140260
710.776	0.0140405
710.854	0.0139034
710.933	0.0139089
711.011	0.0136003
711.089	0.0136795
711.167	0.0134864
711.245	0.0133794
711.323	0.0130359
711.401	0.0129256
711.479	0.0128791
711.558	0.0128905
711.636	0.0128516
711.714	0.0125954
711.792	0.0124036
711.870	0.0124973
711.948	0.0126344
712.026	0.0126632
712.104	0.0128872
712.183	0.0131409
712.261	0.0135483
712.339	0.0137107
712.417	0.0142300
712.495	0.0145220
712.573	0.0149637
712.651	0.0155075
712.729	0.0157787
712.808	0.0162836
712.886	0.0167329
712.964	0.0171877
713.042	0.0177769
713.120	0.0179949
713.198	0.0184148
713.276	0.0188433
713.354	0.0191150
713.433	0.0195040
713.511	0.0196875
713.589	0.0199592
713.667	0.0201348
713.745	0.0203587
713.823	0.0203779
713.901	0.0202850
713.979	0.0204487
714.058	0.0202424
714.136	0.0200769
714.214	0.0198844
714.292	0.0198631
714.370	0.0196523
714.448	0.0195861
714.526	0.0195315
714.604	0.0195472
714.683	0.0196020
714.761	0.0195898
714.839	0.0197459
714.917	0.0199409
714.995	0.0200294
715.073	0.0204804
715.151	0.0205948
715.229	0.0207883
715.308	0.0213863
715.386	0.0213779
715.464	0.0216894
715.542	0.0217740
715.620	0.0218597
715.698	0.0217697
715.776	0.0217360
715.854	0.0213918
715.933	0.0211657
716.011	0.0207365
716.089	0.0203955
716.167	0.0199834
716.245	0.0194872
716.323	0.0191304
716.401	0.0185703
716.479	0.0181854
716.558	0.0180920
716.636	0.0175774
716.714	0.0172429
716.792	0.0171636
716.870	0.0169576
716.948	0.0168209
717.026	0.0166762
717.104	0.0165012
717.183	0.0163345
717.261	0.0162642
717.339	0.0163216
717.417	0.0162163
717.495	0.0160879
717.573	0.0161103
717.651	0.0159519
717.729	0.0160489
717.808	0.0160981
717.886	0.0158797
717.964	0.0159355
718.042	0.0158157
718.120	0.0157221
718.198	0.0156068
718.276	0.0155662
718.354	0.0154575
718.433	0.0153175
718.511	0.0151786
718.589	0.0150249
718.667	0.0149261
718.745	0.0147055
718.823	0.0144388
718.901	0.0144291
718.979	0.0142185
719.058	0.0138820
719.136	0.0136301
719.214	0.0134841
719.292	0.0133958
719.370	0.0131894
719.448	0.0130886
719.526	0.0129631
719.604	0.0129028
719.683	0.0128284
719.761	0.0128875
719.839	0.0130330
719.917	0.0132080
719.995	0.0135669
720.073	0.0138074
720.151	0.0139316
720.229	0.0144546
720.308	0.0148973
720.386	0.0152895
720.464	0.0157204
720.542	0.0161678
720.620	0.0165365
720.698	0.0169730
720.776	0.0172704
720.854	0.0176242
720.933	0.0178527
721.011	0.0180669
721.089	0.0183121
721.167	0.0183247
721.245	0.0184032
721.323	0.0184112
721.401	0.0186155
721.479	0.0187213
721.558	0.0186343
721.636	0.0186165
721.714	0.0185867
721.792	0.0188425
721.870	0.0185995
721.948	0.0185436
722.026	0.0187930
722.104	0.0187916
722.183	0.0189127
722.261	0.0188771
722.339	0.0191177
722.417	0.0194376
722.495	0.0192986
722.573	0.0197220
722.651	0.0199783
722.729	0.0203439
722.808	0.0205663
722.886	0.0208991
722.964	0.0210622
723.042	0.0212919
723.120	0.0214796
723.198	0.0216702
723.276	0.0215826
723.354	0.0214291
723.433	0.0214806
723.511	0.0213893
723.589	0.0210431
723.667	0.0207626
723.745	0.0204897
723.823	0.0201725
723.901	0.0195901
723.979	0.0192847
724.058	0.0191406
724.136	0.0186037
724.214	0.0183725
724.292	0.0181057
724.370	0.0178652
724.448	0.0176964
724.526	0.0173399
724.604	0.0172582
724.683	0.0170219
724.761	0.0169386
724.839	0.0168639
724.917	0.0166781
724.995	0.0164964
725.073	0.0164533
725.151	0.0162786
725.229	0.0162070
725.308	0.0161332
725.386	0.0162094
725.464	0.0161926
725.542	0.0161992
725.620	0.0161539
725.698	0.0162603
725.776	0.0162740
725.854	0.0161359
725.933	0.0162195
726.011	0.0162463
726.089	0.0162402
726.167	0.0161853
726.245	0.0160944
726.323	0.0156992
726.401	0.0158415
726.479	0.0156892
726.558	0.0154273
726.636	0.0152253
726.714	0.0149629
726.792	0.0148103
726.870	0.0145094
726.948	0.0143695
727.026	0.0141357
727.104	0.0137557
727.183	0.0136469
727.261	0.0134779
727.339	0.0133016
727.417	0.0132990
727.495	0.0132480
727.573	0.0133176
727.651	0.0133582
727.729	0.0133958
727.808	0.0137755
727.886	0.0139661
727.964	0.0140904
728.042	0.0145496
728.120	0.0148525
728.198	0.0150064
728.276	0.0155315
728.354	0.0158965
728.433	0.0162400
728.511	0.0165427
728.589	0.0167532
728.667	0.0170457
728.745	0.0173333
728.823	0.0173773
728.901	0.0177542
728.979	0.0178985
729.058	0.0178889
729.136	0.0181136
729.214	0.0183199
729.292	0.0183968
729.370	0.0183636
729.448	0.0187081
729.526	0.0188537
729.604	0.0188213
729.683	0.0191154
729.761	0.0190574
729.839	0.0190440
729.917	0.0191533
729.995	0.0191796
730.073	0.0193412
730.151	0.0192234
730.229	0.0192193
730.308	0.0192899
730.386	0.0192426
730.464	0.0191633
730.542	0.0195137
730.620	0.0194630
730.698	0.0194019
730.776	0.0195854
730.854	0.0197945
730.933	0.0199050
731.011	0.0201215
731.089	0.0203314
731.167	0.0203707
731.245	0.0205406
731.323	0.0206314
731.401	0.0205292
731.479	0.0205547
731.558	0.0205948
731.636	0.0202793
731.714	0.0200725
731.792	0.0199625
731.870	0.0194628
731.948	0.0192194
732.026	0.0190858
732.104	0.0187214
732.183	0.0182792
732.261	0.0179010
732.339	0.0175388
732.417	0.0171227
732.495	0.0169960
732.573	0.0167809
732.651	0.0164832
732.729	0.0162653
732.808	0.0162775
732.886	0.0160516
732.964	0.0159101
733.042	0.0158805
733.120	0.0157716
733.198	0.0156474
733.276	0.0156994
733.354	0.0158097
733.433	0.0158471
733.511	0.0158380
733.589	0.0158362
733.667	0.0158644
733.745	0.0159308
733.823	0.0160246
733.901	0.0159567
733.979	0.0158531
734.058	0.0158749
734.136	0.0158896
734.214	0.0158262
734.292	0.0157813
734.370	0.0157561
734.448	0.0156485
734.526	0.0153294
734.604	0.0154543
734.683	0.0153268
734.761	0.0152604
734.839	0.0150854
734.917	0.0150152
734.995	0.0150729
735.073	0.0150066
735.151	0.0148111
735.229	0.0147435
735.308	0.0147968
735.386	0.0148732
735.464	0.0147691
735.542	0.0148453
735.620	0.0150130
735.698	0.0149321
735.776	0.0150755
735.854	0.0153338
735.933	0.0155193
736.011	0.0157014
736.089	0.0158164
736.167	0.0161133
736.245	0.0162878
736.323	0.0166700
736.401	0.0169070
736.479	0.0170135
736.558	0.0174165
736.636	0.0175366
736.714	0.0177629
736.792	0.0178412
736.870	0.0178838
736.948	0.0180215
737.026	0.0182404
737.104	0.0182719
737.183	0.0184167
737.261	0.0184277
737.339	0.0184222
737.417	0.0185558
737.495	0.0184822
737.573	0.0184210
737.651	0.0183265
737.729	0.0184042
737.808	0.0184313
737.886	0.0182481
737.964	0.0184267
738.042	0.0182630
738.120	0.0180649
738.198	0.0179396
738.276	0.0180779
738.354	0.0182639
738.433	0.0183804
738.511	0.0184461
738.589	0.0185226
738.667	0.0187669
738.745	0.0189780
738.823	0.0193948
738.901	0.0193852
738.979	0.0195929
739.058	0.0198592
739.136	0.0199560
739.214	0.0200496
739.292	0.0200815
739.370	0.0200274
739.448	0.0200320
739.526	0.0201422
739.604	0.0198957
739.683	0.0197403
739.761	0.0195210
739.839	0.0193439
739.917	0.0190441
739.995	0.0188783
740.073	0.0185043
740.151	0.0181490
740.229	0.0178648
740.308	0.0175764
740.386	0.0174433
740.464	0.0171064
740.542	0.0167541
740.620	0.0164899
740.698	0.0159910
740.776	0.0159196
740.854	0.0158144
740.933	0.0156142
741.011	0.0154211
741.089	0.0154050
741.167	0.0153941
741.245	0.0152022
741.323	0.0151274
741.401	0.0152029
741.479	0.0151148
741.558	0.0152604
741.636	0.0153346
741.714	0.0153979
741.792	0.0155669
741.870	0.0157997
741.948	0.0157811
742.026	0.0159299
742.104	0.0159813
742.183	0.0161517
742.261	0.0161412
742.339	0.0164548
742.417	0.0164399
742.495	0.0164746
742.573	0.0165161
742.651	0.0165818
742.729	0.0167053
742.808	0.0167535
742.886	0.0166171
742.964	0.0165891
743.042	0.0166010
743.120	0.0164033
743.198	0.0162675
743.276	0.0163686
743.354	0.0162017
743.433	0.0161288
743.511	0.0160790
743.589	0.0161238
743.667	0.0162492
743.745	0.0163005
743.823	0.0162746
743.901	0.0164726
743.979	0.0165708
744.058	0.0166878
744.136	0.0167637
744.214	0.0169144
744.292	0.0170652
744.370	0.0171348
744.448	0.0172713
744.526	0.0172755
744.604	0.0173582
744.683	0.0173983
744.761	0.0173424
744.839	0.0173547
744.917	0.0174306
744.995	0.0173061
745.073	0.0174742
745.151	0.0175436
745.229	0.0174870
745.308	0.0175622
745.386	0.0175558
745.464	0.0177116
745.542	0.0177378
745.620	0.0176798
745.698	0.0178579
745.776	0.0178358
745.854	0.0179226
745.933	0.0180301
746.011	0.0180886
746.089	0.0182928
746.167	0.0180739
746.245	0.0182015
746.323	0.0183900
746.401	0.0184048
746.479	0.0183706
746.558	0.0183621
746.636	0.0184885
746.714	0.0185785
746.792	0.0185416
746.870	0.0185791
746.948	0.0186766
747.026	0.0186613
747.104	0.0187446
747.183	0.0188004
747.261	0.0186924
747.339	0.0187249
747.417	0.0186636
747.495	0.0186298
747.573	0.0186974
747.651	0.0185382
747.729	0.0184335
747.808	0.0182990
747.886	0.0181055
747.964	0.0179756
748.042	0.0178316
748.120	0.0177347
748.198	0.0174634
748.276	0.0173541
748.354	0.0170838
748.433	0.0170037
748.511	0.0169273
748.589	0.0167222
748.667	0.0167214
748.745	0.0164111
748.823	0.0163929
748.901	0.0162862
748.979	0.0163857
749.058	0.0164763
749.136	0.0162486
749.214	0.0161928
749.292	0.0163454
749.370	0.0163672
749.448	0.0163654
749.526	0.0163001
749.604	0.0165503
749.683	0.0166155
749.761	0.0166377
749.839	0.0166551
749.917	0.0167274
749.995	0.0167345
750.073	0.0168442
750.151	0.0169214
750.229	0.0166907
750.308	0.0168746
750.386	0.0168939
750.464	0.0166427
750.542	0.0168052
750.620	0.0167776
750.698	0.0167851
750.776	0.0167081
750.854	0.0165436
750.933	0.0165190
751.011	0.0165337
751.089	0.0164096
751.167	0.0163630
751.245	0.0164319
751.323	0.0162640
751.401	0.0161591
751.479	0.0161033
751.558	0.0161179
751.636	0.0162217
751.714	0.0162017
751.792	0.0160779
751.870	0.0160936
751.948	0.0161353
752.026	0.0161698
752.104	0.0163121
752.183	0.0165048
752.261	0.0165732
752.339	0.0167365
752.417	0.0168563
752.495	0.0170139
752.573	0.0172056
752.651	0.0172743
752.729	0.0173044
752.808	0.0176880
752.886	0.0176730
752.964	0.0178011
753.042	0.0178401
753.120	0.0179082
753.198	0.0180476
753.276	0.0179691
753.354	0.0181293
753.433	0.0181217
753.511	0.0183326
753.589	0.0182008
753.667	0.0181647
753.745	0.0180668
753.823	0.0178340
753.901	0.0177958
753.979	0.0178872
754.058	0.0177151
754.136	0.0176442
754.214	0.0175204
754.292	0.0175629
754.370	0.0175943
754.448	0.0175377
754.526	0.0176373
754.604	0.0177032
754.683	0.0178293
754.761	0.0177827
754.839	0.0177956
754.917	0.0179585
754.995	0.0180476
755.073	0.0181316
755.151	0.0183337
755.229	0.0182874
755.308	0.0182750
755.386	0.0182992
755.464	0.0183114
755.542	0.0181780
755.620	0.0181596
755.698	0.0180603
755.776	0.0181311
755.854	0.0180464
755.933	0.0179227
756.011	0.0178427
756.089	0.0175960
756.167	0.0175124
756.245	0.0173868
756.323	0.0173156
756.401	0.0172102
756.479	0.0171391
756.558	0.0169163
756.636	0.0168388
756.714	0.0168752
756.792	0.0167312
756.870	0.0166869
756.948	0.0166931
757.026	0.0167411
757.104	0.0166523
757.183	0.0167322
757.261	0.0166327
757.339	0.0166176
757.417	0.0166814
757.495	0.0165213
757.573	0.0166574
757.651	0.0167021
757.729	0.0167004
757.808	0.0164471
757.886	0.0167040
757.964	0.0167795
758.042	0.0167365
758.120	0.0167912
758.198	0.0168089
758.276	0.0168621
758.354	0.0169039
758.433	0.0169646
758.511	0.0169417
758.589	0.0169199
758.667	0.0168741
758.745	0.0169377
758.823	0.0168836
758.901	0.0168576
758.979	0.0168512
759.058	0.0166586
759.136	0.0166472
759.214	0.0167182
759.292	0.0165890
759.370	0.0165462
759.448	0.0164114
759.526	0.0163775
759.604	0.0164376
759.683	0.0164832
759.761	0.0165333
759.839	0.0164230
759.917	0.0166045
759.995	0.0166331
760.073	0.0166653
760.151	0.0167355
760.229	0.0168851
760.308	0.0168761
760.386	0.0169788
760.464	0.0172812
760.542	0.0171838
760.620	0.0172041
760.698	0.0172303
760.776	0.0173502
760.854	0.0174818
760.933	0.0174699
761.011	0.0175871
761.089	0.0174503
761.167	0.0175057
761.245	0.0176463
761.323	0.0176059
761.401	0.0177115
761.479	0.0176074
761.558	0.0176823
761.636	0.0175607
761.714	0.0176108
761.792	0.0175360
761.870	0.0175301
761.948	0.0174326
762.026	0.0176641
762.104	0.0175790
762.183	0.0174631
762.261	0.0175023
762.339	0.0175453
762.417	0.0175982
762.495	0.0177535
762.573	0.0176269
762.651	0.0176847
762.729	0.0177203
762.808	0.0177372
762.886	0.0177876
762.964	0.0178535
763.042	0.0177917
763.120	0.0179841
763.198	0.0180320
763.276	0.0180612
763.354	0.0179959
763.433	0.0180189
763.511	0.0179543
763.589	0.0179884
763.667	0.0179502
763.745	0.0177887
763.823	0.0178515
763.901	0.0177505
763.979	0.0175870
764.058	0.0175664
764.136	0.0173996
764.214	0.0174480
764.292	0.0173495
764.370	0.0172549
764.448	0.0170930
764.526	0.0171589
764.604	0.0170959
764.683	0.0170821
764.761	0.0171653
764.839	0.0170661
764.917	0.0170535
764.995	0.0170843
765.073	0.0171324
765.151	0.0172289
765.229	0.0172333
765.308	0.0172796
765.386	0.0171514
765.464	0.0172089
765.542	0.0171281
765.620	0.0171333
765.698	0.0171323
765.776	0.0169818
765.854	0.0168932
765.933	0.0168860
766.011	0.0168017
766.089	0.0168757
766.167	0.0166870
766.245	0.0166875
766.323	0.0165611
766.401	0.0167241
766.479	0.0166908
766.558	0.0165452
766.636	0.0165719
766.714	0.0165289
766.792	0.0164524
766.870	0.0165883
766.948	0.0164993
767.026	0.0164536
767.104	0.0163942
767.183	0.0165118
767.261	0.0165677
767.339	0.0164040
767.417	0.0164656
767.495	0.0163326
767.573	0.0163291
767.651	0.0163196
767.729	0.0163636
767.808	0.0164207
767.886	0.0166718
767.964	0.0167033
768.042	0.0166871
768.120	0.0166870
768.198	0.0167584
768.276	0.0169013
768.354	0.0171006
768.433	0.0171458
768.511	0.0171519
768.589	0.0172829
768.667	0.0171237
768.745	0.0172524
768.823	0.0174351
768.901	0.0175427
768.979	0.0176428
769.058	0.0177230
769.136	0.0176915
769.214	0.0180451
769.292	0.0181381
769.370	0.0182115
769.448	0.0184038
769.526	0.0184402
769.604	0.0187070
769.683	0.0186800
769.761	0.0186791
769.839	0.0186382
769.917	0.0186797
769.995	0.0184336
770.073	0.0183636
770.151	0.0182323
770.229	0.0182236
770.308	0.0178202
770.386	0.0175804
770.464	0.0173924
770.542	0.0171595
770.620	0.0170686
770.698	0.0168470
770.776	0.0168467
770.854	0.0166762
770.933	0.0165062
771.011	0.0163315
771.089	0.0163850
771.167	0.0164491
771.245	0.0163440
771.323	0.0164635
771.401	0.0165401
771.479	0.0165968
771.558	0.0166854
771.636	0.0168040
771.714	0.0169128
771.792	0.0168774
771.870	0.0170061
771.948	0.0171379
772.026	0.0171442
772.104	0.0172142
772.183	0.0173370
772.261	0.0172289
772.339	0.0172619
772.417	0.0171648
772.495	0.0172425
772.573	0.0173129
772.651	0.0173485
772.729	0.0172439
772.808	0.0171186
772.886	0.0172928
772.964	0.0173196
773.042	0.0173177
773.120	0.0174605
773.198	0.0174989
773.276	0.0175497
773.354	0.0175858
773.433	0.0177173
773.511	0.0176478
773.589	0.0178461
773.667	0.0178178
773.745	0.0178683
773.823	0.0178590
773.901	0.0177023
773.979	0.0176916
774.058	0.0178023
774.136	0.0177778
774.214	0.0176555
774.292	0.0176555
774.370	0.0176284
774.448	0.0175796
774.526	0.0177526
774.604	0.0174953
774.683	0.0173811
774.761	0.0173731
774.839	0.0174411
774.917	0.0173082
774.995	0.0172725
775.073	0.0169476
775.151	0.0168608
775.229	0.0169069
775.308	0.0168272
775.386	0.0165279
775.464	0.0165666
775.542	0.0165118
775.620	0.0164581
775.698	0.0163721
775.776	0.0162993
775.854	0.0164210
775.933	0.0165437
776.011	0.0164645
776.089	0.0163440
776.167	0.0165630
776.245	0.0166048
776.323	0.0164530
776.401	0.0167516
776.479	0.0165807
776.558	0.0167032
776.636	0.0167044
776.714	0.0167396
776.792	0.0167896
776.870	0.0169305
776.948	0.0169833
777.026	0.0169308
777.104	0.0169148
777.183	0.0170020
777.261	0.0170638
777.339	0.0170850
777.417	0.0171432
777.495	0.0172097
777.573	0.0172223
777.651	0.0173550
777.729	0.0174368
777.808	0.0175115
777.886	0.0176134
777.964	0.0175947
778.042	0.0176291
778.120	0.0177578
778.198	0.0176411
778.276	0.0176585
778.354	0.0177631
778.433	0.0176698
778.511	0.0175494
778.589	0.0175146
778.667	0.0174860
778.745	0.0176663
778.823	0.0175244
778.901	0.0174789
778.979	0.0175423
779.058	0.0175240
779.136	0.0173406
779.214	0.0174941
779.292	0.0175822
779.370	0.0174748
779.448	0.0175156
779.526	0.0176145
779.604	0.0176662
779.683	0.0178411
779.761	0.0177959
779.839	0.0176877
779.917	0.0176522
779.995	0.0178244
780.073	0.0177901
780.151	0.0178451
780.229	0.0178483
780.308	0.0177556
780.386	0.0177248
780.464	0.0175747
780.542	0.0175214
780.620	0.0175675
780.698	0.0174445
780.776	0.0174137
780.854	0.0173745
780.933	0.0171706
781.011	0.0172726
781.089	0.0170931
781.167	0.0173475
781.245	0.0172086
781.323	0.0170554
781.401	0.0169746
781.479	0.0169741
781.558	0.0171037
781.636	0.0170486
781.714	0.0168906
781.792	0.0168399
781.870	0.0168772
781.948	0.0169019
782.026	0.0169167
782.104	0.0168102
782.183	0.0168466
782.261	0.0167316
782.339	0.0166988
782.417	0.0168350
782.495	0.0167659
782.573	0.0167554
782.651	0.0167763
782.729	0.0167553
782.808	0.0169464
782.886	0.0168867
782.964	0.0168264
783.042	0.0168706
783.120	0.0168518
783.198	0.0170407
783.276	0.0170457
783.354	0.0170513
783.433	0.0169340
783.511	0.0171039
783.589	0.0169734
783.667	0.0171053
783.745	0.0172860
783.823	0.0172918
783.901	0.0174751
783.979	0.0175664
784.058	0.0176479
784.136	0.0176285
784.214	0.0177000
784.292	0.0176421
784.370	0.0176662
784.448	0.0177362
784.526	0.0176713
784.604	0.0174342
784.683	0.0172269
784.761	0.0169586
784.839	0.0165997
784.917	0.0163808
784.995	0.0162348
785.073	0.0159006
785.151	0.0156126
785.229	0.0155526
785.308	0.0153674
785.386	0.0152222
785.464	0.0152409
785.542	0.0152277
785.620	0.0155123
785.698	0.0154461
785.776	0.0156633
785.854	0.0158793
785.933	0.0161922
786.011	0.0166565
786.089	0.0170915
786.167	0.0176476
786.245	0.0183949
786.323	0.0188204
786.401	0.0194303
786.479	0.0200014
786.558	0.0204698
786.636	0.0209662
786.714	0.0212225
786.792	0.0213120
786.870	0.0215810
786.948	0.0218170
787.026	0.0216328
787.104	0.0213506
787.183	0.0212482
787.261	0.0207639
787.339	0.0204810
787.417	0.0199839
787.495	0.0193378
787.573	0.0187640
787.651	0.0181272
787.729	0.0175457
787.808	0.0170659
787.886	0.0164643
787.964	0.0158301
788.042	0.0152851
788.120	0.0147253
788.198	0.0140761
788.276	0.0138975
788.354	0.0134515
788.433	0.0131482
788.511	0.0128886
788.589	0.0128913
788.667	0.0128429
788.745	0.0127199
788.823	0.0130595
788.901	0.0132254
788.979	0.0131981
789.058	0.0135280
789.136	0.0137551
789.214	0.0141067
789.292	0.0145210
789.370	0.0148766
789.448	0.0153676
789.526	0.0156568
789.604	0.0161797
789.683	0.0164116
789.761	0.0168728
789.839	0.0173000
789.917	0.0177440
789.995	0.0183266
790.073	0.0183309
790.151	0.0187774
790.229	0.0191619
790.308	0.0194794
790.386	0.0196913
790.464	0.0200159
790.542	0.0201502
790.620	0.0203583
790.698	0.0206844
790.776	0.0206776
790.854	0.0207916
790.933	0.0208940
791.011	0.0207805
791.089	0.0208308
791.167	0.0208871
791.245	0.0207520
791.323	0.0205072
791.401	0.0204246
791.479	0.0201737
791.558	0.0200108
791.636	0.0197148
791.714	0.0194569
791.792	0.0192187
791.870	0.0188180
791.948	0.0183786
792.026	0.0180573
792.104	0.0179105
792.183	0.0173693
792.261	0.0172281
792.339	0.0169754
792.417	0.0166933
792.495	0.0164294
792.573	0.0161259
792.651	0.0159555
792.729	0.0156790
792.808	0.0154622
792.886	0.0153866
792.964	0.0153289
793.042	0.0151437
793.120	0.0149751
793.198	0.0147540
793.276	0.0146622
793.354	0.0144865
793.433	0.0144040
793.511	0.0140543
793.589	0.0139228
793.667	0.0139346
793.745	0.0138477
793.823	0.0138686
793.901	0.0138840
793.979	0.0138568
794.058	0.0138875
794.136	0.0139181
794.214	0.0142529
794.292	0.0142706
794.370	0.0147499
794.448	0.0150255
794.526	0.0153401
794.604	0.0155941
794.683	0.0159673
794.761	0.0162297
794.839	0.0166638
794.917	0.0168848
794.995	0.0173198
795.073	0.0176342
795.151	0.0178058
795.229	0.0179629
795.308	0.0181426
795.386	0.0182994
795.464	0.0184111
795.542	0.0186449
795.620	0.0188488
795.698	0.0188664
795.776	0.0190135
795.854	0.0191280
795.933	0.0193911
796.011	0.0193636
796.089	0.0193248
796.167	0.0195168
796.245	0.0195443
796.323	0.0196010
796.401	0.0197080
796.479	0.0197612
796.558	0.0196879
796.636	0.0198201
796.714	0.0198612
796.792	0.0198428
796.870	0.0198348
796.948	0.0197614
797.026	0.0196621
797.104	0.0196479
797.183	0.0194383
797.261	0.0193839
797.339	0.0192051
797.417	0.0189113
797.495	0.0188456
797.573	0.0185875
797.651	0.0184088
797.729	0.0181879
797.808	0.0181065
797.886	0.0178545
797.964	0.0176704
798.042	0.0175577
798.120	0.0173710
798.198	0.0172156
798.276	0.0170134
798.354	0.0168120
798.433	0.0165546
798.511	0.0163646
798.589	0.0164783
798.667	0.0160596
798.745	0.0160764
798.823	0.0158824
798.901	0.0156537
798.979	0.0155634
799.058	0.0156067
799.136	0.0154514
799.214	0.0153523
799.292	0.0154099
799.370	0.0153185
799.448	0.0152612
799.526	0.0152045
799.604	0.0152763
799.683	0.0151535
799.761	0.0153806
799.839	0.0154076
799.917	0.0154997
799.995	0.0154549
800.073	0.0153113
800.151	0.0154450
800.229	0.0155272
800.308	0.0155528
800.386	0.0155351
800.464	0.0156119
800.542	0.0155280
800.620	0.0155952
800.698	0.0155797
800.776	0.0156184
800.854	0.0158685
800.933	0.0158517
801.011	0.0159309
801.089	0.0160767
801.167	0.0162375
801.245	0.0163224
801.323	0.0163489
801.401	0.0166872
801.479	0.0166808
801.558	0.0168887
801.636	0.0170900
801.714	0.0173558
801.792	0.0175362
801.870	0.0176343
801.948	0.0177161
802.026	0.0179554
802.104	0.0181642
802.183	0.0183521
802.261	0.0186710
802.339	0.0187946
802.417	0.0190050
802.495	0.0189336
802.573	0.0190582
802.651	0.0192866
802.729	0.0192880
802.808	0.0193121
802.886	0.0193678
802.964	0.0191745
803.042	0.0192926
803.120	0.0193423
803.198	0.0190723
803.276	0.0190514
803.354	0.0190034
803.433	0.0188791
803.511	0.0185937
803.589	0.0186243
803.667	0.0183128
803.745	0.0181154
803.823	0.0179184
803.901	0.0179243
803.979	0.0177272
804.058	0.0177272
804.136	0.0176078
804.214	0.0173255
804.292	0.0172879
804.370	0.0174962
804.448	0.0173557
804.526	0.0172578
804.604	0.0173152
804.683	0.0173695
804.761	0.0172364
804.839	0.0171476
804.917	0.0169746
804.995	0.0172200
805.073	0.0170481
805.151	0.0169933
805.229	0.0170467
805.308	0.0168948
805.386	0.0169000
805.464	0.0168641
805.542	0.0169762
805.620	0.0167641
805.698	0.0167459
805.776	0.0166684
805.854	0.0166898
805.933	0.0166205
806.011	0.0165845
806.089	0.0166217
806.167	0.0167292
806.245	0.0165276
806.323	0.0166634
806.401	0.0166893
806.479	0.0165956
806.558	0.0167326
806.636	0.0166805
806.714	0.0168675
806.792	0.0167665
806.870	0.0168702
806.948	0.0169570
807.026	0.0169994
807.104	0.0167793
807.183	0.0170166
807.261	0.0169733
807.339	0.0168793
807.417	0.0167384
807.495	0.0167788
807.573	0.0167795
807.651	0.0167361
807.729	0.0167608
807.808	0.0167793
807.886	0.0167018
807.964	0.0167380
808.042	0.0165511
808.120	0.0167037
808.198	0.0168364
808.276	0.0167782
808.354	0.0167602
808.433	0.0168734
808.511	0.0167789
808.589	0.0166746
808.667	0.0165411
808.745	0.0164729
808.823	0.0164620
808.901	0.0165160
808.979	0.0165393
809.058	0.0164608
809.136	0.0165488
809.214	0.0166144
809.292	0.0166881
809.370	0.0168137
809.448	0.0168345
809.526	0.0171107
809.604	0.0170613
809.683	0.0172186
809.761	0.0174304
809.839	0.0174047
809.917	0.0175217
809.995	0.0175381
810.073	0.0175783
810.151	0.0178329
810.229	0.0178450
810.308	0.0178198
810.386	0.0178069
810.464	0.0179331
810.542	0.0177480
810.620	0.0176755
810.698	0.0177122
810.776	0.0177560
810.854	0.0176885
810.933	0.0178059
811.011	0.0177240
811.089	0.0177307
811.167	0.0179282
811.245	0.0178413
811.323	0.0178369
811.401	0.0180651
811.479	0.0178527
811.558	0.0180770
811.636	0.0180728
811.714	0.0179338
811.792	0.0179543
811.870	0.0180559
811.948	0.0182242
812.026	0.0180656
812.104	0.0181967
812.183	0.0181642
812.261	0.0182101
812.339	0.0181698
812.417	0.0179512
812.495	0.0180110
812.573	0.0180585
812.651	0.0177155
812.729	0.0177457
812.808	0.0176565
812.886	0.0175436
812.964	0.0173381
813.042	0.0172270
813.120	0.0170718
813.198	0.0169169
813.276	0.0168375
813.354	0.0167074
813.433	0.0166595
813.511	0.0165322
813.589	0.0165742
813.667	0.0166535
813.745	0.0166331
813.823	0.0166720
813.901	0.0168087
813.979	0.0167958
814.058	0.0170100
814.136	0.0171235
814.214	0.0171687
814.292	0.0173625
814.370	0.0173362
814.448	0.0173849
814.526	0.0172751
814.604	0.0173460
814.683	0.0175413
814.761	0.0174933
814.839	0.0172353
814.917	0.0171967
814.995	0.0170781
815.073	0.0168044
815.151	0.0166982
815.229	0.0165376
815.308	0.0162754
815.386	0.0161590
815.464	0.0161414
815.542	0.0160191
815.620	0.0160088
815.698	0.0159507
815.776	0.0160519
815.854	0.0158787
815.933	0.0159985
816.011	0.0160463
816.089	0.0162824
816.167	0.0163178
816.245	0.0163735
816.323	0.0165356
816.401	0.0167047
816.479	0.0169423
816.558	0.0169698
816.636	0.0169608
816.714	0.0170667
816.792	0.0172380
816.870	0.0172618
816.948	0.0175410
817.026	0.0173950
817.104	0.0174325
817.183	0.0175610
817.261	0.0175391
817.339	0.0175869
817.417	0.0174663
817.495	0.0175960
817.573	0.0176470
817.651	0.0175352
817.729	0.0174881
817.808	0.0175364
817.886	0.0174018
817.964	0.0174282
818.042	0.0173039
818.120	0.0172546
818.198	0.0171975
818.276	0.0171274
818.354	0.0170943
818.433	0.0171038
818.511	0.0170705
818.589	0.0170037
818.667	0.0170887
818.745	0.0170523
818.823	0.0170132
818.901	0.0170088
818.979	0.0170644
819.058	0.0169453
819.136	0.0171556
819.214	0.0172282
819.292	0.0172742
819.370	0.0175230
819.448	0.0174207
819.526	0.0176646
819.604	0.0176971
819.683	0.0178885
819.761	0.0180361
819.839	0.0181830
819.917	0.0183435
819.995	0.0184680
820.073	0.0184662
820.151	0.0183875
820.229	0.0185505
820.308	0.0184805
820.386	0.0182618
820.464	0.0184231
820.542	0.0182599
820.620	0.0181769
820.698	0.0180629
820.776	0.0179498
820.854	0.0178244
820.933	0.0175707
821.011	0.0175844
821.089	0.0175239
821.167	0.0174104
821.245	0.0174030
821.323	0.0171407
821.401	0.0171362
821.479	0.0172119
821.558	0.0171651
821.636	0.0169190
821.714	0.0168434
821.792	0.0169444
821.870	0.0170695
821.948	0.0169537
822.026	0.0168559
822.104	0.0168729
822.183	0.0168948
822.261	0.0170328
822.339	0.0168722
822.417	0.0168898
822.495	0.0169744
822.573	0.0169120
822.651	0.0168805
822.729	0.0170150
822.808	0.0169962
822.886	0.0170686
822.964	0.0169906
823.042	0.0170509
823.120	0.0169962
823.198	0.0169939
823.276	0.0170139
823.354	0.0170431
823.433	0.0169292
823.511	0.0168954
823.589	0.0168325
823.667	0.0168075
823.745	0.0166024
823.823	0.0166495
823.901	0.0164773
823.979	0.0163941
824.058	0.0163123
824.136	0.0162222
824.214	0.0161400
824.292	0.0161906
824.370	0.0160374
824.448	0.0161068
824.526	0.0161575
824.604	0.0162784
824.683	0.0160481
824.761	0.0161016
824.839	0.0163473
824.917	0.0164244
824.995	0.0164123
825.073	0.0165742
825.151	0.0166425
825.229	0.0168137
825.308	0.0169301
825.386	0.0170696
825.464	0.0171523
825.542	0.0173935
825.620	0.0172362
825.698	0.0174994
825.776	0.0175993
825.854	0.0175022
825.933	0.0176709
826.011	0.0176254
826.089	0.0176974
826.167	0.0177182
826.245	0.0177146
826.323	0.0179331
826.401	0.0179909
826.479	0.0178303
826.558	0.0178804
826.636	0.0178159
826.714	0.0178823
826.792	0.0177854
826.870	0.0178148
826.948	0.0179578
827.026	0.0181343
827.104	0.0180660
827.183	0.0179603
827.261	0.0181299
827.339	0.0183044
827.417	0.0181104
827.495	0.0181216
827.573	0.0181908
827.651	0.0184090
827.729	0.0180986
827.808	0.0182556
827.886	0.0183292
827.964	0.0183086
828.042	0.0180730
828.120	0.0180630
828.198	0.0180782
828.276	0.0180244
828.354	0.0179133
828.433	0.0179141
828.511	0.0178746
828.589	0.0177072
828.667	0.0174962
828.745	0.0173347
828.823	0.0172238
828.901	0.0172450
828.979	0.0170673
829.058	0.0169175
829.136	0.0169389
829.214	0.0167341
829.292	0.0166007
829.370	0.0165804
829.448	0.0164989
829.526	0.0164642
829.604	0.0165155
829.683	0.0163457
829.761	0.0163199
829.839	0.0162398
829.917	0.0162664
829.995	0.0164993
830.073	0.0163568
830.151	0.0162887
830.229	0.0163290
830.308	0.0161758
830.386	0.0164497
830.464	0.0164680
830.542	0.0164093
830.620	0.0164199
830.698	0.0164758
830.776	0.0165382
830.854	0.0165223
830.933	0.0164095
831.011	0.0166523
831.089	0.0164850
831.167	0.0166040
831.245	0.0167377
831.323	0.0166652
831.401	0.0168218
831.479	0.0167204
831.558	0.0168380
831.636	0.0167750
831.714	0.0170506
831.792	0.0170634
831.870	0.0171050
831.948	0.0172398
832.026	0.0173973
832.104	0.0175087
832.183	0.0175396
832.261	0.0177146
832.339	0.0178075
832.417	0.0177338
832.495	0.0177830
832.573	0.0179757
832.651	0.0179162
832.729	0.0179521
832.808	0.0180257
832.886	0.0179816
832.964	0.0179369
833.042	0.0179539
833.120	0.0178038
833.198	0.0179705
833.276	0.0177908
833.354	0.0176669
833.433	0.0175990
833.511	0.0174274
833.589	0.0174481
833.667	0.0175136
833.745	0.0174966
833.823	0.0173637
833.901	0.0172100
833.979	0.0172723
834.058	0.0171738
834.136	0.0171730
834.214	0.0172018
834.292	0.0172598
834.370	0.0171049
834.448	0.0171015
834.526	0.0170150
834.604	0.0169627
834.683	0.0168545
834.761	0.0169148
834.839	0.0167886
834.917	0.0167711
834.995	0.0168734
835.073	0.0168295
835.151	0.0168359
835.229	0.0168749
835.308	0.0167883
835.386	0.0169534
835.464	0.0168228
835.542	0.0167477
835.620	0.0169971
835.698	0.0169187
835.776	0.0169466
835.854	0.0171835
835.933	0.0172465
836.011	0.0171238
836.089	0.0172937
836.167	0.0173013
836.245	0.0174612
836.323	0.0173895
836.401	0.0174436
836.479	0.0174953
836.558	0.0174881
836.636	0.0175184
836.714	0.0176772
836.792	0.0176609
836.870	0.0176008
836.948	0.0175006
837.026	0.0177045
837.104	0.0176586
837.183	0.0176584
837.261	0.0176355
837.339	0.0177561
837.417	0.0176291
837.495	0.0175879
837.573	0.0175848
837.651	0.0174368
837.729	0.0175555
837.808	0.0174844
837.886	0.0172958
837.964	0.0174086
838.042	0.0175387
838.120	0.0174050
838.198	0.0172971
838.276	0.0172732
838.354	0.0173196
838.433	0.0173494
838.511	0.0173962
838.589	0.0175007
838.667	0.0174664
838.745	0.0173824
838.823	0.0173598
838.901	0.0175093
838.979	0.0174565
839.058	0.0174030
839.136	0.0175847
839.214	0.0173367
839.292	0.0173465
839.370	0.0173064
839.448	0.0173485
839.526	0.0171105
839.604	0.0171074
839.683	0.0171126
839.761	0.0168150
839.839	0.0170694
839.917	0.0168205
839.995	0.0166017
840.073	0.0166689
840.151	0.0166221
840.229	0.0165714
840.308	0.0168695
840.386	0.0166602
840.464	0.0166058
840.542	0.0165374
840.620	0.0166895
840.698	0.0166659
840.776	0.0167311
840.854	0.0168391
840.933	0.0168091
841.011	0.0167379
841.089	0.0167056
841.167	0.0168710
841.245	0.0169611
841.323	0.0169895
841.401	0.0168844
841.479	0.0170210
841.558	0.0169201
841.636	0.0169797
841.714	0.0169897
841.792	0.0171001
841.870	0.0170155
841.948	0.0168711
842.026	0.0169257
842.104	0.0167981
842.183	0.0169636
842.261	0.0170039
842.339	0.0169537
842.417	0.0169839
842.495	0.0171297
842.573	0.0171208
842.651	0.0170012
842.729	0.0170749
842.808	0.0172300
842.886	0.0172321
842.964	0.0172360
843.042	0.0173098
843.120	0.0173945
843.198	0.0174713
843.276	0.0174514
843.354	0.0174560
843.433	0.0173926
843.511	0.0176299
843.589	0.0176450
843.667	0.0176839
843.745	0.0177401
843.823	0.0177421
843.901	0.0178922
843.979	0.0179601
844.058	0.0179844
844.136	0.0180144
844.214	0.0180202
844.292	0.0181714
844.370	0.0180267
844.448	0.0178886
844.526	0.0181271
844.604	0.0180980
844.683	0.0179715
844.761	0.0177938
844.839	0.0177415
844.917	0.0176875
844.995	0.0177586
845.073	0.0175742
845.151	0.0175719
845.229	0.0175438
845.308	0.0174902
845.386	0.0173388
845.464	0.0171429
845.542	0.0172495
845.620	0.0171304
845.698	0.0171709
845.776	0.0171748
845.854	0.0170235
845.933	0.0170286
846.011	0.0169952
846.089	0.0169558
846.167	0.0169489
846.245	0.0170161
846.323	0.0167999
846.401	0.0169046
846.479	0.0168333
846.558	0.0168648
846.636	0.0168753
846.714	0.0169558
846.792	0.0168681
846.870	0.0169382
846.948	0.0170525
847.026	0.0169221
847.104	0.0170248
847.183	0.0168341
847.261	0.0169785
847.339	0.0169267
847.417	0.0170287
847.495	0.0168843
847.573	0.0170000
847.651	0.0169466
847.729	0.0169393
847.808	0.0169238
847.886	0.0169357
847.964	0.0167055
848.042	0.0167365
848.120	0.0167622
848.198	0.0167763
848.276	0.0166559
848.354	0.0167037
848.433	0.0165716
848.511	0.0167032
848.589	0.0167881
848.667	0.0166745
848.745	0.0168327
848.823	0.0168119
848.901	0.0167798
848.979	0.0169608
849.058	0.0168916
849.136	0.0170555
849.214	0.0172174
849.292	0.0171931
849.370	0.0174645
849.448	0.0173044
849.526	0.0175444
849.604	0.0175326
849.683	0.0176003
849.761	0.0176555
849.839	0.0175938
849.917	0.0175517
849.995	0.0176310
850.073	0.0176167
850.151	0.0175500
850.229	0.0176717
850.308	0.0176149
850.386	0.0177710
850.464	0.0178356
850.542	0.0175735
850.620	0.0176432
850.698	0.0178336
850.776	0.0177010
850.854	0.0177362
850.933	0.0176615
851.011	0.0177448
851.089	0.0178760
851.167	0.0178085
851.245	0.0175633
851.323	0.0176460
851.401	0.0177425
851.479	0.0175459
851.558	0.0174411
851.636	0.0173356
851.714	0.0173002
851.792	0.0172643
851.870	0.0171609
851.948	0.0169587
852.026	0.0171478
852.104	0.0171368
852.183	0.0170365
852.261	0.0170030
852.339	0.0169959
852.417	0.0167876
852.495	0.0169053
852.573	0.0168806
852.651	0.0168241
852.729	0.0169382
852.808	0.0170808
852.886	0.0171371
852.964	0.0169646
853.042	0.0168899
853.120	0.0170141
853.198	0.0170924
853.276	0.0171278
853.354	0.0172075
853.433	0.0170885
853.511	0.0171997
853.589	0.0171921
853.667	0.0170533
853.745	0.0171733
853.823	0.0172270
853.901	0.0170993
853.979	0.0171113
854.058	0.0172298
854.136	0.0173029
854.214	0.0172110
854.292	0.0173288
854.370	0.0173241
854.448	0.0173819
854.526	0.0171751
854.604	0.0171082
854.683	0.0172504
854.761	0.0171297
854.839	0.0172650
854.917	0.0171660
854.995	0.0172649
855.073	0.0172675
855.151	0.0172108
855.229	0.0171154
855.308	0.0171072
855.386	0.0173090
855.464	0.0172088
855.542	0.0172416
855.620	0.0171682
855.698	0.0173383
855.776	0.0172043
855.854	0.0171030
855.933	0.0171370
856.011	0.0172958
856.089	0.0173293
856.167	0.0172366
856.245	0.0171259
856.323	0.0172159
856.401	0.0172166
856.479	0.0170866
856.558	0.0172202
856.636	0.0172485
856.714	0.0171155
856.792	0.0170927
856.870	0.0171349
856.948	0.0170786
857.026	0.0171677
857.104	0.0170196
857.183	0.0170210
857.261	0.0171684
857.339	0.0172711
857.417	0.0170908
857.495	0.0169591
857.573	0.0170443
857.651	0.0170000
857.729	0.0171359
857.808	0.0172726
857.886	0.0172752
857.964	0.0172813
858.042	0.0173207
858.120	0.0171700
858.198	0.0172913
858.276	0.0172907
858.354	0.0172878
858.433	0.0172395
858.511	0.0172090
858.589	0.0171487
858.667	0.0171138
858.745	0.0170697
858.823	0.0169849
858.901	0.0170502
858.979	0.0169189
859.058	0.0171046
859.136	0.0170781
859.214	0.0168851
859.292	0.0169057
859.370	0.0169749
859.448	0.0168279
859.526	0.0169483
859.604	0.0168713
859.683	0.0169946
859.761	0.0169833
859.839	0.0168701
859.917	0.0169280
859.995	0.0170006
860.073	0.0171057
860.151	0.0170840
860.229	0.0170660
860.308	0.0172345
860.386	0.0173656
860.464	0.0173730
860.542	0.0175137
860.620	0.0175310
860.698	0.0175524
860.776	0.0175959
860.854	0.0175845
860.933	0.0177654
861.011	0.0177892
861.089	0.0177969
861.167	0.0177518
861.245	0.0176878
861.323	0.0177060
861.401	0.0178217
861.479	0.0177011
861.558	0.0176593
861.636	0.0175056
861.714	0.0177460
861.792	0.0176684
861.870	0.0175948
861.948	0.0175647
862.026	0.0174581
862.104	0.0173208
862.183	0.0174869
862.261	0.0173415
862.339	0.0173096
862.417	0.0172141
862.495	0.0172089
862.573	0.0172382
862.651	0.0170941
862.729	0.0169478
862.808	0.0170914
862.886	0.0170470
862.964	0.0172031
863.042	0.0169846
863.120	0.0168607
863.198	0.0170204
863.276	0.0171515
863.354	0.0170748
863.433	0.0170185
863.511	0.0170998
863.589	0.0171134
863.667	0.0169522
863.745	0.0170524
863.823	0.0170422
863.901	0.0167998
863.979	0.0168130
864.058	0.0168921
864.136	0.0168727
864.214	0.0166967
864.292	0.0168183
864.370	0.0169489
864.448	0.0168688
864.526	0.0169151
864.604	0.0169945
864.683	0.0169814
864.761	0.0170686
864.839	0.0171951
864.917	0.0171122
864.995	0.0171693
865.073	0.0171090
865.151	0.0171230
865.229	0.0170866
865.308	0.0170589
865.386	0.0170260
865.464	0.0169567
865.542	0.0168285
865.620	0.0168088
865.698	0.0169595
865.776	0.0168569
865.854	0.0168481
865.933	0.0168871
866.011	0.0171259
866.089	0.0172084
866.167	0.0171640
866.245	0.0172538
866.323	0.0173492
866.401	0.0174351
866.479	0.0172230
866.558	0.0171844
866.636	0.0174098
866.714	0.0173006
866.792	0.0173500
866.870	0.0173090
866.948	0.0170792
867.026	0.0171844
867.104	0.0171840
867.183	0.0172299
867.261	0.0170904
867.339	0.0172793
867.417	0.0173144
867.495	0.0173060
867.573	0.0173670
867.651	0.0174849
867.729	0.0175758
867.808	0.0174717
867.886	0.0175259
867.964	0.0175402
868.042	0.0176456
868.120	0.0176529
868.198	0.0176572
868.276	0.0176979
868.354	0.0174246
868.433	0.0173178
868.511	0.0174906
868.589	0.0173735
868.667	0.0172382
868.745	0.0174307
868.823	0.0173666
868.901	0.0173631
868.979	0.0172245
869.058	0.0171349
869.136	0.0172047
869.214	0.0171321
869.292	0.0171151
869.370	0.0172449
869.448	0.0171146
869.526	0.0171331
869.604	0.0170827
869.683	0.0170435
869.761	0.0173109
869.839	0.0170835
869.917	0.0170199
869.995	0.0170529
870.073	0.0171284
870.151	0.0171006
870.229	0.0170313
870.308	0.0170332
870.386	0.0172210
870.464	0.0170860
870.542	0.0171122
870.620	0.0171656
870.698	0.0173425
870.776	0.0172504
870.854	0.0171521
870.933	0.0173769
871.011	0.0173195
871.089	0.0174289
871.167	0.0174034
871.245	0.0171908
871.323	0.0173290
871.401	0.0174439
871.479	0.0172564
871.558	0.0172855
871.636	0.0172818
871.714	0.0173693
871.792	0.0173784
871.870	0.0170821
871.948	0.0170207
872.026	0.0172153
872.104	0.0171809
872.183	0.0171933
872.261	0.0171622
872.339	0.0169523
872.417	0.0170521
872.495	0.0172269
872.573	0.0170638
872.651	0.0172231
872.729	0.0171764
872.808	0.0171896
872.886	0.0172063
872.964	0.0170770
873.042	0.0170468
873.120	0.0171275
873.198	0.0172387
873.276	0.0171046
873.354	0.0170645
873.433	0.0169825
873.511	0.0170064
873.589	0.0170346
873.667	0.0169179
873.745	0.0169585
873.823	0.0169435
873.901	0.0169423
873.979	0.0168905
874.058	0.0170186
874.136	0.0169746
874.214	0.0170348
874.292	0.0169902
874.370	0.0168747
874.448	0.0169069
874.526	0.0169588
874.604	0.0171243
874.683	0.0170048
874.761	0.0169425
874.839	0.0170783
874.917	0.0170650
874.995	0.0171782
875.073	0.0170833
875.151	0.0171043
875.229	0.0170715
875.308	0.0170711
875.386	0.0170284
875.464	0.0170861
875.542	0.0170763
875.620	0.0170658
875.698	0.0170070
875.776	0.0171891
875.854	0.0170647
875.933	0.0171556
876.011	0.0172857
876.089	0.0172974
876.167	0.0172182
876.245	0.0173690
876.323	0.0174082
876.401	0.0174824
876.479	0.0174606
876.558	0.0175756
876.636	0.0175203
876.714	0.0175156
876.792	0.0176582
876.870	0.0177687
876.948	0.0176985
877.026	0.0176636
877.104	0.0176377
877.183	0.0177044
877.261	0.0177794
877.339	0.0177563
877.417	0.0175970
877.495	0.0175639
877.573	0.0175240
877.651	0.0173800
877.729	0.0174928
877.808	0.0173833
877.886	0.0172041
877.964	0.0171332
878.042	0.0172298
878.120	0.0174033
878.198	0.0173013
878.276	0.0172065
878.354	0.0170557
878.433	0.0171650
878.511	0.0172150
878.589	0.0170421
878.667	0.0169596
878.745	0.0167461
878.823	0.0167924
878.901	0.0168606
878.979	0.0170132
879.058	0.0170937
879.136	0.0170734
879.214	0.0175085
879.292	0.0176360
879.370	0.0177615
879.448	0.0178701
879.526	0.0181087
879.604	0.0181429
879.683	0.0178844
879.761	0.0177081
879.839	0.0176478
879.917	0.0172173
879.995	0.0168333
880.073	0.0164410
880.151	0.0158831
880.229	0.0154550
880.308	0.0150253
880.386	0.0147405
880.464	0.0144949
880.542	0.0144912
880.620	0.0148250
880.698	0.0151558
880.776	0.0155601
880.854	0.0161697
880.933	0.0166931
881.011	0.0172827
881.089	0.0180107
881.167	0.0186004
881.245	0.0192789
881.323	0.0196703
881.401	0.0200507
881.479	0.0202203
881.558	0.0204573
881.636	0.0204425
881.714	0.0204597
881.792	0.0202215
881.870	0.0200128
881.948	0.0197520
882.026	0.0191399
882.104	0.0188519
882.183	0.0183418
882.261	0.0176455
882.339	0.0171938
882.417	0.0167714
882.495	0.0160648
882.573	0.0154993
882.651	0.0150356
882.729	0.0147358
882.808	0.0144350
882.886	0.0140599
882.964	0.0139397
883.042	0.0139156
883.120	0.0139349
883.198	0.0137971
883.276	0.0139278
883.354	0.0141310
883.433	0.0143670
883.511	0.0145727
883.589	0.0149830
883.667	0.0153040
883.745	0.0158453
883.823	0.0161836
883.901	0.0167337
883.979	0.0171116
884.058	0.0174883
884.136	0.0180559
884.214	0.0185261
884.292	0.0188256
884.370	0.0190668
884.448	0.0194829
884.526	0.0196774
884.604	0.0196652
884.683	0.0197967
884.761	0.0197157
884.839	0.0196703
884.917	0.0194108
884.995	0.0193272
885.073	0.0191475
885.151	0.0188641
885.229	0.0185613
885.308	0.0183517
885.386	0.0182407
885.464	0.0181668
885.542	0.0178925
885.620	0.0177637
885.698	0.0178449
885.776	0.0175673
885.854	0.0173940
885.933	0.0172598
886.011	0.0172052
886.089	0.0171996
886.167	0.0171369
886.245	0.0171367
886.323	0.0170168
886.401	0.0172523
886.479	0.0171003
886.558	0.0170731
886.636	0.0170941
886.714	0.0171510
886.792	0.0172693
886.870	0.0171574
886.948	0.0172208
887.026	0.0173132
887.104	0.0170221
887.183	0.0168218
887.261	0.0166467
887.339	0.0166897
887.417	0.0166338
887.495	0.0165200
887.573	0.0165192
887.651	0.0163643
887.729	0.0163171
887.808	0.0162209
887.886	0.0162956
887.964	0.0164035
888.042	0.0163438
888.120	0.0163023
888.198	0.0163388
888.276	0.0164828
888.354	0.0164348
888.433	0.0165950
888.511	0.0167337
888.589	0.0168182
888.667	0.0168166
888.745	0.0169746
888.823	0.0169733
888.901	0.0170393
888.979	0.0171209
889.058	0.0171976
889.136	0.0172339
889.214	0.0173676
889.292	0.0175457
889.370	0.0175092
889.448	0.0176524
889.526	0.0176747
889.604	0.0175591
889.683	0.0176525
889.761	0.0176640
889.839	0.0174833
889.917	0.0177701
889.995	0.0176812
890.073	0.0176083
890.151	0.0177078
890.229	0.0177704
890.308	0.0177676
890.386	0.0176712
890.464	0.0176124
890.542	0.0176403
890.620	0.0174743
890.698	0.0174313
890.776	0.0174077
890.854	0.0172449
890.933	0.0170460
891.011	0.0169505
891.089	0.0167800
891.167	0.0165510
891.245	0.0166909
891.323	0.0166756
891.401	0.0164234
891.479	0.0162884
891.558	0.0163243
891.636	0.0164026
891.714	0.0165029
891.792	0.0164224
891.870	0.0164524
891.948	0.0165680
892.026	0.0166732
892.104	0.0165641
892.183	0.0167236
892.261	0.0168614
892.339	0.0169537
892.417	0.0171161
892.495	0.0172637
892.573	0.0170980
892.651	0.0172380
892.729	0.0172443
892.808	0.0172976
892.886	0.0173341
892.964	0.0174490
893.042	0.0172826
893.120	0.0171146
893.198	0.0173315
893.276	0.0171914
893.354	0.0172715
893.433	0.0172302
893.511	0.0173250
893.589	0.0175375
893.667	0.0174113
893.745	0.0175822
893.823	0.0177182
893.901	0.0178046
893.979	0.0177052
894.058	0.0179355
894.136	0.0179338
894.214	0.0179220
894.292	0.0181483
894.370	0.0181474
894.448	0.0180847
894.526	0.0181449
894.604	0.0183958
894.683	0.0183234
894.761	0.0183450
894.839	0.0183915
894.917	0.0182214
894.995	0.0183102
895.073	0.0182443
895.151	0.0180943
895.229	0.0180995
895.308	0.0178326
895.386	0.0176052
895.464	0.0175493
895.542	0.0175069
895.620	0.0173602
895.698	0.0170547
895.776	0.0170695
895.854	0.0170460
895.933	0.0168842
896.011	0.0166699
896.089	0.0167245
896.167	0.0167422
896.245	0.0167912
896.323	0.0166174
896.401	0.0165909
896.479	0.0167159
896.558	0.0167419
896.636	0.0168182
896.714	0.0169187
896.792	0.0167746
896.870	0.0169739
896.948	0.0169810
897.026	0.0170740
897.104	0.0170605
897.183	0.0170826
897.261	0.0171170
897.339	0.0172190
897.417	0.0169055
897.495	0.0169956
897.573	0.0169251
897.651	0.0170161
897.729	0.0169404
897.808	0.0167252
897.886	0.0165715
897.964	0.0165550
898.042	0.0163794
898.120	0.0163325
898.198	0.0162051
898.276	0.0160290
898.354	0.0159510
898.433	0.0156725
898.511	0.0157050
898.589	0.0158595
898.667	0.0156292
898.745	0.0156344
898.823	0.0154434
898.901	0.0155757
898.979	0.0156120
899.058	0.0156818
899.136	0.0156773
899.214	0.0157471
899.292	0.0159898
899.370	0.0161971
899.448	0.0163949
899.526	0.0167812
899.604	0.0171800
899.683	0.0174116
899.761	0.0176801
899.839	0.0180412
899.917	0.0182381
899.995	0.0186139
900.073	0.0187947
900.151	0.0188603
900.229	0.0191850
900.308	0.0191280
900.386	0.0192545
900.464	0.0192615
900.542	0.0192015
900.620	0.0191930
900.698	0.0190948
900.776	0.0188399
900.854	0.0188065
900.933	0.0186229
901.011	0.0185482
901.089	0.0183671
901.167	0.0184268
901.245	0.0182440
901.323	0.0180865
901.401	0.0179507
901.479	0.0178293
901.558	0.0178636
901.636	0.0176531
901.714	0.0175989
901.792	0.0175748
901.870	0.0175142
901.948	0.0175401
902.026	0.0175643
902.104	0.0176516
902.183	0.0174998
902.261	0.0174426
902.339	0.0174075
902.417	0.0172344
902.495	0.0173337
902.573	0.0171501
902.651	0.0171881
902.729	0.0170936
902.808	0.0168372
902.886	0.0169547
902.964	0.0169087
903.042	0.0169314
903.120	0.0167670
903.198	0.0165279
903.276	0.0166017
903.354	0.0164761
903.433	0.0164629
903.511	0.0167043
903.589	0.0165949
903.667	0.0163395
903.745	0.0165247
903.823	0.0164330
903.901	0.0165298
903.979	0.0166209
904.058	0.0164941
904.136	0.0165525
904.214	0.0168282
904.292	0.0167563
904.370	0.0167461
904.448	0.0167742
904.526	0.0166841
904.604	0.0167815
904.683	0.0166788
904.761	0.0167934
904.839	0.0167986
904.917	0.0167152
904.995	0.0167609
905.073	0.0166933
905.151	0.0168736
905.229	0.0168134
905.308	0.0168105
905.386	0.0167520
905.464	0.0168420
905.542	0.0168672
905.620	0.0168150
905.698	0.0168010
905.776	0.0168517
905.854	0.0168488
905.933	0.0167612
906.011	0.0166036
906.089	0.0168372
906.167	0.0168980
906.245	0.0168172
906.323	0.0169785
906.401	0.0170565
906.479	0.0169213
906.558	0.0170288
906.636	0.0171157
906.714	0.0173144
906.792	0.0173158
906.870	0.0174277
906.948	0.0173929
907.026	0.0174541
907.104	0.0175603
907.183	0.0176925
907.261	0.0176340
907.339	0.0175507
907.417	0.0174961
907.495	0.0175491
907.573	0.0177653
907.651	0.0175364
907.729	0.0175223
907.808	0.0174337
907.886	0.0176083
907.964	0.0174889
908.042	0.0173273
908.120	0.0173981
908.198	0.0176085
908.276	0.0174426
908.354	0.0176497
908.433	0.0176485
908.511	0.0176348
908.589	0.0178535
908.667	0.0178404
908.745	0.0177799
908.823	0.0178902
908.901	0.0179258
908.979	0.0176775
909.058	0.0177988
909.136	0.0178652
909.214	0.0177702
909.292	0.0177742
909.370	0.0176980
909.448	0.0176253
909.526	0.0174977
909.604	0.0175280
909.683	0.0174001
909.761	0.0174403
909.839	0.0172636
909.917	0.0173512
909.995	0.0173635
910.073	0.0173302
910.151	0.0173116
910.229	0.0173632
910.308	0.0171410
910.386	0.0172068
910.464	0.0171877
910.542	0.0171307
910.620	0.0171984
910.698	0.0172868
910.776	0.0171392
910.854	0.0171310
910.933	0.0170860
911.011	0.0170057
911.089	0.0168643
911.167	0.0168403
911.245	0.0167353
911.323	0.0167347
911.401	0.0167086
911.479	0.0168818
911.558	0.0168618
911.636	0.0167876
911.714	0.0169851
911.792	0.0169389
911.870	0.0171313
911.948	0.0168930
912.026	0.0170174
912.104	0.0171540
912.183	0.0173109
912.261	0.0172065
912.339	0.0172624
912.417	0.0171979
912.495	0.0172297
912.573	0.0170573
912.651	0.0172361
912.729	0.0172831
912.808	0.0173230
912.886	0.0173850
912.964	0.0172510
913.042	0.0172830
913.120	0.0172950
913.198	0.0173199
913.276	0.0172655
913.354	0.0172264
913.433	0.0170420
913.511	0.0170946
913.589	0.0171047
913.667	0.0169677
913.745	0.0169085
913.823	0.0169810
913.901	0.0167242
913.979	0.0168290
914.058	0.0167933
914.136	0.0168333
914.214	0.0168913
914.292	0.0166421
914.370	0.0168586
914.448	0.0167925
914.526	0.0165766
914.604	0.0166979
914.683	0.0167471
914.761	0.0167938
914.839	0.0166766
914.917	0.0165995
914.995	0.0167509
915.073	0.0168616
915.151	0.0166831
915.229	0.0167248
915.308	0.0168198
915.386	0.0169317
915.464	0.0167570
915.542	0.0168671
915.620	0.0168616
915.698	0.0167806
915.776	0.0169725
915.854	0.0169491
915.933	0.0169443
916.011	0.0169073
916.089	0.0169769
916.167	0.0169856
916.245	0.0169771
916.323	0.0169069
916.401	0.0169770
916.479	0.0171430
916.558	0.0171741
916.636	0.0171667
916.714	0.0172778
916.792	0.0175967
916.870	0.0175515
916.948	0.0178078
917.026	0.0179479
917.104	0.0181444
917.183	0.0182175
917.261	0.0182871
917.339	0.0185577
917.417	0.0186845
917.495	0.0187890
917.573	0.0185920
917.651	0.0188696
917.729	0.0187754
917.808	0.0186057
917.886	0.0188190
917.964	0.0187437
918.042	0.0186007
918.120	0.0183971
918.198	0.0184172
918.276	0.0182532
918.354	0.0181026
918.433	0.0179005
918.511	0.0178951
918.589	0.0177816
918.667	0.0176729
918.745	0.0176785
918.823	0.0175121
918.901	0.0174330
918.979	0.0172818
919.058	0.0173110
919.136	0.0172198
919.214	0.0171098
919.292	0.0170190
919.370	0.0169968
919.448	0.0168818
919.526	0.0167998
919.604	0.0166917
919.683	0.0167046
919.761	0.0166355
919.839	0.0164552
919.917	0.0164696
