05/26/2022	00:24:49	Ver.	4.1	UNKNOWN
Optical Delay	599.988409	Delta X		0.078125	Sweeps	1	Scan Rate	0/0
Coordinates	Axis 1	NaN	Axis 2	NaN	Axis 3	NaN	Axis 4	NaN	Axis 5	NaN	Axis 6	0.000000
TX Power	0.000000	RX Power	0.000000

599.988	0.0167759
600.067	0.0166944
600.145	0.0168210
600.223	0.0167641
600.301	0.0166171
600.379	0.0168209
600.457	0.0167040
600.535	0.0168273
600.613	0.0168151
600.692	0.0167302
600.770	0.0166875
600.848	0.0167648
600.926	0.0167886
601.004	0.0167480
601.082	0.0168756
601.160	0.0166515
601.238	0.0166599
601.317	0.0167545
601.395	0.0168047
601.473	0.0168166
601.551	0.0168133
601.629	0.0167985
601.707	0.0167036
601.785	0.0166239
601.863	0.0168298
601.942	0.0167544
602.020	0.0165599
602.098	0.0168429
602.176	0.0167461
602.254	0.0167236
602.332	0.0167838
602.410	0.0168486
602.488	0.0167500
602.567	0.0167582
602.645	0.0168183
602.723	0.0166404
602.801	0.0168244
602.879	0.0168306
602.957	0.0166968
603.035	0.0166646
603.113	0.0166431
603.192	0.0167803
603.270	0.0167268
603.348	0.0168339
603.426	0.0168055
603.504	0.0167950
603.582	0.0168040
603.660	0.0168037
603.738	0.0167143
603.817	0.0168176
603.895	0.0166785
603.973	0.0166521
604.051	0.0167561
604.129	0.0167871
604.207	0.0167197
604.285	0.0167734
604.363	0.0169438
604.442	0.0167380
604.520	0.0167660
604.598	0.0167537
604.676	0.0166842
604.754	0.0167311
604.832	0.0166805
604.910	0.0168534
604.988	0.0166930
605.067	0.0166307
605.145	0.0166451
605.223	0.0167255
605.301	0.0167689
605.379	0.0168642
605.457	0.0167314
605.535	0.0167614
605.613	0.0167564
605.692	0.0167666
605.770	0.0167131
605.848	0.0167107
605.926	0.0167130
606.004	0.0166513
606.082	0.0168428
606.160	0.0167202
606.238	0.0166817
606.317	0.0168365
606.395	0.0168040
606.473	0.0165974
606.551	0.0166389
606.629	0.0168597
606.707	0.0167439
606.785	0.0167363
606.863	0.0168143
606.942	0.0167709
607.020	0.0166919
607.098	0.0167165
607.176	0.0167069
607.254	0.0167560
607.332	0.0165736
607.410	0.0167376
607.488	0.0167831
607.567	0.0169475
607.645	0.0167332
607.723	0.0166591
607.801	0.0168311
607.879	0.0167053
607.957	0.0167545
608.035	0.0167398
608.113	0.0168039
608.192	0.0168891
608.270	0.0168753
608.348	0.0167435
608.426	0.0168288
608.504	0.0168616
608.582	0.0168544
608.660	0.0168681
608.738	0.0167777
608.817	0.0168758
608.895	0.0166954
608.973	0.0168277
609.051	0.0168655
609.129	0.0166524
609.207	0.0166016
609.285	0.0166067
609.363	0.0166716
609.442	0.0166333
609.520	0.0165598
609.598	0.0167216
609.676	0.0165951
609.754	0.0166292
609.832	0.0167121
609.910	0.0167342
609.988	0.0165977
610.067	0.0166933
610.145	0.0166983
610.223	0.0166444
610.301	0.0169566
610.379	0.0168008
610.457	0.0166505
610.535	0.0168980
610.613	0.0167920
610.692	0.0168247
610.770	0.0170008
610.848	0.0168947
610.926	0.0168520
611.004	0.0168532
611.082	0.0170013
611.160	0.0167970
611.238	0.0168680
611.317	0.0169213
611.395	0.0168559
611.473	0.0167811
611.551	0.0168657
611.629	0.0169353
611.707	0.0167768
611.785	0.0166356
611.863	0.0166209
611.942	0.0167611
612.020	0.0166868
612.098	0.0166996
612.176	0.0167937
612.254	0.0166916
612.332	0.0167014
612.410	0.0166500
612.488	0.0165227
612.567	0.0166470
612.645	0.0166207
612.723	0.0166306
612.801	0.0166058
612.879	0.0166759
612.957	0.0167451
613.035	0.0167131
613.113	0.0166680
613.192	0.0167739
613.270	0.0167287
613.348	0.0166302
613.426	0.0168631
613.504	0.0168195
613.582	0.0167374
613.660	0.0166811
613.738	0.0168622
613.817	0.0166973
613.895	0.0167947
613.973	0.0168382
614.051	0.0167244
614.129	0.0168362
614.207	0.0167711
614.285	0.0167968
614.363	0.0168990
614.442	0.0168913
614.520	0.0168199
614.598	0.0166982
614.676	0.0168082
614.754	0.0167886
614.832	0.0169402
614.910	0.0167511
614.988	0.0169279
615.067	0.0167884
615.145	0.0168217
615.223	0.0167918
615.301	0.0167868
615.379	0.0168967
615.457	0.0167453
615.535	0.0167502
615.613	0.0168789
615.692	0.0169125
615.770	0.0168512
615.848	0.0168384
615.926	0.0167853
616.004	0.0166605
616.082	0.0167665
616.160	0.0167014
616.238	0.0168464
616.317	0.0168115
616.395	0.0168343
616.473	0.0169084
616.551	0.0168266
616.629	0.0167578
616.707	0.0167005
616.785	0.0167385
616.863	0.0167352
616.942	0.0166548
617.020	0.0167735
617.098	0.0168978
617.176	0.0168748
617.254	0.0167381
617.332	0.0166374
617.410	0.0167584
617.488	0.0167069
617.567	0.0167326
617.645	0.0167188
617.723	0.0167959
617.801	0.0166959
617.879	0.0167255
617.957	0.0167332
618.035	0.0166210
618.113	0.0167278
618.192	0.0166953
618.270	0.0167909
618.348	0.0166543
618.426	0.0166468
618.504	0.0166972
618.582	0.0168629
618.660	0.0167382
618.738	0.0166949
618.817	0.0168558
618.895	0.0168041
618.973	0.0167872
619.051	0.0167873
619.129	0.0168176
619.207	0.0168130
619.285	0.0167441
619.363	0.0167332
619.442	0.0167397
619.520	0.0167664
619.598	0.0167535
619.676	0.0166802
619.754	0.0168918
619.832	0.0168464
619.910	0.0166820
619.988	0.0168229
620.067	0.0169430
620.145	0.0167644
620.223	0.0167056
620.301	0.0168522
620.379	0.0168110
620.457	0.0166708
620.535	0.0166580
620.613	0.0168814
620.692	0.0167229
620.770	0.0167332
620.848	0.0169010
620.926	0.0169212
621.004	0.0168032
621.082	0.0168989
621.160	0.0167606
621.238	0.0169003
621.317	0.0166964
621.395	0.0166896
621.473	0.0169941
621.551	0.0167585
621.629	0.0168119
621.707	0.0168494
621.785	0.0168143
621.863	0.0169447
621.942	0.0169711
622.020	0.0168934
622.098	0.0167586
622.176	0.0166781
622.254	0.0168078
622.332	0.0168015
622.410	0.0168837
622.488	0.0168513
622.567	0.0167042
622.645	0.0167758
622.723	0.0167804
622.801	0.0167233
622.879	0.0167927
622.957	0.0168719
623.035	0.0167357
623.113	0.0167485
623.192	0.0167181
623.270	0.0166032
623.348	0.0167405
623.426	0.0168762
623.504	0.0167487
623.582	0.0166871
623.660	0.0167778
623.738	0.0167618
623.817	0.0167422
623.895	0.0168074
623.973	0.0167173
624.051	0.0166991
624.129	0.0167974
624.207	0.0167640
624.285	0.0167013
624.363	0.0166912
624.442	0.0167390
624.520	0.0166206
624.598	0.0167985
624.676	0.0168491
624.754	0.0167072
624.832	0.0167176
624.910	0.0168578
624.988	0.0168295
625.067	0.0168043
625.145	0.0166425
625.223	0.0168427
625.301	0.0167793
625.379	0.0166139
625.457	0.0166916
625.535	0.0167806
625.613	0.0168633
625.692	0.0167474
625.770	0.0168346
625.848	0.0168076
625.926	0.0169028
626.004	0.0167104
626.082	0.0167300
626.160	0.0167867
626.238	0.0168264
626.317	0.0166761
626.395	0.0168188
626.473	0.0167471
626.551	0.0168341
626.629	0.0168755
626.707	0.0168513
626.785	0.0167842
626.863	0.0167461
626.942	0.0167690
627.020	0.0167793
627.098	0.0169106
627.176	0.0168852
627.254	0.0167350
627.332	0.0166386
627.410	0.0166955
627.488	0.0168410
627.567	0.0168476
627.645	0.0168016
627.723	0.0168655
627.801	0.0167885
627.879	0.0166455
627.957	0.0167776
628.035	0.0167421
628.113	0.0168437
628.192	0.0169118
628.270	0.0166300
628.348	0.0166863
628.426	0.0168752
628.504	0.0166435
628.582	0.0166868
628.660	0.0168850
628.738	0.0168050
628.817	0.0167932
628.895	0.0166504
628.973	0.0168643
629.051	0.0168298
629.129	0.0168396
629.207	0.0168758
629.285	0.0168744
629.363	0.0168188
629.442	0.0168668
629.520	0.0167544
629.598	0.0167618
629.676	0.0167780
629.754	0.0168431
629.832	0.0168053
629.910	0.0167638
629.988	0.0167554
630.067	0.0166591
630.145	0.0168571
630.223	0.0167404
630.301	0.0168726
630.379	0.0168367
630.457	0.0167232
630.535	0.0168620
630.613	0.0167779
630.692	0.0166493
630.770	0.0168320
630.848	0.0168456
630.926	0.0167355
631.004	0.0165871
631.082	0.0166493
631.160	0.0166864
631.238	0.0167590
631.317	0.0167998
631.395	0.0169071
631.473	0.0168677
631.551	0.0168268
631.629	0.0168672
631.707	0.0168073
631.785	0.0168610
631.863	0.0166959
631.942	0.0166561
632.020	0.0166929
632.098	0.0167837
632.176	0.0168031
632.254	0.0167930
632.332	0.0165917
632.410	0.0167687
632.488	0.0167162
632.567	0.0167060
632.645	0.0167579
632.723	0.0167034
632.801	0.0166116
632.879	0.0167331
632.957	0.0168466
633.035	0.0169079
633.113	0.0167683
633.192	0.0167590
633.270	0.0166650
633.348	0.0166912
633.426	0.0167670
633.504	0.0167702
633.582	0.0167329
633.660	0.0167928
633.738	0.0166265
633.817	0.0166920
633.895	0.0167844
633.973	0.0167450
634.051	0.0166090
634.129	0.0168797
634.207	0.0168439
634.285	0.0167193
634.363	0.0166795
634.442	0.0167582
634.520	0.0167441
634.598	0.0168236
634.676	0.0168286
634.754	0.0167917
634.832	0.0169117
634.910	0.0167764
634.988	0.0167286
635.067	0.0168856
635.145	0.0167311
635.223	0.0166695
635.301	0.0167600
635.379	0.0168835
635.457	0.0167587
635.535	0.0168032
635.613	0.0167763
635.692	0.0167063
635.770	0.0167202
635.848	0.0167606
635.926	0.0167867
636.004	0.0167596
636.082	0.0165936
636.160	0.0167236
636.238	0.0166363
636.317	0.0168795
636.395	0.0168594
636.473	0.0166769
636.551	0.0168657
636.629	0.0168190
636.707	0.0168160
636.785	0.0168430
636.863	0.0167693
636.942	0.0168837
637.020	0.0168036
637.098	0.0167697
637.176	0.0168294
637.254	0.0167042
637.332	0.0168288
637.410	0.0168231
637.488	0.0167811
637.567	0.0168456
637.645	0.0167768
637.723	0.0167208
637.801	0.0167431
637.879	0.0167274
637.957	0.0167896
638.035	0.0167392
638.113	0.0167722
638.192	0.0168123
638.270	0.0168015
638.348	0.0166202
638.426	0.0167369
638.504	0.0167902
638.582	0.0167642
638.660	0.0167670
638.738	0.0168112
638.817	0.0167406
638.895	0.0168224
638.973	0.0167756
639.051	0.0167828
639.129	0.0167528
639.207	0.0168552
639.285	0.0168346
639.363	0.0166730
639.442	0.0167851
639.520	0.0168555
639.598	0.0167128
639.676	0.0167594
639.754	0.0167764
639.832	0.0168313
639.910	0.0166566
639.988	0.0166558
640.067	0.0167260
640.145	0.0167992
640.223	0.0166832
640.301	0.0167292
640.379	0.0166752
640.457	0.0166702
640.535	0.0167088
640.613	0.0167970
640.692	0.0168659
640.770	0.0168702
640.848	0.0167582
640.926	0.0166114
641.004	0.0166789
641.082	0.0168990
641.160	0.0168263
641.238	0.0168100
641.317	0.0167004
641.395	0.0168752
641.473	0.0168997
641.551	0.0166283
641.629	0.0167686
641.707	0.0165739
641.785	0.0169028
641.863	0.0168858
641.942	0.0167757
642.020	0.0165732
642.098	0.0167603
642.176	0.0168618
642.254	0.0168229
642.332	0.0167612
642.410	0.0166860
642.488	0.0168337
642.567	0.0166816
642.645	0.0167422
642.723	0.0167007
642.801	0.0167780
642.879	0.0167974
642.957	0.0167748
643.035	0.0167420
643.113	0.0167970
643.192	0.0167282
643.270	0.0167715
643.348	0.0168639
643.426	0.0168055
643.504	0.0167757
643.582	0.0167960
643.660	0.0166980
643.738	0.0166906
643.817	0.0168281
643.895	0.0166366
643.973	0.0166851
644.051	0.0167799
644.129	0.0167131
644.207	0.0168114
644.285	0.0168705
644.363	0.0170480
644.442	0.0167355
644.520	0.0166853
644.598	0.0167948
644.676	0.0166781
644.754	0.0169095
644.832	0.0168913
644.910	0.0168642
644.988	0.0168059
645.067	0.0169007
645.145	0.0167043
645.223	0.0168739
645.301	0.0168588
645.379	0.0167876
645.457	0.0167666
645.535	0.0167091
645.613	0.0167447
645.692	0.0167144
645.770	0.0167199
645.848	0.0168055
645.926	0.0167686
646.004	0.0166309
646.082	0.0167393
646.160	0.0168239
646.238	0.0168036
646.317	0.0169283
646.395	0.0165643
646.473	0.0166331
646.551	0.0167596
646.629	0.0168513
646.707	0.0167931
646.785	0.0167807
646.863	0.0166280
646.942	0.0166718
647.020	0.0168369
647.098	0.0167220
647.176	0.0168034
647.254	0.0168714
647.332	0.0168291
647.410	0.0167634
647.488	0.0167790
647.567	0.0167513
647.645	0.0167099
647.723	0.0166924
647.801	0.0167206
647.879	0.0167351
647.957	0.0167522
648.035	0.0167013
648.113	0.0166912
648.192	0.0167823
648.270	0.0168178
648.348	0.0167403
648.426	0.0167683
648.504	0.0167686
648.582	0.0165855
648.660	0.0166380
648.738	0.0169123
648.817	0.0167953
648.895	0.0167796
648.973	0.0168850
649.051	0.0167393
649.129	0.0166904
649.207	0.0167580
649.285	0.0168694
649.363	0.0168250
649.442	0.0167064
649.520	0.0168639
649.598	0.0168346
649.676	0.0168465
649.754	0.0168096
649.832	0.0167419
649.910	0.0166880
649.988	0.0167572
650.067	0.0168032
650.145	0.0168095
650.223	0.0167378
650.301	0.0168201
650.379	0.0167721
650.457	0.0168060
650.535	0.0168925
650.613	0.0166175
650.692	0.0167667
650.770	0.0168037
650.848	0.0167735
650.926	0.0168980
651.004	0.0167654
651.082	0.0167400
651.160	0.0167419
651.238	0.0167488
651.317	0.0167754
651.395	0.0168201
651.473	0.0167818
651.551	0.0168782
651.629	0.0167628
651.707	0.0167836
651.785	0.0167117
651.863	0.0167542
651.942	0.0167235
652.020	0.0167409
652.098	0.0166810
652.176	0.0168460
652.254	0.0168331
652.332	0.0168114
652.410	0.0167584
652.488	0.0167089
652.567	0.0167961
652.645	0.0169234
652.723	0.0167837
652.801	0.0166575
652.879	0.0167298
652.957	0.0167578
653.035	0.0168050
653.113	0.0167345
653.192	0.0167416
653.270	0.0169006
653.348	0.0166795
653.426	0.0166039
653.504	0.0166888
653.582	0.0167484
653.660	0.0168356
653.738	0.0168147
653.817	0.0167814
653.895	0.0167268
653.973	0.0167416
654.051	0.0168108
654.129	0.0167062
654.207	0.0166900
654.285	0.0166766
654.363	0.0167255
654.442	0.0166328
654.520	0.0165602
654.598	0.0167783
654.676	0.0168466
654.754	0.0167159
654.832	0.0168073
654.910	0.0165920
654.988	0.0166332
655.067	0.0168060
655.145	0.0167419
655.223	0.0166558
655.301	0.0166788
655.379	0.0166491
655.457	0.0168111
655.535	0.0168007
655.613	0.0167774
655.692	0.0167253
655.770	0.0167687
655.848	0.0166725
655.926	0.0166009
656.004	0.0167707
656.082	0.0165618
656.160	0.0168394
656.238	0.0167133
656.317	0.0166383
656.395	0.0168469
656.473	0.0167434
656.551	0.0166895
656.629	0.0168246
656.707	0.0167800
656.785	0.0167027
656.863	0.0169044
656.942	0.0167725
657.020	0.0166967
657.098	0.0167796
657.176	0.0168330
657.254	0.0167701
657.332	0.0167319
657.410	0.0167746
657.488	0.0167579
657.567	0.0168139
657.645	0.0167966
657.723	0.0167486
657.801	0.0167830
657.879	0.0167702
657.957	0.0167167
658.035	0.0168225
658.113	0.0167883
658.192	0.0167075
658.270	0.0167689
658.348	0.0168254
658.426	0.0168382
658.504	0.0168336
658.582	0.0168035
658.660	0.0168291
658.738	0.0167718
658.817	0.0169067
658.895	0.0167947
658.973	0.0167148
659.051	0.0168232
659.129	0.0167737
659.207	0.0167505
659.285	0.0167894
659.363	0.0167613
659.442	0.0166117
659.520	0.0167151
659.598	0.0167815
659.676	0.0170113
659.754	0.0167659
659.832	0.0166976
659.910	0.0167308
659.988	0.0166716
660.067	0.0167167
660.145	0.0168115
660.223	0.0168561
660.301	0.0167475
660.379	0.0167439
660.457	0.0168958
660.535	0.0167896
660.613	0.0167927
660.692	0.0167416
660.770	0.0167756
660.848	0.0167410
660.926	0.0167725
661.004	0.0168031
661.082	0.0167950
661.160	0.0166986
661.238	0.0167610
661.317	0.0167674
661.395	0.0167055
661.473	0.0167336
661.551	0.0167631
661.629	0.0167982
661.707	0.0167409
661.785	0.0166987
661.863	0.0167941
661.942	0.0167171
662.020	0.0166013
662.098	0.0166556
662.176	0.0167056
662.254	0.0167727
662.332	0.0166668
662.410	0.0167679
662.488	0.0167621
662.567	0.0167316
662.645	0.0166988
662.723	0.0168509
662.801	0.0166706
662.879	0.0167087
662.957	0.0166531
663.035	0.0167076
663.113	0.0167736
663.192	0.0167657
663.270	0.0166504
663.348	0.0166918
663.426	0.0169075
663.504	0.0167990
663.582	0.0166783
663.660	0.0167465
663.738	0.0166945
663.817	0.0167646
663.895	0.0168252
663.973	0.0167365
664.051	0.0168600
664.129	0.0166537
664.207	0.0167043
664.285	0.0168746
664.363	0.0168845
664.442	0.0167565
664.520	0.0167383
664.598	0.0166184
664.676	0.0167261
664.754	0.0167670
664.832	0.0169015
664.910	0.0168071
664.988	0.0168630
665.067	0.0167287
665.145	0.0168008
665.223	0.0167327
665.301	0.0167548
665.379	0.0168917
665.457	0.0167551
665.535	0.0168484
665.613	0.0168491
665.692	0.0168820
665.770	0.0166145
665.848	0.0166483
665.926	0.0167426
666.004	0.0168459
666.082	0.0167346
666.160	0.0167199
666.238	0.0167827
666.317	0.0168697
666.395	0.0167880
666.473	0.0168623
666.551	0.0167696
666.629	0.0166454
666.707	0.0166126
666.785	0.0167268
666.863	0.0167562
666.942	0.0169183
667.020	0.0167589
667.098	0.0166576
667.176	0.0166570
667.254	0.0167111
667.332	0.0168098
667.410	0.0167733
667.488	0.0166496
667.567	0.0167795
667.645	0.0168130
667.723	0.0165944
667.801	0.0168142
667.879	0.0166947
667.957	0.0166982
668.035	0.0167800
668.113	0.0167300
668.192	0.0167333
668.270	0.0168407
668.348	0.0168192
668.426	0.0166818
668.504	0.0168434
668.582	0.0167671
668.660	0.0167885
668.738	0.0168280
668.817	0.0167755
668.895	0.0167712
668.973	0.0168666
669.051	0.0166948
669.129	0.0167313
669.207	0.0166736
669.285	0.0168156
669.363	0.0167194
669.442	0.0166804
669.520	0.0168223
669.598	0.0168201
669.676	0.0167363
669.754	0.0167930
669.832	0.0168240
669.910	0.0168147
669.988	0.0166261
670.067	0.0168712
670.145	0.0168087
670.223	0.0167538
670.301	0.0166708
670.379	0.0167893
670.457	0.0167982
670.535	0.0168443
670.613	0.0168515
670.692	0.0168799
670.770	0.0166730
670.848	0.0167870
670.926	0.0168664
671.004	0.0168803
671.082	0.0168535
671.160	0.0168550
671.238	0.0168017
671.317	0.0167111
671.395	0.0167560
671.473	0.0168027
671.551	0.0169030
671.629	0.0168879
671.707	0.0167922
671.785	0.0168259
671.863	0.0167617
671.942	0.0167564
672.020	0.0169005
672.098	0.0168036
672.176	0.0167818
672.254	0.0168228
672.332	0.0167934
672.410	0.0167287
672.488	0.0167988
672.567	0.0166970
672.645	0.0168544
672.723	0.0166279
672.801	0.0167823
672.879	0.0167144
672.957	0.0167734
673.035	0.0167552
673.113	0.0167668
673.192	0.0166777
673.270	0.0168458
673.348	0.0168796
673.426	0.0167801
673.504	0.0168045
673.582	0.0167124
673.660	0.0167661
673.738	0.0168903
673.817	0.0167914
673.895	0.0166326
673.973	0.0167628
674.051	0.0168259
674.129	0.0166915
674.207	0.0167111
674.285	0.0168237
674.363	0.0168047
674.442	0.0167065
674.520	0.0167310
674.598	0.0168246
674.676	0.0168043
674.754	0.0168666
674.832	0.0167623
674.910	0.0167751
674.988	0.0167573
675.067	0.0166685
675.145	0.0166512
675.223	0.0167194
675.301	0.0166180
675.379	0.0165694
675.457	0.0168089
675.535	0.0168011
675.613	0.0168237
675.692	0.0168452
675.770	0.0168447
675.848	0.0168681
675.926	0.0168124
676.004	0.0166476
676.082	0.0168836
676.160	0.0168231
676.238	0.0167521
676.317	0.0168096
676.395	0.0168398
676.473	0.0168554
676.551	0.0167124
676.629	0.0167301
676.707	0.0167211
676.785	0.0167292
676.863	0.0165969
676.942	0.0166759
677.020	0.0166069
677.098	0.0166077
677.176	0.0166483
677.254	0.0167846
677.332	0.0166998
677.410	0.0167124
677.488	0.0166589
677.567	0.0166129
677.645	0.0169009
677.723	0.0166051
677.801	0.0165848
677.879	0.0166371
677.957	0.0167786
678.035	0.0167157
678.113	0.0167934
678.192	0.0168771
678.270	0.0167711
678.348	0.0167118
678.426	0.0166901
678.504	0.0167530
678.582	0.0168965
678.660	0.0168425
678.738	0.0168185
678.817	0.0166444
678.895	0.0168096
678.973	0.0167892
679.051	0.0167364
679.129	0.0167660
679.207	0.0166294
679.285	0.0167627
679.363	0.0167577
679.442	0.0168970
679.520	0.0168540
679.598	0.0167012
679.676	0.0167168
679.754	0.0167356
679.832	0.0167199
679.910	0.0167359
679.988	0.0166605
680.067	0.0167140
680.145	0.0165547
680.223	0.0166048
680.301	0.0166486
680.379	0.0167603
680.457	0.0165443
680.535	0.0166708
680.613	0.0165398
680.692	0.0166366
680.770	0.0166290
680.848	0.0166547
680.926	0.0166607
681.004	0.0168145
681.082	0.0166800
681.160	0.0167378
681.238	0.0166689
681.317	0.0168565
681.395	0.0168557
681.473	0.0168421
681.551	0.0167709
681.629	0.0167535
681.707	0.0167927
681.785	0.0168150
681.863	0.0168609
681.942	0.0168304
682.020	0.0166457
682.098	0.0167844
682.176	0.0168088
682.254	0.0168562
682.332	0.0168922
682.410	0.0169001
682.488	0.0167843
682.567	0.0167153
682.645	0.0166923
682.723	0.0165578
682.801	0.0166966
682.879	0.0167488
682.957	0.0166729
683.035	0.0167614
683.113	0.0166376
683.192	0.0166268
683.270	0.0167747
683.348	0.0166902
683.426	0.0166599
683.504	0.0167274
683.582	0.0166766
683.660	0.0166718
683.738	0.0167694
683.817	0.0168066
683.895	0.0165996
683.973	0.0168536
684.051	0.0168020
684.129	0.0167564
684.207	0.0167551
684.285	0.0167438
684.363	0.0167499
684.442	0.0168355
684.520	0.0168453
684.598	0.0170033
684.676	0.0169062
684.754	0.0168633
684.832	0.0169401
684.910	0.0168669
684.988	0.0169042
685.067	0.0169342
685.145	0.0169095
685.223	0.0168760
685.301	0.0168525
685.379	0.0168378
685.457	0.0168526
685.535	0.0169634
685.613	0.0167519
685.692	0.0168015
685.770	0.0166514
685.848	0.0166078
685.926	0.0167111
686.004	0.0167154
686.082	0.0166262
686.160	0.0166986
686.238	0.0166592
686.317	0.0166485
686.395	0.0165931
686.473	0.0164965
686.551	0.0164931
686.629	0.0163690
686.707	0.0162932
686.785	0.0160748
686.863	0.0158937
686.942	0.0159007
687.020	0.0158346
687.098	0.0157639
687.176	0.0160801
687.254	0.0166835
687.332	0.0176170
687.410	0.0187990
687.488	0.0201192
687.567	0.0216720
687.645	0.0229810
687.723	0.0242525
687.801	0.0251450
687.879	0.0251744
687.957	0.0243719
688.035	0.0232358
688.113	0.0212911
688.192	0.0187988
688.270	0.0156784
688.348	0.0124229
688.426	0.00880058
688.504	0.00552643
688.582	0.00263069
688.660	-0.0000611115
688.738	-0.00204613
688.817	-0.00320015
688.895	-0.00362762
688.973	-0.00305923
689.051	-0.00178375
689.129	0.000402527
689.207	0.00322708
689.285	0.00650703
689.363	0.0103356
689.442	0.0144224
689.520	0.0186767
689.598	0.0227518
689.676	0.0268050
689.754	0.0306207
689.832	0.0339653
689.910	0.0373788
689.988	0.0400378
690.067	0.0421917
690.145	0.0436922
690.223	0.0445855
690.301	0.0447478
690.379	0.0442799
690.457	0.0430346
690.535	0.0412968
690.613	0.0388197
690.692	0.0358961
690.770	0.0325994
690.848	0.0286976
690.926	0.0247000
691.004	0.0204466
691.082	0.0162513
691.160	0.0120199
691.238	0.00764778
691.317	0.00376564
691.395	0.0000777435
691.473	-0.00312401
691.551	-0.00600723
691.629	-0.00817688
691.707	-0.00988396
691.785	-0.0109816
691.863	-0.0113299
691.942	-0.0111182
692.020	-0.0105133
692.098	-0.00906929
692.176	-0.00728653
692.254	-0.00526108
692.332	-0.00280930
692.410	0.000122223
692.488	0.00289337
692.567	0.00570045
692.645	0.00885826
692.723	0.0117695
692.801	0.0145507
692.879	0.0170605
692.957	0.0192486
693.035	0.0212023
693.113	0.0228551
693.192	0.0242839
693.270	0.0253568
693.348	0.0261208
693.426	0.0269339
693.504	0.0276633
693.582	0.0280067
693.660	0.0285226
693.738	0.0289162
693.817	0.0292195
693.895	0.0296358
693.973	0.0298839
694.051	0.0302168
694.129	0.0304051
694.207	0.0305837
694.285	0.0305148
694.363	0.0305297
694.442	0.0302699
694.520	0.0300727
694.598	0.0296725
694.676	0.0289551
694.754	0.0283271
694.832	0.0272540
694.910	0.0265788
694.988	0.0256404
695.067	0.0243111
695.145	0.0233362
695.223	0.0222868
695.301	0.0210518
695.379	0.0197638
695.457	0.0185563
695.535	0.0175288
695.613	0.0164716
695.692	0.0153026
695.770	0.0142268
695.848	0.0132086
695.926	0.0123232
696.004	0.0115537
696.082	0.0108104
696.160	0.0100038
696.238	0.00938828
696.317	0.00863487
696.395	0.00823990
696.473	0.00795738
696.551	0.00757950
696.629	0.00702377
696.707	0.00686729
696.785	0.00662277
696.863	0.00639671
696.942	0.00641052
697.020	0.00620270
697.098	0.00616196
697.176	0.00616638
697.254	0.00647118
697.332	0.00671860
697.410	0.00700165
697.488	0.00751892
697.567	0.00808151
697.645	0.00872101
697.723	0.00950302
697.801	0.0102173
697.879	0.0111716
697.957	0.0122451
698.035	0.0132957
698.113	0.0141918
698.192	0.0152677
698.270	0.0163066
698.348	0.0171454
698.426	0.0177979
698.504	0.0185100
698.582	0.0192693
698.660	0.0197908
698.738	0.0201110
698.817	0.0204121
698.895	0.0207050
698.973	0.0208136
699.051	0.0208107
699.129	0.0208126
699.207	0.0210649
699.285	0.0209930
699.363	0.0208416
699.442	0.0207011
699.520	0.0204822
699.598	0.0204025
699.676	0.0201958
699.754	0.0202808
699.832	0.0199706
699.910	0.0201749
699.988	0.0204681
700.067	0.0206759
700.145	0.0209673
700.223	0.0214114
700.301	0.0218003
700.379	0.0222340
700.457	0.0227559
700.535	0.0231422
700.613	0.0236093
700.692	0.0239810
700.770	0.0240970
700.848	0.0241360
700.926	0.0241001
701.004	0.0240320
701.082	0.0233711
701.160	0.0228395
701.238	0.0223412
701.317	0.0214371
701.395	0.0205755
701.473	0.0197963
701.551	0.0188914
701.629	0.0180309
701.707	0.0172483
701.785	0.0164751
701.863	0.0157619
701.942	0.0150169
702.020	0.0145095
702.098	0.0140546
702.176	0.0138511
702.254	0.0133878
702.332	0.0131480
702.410	0.0130654
702.488	0.0131986
702.567	0.0131600
702.645	0.0133142
702.723	0.0135165
702.801	0.0136951
702.879	0.0139927
702.957	0.0142605
703.035	0.0144167
703.113	0.0144379
703.192	0.0146588
703.270	0.0146355
703.348	0.0145681
703.426	0.0143738
703.504	0.0143221
703.582	0.0140150
703.660	0.0136481
703.738	0.0132771
703.817	0.0128378
703.895	0.0126044
703.973	0.0120148
704.051	0.0118416
704.129	0.0114500
704.207	0.0110468
704.285	0.0109689
704.363	0.0110137
704.442	0.0110821
704.520	0.0113752
704.598	0.0116677
704.676	0.0120093
704.754	0.0122826
704.832	0.0129226
704.910	0.0133677
704.988	0.0139656
705.067	0.0145522
705.145	0.0150948
705.223	0.0157802
705.301	0.0163404
705.379	0.0167364
705.457	0.0172389
705.535	0.0175596
705.613	0.0179559
705.692	0.0182402
705.770	0.0183987
705.848	0.0185924
705.926	0.0186922
706.004	0.0188084
706.082	0.0189873
706.160	0.0189979
706.238	0.0190494
706.317	0.0190696
706.395	0.0190396
706.473	0.0189781
706.551	0.0190051
706.629	0.0191028
706.707	0.0190483
706.785	0.0190651
706.863	0.0190853
706.942	0.0191756
707.020	0.0192487
707.098	0.0193585
707.176	0.0194127
707.254	0.0195647
707.332	0.0197626
707.410	0.0198795
707.488	0.0200343
707.567	0.0201316
707.645	0.0203645
707.723	0.0206635
707.801	0.0206786
707.879	0.0208384
707.957	0.0211086
708.035	0.0210302
708.113	0.0210560
708.192	0.0209437
708.270	0.0207365
708.348	0.0205695
708.426	0.0204887
708.504	0.0200582
708.582	0.0197931
708.660	0.0193580
708.738	0.0189833
708.817	0.0186428
708.895	0.0182733
708.973	0.0178606
709.051	0.0172874
709.129	0.0169240
709.207	0.0165762
709.285	0.0163596
709.363	0.0159645
709.442	0.0158118
709.520	0.0156694
709.598	0.0154329
709.676	0.0153053
709.754	0.0152784
709.832	0.0151035
709.910	0.0151681
709.988	0.0151635
710.067	0.0149119
710.145	0.0149567
710.223	0.0149492
710.301	0.0149058
710.379	0.0147523
710.457	0.0147454
710.535	0.0147311
710.613	0.0148719
710.692	0.0146657
710.770	0.0144756
710.848	0.0143572
710.926	0.0143701
711.004	0.0143314
711.082	0.0143781
711.160	0.0141677
711.238	0.0138873
711.317	0.0139471
711.395	0.0137730
711.473	0.0136224
711.551	0.0134795
711.629	0.0134648
711.707	0.0132257
711.785	0.0132671
711.863	0.0132756
711.942	0.0133081
712.020	0.0134351
712.098	0.0134138
712.176	0.0135250
712.254	0.0138831
712.332	0.0140601
712.410	0.0142997
712.488	0.0146204
712.567	0.0148805
712.645	0.0151577
712.723	0.0155339
712.801	0.0157769
712.879	0.0160498
712.957	0.0166288
713.035	0.0168394
713.113	0.0171783
713.192	0.0174529
713.270	0.0176611
713.348	0.0180222
713.426	0.0181832
713.504	0.0183251
713.582	0.0185040
713.660	0.0188513
713.738	0.0189348
713.817	0.0188261
713.895	0.0188628
713.973	0.0188486
714.051	0.0188864
714.129	0.0186948
714.207	0.0186940
714.285	0.0183837
714.363	0.0183732
714.442	0.0183592
714.520	0.0183171
714.598	0.0181522
714.676	0.0181322
714.754	0.0182127
714.832	0.0183152
714.910	0.0183391
714.988	0.0185761
715.067	0.0187900
715.145	0.0189011
715.223	0.0191273
715.301	0.0193530
715.379	0.0196790
715.457	0.0196839
715.535	0.0197356
715.613	0.0198147
715.692	0.0198965
715.770	0.0198579
715.848	0.0195173
715.926	0.0194603
716.004	0.0192331
716.082	0.0189211
716.160	0.0186951
716.238	0.0184815
716.317	0.0179780
716.395	0.0177077
716.473	0.0175475
716.551	0.0169957
716.629	0.0168421
716.707	0.0168274
716.785	0.0167565
716.863	0.0165175
716.942	0.0164197
717.020	0.0163410
717.098	0.0163545
717.176	0.0162077
717.254	0.0163272
717.332	0.0163440
717.410	0.0163753
717.488	0.0163342
717.567	0.0162572
717.645	0.0162006
717.723	0.0162543
717.801	0.0164445
717.879	0.0161980
717.957	0.0160339
718.035	0.0161334
718.113	0.0160043
718.192	0.0160899
718.270	0.0161279
718.348	0.0158671
718.426	0.0158157
718.504	0.0157921
718.582	0.0155432
718.660	0.0154730
718.738	0.0153989
718.817	0.0153197
718.895	0.0150605
718.973	0.0149265
719.051	0.0148368
719.129	0.0145884
719.207	0.0142381
719.285	0.0143817
719.363	0.0141174
719.442	0.0139020
719.520	0.0139778
719.598	0.0137803
719.676	0.0138750
719.754	0.0138459
719.832	0.0139085
719.910	0.0140094
719.988	0.0141900
720.067	0.0145188
720.145	0.0145815
720.223	0.0148515
720.301	0.0152004
720.379	0.0153986
720.457	0.0157600
720.535	0.0159675
720.613	0.0161227
720.692	0.0164400
720.770	0.0167043
720.848	0.0167612
720.926	0.0169477
721.004	0.0171198
721.082	0.0171276
721.160	0.0171538
721.238	0.0171893
721.317	0.0172948
721.395	0.0173660
721.473	0.0172805
721.551	0.0172487
721.629	0.0172001
721.707	0.0173500
721.785	0.0172511
721.863	0.0173299
721.942	0.0173676
722.020	0.0174092
722.098	0.0173418
722.176	0.0173709
722.254	0.0175239
722.332	0.0177571
722.410	0.0179852
722.488	0.0180104
722.567	0.0181998
722.645	0.0182487
722.723	0.0185300
722.801	0.0189079
722.879	0.0190297
722.957	0.0191566
723.035	0.0193227
723.113	0.0195757
723.192	0.0195774
723.270	0.0195860
723.348	0.0197059
723.426	0.0195308
723.504	0.0194690
723.582	0.0192940
723.660	0.0191908
723.738	0.0189187
723.817	0.0186880
723.895	0.0184140
723.973	0.0180711
724.051	0.0179668
724.129	0.0176613
724.207	0.0175572
724.285	0.0174577
724.363	0.0172180
724.442	0.0170841
724.520	0.0170271
724.598	0.0169352
724.676	0.0168427
724.754	0.0168894
724.832	0.0167917
724.910	0.0166854
724.988	0.0166438
725.067	0.0166077
725.145	0.0166727
725.223	0.0166221
725.301	0.0164470
725.379	0.0165411
725.457	0.0166421
725.535	0.0166077
725.613	0.0165155
725.692	0.0164853
725.770	0.0166803
725.848	0.0167171
725.926	0.0165005
726.004	0.0164204
726.082	0.0165512
726.160	0.0164571
726.238	0.0163128
726.317	0.0161727
726.395	0.0161987
726.473	0.0160635
726.551	0.0158143
726.629	0.0157683
726.707	0.0156058
726.785	0.0153525
726.863	0.0150595
726.942	0.0149757
727.020	0.0148355
727.098	0.0146000
727.176	0.0143452
727.254	0.0143326
727.332	0.0142770
727.410	0.0141584
727.488	0.0139941
727.567	0.0138914
727.645	0.0140467
727.723	0.0142110
727.801	0.0142957
727.879	0.0144765
727.957	0.0145599
728.035	0.0147866
728.113	0.0151159
728.192	0.0152225
728.270	0.0153179
728.348	0.0155823
728.426	0.0160975
728.504	0.0160207
728.582	0.0162318
728.660	0.0163710
728.738	0.0165993
728.817	0.0167870
728.895	0.0168626
728.973	0.0168129
729.051	0.0169955
729.129	0.0170268
729.207	0.0170770
729.285	0.0172112
729.363	0.0172664
729.442	0.0172689
729.520	0.0174299
729.598	0.0174747
729.676	0.0174340
729.754	0.0176072
729.832	0.0176875
729.910	0.0177475
729.988	0.0176515
730.067	0.0177698
730.145	0.0178639
730.223	0.0178054
730.301	0.0176663
730.379	0.0178707
730.457	0.0178899
730.535	0.0180087
730.613	0.0180322
730.692	0.0179967
730.770	0.0181597
730.848	0.0184013
730.926	0.0184428
731.004	0.0186264
731.082	0.0186832
731.160	0.0189014
731.238	0.0191166
731.317	0.0190275
731.395	0.0191656
731.473	0.0191669
731.551	0.0191260
731.629	0.0190086
731.707	0.0190248
731.785	0.0189020
731.863	0.0186529
731.942	0.0184416
732.020	0.0183106
732.098	0.0180247
732.176	0.0179395
732.254	0.0176023
732.332	0.0172717
732.410	0.0170551
732.488	0.0169817
732.567	0.0166962
732.645	0.0166927
732.723	0.0165617
732.801	0.0164831
732.879	0.0164354
732.957	0.0163109
733.035	0.0162606
733.113	0.0161384
733.192	0.0161095
733.270	0.0160902
733.348	0.0159805
733.426	0.0161403
733.504	0.0162251
733.582	0.0161598
733.660	0.0162849
733.738	0.0164344
733.817	0.0163015
733.895	0.0163284
733.973	0.0163428
734.051	0.0161681
734.129	0.0161788
734.207	0.0160988
734.285	0.0160431
734.363	0.0159241
734.442	0.0158624
734.520	0.0158219
734.598	0.0156149
734.676	0.0155230
734.754	0.0154681
734.832	0.0154527
734.910	0.0153225
734.988	0.0152861
735.067	0.0151338
735.145	0.0150318
735.223	0.0149281
735.301	0.0150288
735.379	0.0149152
735.457	0.0149815
735.535	0.0148969
735.613	0.0150909
735.692	0.0152396
735.770	0.0152147
735.848	0.0151682
735.926	0.0153913
736.004	0.0156040
736.082	0.0157703
736.160	0.0157087
736.238	0.0158254
736.317	0.0160758
736.395	0.0163210
736.473	0.0164551
736.551	0.0165273
736.629	0.0167021
736.707	0.0167889
736.785	0.0170251
736.863	0.0171049
736.942	0.0171360
737.020	0.0171995
737.098	0.0171796
737.176	0.0170807
737.254	0.0174574
737.332	0.0174300
737.410	0.0174793
737.488	0.0175832
737.567	0.0175286
737.645	0.0173367
737.723	0.0175047
737.801	0.0174143
737.879	0.0173946
737.957	0.0173835
738.035	0.0173064
738.113	0.0174352
738.192	0.0174618
738.270	0.0173354
738.348	0.0174208
738.426	0.0174894
738.504	0.0175049
738.582	0.0176463
738.660	0.0179888
738.738	0.0180197
738.817	0.0181178
738.895	0.0183018
738.973	0.0184528
739.051	0.0185969
739.129	0.0188308
739.207	0.0187849
739.285	0.0188397
739.363	0.0188831
739.442	0.0188165
739.520	0.0189088
739.598	0.0187817
739.676	0.0186318
739.754	0.0183733
739.832	0.0183306
739.910	0.0181193
739.988	0.0179959
740.067	0.0177673
740.145	0.0176490
740.223	0.0173600
740.301	0.0172260
740.379	0.0171410
740.457	0.0167545
740.535	0.0166961
740.613	0.0164461
740.692	0.0164748
740.770	0.0163449
740.848	0.0160367
740.926	0.0158248
741.004	0.0158824
741.082	0.0157025
741.160	0.0156458
741.238	0.0156095
741.317	0.0155150
741.395	0.0154581
741.473	0.0155318
741.551	0.0154331
741.629	0.0156670
741.707	0.0155335
741.785	0.0156752
741.863	0.0155558
741.942	0.0156832
742.020	0.0159388
742.098	0.0158539
742.176	0.0160095
742.254	0.0159831
742.332	0.0161076
742.410	0.0161609
742.488	0.0163315
742.567	0.0164882
742.645	0.0164793
742.723	0.0165209
742.801	0.0164273
742.879	0.0165449
742.957	0.0164054
743.035	0.0163045
743.113	0.0161526
743.192	0.0163741
743.270	0.0163525
743.348	0.0159765
743.426	0.0160742
743.504	0.0160909
743.582	0.0161024
743.660	0.0161300
743.738	0.0160182
743.817	0.0159997
743.895	0.0162407
743.973	0.0161379
744.051	0.0162929
744.129	0.0164342
744.207	0.0165117
744.285	0.0164441
744.363	0.0166404
744.442	0.0168501
744.520	0.0167031
744.598	0.0167499
744.676	0.0167795
744.754	0.0166540
744.832	0.0166907
744.910	0.0167068
744.988	0.0167577
745.067	0.0166508
745.145	0.0166406
745.223	0.0167567
745.301	0.0166936
745.379	0.0167289
745.457	0.0168195
745.535	0.0168181
745.613	0.0170727
745.692	0.0171190
745.770	0.0169435
745.848	0.0170421
745.926	0.0170623
746.004	0.0171446
746.082	0.0172597
746.160	0.0173224
746.238	0.0173383
746.317	0.0174406
746.395	0.0176245
746.473	0.0174780
746.551	0.0176527
746.629	0.0177888
746.707	0.0177391
746.785	0.0178315
746.863	0.0177038
746.942	0.0178632
747.020	0.0179077
747.098	0.0178484
747.176	0.0178885
747.254	0.0176863
747.332	0.0176817
747.410	0.0178384
747.488	0.0177093
747.567	0.0177418
747.645	0.0175826
747.723	0.0174051
747.801	0.0172726
747.879	0.0173766
747.957	0.0172112
748.035	0.0170622
748.113	0.0169728
748.192	0.0169574
748.270	0.0167485
748.348	0.0166429
748.426	0.0165999
748.504	0.0165411
748.582	0.0164272
748.660	0.0163883
748.738	0.0162744
748.817	0.0162716
748.895	0.0162085
748.973	0.0161349
749.051	0.0162329
749.129	0.0161327
749.207	0.0161072
749.285	0.0163082
749.363	0.0162800
749.442	0.0162725
749.520	0.0163245
749.598	0.0163438
749.676	0.0165279
749.754	0.0164825
749.832	0.0165089
749.910	0.0166547
749.988	0.0165891
750.067	0.0166267
750.145	0.0166483
750.223	0.0167079
750.301	0.0166470
750.379	0.0166530
750.457	0.0165833
750.535	0.0164970
750.613	0.0165428
750.692	0.0164539
750.770	0.0164310
750.848	0.0163927
750.926	0.0164539
751.004	0.0163169
751.082	0.0163144
751.160	0.0161256
751.238	0.0161057
751.317	0.0159523
751.395	0.0160119
751.473	0.0160661
751.551	0.0159328
751.629	0.0158726
751.707	0.0159191
751.785	0.0159576
751.863	0.0160171
751.942	0.0161548
752.020	0.0160426
752.098	0.0161706
752.176	0.0162235
752.254	0.0163969
752.332	0.0163602
752.410	0.0166450
752.488	0.0167993
752.567	0.0166790
752.645	0.0168042
752.723	0.0169313
752.801	0.0169930
752.879	0.0170082
752.957	0.0170791
753.035	0.0170918
753.113	0.0170501
753.192	0.0170379
753.270	0.0171554
753.348	0.0172582
753.426	0.0170541
753.504	0.0169955
753.582	0.0170943
753.660	0.0169656
753.738	0.0170402
753.817	0.0168225
753.895	0.0167204
753.973	0.0169032
754.051	0.0167847
754.129	0.0167260
754.207	0.0169057
754.285	0.0168363
754.363	0.0170467
754.442	0.0171043
754.520	0.0171290
754.598	0.0172163
754.676	0.0172630
754.754	0.0173215
754.832	0.0175285
754.910	0.0176410
754.988	0.0176388
755.067	0.0176851
755.145	0.0177206
755.223	0.0177518
755.301	0.0178136
755.379	0.0176951
755.457	0.0177249
755.535	0.0177687
755.613	0.0176707
755.692	0.0175312
755.770	0.0174458
755.848	0.0173518
755.926	0.0171227
756.004	0.0171227
756.082	0.0169366
756.160	0.0167737
756.238	0.0166603
756.317	0.0166742
756.395	0.0166064
756.473	0.0165567
756.551	0.0164725
756.629	0.0164872
756.707	0.0164004
756.785	0.0164407
756.863	0.0164722
756.942	0.0165582
757.020	0.0163797
757.098	0.0165040
757.176	0.0165466
757.254	0.0164920
757.332	0.0165709
757.410	0.0164768
757.488	0.0164306
757.567	0.0163074
757.645	0.0163751
757.723	0.0164145
757.801	0.0163027
757.879	0.0162800
757.957	0.0161977
758.035	0.0162109
758.113	0.0161491
758.192	0.0160946
758.270	0.0162077
758.348	0.0161768
758.426	0.0161327
758.504	0.0161742
758.582	0.0163068
758.660	0.0163497
758.738	0.0163926
758.817	0.0166633
758.895	0.0165514
758.973	0.0165688
759.051	0.0165549
759.129	0.0167297
759.207	0.0166810
759.285	0.0167524
759.363	0.0169310
759.442	0.0168089
759.520	0.0166924
759.598	0.0169340
759.676	0.0169280
759.754	0.0168857
759.832	0.0168326
759.910	0.0167408
759.988	0.0169630
760.067	0.0169353
760.145	0.0168236
760.223	0.0168234
760.301	0.0168669
760.379	0.0168777
760.457	0.0169321
760.535	0.0170129
760.613	0.0168814
760.692	0.0168458
760.770	0.0170309
760.848	0.0170540
760.926	0.0169350
761.004	0.0170149
761.082	0.0169958
761.160	0.0169760
761.238	0.0169057
761.317	0.0169510
761.395	0.0166296
761.473	0.0166635
761.551	0.0167917
761.629	0.0166510
761.707	0.0165594
761.785	0.0165612
761.863	0.0164522
761.942	0.0165284
762.020	0.0165359
762.098	0.0164488
762.176	0.0163894
762.254	0.0164399
762.332	0.0164370
762.410	0.0164263
762.488	0.0166566
762.567	0.0166827
762.645	0.0165376
762.723	0.0165207
762.801	0.0165662
762.879	0.0164685
762.957	0.0167517
763.035	0.0167648
763.113	0.0168369
763.192	0.0169968
763.270	0.0170676
763.348	0.0170262
763.426	0.0170985
763.504	0.0172749
763.582	0.0174272
763.660	0.0174911
763.738	0.0175204
763.817	0.0174189
763.895	0.0177434
763.973	0.0177007
764.051	0.0175368
764.129	0.0174716
764.207	0.0174413
764.285	0.0174708
764.363	0.0172865
764.442	0.0174296
764.520	0.0171610
764.598	0.0170217
764.676	0.0168371
764.754	0.0168097
764.832	0.0166901
764.910	0.0166508
764.988	0.0166234
765.067	0.0167045
765.145	0.0166933
765.223	0.0167897
765.301	0.0167621
765.379	0.0166570
765.457	0.0168020
765.535	0.0168520
765.613	0.0169230
765.692	0.0167829
765.770	0.0167355
765.848	0.0170337
765.926	0.0169937
766.004	0.0170126
766.082	0.0171321
766.160	0.0170110
766.238	0.0169960
766.317	0.0169473
766.395	0.0169048
766.473	0.0168880
766.551	0.0168565
766.629	0.0167764
766.707	0.0168329
766.785	0.0167899
766.863	0.0167699
766.942	0.0165990
767.020	0.0165739
767.098	0.0165541
767.176	0.0163911
767.254	0.0163329
767.332	0.0162693
767.410	0.0162683
767.488	0.0161561
767.567	0.0159837
767.645	0.0160007
767.723	0.0159943
767.801	0.0158956
767.879	0.0157011
767.957	0.0158144
768.035	0.0159179
768.113	0.0159666
768.192	0.0159135
768.270	0.0160631
768.348	0.0161270
768.426	0.0161921
768.504	0.0160768
768.582	0.0161588
768.660	0.0165082
768.738	0.0164375
768.817	0.0165761
768.895	0.0165118
768.973	0.0167657
769.051	0.0167788
769.129	0.0166839
769.207	0.0169411
769.285	0.0169048
769.363	0.0169564
769.442	0.0170654
769.520	0.0170680
769.598	0.0169294
769.676	0.0170309
769.754	0.0169929
769.832	0.0169803
769.910	0.0168896
769.988	0.0169580
770.067	0.0170502
770.145	0.0168366
770.223	0.0169381
770.301	0.0169675
770.379	0.0168658
770.457	0.0168574
770.535	0.0168541
770.613	0.0169583
770.692	0.0169681
770.770	0.0168851
770.848	0.0169399
770.926	0.0168999
771.004	0.0170650
771.082	0.0170330
771.160	0.0170712
771.238	0.0170959
771.317	0.0171296
771.395	0.0171161
771.473	0.0172366
771.551	0.0171671
771.629	0.0171362
771.707	0.0173105
771.785	0.0173375
771.863	0.0171973
771.942	0.0171911
772.020	0.0171951
772.098	0.0171259
772.176	0.0171853
772.254	0.0170296
772.332	0.0170805
772.410	0.0169434
772.488	0.0167982
772.567	0.0170036
772.645	0.0169511
772.723	0.0168284
772.801	0.0168297
772.879	0.0168874
772.957	0.0167635
773.035	0.0169508
773.113	0.0167789
773.192	0.0170490
773.270	0.0169571
773.348	0.0169392
773.426	0.0168832
773.504	0.0169779
773.582	0.0170602
773.660	0.0170763
773.738	0.0170567
773.817	0.0169749
773.895	0.0170448
773.973	0.0169128
774.051	0.0169759
774.129	0.0171404
774.207	0.0168855
774.285	0.0168415
774.363	0.0168563
774.442	0.0167870
774.520	0.0169006
774.598	0.0168294
774.676	0.0168192
774.754	0.0167469
774.832	0.0167029
774.910	0.0166505
774.988	0.0166830
775.067	0.0166480
775.145	0.0163807
775.223	0.0164600
775.301	0.0163445
775.379	0.0163020
775.457	0.0162311
775.535	0.0162102
775.613	0.0159900
775.692	0.0159976
775.770	0.0160271
775.848	0.0160915
775.926	0.0161616
776.004	0.0160944
776.082	0.0161250
776.160	0.0161553
776.238	0.0161400
776.317	0.0162124
776.395	0.0162854
776.473	0.0163083
776.551	0.0163383
776.629	0.0164529
776.707	0.0165070
776.785	0.0164015
776.863	0.0162573
776.942	0.0163869
777.020	0.0165072
777.098	0.0164552
777.176	0.0167829
777.254	0.0166003
777.332	0.0165929
777.410	0.0166796
777.488	0.0168691
777.567	0.0168686
777.645	0.0169003
777.723	0.0169830
777.801	0.0171468
777.879	0.0170744
777.957	0.0168937
778.035	0.0169998
778.113	0.0170483
778.192	0.0169313
778.270	0.0171036
778.348	0.0171495
778.426	0.0171342
778.504	0.0170550
778.582	0.0172086
778.660	0.0170805
778.738	0.0171117
778.817	0.0171395
778.895	0.0171400
778.973	0.0171329
779.051	0.0170605
779.129	0.0169751
779.207	0.0171529
779.285	0.0172124
779.363	0.0172507
779.442	0.0171464
779.520	0.0172301
779.598	0.0172903
779.676	0.0173108
779.754	0.0173402
779.832	0.0171873
779.910	0.0171973
779.988	0.0171905
780.067	0.0173091
780.145	0.0173256
780.223	0.0171694
780.301	0.0170053
780.379	0.0170463
780.457	0.0170113
780.535	0.0170416
780.613	0.0168702
780.692	0.0168568
780.770	0.0167207
780.848	0.0167673
780.926	0.0168285
781.004	0.0167966
781.082	0.0168182
781.160	0.0168400
781.238	0.0168267
781.317	0.0169483
781.395	0.0169103
781.473	0.0168404
781.551	0.0167272
781.629	0.0168583
781.707	0.0169076
781.785	0.0166972
781.863	0.0167833
781.942	0.0166734
782.020	0.0167204
782.098	0.0166232
782.176	0.0165910
782.254	0.0167108
782.332	0.0166335
782.410	0.0164388
782.488	0.0164474
782.567	0.0164713
782.645	0.0166277
782.723	0.0164386
782.801	0.0165123
782.879	0.0164198
782.957	0.0163824
783.035	0.0163754
783.113	0.0163967
783.192	0.0163567
783.270	0.0162618
783.348	0.0163311
783.426	0.0162146
783.504	0.0163760
783.582	0.0163856
783.660	0.0164149
783.738	0.0164793
783.817	0.0167262
783.895	0.0167299
783.973	0.0168235
784.051	0.0168012
784.129	0.0170439
784.207	0.0169829
784.285	0.0170121
784.363	0.0169470
784.442	0.0169482
784.520	0.0169406
784.598	0.0167935
784.676	0.0166754
784.754	0.0164736
784.832	0.0163049
784.910	0.0160575
784.988	0.0159976
785.067	0.0157186
785.145	0.0155059
785.223	0.0155686
785.301	0.0153088
785.379	0.0151408
785.457	0.0153999
785.535	0.0153040
785.613	0.0154940
785.692	0.0155342
785.770	0.0157316
785.848	0.0160107
785.926	0.0162384
786.004	0.0163732
786.082	0.0168034
786.160	0.0172701
786.238	0.0176631
786.317	0.0180745
786.395	0.0184943
786.473	0.0190115
786.551	0.0192337
786.629	0.0197057
786.707	0.0198660
786.785	0.0200278
786.863	0.0199751
786.942	0.0200170
787.020	0.0201010
787.098	0.0200237
787.176	0.0196659
787.254	0.0194090
787.332	0.0192727
787.410	0.0187226
787.488	0.0183903
787.567	0.0178209
787.645	0.0173837
787.723	0.0170541
787.801	0.0166264
787.879	0.0161938
787.957	0.0156148
788.035	0.0152179
788.113	0.0149117
788.192	0.0147205
788.270	0.0143595
788.348	0.0141302
788.426	0.0140692
788.504	0.0138368
788.582	0.0138685
788.660	0.0137244
788.738	0.0137713
788.817	0.0139216
788.895	0.0141208
788.973	0.0142310
789.051	0.0143777
789.129	0.0145341
789.207	0.0149434
789.285	0.0150236
789.363	0.0153246
789.442	0.0156224
789.520	0.0158380
789.598	0.0161598
789.676	0.0163840
789.754	0.0166355
789.832	0.0170355
789.910	0.0170862
789.988	0.0172449
790.067	0.0175712
790.145	0.0178167
790.223	0.0179372
790.301	0.0180808
790.379	0.0183121
790.457	0.0184405
790.535	0.0185214
790.613	0.0187098
790.692	0.0187902
790.770	0.0188204
790.848	0.0189388
790.926	0.0189460
791.004	0.0190037
791.082	0.0189266
791.160	0.0190553
791.238	0.0188647
791.317	0.0187639
791.395	0.0187720
791.473	0.0184821
791.551	0.0182035
791.629	0.0181503
791.707	0.0180196
791.785	0.0179347
791.863	0.0175634
791.942	0.0173540
792.020	0.0171479
792.098	0.0168704
792.176	0.0166965
792.254	0.0164697
792.332	0.0162991
792.410	0.0161840
792.488	0.0160149
792.567	0.0157253
792.645	0.0156468
792.723	0.0156261
792.801	0.0155807
792.879	0.0154617
792.957	0.0154336
793.035	0.0155115
793.113	0.0154494
793.192	0.0152845
793.270	0.0151807
793.348	0.0150683
793.426	0.0151907
793.504	0.0149384
793.582	0.0147693
793.660	0.0147814
793.738	0.0147366
793.817	0.0146342
793.895	0.0146172
793.973	0.0145792
794.051	0.0147047
794.129	0.0147948
794.207	0.0147092
794.285	0.0148747
794.363	0.0151731
794.442	0.0151875
794.520	0.0154939
794.598	0.0158739
794.676	0.0159576
794.754	0.0162605
794.832	0.0164571
794.910	0.0166986
794.988	0.0169257
795.067	0.0171365
795.145	0.0170678
795.223	0.0173706
795.301	0.0174075
795.379	0.0176413
795.457	0.0178295
795.535	0.0178963
795.613	0.0177089
795.692	0.0178919
795.770	0.0178884
795.848	0.0180369
795.926	0.0181610
796.004	0.0182249
796.082	0.0180367
796.160	0.0183552
796.238	0.0181098
796.317	0.0182101
796.395	0.0184574
796.473	0.0184126
796.551	0.0183204
796.629	0.0183344
796.707	0.0184924
796.785	0.0184935
796.863	0.0184693
796.942	0.0185079
797.020	0.0183327
797.098	0.0182056
797.176	0.0182729
797.254	0.0181631
797.332	0.0180511
797.410	0.0180331
797.488	0.0178873
797.567	0.0176369
797.645	0.0176568
797.723	0.0174578
797.801	0.0170506
797.879	0.0170670
797.957	0.0170203
798.035	0.0168964
798.113	0.0168781
798.192	0.0167082
798.270	0.0166162
798.348	0.0164943
798.426	0.0162814
798.504	0.0162212
798.582	0.0162085
798.660	0.0161414
798.738	0.0160517
798.817	0.0159373
798.895	0.0158694
798.973	0.0158045
799.051	0.0158078
799.129	0.0156413
799.207	0.0156874
799.285	0.0155927
799.363	0.0157672
799.442	0.0156303
799.520	0.0156065
799.598	0.0154045
799.676	0.0155154
799.754	0.0155527
799.832	0.0155470
799.910	0.0157334
799.988	0.0157143
800.067	0.0156544
800.145	0.0155925
800.223	0.0155646
800.301	0.0155977
800.379	0.0155637
800.457	0.0155937
800.535	0.0155884
800.613	0.0157100
800.692	0.0155522
800.770	0.0157352
800.848	0.0155955
800.926	0.0156132
801.004	0.0157713
801.082	0.0159659
801.160	0.0158920
801.238	0.0161492
801.317	0.0160379
801.395	0.0161866
801.473	0.0163673
801.551	0.0164708
801.629	0.0167736
801.707	0.0167565
801.785	0.0169627
801.863	0.0170215
801.942	0.0171610
802.020	0.0172553
802.098	0.0175681
802.176	0.0178043
802.254	0.0177447
802.332	0.0178345
802.410	0.0180067
802.488	0.0180129
802.567	0.0181676
802.645	0.0180518
802.723	0.0182803
802.801	0.0183052
802.879	0.0182670
802.957	0.0184210
803.035	0.0183753
803.113	0.0182172
803.192	0.0181856
803.270	0.0181443
803.348	0.0180372
803.426	0.0180305
803.504	0.0179250
803.582	0.0176362
803.660	0.0176122
803.738	0.0174944
803.817	0.0173962
803.895	0.0172533
803.973	0.0172375
804.051	0.0170815
804.129	0.0170917
804.207	0.0168981
804.285	0.0171223
804.363	0.0168773
804.442	0.0167445
804.520	0.0167208
804.598	0.0168594
804.676	0.0168775
804.754	0.0167533
804.832	0.0166439
804.910	0.0167115
804.988	0.0167312
805.067	0.0166840
805.145	0.0167196
805.223	0.0166676
805.301	0.0166943
805.379	0.0165996
805.457	0.0165782
805.535	0.0165285
805.613	0.0166607
805.692	0.0164977
805.770	0.0165106
805.848	0.0164700
805.926	0.0164208
806.004	0.0163800
806.082	0.0163836
806.160	0.0164594
806.238	0.0163293
806.317	0.0163835
806.395	0.0165015
806.473	0.0164020
806.551	0.0163780
806.629	0.0163046
806.707	0.0164442
806.785	0.0164427
806.863	0.0163676
806.942	0.0164831
807.020	0.0164350
807.098	0.0165042
807.176	0.0164714
807.254	0.0166077
807.332	0.0164462
807.410	0.0164391
807.488	0.0164192
807.567	0.0163120
807.645	0.0163317
807.723	0.0162651
807.801	0.0164214
807.879	0.0163356
807.957	0.0164062
808.035	0.0162048
808.113	0.0164873
808.192	0.0164832
808.270	0.0164495
808.348	0.0163908
808.426	0.0162808
808.504	0.0164117
808.582	0.0164601
808.660	0.0163435
808.738	0.0162498
808.817	0.0163316
808.895	0.0162390
808.973	0.0162280
809.051	0.0162339
809.129	0.0162843
809.207	0.0163486
809.285	0.0162962
809.363	0.0165154
809.442	0.0165759
809.520	0.0166917
809.598	0.0167104
809.676	0.0167457
809.754	0.0169536
809.832	0.0169514
809.910	0.0170210
809.988	0.0168982
810.067	0.0170319
810.145	0.0171069
810.223	0.0171407
810.301	0.0171600
810.379	0.0171442
810.457	0.0171965
810.535	0.0172517
810.613	0.0173194
810.692	0.0172483
810.770	0.0172211
810.848	0.0172189
810.926	0.0171603
811.004	0.0172541
811.082	0.0171773
811.160	0.0172343
811.238	0.0172234
811.317	0.0174063
811.395	0.0174107
811.473	0.0174028
811.551	0.0174893
811.629	0.0174015
811.707	0.0173442
811.785	0.0173067
811.863	0.0173993
811.942	0.0175244
812.020	0.0174776
812.098	0.0173495
812.176	0.0173431
812.254	0.0172630
812.332	0.0174343
812.410	0.0173450
812.488	0.0171370
812.567	0.0172616
812.645	0.0170579
812.723	0.0170287
812.801	0.0169212
812.879	0.0169875
812.957	0.0169366
813.035	0.0167261
813.113	0.0166610
813.192	0.0164856
813.270	0.0163924
813.348	0.0165472
813.426	0.0164283
813.504	0.0162794
813.582	0.0163347
813.660	0.0164424
813.738	0.0164092
813.817	0.0164954
813.895	0.0164401
813.973	0.0164672
814.051	0.0166947
814.129	0.0167133
814.207	0.0167217
814.285	0.0167641
814.363	0.0168286
814.442	0.0168537
814.520	0.0168317
814.598	0.0169873
814.676	0.0169176
814.754	0.0168119
814.832	0.0169347
814.910	0.0167976
814.988	0.0165578
815.067	0.0165421
815.145	0.0165044
815.223	0.0164726
815.301	0.0163430
815.379	0.0162291
815.457	0.0160388
815.535	0.0160736
815.613	0.0160737
815.692	0.0160547
815.770	0.0159684
815.848	0.0159230
815.926	0.0159035
816.004	0.0159748
816.082	0.0159867
816.160	0.0160940
816.238	0.0162167
816.317	0.0163113
816.395	0.0163136
816.473	0.0162881
816.551	0.0165752
816.629	0.0165149
816.707	0.0165469
816.785	0.0166423
816.863	0.0167090
816.942	0.0167090
817.020	0.0168034
817.098	0.0169714
817.176	0.0167336
817.254	0.0169730
817.332	0.0170860
817.410	0.0170559
817.488	0.0168967
817.567	0.0169993
817.645	0.0169418
817.723	0.0169847
817.801	0.0170068
817.879	0.0169740
817.957	0.0169444
818.035	0.0168461
818.113	0.0167396
818.192	0.0168126
818.270	0.0168328
818.348	0.0168616
818.426	0.0167552
818.504	0.0166859
818.582	0.0167902
818.660	0.0166782
818.738	0.0167609
818.817	0.0168139
818.895	0.0166653
818.973	0.0166251
819.051	0.0167152
819.129	0.0168882
819.207	0.0167028
819.285	0.0168728
819.363	0.0170021
819.442	0.0170357
819.520	0.0171495
819.598	0.0171791
819.676	0.0173428
819.754	0.0175014
819.832	0.0175327
819.910	0.0176911
819.988	0.0177849
820.067	0.0177798
820.145	0.0177448
820.223	0.0177629
820.301	0.0177213
820.379	0.0177293
820.457	0.0177296
820.535	0.0175567
820.613	0.0175193
820.692	0.0174043
820.770	0.0173138
820.848	0.0169985
820.926	0.0169374
821.004	0.0168451
821.082	0.0168249
821.160	0.0168008
821.238	0.0165636
821.317	0.0165219
821.395	0.0164793
821.473	0.0164441
821.551	0.0163843
821.629	0.0163087
821.707	0.0162444
821.785	0.0163586
821.863	0.0164532
821.942	0.0163803
822.020	0.0165391
822.098	0.0164803
822.176	0.0165278
822.254	0.0166450
822.332	0.0166733
822.410	0.0165446
822.488	0.0164314
822.567	0.0165742
822.645	0.0167406
822.723	0.0168600
822.801	0.0167595
822.879	0.0167088
822.957	0.0168176
823.035	0.0168652
823.113	0.0166754
823.192	0.0167184
823.270	0.0167936
823.348	0.0168315
823.426	0.0166412
823.504	0.0166730
823.582	0.0166936
823.660	0.0165850
823.738	0.0165007
823.817	0.0165448
823.895	0.0163964
823.973	0.0162915
824.051	0.0161610
824.129	0.0160789
824.207	0.0161736
824.285	0.0161286
824.363	0.0160154
824.442	0.0160100
824.520	0.0160236
824.598	0.0160533
824.676	0.0159533
824.754	0.0159783
824.832	0.0160886
824.910	0.0161015
824.988	0.0161799
825.067	0.0163107
825.145	0.0163168
825.223	0.0163792
825.301	0.0166303
825.379	0.0166400
825.457	0.0166542
825.535	0.0168237
825.613	0.0169345
825.692	0.0169810
825.770	0.0168748
825.848	0.0169794
825.926	0.0169361
826.004	0.0172032
826.082	0.0171599
826.160	0.0169454
826.238	0.0170837
826.317	0.0170147
826.395	0.0171340
826.473	0.0171523
826.551	0.0171333
826.629	0.0169357
826.707	0.0171291
826.785	0.0170756
826.863	0.0169050
826.942	0.0170515
827.020	0.0171564
827.098	0.0170294
827.176	0.0171458
827.254	0.0172149
827.332	0.0172604
827.410	0.0172749
827.488	0.0172586
827.567	0.0173872
827.645	0.0173699
827.723	0.0174453
827.801	0.0173960
827.879	0.0175639
827.957	0.0175204
828.035	0.0172823
828.113	0.0172459
828.192	0.0173188
828.270	0.0174452
828.348	0.0173451
828.426	0.0174097
828.504	0.0172769
828.582	0.0170134
828.660	0.0172047
828.738	0.0170032
828.817	0.0171204
828.895	0.0169099
828.973	0.0167463
829.051	0.0168782
829.129	0.0168344
829.207	0.0166689
829.285	0.0166602
829.363	0.0165816
829.442	0.0164507
829.520	0.0162762
829.598	0.0164954
829.676	0.0163512
829.754	0.0162473
829.832	0.0160854
829.910	0.0162077
829.988	0.0162178
830.067	0.0163061
830.145	0.0161553
830.223	0.0161284
830.301	0.0162515
830.379	0.0162721
830.457	0.0163866
830.535	0.0163999
830.613	0.0161762
830.692	0.0163234
830.770	0.0163425
830.848	0.0163468
830.926	0.0163406
831.004	0.0165601
831.082	0.0164606
831.160	0.0164131
831.238	0.0164310
831.317	0.0163198
831.395	0.0163604
831.473	0.0164630
831.551	0.0164162
831.629	0.0164619
831.707	0.0165896
831.785	0.0165786
831.863	0.0167292
831.942	0.0165972
832.020	0.0166826
832.098	0.0167056
832.176	0.0169930
832.254	0.0169214
832.332	0.0169024
832.410	0.0173051
832.488	0.0171138
832.567	0.0170875
832.645	0.0173315
832.723	0.0172113
832.801	0.0170941
832.879	0.0171228
832.957	0.0172604
833.035	0.0171144
833.113	0.0172318
833.192	0.0172380
833.270	0.0170805
833.348	0.0169475
833.426	0.0170959
833.504	0.0170425
833.582	0.0168947
833.660	0.0168978
833.738	0.0167258
833.817	0.0167493
833.895	0.0168416
833.973	0.0168122
834.051	0.0167248
834.129	0.0166207
834.207	0.0165828
834.285	0.0166945
834.363	0.0167017
834.442	0.0166047
834.520	0.0165623
834.598	0.0164545
834.676	0.0167391
834.754	0.0165201
834.832	0.0165604
834.910	0.0165683
834.988	0.0163616
835.067	0.0165354
835.145	0.0165004
835.223	0.0165414
835.301	0.0166470
835.379	0.0165359
835.457	0.0165728
835.535	0.0167455
835.613	0.0167278
835.692	0.0167286
835.770	0.0168401
835.848	0.0167790
835.926	0.0169178
836.004	0.0168185
836.082	0.0168999
836.160	0.0170641
836.238	0.0169922
836.317	0.0170348
836.395	0.0170426
836.473	0.0170121
836.551	0.0170269
836.629	0.0170152
836.707	0.0170295
836.785	0.0171567
836.863	0.0169304
836.942	0.0170641
837.020	0.0169314
837.098	0.0170189
837.176	0.0170091
837.254	0.0170576
837.332	0.0170426
837.410	0.0168507
837.488	0.0169543
837.567	0.0169020
837.645	0.0169798
837.723	0.0170258
837.801	0.0167873
837.879	0.0167365
837.957	0.0169019
838.035	0.0169160
838.113	0.0167287
838.192	0.0168424
838.270	0.0170461
838.348	0.0169836
838.426	0.0167425
838.504	0.0169520
838.582	0.0170082
838.660	0.0169244
838.738	0.0169469
838.817	0.0169028
838.895	0.0169035
838.973	0.0169305
839.051	0.0168161
839.129	0.0169030
839.207	0.0168001
839.285	0.0167473
839.363	0.0166975
839.442	0.0167554
839.520	0.0166661
839.598	0.0167572
839.676	0.0166380
839.754	0.0165578
839.832	0.0164765
839.910	0.0164671
839.988	0.0163638
840.067	0.0164153
840.145	0.0163512
840.223	0.0163188
840.301	0.0164190
840.379	0.0164478
840.457	0.0164771
840.535	0.0163145
840.613	0.0165563
840.692	0.0164892
840.770	0.0163745
840.848	0.0165352
840.926	0.0166566
841.004	0.0166305
841.082	0.0166103
841.160	0.0167416
841.238	0.0165583
841.317	0.0166758
841.395	0.0166476
841.473	0.0166155
841.551	0.0165360
841.629	0.0166502
841.707	0.0165817
841.785	0.0166049
841.863	0.0165283
841.942	0.0165697
842.020	0.0166106
842.098	0.0166650
842.176	0.0164918
842.254	0.0165244
842.332	0.0165071
842.410	0.0166308
842.488	0.0164961
842.567	0.0166720
842.645	0.0167178
842.723	0.0167625
842.801	0.0167556
842.879	0.0167138
842.957	0.0167416
843.035	0.0168232
843.113	0.0168115
843.192	0.0169111
843.270	0.0169458
843.348	0.0168838
843.426	0.0169429
843.504	0.0171055
843.582	0.0172413
843.660	0.0173484
843.738	0.0170946
843.817	0.0172230
843.895	0.0172451
843.973	0.0172906
844.051	0.0173215
844.129	0.0174490
844.207	0.0173660
844.285	0.0173592
844.363	0.0173694
844.442	0.0173002
844.520	0.0172450
844.598	0.0173476
844.676	0.0172086
844.754	0.0171338
844.832	0.0172009
844.910	0.0171716
844.988	0.0170923
845.067	0.0171592
845.145	0.0169758
845.223	0.0169381
845.301	0.0168430
845.379	0.0169788
845.457	0.0169122
845.535	0.0169460
845.613	0.0167094
845.692	0.0166290
845.770	0.0168037
845.848	0.0166779
845.926	0.0166351
846.004	0.0165731
846.082	0.0165599
846.160	0.0165501
846.238	0.0166442
846.317	0.0164270
846.395	0.0164162
846.473	0.0166224
846.551	0.0166369
846.629	0.0166737
846.707	0.0164798
846.785	0.0164866
846.863	0.0165482
846.942	0.0164967
847.020	0.0164423
847.098	0.0165515
847.176	0.0166363
847.254	0.0166344
847.332	0.0165058
847.410	0.0165242
847.488	0.0165150
847.567	0.0165081
847.645	0.0165557
847.723	0.0164927
847.801	0.0164338
847.879	0.0165497
847.957	0.0164145
848.035	0.0163618
848.113	0.0164657
848.192	0.0164039
848.270	0.0162900
848.348	0.0162897
848.426	0.0164491
848.504	0.0165424
848.582	0.0164360
848.660	0.0164699
848.738	0.0165206
848.817	0.0163910
848.895	0.0165202
848.973	0.0166042
849.051	0.0166097
849.129	0.0168259
849.207	0.0166940
849.285	0.0167474
849.363	0.0171362
849.442	0.0169109
849.520	0.0169711
849.598	0.0169912
849.676	0.0170455
849.754	0.0171033
849.832	0.0171217
849.910	0.0170582
849.988	0.0170523
850.067	0.0171549
850.145	0.0170179
850.223	0.0171036
850.301	0.0170756
850.379	0.0171465
850.457	0.0170371
850.535	0.0171036
850.613	0.0170408
850.692	0.0171269
850.770	0.0171017
850.848	0.0170421
850.926	0.0170910
851.004	0.0170358
851.082	0.0170975
851.160	0.0169856
851.238	0.0169411
851.317	0.0168538
851.395	0.0168504
851.473	0.0168745
851.551	0.0167992
851.629	0.0168261
851.707	0.0166314
851.785	0.0166850
851.863	0.0165736
851.942	0.0167166
852.020	0.0167503
852.098	0.0165417
852.176	0.0165520
852.254	0.0163979
852.332	0.0165749
852.410	0.0165729
852.488	0.0166751
852.567	0.0165530
852.645	0.0166636
852.723	0.0166604
852.801	0.0165401
852.879	0.0167415
852.957	0.0167039
853.035	0.0166656
853.113	0.0166345
853.192	0.0167711
853.270	0.0167706
853.348	0.0167996
853.426	0.0168839
853.504	0.0169067
853.582	0.0167847
853.660	0.0166779
853.738	0.0167263
853.817	0.0167921
853.895	0.0169197
853.973	0.0167330
854.051	0.0167838
854.129	0.0168446
854.207	0.0167539
854.285	0.0167506
854.363	0.0169659
854.442	0.0166746
854.520	0.0167060
854.598	0.0167297
854.676	0.0167980
854.754	0.0168143
854.832	0.0167466
854.910	0.0166449
854.988	0.0167072
855.067	0.0166100
855.145	0.0168287
855.223	0.0167121
855.301	0.0167123
855.379	0.0167810
855.457	0.0167215
855.535	0.0167980
855.613	0.0166653
855.692	0.0167654
855.770	0.0167915
855.848	0.0167104
855.926	0.0167413
856.004	0.0167132
856.082	0.0166991
856.160	0.0168754
856.238	0.0166735
856.317	0.0165599
856.395	0.0167457
856.473	0.0167902
856.551	0.0167565
856.629	0.0167518
856.707	0.0166821
856.785	0.0166840
856.863	0.0166167
856.942	0.0166010
857.020	0.0166213
857.098	0.0165855
857.176	0.0166113
857.254	0.0166151
857.332	0.0165858
857.410	0.0165404
857.488	0.0165638
857.567	0.0166223
857.645	0.0165953
857.723	0.0166031
857.801	0.0166195
857.879	0.0166769
857.957	0.0166496
858.035	0.0167547
858.113	0.0168215
858.192	0.0167574
858.270	0.0167496
858.348	0.0167583
858.426	0.0167090
858.504	0.0166237
858.582	0.0166899
858.660	0.0167284
858.738	0.0167951
858.817	0.0166853
858.895	0.0165914
858.973	0.0166354
859.051	0.0165683
859.129	0.0166382
859.207	0.0165805
859.285	0.0165298
859.363	0.0165980
859.442	0.0167216
859.520	0.0165417
859.598	0.0164899
859.676	0.0166500
859.754	0.0166943
859.832	0.0166804
859.910	0.0166779
859.988	0.0167514
860.067	0.0167800
860.145	0.0169637
860.223	0.0168253
860.301	0.0169139
860.379	0.0169840
860.457	0.0169540
860.535	0.0170322
860.613	0.0170396
860.692	0.0172098
860.770	0.0171722
860.848	0.0172076
860.926	0.0170998
861.004	0.0170731
861.082	0.0171293
861.160	0.0171195
861.238	0.0171212
861.317	0.0171104
861.395	0.0170318
861.473	0.0170335
861.551	0.0170369
861.629	0.0169993
861.707	0.0169876
861.785	0.0169868
861.863	0.0168608
861.942	0.0168878
862.020	0.0169838
862.098	0.0170390
862.176	0.0168683
862.254	0.0169455
862.332	0.0169199
862.410	0.0168172
862.488	0.0167085
862.567	0.0168043
862.645	0.0168320
862.723	0.0166812
862.801	0.0167338
862.879	0.0167192
862.957	0.0166202
863.035	0.0165026
863.113	0.0167479
863.192	0.0166993
863.270	0.0165637
863.348	0.0167540
863.426	0.0167128
863.504	0.0166959
863.582	0.0167385
863.660	0.0166864
863.738	0.0165398
863.817	0.0165541
863.895	0.0164401
863.973	0.0166187
864.051	0.0165595
864.129	0.0164509
864.207	0.0165250
864.285	0.0164116
864.363	0.0164178
864.442	0.0164331
864.520	0.0165461
864.598	0.0166460
864.676	0.0165540
864.754	0.0166023
864.832	0.0166708
864.910	0.0166621
864.988	0.0167608
865.067	0.0166773
865.145	0.0165991
865.223	0.0166813
865.301	0.0167110
865.379	0.0165840
865.457	0.0165238
865.535	0.0164404
865.613	0.0165949
865.692	0.0164219
865.770	0.0165126
865.848	0.0166251
865.926	0.0166005
866.004	0.0165791
866.082	0.0166428
866.160	0.0167077
866.238	0.0168484
866.317	0.0169599
866.395	0.0169057
866.473	0.0169375
866.551	0.0169115
866.629	0.0169472
866.707	0.0169415
866.785	0.0168611
866.863	0.0168116
866.942	0.0169521
867.020	0.0168214
867.098	0.0168994
867.176	0.0167939
867.254	0.0169635
867.332	0.0169375
867.410	0.0167946
867.488	0.0169080
867.567	0.0170123
867.645	0.0169915
867.723	0.0170948
867.801	0.0172247
867.879	0.0170959
867.957	0.0170567
868.035	0.0170423
868.113	0.0170323
868.192	0.0171407
868.270	0.0170809
868.348	0.0170011
868.426	0.0171054
868.504	0.0169626
868.582	0.0168768
868.660	0.0169152
868.738	0.0168480
868.817	0.0168173
868.895	0.0166894
868.973	0.0167980
869.051	0.0167889
869.129	0.0169154
869.207	0.0167268
869.285	0.0166750
869.363	0.0166743
869.442	0.0167117
869.520	0.0167103
869.598	0.0167554
869.676	0.0167716
869.754	0.0167447
869.832	0.0166415
869.910	0.0165984
869.988	0.0165626
870.067	0.0167093
870.145	0.0166350
870.223	0.0165622
870.301	0.0166769
870.379	0.0166821
870.457	0.0166017
870.535	0.0167605
870.613	0.0166766
870.692	0.0167642
870.770	0.0168916
870.848	0.0167456
870.926	0.0168350
871.004	0.0168602
871.082	0.0168784
871.160	0.0167565
871.238	0.0168925
871.317	0.0168082
871.395	0.0168719
871.473	0.0167063
871.551	0.0168676
871.629	0.0167502
871.707	0.0167651
871.785	0.0168159
871.863	0.0167811
871.942	0.0167736
872.020	0.0168478
872.098	0.0166345
872.176	0.0167950
872.254	0.0168185
872.332	0.0168377
872.410	0.0166009
872.488	0.0166725
872.567	0.0167274
872.645	0.0166260
872.723	0.0166260
872.801	0.0167075
872.879	0.0167769
872.957	0.0166676
873.035	0.0166006
873.113	0.0166234
873.192	0.0166550
873.270	0.0166299
873.348	0.0165984
873.426	0.0166204
873.504	0.0167278
873.582	0.0167634
873.660	0.0166335
873.738	0.0165234
873.817	0.0166048
873.895	0.0166518
873.973	0.0166006
874.051	0.0166158
874.129	0.0165253
874.207	0.0165662
874.285	0.0164892
874.363	0.0164822
874.442	0.0166035
874.520	0.0165652
874.598	0.0166631
874.676	0.0167319
874.754	0.0166579
874.832	0.0167262
874.910	0.0167478
874.988	0.0168285
875.067	0.0167897
875.145	0.0166859
875.223	0.0168711
875.301	0.0167631
875.379	0.0167500
875.457	0.0167451
875.535	0.0167955
875.613	0.0168603
875.692	0.0168198
875.770	0.0167206
875.848	0.0168730
875.926	0.0167884
876.004	0.0167494
876.082	0.0166180
876.160	0.0167924
876.238	0.0168645
876.317	0.0168960
876.395	0.0168670
876.473	0.0169568
876.551	0.0169085
876.629	0.0169435
876.707	0.0170067
876.785	0.0171030
876.863	0.0170486
876.942	0.0170144
877.020	0.0171125
877.098	0.0171035
877.176	0.0170351
877.254	0.0170078
877.332	0.0169217
877.410	0.0170033
877.488	0.0170493
877.567	0.0168393
877.645	0.0169537
877.723	0.0169102
877.801	0.0168316
877.879	0.0167884
877.957	0.0167853
878.035	0.0167635
878.113	0.0167787
878.192	0.0168551
878.270	0.0165895
878.348	0.0166927
878.426	0.0166359
878.504	0.0165645
878.582	0.0165430
878.660	0.0164574
878.738	0.0165971
878.817	0.0164671
878.895	0.0166538
878.973	0.0166826
879.051	0.0166364
879.129	0.0168234
879.207	0.0170809
879.285	0.0170610
879.363	0.0171548
879.442	0.0174069
879.520	0.0174535
879.598	0.0174326
879.676	0.0174271
879.754	0.0171847
879.832	0.0170012
879.910	0.0168171
879.988	0.0166267
880.067	0.0161245
880.145	0.0157092
880.223	0.0155335
880.301	0.0153131
880.379	0.0149947
880.457	0.0146004
880.535	0.0147379
880.613	0.0148987
880.692	0.0151374
880.770	0.0155244
880.848	0.0158221
880.926	0.0162958
881.004	0.0168246
881.082	0.0173328
881.160	0.0177261
881.238	0.0180343
881.317	0.0186147
881.395	0.0188621
881.473	0.0191103
881.551	0.0193118
881.629	0.0192341
881.707	0.0190689
881.785	0.0189874
881.863	0.0188375
881.942	0.0185912
882.020	0.0182373
882.098	0.0179030
882.176	0.0174277
882.254	0.0171398
882.332	0.0166640
882.410	0.0161866
882.488	0.0158443
882.567	0.0153611
882.645	0.0151476
882.723	0.0148363
882.801	0.0146293
882.879	0.0144337
882.957	0.0143728
883.035	0.0141907
883.113	0.0143465
883.192	0.0143159
883.270	0.0144775
883.348	0.0146444
883.426	0.0148838
883.504	0.0151964
883.582	0.0153614
883.660	0.0155466
883.738	0.0159026
883.817	0.0162614
883.895	0.0166642
883.973	0.0169671
884.051	0.0171901
884.129	0.0174935
884.207	0.0178292
884.285	0.0180645
884.363	0.0183881
884.442	0.0184595
884.520	0.0186245
884.598	0.0185768
884.676	0.0186799
884.754	0.0185334
884.832	0.0184898
884.910	0.0184122
884.988	0.0181207
885.067	0.0180376
885.145	0.0178441
885.223	0.0176729
885.301	0.0175144
885.379	0.0173006
885.457	0.0173345
885.535	0.0169605
885.613	0.0169686
885.692	0.0168454
885.770	0.0167019
885.848	0.0166441
885.926	0.0166485
886.004	0.0163899
886.082	0.0163053
886.160	0.0163286
886.238	0.0162454
886.317	0.0163468
886.395	0.0165403
886.473	0.0165811
886.551	0.0164117
886.629	0.0165089
886.707	0.0167023
886.785	0.0168067
886.863	0.0168253
886.942	0.0167686
887.020	0.0166572
887.098	0.0166793
887.176	0.0166048
887.254	0.0165671
887.332	0.0164133
887.410	0.0164349
887.488	0.0163576
887.567	0.0162769
887.645	0.0162880
887.723	0.0163043
887.801	0.0162016
887.879	0.0161606
887.957	0.0161086
888.035	0.0162604
888.113	0.0162107
888.192	0.0162824
888.270	0.0163998
888.348	0.0163975
888.426	0.0165150
888.504	0.0165475
888.582	0.0165507
888.660	0.0165845
888.738	0.0167275
888.817	0.0166582
888.895	0.0168483
888.973	0.0169880
889.051	0.0168937
889.129	0.0168598
889.207	0.0168913
889.285	0.0169328
889.363	0.0171553
889.442	0.0169836
889.520	0.0170166
889.598	0.0170932
889.676	0.0171380
889.754	0.0171947
889.832	0.0170989
889.910	0.0171796
889.988	0.0170439
890.067	0.0172115
890.145	0.0172065
890.223	0.0172181
890.301	0.0171511
890.379	0.0171687
890.457	0.0171737
890.535	0.0170480
890.613	0.0171438
890.692	0.0169576
890.770	0.0167234
890.848	0.0167636
890.926	0.0166212
891.004	0.0165363
891.082	0.0164627
891.160	0.0162621
891.238	0.0161040
891.317	0.0160579
891.395	0.0160625
891.473	0.0161285
891.551	0.0160160
891.629	0.0161005
891.707	0.0160005
891.785	0.0160684
891.863	0.0162634
891.942	0.0161968
892.020	0.0161410
892.098	0.0163697
892.176	0.0164088
892.254	0.0165798
892.332	0.0164829
892.410	0.0167016
892.488	0.0167853
892.567	0.0168642
892.645	0.0167360
892.723	0.0168169
892.801	0.0165800
892.879	0.0167339
892.957	0.0167583
893.035	0.0168376
893.113	0.0167590
893.192	0.0167173
893.270	0.0166480
893.348	0.0166104
893.426	0.0167791
893.504	0.0167661
893.582	0.0167272
893.660	0.0169806
893.738	0.0168777
893.817	0.0169950
893.895	0.0170493
893.973	0.0171612
894.051	0.0172217
894.129	0.0171669
894.207	0.0172603
894.285	0.0175632
894.363	0.0173397
894.442	0.0175069
894.520	0.0174972
894.598	0.0174899
894.676	0.0176622
894.754	0.0175008
894.832	0.0176118
894.910	0.0175091
894.988	0.0175384
895.067	0.0175893
895.145	0.0173901
895.223	0.0172846
895.301	0.0174089
895.379	0.0171922
895.457	0.0170171
895.535	0.0170794
895.613	0.0168060
895.692	0.0167587
895.770	0.0166245
895.848	0.0166572
895.926	0.0165945
896.004	0.0164735
896.082	0.0165987
896.160	0.0165725
896.238	0.0165399
896.317	0.0164384
896.395	0.0165064
896.473	0.0165004
896.551	0.0164781
896.629	0.0165702
896.707	0.0165751
896.785	0.0165583
896.863	0.0165745
896.942	0.0165343
897.020	0.0166325
897.098	0.0166613
897.176	0.0167501
897.254	0.0166570
897.332	0.0166685
897.410	0.0166752
897.488	0.0165903
897.567	0.0164774
897.645	0.0165453
897.723	0.0165369
897.801	0.0163898
897.879	0.0164211
897.957	0.0163069
898.035	0.0162998
898.113	0.0160468
898.192	0.0159785
898.270	0.0159270
898.348	0.0157668
898.426	0.0158482
898.504	0.0157760
898.582	0.0156359
898.660	0.0155340
898.738	0.0157220
898.817	0.0154862
898.895	0.0154748
898.973	0.0156429
899.051	0.0155983
899.129	0.0156830
899.207	0.0156599
899.285	0.0158311
899.363	0.0160506
899.442	0.0161401
899.520	0.0164105
899.598	0.0166533
899.676	0.0165992
899.754	0.0170653
899.832	0.0172694
899.910	0.0173467
899.988	0.0175437
900.067	0.0176640
900.145	0.0178378
900.223	0.0180134
900.301	0.0179736
900.379	0.0180006
900.457	0.0180889
900.535	0.0181011
900.613	0.0179473
900.692	0.0179076
900.770	0.0179599
900.848	0.0178127
900.926	0.0177589
901.004	0.0175244
901.082	0.0174352
901.160	0.0173392
901.238	0.0172968
901.317	0.0172627
901.395	0.0171949
901.473	0.0170294
901.551	0.0170641
901.629	0.0170444
901.707	0.0169475
901.785	0.0168213
901.863	0.0169251
901.942	0.0169865
902.020	0.0169094
902.098	0.0168486
902.176	0.0168509
902.254	0.0169041
902.332	0.0169483
902.410	0.0168635
902.488	0.0168783
902.567	0.0167738
902.645	0.0166834
902.723	0.0166502
902.801	0.0166428
902.879	0.0166306
902.957	0.0164040
903.035	0.0165031
903.113	0.0165039
903.192	0.0164582
903.270	0.0164551
903.348	0.0164051
903.426	0.0162550
903.504	0.0165434
903.582	0.0162955
903.660	0.0162946
903.738	0.0163875
903.817	0.0165089
903.895	0.0164281
903.973	0.0163872
904.051	0.0165264
904.129	0.0165307
904.207	0.0164568
904.285	0.0165323
904.363	0.0163995
904.442	0.0166257
904.520	0.0165552
904.598	0.0164094
904.676	0.0165191
904.754	0.0165456
904.832	0.0164853
904.910	0.0164697
904.988	0.0163549
905.067	0.0163664
905.145	0.0164690
905.223	0.0165233
905.301	0.0164368
905.379	0.0164080
905.457	0.0164358
905.535	0.0164327
905.613	0.0164602
905.692	0.0162610
905.770	0.0165055
905.848	0.0163971
905.926	0.0164958
906.004	0.0164584
906.082	0.0165548
906.160	0.0163152
906.238	0.0164097
906.317	0.0165051
906.395	0.0165411
906.473	0.0164707
906.551	0.0165498
906.629	0.0167405
906.707	0.0166505
906.785	0.0166792
906.863	0.0168713
906.942	0.0168777
907.020	0.0169603
907.098	0.0169119
907.176	0.0169858
907.254	0.0170567
907.332	0.0169849
907.410	0.0169805
907.488	0.0169314
907.567	0.0170368
907.645	0.0169436
907.723	0.0169812
907.801	0.0169448
907.879	0.0167965
907.957	0.0169255
908.035	0.0169437
908.113	0.0167700
908.192	0.0168393
908.270	0.0170229
908.348	0.0170733
908.426	0.0169721
908.504	0.0170332
908.582	0.0170272
908.660	0.0170790
908.738	0.0170936
908.817	0.0170705
908.895	0.0172838
908.973	0.0173764
909.051	0.0170844
909.129	0.0170346
909.207	0.0170255
909.285	0.0171329
909.363	0.0170745
909.442	0.0170433
909.520	0.0170879
909.598	0.0168844
909.676	0.0168179
909.754	0.0168083
909.832	0.0169373
909.910	0.0169041
909.988	0.0169250
910.067	0.0170683
910.145	0.0169653
910.223	0.0169015
910.301	0.0168488
910.379	0.0168592
910.457	0.0168385
910.535	0.0167146
910.613	0.0168201
910.692	0.0168288
910.770	0.0168707
910.848	0.0166858
910.926	0.0166407
911.004	0.0166553
911.082	0.0165788
911.160	0.0164993
911.238	0.0163983
911.317	0.0164537
911.395	0.0164967
911.473	0.0164542
911.551	0.0163545
911.629	0.0164467
911.707	0.0165508
911.785	0.0166782
911.863	0.0166425
911.942	0.0166910
912.020	0.0167269
912.098	0.0166925
912.176	0.0167869
912.254	0.0166245
912.332	0.0166582
912.410	0.0168559
912.488	0.0167741
912.567	0.0167237
912.645	0.0167883
912.723	0.0167583
912.801	0.0167985
912.879	0.0167615
912.957	0.0168467
913.035	0.0167799
913.113	0.0168612
913.192	0.0167570
913.270	0.0167077
913.348	0.0166708
913.426	0.0166116
913.504	0.0166611
913.582	0.0164679
913.660	0.0165579
913.738	0.0166636
913.817	0.0165544
913.895	0.0165616
913.973	0.0163818
914.051	0.0164253
914.129	0.0165714
914.207	0.0163770
914.285	0.0163354
914.363	0.0164298
914.442	0.0164731
914.520	0.0164968
914.598	0.0163749
914.676	0.0164767
914.754	0.0164480
914.832	0.0163333
914.910	0.0164610
914.988	0.0163927
915.067	0.0163959
915.145	0.0163241
915.223	0.0163750
915.301	0.0163581
915.379	0.0163894
915.457	0.0164310
915.535	0.0164492
915.613	0.0164461
915.692	0.0165267
915.770	0.0164718
915.848	0.0166041
915.926	0.0164297
916.004	0.0163708
916.082	0.0164917
916.160	0.0164623
916.238	0.0164132
916.317	0.0165504
916.395	0.0164715
916.473	0.0164768
916.551	0.0165434
916.629	0.0167701
916.707	0.0167562
916.785	0.0167907
916.863	0.0168114
916.942	0.0169903
917.020	0.0171150
917.098	0.0172977
917.176	0.0173338
917.254	0.0174748
917.332	0.0176120
917.410	0.0176670
917.488	0.0176473
917.567	0.0178495
917.645	0.0179031
917.723	0.0178739
917.801	0.0178024
917.879	0.0179106
917.957	0.0177639
918.035	0.0177156
918.113	0.0176251
918.192	0.0175519
918.270	0.0174873
918.348	0.0174652
918.426	0.0174885
918.504	0.0172915
918.582	0.0171815
918.660	0.0172239
918.738	0.0171432
918.817	0.0170339
918.895	0.0170451
918.973	0.0169337
919.051	0.0168343
919.129	0.0167965
919.207	0.0168012
919.285	0.0167087
919.363	0.0165530
919.442	0.0166479
919.520	0.0164063
919.598	0.0165519
919.676	0.0165321
919.754	0.0165095
919.832	0.0163042
919.910	0.0163436
