05/14/2022	19:04:39	Ver.	4.1	UNKNOWN
Optical Delay	650.016352	Delta X		0.078125	Sweeps	1	Scan Rate	0/0
Coordinates	Axis 1	NaN	Axis 2	NaN	Axis 3	NaN	Axis 4	NaN	Axis 5	NaN	Axis 6	0.000000
TX Power	0.000000	RX Power	0.000000

650.016	0.0152650
650.094	0.0152348
650.173	0.0152413
650.251	0.0153740
650.329	0.0153513
650.407	0.0151733
650.485	0.0151863
650.563	0.0151962
650.641	0.0152072
650.719	0.0152296
650.798	0.0154089
650.876	0.0154261
650.954	0.0152536
651.032	0.0150521
651.110	0.0153597
651.188	0.0153550
651.266	0.0151517
651.344	0.0151617
651.423	0.0151526
651.501	0.0154244
651.579	0.0153134
651.657	0.0151134
651.735	0.0153126
651.813	0.0153093
651.891	0.0153613
651.969	0.0152399
652.048	0.0152923
652.126	0.0152170
652.204	0.0152058
652.282	0.0152105
652.360	0.0153371
652.438	0.0152921
652.516	0.0152954
652.594	0.0152090
652.673	0.0153148
652.751	0.0152948
652.829	0.0152576
652.907	0.0151801
652.985	0.0152991
653.063	0.0152043
653.141	0.0151522
653.219	0.0152354
653.298	0.0152818
653.376	0.0152731
653.454	0.0152587
653.532	0.0152171
653.610	0.0152769
653.688	0.0152740
653.766	0.0152254
653.844	0.0153894
653.923	0.0151339
654.001	0.0152625
654.079	0.0153400
654.157	0.0152222
654.235	0.0153426
654.313	0.0152340
654.391	0.0152752
654.469	0.0153366
654.548	0.0152140
654.626	0.0152194
654.704	0.0152324
654.782	0.0151392
654.860	0.0152314
654.938	0.0150946
655.016	0.0153281
655.094	0.0152660
655.173	0.0150517
655.251	0.0152969
655.329	0.0152541
655.407	0.0152892
655.485	0.0153432
655.563	0.0153175
655.641	0.0152236
655.719	0.0151896
655.798	0.0151749
655.876	0.0153345
655.954	0.0153669
656.032	0.0153193
656.110	0.0153517
656.188	0.0153413
656.266	0.0150811
656.344	0.0153230
656.423	0.0151891
656.501	0.0152659
656.579	0.0150126
656.657	0.0152271
656.735	0.0153096
656.813	0.0153064
656.891	0.0152265
656.969	0.0152012
657.048	0.0152132
657.126	0.0152909
657.204	0.0153002
657.282	0.0154225
657.360	0.0152624
657.438	0.0152195
657.516	0.0152607
657.594	0.0152962
657.673	0.0153040
657.751	0.0151962
657.829	0.0152773
657.907	0.0152936
657.985	0.0152354
658.063	0.0152454
658.141	0.0152110
658.219	0.0153207
658.298	0.0153005
658.376	0.0152683
658.454	0.0152238
658.532	0.0151810
658.610	0.0152735
658.688	0.0152470
658.766	0.0152970
658.844	0.0153558
658.923	0.0152755
659.001	0.0152140
659.079	0.0153225
659.157	0.0153103
659.235	0.0153296
659.313	0.0152688
659.391	0.0151561
659.469	0.0152736
659.548	0.0153304
659.626	0.0152389
659.704	0.0152120
659.782	0.0152916
659.860	0.0152057
659.938	0.0152779
660.016	0.0152942
660.094	0.0150988
660.173	0.0152493
660.251	0.0152007
660.329	0.0153020
660.407	0.0151453
660.485	0.0152764
660.563	0.0153432
660.641	0.0152813
660.719	0.0152771
660.798	0.0152283
660.876	0.0152229
660.954	0.0152766
661.032	0.0151504
661.110	0.0150746
661.188	0.0151830
661.266	0.0151257
661.344	0.0153499
661.423	0.0152169
661.501	0.0151087
661.579	0.0152553
661.657	0.0151440
661.735	0.0151083
661.813	0.0153338
661.891	0.0152853
661.969	0.0153233
662.048	0.0152705
662.126	0.0153084
662.204	0.0153342
662.282	0.0152533
662.360	0.0152296
662.438	0.0152499
662.516	0.0151282
662.594	0.0151412
662.673	0.0152176
662.751	0.0152013
662.829	0.0152676
662.907	0.0151038
662.985	0.0152364
663.063	0.0151427
663.141	0.0151707
663.219	0.0151886
663.298	0.0153037
663.376	0.0153265
663.454	0.0153320
663.532	0.0152483
663.610	0.0153121
663.688	0.0152569
663.766	0.0152408
663.844	0.0151822
663.923	0.0151847
664.001	0.0151597
664.079	0.0152738
664.157	0.0150985
664.235	0.0150586
664.313	0.0152139
664.391	0.0151903
664.469	0.0153172
664.548	0.0153146
664.626	0.0152761
664.704	0.0152016
664.782	0.0153198
664.860	0.0151978
664.938	0.0151933
665.016	0.0152824
665.094	0.0151609
665.173	0.0151685
665.251	0.0152151
665.329	0.0151225
665.407	0.0153210
665.485	0.0151338
665.563	0.0152776
665.641	0.0151308
665.719	0.0152919
665.798	0.0152914
665.876	0.0153521
665.954	0.0153130
666.032	0.0152352
666.110	0.0152159
666.188	0.0152358
666.266	0.0151776
666.344	0.0152819
666.423	0.0152428
666.501	0.0151371
666.579	0.0151595
666.657	0.0151613
666.735	0.0152824
666.813	0.0152937
666.891	0.0151743
666.969	0.0152423
667.048	0.0151637
667.126	0.0152348
667.204	0.0150645
667.282	0.0153735
667.360	0.0152357
667.438	0.0152110
667.516	0.0151842
667.594	0.0151979
667.673	0.0151562
667.751	0.0151840
667.829	0.0151507
667.907	0.0152554
667.985	0.0153956
668.063	0.0152496
668.141	0.0152836
668.219	0.0152681
668.298	0.0152834
668.376	0.0152779
668.454	0.0151791
668.532	0.0152059
668.610	0.0153455
668.688	0.0152229
668.766	0.0151623
668.844	0.0154085
668.923	0.0153835
669.001	0.0152632
669.079	0.0152377
669.157	0.0151971
669.235	0.0152477
669.313	0.0153429
669.391	0.0151440
669.469	0.0151941
669.548	0.0152018
669.626	0.0152954
669.704	0.0152131
669.782	0.0152203
669.860	0.0153239
669.938	0.0151992
670.016	0.0153026
670.094	0.0152412
670.173	0.0153307
670.251	0.0152010
670.329	0.0152572
670.407	0.0152191
670.485	0.0151855
670.563	0.0152882
670.641	0.0153046
670.719	0.0154220
670.798	0.0153577
670.876	0.0152528
670.954	0.0151849
671.032	0.0151989
671.110	0.0152127
671.188	0.0151653
671.266	0.0153508
671.344	0.0152185
671.423	0.0152408
671.501	0.0152937
671.579	0.0153243
671.657	0.0152380
671.735	0.0152074
671.813	0.0152783
671.891	0.0153788
671.969	0.0152179
672.048	0.0152560
672.126	0.0152325
672.204	0.0151984
672.282	0.0152084
672.360	0.0153192
672.438	0.0153387
672.516	0.0153124
672.594	0.0150861
672.673	0.0152365
672.751	0.0151953
672.829	0.0152195
672.907	0.0152982
672.985	0.0152589
673.063	0.0153283
673.141	0.0151179
673.219	0.0152011
673.298	0.0153764
673.376	0.0152213
673.454	0.0151706
673.532	0.0151302
673.610	0.0151481
673.688	0.0152901
673.766	0.0152393
673.844	0.0152818
673.923	0.0153452
674.001	0.0152714
674.079	0.0151966
674.157	0.0153534
674.235	0.0152570
674.313	0.0152282
674.391	0.0151869
674.469	0.0152451
674.548	0.0152330
674.626	0.0152135
674.704	0.0152523
674.782	0.0152698
674.860	0.0152683
674.938	0.0152070
675.016	0.0152517
675.094	0.0152405
675.173	0.0152744
675.251	0.0152017
675.329	0.0152072
675.407	0.0152132
675.485	0.0151576
675.563	0.0153521
675.641	0.0152729
675.719	0.0152178
675.798	0.0151505
675.876	0.0152423
675.954	0.0151721
676.032	0.0151105
676.110	0.0152595
676.188	0.0152473
676.266	0.0151396
676.344	0.0151778
676.423	0.0151800
676.501	0.0150446
676.579	0.0151894
676.657	0.0151015
676.735	0.0152150
676.813	0.0152075
676.891	0.0152058
676.969	0.0151231
677.048	0.0151260
677.126	0.0153552
677.204	0.0151687
677.282	0.0153639
677.360	0.0152339
677.438	0.0151424
677.516	0.0150883
677.594	0.0152330
677.673	0.0152485
677.751	0.0151479
677.829	0.0150578
677.907	0.0152133
677.985	0.0152409
678.063	0.0151618
678.141	0.0152863
678.219	0.0150510
678.298	0.0152171
678.376	0.0152433
678.454	0.0151948
678.532	0.0151536
678.610	0.0150935
678.688	0.0152198
678.766	0.0151520
678.844	0.0151528
678.923	0.0150876
679.001	0.0150898
679.079	0.0150286
679.157	0.0151957
679.235	0.0150935
679.313	0.0151929
679.391	0.0150835
679.469	0.0150929
679.548	0.0151627
679.626	0.0151295
679.704	0.0150746
679.782	0.0151605
679.860	0.0150768
679.938	0.0150914
680.016	0.0150680
680.094	0.0151018
680.173	0.0151445
680.251	0.0152301
680.329	0.0151416
680.407	0.0150928
680.485	0.0151688
680.563	0.0151590
680.641	0.0150606
680.719	0.0151081
680.798	0.0151735
680.876	0.0152316
680.954	0.0152222
681.032	0.0151882
681.110	0.0151335
681.188	0.0151617
681.266	0.0151726
681.344	0.0151317
681.423	0.0151466
681.501	0.0151775
681.579	0.0153500
681.657	0.0154400
681.735	0.0152464
681.813	0.0151303
681.891	0.0151443
681.969	0.0151992
682.048	0.0153822
682.126	0.0152568
682.204	0.0152625
682.282	0.0153332
682.360	0.0152416
682.438	0.0151925
682.516	0.0153569
682.594	0.0152825
682.673	0.0154090
682.751	0.0152621
682.829	0.0153669
682.907	0.0153946
682.985	0.0152149
683.063	0.0152104
683.141	0.0153206
683.219	0.0152069
683.298	0.0152956
683.376	0.0152194
683.454	0.0151939
683.532	0.0152290
683.610	0.0151649
683.688	0.0154144
683.766	0.0153883
683.844	0.0153255
683.923	0.0151667
684.001	0.0152946
684.079	0.0152521
684.157	0.0152940
684.235	0.0151758
684.313	0.0154362
684.391	0.0154134
684.469	0.0152219
684.548	0.0151688
684.626	0.0154271
684.704	0.0153205
684.782	0.0153357
684.860	0.0151895
684.938	0.0151839
685.016	0.0152708
685.094	0.0152833
685.173	0.0153022
685.251	0.0153549
685.329	0.0152235
685.407	0.0152474
685.485	0.0154805
685.563	0.0152006
685.641	0.0153352
685.719	0.0152543
685.798	0.0151581
685.876	0.0154185
685.954	0.0153755
686.032	0.0152055
686.110	0.0152602
686.188	0.0151108
686.266	0.0151442
686.344	0.0153214
686.423	0.0153338
686.501	0.0153401
686.579	0.0151184
686.657	0.0151901
686.735	0.0152273
686.813	0.0152539
686.891	0.0151501
686.969	0.0151063
687.048	0.0151817
687.126	0.0151574
687.204	0.0151052
687.282	0.0153008
687.360	0.0153568
687.438	0.0151595
687.516	0.0152853
687.594	0.0152016
687.673	0.0152258
687.751	0.0150905
687.829	0.0152459
687.907	0.0152799
687.985	0.0151483
688.063	0.0151862
688.141	0.0152413
688.219	0.0152423
688.298	0.0153460
688.376	0.0151542
688.454	0.0152116
688.532	0.0152119
688.610	0.0152348
688.688	0.0154270
688.766	0.0151829
688.844	0.0151146
688.923	0.0152868
689.001	0.0153464
689.079	0.0151883
689.157	0.0151842
689.235	0.0150562
689.313	0.0151638
689.391	0.0151067
689.469	0.0151279
689.548	0.0151675
689.626	0.0153013
689.704	0.0152285
689.782	0.0151518
689.860	0.0152557
689.938	0.0151970
690.016	0.0152573
690.094	0.0151700
690.173	0.0151896
690.251	0.0151642
690.329	0.0151077
690.407	0.0151083
690.485	0.0151511
690.563	0.0151617
690.641	0.0151279
690.719	0.0151504
690.798	0.0151984
690.876	0.0151066
690.954	0.0152441
691.032	0.0151105
691.110	0.0150977
691.188	0.0151327
691.266	0.0151404
691.344	0.0151593
691.423	0.0153107
691.501	0.0152559
691.579	0.0150764
691.657	0.0152266
691.735	0.0153456
691.813	0.0152969
691.891	0.0152503
691.969	0.0152293
692.048	0.0152724
692.126	0.0152940
692.204	0.0151769
692.282	0.0152098
692.360	0.0152300
692.438	0.0152183
692.516	0.0151242
692.594	0.0149714
692.673	0.0151352
692.751	0.0150587
692.829	0.0150922
692.907	0.0152111
692.985	0.0151540
693.063	0.0152383
693.141	0.0153237
693.219	0.0153377
693.298	0.0154109
693.376	0.0154092
693.454	0.0154446
693.532	0.0154425
693.610	0.0154998
693.688	0.0152598
693.766	0.0154000
693.844	0.0154204
693.923	0.0151862
694.001	0.0151310
694.079	0.0151836
694.157	0.0151917
694.235	0.0150475
694.313	0.0149119
694.391	0.0149085
694.469	0.0148985
694.548	0.0149883
694.626	0.0151185
694.704	0.0151199
694.782	0.0151869
694.860	0.0151550
694.938	0.0151729
695.016	0.0152312
695.094	0.0152628
695.173	0.0152048
695.251	0.0155114
695.329	0.0153667
695.407	0.0152902
695.485	0.0154353
695.563	0.0154690
695.641	0.0155141
695.719	0.0154840
695.798	0.0154989
695.876	0.0155564
695.954	0.0155674
696.032	0.0155030
696.110	0.0154748
696.188	0.0154879
696.266	0.0152998
696.344	0.0152599
696.423	0.0152216
696.501	0.0152891
696.579	0.0151065
696.657	0.0150852
696.735	0.0150012
696.813	0.0149413
696.891	0.0148964
696.969	0.0148204
697.048	0.0147721
697.126	0.0148230
697.204	0.0149038
697.282	0.0150176
697.360	0.0149345
697.438	0.0148463
697.516	0.0150086
697.594	0.0151844
697.673	0.0151086
697.751	0.0153015
697.829	0.0153192
697.907	0.0153987
697.985	0.0154128
698.063	0.0155271
698.141	0.0156644
698.219	0.0156483
698.298	0.0155498
698.376	0.0158121
698.454	0.0157015
698.532	0.0156373
698.610	0.0156990
698.688	0.0155260
698.766	0.0154971
698.844	0.0154793
698.923	0.0153845
699.001	0.0154510
699.079	0.0153249
699.157	0.0153014
699.235	0.0150963
699.313	0.0150082
699.391	0.0148973
699.469	0.0149345
699.548	0.0149252
699.626	0.0148798
699.704	0.0150011
699.782	0.0148748
699.860	0.0147822
699.938	0.0147868
700.016	0.0148400
700.094	0.0147524
700.173	0.0147549
700.251	0.0148120
700.329	0.0147942
700.407	0.0148037
700.485	0.0148218
700.563	0.0147957
700.641	0.0149428
700.719	0.0149930
700.798	0.0149931
700.876	0.0150904
700.954	0.0151020
701.032	0.0151977
701.110	0.0152110
701.188	0.0153384
701.266	0.0152132
701.344	0.0154496
701.423	0.0155186
701.501	0.0154082
701.579	0.0155260
701.657	0.0156514
701.735	0.0155582
701.813	0.0156107
701.891	0.0157144
701.969	0.0156601
702.048	0.0155307
702.126	0.0155820
702.204	0.0156856
702.282	0.0155398
702.360	0.0155244
702.438	0.0154549
702.516	0.0154516
702.594	0.0153053
702.673	0.0151050
702.751	0.0151354
702.829	0.0150729
702.907	0.0150647
702.985	0.0150216
703.063	0.0148981
703.141	0.0148985
703.219	0.0147115
703.298	0.0146626
703.376	0.0146764
703.454	0.0144975
703.532	0.0146945
703.610	0.0145369
703.688	0.0145125
703.766	0.0147027
703.844	0.0146502
703.923	0.0146544
704.001	0.0148323
704.079	0.0147566
704.157	0.0148306
704.235	0.0149856
704.313	0.0150443
704.391	0.0151275
704.469	0.0150351
704.548	0.0151473
704.626	0.0152062
704.704	0.0152411
704.782	0.0154912
704.860	0.0154465
704.938	0.0154665
705.016	0.0155338
705.094	0.0155083
705.173	0.0155816
705.251	0.0155571
705.329	0.0155647
705.407	0.0156598
705.485	0.0157891
705.563	0.0155340
705.641	0.0155491
705.719	0.0156805
705.798	0.0155989
705.876	0.0154543
705.954	0.0155682
706.032	0.0154945
706.110	0.0153756
706.188	0.0153318
706.266	0.0152721
706.344	0.0152830
706.423	0.0150974
706.501	0.0150544
706.579	0.0150614
706.657	0.0150278
706.735	0.0150298
706.813	0.0149557
706.891	0.0148530
706.969	0.0148981
707.048	0.0148215
707.126	0.0147363
707.204	0.0146406
707.282	0.0147694
707.360	0.0147459
707.438	0.0148180
707.516	0.0146957
707.594	0.0147775
707.673	0.0148912
707.751	0.0149282
707.829	0.0148232
707.907	0.0148757
707.985	0.0148632
708.063	0.0149297
708.141	0.0150243
708.219	0.0150534
708.298	0.0151653
708.376	0.0152448
708.454	0.0153131
708.532	0.0152523
708.610	0.0152883
708.688	0.0154532
708.766	0.0154830
708.844	0.0152879
708.923	0.0154119
709.001	0.0155402
709.079	0.0156979
709.157	0.0154776
709.235	0.0154962
709.313	0.0153957
709.391	0.0155209
709.469	0.0155033
709.548	0.0155650
709.626	0.0154982
709.704	0.0153313
709.782	0.0154378
709.860	0.0155723
709.938	0.0153826
710.016	0.0154106
710.094	0.0153274
710.173	0.0152776
710.251	0.0151992
710.329	0.0153266
710.407	0.0153512
710.485	0.0152398
710.563	0.0151044
710.641	0.0151138
710.719	0.0150948
710.798	0.0151880
710.876	0.0152055
710.954	0.0150806
711.032	0.0151156
711.110	0.0150704
711.188	0.0150256
711.266	0.0152082
711.344	0.0152217
711.423	0.0151031
711.501	0.0151161
711.579	0.0150848
711.657	0.0149429
711.735	0.0150703
711.813	0.0150588
711.891	0.0150752
711.969	0.0151343
712.048	0.0151328
712.126	0.0151210
712.204	0.0151442
712.282	0.0150161
712.360	0.0151064
712.438	0.0152660
712.516	0.0153314
712.594	0.0152486
712.673	0.0151875
712.751	0.0151295
712.829	0.0151675
712.907	0.0152676
712.985	0.0152621
713.063	0.0152940
713.141	0.0152807
713.219	0.0153065
713.298	0.0154733
713.376	0.0153716
713.454	0.0152280
713.532	0.0153151
713.610	0.0154340
713.688	0.0153303
713.766	0.0152377
713.844	0.0152624
713.923	0.0153744
714.001	0.0154725
714.079	0.0152798
714.157	0.0152564
714.235	0.0152642
714.313	0.0153463
714.391	0.0152000
714.469	0.0154192
714.548	0.0153246
714.626	0.0153300
714.704	0.0152740
714.782	0.0151784
714.860	0.0151665
714.938	0.0154094
715.016	0.0153761
715.094	0.0151324
715.173	0.0151942
715.251	0.0152630
715.329	0.0151519
715.407	0.0151684
715.485	0.0153211
715.563	0.0153374
715.641	0.0150747
715.719	0.0151478
715.798	0.0152533
715.876	0.0152766
715.954	0.0150494
716.032	0.0151092
716.110	0.0150011
716.188	0.0150985
716.266	0.0151616
716.344	0.0151081
716.423	0.0150143
716.501	0.0150566
716.579	0.0151063
716.657	0.0150751
716.735	0.0150657
716.813	0.0151722
716.891	0.0150583
716.969	0.0151308
717.048	0.0152111
717.126	0.0151504
717.204	0.0151714
717.282	0.0149519
717.360	0.0150880
717.438	0.0152847
717.516	0.0151659
717.594	0.0151009
717.673	0.0150877
717.751	0.0151310
717.829	0.0152608
717.907	0.0152394
717.985	0.0151974
718.063	0.0152346
718.141	0.0153448
718.219	0.0152463
718.298	0.0152171
718.376	0.0151537
718.454	0.0151778
718.532	0.0152940
718.610	0.0152258
718.688	0.0152534
718.766	0.0153239
718.844	0.0153156
718.923	0.0151869
719.001	0.0154066
719.079	0.0153582
719.157	0.0153706
719.235	0.0152946
719.313	0.0154282
719.391	0.0153515
719.469	0.0153259
719.548	0.0153531
719.626	0.0152984
719.704	0.0153516
719.782	0.0153027
719.860	0.0153764
719.938	0.0151665
720.016	0.0150826
720.094	0.0152523
720.173	0.0151536
720.251	0.0152003
720.329	0.0152412
720.407	0.0152472
720.485	0.0151064
720.563	0.0151501
720.641	0.0151472
720.719	0.0152974
720.798	0.0151186
720.876	0.0151406
720.954	0.0151353
721.032	0.0151465
721.110	0.0151531
721.188	0.0150982
721.266	0.0150388
721.344	0.0150756
721.423	0.0151816
721.501	0.0151679
721.579	0.0151241
721.657	0.0150498
721.735	0.0151897
721.813	0.0150950
721.891	0.0150603
721.969	0.0152155
722.048	0.0151889
722.126	0.0151647
722.204	0.0152291
722.282	0.0152841
722.360	0.0152998
722.438	0.0152419
722.516	0.0151807
722.594	0.0152710
722.673	0.0152302
722.751	0.0153481
722.829	0.0152480
722.907	0.0151639
722.985	0.0151457
723.063	0.0154301
723.141	0.0152501
723.219	0.0152470
723.298	0.0152283
723.376	0.0153362
723.454	0.0152448
723.532	0.0151927
723.610	0.0152779
723.688	0.0153732
723.766	0.0151147
723.844	0.0152029
723.923	0.0154100
724.001	0.0152151
724.079	0.0152513
724.157	0.0153651
724.235	0.0153268
724.313	0.0152943
724.391	0.0153262
724.469	0.0152616
724.548	0.0153777
724.626	0.0153792
724.704	0.0153953
724.782	0.0153075
724.860	0.0152508
724.938	0.0153532
725.016	0.0152838
725.094	0.0153461
725.173	0.0151896
725.251	0.0153023
725.329	0.0153538
725.407	0.0153444
725.485	0.0153571
725.563	0.0153077
725.641	0.0151326
725.719	0.0151954
725.798	0.0153072
725.876	0.0152193
725.954	0.0152312
726.032	0.0151858
726.110	0.0151823
726.188	0.0152304
726.266	0.0151611
726.344	0.0151895
726.423	0.0150842
726.501	0.0152296
726.579	0.0151627
726.657	0.0150963
726.735	0.0150961
726.813	0.0151948
726.891	0.0151904
726.969	0.0152289
727.048	0.0152155
727.126	0.0150481
727.204	0.0150307
727.282	0.0151511
727.360	0.0152193
727.438	0.0150366
727.516	0.0151631
727.594	0.0151968
727.673	0.0150865
727.751	0.0151367
727.829	0.0152208
727.907	0.0151926
727.985	0.0151517
728.063	0.0151476
728.141	0.0152987
728.219	0.0152083
728.298	0.0152343
728.376	0.0153441
728.454	0.0152757
728.532	0.0152177
728.610	0.0152075
728.688	0.0151820
728.766	0.0150887
728.844	0.0151468
728.923	0.0151051
729.001	0.0152100
729.079	0.0151730
729.157	0.0150349
729.235	0.0152293
729.313	0.0151254
729.391	0.0151604
729.469	0.0151111
729.548	0.0151579
729.626	0.0152007
729.704	0.0151228
729.782	0.0152102
729.860	0.0151213
729.938	0.0150430
730.016	0.0151568
730.094	0.0151047
730.173	0.0151810
730.251	0.0152962
730.329	0.0151031
730.407	0.0151649
730.485	0.0152657
730.563	0.0152585
730.641	0.0152695
730.719	0.0153281
730.798	0.0152395
730.876	0.0153698
730.954	0.0152985
731.032	0.0151939
731.110	0.0152184
731.188	0.0152023
731.266	0.0152655
731.344	0.0152345
731.423	0.0151118
731.501	0.0152276
731.579	0.0151428
731.657	0.0153834
731.735	0.0151900
731.813	0.0153283
731.891	0.0151854
731.969	0.0151881
732.048	0.0151561
732.126	0.0151721
732.204	0.0151122
732.282	0.0151208
732.360	0.0151109
732.438	0.0151144
732.516	0.0151765
732.594	0.0149937
732.673	0.0149772
732.751	0.0151000
732.829	0.0152683
732.907	0.0151332
732.985	0.0149843
733.063	0.0151225
733.141	0.0152841
733.219	0.0152327
733.298	0.0153165
733.376	0.0152409
733.454	0.0152635
733.532	0.0152647
733.610	0.0152648
733.688	0.0150311
733.766	0.0150607
733.844	0.0153652
733.923	0.0152611
734.001	0.0153989
734.079	0.0153381
734.157	0.0151899
734.235	0.0153180
734.313	0.0153693
734.391	0.0152586
734.469	0.0151941
734.548	0.0151750
734.626	0.0151890
734.704	0.0152278
734.782	0.0153215
734.860	0.0154225
734.938	0.0151742
735.016	0.0151926
735.094	0.0152024
735.173	0.0152276
735.251	0.0152744
735.329	0.0152547
735.407	0.0152754
735.485	0.0150122
735.563	0.0152016
735.641	0.0153637
735.719	0.0152151
735.798	0.0152433
735.876	0.0151410
735.954	0.0151705
736.032	0.0151630
736.110	0.0151126
736.188	0.0151123
736.266	0.0152254
736.344	0.0152754
736.423	0.0151176
736.501	0.0151199
736.579	0.0153249
736.657	0.0152408
736.735	0.0151184
736.813	0.0151666
736.891	0.0151232
736.969	0.0151350
737.048	0.0152346
737.126	0.0152748
737.204	0.0152416
737.282	0.0149944
737.360	0.0152220
737.438	0.0153646
737.516	0.0152106
737.594	0.0152877
737.673	0.0152991
737.751	0.0152917
737.829	0.0151248
737.907	0.0152176
737.985	0.0152107
738.063	0.0152622
738.141	0.0151550
738.219	0.0151259
738.298	0.0152114
738.376	0.0151524
738.454	0.0151029
738.532	0.0151302
738.610	0.0151277
738.688	0.0151374
738.766	0.0151918
738.844	0.0150731
738.923	0.0151118
739.001	0.0152161
739.079	0.0153176
739.157	0.0152822
739.235	0.0151150
739.313	0.0150530
739.391	0.0153459
739.469	0.0152059
739.548	0.0151885
739.626	0.0152653
739.704	0.0152610
739.782	0.0153375
739.860	0.0151711
739.938	0.0151963
740.016	0.0154345
740.094	0.0152324
740.173	0.0152716
740.251	0.0154716
740.329	0.0154577
740.407	0.0153220
740.485	0.0153517
740.563	0.0153482
740.641	0.0153081
740.719	0.0151913
740.798	0.0152129
740.876	0.0153520
740.954	0.0152280
741.032	0.0152155
741.110	0.0151860
741.188	0.0151775
741.266	0.0153129
741.344	0.0151392
741.423	0.0151855
741.501	0.0151739
741.579	0.0152651
741.657	0.0149861
741.735	0.0151483
741.813	0.0151899
741.891	0.0152164
741.969	0.0151994
742.048	0.0151036
742.126	0.0151333
742.204	0.0151785
742.282	0.0152976
742.360	0.0151972
742.438	0.0151834
742.516	0.0152727
742.594	0.0153177
742.673	0.0152934
742.751	0.0152036
742.829	0.0152573
742.907	0.0151432
742.985	0.0152848
743.063	0.0153505
743.141	0.0153213
743.219	0.0151350
743.298	0.0151171
743.376	0.0150771
743.454	0.0151511
743.532	0.0151866
743.610	0.0152485
743.688	0.0151597
743.766	0.0149709
743.844	0.0150117
743.923	0.0150073
744.001	0.0150950
744.079	0.0151833
744.157	0.0151289
744.235	0.0151759
744.313	0.0150835
744.391	0.0150166
744.469	0.0151377
744.548	0.0151743
744.626	0.0153027
744.704	0.0154299
744.782	0.0153189
744.860	0.0153149
744.938	0.0152393
745.016	0.0152867
745.094	0.0153619
745.173	0.0153075
745.251	0.0154474
745.329	0.0153010
745.407	0.0153933
745.485	0.0152720
745.563	0.0152901
745.641	0.0153194
745.719	0.0152840
745.798	0.0152232
745.876	0.0152455
745.954	0.0153406
746.032	0.0152021
746.110	0.0153194
746.188	0.0153419
746.266	0.0150824
746.344	0.0151210
746.423	0.0150806
746.501	0.0151450
746.579	0.0152216
746.657	0.0151830
746.735	0.0151578
746.813	0.0152649
746.891	0.0151328
746.969	0.0151335
747.048	0.0150562
747.126	0.0152238
747.204	0.0153448
747.282	0.0151431
747.360	0.0151151
747.438	0.0151451
747.516	0.0151553
747.594	0.0151677
747.673	0.0151286
747.751	0.0152996
747.829	0.0150861
747.907	0.0151316
747.985	0.0151381
748.063	0.0151866
748.141	0.0152634
748.219	0.0152469
748.298	0.0153943
748.376	0.0152856
748.454	0.0152291
748.532	0.0154073
748.610	0.0151324
748.688	0.0152022
748.766	0.0153103
748.844	0.0152335
748.923	0.0152008
749.001	0.0152434
749.079	0.0152262
749.157	0.0152964
749.235	0.0152316
749.313	0.0152570
749.391	0.0151969
749.469	0.0152018
749.548	0.0151613
749.626	0.0150897
749.704	0.0149596
749.782	0.0151829
749.860	0.0152722
749.938	0.0150954
750.016	0.0152024
750.094	0.0150896
750.173	0.0152421
750.251	0.0150900
750.329	0.0151149
750.407	0.0150755
750.485	0.0151429
750.563	0.0151215
750.641	0.0151372
750.719	0.0152480
750.798	0.0152891
750.876	0.0153492
750.954	0.0154006
751.032	0.0152956
751.110	0.0152648
751.188	0.0153018
751.266	0.0154771
751.344	0.0154176
751.423	0.0154137
751.501	0.0154377
751.579	0.0152359
751.657	0.0152582
751.735	0.0152826
751.813	0.0153220
751.891	0.0153452
751.969	0.0153551
752.048	0.0153649
752.126	0.0153462
752.204	0.0153394
752.282	0.0152350
752.360	0.0151984
752.438	0.0152502
752.516	0.0152160
752.594	0.0152855
752.673	0.0151183
752.751	0.0152363
752.829	0.0152849
752.907	0.0152211
752.985	0.0152196
753.063	0.0151266
753.141	0.0152427
753.219	0.0153172
753.298	0.0153090
753.376	0.0152360
753.454	0.0152396
753.532	0.0152202
753.610	0.0153001
753.688	0.0152454
753.766	0.0151031
753.844	0.0152256
753.923	0.0151720
754.001	0.0152997
754.079	0.0151791
754.157	0.0152948
754.235	0.0150573
754.313	0.0151390
754.391	0.0151516
754.469	0.0151098
754.548	0.0149845
754.626	0.0150149
754.704	0.0151941
754.782	0.0152019
754.860	0.0150554
754.938	0.0151147
755.016	0.0150710
755.094	0.0151669
755.173	0.0152471
755.251	0.0151801
755.329	0.0150891
755.407	0.0152259
755.485	0.0151720
755.563	0.0151546
755.641	0.0152845
755.719	0.0152004
755.798	0.0151170
755.876	0.0150716
755.954	0.0151894
756.032	0.0152583
756.110	0.0152892
756.188	0.0152447
756.266	0.0152438
756.344	0.0152991
756.423	0.0152868
756.501	0.0152488
756.579	0.0152508
756.657	0.0153684
756.735	0.0153540
756.813	0.0153004
756.891	0.0152856
756.969	0.0153100
757.048	0.0153429
757.126	0.0152948
757.204	0.0152508
757.282	0.0151826
757.360	0.0152489
757.438	0.0153119
757.516	0.0153404
757.594	0.0152589
757.673	0.0152460
757.751	0.0153378
757.829	0.0152318
757.907	0.0152673
757.985	0.0151927
758.063	0.0151826
758.141	0.0152074
758.219	0.0151974
758.298	0.0152187
758.376	0.0150963
758.454	0.0151352
758.532	0.0152837
758.610	0.0151576
758.688	0.0152637
758.766	0.0152972
758.844	0.0152473
758.923	0.0152225
759.001	0.0151694
759.079	0.0151385
759.157	0.0151619
759.235	0.0152420
759.313	0.0151995
759.391	0.0152273
759.469	0.0153088
759.548	0.0150555
759.626	0.0152361
759.704	0.0152314
759.782	0.0151196
759.860	0.0152068
759.938	0.0152164
760.016	0.0152231
760.094	0.0152377
760.173	0.0152025
760.251	0.0152084
760.329	0.0151242
760.407	0.0151199
760.485	0.0151788
760.563	0.0152001
760.641	0.0151495
760.719	0.0151559
760.798	0.0152466
760.876	0.0152454
760.954	0.0151505
761.032	0.0151738
761.110	0.0153059
761.188	0.0153319
761.266	0.0153017
761.344	0.0153751
761.423	0.0153228
761.501	0.0151973
761.579	0.0153053
761.657	0.0154523
761.735	0.0153170
761.813	0.0153340
761.891	0.0152607
761.969	0.0153881
762.048	0.0153934
762.126	0.0153886
762.204	0.0153117
762.282	0.0153264
762.360	0.0153422
762.438	0.0154234
762.516	0.0152604
762.594	0.0151951
762.673	0.0153030
762.751	0.0153885
762.829	0.0153410
762.907	0.0151455
762.985	0.0152222
763.063	0.0152206
763.141	0.0150176
763.219	0.0151224
763.298	0.0151788
763.376	0.0150639
763.454	0.0151286
763.532	0.0151189
763.610	0.0148914
763.688	0.0149995
763.766	0.0150624
763.844	0.0149662
763.923	0.0149767
764.001	0.0150748
764.079	0.0151514
764.157	0.0150646
764.235	0.0151017
764.313	0.0150996
764.391	0.0151551
764.469	0.0151254
764.548	0.0151069
764.626	0.0151698
764.704	0.0152190
764.782	0.0153678
764.860	0.0152000
764.938	0.0150804
765.016	0.0153012
765.094	0.0152453
765.173	0.0153378
765.251	0.0153046
765.329	0.0151765
765.407	0.0153237
765.485	0.0152780
765.563	0.0151641
765.641	0.0152385
765.719	0.0152783
765.798	0.0152679
765.876	0.0150610
765.954	0.0150813
766.032	0.0151640
766.110	0.0152346
766.188	0.0150060
766.266	0.0151957
766.344	0.0151570
766.423	0.0150805
766.501	0.0150797
766.579	0.0152414
766.657	0.0151603
766.735	0.0151678
766.813	0.0152291
766.891	0.0152655
766.969	0.0151355
767.048	0.0151097
767.126	0.0151511
767.204	0.0151476
767.282	0.0152052
767.360	0.0152902
767.438	0.0151873
767.516	0.0152608
767.594	0.0154265
767.673	0.0152501
767.751	0.0152659
767.829	0.0153135
767.907	0.0153355
767.985	0.0154116
768.063	0.0154110
768.141	0.0153024
768.219	0.0154239
768.298	0.0152752
768.376	0.0153387
768.454	0.0153782
768.532	0.0152978
768.610	0.0152760
768.688	0.0152583
768.766	0.0152880
768.844	0.0153323
768.923	0.0153906
769.001	0.0153911
769.079	0.0152618
769.157	0.0152684
769.235	0.0151852
769.313	0.0151350
769.391	0.0151405
769.469	0.0151212
769.548	0.0151490
769.626	0.0152768
769.704	0.0151236
769.782	0.0151946
769.860	0.0150114
769.938	0.0150740
770.016	0.0150477
770.094	0.0150927
770.173	0.0150764
770.251	0.0151637
770.329	0.0151971
770.407	0.0150531
770.485	0.0152251
770.563	0.0153001
770.641	0.0151644
770.719	0.0151451
770.798	0.0151875
770.876	0.0150828
770.954	0.0151521
771.032	0.0152541
771.110	0.0152494
771.188	0.0151846
771.266	0.0153988
771.344	0.0153695
771.423	0.0154603
771.501	0.0152499
771.579	0.0152555
771.657	0.0153383
771.735	0.0153820
771.813	0.0154333
771.891	0.0153096
771.969	0.0153573
772.048	0.0154285
772.126	0.0154588
772.204	0.0153961
772.282	0.0154467
772.360	0.0153481
772.438	0.0153272
772.516	0.0153876
772.594	0.0152503
772.673	0.0151363
772.751	0.0152438
772.829	0.0152396
772.907	0.0151328
772.985	0.0152204
773.063	0.0150837
773.141	0.0152089
773.219	0.0152218
773.298	0.0152351
773.376	0.0151820
773.454	0.0151537
773.532	0.0151598
773.610	0.0149442
773.688	0.0150423
773.766	0.0150652
773.844	0.0150098
773.923	0.0149856
774.001	0.0150333
774.079	0.0151021
774.157	0.0150854
774.235	0.0150927
774.313	0.0151380
774.391	0.0150275
774.469	0.0152065
774.548	0.0151937
774.626	0.0152411
774.704	0.0152095
774.782	0.0152396
774.860	0.0152267
774.938	0.0152800
775.016	0.0152237
775.094	0.0151936
775.173	0.0151955
775.251	0.0150328
775.329	0.0152151
775.407	0.0152071
775.485	0.0153327
775.563	0.0152406
775.641	0.0153462
775.719	0.0152219
775.798	0.0152679
775.876	0.0153870
775.954	0.0154169
776.032	0.0152500
776.110	0.0152496
776.188	0.0152849
776.266	0.0152699
776.344	0.0152843
776.423	0.0153618
776.501	0.0153408
776.579	0.0153980
776.657	0.0153148
776.735	0.0153725
776.813	0.0153581
776.891	0.0152068
776.969	0.0152872
777.048	0.0152692
777.126	0.0153789
777.204	0.0153211
777.282	0.0152981
777.360	0.0153072
777.438	0.0151784
777.516	0.0153085
777.594	0.0152319
777.673	0.0151909
777.751	0.0153083
777.829	0.0153816
777.907	0.0152392
777.985	0.0153110
778.063	0.0152291
778.141	0.0153065
778.219	0.0152805
778.298	0.0152985
778.376	0.0152290
778.454	0.0153243
778.532	0.0152670
778.610	0.0152204
778.688	0.0152571
778.766	0.0153249
778.844	0.0152599
778.923	0.0152842
779.001	0.0151242
779.079	0.0151257
779.157	0.0151857
779.235	0.0150430
779.313	0.0151788
779.391	0.0151994
779.469	0.0151507
779.548	0.0151860
779.626	0.0151927
779.704	0.0152335
779.782	0.0151303
779.860	0.0152216
779.938	0.0151019
780.016	0.0152139
780.094	0.0151859
780.173	0.0152690
780.251	0.0152042
780.329	0.0152531
780.407	0.0152210
780.485	0.0151994
780.563	0.0152581
780.641	0.0153809
780.719	0.0153259
780.798	0.0151947
780.876	0.0152311
780.954	0.0153948
781.032	0.0152409
781.110	0.0151831
781.188	0.0153037
781.266	0.0153153
781.344	0.0152911
781.423	0.0153368
781.501	0.0152280
781.579	0.0152053
781.657	0.0153009
781.735	0.0153568
781.813	0.0154407
781.891	0.0154417
781.969	0.0153979
782.048	0.0153194
782.126	0.0153288
782.204	0.0152295
782.282	0.0153526
782.360	0.0153790
782.438	0.0152201
782.516	0.0151448
782.594	0.0153182
782.673	0.0153580
782.751	0.0153574
782.829	0.0152924
782.907	0.0153217
782.985	0.0153503
783.063	0.0153391
783.141	0.0153318
783.219	0.0152379
783.298	0.0152463
783.376	0.0153208
783.454	0.0153031
783.532	0.0151605
783.610	0.0151786
783.688	0.0152486
783.766	0.0152904
783.844	0.0152687
783.923	0.0153174
784.001	0.0152354
784.079	0.0153480
784.157	0.0151867
784.235	0.0153065
784.313	0.0151846
784.391	0.0152371
784.469	0.0153442
784.548	0.0153312
784.626	0.0154101
784.704	0.0154484
784.782	0.0153436
784.860	0.0153300
784.938	0.0153706
785.016	0.0152557
785.094	0.0153665
785.173	0.0153978
785.251	0.0153151
785.329	0.0153365
785.407	0.0152505
785.485	0.0152697
785.563	0.0151539
785.641	0.0151932
785.719	0.0153085
785.798	0.0152518
785.876	0.0152246
785.954	0.0150706
786.032	0.0152276
786.110	0.0151732
786.188	0.0152673
786.266	0.0152547
786.344	0.0151917
786.423	0.0151564
786.501	0.0151472
786.579	0.0151043
786.657	0.0151795
786.735	0.0150634
786.813	0.0152534
786.891	0.0152366
786.969	0.0151882
787.048	0.0150857
787.126	0.0151338
787.204	0.0151533
787.282	0.0151505
787.360	0.0152841
787.438	0.0152274
787.516	0.0153988
787.594	0.0152677
787.673	0.0151904
787.751	0.0152036
787.829	0.0152789
787.907	0.0153166
787.985	0.0152712
788.063	0.0151788
788.141	0.0150549
788.219	0.0153965
788.298	0.0153462
788.376	0.0151649
788.454	0.0152293
788.532	0.0153878
788.610	0.0152558
788.688	0.0153176
788.766	0.0152619
788.844	0.0152721
788.923	0.0150536
789.001	0.0152381
789.079	0.0151580
789.157	0.0152139
789.235	0.0152003
789.313	0.0151949
789.391	0.0153311
789.469	0.0153632
789.548	0.0151060
789.626	0.0153077
789.704	0.0151540
789.782	0.0152122
789.860	0.0152823
789.938	0.0152078
790.016	0.0152990
790.094	0.0154442
790.173	0.0152358
790.251	0.0151659
790.329	0.0152989
790.407	0.0151796
790.485	0.0151126
790.563	0.0150972
790.641	0.0152869
790.719	0.0152256
790.798	0.0152979
790.876	0.0151035
790.954	0.0152805
791.032	0.0150881
791.110	0.0152357
791.188	0.0151018
791.266	0.0151431
791.344	0.0152222
791.423	0.0151954
791.501	0.0152261
791.579	0.0152883
791.657	0.0151630
791.735	0.0152692
791.813	0.0152448
791.891	0.0152872
791.969	0.0151711
792.048	0.0152496
792.126	0.0153756
792.204	0.0152317
792.282	0.0153343
792.360	0.0152611
792.438	0.0152014
792.516	0.0155354
792.594	0.0154214
792.673	0.0152298
792.751	0.0153210
792.829	0.0152471
792.907	0.0152454
792.985	0.0152982
793.063	0.0152454
793.141	0.0152747
793.219	0.0153768
793.298	0.0152235
793.376	0.0152504
793.454	0.0152135
793.532	0.0151042
793.610	0.0152050
793.688	0.0152155
793.766	0.0151508
793.844	0.0152061
793.923	0.0151936
794.001	0.0151187
794.079	0.0150273
794.157	0.0151160
794.235	0.0151594
794.313	0.0152309
794.391	0.0152868
794.469	0.0153012
794.548	0.0152016
794.626	0.0152192
794.704	0.0152562
794.782	0.0152589
794.860	0.0153049
794.938	0.0152500
795.016	0.0153054
795.094	0.0151770
795.173	0.0152576
795.251	0.0152966
795.329	0.0151363
795.407	0.0152613
795.485	0.0152105
795.563	0.0152705
795.641	0.0153058
795.719	0.0150866
795.798	0.0152129
795.876	0.0151553
795.954	0.0152508
796.032	0.0151634
796.110	0.0151196
796.188	0.0152367
796.266	0.0153208
796.344	0.0151894
796.423	0.0151856
796.501	0.0152170
796.579	0.0152512
796.657	0.0150946
796.735	0.0151996
796.813	0.0151999
796.891	0.0151418
796.969	0.0151256
797.048	0.0153209
797.126	0.0152881
797.204	0.0151248
797.282	0.0152942
797.360	0.0153523
797.438	0.0151908
797.516	0.0150368
797.594	0.0152154
797.673	0.0153345
797.751	0.0151334
797.829	0.0153638
797.907	0.0152585
797.985	0.0151373
798.063	0.0152335
798.141	0.0151374
798.219	0.0152895
798.298	0.0153063
798.376	0.0150931
798.454	0.0152233
798.532	0.0152344
798.610	0.0152617
798.688	0.0152470
798.766	0.0153846
798.844	0.0152995
798.923	0.0152950
799.001	0.0152238
799.079	0.0153452
799.157	0.0152194
799.235	0.0150946
799.313	0.0150182
799.391	0.0152168
799.469	0.0151511
799.548	0.0150251
799.626	0.0151186
799.704	0.0151455
799.782	0.0150433
799.860	0.0150855
799.938	0.0149994
800.016	0.0150655
800.094	0.0150371
800.173	0.0152235
800.251	0.0152142
800.329	0.0150123
800.407	0.0149421
800.485	0.0151326
800.563	0.0149297
800.641	0.0149703
800.719	0.0150005
800.798	0.0151257
800.876	0.0151147
800.954	0.0150767
801.032	0.0151025
801.110	0.0151413
801.188	0.0150664
801.266	0.0152415
801.344	0.0150679
801.423	0.0151453
801.501	0.0152717
801.579	0.0152682
801.657	0.0152698
801.735	0.0152821
801.813	0.0153439
801.891	0.0152970
801.969	0.0152338
802.048	0.0152914
802.126	0.0152731
802.204	0.0152991
802.282	0.0153668
802.360	0.0154244
802.438	0.0151919
802.516	0.0153371
802.594	0.0154379
802.673	0.0152039
802.751	0.0153284
802.829	0.0152777
802.907	0.0152695
802.985	0.0153184
803.063	0.0152168
803.141	0.0152734
803.219	0.0151809
803.298	0.0151334
803.376	0.0152752
803.454	0.0151945
803.532	0.0150076
803.610	0.0150566
803.688	0.0150498
803.766	0.0152831
803.844	0.0151151
803.923	0.0150347
804.001	0.0150810
804.079	0.0151173
804.157	0.0150930
804.235	0.0152560
804.313	0.0151200
804.391	0.0152068
804.469	0.0151806
804.548	0.0151984
804.626	0.0152549
804.704	0.0151376
804.782	0.0151517
804.860	0.0152769
804.938	0.0151882
805.016	0.0152247
805.094	0.0152089
805.173	0.0151582
805.251	0.0152244
805.329	0.0152551
805.407	0.0152274
805.485	0.0153518
805.563	0.0151914
805.641	0.0152678
805.719	0.0151187
805.798	0.0152728
805.876	0.0151859
805.954	0.0151897
806.032	0.0152160
806.110	0.0152001
806.188	0.0152157
806.266	0.0151643
806.344	0.0152696
806.423	0.0154059
806.501	0.0153025
806.579	0.0153815
806.657	0.0153711
806.735	0.0153009
806.813	0.0152583
806.891	0.0152664
806.969	0.0154326
807.048	0.0153499
807.126	0.0152468
807.204	0.0152036
807.282	0.0152941
807.360	0.0152097
807.438	0.0151868
807.516	0.0153006
807.594	0.0151839
807.673	0.0152013
807.751	0.0151551
807.829	0.0151635
807.907	0.0152136
807.985	0.0151840
808.063	0.0152197
808.141	0.0151901
808.219	0.0152250
808.298	0.0151757
808.376	0.0153271
808.454	0.0153165
808.532	0.0153380
808.610	0.0153577
808.688	0.0153974
808.766	0.0152998
808.844	0.0153567
808.923	0.0152885
809.001	0.0154198
809.079	0.0153076
809.157	0.0153772
809.235	0.0153162
809.313	0.0153895
809.391	0.0155009
809.469	0.0152435
809.548	0.0150900
809.626	0.0151736
809.704	0.0153237
809.782	0.0152505
809.860	0.0152725
809.938	0.0151953
810.016	0.0151624
810.094	0.0151325
810.173	0.0151067
810.251	0.0151177
810.329	0.0150818
810.407	0.0151105
810.485	0.0150316
810.563	0.0151678
810.641	0.0151514
810.719	0.0151619
810.798	0.0150748
810.876	0.0152172
810.954	0.0153860
811.032	0.0152588
811.110	0.0152807
811.188	0.0154226
811.266	0.0152329
811.344	0.0153706
811.423	0.0152050
811.501	0.0152384
811.579	0.0153808
811.657	0.0154401
811.735	0.0153450
811.813	0.0152804
811.891	0.0153166
811.969	0.0154053
812.048	0.0153270
812.126	0.0153468
812.204	0.0152840
812.282	0.0154785
812.360	0.0154675
812.438	0.0153211
812.516	0.0151366
812.594	0.0152774
812.673	0.0151902
812.751	0.0151189
812.829	0.0150464
812.907	0.0150390
812.985	0.0151463
813.063	0.0151682
813.141	0.0150987
813.219	0.0150117
813.298	0.0150222
813.376	0.0151044
813.454	0.0149559
813.532	0.0150153
813.610	0.0151220
813.688	0.0150808
813.766	0.0151284
813.844	0.0152079
813.923	0.0152238
814.001	0.0152765
814.079	0.0152962
814.157	0.0153213
814.235	0.0151624
814.313	0.0153009
814.391	0.0153974
814.469	0.0152882
814.548	0.0154165
814.626	0.0153979
814.704	0.0154697
814.782	0.0154607
814.860	0.0153631
814.938	0.0154980
815.016	0.0153736
815.094	0.0154501
815.173	0.0154527
815.251	0.0153859
815.329	0.0154101
815.407	0.0154996
815.485	0.0153619
815.563	0.0153172
815.641	0.0153036
815.719	0.0153812
815.798	0.0151817
815.876	0.0153346
815.954	0.0152700
816.032	0.0152216
816.110	0.0152319
816.188	0.0151846
816.266	0.0151336
816.344	0.0151661
816.423	0.0149586
816.501	0.0150958
816.579	0.0151189
816.657	0.0150607
816.735	0.0151434
816.813	0.0151389
816.891	0.0150893
816.969	0.0151169
817.048	0.0150819
817.126	0.0151617
817.204	0.0151490
817.282	0.0152404
817.360	0.0152435
817.438	0.0154388
817.516	0.0152752
817.594	0.0153328
817.673	0.0152203
817.751	0.0153558
817.829	0.0153596
817.907	0.0153090
817.985	0.0153497
818.063	0.0153765
818.141	0.0152554
818.219	0.0152814
818.298	0.0152869
818.376	0.0151667
818.454	0.0153067
818.532	0.0153066
818.610	0.0151895
818.688	0.0153272
818.766	0.0152245
818.844	0.0152277
818.923	0.0150071
819.001	0.0150851
819.079	0.0150957
819.157	0.0151217
819.235	0.0150573
819.313	0.0153143
819.391	0.0152569
819.469	0.0152181
819.548	0.0152772
819.626	0.0152543
819.704	0.0153416
819.782	0.0153111
819.860	0.0153228
819.938	0.0153511
820.016	0.0152953
820.094	0.0153159
820.173	0.0153551
820.251	0.0152420
820.329	0.0152721
820.407	0.0153342
820.485	0.0154463
820.563	0.0153352
820.641	0.0152573
820.719	0.0152015
820.798	0.0152922
820.876	0.0153303
820.954	0.0151903
821.032	0.0150576
821.110	0.0152537
821.188	0.0151397
821.266	0.0150884
821.344	0.0151365
821.423	0.0152618
821.501	0.0150920
821.579	0.0150454
821.657	0.0150187
821.735	0.0150290
821.813	0.0151959
821.891	0.0152350
821.969	0.0150518
822.048	0.0151524
822.126	0.0151885
822.204	0.0152358
822.282	0.0152016
822.360	0.0151306
822.438	0.0152483
822.516	0.0152790
822.594	0.0151759
822.673	0.0150823
822.751	0.0152259
822.829	0.0152652
822.907	0.0153024
822.985	0.0153048
823.063	0.0152157
823.141	0.0152595
823.219	0.0153997
823.298	0.0153088
823.376	0.0152685
823.454	0.0154095
823.532	0.0152428
823.610	0.0152630
823.688	0.0153110
823.766	0.0152950
823.844	0.0152389
823.923	0.0152094
824.001	0.0153136
824.079	0.0154248
824.157	0.0152753
824.235	0.0153392
824.313	0.0153052
824.391	0.0153472
824.469	0.0152102
824.548	0.0153149
824.626	0.0153317
824.704	0.0152310
824.782	0.0151575
824.860	0.0151895
824.938	0.0152901
825.016	0.0152177
825.094	0.0150705
825.173	0.0151476
825.251	0.0151009
825.329	0.0151872
825.407	0.0151732
825.485	0.0151145
825.563	0.0151017
825.641	0.0150720
825.719	0.0149342
825.798	0.0150515
825.876	0.0149287
825.954	0.0150550
826.032	0.0150546
826.110	0.0150731
826.188	0.0150884
826.266	0.0151348
826.344	0.0151360
826.423	0.0150137
826.501	0.0150697
826.579	0.0150013
826.657	0.0150074
826.735	0.0150438
826.813	0.0149535
826.891	0.0150687
826.969	0.0149647
827.048	0.0151331
827.126	0.0150844
827.204	0.0151420
827.282	0.0151217
827.360	0.0151174
827.438	0.0151576
827.516	0.0152969
827.594	0.0152296
827.673	0.0152197
827.751	0.0152541
827.829	0.0152094
827.907	0.0153275
827.985	0.0152713
828.063	0.0154605
828.141	0.0154336
828.219	0.0153353
828.298	0.0154702
828.376	0.0154165
828.454	0.0152217
828.532	0.0155090
828.610	0.0153175
828.688	0.0153185
828.766	0.0156145
828.844	0.0155042
828.923	0.0154046
829.001	0.0152493
829.079	0.0152490
829.157	0.0153392
829.235	0.0153658
829.313	0.0153498
829.391	0.0153444
829.469	0.0152772
829.548	0.0151385
829.626	0.0153217
829.704	0.0152093
829.782	0.0152018
829.860	0.0151144
829.938	0.0150312
830.016	0.0150999
830.094	0.0151250
830.173	0.0151677
830.251	0.0150345
830.329	0.0150664
830.407	0.0150687
830.485	0.0151103
830.563	0.0151089
830.641	0.0151150
830.719	0.0150883
830.798	0.0151937
830.876	0.0151672
830.954	0.0151266
831.032	0.0151932
831.110	0.0150862
831.188	0.0152840
831.266	0.0152488
831.344	0.0152039
831.423	0.0151344
831.501	0.0152249
831.579	0.0152367
831.657	0.0151939
831.735	0.0152856
831.813	0.0152267
831.891	0.0151902
831.969	0.0150454
832.048	0.0149079
832.126	0.0150267
832.204	0.0150319
832.282	0.0151576
832.360	0.0149092
832.438	0.0149318
832.516	0.0149866
832.594	0.0150410
832.673	0.0149719
832.751	0.0150146
832.829	0.0151710
832.907	0.0152153
832.985	0.0151467
833.063	0.0151225
833.141	0.0151323
833.219	0.0153576
833.298	0.0153922
833.376	0.0152972
833.454	0.0154050
833.532	0.0153987
833.610	0.0154333
833.688	0.0154857
833.766	0.0155875
833.844	0.0155756
833.923	0.0155406
834.001	0.0156319
834.079	0.0156747
834.157	0.0156688
834.235	0.0155406
834.313	0.0157436
834.391	0.0157113
834.469	0.0157114
834.548	0.0156140
834.626	0.0155519
834.704	0.0156528
834.782	0.0155734
834.860	0.0155837
834.938	0.0154865
835.016	0.0153191
835.094	0.0153300
835.173	0.0152814
835.251	0.0152429
835.329	0.0150937
835.407	0.0151731
835.485	0.0151397
835.563	0.0150694
835.641	0.0148641
835.719	0.0148914
835.798	0.0146773
835.876	0.0147392
835.954	0.0147542
836.032	0.0147109
836.110	0.0147720
836.188	0.0147887
836.266	0.0147110
836.344	0.0148006
836.423	0.0147808
836.501	0.0148275
836.579	0.0147746
836.657	0.0147756
836.735	0.0148164
836.813	0.0149052
836.891	0.0148552
836.969	0.0147308
837.048	0.0149059
837.126	0.0149832
837.204	0.0150479
837.282	0.0149573
837.360	0.0149834
837.438	0.0150371
837.516	0.0152337
837.594	0.0152451
837.673	0.0152517
837.751	0.0151929
837.829	0.0152730
837.907	0.0153631
837.985	0.0153991
838.063	0.0153820
838.141	0.0153204
838.219	0.0154738
838.298	0.0153554
838.376	0.0155231
838.454	0.0155932
838.532	0.0155467
838.610	0.0155952
838.688	0.0156396
838.766	0.0156843
838.844	0.0155364
838.923	0.0155033
839.001	0.0155827
839.079	0.0157478
839.157	0.0156072
839.235	0.0156760
839.313	0.0154665
839.391	0.0156270
839.469	0.0154955
839.548	0.0154323
839.626	0.0153706
839.704	0.0153426
839.782	0.0152130
839.860	0.0153052
839.938	0.0152287
840.016	0.0151414
840.094	0.0151710
840.173	0.0149841
840.251	0.0150943
840.329	0.0150617
840.407	0.0150893
840.485	0.0150141
840.563	0.0151061
840.641	0.0150060
840.719	0.0148787
840.798	0.0149107
840.876	0.0148978
840.954	0.0149738
841.032	0.0150472
841.110	0.0149037
841.188	0.0149611
841.266	0.0149046
841.344	0.0150265
841.423	0.0150024
841.501	0.0148137
841.579	0.0147697
841.657	0.0149886
841.735	0.0150200
841.813	0.0149776
841.891	0.0150005
841.969	0.0150195
842.048	0.0150098
842.126	0.0151403
842.204	0.0152114
842.282	0.0151533
842.360	0.0151649
842.438	0.0152354
842.516	0.0151824
842.594	0.0152370
842.673	0.0154250
842.751	0.0153307
842.829	0.0154230
842.907	0.0154175
842.985	0.0154974
843.063	0.0155244
843.141	0.0154529
843.219	0.0155987
843.298	0.0154564
843.376	0.0155191
843.454	0.0155917
843.532	0.0155080
843.610	0.0154601
843.688	0.0156258
843.766	0.0155428
843.844	0.0157295
843.923	0.0154675
844.001	0.0153649
844.079	0.0153419
844.157	0.0152865
844.235	0.0155524
844.313	0.0153621
844.391	0.0152990
844.469	0.0152982
844.548	0.0153100
844.626	0.0152988
844.704	0.0152531
844.782	0.0152919
844.860	0.0151205
844.938	0.0153164
845.016	0.0152237
845.094	0.0153033
845.173	0.0153464
845.251	0.0151366
845.329	0.0152190
845.407	0.0152829
845.485	0.0151933
845.563	0.0151749
845.641	0.0150772
845.719	0.0152276
845.798	0.0154097
845.876	0.0151345
845.954	0.0152303
846.032	0.0152824
846.110	0.0152200
846.188	0.0152406
846.266	0.0152335
846.344	0.0152010
846.423	0.0151169
846.501	0.0150722
846.579	0.0151134
846.657	0.0152778
846.735	0.0151394
846.813	0.0151700
846.891	0.0152507
846.969	0.0152609
847.048	0.0152126
847.126	0.0153962
847.204	0.0152466
847.282	0.0150351
847.360	0.0153445
847.438	0.0152633
847.516	0.0153036
847.594	0.0150477
847.673	0.0152261
847.751	0.0152264
847.829	0.0150323
847.907	0.0150998
847.985	0.0151443
848.063	0.0151708
848.141	0.0151434
848.219	0.0150719
848.298	0.0150981
848.376	0.0151477
848.454	0.0150635
848.532	0.0151256
848.610	0.0150569
848.688	0.0151123
848.766	0.0150445
848.844	0.0149845
848.923	0.0150462
849.001	0.0152505
849.079	0.0151408
849.157	0.0152191
849.235	0.0151977
849.313	0.0151122
849.391	0.0151221
849.469	0.0152454
849.548	0.0151231
849.626	0.0151274
849.704	0.0152751
849.782	0.0152629
849.860	0.0151700
849.938	0.0153593
850.016	0.0153545
850.094	0.0152081
850.173	0.0152216
850.251	0.0153453
850.329	0.0154364
850.407	0.0153581
850.485	0.0154200
850.563	0.0154660
850.641	0.0153954
850.719	0.0155027
850.798	0.0155477
850.876	0.0153703
850.954	0.0154883
851.032	0.0154961
851.110	0.0155209
851.188	0.0155095
851.266	0.0154857
851.344	0.0155521
851.423	0.0153939
851.501	0.0152534
851.579	0.0151694
851.657	0.0152390
851.735	0.0152142
851.813	0.0151922
851.891	0.0150855
851.969	0.0152047
852.048	0.0152393
852.126	0.0150120
852.204	0.0151387
852.282	0.0151562
852.360	0.0150268
852.438	0.0150536
852.516	0.0151311
852.594	0.0151306
852.673	0.0151684
852.751	0.0149792
852.829	0.0150510
852.907	0.0150191
852.985	0.0151468
853.063	0.0152063
853.141	0.0152354
853.219	0.0151820
853.298	0.0151431
853.376	0.0151585
853.454	0.0153194
853.532	0.0152762
853.610	0.0151998
853.688	0.0151346
853.766	0.0152425
853.844	0.0152216
853.923	0.0152170
854.001	0.0151625
854.079	0.0152066
854.157	0.0152193
854.235	0.0151148
854.313	0.0152995
854.391	0.0153475
854.469	0.0152853
854.548	0.0152128
854.626	0.0154934
854.704	0.0152789
854.782	0.0153168
854.860	0.0153463
854.938	0.0153838
855.016	0.0153797
855.094	0.0153851
855.173	0.0153485
855.251	0.0152843
855.329	0.0153994
855.407	0.0152628
855.485	0.0152520
855.563	0.0153622
855.641	0.0153681
855.719	0.0151194
855.798	0.0152718
855.876	0.0152612
855.954	0.0151394
856.032	0.0152067
856.110	0.0151694
856.188	0.0150489
856.266	0.0150526
856.344	0.0150436
856.423	0.0150692
856.501	0.0150665
856.579	0.0150073
856.657	0.0148610
856.735	0.0150720
856.813	0.0151733
856.891	0.0149367
856.969	0.0150241
857.048	0.0149965
857.126	0.0151186
857.204	0.0152340
857.282	0.0152234
857.360	0.0151516
857.438	0.0152106
857.516	0.0152638
857.594	0.0153431
857.673	0.0152870
857.751	0.0151921
857.829	0.0152623
857.907	0.0154028
857.985	0.0153529
858.063	0.0153690
858.141	0.0154846
858.219	0.0154124
858.298	0.0154301
858.376	0.0153725
858.454	0.0154375
858.532	0.0154532
858.610	0.0154960
858.688	0.0154160
858.766	0.0152068
858.844	0.0153497
858.923	0.0154190
859.001	0.0154884
859.079	0.0153324
859.157	0.0151907
859.235	0.0154265
859.313	0.0153318
859.391	0.0152561
859.469	0.0154225
859.548	0.0153242
859.626	0.0152099
859.704	0.0153616
859.782	0.0154752
859.860	0.0152393
859.938	0.0152655
860.016	0.0152775
860.094	0.0153272
860.173	0.0151463
860.251	0.0152095
860.329	0.0153619
860.407	0.0151996
860.485	0.0151988
860.563	0.0152348
860.641	0.0151269
860.719	0.0152419
860.798	0.0151025
860.876	0.0152601
860.954	0.0151141
861.032	0.0152134
861.110	0.0150797
861.188	0.0150762
861.266	0.0150511
861.344	0.0150456
861.423	0.0150455
861.501	0.0151865
861.579	0.0150714
861.657	0.0149561
861.735	0.0149619
861.813	0.0149915
861.891	0.0151875
861.969	0.0149712
862.048	0.0149848
862.126	0.0150269
862.204	0.0150462
862.282	0.0150362
862.360	0.0150819
862.438	0.0150331
862.516	0.0149521
862.594	0.0150994
862.673	0.0151312
862.751	0.0150883
862.829	0.0150248
862.907	0.0150658
862.985	0.0150666
863.063	0.0150482
863.141	0.0151508
863.219	0.0152795
863.298	0.0152705
863.376	0.0153757
863.454	0.0154504
863.532	0.0154314
863.610	0.0155016
863.688	0.0155895
863.766	0.0155196
863.844	0.0155933
863.923	0.0157550
864.001	0.0157568
864.079	0.0158560
864.157	0.0158514
864.235	0.0158205
864.313	0.0159059
864.391	0.0158948
864.469	0.0158720
864.548	0.0157486
864.626	0.0157574
864.704	0.0157866
864.782	0.0158183
864.860	0.0157150
864.938	0.0156947
865.016	0.0156139
865.094	0.0154678
865.173	0.0154851
865.251	0.0155766
865.329	0.0154829
865.407	0.0155871
865.485	0.0153789
865.563	0.0154472
865.641	0.0151425
865.719	0.0151157
865.798	0.0152046
865.876	0.0150645
865.954	0.0150887
866.032	0.0148927
866.110	0.0148763
866.188	0.0149681
866.266	0.0149873
866.344	0.0148812
866.423	0.0148161
866.501	0.0146727
866.579	0.0148214
866.657	0.0146763
866.735	0.0147677
866.813	0.0148623
866.891	0.0147297
866.969	0.0148948
867.048	0.0148572
867.126	0.0148238
867.204	0.0149117
867.282	0.0149683
867.360	0.0148935
867.438	0.0149033
867.516	0.0150352
867.594	0.0150375
867.673	0.0148979
867.751	0.0151601
867.829	0.0151604
867.907	0.0152188
867.985	0.0151556
868.063	0.0153090
868.141	0.0153088
868.219	0.0153744
868.298	0.0155846
868.376	0.0153697
868.454	0.0154575
868.532	0.0153774
868.610	0.0154437
868.688	0.0153790
868.766	0.0154518
868.844	0.0155048
868.923	0.0154185
869.001	0.0154123
869.079	0.0154305
869.157	0.0156079
869.235	0.0153314
869.313	0.0155214
869.391	0.0156222
869.469	0.0154858
869.548	0.0154797
869.626	0.0156178
869.704	0.0155326
869.782	0.0156508
869.860	0.0156908
869.938	0.0154833
870.016	0.0157073
870.094	0.0155494
870.173	0.0154575
870.251	0.0153999
870.329	0.0154831
870.407	0.0156165
870.485	0.0154622
870.563	0.0154744
870.641	0.0154459
870.719	0.0153417
870.798	0.0153046
870.876	0.0153019
870.954	0.0153653
871.032	0.0153433
871.110	0.0153129
871.188	0.0151133
871.266	0.0151531
871.344	0.0152213
871.423	0.0151232
871.501	0.0151552
871.579	0.0151792
871.657	0.0150508
871.735	0.0151029
871.813	0.0151615
871.891	0.0149727
871.969	0.0149789
872.048	0.0149961
872.126	0.0148622
872.204	0.0149016
872.282	0.0150499
872.360	0.0148804
872.438	0.0150377
872.516	0.0149358
872.594	0.0149651
872.673	0.0148010
872.751	0.0149306
872.829	0.0148619
872.907	0.0149460
872.985	0.0150578
873.063	0.0150758
873.141	0.0150977
873.219	0.0150315
873.298	0.0149539
873.376	0.0149935
873.454	0.0150779
873.532	0.0151462
873.610	0.0151746
873.688	0.0152775
873.766	0.0152728
873.844	0.0151215
873.923	0.0151580
874.001	0.0152857
874.079	0.0152560
874.157	0.0152482
874.235	0.0154083
874.313	0.0153774
874.391	0.0153464
874.469	0.0153569
874.548	0.0153748
874.626	0.0154517
874.704	0.0155312
874.782	0.0153659
874.860	0.0153133
874.938	0.0155514
875.016	0.0153590
875.094	0.0153101
875.173	0.0154857
875.251	0.0155588
875.329	0.0155137
875.407	0.0153741
875.485	0.0154185
875.563	0.0155209
875.641	0.0154717
875.719	0.0153581
875.798	0.0153525
875.876	0.0152779
875.954	0.0153085
876.032	0.0152913
876.110	0.0153349
876.188	0.0152669
876.266	0.0151783
876.344	0.0152457
876.423	0.0153217
876.501	0.0152383
876.579	0.0151701
876.657	0.0153475
876.735	0.0151627
876.813	0.0151285
876.891	0.0151527
876.969	0.0151149
877.048	0.0150552
877.126	0.0154208
877.204	0.0152895
877.282	0.0151768
877.360	0.0150443
877.438	0.0151599
877.516	0.0152648
877.594	0.0151878
877.673	0.0152290
877.751	0.0151736
877.829	0.0152748
877.907	0.0151392
877.985	0.0152018
878.063	0.0152633
878.141	0.0152098
878.219	0.0152337
878.298	0.0153029
878.376	0.0152363
878.454	0.0152538
878.532	0.0152706
878.610	0.0152864
878.688	0.0152547
878.766	0.0152064
878.844	0.0152603
878.923	0.0152073
879.001	0.0151491
879.079	0.0151727
879.157	0.0151750
879.235	0.0152862
879.313	0.0151907
879.391	0.0150939
879.469	0.0152469
879.548	0.0151624
879.626	0.0151080
879.704	0.0152224
879.782	0.0152229
879.860	0.0151295
879.938	0.0151161
880.016	0.0151060
880.094	0.0150758
880.173	0.0149925
880.251	0.0151727
880.329	0.0152173
880.407	0.0151484
880.485	0.0152562
880.563	0.0152662
880.641	0.0151649
880.719	0.0150819
880.798	0.0151302
880.876	0.0152898
880.954	0.0153213
881.032	0.0152633
881.110	0.0152155
881.188	0.0152662
881.266	0.0152170
881.344	0.0153813
881.423	0.0153255
881.501	0.0152064
881.579	0.0153953
881.657	0.0153658
881.735	0.0153425
881.813	0.0154833
881.891	0.0153160
881.969	0.0153510
882.048	0.0154303
882.126	0.0154778
882.204	0.0154372
882.282	0.0153905
882.360	0.0154985
882.438	0.0153275
882.516	0.0154205
882.594	0.0153820
882.673	0.0154232
882.751	0.0155186
882.829	0.0153519
882.907	0.0154058
882.985	0.0154630
883.063	0.0154990
883.141	0.0155904
883.219	0.0155435
883.298	0.0154361
883.376	0.0153709
883.454	0.0156010
883.532	0.0153970
883.610	0.0154032
883.688	0.0154485
883.766	0.0154171
883.844	0.0153693
883.923	0.0154153
884.001	0.0153902
884.079	0.0153890
884.157	0.0153084
884.235	0.0151994
884.313	0.0154158
884.391	0.0152495
884.469	0.0151570
884.548	0.0152495
884.626	0.0152293
884.704	0.0151973
884.782	0.0151894
884.860	0.0151301
884.938	0.0151543
885.016	0.0149362
885.094	0.0150509
885.173	0.0149809
885.251	0.0150151
885.329	0.0150179
885.407	0.0148840
885.485	0.0148650
885.563	0.0148448
885.641	0.0150040
885.719	0.0149036
885.798	0.0148772
885.876	0.0149961
885.954	0.0150049
886.032	0.0150192
886.110	0.0150526
886.188	0.0149035
886.266	0.0149308
886.344	0.0149532
886.423	0.0150504
886.501	0.0151729
886.579	0.0151232
886.657	0.0152535
886.735	0.0152055
886.813	0.0151646
886.891	0.0152390
886.969	0.0152599
887.048	0.0152501
887.126	0.0154167
887.204	0.0152807
887.282	0.0153628
887.360	0.0154797
887.438	0.0154247
887.516	0.0154842
887.594	0.0152585
887.673	0.0155158
887.751	0.0156557
887.829	0.0155756
887.907	0.0156526
887.985	0.0156681
888.063	0.0156613
888.141	0.0155118
888.219	0.0154740
888.298	0.0155984
888.376	0.0155394
888.454	0.0154472
888.532	0.0155354
888.610	0.0154664
888.688	0.0154514
888.766	0.0154042
888.844	0.0154063
888.923	0.0153419
889.001	0.0153458
889.079	0.0153802
889.157	0.0152298
889.235	0.0153017
889.313	0.0151543
889.391	0.0152589
889.469	0.0152926
889.548	0.0150774
889.626	0.0152092
889.704	0.0151679
889.782	0.0150652
889.860	0.0150749
889.938	0.0151607
890.016	0.0150965
890.094	0.0149841
890.173	0.0151520
890.251	0.0150066
890.329	0.0150673
890.407	0.0149381
890.485	0.0149858
890.563	0.0150697
890.641	0.0150906
890.719	0.0150847
890.798	0.0150231
890.876	0.0149650
890.954	0.0151022
891.032	0.0150940
891.110	0.0152235
891.188	0.0151345
891.266	0.0152085
891.344	0.0152119
891.423	0.0152137
891.501	0.0151660
891.579	0.0153714
891.657	0.0152443
891.735	0.0152242
891.813	0.0151965
891.891	0.0152191
891.969	0.0150963
892.048	0.0152766
892.126	0.0152541
892.204	0.0152565
892.282	0.0151836
892.360	0.0151665
892.438	0.0151161
892.516	0.0152847
892.594	0.0151784
892.673	0.0151804
892.751	0.0151218
892.829	0.0150783
892.907	0.0150829
892.985	0.0152492
893.063	0.0153015
893.141	0.0151484
893.219	0.0151742
893.298	0.0152981
893.376	0.0152938
893.454	0.0153187
893.532	0.0152826
893.610	0.0152661
893.688	0.0152734
893.766	0.0152451
893.844	0.0153628
893.923	0.0153362
894.001	0.0153833
894.079	0.0152898
894.157	0.0152680
894.235	0.0154317
894.313	0.0153539
894.391	0.0153647
894.469	0.0153893
894.548	0.0152695
894.626	0.0155499
894.704	0.0154034
894.782	0.0154687
894.860	0.0155288
894.938	0.0153502
895.016	0.0153756
895.094	0.0153233
895.173	0.0154122
895.251	0.0154033
895.329	0.0153040
895.407	0.0154073
895.485	0.0154168
895.563	0.0153924
895.641	0.0153558
895.719	0.0153963
895.798	0.0152856
895.876	0.0152392
895.954	0.0153342
896.032	0.0151444
896.110	0.0152538
896.188	0.0151726
896.266	0.0149930
896.344	0.0149978
896.423	0.0149863
896.501	0.0150762
896.579	0.0149944
896.657	0.0150095
896.735	0.0149561
896.813	0.0149650
896.891	0.0148891
896.969	0.0149670
897.048	0.0150119
897.126	0.0148064
897.204	0.0147369
897.282	0.0149194
897.360	0.0150936
897.438	0.0149641
897.516	0.0149493
897.594	0.0149381
897.673	0.0150039
897.751	0.0149537
897.829	0.0151255
897.907	0.0151008
897.985	0.0150763
898.063	0.0152034
898.141	0.0151327
898.219	0.0150942
898.298	0.0153570
898.376	0.0153036
898.454	0.0153133
898.532	0.0153777
898.610	0.0153982
898.688	0.0154567
898.766	0.0154048
898.844	0.0154279
898.923	0.0155249
899.001	0.0155148
899.079	0.0155840
899.157	0.0154826
899.235	0.0155029
899.313	0.0154231
899.391	0.0154978
899.469	0.0155978
899.548	0.0154528
899.626	0.0153315
899.704	0.0153992
899.782	0.0154328
899.860	0.0153190
899.938	0.0154175
900.016	0.0154729
900.094	0.0152724
900.173	0.0152625
900.251	0.0153010
900.329	0.0153017
900.407	0.0152129
900.485	0.0152471
900.563	0.0151444
900.641	0.0150672
900.719	0.0151924
900.798	0.0150171
900.876	0.0151163
900.954	0.0150666
901.032	0.0150673
901.110	0.0149790
901.188	0.0148983
901.266	0.0149790
901.344	0.0150813
901.423	0.0150353
901.501	0.0150655
901.579	0.0150739
901.657	0.0150476
901.735	0.0149792
901.813	0.0151776
901.891	0.0149528
901.969	0.0150504
902.048	0.0151876
902.126	0.0151765
902.204	0.0150797
902.282	0.0153526
902.360	0.0151942
902.438	0.0150652
902.516	0.0153506
902.594	0.0153603
902.673	0.0153235
902.751	0.0152869
902.829	0.0154084
902.907	0.0153778
902.985	0.0153851
903.063	0.0154625
903.141	0.0153073
903.219	0.0154098
903.298	0.0152800
903.376	0.0154322
903.454	0.0154820
903.532	0.0152946
903.610	0.0152445
903.688	0.0153511
903.766	0.0152660
903.844	0.0155190
903.923	0.0155602
904.001	0.0154897
904.079	0.0154049
904.157	0.0153734
904.235	0.0152738
904.313	0.0154881
904.391	0.0153558
904.469	0.0152639
904.548	0.0152903
904.626	0.0152910
904.704	0.0152274
904.782	0.0153571
904.860	0.0152541
904.938	0.0151890
905.016	0.0152505
905.094	0.0152847
905.173	0.0151629
905.251	0.0151609
905.329	0.0151574
905.407	0.0150627
905.485	0.0151868
905.563	0.0151405
905.641	0.0151067
905.719	0.0151911
905.798	0.0151533
905.876	0.0152433
905.954	0.0153030
906.032	0.0152312
906.110	0.0151751
906.188	0.0152324
906.266	0.0152386
906.344	0.0151212
906.423	0.0153097
906.501	0.0151273
906.579	0.0151481
906.657	0.0151848
906.735	0.0150520
906.813	0.0151149
906.891	0.0151350
906.969	0.0151004
907.048	0.0149738
907.126	0.0150000
907.204	0.0150976
907.282	0.0149786
907.360	0.0150174
907.438	0.0150443
907.516	0.0150345
907.594	0.0149811
907.673	0.0151758
907.751	0.0152222
907.829	0.0152527
907.907	0.0152200
907.985	0.0153333
908.063	0.0153205
908.141	0.0152172
908.219	0.0151963
908.298	0.0152778
908.376	0.0153883
908.454	0.0152853
908.532	0.0153766
908.610	0.0153014
908.688	0.0153362
908.766	0.0152715
908.844	0.0153638
908.923	0.0153178
909.001	0.0152962
909.079	0.0153052
909.157	0.0152380
909.235	0.0152068
909.313	0.0153949
909.391	0.0152382
909.469	0.0152461
909.548	0.0152023
909.626	0.0152901
909.704	0.0151696
909.782	0.0151517
909.860	0.0151840
909.938	0.0153481
910.016	0.0153024
910.094	0.0152607
910.173	0.0153395
910.251	0.0153098
910.329	0.0152766
910.407	0.0153767
910.485	0.0151743
910.563	0.0153259
910.641	0.0153431
910.719	0.0153933
910.798	0.0153407
910.876	0.0152953
910.954	0.0153105
911.032	0.0151836
911.110	0.0151920
911.188	0.0151537
911.266	0.0150724
911.344	0.0151312
911.423	0.0150837
911.501	0.0150579
911.579	0.0151576
911.657	0.0152967
911.735	0.0152052
911.813	0.0151354
911.891	0.0151233
911.969	0.0151505
912.048	0.0151770
912.126	0.0152138
912.204	0.0152178
912.282	0.0153230
912.360	0.0152838
912.438	0.0151347
912.516	0.0151010
912.594	0.0151127
912.673	0.0151379
912.751	0.0151789
912.829	0.0151792
912.907	0.0151848
912.985	0.0151394
913.063	0.0149984
913.141	0.0150727
913.219	0.0151257
913.298	0.0151138
913.376	0.0150952
913.454	0.0150861
913.532	0.0150986
913.610	0.0151397
913.688	0.0152203
913.766	0.0150676
913.844	0.0151147
913.923	0.0152423
914.001	0.0150892
914.079	0.0152702
914.157	0.0152810
914.235	0.0153097
914.313	0.0154725
914.391	0.0153562
914.469	0.0153568
914.548	0.0153281
914.626	0.0153407
914.704	0.0153120
914.782	0.0152650
914.860	0.0152345
914.938	0.0152565
915.016	0.0152919
915.094	0.0152207
915.173	0.0152942
915.251	0.0152559
915.329	0.0152100
915.407	0.0153423
915.485	0.0152417
915.563	0.0153085
915.641	0.0153937
915.719	0.0153101
915.798	0.0152624
915.876	0.0152155
915.954	0.0153135
916.032	0.0151434
916.110	0.0153302
916.188	0.0151953
916.266	0.0153277
916.344	0.0153837
916.423	0.0153311
916.501	0.0152229
916.579	0.0152792
916.657	0.0152608
916.735	0.0152223
916.813	0.0153125
916.891	0.0153011
916.969	0.0152784
917.048	0.0152789
917.126	0.0154524
917.204	0.0153118
917.282	0.0152227
917.360	0.0152368
917.438	0.0152330
917.516	0.0152657
917.594	0.0151917
917.673	0.0152365
917.751	0.0152622
917.829	0.0151598
917.907	0.0151903
917.985	0.0150803
918.063	0.0151940
918.141	0.0151498
918.219	0.0152226
918.298	0.0150928
918.376	0.0150298
918.454	0.0151242
918.532	0.0150625
918.610	0.0151245
918.688	0.0150969
918.766	0.0149962
918.844	0.0150803
918.923	0.0150930
919.001	0.0151634
919.079	0.0150248
919.157	0.0150611
919.235	0.0150241
919.313	0.0151910
919.391	0.0152043
919.469	0.0151135
919.548	0.0151588
919.626	0.0151797
919.704	0.0152914
919.782	0.0152277
919.860	0.0152670
919.938	0.0154850
920.016	0.0153041
920.094	0.0151948
920.173	0.0153864
920.251	0.0153611
920.329	0.0153759
920.407	0.0153405
920.485	0.0155198
920.563	0.0153910
920.641	0.0153765
920.719	0.0152296
920.798	0.0154457
920.876	0.0152732
920.954	0.0153474
921.032	0.0153667
921.110	0.0153086
921.188	0.0152667
921.266	0.0151991
921.344	0.0154007
921.423	0.0153860
921.501	0.0153087
921.579	0.0151995
921.657	0.0151994
921.735	0.0152220
921.813	0.0152895
921.891	0.0151330
921.969	0.0151586
922.048	0.0151238
922.126	0.0151550
922.204	0.0152761
922.282	0.0151353
922.360	0.0150671
922.438	0.0152661
922.516	0.0150896
922.594	0.0150925
922.673	0.0152328
922.751	0.0150667
922.829	0.0150685
922.907	0.0151555
922.985	0.0151975
923.063	0.0153407
923.141	0.0151319
923.219	0.0152317
923.298	0.0151983
923.376	0.0152168
923.454	0.0152683
923.532	0.0151728
923.610	0.0151168
923.688	0.0151128
923.766	0.0152167
923.844	0.0152369
923.923	0.0152108
924.001	0.0152515
924.079	0.0152845
924.157	0.0150960
924.235	0.0153239
924.313	0.0153196
924.391	0.0154073
924.469	0.0153218
924.548	0.0153764
924.626	0.0152748
924.704	0.0153975
924.782	0.0152792
924.860	0.0154240
924.938	0.0152798
925.016	0.0153809
925.094	0.0154710
925.173	0.0154429
925.251	0.0153455
925.329	0.0153608
925.407	0.0151491
925.485	0.0152242
925.563	0.0152812
925.641	0.0153134
925.719	0.0152363
925.798	0.0152773
925.876	0.0152848
925.954	0.0152841
926.032	0.0151701
926.110	0.0152752
926.188	0.0152531
926.266	0.0152644
926.344	0.0151717
926.423	0.0151791
926.501	0.0153364
926.579	0.0151689
926.657	0.0153561
926.735	0.0152686
926.813	0.0152336
926.891	0.0152738
926.969	0.0153348
927.048	0.0153347
927.126	0.0151868
927.204	0.0151991
927.282	0.0150945
927.360	0.0151124
927.438	0.0153135
927.516	0.0152159
927.594	0.0151471
927.673	0.0152128
927.751	0.0151973
927.829	0.0152613
927.907	0.0152089
927.985	0.0152205
928.063	0.0152030
928.141	0.0152943
928.219	0.0152118
928.298	0.0152480
928.376	0.0153516
928.454	0.0151086
928.532	0.0151698
928.610	0.0151321
928.688	0.0152306
928.766	0.0152966
928.844	0.0152147
928.923	0.0152779
929.001	0.0154791
929.079	0.0152892
929.157	0.0153059
929.235	0.0152914
929.313	0.0153928
929.391	0.0152362
929.469	0.0153482
929.548	0.0153825
929.626	0.0152940
929.704	0.0153973
929.782	0.0153347
929.860	0.0154149
929.938	0.0152242
930.016	0.0155154
930.094	0.0152562
930.173	0.0151218
930.251	0.0152482
930.329	0.0152989
930.407	0.0153507
930.485	0.0153491
930.563	0.0151700
930.641	0.0151956
930.719	0.0151456
930.798	0.0151585
930.876	0.0150748
930.954	0.0150520
931.032	0.0151192
931.110	0.0151977
931.188	0.0150293
931.266	0.0152187
931.344	0.0151960
931.423	0.0148999
931.501	0.0151018
931.579	0.0150661
931.657	0.0149529
931.735	0.0151038
931.813	0.0151708
931.891	0.0151406
931.969	0.0150974
932.048	0.0151262
932.126	0.0150837
932.204	0.0151147
932.282	0.0154050
932.360	0.0152470
932.438	0.0151695
932.516	0.0152889
932.594	0.0151487
932.673	0.0151524
932.751	0.0153269
932.829	0.0152582
932.907	0.0151763
932.985	0.0152973
933.063	0.0152705
933.141	0.0152432
933.219	0.0152150
933.298	0.0153432
933.376	0.0153020
933.454	0.0152163
933.532	0.0152885
933.610	0.0154158
933.688	0.0153409
933.766	0.0152618
933.844	0.0151201
933.923	0.0152802
934.001	0.0151437
934.079	0.0151842
934.157	0.0151260
934.235	0.0151015
934.313	0.0152013
934.391	0.0150698
934.469	0.0152225
934.548	0.0152697
934.626	0.0152189
934.704	0.0152061
934.782	0.0150665
934.860	0.0151338
934.938	0.0150938
935.016	0.0151297
935.094	0.0152100
935.173	0.0151685
935.251	0.0151000
935.329	0.0149693
935.407	0.0151794
935.485	0.0152708
935.563	0.0150939
935.641	0.0151714
935.719	0.0152563
935.798	0.0151882
935.876	0.0153254
935.954	0.0152460
936.032	0.0152837
936.110	0.0152022
936.188	0.0153209
936.266	0.0153091
936.344	0.0151945
936.423	0.0151740
936.501	0.0151199
936.579	0.0154003
936.657	0.0152790
936.735	0.0152547
936.813	0.0152486
936.891	0.0152659
936.969	0.0153231
937.048	0.0153263
937.126	0.0152412
937.204	0.0152677
937.282	0.0152871
937.360	0.0151488
937.438	0.0153831
937.516	0.0152917
937.594	0.0153455
937.673	0.0153821
937.751	0.0153170
937.829	0.0153758
937.907	0.0152320
937.985	0.0152866
938.063	0.0153310
938.141	0.0152847
938.219	0.0153511
938.298	0.0152930
938.376	0.0152089
938.454	0.0152961
938.532	0.0152502
938.610	0.0152572
938.688	0.0151689
938.766	0.0151157
938.844	0.0151704
938.923	0.0152147
939.001	0.0152630
939.079	0.0152469
939.157	0.0151672
939.235	0.0151659
939.313	0.0151528
939.391	0.0151862
939.469	0.0152362
939.548	0.0151451
939.626	0.0152538
939.704	0.0153282
939.782	0.0151343
939.860	0.0152902
939.938	0.0152546
940.016	0.0152299
940.094	0.0151979
940.173	0.0153299
940.251	0.0152645
940.329	0.0153841
940.407	0.0153704
940.485	0.0151359
940.563	0.0153364
940.641	0.0152590
940.719	0.0153383
940.798	0.0151839
940.876	0.0152735
940.954	0.0152958
941.032	0.0152244
941.110	0.0151564
941.188	0.0153143
941.266	0.0153053
941.344	0.0151569
941.423	0.0152014
941.501	0.0152694
941.579	0.0152740
941.657	0.0153815
941.735	0.0152517
941.813	0.0152911
941.891	0.0152500
941.969	0.0152771
942.048	0.0151736
942.126	0.0151694
942.204	0.0152926
942.282	0.0152589
942.360	0.0153453
942.438	0.0153374
942.516	0.0152682
942.594	0.0152030
942.673	0.0153170
942.751	0.0153053
942.829	0.0153065
942.907	0.0152864
942.985	0.0152150
943.063	0.0152834
943.141	0.0153336
943.219	0.0151596
943.298	0.0152429
943.376	0.0151425
943.454	0.0151702
943.532	0.0152762
943.610	0.0152708
943.688	0.0151757
943.766	0.0151338
943.844	0.0152111
943.923	0.0152507
944.001	0.0151505
944.079	0.0151096
944.157	0.0151690
944.235	0.0152071
944.313	0.0151160
944.391	0.0151059
944.469	0.0152577
944.548	0.0152126
944.626	0.0152245
944.704	0.0151914
944.782	0.0150504
944.860	0.0151212
944.938	0.0153025
945.016	0.0152768
945.094	0.0151490
945.173	0.0152059
945.251	0.0153214
945.329	0.0152396
945.407	0.0151980
945.485	0.0152312
945.563	0.0152874
945.641	0.0152551
945.719	0.0153178
945.798	0.0153619
945.876	0.0152469
945.954	0.0153364
946.032	0.0153587
946.110	0.0153286
946.188	0.0152087
946.266	0.0153810
946.344	0.0153290
946.423	0.0154024
946.501	0.0153367
946.579	0.0153520
946.657	0.0153875
946.735	0.0153925
946.813	0.0153235
946.891	0.0153888
946.969	0.0153694
947.048	0.0152836
947.126	0.0152908
947.204	0.0152635
947.282	0.0153644
947.360	0.0152897
947.438	0.0152718
947.516	0.0152633
947.594	0.0152684
947.673	0.0152059
947.751	0.0153156
947.829	0.0152597
947.907	0.0152180
947.985	0.0152645
948.063	0.0151367
948.141	0.0151950
948.219	0.0152130
948.298	0.0150561
948.376	0.0152229
948.454	0.0153245
948.532	0.0153067
948.610	0.0152202
948.688	0.0151976
948.766	0.0150359
948.844	0.0151592
948.923	0.0152219
949.001	0.0151009
949.079	0.0151334
949.157	0.0150970
949.235	0.0151208
949.313	0.0151385
949.391	0.0152307
949.469	0.0150956
949.548	0.0152043
949.626	0.0152494
949.704	0.0151757
949.782	0.0150672
949.860	0.0150620
949.938	0.0152848
950.016	0.0152497
950.094	0.0152470
950.173	0.0152127
950.251	0.0151432
950.329	0.0152004
950.407	0.0153390
950.485	0.0154320
950.563	0.0154363
950.641	0.0152223
950.719	0.0153281
950.798	0.0153907
950.876	0.0152924
950.954	0.0152337
951.032	0.0154285
951.110	0.0153859
951.188	0.0153127
951.266	0.0153480
951.344	0.0154012
951.423	0.0153796
951.501	0.0153804
951.579	0.0153255
951.657	0.0153115
951.735	0.0153500
951.813	0.0155049
951.891	0.0152372
951.969	0.0153035
952.048	0.0152612
952.126	0.0153138
952.204	0.0152743
952.282	0.0152825
952.360	0.0151080
952.438	0.0153722
952.516	0.0153452
952.594	0.0151936
952.673	0.0152583
952.751	0.0152637
952.829	0.0152314
952.907	0.0152305
952.985	0.0151494
953.063	0.0152881
953.141	0.0150925
953.219	0.0151981
953.298	0.0152793
953.376	0.0152390
953.454	0.0152177
953.532	0.0152240
953.610	0.0152822
953.688	0.0152847
953.766	0.0150597
953.844	0.0152967
953.923	0.0153613
954.001	0.0152122
954.079	0.0153359
954.157	0.0152384
954.235	0.0152168
954.313	0.0151803
954.391	0.0151685
954.469	0.0152201
954.548	0.0152544
954.626	0.0153455
954.704	0.0152617
954.782	0.0152236
954.860	0.0152898
954.938	0.0154100
955.016	0.0153418
955.094	0.0152670
955.173	0.0153521
955.251	0.0151305
955.329	0.0153329
955.407	0.0152897
955.485	0.0153803
955.563	0.0154070
955.641	0.0153339
955.719	0.0153175
955.798	0.0151708
955.876	0.0152148
955.954	0.0152437
956.032	0.0152828
956.110	0.0154109
956.188	0.0153378
956.266	0.0153374
956.344	0.0150624
956.423	0.0153462
956.501	0.0153724
956.579	0.0153295
956.657	0.0152259
956.735	0.0153373
956.813	0.0153010
956.891	0.0151811
956.969	0.0153184
957.048	0.0153051
957.126	0.0152399
957.204	0.0152466
957.282	0.0153285
957.360	0.0152945
957.438	0.0153468
957.516	0.0153094
957.594	0.0152351
957.673	0.0151263
957.751	0.0152316
957.829	0.0152197
957.907	0.0152954
957.985	0.0151349
958.063	0.0152451
958.141	0.0152525
958.219	0.0152980
958.298	0.0151821
958.376	0.0151051
958.454	0.0152351
958.532	0.0151785
958.610	0.0152297
958.688	0.0152242
958.766	0.0151813
958.844	0.0153490
958.923	0.0151912
959.001	0.0151513
959.079	0.0153498
959.157	0.0151952
959.235	0.0150849
959.313	0.0151485
959.391	0.0152612
959.469	0.0152023
959.548	0.0150912
959.626	0.0151841
959.704	0.0153426
959.782	0.0152331
959.860	0.0151530
959.938	0.0152565
960.016	0.0151564
960.094	0.0154131
960.173	0.0153048
960.251	0.0153127
960.329	0.0155344
960.407	0.0153215
960.485	0.0153615
960.563	0.0153149
960.641	0.0153383
960.719	0.0152256
960.798	0.0152343
960.876	0.0153885
960.954	0.0154046
961.032	0.0152827
961.110	0.0153377
961.188	0.0154240
961.266	0.0152174
961.344	0.0153207
961.423	0.0153174
961.501	0.0152349
961.579	0.0152374
961.657	0.0153289
961.735	0.0153197
961.813	0.0153596
961.891	0.0152755
961.969	0.0151592
962.048	0.0151009
962.126	0.0152332
962.204	0.0152742
962.282	0.0152309
962.360	0.0151491
962.438	0.0151949
962.516	0.0151324
962.594	0.0150439
962.673	0.0152229
962.751	0.0152937
962.829	0.0152733
962.907	0.0152204
962.985	0.0151173
963.063	0.0151575
963.141	0.0150970
963.219	0.0151388
963.298	0.0151927
963.376	0.0150882
963.454	0.0152289
963.532	0.0151917
963.610	0.0150771
963.688	0.0150909
963.766	0.0151984
963.844	0.0152888
963.923	0.0151481
964.001	0.0151941
964.079	0.0152207
964.157	0.0150294
964.235	0.0151440
964.313	0.0151684
964.391	0.0152428
964.469	0.0151454
964.548	0.0152689
964.626	0.0153307
964.704	0.0153407
964.782	0.0153200
964.860	0.0152386
964.938	0.0152226
965.016	0.0152842
965.094	0.0153548
965.173	0.0154484
965.251	0.0153789
965.329	0.0152439
965.407	0.0153213
965.485	0.0152983
965.563	0.0154031
965.641	0.0153172
965.719	0.0154015
965.798	0.0154405
965.876	0.0152677
965.954	0.0152905
966.032	0.0154765
966.110	0.0153952
966.188	0.0154574
966.266	0.0153990
966.344	0.0153480
966.423	0.0153976
966.501	0.0152665
966.579	0.0152879
966.657	0.0153330
966.735	0.0151540
966.813	0.0153832
966.891	0.0152673
966.969	0.0152613
967.048	0.0152048
967.126	0.0151827
967.204	0.0153179
967.282	0.0152335
967.360	0.0151794
967.438	0.0152181
967.516	0.0151943
967.594	0.0151949
967.673	0.0153228
967.751	0.0152606
967.829	0.0154012
967.907	0.0153964
967.985	0.0152880
968.063	0.0153657
968.141	0.0151746
968.219	0.0151661
968.298	0.0152018
968.376	0.0150454
968.454	0.0150774
968.532	0.0151642
968.610	0.0150929
968.688	0.0151257
968.766	0.0151478
968.844	0.0151060
968.923	0.0150066
969.001	0.0151004
969.079	0.0151485
969.157	0.0152093
969.235	0.0150317
969.313	0.0151111
969.391	0.0152407
969.469	0.0152225
969.548	0.0151456
969.626	0.0153451
969.704	0.0154635
969.782	0.0154676
969.860	0.0153700
969.938	0.0152746
