05/14/2022	19:09:54	Ver.	4.1	UNKNOWN
Optical Delay	650.016352	Delta X		0.078125	Sweeps	1	Scan Rate	0/0
Coordinates	Axis 1	NaN	Axis 2	NaN	Axis 3	NaN	Axis 4	NaN	Axis 5	NaN	Axis 6	0.000000
TX Power	0.000000	RX Power	0.000000

650.016	0.0151115
650.094	0.0150320
650.173	0.0149604
650.251	0.0150969
650.329	0.0152065
650.407	0.0152104
650.485	0.0151562
650.563	0.0152586
650.641	0.0151450
650.719	0.0151268
650.798	0.0151212
650.876	0.0151157
650.954	0.0151958
651.032	0.0152032
651.110	0.0153346
651.188	0.0150964
651.266	0.0149259
651.344	0.0150498
651.423	0.0151669
651.501	0.0150091
651.579	0.0150935
651.657	0.0150504
651.735	0.0151514
651.813	0.0151228
651.891	0.0151310
651.969	0.0151293
652.048	0.0150989
652.126	0.0149389
652.204	0.0151006
652.282	0.0152231
652.360	0.0152123
652.438	0.0151206
652.516	0.0150352
652.594	0.0150838
652.673	0.0150063
652.751	0.0152497
652.829	0.0151813
652.907	0.0151897
652.985	0.0151900
653.063	0.0150086
653.141	0.0150328
653.219	0.0151990
653.298	0.0149529
653.376	0.0150182
653.454	0.0151197
653.532	0.0151590
653.610	0.0150819
653.688	0.0150284
653.766	0.0151787
653.844	0.0152469
653.923	0.0150999
654.001	0.0151674
654.079	0.0151517
654.157	0.0152617
654.235	0.0151176
654.313	0.0151883
654.391	0.0150782
654.469	0.0151349
654.548	0.0151663
654.626	0.0152763
654.704	0.0151459
654.782	0.0152893
654.860	0.0149768
654.938	0.0149469
655.016	0.0150639
655.094	0.0152249
655.173	0.0151972
655.251	0.0152197
655.329	0.0151239
655.407	0.0150701
655.485	0.0151900
655.563	0.0149625
655.641	0.0149449
655.719	0.0151988
655.798	0.0151962
655.876	0.0151301
655.954	0.0151328
656.032	0.0150275
656.110	0.0150071
656.188	0.0152136
656.266	0.0152494
656.344	0.0150076
656.423	0.0150490
656.501	0.0152076
656.579	0.0151070
656.657	0.0152438
656.735	0.0151369
656.813	0.0149111
656.891	0.0149849
656.969	0.0151804
657.048	0.0152477
657.126	0.0150726
657.204	0.0151703
657.282	0.0151951
657.360	0.0149945
657.438	0.0151490
657.516	0.0151718
657.594	0.0150986
657.673	0.0150629
657.751	0.0151324
657.829	0.0151470
657.907	0.0151450
657.985	0.0151382
658.063	0.0152068
658.141	0.0150961
658.219	0.0151472
658.298	0.0152757
658.376	0.0151974
658.454	0.0150507
658.532	0.0152586
658.610	0.0150928
658.688	0.0151431
658.766	0.0152548
658.844	0.0151079
658.923	0.0150980
659.001	0.0150870
659.079	0.0151237
659.157	0.0150938
659.235	0.0150478
659.313	0.0152225
659.391	0.0150806
659.469	0.0150652
659.548	0.0152473
659.626	0.0151226
659.704	0.0150579
659.782	0.0152319
659.860	0.0150165
659.938	0.0150684
660.016	0.0150488
660.094	0.0151295
660.173	0.0151446
660.251	0.0150615
660.329	0.0151185
660.407	0.0151615
660.485	0.0150457
660.563	0.0152891
660.641	0.0150909
660.719	0.0151237
660.798	0.0150743
660.876	0.0150829
660.954	0.0150745
661.032	0.0151782
661.110	0.0151557
661.188	0.0153169
661.266	0.0151509
661.344	0.0151200
661.423	0.0150475
661.501	0.0149879
661.579	0.0151421
661.657	0.0151535
661.735	0.0151765
661.813	0.0151029
661.891	0.0150832
661.969	0.0150861
662.048	0.0152629
662.126	0.0151173
662.204	0.0151904
662.282	0.0150076
662.360	0.0150597
662.438	0.0152160
662.516	0.0151260
662.594	0.0151309
662.673	0.0152010
662.751	0.0151697
662.829	0.0152783
662.907	0.0151257
662.985	0.0152206
663.063	0.0151291
663.141	0.0151031
663.219	0.0151427
663.298	0.0151135
663.376	0.0152696
663.454	0.0151765
663.532	0.0150311
663.610	0.0151497
663.688	0.0152190
663.766	0.0150291
663.844	0.0151622
663.923	0.0151675
664.001	0.0151153
664.079	0.0150330
664.157	0.0151129
664.235	0.0151356
664.313	0.0151162
664.391	0.0151248
664.469	0.0152253
664.548	0.0150655
664.626	0.0152271
664.704	0.0149643
664.782	0.0149586
664.860	0.0151600
664.938	0.0151473
665.016	0.0150148
665.094	0.0149822
665.173	0.0151535
665.251	0.0149586
665.329	0.0151683
665.407	0.0151646
665.485	0.0152052
665.563	0.0152080
665.641	0.0151363
665.719	0.0151348
665.798	0.0150462
665.876	0.0150424
665.954	0.0150682
666.032	0.0149693
666.110	0.0150113
666.188	0.0153355
666.266	0.0151851
666.344	0.0150088
666.423	0.0151239
666.501	0.0151647
666.579	0.0151029
666.657	0.0151527
666.735	0.0150265
666.813	0.0150389
666.891	0.0149915
666.969	0.0151335
667.048	0.0151625
667.126	0.0152048
667.204	0.0150909
667.282	0.0150988
667.360	0.0151209
667.438	0.0151869
667.516	0.0148635
667.594	0.0150292
667.673	0.0152334
667.751	0.0150920
667.829	0.0149825
667.907	0.0149987
667.985	0.0150162
668.063	0.0151868
668.141	0.0150800
668.219	0.0150761
668.298	0.0151740
668.376	0.0150243
668.454	0.0151064
668.532	0.0149520
668.610	0.0149770
668.688	0.0151507
668.766	0.0151431
668.844	0.0149679
668.923	0.0150964
669.001	0.0150501
669.079	0.0150415
669.157	0.0151218
669.235	0.0151463
669.313	0.0150245
669.391	0.0149455
669.469	0.0149628
669.548	0.0151306
669.626	0.0151357
669.704	0.0150771
669.782	0.0150140
669.860	0.0149607
669.938	0.0151794
670.016	0.0150108
670.094	0.0151032
670.173	0.0150879
670.251	0.0150330
670.329	0.0149767
670.407	0.0150670
670.485	0.0150719
670.563	0.0150877
670.641	0.0150112
670.719	0.0150005
670.798	0.0151397
670.876	0.0150622
670.954	0.0149747
671.032	0.0149175
671.110	0.0150423
671.188	0.0150661
671.266	0.0150766
671.344	0.0152182
671.423	0.0150919
671.501	0.0149787
671.579	0.0150588
671.657	0.0151070
671.735	0.0151099
671.813	0.0150098
671.891	0.0151324
671.969	0.0150471
672.048	0.0150227
672.126	0.0149915
672.204	0.0150264
672.282	0.0151013
672.360	0.0151322
672.438	0.0150012
672.516	0.0148882
672.594	0.0150544
672.673	0.0150998
672.751	0.0150326
672.829	0.0149423
672.907	0.0150617
672.985	0.0151757
673.063	0.0151307
673.141	0.0149709
673.219	0.0150753
673.298	0.0151457
673.376	0.0149418
673.454	0.0150419
673.532	0.0150837
673.610	0.0150489
673.688	0.0150542
673.766	0.0151845
673.844	0.0151460
673.923	0.0152180
674.001	0.0151067
674.079	0.0151608
674.157	0.0150690
674.235	0.0150727
674.313	0.0152832
674.391	0.0152543
674.469	0.0150637
674.548	0.0151834
674.626	0.0151042
674.704	0.0151215
674.782	0.0151592
674.860	0.0151308
674.938	0.0152771
675.016	0.0151698
675.094	0.0152916
675.173	0.0151476
675.251	0.0151461
675.329	0.0152874
675.407	0.0152766
675.485	0.0152250
675.563	0.0152568
675.641	0.0151789
675.719	0.0151861
675.798	0.0151624
675.876	0.0152043
675.954	0.0152561
676.032	0.0152316
676.110	0.0151990
676.188	0.0150929
676.266	0.0150883
676.344	0.0151260
676.423	0.0151833
676.501	0.0151355
676.579	0.0152563
676.657	0.0152493
676.735	0.0151665
676.813	0.0151521
676.891	0.0151476
676.969	0.0152556
677.048	0.0152547
677.126	0.0152534
677.204	0.0152212
677.282	0.0152036
677.360	0.0151003
677.438	0.0151328
677.516	0.0152358
677.594	0.0153604
677.673	0.0153461
677.751	0.0152007
677.829	0.0151662
677.907	0.0153004
677.985	0.0151513
678.063	0.0152052
678.141	0.0151842
678.219	0.0151299
678.298	0.0152528
678.376	0.0152451
678.454	0.0150756
678.532	0.0152274
678.610	0.0151595
678.688	0.0152407
678.766	0.0151814
678.844	0.0151878
678.923	0.0152536
679.001	0.0153642
679.079	0.0150983
679.157	0.0152050
679.235	0.0151839
679.313	0.0152116
679.391	0.0152212
679.469	0.0152649
679.548	0.0151382
679.626	0.0151841
679.704	0.0151316
679.782	0.0150477
679.860	0.0151412
679.938	0.0151697
680.016	0.0152489
680.094	0.0151232
680.173	0.0149614
680.251	0.0151292
680.329	0.0150475
680.407	0.0151202
680.485	0.0151014
680.563	0.0150153
680.641	0.0150839
680.719	0.0150011
680.798	0.0150917
680.876	0.0152355
680.954	0.0150279
681.032	0.0151125
681.110	0.0150971
681.188	0.0151026
681.266	0.0150231
681.344	0.0150668
681.423	0.0151842
681.501	0.0151559
681.579	0.0150074
681.657	0.0150555
681.735	0.0151658
681.813	0.0151962
681.891	0.0151031
681.969	0.0148991
682.048	0.0149970
682.126	0.0149769
682.204	0.0151072
682.282	0.0150439
682.360	0.0149699
682.438	0.0150121
682.516	0.0150089
682.594	0.0150477
682.673	0.0149332
682.751	0.0150270
682.829	0.0150964
682.907	0.0151649
682.985	0.0150532
683.063	0.0150922
683.141	0.0151131
683.219	0.0149671
683.298	0.0151074
683.376	0.0149754
683.454	0.0149928
683.532	0.0150449
683.610	0.0150848
683.688	0.0150913
683.766	0.0151341
683.844	0.0151154
683.923	0.0150157
684.001	0.0151804
684.079	0.0151277
684.157	0.0150420
684.235	0.0150108
684.313	0.0151494
684.391	0.0151104
684.469	0.0149506
684.548	0.0151322
684.626	0.0151990
684.704	0.0151411
684.782	0.0150643
684.860	0.0150816
684.938	0.0151093
685.016	0.0149963
685.094	0.0150344
685.173	0.0151856
685.251	0.0150982
685.329	0.0151175
685.407	0.0151321
685.485	0.0149950
685.563	0.0151051
685.641	0.0152293
685.719	0.0149675
685.798	0.0151160
685.876	0.0150908
685.954	0.0150395
686.032	0.0151554
686.110	0.0151244
686.188	0.0149541
686.266	0.0151325
686.344	0.0151742
686.423	0.0151554
686.501	0.0151136
686.579	0.0151582
686.657	0.0151751
686.735	0.0151994
686.813	0.0150649
686.891	0.0151032
686.969	0.0151846
687.048	0.0151889
687.126	0.0151942
687.204	0.0152395
687.282	0.0151213
687.360	0.0150308
687.438	0.0150733
687.516	0.0152180
687.594	0.0150680
687.673	0.0151485
687.751	0.0152602
687.829	0.0151035
687.907	0.0150732
687.985	0.0150632
688.063	0.0151080
688.141	0.0152093
688.219	0.0151582
688.298	0.0151087
688.376	0.0150987
688.454	0.0152035
688.532	0.0150900
688.610	0.0150833
688.688	0.0151669
688.766	0.0150623
688.844	0.0151080
688.923	0.0149616
689.001	0.0149862
689.079	0.0148745
689.157	0.0149363
689.235	0.0152526
689.313	0.0151952
689.391	0.0154995
689.469	0.0157359
689.548	0.0158596
689.626	0.0161491
689.704	0.0160213
689.782	0.0159829
689.860	0.0157426
689.938	0.0155395
690.016	0.0150624
690.094	0.0145761
690.173	0.0138284
690.251	0.0133808
690.329	0.0131411
690.407	0.0130217
690.485	0.0130964
690.563	0.0133908
690.641	0.0139918
690.719	0.0146954
690.798	0.0156484
690.876	0.0164918
690.954	0.0172280
691.032	0.0179752
691.110	0.0184180
691.188	0.0186733
691.266	0.0185699
691.344	0.0182848
691.423	0.0176642
691.501	0.0168133
691.579	0.0157444
691.657	0.0146149
691.735	0.0133192
691.813	0.0122848
691.891	0.0114196
691.969	0.0108235
692.048	0.0104073
692.126	0.0102560
692.204	0.0104550
692.282	0.0110004
692.360	0.0118301
692.438	0.0125801
692.516	0.0139157
692.594	0.0150090
692.673	0.0161244
692.751	0.0172878
692.829	0.0184378
692.907	0.0190862
692.985	0.0197402
693.063	0.0202072
693.141	0.0202055
693.219	0.0200673
693.298	0.0199459
693.376	0.0193022
693.454	0.0185803
693.532	0.0176527
693.610	0.0167899
693.688	0.0156494
693.766	0.0145714
693.844	0.0135067
693.923	0.0126005
694.001	0.0117503
694.079	0.0110870
694.157	0.0105437
694.235	0.0102374
694.313	0.0101132
694.391	0.0101784
694.469	0.0102455
694.548	0.0108256
694.626	0.0113410
694.704	0.0120245
694.782	0.0125547
694.860	0.0133587
694.938	0.0141244
695.016	0.0150269
695.094	0.0157273
695.173	0.0164612
695.251	0.0172358
695.329	0.0178954
695.407	0.0183466
695.485	0.0187287
695.563	0.0191552
695.641	0.0195057
695.719	0.0195514
695.798	0.0195243
695.876	0.0195756
695.954	0.0192341
696.032	0.0187233
696.110	0.0183807
696.188	0.0178307
696.266	0.0171937
696.344	0.0165685
696.423	0.0158861
696.501	0.0151938
696.579	0.0144844
696.657	0.0136913
696.735	0.0129050
696.813	0.0121969
696.891	0.0117744
696.969	0.0112911
697.048	0.0109123
697.126	0.0107787
697.204	0.0105540
697.282	0.0106858
697.360	0.0108813
697.438	0.0111718
697.516	0.0115544
697.594	0.0119642
697.673	0.0123534
697.751	0.0129855
697.829	0.0136516
697.907	0.0140653
697.985	0.0146597
698.063	0.0153265
698.141	0.0159790
698.219	0.0164540
698.298	0.0169273
698.376	0.0172329
698.454	0.0176717
698.532	0.0179670
698.610	0.0182600
698.688	0.0184927
698.766	0.0184523
698.844	0.0185025
698.923	0.0185609
699.001	0.0183759
699.079	0.0181779
699.157	0.0179213
699.235	0.0177741
699.313	0.0174616
699.391	0.0171392
699.469	0.0166325
699.548	0.0162083
699.626	0.0156826
699.704	0.0153372
699.782	0.0147964
699.860	0.0143661
699.938	0.0139983
700.016	0.0136321
700.094	0.0131561
700.173	0.0128558
700.251	0.0128042
700.329	0.0126968
700.407	0.0124036
700.485	0.0124374
700.563	0.0124376
700.641	0.0123260
700.719	0.0124005
700.798	0.0124703
700.876	0.0127449
700.954	0.0128549
701.032	0.0131663
701.110	0.0133543
701.188	0.0136716
701.266	0.0139653
701.344	0.0142419
701.423	0.0144294
701.501	0.0147769
701.579	0.0151819
701.657	0.0152835
701.735	0.0155406
701.813	0.0160464
701.891	0.0160876
701.969	0.0163200
702.048	0.0166181
702.126	0.0166835
702.204	0.0168382
702.282	0.0170187
702.360	0.0171701
702.438	0.0171024
702.516	0.0174098
702.594	0.0173706
702.673	0.0173198
702.751	0.0173001
702.829	0.0171587
702.907	0.0171823
702.985	0.0172346
703.063	0.0169683
703.141	0.0170620
703.219	0.0167754
703.298	0.0165600
703.376	0.0163197
703.454	0.0161189
703.532	0.0157220
703.610	0.0155775
703.688	0.0152209
703.766	0.0150085
703.844	0.0147829
703.923	0.0145476
704.001	0.0142941
704.079	0.0141227
704.157	0.0138700
704.235	0.0138603
704.313	0.0135075
704.391	0.0132455
704.469	0.0132603
704.548	0.0131672
704.626	0.0130358
704.704	0.0130113
704.782	0.0129204
704.860	0.0130384
704.938	0.0129039
705.016	0.0130515
705.094	0.0130703
705.173	0.0132733
705.251	0.0133978
705.329	0.0134507
705.407	0.0136442
705.485	0.0140002
705.563	0.0139113
705.641	0.0143390
705.719	0.0145647
705.798	0.0149030
705.876	0.0151979
705.954	0.0154863
706.032	0.0158173
706.110	0.0161292
706.188	0.0165808
706.266	0.0168490
706.344	0.0170931
706.423	0.0172318
706.501	0.0174130
706.579	0.0174998
706.657	0.0175967
706.735	0.0174615
706.813	0.0172685
706.891	0.0172767
706.969	0.0167396
707.048	0.0164507
707.126	0.0162607
707.204	0.0160960
707.282	0.0158607
707.360	0.0155010
707.438	0.0154041
707.516	0.0152486
707.594	0.0152544
707.673	0.0151263
707.751	0.0149113
707.829	0.0150667
707.907	0.0149484
707.985	0.0147892
708.063	0.0147844
708.141	0.0147720
708.219	0.0146092
708.298	0.0145811
708.376	0.0144749
708.454	0.0144518
708.532	0.0145594
708.610	0.0144845
708.688	0.0142696
708.766	0.0142722
708.844	0.0140310
708.923	0.0141631
709.001	0.0140816
709.079	0.0137461
709.157	0.0138783
709.235	0.0137309
709.313	0.0138123
709.391	0.0135719
709.469	0.0137151
709.548	0.0138200
709.626	0.0137382
709.704	0.0139079
709.782	0.0140230
709.860	0.0140285
709.938	0.0141912
710.016	0.0144988
710.094	0.0144829
710.173	0.0145868
710.251	0.0148762
710.329	0.0148055
710.407	0.0152442
710.485	0.0153677
710.563	0.0155734
710.641	0.0156476
710.719	0.0157706
710.798	0.0159061
710.876	0.0160776
710.954	0.0161555
711.032	0.0160915
711.110	0.0161203
711.188	0.0163223
711.266	0.0163710
711.344	0.0164654
711.423	0.0164406
711.501	0.0164128
711.579	0.0162857
711.657	0.0166052
711.735	0.0166415
711.813	0.0166334
711.891	0.0163071
711.969	0.0164170
712.048	0.0163768
712.126	0.0161813
712.204	0.0160390
712.282	0.0159283
712.360	0.0157887
712.438	0.0154568
712.516	0.0151341
712.594	0.0151456
712.673	0.0149113
712.751	0.0150087
712.829	0.0149086
712.907	0.0147476
712.985	0.0146201
713.063	0.0145781
713.141	0.0147149
713.219	0.0146292
713.298	0.0145725
713.376	0.0144817
713.454	0.0144775
713.532	0.0144695
713.610	0.0143206
713.688	0.0143301
713.766	0.0142979
713.844	0.0142307
713.923	0.0140972
714.001	0.0140915
714.079	0.0139303
714.157	0.0141626
714.235	0.0140380
714.313	0.0139595
714.391	0.0140416
714.469	0.0140098
714.548	0.0139142
714.626	0.0141091
714.704	0.0141846
714.782	0.0143717
714.860	0.0145427
714.938	0.0145000
715.016	0.0147692
715.094	0.0150816
715.173	0.0151787
715.251	0.0153353
715.329	0.0156812
715.407	0.0158047
715.485	0.0160857
715.563	0.0160725
715.641	0.0163538
715.719	0.0164130
715.798	0.0165425
715.876	0.0164920
715.954	0.0167041
716.032	0.0165868
716.110	0.0164212
716.188	0.0161631
716.266	0.0163008
716.344	0.0162057
716.423	0.0159727
716.501	0.0160051
716.579	0.0158341
716.657	0.0156551
716.735	0.0158147
716.813	0.0156334
716.891	0.0155394
716.969	0.0155589
717.048	0.0154324
717.126	0.0154426
717.204	0.0153275
717.282	0.0151676
717.360	0.0148701
717.438	0.0148816
717.516	0.0146145
717.594	0.0143599
717.673	0.0142952
717.751	0.0142010
717.829	0.0141364
717.907	0.0139858
717.985	0.0139750
718.063	0.0139666
718.141	0.0140928
718.219	0.0141335
718.298	0.0141467
718.376	0.0141418
718.454	0.0142942
718.532	0.0144573
718.610	0.0146789
718.688	0.0146883
718.766	0.0147919
718.844	0.0149078
718.923	0.0148986
719.001	0.0150247
719.079	0.0149345
719.157	0.0150221
719.235	0.0149962
719.313	0.0149870
719.391	0.0149535
719.469	0.0148785
719.548	0.0148476
719.626	0.0148920
719.704	0.0148917
719.782	0.0150320
719.860	0.0148994
719.938	0.0150842
720.016	0.0150949
720.094	0.0150323
720.173	0.0150650
720.251	0.0150933
720.329	0.0152430
720.407	0.0150986
720.485	0.0152187
720.563	0.0153248
720.641	0.0153079
720.719	0.0153605
720.798	0.0153201
720.876	0.0153745
720.954	0.0153902
721.032	0.0155340
721.110	0.0155192
721.188	0.0153543
721.266	0.0154454
721.344	0.0155266
721.423	0.0153635
721.501	0.0152846
721.579	0.0153588
721.657	0.0152803
721.735	0.0152483
721.813	0.0151402
721.891	0.0152758
721.969	0.0152238
722.048	0.0151347
722.126	0.0151316
722.204	0.0152586
722.282	0.0151190
722.360	0.0152635
722.438	0.0152814
722.516	0.0153439
722.594	0.0153226
722.673	0.0154403
722.751	0.0153949
722.829	0.0153961
722.907	0.0152974
722.985	0.0151544
723.063	0.0150414
723.141	0.0150596
723.219	0.0148946
723.298	0.0147919
723.376	0.0147234
723.454	0.0145930
723.532	0.0145538
723.610	0.0145670
723.688	0.0146613
723.766	0.0146338
723.844	0.0146535
723.923	0.0144361
724.001	0.0146193
724.079	0.0147668
724.157	0.0148201
724.235	0.0146227
724.313	0.0147604
724.391	0.0149668
724.469	0.0149048
724.548	0.0149915
724.626	0.0149595
724.704	0.0151009
724.782	0.0150584
724.860	0.0149938
724.938	0.0150152
725.016	0.0148923
725.094	0.0148484
725.173	0.0149512
725.251	0.0149031
725.329	0.0148447
725.407	0.0149817
725.485	0.0150874
725.563	0.0150636
725.641	0.0151689
725.719	0.0152020
725.798	0.0151428
725.876	0.0155000
725.954	0.0156454
726.032	0.0156801
726.110	0.0157458
726.188	0.0157171
726.266	0.0156203
726.344	0.0158418
726.423	0.0157041
726.501	0.0157188
726.579	0.0156188
726.657	0.0154779
726.735	0.0153525
726.813	0.0151804
726.891	0.0150010
726.969	0.0148655
727.048	0.0148097
727.126	0.0148753
727.204	0.0146497
727.282	0.0146764
727.360	0.0146153
727.438	0.0147070
727.516	0.0149098
727.594	0.0152122
727.673	0.0150517
727.751	0.0151664
727.829	0.0153385
727.907	0.0154656
727.985	0.0155070
728.063	0.0155545
728.141	0.0153625
728.219	0.0153583
728.298	0.0154361
728.376	0.0155985
728.454	0.0153288
728.532	0.0152766
728.610	0.0152171
728.688	0.0150874
728.766	0.0151376
728.844	0.0149628
728.923	0.0149549
729.001	0.0149902
729.079	0.0148577
729.157	0.0146552
729.235	0.0148252
729.313	0.0149097
729.391	0.0147021
729.469	0.0146954
729.548	0.0148734
729.626	0.0149228
729.704	0.0148462
729.782	0.0147839
729.860	0.0148737
729.938	0.0147900
730.016	0.0148143
730.094	0.0150154
730.173	0.0148040
730.251	0.0147546
730.329	0.0147936
730.407	0.0150036
730.485	0.0149514
730.563	0.0148801
730.641	0.0149367
730.719	0.0149691
730.798	0.0150068
730.876	0.0150078
730.954	0.0148711
731.032	0.0150153
731.110	0.0150096
731.188	0.0150849
731.266	0.0149174
731.344	0.0149968
731.423	0.0152067
731.501	0.0152748
731.579	0.0151714
731.657	0.0152113
731.735	0.0151782
731.813	0.0151932
731.891	0.0152047
731.969	0.0152854
732.048	0.0150610
732.126	0.0150816
732.204	0.0150757
732.282	0.0149628
732.360	0.0147724
732.438	0.0149648
732.516	0.0148127
732.594	0.0148756
732.673	0.0149726
732.751	0.0148402
732.829	0.0148820
732.907	0.0150078
732.985	0.0151047
733.063	0.0151591
733.141	0.0152969
733.219	0.0153436
733.298	0.0153460
733.376	0.0153623
733.454	0.0154645
733.532	0.0154771
733.610	0.0155647
733.688	0.0155038
733.766	0.0155635
733.844	0.0156018
733.923	0.0153724
734.001	0.0155524
734.079	0.0156501
734.157	0.0153514
734.235	0.0152820
734.313	0.0152838
734.391	0.0150346
734.469	0.0151982
734.548	0.0150804
734.626	0.0148116
734.704	0.0149000
734.782	0.0149057
734.860	0.0146835
734.938	0.0147829
735.016	0.0147532
735.094	0.0147355
735.173	0.0147478
735.251	0.0148096
735.329	0.0147980
735.407	0.0147113
735.485	0.0147585
735.563	0.0146523
735.641	0.0145544
735.719	0.0145002
735.798	0.0144615
735.876	0.0146872
735.954	0.0146431
736.032	0.0146732
736.110	0.0147197
736.188	0.0148352
736.266	0.0150069
736.344	0.0149882
736.423	0.0149245
736.501	0.0151244
736.579	0.0153001
736.657	0.0154788
736.735	0.0154145
736.813	0.0155286
736.891	0.0156478
736.969	0.0157030
737.048	0.0157519
737.126	0.0156910
737.204	0.0156883
737.282	0.0156627
737.360	0.0155250
737.438	0.0154242
737.516	0.0154974
737.594	0.0154935
737.673	0.0154465
737.751	0.0152209
737.829	0.0151384
737.907	0.0151701
737.985	0.0151313
738.063	0.0151278
738.141	0.0149577
738.219	0.0149294
738.298	0.0150166
738.376	0.0151926
738.454	0.0150653
738.532	0.0151134
738.610	0.0149509
738.688	0.0150669
738.766	0.0151493
738.844	0.0151531
738.923	0.0152010
739.001	0.0151934
739.079	0.0151694
739.157	0.0150867
739.235	0.0150985
739.313	0.0152771
739.391	0.0151836
739.469	0.0151207
739.548	0.0151557
739.626	0.0151637
739.704	0.0150776
739.782	0.0149736
739.860	0.0151115
739.938	0.0151439
740.016	0.0150891
740.094	0.0151075
740.173	0.0150792
740.251	0.0150542
740.329	0.0149548
740.407	0.0150234
740.485	0.0149146
740.563	0.0149663
740.641	0.0150632
740.719	0.0150212
740.798	0.0149678
740.876	0.0149055
740.954	0.0149091
741.032	0.0148643
741.110	0.0148907
741.188	0.0148705
741.266	0.0149473
741.344	0.0149083
741.423	0.0149091
741.501	0.0150425
741.579	0.0149950
741.657	0.0151414
741.735	0.0152650
741.813	0.0151990
741.891	0.0152946
741.969	0.0154101
742.048	0.0156142
742.126	0.0154361
742.204	0.0156371
742.282	0.0156582
742.360	0.0154521
742.438	0.0155360
742.516	0.0154712
742.594	0.0155175
742.673	0.0153977
742.751	0.0153297
742.829	0.0152882
742.907	0.0151708
742.985	0.0150872
743.063	0.0151353
743.141	0.0150536
743.219	0.0149039
743.298	0.0150141
743.376	0.0148444
743.454	0.0148132
743.532	0.0147906
743.610	0.0149142
743.688	0.0148949
743.766	0.0149361
743.844	0.0150301
743.923	0.0150807
744.001	0.0149386
744.079	0.0149891
744.157	0.0149397
744.235	0.0149911
744.313	0.0151309
744.391	0.0151618
744.469	0.0150278
744.548	0.0149274
744.626	0.0149528
744.704	0.0151310
744.782	0.0150735
744.860	0.0150976
744.938	0.0150751
745.016	0.0149611
745.094	0.0149637
745.173	0.0149384
745.251	0.0150037
745.329	0.0148129
745.407	0.0150466
745.485	0.0151114
745.563	0.0149316
745.641	0.0148531
745.719	0.0150085
745.798	0.0149387
745.876	0.0148855
745.954	0.0149708
746.032	0.0149553
746.110	0.0149497
746.188	0.0147927
746.266	0.0149767
746.344	0.0149267
746.423	0.0147570
746.501	0.0148105
746.579	0.0148755
746.657	0.0148659
746.735	0.0148163
746.813	0.0149332
746.891	0.0147137
746.969	0.0148621
747.048	0.0150765
747.126	0.0150636
747.204	0.0151018
747.282	0.0152443
747.360	0.0153149
747.438	0.0153877
747.516	0.0155306
747.594	0.0154983
747.673	0.0155444
747.751	0.0156236
747.829	0.0155619
747.907	0.0155613
747.985	0.0155759
748.063	0.0155869
748.141	0.0154733
748.219	0.0154171
748.298	0.0154638
748.376	0.0152486
748.454	0.0152528
748.532	0.0153850
748.610	0.0152135
748.688	0.0151911
748.766	0.0152436
748.844	0.0152068
748.923	0.0150663
749.001	0.0152267
749.079	0.0150455
749.157	0.0151375
749.235	0.0153297
749.313	0.0151184
749.391	0.0151057
749.469	0.0151392
749.548	0.0151106
749.626	0.0151344
749.704	0.0150233
749.782	0.0150674
749.860	0.0150665
749.938	0.0149354
750.016	0.0147869
750.094	0.0148547
750.173	0.0148896
750.251	0.0147272
750.329	0.0146874
750.407	0.0146587
750.485	0.0147261
750.563	0.0146530
750.641	0.0146542
750.719	0.0146231
750.798	0.0146921
750.876	0.0146495
750.954	0.0148255
751.032	0.0147271
751.110	0.0148515
751.188	0.0148842
751.266	0.0149027
751.344	0.0150341
751.423	0.0150258
751.501	0.0150027
751.579	0.0148265
751.657	0.0149992
751.735	0.0148805
751.813	0.0148090
751.891	0.0149625
751.969	0.0149672
752.048	0.0148743
752.126	0.0147211
752.204	0.0149199
752.282	0.0149440
752.360	0.0147458
752.438	0.0149336
752.516	0.0150609
752.594	0.0150170
752.673	0.0150027
752.751	0.0152108
752.829	0.0152480
752.907	0.0154218
752.985	0.0155334
753.063	0.0155560
753.141	0.0156564
753.219	0.0156983
753.298	0.0157078
753.376	0.0157793
753.454	0.0159357
753.532	0.0157797
753.610	0.0158332
753.688	0.0157645
753.766	0.0157767
753.844	0.0157209
753.923	0.0156862
754.001	0.0155313
754.079	0.0155675
754.157	0.0156315
754.235	0.0154945
754.313	0.0153388
754.391	0.0151895
754.469	0.0152797
754.548	0.0151629
754.626	0.0150865
754.704	0.0150808
754.782	0.0150776
754.860	0.0150214
754.938	0.0149624
755.016	0.0150208
755.094	0.0148985
755.173	0.0150233
755.251	0.0149615
755.329	0.0148989
755.407	0.0149200
755.485	0.0146574
755.563	0.0147702
755.641	0.0147722
755.719	0.0147285
755.798	0.0146884
755.876	0.0146931
755.954	0.0147189
756.032	0.0146052
756.110	0.0146465
756.188	0.0145992
756.266	0.0147502
756.344	0.0148335
756.423	0.0146831
756.501	0.0147292
756.579	0.0149058
756.657	0.0147058
756.735	0.0149660
756.813	0.0149148
756.891	0.0149074
756.969	0.0149500
757.048	0.0150546
757.126	0.0149926
757.204	0.0151724
757.282	0.0150469
757.360	0.0150127
757.438	0.0150002
757.516	0.0150869
757.594	0.0150924
757.673	0.0150680
757.751	0.0150980
757.829	0.0151955
757.907	0.0151395
757.985	0.0151518
758.063	0.0152829
758.141	0.0152409
758.219	0.0151746
758.298	0.0153452
758.376	0.0154106
758.454	0.0152590
758.532	0.0153172
758.610	0.0151407
758.688	0.0152265
758.766	0.0153766
758.844	0.0153314
758.923	0.0153452
759.001	0.0154001
759.079	0.0154155
759.157	0.0155300
759.235	0.0155732
759.313	0.0154831
759.391	0.0153714
759.469	0.0154799
759.548	0.0155283
759.626	0.0154123
759.704	0.0153876
759.782	0.0155149
759.860	0.0154533
759.938	0.0153697
760.016	0.0153027
760.094	0.0153295
760.173	0.0152372
760.251	0.0149905
760.329	0.0151415
760.407	0.0150391
760.485	0.0150555
760.563	0.0149088
760.641	0.0149293
760.719	0.0148309
760.798	0.0146718
760.876	0.0148479
760.954	0.0148584
761.032	0.0147717
761.110	0.0146784
761.188	0.0147422
761.266	0.0148534
761.344	0.0148893
761.423	0.0150484
761.501	0.0149483
761.579	0.0149512
761.657	0.0149921
761.735	0.0151064
761.813	0.0153381
761.891	0.0152328
761.969	0.0150946
762.048	0.0151788
762.126	0.0151939
762.204	0.0153632
762.282	0.0152096
762.360	0.0150748
762.438	0.0151850
762.516	0.0153144
762.594	0.0151533
762.673	0.0150699
762.751	0.0151468
762.829	0.0149619
762.907	0.0151372
762.985	0.0149348
763.063	0.0149581
763.141	0.0149149
763.219	0.0149808
763.298	0.0150318
763.376	0.0150828
763.454	0.0150471
763.532	0.0151517
763.610	0.0150398
763.688	0.0152058
763.766	0.0152173
763.844	0.0151599
763.923	0.0152795
764.001	0.0152533
764.079	0.0152097
764.157	0.0154018
764.235	0.0153558
764.313	0.0153826
764.391	0.0153570
764.469	0.0153432
764.548	0.0155245
764.626	0.0155200
764.704	0.0154012
764.782	0.0154475
764.860	0.0153945
764.938	0.0154993
765.016	0.0154655
765.094	0.0155373
765.173	0.0154973
765.251	0.0155698
765.329	0.0154246
765.407	0.0153413
765.485	0.0152472
765.563	0.0152983
765.641	0.0152693
765.719	0.0151045
765.798	0.0150146
765.876	0.0151441
765.954	0.0149692
766.032	0.0148720
766.110	0.0149428
766.188	0.0147877
766.266	0.0147245
766.344	0.0146196
766.423	0.0145987
766.501	0.0144881
766.579	0.0144011
766.657	0.0145509
766.735	0.0146210
766.813	0.0145211
766.891	0.0145252
766.969	0.0145838
767.048	0.0146138
767.126	0.0146934
767.204	0.0148919
767.282	0.0148180
767.360	0.0148917
767.438	0.0150235
767.516	0.0149879
767.594	0.0150500
767.673	0.0151643
767.751	0.0151219
767.829	0.0152010
767.907	0.0153387
767.985	0.0154187
768.063	0.0153599
768.141	0.0154264
768.219	0.0155716
768.298	0.0156474
768.376	0.0156275
768.454	0.0157269
768.532	0.0157493
768.610	0.0157253
768.688	0.0157597
768.766	0.0157121
768.844	0.0157280
768.923	0.0156712
769.001	0.0156718
769.079	0.0155919
769.157	0.0154962
769.235	0.0154607
769.313	0.0153847
769.391	0.0152888
769.469	0.0151835
769.548	0.0151192
769.626	0.0149837
769.704	0.0149326
769.782	0.0148640
769.860	0.0148287
769.938	0.0148244
770.016	0.0147569
770.094	0.0146945
770.173	0.0146571
770.251	0.0145352
770.329	0.0147046
770.407	0.0146345
770.485	0.0145216
770.563	0.0145996
770.641	0.0145577
770.719	0.0145094
770.798	0.0145306
770.876	0.0145228
770.954	0.0145432
771.032	0.0145742
771.110	0.0145702
771.188	0.0146264
771.266	0.0146645
771.344	0.0147884
771.423	0.0146265
771.501	0.0147044
771.579	0.0148755
771.657	0.0148591
771.735	0.0150623
771.813	0.0149947
771.891	0.0150337
771.969	0.0152068
772.048	0.0152419
772.126	0.0153694
772.204	0.0153620
772.282	0.0154541
772.360	0.0155927
772.438	0.0156602
772.516	0.0156412
772.594	0.0157998
772.673	0.0156831
772.751	0.0157238
772.829	0.0156554
772.907	0.0157436
772.985	0.0158060
773.063	0.0158609
773.141	0.0158310
773.219	0.0157404
773.298	0.0156908
773.376	0.0155424
773.454	0.0155668
773.532	0.0154900
773.610	0.0155203
773.688	0.0153226
773.766	0.0151769
773.844	0.0151015
773.923	0.0150825
774.001	0.0151142
774.079	0.0149733
774.157	0.0150574
774.235	0.0150484
774.313	0.0150544
774.391	0.0149702
774.469	0.0149863
774.548	0.0151313
774.626	0.0150349
774.704	0.0149700
774.782	0.0150948
774.860	0.0151886
774.938	0.0150446
775.016	0.0151680
775.094	0.0151851
775.173	0.0151825
775.251	0.0152508
775.329	0.0151065
775.407	0.0150383
775.485	0.0150662
775.563	0.0151981
775.641	0.0149960
775.719	0.0149724
775.798	0.0148197
775.876	0.0148213
775.954	0.0148926
776.032	0.0148563
776.110	0.0147333
776.188	0.0147143
776.266	0.0147410
776.344	0.0148047
776.423	0.0147898
776.501	0.0146982
776.579	0.0147939
776.657	0.0147096
776.735	0.0147477
776.813	0.0148470
776.891	0.0149094
776.969	0.0148111
777.048	0.0149108
777.126	0.0149036
777.204	0.0149120
777.282	0.0150166
777.360	0.0150196
777.438	0.0149749
777.516	0.0151455
777.594	0.0151138
777.673	0.0152636
777.751	0.0152991
777.829	0.0152955
777.907	0.0152712
777.985	0.0154217
778.063	0.0154420
778.141	0.0153138
778.219	0.0154887
778.298	0.0154803
778.376	0.0154176
778.454	0.0153218
778.532	0.0153687
778.610	0.0153587
778.688	0.0152539
778.766	0.0152653
778.844	0.0153555
778.923	0.0152277
779.001	0.0153335
779.079	0.0154212
779.157	0.0152534
779.235	0.0151461
779.313	0.0150793
779.391	0.0151516
779.469	0.0152293
779.548	0.0151405
779.626	0.0151168
779.704	0.0149577
779.782	0.0150951
779.860	0.0151438
779.938	0.0151106
780.016	0.0151016
780.094	0.0151000
780.173	0.0150664
780.251	0.0150021
780.329	0.0151596
780.407	0.0151606
780.485	0.0150014
780.563	0.0149419
780.641	0.0151122
780.719	0.0150079
780.798	0.0149734
780.876	0.0149603
780.954	0.0149770
781.032	0.0150695
781.110	0.0150647
781.188	0.0150144
781.266	0.0151268
781.344	0.0149730
781.423	0.0150809
781.501	0.0152248
781.579	0.0152339
781.657	0.0152628
781.735	0.0150841
781.813	0.0151048
781.891	0.0152376
781.969	0.0151423
782.048	0.0151673
782.126	0.0150140
782.204	0.0151903
782.282	0.0151852
782.360	0.0151234
782.438	0.0151231
782.516	0.0149083
782.594	0.0149936
782.673	0.0148537
782.751	0.0147483
782.829	0.0148978
782.907	0.0149671
782.985	0.0148120
783.063	0.0148758
783.141	0.0147282
783.219	0.0148325
783.298	0.0148344
783.376	0.0147878
783.454	0.0148997
783.532	0.0150818
783.610	0.0148909
783.688	0.0148281
783.766	0.0148557
783.844	0.0150000
783.923	0.0149746
784.001	0.0149971
784.079	0.0149464
784.157	0.0150036
784.235	0.0150034
784.313	0.0151765
784.391	0.0151052
784.469	0.0150932
784.548	0.0150730
784.626	0.0150074
784.704	0.0149957
784.782	0.0149969
784.860	0.0150347
784.938	0.0150517
785.016	0.0151534
785.094	0.0151000
785.173	0.0151042
785.251	0.0150226
785.329	0.0151902
785.407	0.0152283
785.485	0.0153400
785.563	0.0152205
785.641	0.0154416
785.719	0.0153603
785.798	0.0153031
785.876	0.0154189
785.954	0.0155392
786.032	0.0155470
786.110	0.0154962
786.188	0.0155447
786.266	0.0155102
786.344	0.0154701
786.423	0.0154583
786.501	0.0154583
786.579	0.0153918
786.657	0.0151086
786.735	0.0151814
786.813	0.0152796
786.891	0.0150881
786.969	0.0152216
787.048	0.0151553
787.126	0.0150037
787.204	0.0149490
787.282	0.0150214
787.360	0.0149350
787.438	0.0150537
787.516	0.0148587
787.594	0.0149831
787.673	0.0149853
787.751	0.0150388
787.829	0.0147960
787.907	0.0147668
787.985	0.0149627
788.063	0.0146883
788.141	0.0148045
788.219	0.0148631
788.298	0.0149514
788.376	0.0149248
788.454	0.0149707
788.532	0.0149768
788.610	0.0150414
788.688	0.0149073
788.766	0.0150031
788.844	0.0149549
788.923	0.0151199
789.001	0.0153477
789.079	0.0151434
789.157	0.0151680
789.235	0.0151530
789.313	0.0150671
789.391	0.0151397
789.469	0.0153357
789.548	0.0153339
789.626	0.0153210
789.704	0.0153259
789.782	0.0152711
789.860	0.0153404
789.938	0.0153507
790.016	0.0151260
790.094	0.0149964
790.173	0.0151769
790.251	0.0151505
790.329	0.0149228
790.407	0.0149533
790.485	0.0147624
790.563	0.0147397
790.641	0.0146972
790.719	0.0145766
790.798	0.0147619
790.876	0.0145490
790.954	0.0145979
791.032	0.0146431
791.110	0.0146362
791.188	0.0146034
791.266	0.0145450
791.344	0.0147283
791.423	0.0148289
791.501	0.0150211
791.579	0.0149599
791.657	0.0150857
791.735	0.0152370
791.813	0.0152689
791.891	0.0154503
791.969	0.0154788
792.048	0.0155742
792.126	0.0156998
792.204	0.0158581
792.282	0.0157515
792.360	0.0157339
792.438	0.0156628
792.516	0.0156428
792.594	0.0155795
792.673	0.0156880
792.751	0.0154562
792.829	0.0155499
792.907	0.0152455
792.985	0.0152083
793.063	0.0150981
793.141	0.0149593
793.219	0.0149937
793.298	0.0148717
793.376	0.0147927
793.454	0.0147150
793.532	0.0148202
793.610	0.0146318
793.688	0.0145686
793.766	0.0146469
793.844	0.0148064
793.923	0.0147349
794.001	0.0147382
794.079	0.0148549
794.157	0.0147495
794.235	0.0148822
794.313	0.0149850
794.391	0.0150462
794.469	0.0150641
794.548	0.0150683
794.626	0.0152887
794.704	0.0152768
794.782	0.0152269
794.860	0.0152448
794.938	0.0153341
795.016	0.0153588
795.094	0.0154453
795.173	0.0153292
795.251	0.0154135
795.329	0.0153645
795.407	0.0153983
795.485	0.0152222
795.563	0.0154415
795.641	0.0153920
795.719	0.0153175
795.798	0.0153917
795.876	0.0152753
795.954	0.0153996
796.032	0.0156049
796.110	0.0154684
796.188	0.0152073
796.266	0.0152766
796.344	0.0151832
796.423	0.0151083
796.501	0.0149631
796.579	0.0150387
796.657	0.0147097
796.735	0.0146844
796.813	0.0146568
796.891	0.0146784
796.969	0.0144843
797.048	0.0143237
797.126	0.0143197
797.204	0.0142491
797.282	0.0142951
797.360	0.0143658
797.438	0.0141530
797.516	0.0143378
797.594	0.0144531
797.673	0.0144773
797.751	0.0145246
797.829	0.0147003
797.907	0.0149171
797.985	0.0149878
798.063	0.0149620
798.141	0.0152763
798.219	0.0153057
798.298	0.0154187
798.376	0.0154562
798.454	0.0155123
798.532	0.0157064
798.610	0.0158724
798.688	0.0158782
798.766	0.0158797
798.844	0.0158862
798.923	0.0159773
799.001	0.0158595
799.079	0.0157343
799.157	0.0158147
799.235	0.0156900
799.313	0.0156954
799.391	0.0156537
799.469	0.0155424
799.548	0.0155939
799.626	0.0153548
799.704	0.0152823
799.782	0.0152708
799.860	0.0154256
799.938	0.0151279
800.016	0.0150974
800.094	0.0150887
800.173	0.0149747
800.251	0.0151772
800.329	0.0149313
800.407	0.0149738
800.485	0.0147720
800.563	0.0149235
800.641	0.0150084
800.719	0.0150530
800.798	0.0149419
800.876	0.0148001
800.954	0.0149998
801.032	0.0149788
801.110	0.0148596
801.188	0.0148959
801.266	0.0147607
801.344	0.0148139
801.423	0.0148022
801.501	0.0147428
801.579	0.0146461
801.657	0.0147099
801.735	0.0146381
801.813	0.0145510
801.891	0.0148652
801.969	0.0147449
802.048	0.0146480
802.126	0.0146893
802.204	0.0147845
802.282	0.0148050
802.360	0.0148110
802.438	0.0147105
802.516	0.0147572
802.594	0.0149084
802.673	0.0148672
802.751	0.0149780
802.829	0.0150308
802.907	0.0152529
802.985	0.0151291
803.063	0.0151028
803.141	0.0152178
803.219	0.0153634
803.298	0.0153513
803.376	0.0153616
803.454	0.0154253
803.532	0.0153974
803.610	0.0153797
803.688	0.0154291
803.766	0.0154368
803.844	0.0154972
803.923	0.0155531
804.001	0.0153245
804.079	0.0153975
804.157	0.0154612
804.235	0.0153448
804.313	0.0153162
804.391	0.0152358
804.469	0.0152241
804.548	0.0151485
804.626	0.0151322
804.704	0.0150967
804.782	0.0150597
804.860	0.0150426
804.938	0.0151833
805.016	0.0151571
805.094	0.0151427
805.173	0.0150317
805.251	0.0150793
805.329	0.0150249
805.407	0.0150141
805.485	0.0149993
805.563	0.0148888
805.641	0.0148798
805.719	0.0149821
805.798	0.0149741
805.876	0.0149811
805.954	0.0149699
806.032	0.0150943
806.110	0.0150600
806.188	0.0151225
806.266	0.0150541
806.344	0.0151710
806.423	0.0150922
806.501	0.0150851
806.579	0.0152090
806.657	0.0151350
806.735	0.0153053
806.813	0.0150150
806.891	0.0150316
806.969	0.0151970
807.048	0.0151182
807.126	0.0150205
807.204	0.0149552
807.282	0.0151263
807.360	0.0152155
807.438	0.0150046
807.516	0.0152322
807.594	0.0150995
807.673	0.0151615
807.751	0.0151709
807.829	0.0152583
807.907	0.0152696
807.985	0.0153899
808.063	0.0151783
808.141	0.0151772
808.219	0.0151614
808.298	0.0153697
808.376	0.0152642
808.454	0.0151984
808.532	0.0152798
808.610	0.0151129
808.688	0.0151125
808.766	0.0152029
808.844	0.0152309
808.923	0.0150092
809.001	0.0151470
809.079	0.0151522
809.157	0.0150445
809.235	0.0151774
809.313	0.0150493
809.391	0.0150418
809.469	0.0150809
809.548	0.0149590
809.626	0.0148978
809.704	0.0150339
809.782	0.0149267
809.860	0.0150113
809.938	0.0149536
810.016	0.0149688
810.094	0.0149149
810.173	0.0148657
810.251	0.0148810
810.329	0.0148661
810.407	0.0147677
810.485	0.0147717
810.563	0.0146976
810.641	0.0148400
810.719	0.0148573
810.798	0.0147887
810.876	0.0146957
810.954	0.0147234
811.032	0.0148222
811.110	0.0149192
811.188	0.0149997
811.266	0.0149378
811.344	0.0150351
811.423	0.0153524
811.501	0.0154147
811.579	0.0154916
811.657	0.0155027
811.735	0.0155364
811.813	0.0155452
811.891	0.0156608
811.969	0.0155975
812.048	0.0156306
812.126	0.0156282
812.204	0.0156244
812.282	0.0156368
812.360	0.0155219
812.438	0.0155567
812.516	0.0154379
812.594	0.0154403
812.673	0.0152177
812.751	0.0152757
812.829	0.0151160
812.907	0.0150522
812.985	0.0151495
813.063	0.0150912
813.141	0.0148751
813.219	0.0147945
813.298	0.0149120
813.376	0.0147529
813.454	0.0147586
813.532	0.0146907
813.610	0.0146919
813.688	0.0148889
813.766	0.0147681
813.844	0.0146667
813.923	0.0148520
814.001	0.0148582
814.079	0.0148415
814.157	0.0149120
814.235	0.0148534
814.313	0.0148751
814.391	0.0150178
814.469	0.0148584
814.548	0.0148392
814.626	0.0148344
814.704	0.0149199
814.782	0.0149493
814.860	0.0148627
814.938	0.0149603
815.016	0.0149728
815.094	0.0149440
815.173	0.0149574
815.251	0.0147792
815.329	0.0149070
815.407	0.0149731
815.485	0.0149323
815.563	0.0149981
815.641	0.0148778
815.719	0.0148615
815.798	0.0151042
815.876	0.0151971
815.954	0.0150579
816.032	0.0150891
816.110	0.0151752
816.188	0.0152780
816.266	0.0151849
816.344	0.0152940
816.423	0.0153308
816.501	0.0154295
816.579	0.0153933
816.657	0.0152021
816.735	0.0153098
816.813	0.0151653
816.891	0.0151113
816.969	0.0152864
817.048	0.0151322
817.126	0.0151823
817.204	0.0153514
817.282	0.0151649
817.360	0.0151771
817.438	0.0153482
817.516	0.0153098
817.594	0.0152718
817.673	0.0153979
817.751	0.0153013
817.829	0.0152551
817.907	0.0153236
817.985	0.0152027
818.063	0.0151293
818.141	0.0152275
818.219	0.0151370
818.298	0.0149850
818.376	0.0149283
818.454	0.0149903
818.532	0.0148278
818.610	0.0148624
818.688	0.0149415
818.766	0.0147072
818.844	0.0145762
818.923	0.0146426
819.001	0.0147353
819.079	0.0148251
819.157	0.0146965
819.235	0.0147309
819.313	0.0147025
819.391	0.0147242
819.469	0.0147136
819.548	0.0146759
819.626	0.0147737
819.704	0.0148403
819.782	0.0147991
819.860	0.0149845
819.938	0.0148875
820.016	0.0151838
820.094	0.0151264
820.173	0.0151677
820.251	0.0152013
820.329	0.0151648
820.407	0.0152348
820.485	0.0151921
820.563	0.0151931
820.641	0.0152615
820.719	0.0151781
820.798	0.0150699
820.876	0.0152206
820.954	0.0152949
821.032	0.0153960
821.110	0.0152925
821.188	0.0152805
821.266	0.0153339
821.344	0.0154338
821.423	0.0153473
821.501	0.0152949
821.579	0.0154776
821.657	0.0154793
821.735	0.0153904
821.813	0.0152606
821.891	0.0153487
821.969	0.0151955
822.048	0.0151723
822.126	0.0152261
822.204	0.0152457
822.282	0.0152090
822.360	0.0150861
822.438	0.0152195
822.516	0.0152075
822.594	0.0151428
822.673	0.0150650
822.751	0.0149328
822.829	0.0150998
822.907	0.0150519
822.985	0.0149525
823.063	0.0148586
823.141	0.0148957
823.219	0.0147698
823.298	0.0147736
823.376	0.0147395
823.454	0.0148973
823.532	0.0150868
823.610	0.0148721
823.688	0.0147346
823.766	0.0148065
823.844	0.0147017
823.923	0.0146216
824.001	0.0145213
824.079	0.0145588
824.157	0.0145647
824.235	0.0144807
824.313	0.0145726
824.391	0.0144168
824.469	0.0145363
824.548	0.0147241
824.626	0.0146299
824.704	0.0147364
824.782	0.0147066
824.860	0.0148945
824.938	0.0150117
825.016	0.0150645
825.094	0.0152409
825.173	0.0151904
825.251	0.0154042
825.329	0.0153188
825.407	0.0154624
825.485	0.0155561
825.563	0.0156061
825.641	0.0156340
825.719	0.0155456
825.798	0.0157881
825.876	0.0157588
825.954	0.0158329
826.032	0.0156477
826.110	0.0157656
826.188	0.0157500
826.266	0.0156647
826.344	0.0157213
826.423	0.0157323
826.501	0.0154733
826.579	0.0154893
826.657	0.0154539
826.735	0.0154932
826.813	0.0154313
826.891	0.0154430
826.969	0.0153462
827.048	0.0152198
827.126	0.0152123
827.204	0.0151936
827.282	0.0151132
827.360	0.0149131
827.438	0.0150211
827.516	0.0148554
827.594	0.0147656
827.673	0.0148419
827.751	0.0148253
827.829	0.0146986
827.907	0.0147909
827.985	0.0147315
828.063	0.0147189
828.141	0.0146306
828.219	0.0145452
828.298	0.0145930
828.376	0.0146825
828.454	0.0147478
828.532	0.0145767
828.610	0.0146082
828.688	0.0146166
828.766	0.0146930
828.844	0.0145724
828.923	0.0146369
829.001	0.0145871
829.079	0.0146371
829.157	0.0146930
829.235	0.0145902
829.313	0.0144899
829.391	0.0146873
829.469	0.0147017
829.548	0.0146933
829.626	0.0147247
829.704	0.0148221
829.782	0.0148779
829.860	0.0150616
829.938	0.0149446
830.016	0.0150903
830.094	0.0151800
830.173	0.0154117
830.251	0.0152065
830.329	0.0152889
830.407	0.0153960
830.485	0.0154702
830.563	0.0157454
830.641	0.0157351
830.719	0.0157764
830.798	0.0160045
830.876	0.0159895
830.954	0.0160213
831.032	0.0158835
831.110	0.0159446
831.188	0.0159888
831.266	0.0160332
831.344	0.0158652
831.423	0.0159079
831.501	0.0158606
831.579	0.0158232
831.657	0.0157615
831.735	0.0156751
831.813	0.0154691
831.891	0.0154130
831.969	0.0153135
832.048	0.0153013
832.126	0.0150546
832.204	0.0152238
832.282	0.0151683
832.360	0.0150863
832.438	0.0149118
832.516	0.0148923
832.594	0.0150109
832.673	0.0148554
832.751	0.0148356
832.829	0.0149364
832.907	0.0148714
832.985	0.0147057
833.063	0.0146889
833.141	0.0147583
833.219	0.0147193
833.298	0.0147277
833.376	0.0146277
833.454	0.0147482
833.532	0.0145744
833.610	0.0145979
833.688	0.0145702
833.766	0.0147972
833.844	0.0147068
833.923	0.0144398
834.001	0.0145776
834.079	0.0146240
834.157	0.0146288
834.235	0.0145631
834.313	0.0146978
834.391	0.0145936
834.469	0.0147086
834.548	0.0147060
834.626	0.0148233
834.704	0.0149496
834.782	0.0148597
834.860	0.0149628
834.938	0.0149248
835.016	0.0150404
835.094	0.0150546
835.173	0.0151685
835.251	0.0154314
835.329	0.0153523
835.407	0.0153447
835.485	0.0152810
835.563	0.0155669
835.641	0.0155959
835.719	0.0155745
835.798	0.0157259
835.876	0.0156586
835.954	0.0157128
836.032	0.0157355
836.110	0.0158221
836.188	0.0158546
836.266	0.0157983
836.344	0.0157558
836.423	0.0157383
836.501	0.0156723
836.579	0.0157362
836.657	0.0157741
836.735	0.0156754
836.813	0.0156174
836.891	0.0156339
836.969	0.0156013
837.048	0.0155099
837.126	0.0154993
837.204	0.0154517
837.282	0.0153191
837.360	0.0153015
837.438	0.0153329
837.516	0.0152019
837.594	0.0151868
837.673	0.0152837
837.751	0.0150500
837.829	0.0150308
837.907	0.0150857
837.985	0.0150737
838.063	0.0148644
838.141	0.0147544
838.219	0.0147094
838.298	0.0148618
838.376	0.0149452
838.454	0.0147849
838.532	0.0148235
838.610	0.0148149
838.688	0.0147176
838.766	0.0147059
838.844	0.0148160
838.923	0.0147695
839.001	0.0148167
839.079	0.0146787
839.157	0.0147849
839.235	0.0147822
839.313	0.0146462
839.391	0.0148185
839.469	0.0147982
839.548	0.0148699
839.626	0.0147939
839.704	0.0147964
839.782	0.0148114
839.860	0.0150034
839.938	0.0148945
840.016	0.0148405
840.094	0.0151454
840.173	0.0152452
840.251	0.0151979
840.329	0.0150494
840.407	0.0153317
840.485	0.0154505
840.563	0.0153111
840.641	0.0154588
840.719	0.0153814
840.798	0.0154369
840.876	0.0152856
840.954	0.0154727
841.032	0.0155223
841.110	0.0154507
841.188	0.0154402
841.266	0.0153997
841.344	0.0153459
841.423	0.0153142
841.501	0.0152142
841.579	0.0151803
841.657	0.0151498
841.735	0.0150948
841.813	0.0151836
841.891	0.0150452
841.969	0.0150500
842.048	0.0150266
842.126	0.0151022
842.204	0.0150943
842.282	0.0149961
842.360	0.0150552
842.438	0.0150790
842.516	0.0152528
842.594	0.0150210
842.673	0.0150806
842.751	0.0150793
842.829	0.0150886
842.907	0.0151048
842.985	0.0151452
843.063	0.0149987
843.141	0.0151230
843.219	0.0151646
843.298	0.0151395
843.376	0.0150587
843.454	0.0151870
843.532	0.0149896
843.610	0.0151745
843.688	0.0151572
843.766	0.0152007
843.844	0.0152152
843.923	0.0151011
844.001	0.0151923
844.079	0.0152048
844.157	0.0152731
844.235	0.0152432
844.313	0.0153272
844.391	0.0151282
844.469	0.0150947
844.548	0.0151657
844.626	0.0150349
844.704	0.0149730
844.782	0.0150736
844.860	0.0150798
844.938	0.0151299
845.016	0.0149794
845.094	0.0151302
845.173	0.0151302
845.251	0.0150878
845.329	0.0149941
845.407	0.0150463
845.485	0.0150893
845.563	0.0152116
845.641	0.0151025
845.719	0.0151521
845.798	0.0152397
845.876	0.0151876
845.954	0.0152371
846.032	0.0152185
846.110	0.0151384
846.188	0.0151681
846.266	0.0150926
846.344	0.0150852
846.423	0.0151645
846.501	0.0151578
846.579	0.0149670
846.657	0.0149805
846.735	0.0151246
846.813	0.0149014
846.891	0.0148911
846.969	0.0148826
847.048	0.0150014
847.126	0.0148592
847.204	0.0148973
847.282	0.0148859
847.360	0.0149084
847.438	0.0148245
847.516	0.0148972
847.594	0.0149937
847.673	0.0149283
847.751	0.0150158
847.829	0.0149332
847.907	0.0149724
847.985	0.0150301
848.063	0.0150182
848.141	0.0150091
848.219	0.0151879
848.298	0.0150530
848.376	0.0151243
848.454	0.0151586
848.532	0.0151836
848.610	0.0152146
848.688	0.0151318
848.766	0.0149795
848.844	0.0151483
848.923	0.0150928
849.001	0.0151733
849.079	0.0152711
849.157	0.0152335
849.235	0.0151640
849.313	0.0152712
849.391	0.0152322
849.469	0.0152184
849.548	0.0151799
849.626	0.0153601
849.704	0.0153935
849.782	0.0152792
849.860	0.0152645
849.938	0.0152354
850.016	0.0153514
850.094	0.0153476
850.173	0.0153216
850.251	0.0153386
850.329	0.0154826
850.407	0.0153229
850.485	0.0153957
850.563	0.0154521
850.641	0.0154027
850.719	0.0152468
850.798	0.0152641
850.876	0.0151751
850.954	0.0151980
851.032	0.0152663
851.110	0.0152213
851.188	0.0151572
851.266	0.0150525
851.344	0.0150747
851.423	0.0149574
851.501	0.0149261
851.579	0.0151474
851.657	0.0149146
851.735	0.0148817
851.813	0.0149420
851.891	0.0149418
851.969	0.0149097
852.048	0.0149548
852.126	0.0150060
852.204	0.0150235
852.282	0.0149170
852.360	0.0149722
852.438	0.0150023
852.516	0.0148896
852.594	0.0150024
852.673	0.0150143
852.751	0.0149534
852.829	0.0149555
852.907	0.0150560
852.985	0.0150729
853.063	0.0149598
853.141	0.0150023
853.219	0.0148943
853.298	0.0149561
853.376	0.0149191
853.454	0.0148233
853.532	0.0148112
853.610	0.0149180
853.688	0.0148559
853.766	0.0148442
853.844	0.0149174
853.923	0.0149152
854.001	0.0149503
854.079	0.0150143
854.157	0.0152520
854.235	0.0150912
854.313	0.0151295
854.391	0.0151550
854.469	0.0151657
854.548	0.0152116
854.626	0.0152582
854.704	0.0153666
854.782	0.0153315
854.860	0.0153024
854.938	0.0153549
855.016	0.0153696
855.094	0.0155114
855.173	0.0153880
855.251	0.0154644
855.329	0.0154942
855.407	0.0156081
855.485	0.0155685
855.563	0.0154398
855.641	0.0154298
855.719	0.0156201
855.798	0.0154544
855.876	0.0154843
855.954	0.0154294
856.032	0.0154188
856.110	0.0155068
856.188	0.0154553
856.266	0.0153221
856.344	0.0153960
856.423	0.0154796
856.501	0.0154061
856.579	0.0154494
856.657	0.0153242
856.735	0.0153960
856.813	0.0155038
856.891	0.0154140
856.969	0.0153366
857.048	0.0153308
857.126	0.0152488
857.204	0.0152644
857.282	0.0152464
857.360	0.0151720
857.438	0.0151139
857.516	0.0150797
857.594	0.0151233
857.673	0.0152262
857.751	0.0150320
857.829	0.0151179
857.907	0.0150899
857.985	0.0148998
858.063	0.0148862
858.141	0.0149526
858.219	0.0149005
858.298	0.0147253
858.376	0.0146810
858.454	0.0148651
858.532	0.0147417
858.610	0.0147514
858.688	0.0148344
858.766	0.0147558
858.844	0.0145948
858.923	0.0146088
859.001	0.0144099
859.079	0.0145477
859.157	0.0147859
859.235	0.0147352
859.313	0.0146407
859.391	0.0145518
859.469	0.0146336
859.548	0.0147893
859.626	0.0145976
859.704	0.0147345
859.782	0.0147499
859.860	0.0149090
859.938	0.0149664
860.016	0.0148603
860.094	0.0149797
860.173	0.0150892
860.251	0.0151257
860.329	0.0151192
860.407	0.0151983
860.485	0.0153436
860.563	0.0154663
860.641	0.0153165
860.719	0.0154287
860.798	0.0156370
860.876	0.0156229
860.954	0.0155962
861.032	0.0155814
861.110	0.0157207
861.188	0.0158171
861.266	0.0157850
861.344	0.0157912
861.423	0.0157974
861.501	0.0157030
861.579	0.0156623
861.657	0.0157925
861.735	0.0157484
861.813	0.0156447
861.891	0.0155936
861.969	0.0156479
862.048	0.0156227
862.126	0.0154301
862.204	0.0153886
862.282	0.0152454
862.360	0.0152252
862.438	0.0152848
862.516	0.0152653
862.594	0.0153344
862.673	0.0152959
862.751	0.0151117
862.829	0.0151743
862.907	0.0150408
862.985	0.0150510
863.063	0.0149929
863.141	0.0150191
863.219	0.0150813
863.298	0.0150147
863.376	0.0150351
863.454	0.0149006
863.532	0.0148672
863.610	0.0149678
863.688	0.0149618
863.766	0.0149564
863.844	0.0148042
863.923	0.0147470
864.001	0.0147388
864.079	0.0148859
864.157	0.0147722
864.235	0.0146124
864.313	0.0147635
864.391	0.0146526
864.469	0.0146543
864.548	0.0146905
864.626	0.0147572
864.704	0.0148900
864.782	0.0148003
864.860	0.0148491
864.938	0.0148254
865.016	0.0147773
865.094	0.0149220
865.173	0.0149326
865.251	0.0148388
865.329	0.0149032
865.407	0.0149636
865.485	0.0150073
865.563	0.0150454
865.641	0.0149828
865.719	0.0150159
865.798	0.0150666
865.876	0.0150519
865.954	0.0150256
866.032	0.0150767
866.110	0.0151747
866.188	0.0151951
866.266	0.0153438
866.344	0.0153475
866.423	0.0153989
866.501	0.0153028
866.579	0.0152358
866.657	0.0152990
866.735	0.0154461
866.813	0.0152355
866.891	0.0154850
866.969	0.0153756
867.048	0.0153229
867.126	0.0153371
867.204	0.0153137
867.282	0.0153619
867.360	0.0153094
867.438	0.0152832
867.516	0.0152915
867.594	0.0153658
867.673	0.0152888
867.751	0.0153309
867.829	0.0151448
867.907	0.0152753
867.985	0.0153167
868.063	0.0153487
868.141	0.0152956
868.219	0.0152729
868.298	0.0153320
868.376	0.0152168
868.454	0.0152034
868.532	0.0152015
868.610	0.0152480
868.688	0.0152131
868.766	0.0151238
868.844	0.0150350
868.923	0.0151600
869.001	0.0149574
869.079	0.0150990
869.157	0.0149764
869.235	0.0148648
869.313	0.0148974
869.391	0.0148170
869.469	0.0148520
869.548	0.0147173
869.626	0.0147594
869.704	0.0147890
869.782	0.0147396
869.860	0.0148177
869.938	0.0149125
870.016	0.0147707
870.094	0.0148894
870.173	0.0148153
870.251	0.0148079
870.329	0.0147459
870.407	0.0149345
870.485	0.0149567
870.563	0.0149651
870.641	0.0149922
870.719	0.0150227
870.798	0.0149255
870.876	0.0150170
870.954	0.0150671
871.032	0.0150891
871.110	0.0151859
871.188	0.0149390
871.266	0.0151047
871.344	0.0150219
871.423	0.0152432
871.501	0.0151511
871.579	0.0151354
871.657	0.0151974
871.735	0.0151715
871.813	0.0151188
871.891	0.0151073
871.969	0.0151071
872.048	0.0149657
872.126	0.0151126
872.204	0.0150887
872.282	0.0150688
872.360	0.0150302
872.438	0.0151132
872.516	0.0151474
872.594	0.0151120
872.673	0.0150748
872.751	0.0151920
872.829	0.0151290
872.907	0.0151482
872.985	0.0150954
873.063	0.0149689
873.141	0.0152125
873.219	0.0152739
873.298	0.0151453
873.376	0.0152133
873.454	0.0150196
873.532	0.0151247
873.610	0.0150777
873.688	0.0151949
873.766	0.0151120
873.844	0.0152459
873.923	0.0152319
874.001	0.0152206
874.079	0.0152950
874.157	0.0152870
874.235	0.0154644
874.313	0.0154913
874.391	0.0154180
874.469	0.0154455
874.548	0.0153790
874.626	0.0155080
874.704	0.0151913
874.782	0.0154102
874.860	0.0153215
874.938	0.0153831
875.016	0.0153831
875.094	0.0151967
875.173	0.0151892
875.251	0.0151764
875.329	0.0150021
875.407	0.0150866
875.485	0.0152219
875.563	0.0152325
875.641	0.0150477
875.719	0.0151590
875.798	0.0151711
875.876	0.0150350
875.954	0.0151260
876.032	0.0149931
876.110	0.0149915
876.188	0.0151973
876.266	0.0150348
876.344	0.0150382
876.423	0.0150247
876.501	0.0149148
876.579	0.0148469
876.657	0.0149007
876.735	0.0148770
876.813	0.0148695
876.891	0.0148009
876.969	0.0146400
877.048	0.0147338
877.126	0.0147361
877.204	0.0146152
877.282	0.0149218
877.360	0.0148624
877.438	0.0147704
877.516	0.0147536
877.594	0.0147815
877.673	0.0148975
877.751	0.0149050
877.829	0.0149515
877.907	0.0148958
877.985	0.0149837
878.063	0.0150022
878.141	0.0150924
878.219	0.0150111
878.298	0.0150442
878.376	0.0151171
878.454	0.0150167
878.532	0.0152376
878.610	0.0152293
878.688	0.0152585
878.766	0.0151875
878.844	0.0152145
878.923	0.0153721
879.001	0.0152483
879.079	0.0152486
879.157	0.0152751
879.235	0.0153143
879.313	0.0153807
879.391	0.0151055
879.469	0.0153421
879.548	0.0151967
879.626	0.0151749
879.704	0.0151532
879.782	0.0152972
879.860	0.0151817
879.938	0.0152524
880.016	0.0153665
880.094	0.0151878
880.173	0.0152396
880.251	0.0151834
880.329	0.0151993
880.407	0.0151137
880.485	0.0152467
880.563	0.0150327
880.641	0.0150354
880.719	0.0151008
880.798	0.0151889
880.876	0.0150574
880.954	0.0151743
881.032	0.0151077
881.110	0.0151137
881.188	0.0151429
881.266	0.0151449
881.344	0.0149471
881.423	0.0150527
881.501	0.0150512
881.579	0.0150149
881.657	0.0150554
881.735	0.0151192
881.813	0.0150118
881.891	0.0149535
881.969	0.0149360
882.048	0.0148961
882.126	0.0149846
882.204	0.0150605
882.282	0.0149835
882.360	0.0151079
882.438	0.0151566
882.516	0.0152073
882.594	0.0153294
882.673	0.0152088
882.751	0.0152578
882.829	0.0155141
882.907	0.0154967
882.985	0.0153237
883.063	0.0151495
883.141	0.0150529
883.219	0.0150984
883.298	0.0149966
883.376	0.0148611
883.454	0.0146157
883.532	0.0145603
883.610	0.0146774
883.688	0.0143102
883.766	0.0144106
883.844	0.0145641
883.923	0.0146311
884.001	0.0146420
884.079	0.0148642
884.157	0.0150058
884.235	0.0150437
884.313	0.0152361
884.391	0.0153548
884.469	0.0153866
884.548	0.0157214
884.626	0.0157340
884.704	0.0157009
884.782	0.0157832
884.860	0.0157297
884.938	0.0158336
885.016	0.0155588
885.094	0.0156281
885.173	0.0156278
885.251	0.0153790
885.329	0.0153106
885.407	0.0152403
885.485	0.0150132
885.563	0.0150214
885.641	0.0149337
885.719	0.0148944
885.798	0.0148240
885.876	0.0147421
885.954	0.0146899
886.032	0.0147663
886.110	0.0148685
886.188	0.0149994
886.266	0.0148808
886.344	0.0151276
886.423	0.0150856
886.501	0.0152868
886.579	0.0154732
886.657	0.0154514
886.735	0.0153712
886.813	0.0156736
886.891	0.0154945
886.969	0.0154717
887.048	0.0155549
887.126	0.0155799
887.204	0.0153894
887.282	0.0154137
887.360	0.0153983
887.438	0.0153467
887.516	0.0151664
887.594	0.0150970
887.673	0.0151263
887.751	0.0149989
887.829	0.0150053
887.907	0.0146880
887.985	0.0148260
888.063	0.0147484
888.141	0.0146063
888.219	0.0144593
888.298	0.0146337
888.376	0.0144061
888.454	0.0145338
888.532	0.0146454
888.610	0.0147295
888.688	0.0146670
888.766	0.0147549
888.844	0.0147870
888.923	0.0148656
889.001	0.0148428
889.079	0.0148875
889.157	0.0149902
889.235	0.0151720
889.313	0.0150439
889.391	0.0150938
889.469	0.0152637
889.548	0.0153468
889.626	0.0152193
889.704	0.0152595
889.782	0.0153107
889.860	0.0154504
889.938	0.0154064
890.016	0.0155827
890.094	0.0154541
890.173	0.0155223
890.251	0.0155363
890.329	0.0154514
890.407	0.0155563
890.485	0.0154803
890.563	0.0155325
890.641	0.0153493
890.719	0.0153278
890.798	0.0153780
890.876	0.0154897
890.954	0.0153125
891.032	0.0151133
891.110	0.0151044
891.188	0.0152145
891.266	0.0151181
891.344	0.0150337
891.423	0.0149115
891.501	0.0148362
891.579	0.0147133
891.657	0.0147636
891.735	0.0148259
891.813	0.0147462
891.891	0.0147491
891.969	0.0148265
892.048	0.0148775
892.126	0.0147497
892.204	0.0147353
892.282	0.0148461
892.360	0.0150583
892.438	0.0151247
892.516	0.0151050
892.594	0.0150891
892.673	0.0150723
892.751	0.0152803
892.829	0.0150457
892.907	0.0150654
892.985	0.0152337
893.063	0.0151091
893.141	0.0152476
893.219	0.0151689
893.298	0.0151285
893.376	0.0152461
893.454	0.0151477
893.532	0.0152319
893.610	0.0152613
893.688	0.0151666
893.766	0.0151215
893.844	0.0151649
893.923	0.0152486
894.001	0.0150918
894.079	0.0150633
894.157	0.0152308
894.235	0.0150469
894.313	0.0149229
894.391	0.0149519
894.469	0.0149730
894.548	0.0148869
894.626	0.0148913
894.704	0.0149242
894.782	0.0148461
894.860	0.0148418
894.938	0.0148171
895.016	0.0148746
895.094	0.0149589
895.173	0.0149457
895.251	0.0149751
895.329	0.0149796
895.407	0.0149402
895.485	0.0149991
895.563	0.0150518
895.641	0.0150284
895.719	0.0151201
895.798	0.0151340
895.876	0.0150525
895.954	0.0150721
896.032	0.0151006
896.110	0.0152073
896.188	0.0152310
896.266	0.0153167
896.344	0.0152054
896.423	0.0152475
896.501	0.0151926
896.579	0.0152296
896.657	0.0153281
896.735	0.0152225
896.813	0.0152799
896.891	0.0151682
896.969	0.0150742
897.048	0.0151582
897.126	0.0152153
897.204	0.0150913
897.282	0.0150475
897.360	0.0151260
897.438	0.0151725
897.516	0.0151604
897.594	0.0151080
897.673	0.0152149
897.751	0.0153342
897.829	0.0153161
897.907	0.0151618
897.985	0.0152563
898.063	0.0152277
898.141	0.0152620
898.219	0.0151145
898.298	0.0151592
898.376	0.0150748
898.454	0.0151051
898.532	0.0149422
898.610	0.0147298
898.688	0.0148715
898.766	0.0148032
898.844	0.0148188
898.923	0.0148366
899.001	0.0149263
899.079	0.0147564
899.157	0.0149631
899.235	0.0149886
899.313	0.0149653
899.391	0.0149877
899.469	0.0150745
899.548	0.0149937
899.626	0.0150983
899.704	0.0151589
899.782	0.0150797
899.860	0.0150047
899.938	0.0150536
900.016	0.0149951
900.094	0.0149359
900.173	0.0149904
900.251	0.0150160
900.329	0.0151768
900.407	0.0150663
900.485	0.0150707
900.563	0.0150349
900.641	0.0151113
900.719	0.0151249
900.798	0.0152195
900.876	0.0152324
900.954	0.0151569
901.032	0.0150389
901.110	0.0151260
901.188	0.0150159
901.266	0.0152342
901.344	0.0151009
901.423	0.0151070
901.501	0.0151039
901.579	0.0150311
901.657	0.0150100
901.735	0.0150320
901.813	0.0150948
901.891	0.0150573
901.969	0.0151524
902.048	0.0152383
902.126	0.0152091
902.204	0.0152525
902.282	0.0152841
902.360	0.0152222
902.438	0.0151871
902.516	0.0151378
902.594	0.0153259
902.673	0.0151817
902.751	0.0150488
902.829	0.0150780
902.907	0.0151688
902.985	0.0149998
903.063	0.0151153
903.141	0.0150459
903.219	0.0150933
903.298	0.0151443
903.376	0.0150888
903.454	0.0150587
903.532	0.0151093
903.610	0.0149702
903.688	0.0150072
903.766	0.0150497
903.844	0.0150272
903.923	0.0149968
904.001	0.0149303
904.079	0.0149757
904.157	0.0149850
904.235	0.0150610
904.313	0.0149437
904.391	0.0148162
904.469	0.0148732
904.548	0.0149201
904.626	0.0148096
904.704	0.0147652
904.782	0.0147915
904.860	0.0149259
904.938	0.0148313
905.016	0.0148200
905.094	0.0146800
905.173	0.0148605
905.251	0.0148647
905.329	0.0148223
905.407	0.0148891
905.485	0.0148943
905.563	0.0148782
905.641	0.0150671
905.719	0.0150607
905.798	0.0152507
905.876	0.0151992
905.954	0.0154078
906.032	0.0154671
906.110	0.0153757
906.188	0.0154536
906.266	0.0153539
906.344	0.0155787
906.423	0.0156385
906.501	0.0155363
906.579	0.0155318
906.657	0.0155189
906.735	0.0154826
906.813	0.0154262
906.891	0.0155000
906.969	0.0153474
907.048	0.0153380
907.126	0.0153940
907.204	0.0153121
907.282	0.0151923
907.360	0.0150855
907.438	0.0149801
907.516	0.0149823
907.594	0.0149717
907.673	0.0150203
907.751	0.0150203
907.829	0.0149977
907.907	0.0149033
907.985	0.0149995
908.063	0.0150595
908.141	0.0150162
908.219	0.0150999
908.298	0.0150896
908.376	0.0152259
908.454	0.0152988
908.532	0.0151488
908.610	0.0150504
908.688	0.0151723
908.766	0.0153067
908.844	0.0152042
908.923	0.0151595
909.001	0.0151091
909.079	0.0152009
909.157	0.0151878
909.235	0.0151409
909.313	0.0149884
909.391	0.0150928
909.469	0.0150731
909.548	0.0150383
909.626	0.0150016
909.704	0.0149995
909.782	0.0149422
909.860	0.0148955
909.938	0.0149815
910.016	0.0149576
910.094	0.0148404
910.173	0.0149616
910.251	0.0150286
910.329	0.0150423
910.407	0.0151102
910.485	0.0149755
910.563	0.0150227
910.641	0.0150694
910.719	0.0151814
910.798	0.0151582
910.876	0.0151057
910.954	0.0150453
911.032	0.0150013
911.110	0.0151914
911.188	0.0150896
911.266	0.0150105
911.344	0.0151660
911.423	0.0153397
911.501	0.0152491
911.579	0.0151028
911.657	0.0152502
911.735	0.0152277
911.813	0.0151236
911.891	0.0150915
911.969	0.0152148
912.048	0.0152593
912.126	0.0152576
912.204	0.0150759
912.282	0.0151481
912.360	0.0151289
912.438	0.0148912
912.516	0.0149496
912.594	0.0149429
912.673	0.0148965
912.751	0.0150716
912.829	0.0149314
912.907	0.0149533
912.985	0.0149517
913.063	0.0148991
913.141	0.0149758
913.219	0.0149910
913.298	0.0151212
913.376	0.0149487
913.454	0.0149911
913.532	0.0150782
913.610	0.0151820
913.688	0.0151582
913.766	0.0153492
913.844	0.0153154
913.923	0.0151774
914.001	0.0152907
914.079	0.0152100
914.157	0.0154102
914.235	0.0153784
914.313	0.0153139
914.391	0.0152908
914.469	0.0152410
914.548	0.0151972
914.626	0.0152056
914.704	0.0151672
914.782	0.0149892
914.860	0.0151395
914.938	0.0150319
915.016	0.0149079
915.094	0.0149021
915.173	0.0149675
915.251	0.0148544
915.329	0.0148991
915.407	0.0147646
915.485	0.0147373
915.563	0.0147030
915.641	0.0147768
915.719	0.0149026
915.798	0.0148084
915.876	0.0148978
915.954	0.0149830
916.032	0.0149313
916.110	0.0149699
916.188	0.0150089
916.266	0.0150072
916.344	0.0151185
916.423	0.0150984
916.501	0.0151407
916.579	0.0151743
916.657	0.0150879
916.735	0.0151852
916.813	0.0151285
916.891	0.0150222
916.969	0.0150157
917.048	0.0150045
917.126	0.0150826
917.204	0.0150235
917.282	0.0149846
917.360	0.0149678
917.438	0.0149444
917.516	0.0150214
917.594	0.0150546
917.673	0.0149950
917.751	0.0149866
917.829	0.0151157
917.907	0.0150855
917.985	0.0151099
918.063	0.0151276
918.141	0.0149834
918.219	0.0151562
918.298	0.0150790
918.376	0.0151331
918.454	0.0149810
918.532	0.0149944
918.610	0.0151726
918.688	0.0151563
918.766	0.0150826
918.844	0.0151587
918.923	0.0150086
919.001	0.0149979
919.079	0.0152608
919.157	0.0151717
919.235	0.0151034
919.313	0.0152177
919.391	0.0150564
919.469	0.0152188
919.548	0.0152367
919.626	0.0152886
919.704	0.0152273
919.782	0.0152639
919.860	0.0153117
919.938	0.0152361
920.016	0.0152944
920.094	0.0151218
920.173	0.0153039
920.251	0.0153954
920.329	0.0151331
920.407	0.0151718
920.485	0.0153336
920.563	0.0150666
920.641	0.0149519
920.719	0.0150497
920.798	0.0150642
920.876	0.0152312
920.954	0.0149281
921.032	0.0149035
921.110	0.0148785
921.188	0.0148134
921.266	0.0148489
921.344	0.0150127
921.423	0.0149063
921.501	0.0148987
921.579	0.0150578
921.657	0.0150463
921.735	0.0150031
921.813	0.0150202
921.891	0.0151118
921.969	0.0150359
922.048	0.0150964
922.126	0.0151820
922.204	0.0151131
922.282	0.0151199
922.360	0.0152355
922.438	0.0151661
922.516	0.0152455
922.594	0.0153677
922.673	0.0153856
922.751	0.0152521
922.829	0.0154243
922.907	0.0154137
922.985	0.0153327
923.063	0.0152541
923.141	0.0153473
923.219	0.0153101
923.298	0.0151539
923.376	0.0152937
923.454	0.0152803
923.532	0.0152011
923.610	0.0153525
923.688	0.0152973
923.766	0.0152472
923.844	0.0150922
923.923	0.0152730
924.001	0.0152016
924.079	0.0151030
924.157	0.0150704
924.235	0.0150641
924.313	0.0150452
924.391	0.0151087
924.469	0.0151082
924.548	0.0151458
924.626	0.0150230
924.704	0.0150008
924.782	0.0148852
924.860	0.0149500
924.938	0.0149934
925.016	0.0150495
925.094	0.0149960
925.173	0.0149687
925.251	0.0150404
925.329	0.0150792
925.407	0.0148958
925.485	0.0150539
925.563	0.0149809
925.641	0.0150323
925.719	0.0150574
925.798	0.0150923
925.876	0.0150533
925.954	0.0150407
926.032	0.0150368
926.110	0.0151282
926.188	0.0149297
926.266	0.0150696
926.344	0.0150487
926.423	0.0151064
926.501	0.0151772
926.579	0.0150806
926.657	0.0152427
926.735	0.0151586
926.813	0.0151933
926.891	0.0151521
926.969	0.0152086
927.048	0.0152716
927.126	0.0152559
927.204	0.0152018
927.282	0.0152609
927.360	0.0153044
927.438	0.0151584
927.516	0.0152704
927.594	0.0152700
927.673	0.0152908
927.751	0.0152878
927.829	0.0151554
927.907	0.0151823
927.985	0.0151412
928.063	0.0151762
928.141	0.0150898
928.219	0.0150928
928.298	0.0150868
928.376	0.0151294
928.454	0.0151418
928.532	0.0151230
928.610	0.0150690
928.688	0.0150458
928.766	0.0150736
928.844	0.0151441
928.923	0.0150444
929.001	0.0151254
929.079	0.0150362
929.157	0.0150897
929.235	0.0150394
929.313	0.0152520
929.391	0.0150540
929.469	0.0149452
929.548	0.0150675
929.626	0.0150550
929.704	0.0149897
929.782	0.0148750
929.860	0.0150072
929.938	0.0150551
930.016	0.0148727
930.094	0.0149699
930.173	0.0150970
930.251	0.0148878
930.329	0.0151243
930.407	0.0149821
930.485	0.0149345
930.563	0.0150995
930.641	0.0150824
930.719	0.0150227
930.798	0.0151646
930.876	0.0150954
930.954	0.0152072
931.032	0.0150085
931.110	0.0150436
931.188	0.0150920
931.266	0.0149973
931.344	0.0151427
931.423	0.0152296
931.501	0.0151367
931.579	0.0152821
931.657	0.0150587
931.735	0.0150309
931.813	0.0151642
931.891	0.0152979
931.969	0.0150748
932.048	0.0152937
932.126	0.0152671
932.204	0.0152249
932.282	0.0152091
932.360	0.0153204
932.438	0.0152903
932.516	0.0153146
932.594	0.0152059
932.673	0.0151878
932.751	0.0151752
932.829	0.0150861
932.907	0.0152504
932.985	0.0150174
933.063	0.0150932
933.141	0.0150771
933.219	0.0151571
933.298	0.0150019
933.376	0.0150443
933.454	0.0151583
933.532	0.0149134
933.610	0.0149938
933.688	0.0151250
933.766	0.0151835
933.844	0.0151685
933.923	0.0152248
934.001	0.0152254
934.079	0.0153661
934.157	0.0154345
934.235	0.0153104
934.313	0.0152808
934.391	0.0152895
934.469	0.0152811
934.548	0.0152351
934.626	0.0151744
934.704	0.0151723
934.782	0.0150304
934.860	0.0151416
934.938	0.0150569
935.016	0.0150731
935.094	0.0150545
935.173	0.0150627
935.251	0.0149155
935.329	0.0149588
935.407	0.0150280
935.485	0.0149089
935.563	0.0149416
935.641	0.0149468
935.719	0.0149924
935.798	0.0150497
935.876	0.0150591
935.954	0.0149243
936.032	0.0151022
936.110	0.0150065
936.188	0.0151360
936.266	0.0152033
936.344	0.0151679
936.423	0.0151455
936.501	0.0152505
936.579	0.0152030
936.657	0.0151598
936.735	0.0151955
936.813	0.0151198
936.891	0.0152202
936.969	0.0152073
937.048	0.0153682
937.126	0.0154619
937.204	0.0153884
937.282	0.0154267
937.360	0.0154147
937.438	0.0153844
937.516	0.0153986
937.594	0.0154068
937.673	0.0153388
937.751	0.0154335
937.829	0.0153807
937.907	0.0152396
937.985	0.0152050
938.063	0.0153014
938.141	0.0151904
938.219	0.0150185
938.298	0.0149879
938.376	0.0151308
938.454	0.0149482
938.532	0.0150024
938.610	0.0150864
938.688	0.0150488
938.766	0.0149588
938.844	0.0148385
938.923	0.0148315
939.001	0.0150072
939.079	0.0150365
939.157	0.0148978
939.235	0.0149241
939.313	0.0150397
939.391	0.0148955
939.469	0.0150095
939.548	0.0148227
939.626	0.0151078
939.704	0.0150343
939.782	0.0150617
939.860	0.0148863
939.938	0.0150185
940.016	0.0149879
940.094	0.0151340
940.173	0.0152577
940.251	0.0151286
940.329	0.0150866
940.407	0.0152122
940.485	0.0153035
940.563	0.0151761
940.641	0.0153075
940.719	0.0152249
940.798	0.0153031
940.876	0.0152791
940.954	0.0152088
941.032	0.0151598
941.110	0.0153021
941.188	0.0153294
941.266	0.0152755
941.344	0.0151595
941.423	0.0152294
941.501	0.0151896
941.579	0.0152576
941.657	0.0151199
941.735	0.0152157
941.813	0.0151133
941.891	0.0151923
941.969	0.0151774
942.048	0.0151384
942.126	0.0150344
942.204	0.0150642
942.282	0.0150983
942.360	0.0149841
942.438	0.0152049
942.516	0.0150719
942.594	0.0152351
942.673	0.0152603
942.751	0.0151299
942.829	0.0151515
942.907	0.0151846
942.985	0.0151514
943.063	0.0150809
943.141	0.0151752
943.219	0.0152003
943.298	0.0151019
943.376	0.0151162
943.454	0.0152545
943.532	0.0149065
943.610	0.0148492
943.688	0.0150542
943.766	0.0149390
943.844	0.0150796
943.923	0.0149830
944.001	0.0149666
944.079	0.0150488
944.157	0.0150446
944.235	0.0150520
944.313	0.0149736
944.391	0.0150440
944.469	0.0150903
944.548	0.0150896
944.626	0.0151184
944.704	0.0151262
944.782	0.0150990
944.860	0.0150499
944.938	0.0150954
945.016	0.0150921
945.094	0.0150621
945.173	0.0151504
945.251	0.0151528
945.329	0.0152064
945.407	0.0150894
945.485	0.0151581
945.563	0.0152188
945.641	0.0152144
945.719	0.0152055
945.798	0.0152263
945.876	0.0154447
945.954	0.0152941
946.032	0.0151957
946.110	0.0150938
946.188	0.0153094
946.266	0.0152702
946.344	0.0153168
946.423	0.0152218
946.501	0.0151082
946.579	0.0151575
946.657	0.0151536
946.735	0.0151665
946.813	0.0150989
946.891	0.0152627
946.969	0.0151181
947.048	0.0152156
947.126	0.0150640
947.204	0.0151223
947.282	0.0151120
947.360	0.0149971
947.438	0.0149902
947.516	0.0149873
947.594	0.0150943
947.673	0.0150320
947.751	0.0150053
947.829	0.0150347
947.907	0.0150195
947.985	0.0150777
948.063	0.0150649
948.141	0.0149846
948.219	0.0151213
948.298	0.0150688
948.376	0.0149367
948.454	0.0150592
948.532	0.0151040
948.610	0.0151247
948.688	0.0151170
948.766	0.0151538
948.844	0.0152562
948.923	0.0151954
949.001	0.0151351
949.079	0.0151489
949.157	0.0152331
949.235	0.0151686
949.313	0.0152061
949.391	0.0152473
949.469	0.0152193
949.548	0.0151631
949.626	0.0151650
949.704	0.0152321
949.782	0.0152084
949.860	0.0151753
949.938	0.0152544
950.016	0.0152271
950.094	0.0151204
950.173	0.0151333
950.251	0.0151495
950.329	0.0152608
950.407	0.0152287
950.485	0.0153041
950.563	0.0152808
950.641	0.0151372
950.719	0.0151293
950.798	0.0152498
950.876	0.0152942
950.954	0.0151170
951.032	0.0152545
951.110	0.0153877
951.188	0.0150903
951.266	0.0150923
951.344	0.0152248
951.423	0.0153094
951.501	0.0149946
951.579	0.0151453
951.657	0.0152016
951.735	0.0150980
951.813	0.0150581
951.891	0.0150307
951.969	0.0151225
952.048	0.0151940
952.126	0.0150379
952.204	0.0148877
952.282	0.0149365
952.360	0.0151138
952.438	0.0150070
952.516	0.0150677
952.594	0.0151404
952.673	0.0151210
952.751	0.0151953
952.829	0.0151233
952.907	0.0150826
952.985	0.0151820
953.063	0.0152950
953.141	0.0151950
953.219	0.0152351
953.298	0.0152429
953.376	0.0152088
953.454	0.0152635
953.532	0.0153514
953.610	0.0151970
953.688	0.0151128
953.766	0.0152322
953.844	0.0151357
953.923	0.0151387
954.001	0.0150655
954.079	0.0151472
954.157	0.0150561
954.235	0.0149583
954.313	0.0149540
954.391	0.0150581
954.469	0.0149889
954.548	0.0151646
954.626	0.0151673
954.704	0.0152025
954.782	0.0149684
954.860	0.0150030
954.938	0.0150429
955.016	0.0150727
955.094	0.0150775
955.173	0.0150171
955.251	0.0150784
955.329	0.0151398
955.407	0.0150380
955.485	0.0150875
955.563	0.0150528
955.641	0.0151782
955.719	0.0150251
955.798	0.0150349
955.876	0.0151309
955.954	0.0151250
956.032	0.0151787
956.110	0.0150523
956.188	0.0151320
956.266	0.0150687
956.344	0.0151677
956.423	0.0149894
956.501	0.0150821
956.579	0.0151044
956.657	0.0151228
956.735	0.0151845
956.813	0.0151167
956.891	0.0152360
956.969	0.0150842
957.048	0.0149516
957.126	0.0150559
957.204	0.0149853
957.282	0.0149934
957.360	0.0150835
957.438	0.0152222
957.516	0.0151774
957.594	0.0151731
957.673	0.0150323
957.751	0.0152228
957.829	0.0151501
957.907	0.0152290
957.985	0.0152657
958.063	0.0153548
958.141	0.0154414
958.219	0.0153038
958.298	0.0152643
958.376	0.0151295
958.454	0.0151991
958.532	0.0150845
958.610	0.0152032
958.688	0.0151796
958.766	0.0151779
958.844	0.0150909
958.923	0.0152669
959.001	0.0153138
959.079	0.0152010
959.157	0.0150472
959.235	0.0152376
959.313	0.0151892
959.391	0.0152069
959.469	0.0152109
959.548	0.0150850
959.626	0.0150498
959.704	0.0151344
959.782	0.0149948
959.860	0.0150093
959.938	0.0149745
960.016	0.0150686
960.094	0.0152277
960.173	0.0152216
960.251	0.0152135
960.329	0.0152071
960.407	0.0151906
960.485	0.0151430
960.563	0.0150514
960.641	0.0151122
960.719	0.0150336
960.798	0.0149834
960.876	0.0148486
960.954	0.0148251
961.032	0.0147171
961.110	0.0146902
961.188	0.0147129
961.266	0.0149828
961.344	0.0150133
961.423	0.0150935
961.501	0.0151080
961.579	0.0152695
961.657	0.0153011
961.735	0.0152228
961.813	0.0153361
961.891	0.0152619
961.969	0.0152307
962.048	0.0151398
962.126	0.0151958
962.204	0.0150977
962.282	0.0150782
962.360	0.0149636
962.438	0.0148684
962.516	0.0148723
962.594	0.0149986
962.673	0.0150871
962.751	0.0150414
962.829	0.0151508
962.907	0.0152001
962.985	0.0151913
963.063	0.0153264
963.141	0.0153843
963.219	0.0155033
963.298	0.0153966
963.376	0.0155612
963.454	0.0156172
963.532	0.0154357
963.610	0.0153645
963.688	0.0152629
963.766	0.0151562
963.844	0.0150237
963.923	0.0150902
964.001	0.0150783
964.079	0.0147442
964.157	0.0148976
964.235	0.0147469
964.313	0.0148347
964.391	0.0149648
964.469	0.0150423
964.548	0.0151327
964.626	0.0151878
964.704	0.0152137
964.782	0.0152528
964.860	0.0153372
964.938	0.0153577
965.016	0.0153774
965.094	0.0153632
965.173	0.0154449
965.251	0.0154179
965.329	0.0151182
965.407	0.0151273
965.485	0.0150729
965.563	0.0150102
965.641	0.0149450
965.719	0.0148344
965.798	0.0146028
965.876	0.0146365
965.954	0.0147859
966.032	0.0146894
966.110	0.0146917
966.188	0.0147110
966.266	0.0147823
966.344	0.0148986
966.423	0.0150901
966.501	0.0150756
966.579	0.0152119
966.657	0.0152919
966.735	0.0153417
966.813	0.0154082
966.891	0.0155466
966.969	0.0153587
967.048	0.0154845
967.126	0.0153554
967.204	0.0153185
967.282	0.0153026
967.360	0.0152771
967.438	0.0153207
967.516	0.0151169
967.594	0.0150035
967.673	0.0148994
967.751	0.0149679
967.829	0.0148491
967.907	0.0148616
967.985	0.0148303
968.063	0.0149242
968.141	0.0149061
968.219	0.0147980
968.298	0.0149095
968.376	0.0149020
968.454	0.0148261
968.532	0.0149555
968.610	0.0150247
968.688	0.0150184
968.766	0.0149557
968.844	0.0149290
968.923	0.0151065
969.001	0.0150680
969.079	0.0151115
969.157	0.0151813
969.235	0.0152386
969.313	0.0153417
969.391	0.0153513
969.469	0.0152810
969.548	0.0154234
969.626	0.0152971
969.704	0.0154266
969.782	0.0154948
969.860	0.0154468
969.938	0.0154502
