05/14/2022	19:44:11	Ver.	4.1	UNKNOWN
Optical Delay	630.022520	Delta X		0.078125	Sweeps	1	Scan Rate	0/0
Coordinates	Axis 1	NaN	Axis 2	NaN	Axis 3	NaN	Axis 4	NaN	Axis 5	NaN	Axis 6	0.000000
TX Power	0.000000	RX Power	0.000000

630.023	0.0150311
630.101	0.0148605
630.179	0.0148333
630.257	0.0149548
630.335	0.0149735
630.413	0.0149896
630.491	0.0148748
630.569	0.0148852
630.648	0.0149487
630.726	0.0148152
630.804	0.0149861
630.882	0.0148981
630.960	0.0148702
631.038	0.0150114
631.116	0.0151196
631.194	0.0149371
631.273	0.0149422
631.351	0.0148151
631.429	0.0149016
631.507	0.0148682
631.585	0.0146956
631.663	0.0148381
631.741	0.0148135
631.819	0.0149597
631.898	0.0149582
631.976	0.0149522
632.054	0.0148956
632.132	0.0148631
632.210	0.0148730
632.288	0.0149285
632.366	0.0147199
632.444	0.0149559
632.523	0.0148186
632.601	0.0147950
632.679	0.0148556
632.757	0.0148839
632.835	0.0150032
632.913	0.0148528
632.991	0.0148380
633.069	0.0149376
633.148	0.0148592
633.226	0.0148685
633.304	0.0146574
633.382	0.0148145
633.460	0.0148423
633.538	0.0148557
633.616	0.0149094
633.694	0.0150017
633.773	0.0149133
633.851	0.0148071
633.929	0.0149892
634.007	0.0149700
634.085	0.0149648
634.163	0.0149543
634.241	0.0149133
634.319	0.0147932
634.398	0.0150066
634.476	0.0149718
634.554	0.0148962
634.632	0.0149862
634.710	0.0149094
634.788	0.0150839
634.866	0.0148565
634.944	0.0148889
635.023	0.0151091
635.101	0.0150027
635.179	0.0149728
635.257	0.0149849
635.335	0.0149755
635.413	0.0148504
635.491	0.0149573
635.569	0.0149666
635.648	0.0149120
635.726	0.0148657
635.804	0.0150648
635.882	0.0151947
635.960	0.0151965
636.038	0.0150100
636.116	0.0150732
636.194	0.0150687
636.273	0.0151415
636.351	0.0151902
636.429	0.0152318
636.507	0.0150604
636.585	0.0150894
636.663	0.0150696
636.741	0.0151185
636.819	0.0151518
636.898	0.0151044
636.976	0.0151325
637.054	0.0151735
637.132	0.0150057
637.210	0.0151018
637.288	0.0151324
637.366	0.0151383
637.444	0.0151929
637.523	0.0151799
637.601	0.0151104
637.679	0.0150760
637.757	0.0150711
637.835	0.0151871
637.913	0.0151394
637.991	0.0150295
638.069	0.0150672
638.148	0.0149229
638.226	0.0149780
638.304	0.0150327
638.382	0.0149852
638.460	0.0149702
638.538	0.0151482
638.616	0.0149858
638.694	0.0149512
638.773	0.0150162
638.851	0.0149712
638.929	0.0149657
639.007	0.0150143
639.085	0.0148123
639.163	0.0147878
639.241	0.0148215
639.319	0.0147955
639.398	0.0147832
639.476	0.0148966
639.554	0.0148842
639.632	0.0148794
639.710	0.0148445
639.788	0.0149991
639.866	0.0149748
639.944	0.0147809
640.023	0.0148994
640.101	0.0149176
640.179	0.0148280
640.257	0.0148573
640.335	0.0149480
640.413	0.0148944
640.491	0.0148634
640.569	0.0149227
640.648	0.0149321
640.726	0.0149773
640.804	0.0147621
640.882	0.0148855
640.960	0.0149596
641.038	0.0149879
641.116	0.0149788
641.194	0.0150314
641.273	0.0149725
641.351	0.0149195
641.429	0.0150169
641.507	0.0150645
641.585	0.0149185
641.663	0.0149953
641.741	0.0149906
641.819	0.0149908
641.898	0.0149558
641.976	0.0150607
642.054	0.0151172
642.132	0.0151727
642.210	0.0150956
642.288	0.0149852
642.366	0.0150450
642.444	0.0148900
642.523	0.0150468
642.601	0.0147968
642.679	0.0149282
642.757	0.0149318
642.835	0.0149215
642.913	0.0149393
642.991	0.0149229
643.069	0.0149122
643.148	0.0148462
643.226	0.0149902
643.304	0.0147966
643.382	0.0149617
643.460	0.0149969
643.538	0.0149693
643.616	0.0149934
643.694	0.0151105
643.773	0.0149743
643.851	0.0149301
643.929	0.0151991
644.007	0.0151549
644.085	0.0151263
644.163	0.0151785
644.241	0.0150849
644.319	0.0150945
644.398	0.0150072
644.476	0.0150694
644.554	0.0150401
644.632	0.0149374
644.710	0.0148248
644.788	0.0149954
644.866	0.0148299
644.944	0.0147610
645.023	0.0149597
645.101	0.0149477
645.179	0.0148885
645.257	0.0147859
645.335	0.0148478
645.413	0.0148174
645.491	0.0147259
645.569	0.0148788
645.648	0.0147665
645.726	0.0147227
645.804	0.0148421
645.882	0.0148698
645.960	0.0150107
646.038	0.0147706
646.116	0.0147164
646.194	0.0148134
646.273	0.0149364
646.351	0.0150038
646.429	0.0149889
646.507	0.0150305
646.585	0.0149563
646.663	0.0149406
646.741	0.0148695
646.819	0.0148097
646.898	0.0149689
646.976	0.0149569
647.054	0.0149792
647.132	0.0148098
647.210	0.0150793
647.288	0.0149406
647.366	0.0150759
647.444	0.0149696
647.523	0.0150724
647.601	0.0148868
647.679	0.0148650
647.757	0.0148238
647.835	0.0148257
647.913	0.0147958
647.991	0.0148105
648.069	0.0147715
648.148	0.0146346
648.226	0.0147088
648.304	0.0148780
648.382	0.0145674
648.460	0.0146062
648.538	0.0147376
648.616	0.0148022
648.694	0.0145914
648.773	0.0145842
648.851	0.0148167
648.929	0.0149046
649.007	0.0147803
649.085	0.0147751
649.163	0.0147409
649.241	0.0149543
649.319	0.0149155
649.398	0.0150298
649.476	0.0150039
649.554	0.0150755
649.632	0.0149136
649.710	0.0149904
649.788	0.0150282
649.866	0.0149286
649.944	0.0148830
650.023	0.0150816
650.101	0.0150303
650.179	0.0149495
650.257	0.0148505
650.335	0.0148783
650.413	0.0147807
650.491	0.0148929
650.569	0.0147568
650.648	0.0149366
650.726	0.0149012
650.804	0.0149091
650.882	0.0148831
650.960	0.0148446
651.038	0.0151517
651.116	0.0149734
651.194	0.0149831
651.273	0.0151544
651.351	0.0151466
651.429	0.0152213
651.507	0.0153920
651.585	0.0151708
651.663	0.0154001
651.741	0.0153974
651.819	0.0153162
651.898	0.0153631
651.976	0.0153434
652.054	0.0151339
652.132	0.0151498
652.210	0.0151455
652.288	0.0150005
652.366	0.0147350
652.444	0.0145860
652.523	0.0148646
652.601	0.0147258
652.679	0.0147766
652.757	0.0145875
652.835	0.0146384
652.913	0.0145693
652.991	0.0145279
653.069	0.0144928
653.148	0.0145707
653.226	0.0146589
653.304	0.0146918
653.382	0.0147887
653.460	0.0149303
653.538	0.0149860
653.616	0.0151797
653.694	0.0150826
653.773	0.0151724
653.851	0.0152892
653.929	0.0154047
654.007	0.0152586
654.085	0.0152489
654.163	0.0153353
654.241	0.0153279
654.319	0.0153742
654.398	0.0151627
654.476	0.0151780
654.554	0.0151730
654.632	0.0149708
654.710	0.0149377
654.788	0.0148161
654.866	0.0146923
654.944	0.0146941
655.023	0.0145090
655.101	0.0144747
655.179	0.0143648
655.257	0.0144108
655.335	0.0144160
655.413	0.0142058
655.491	0.0141970
655.569	0.0143167
655.648	0.0143391
655.726	0.0142779
655.804	0.0143073
655.882	0.0144722
655.960	0.0146022
656.038	0.0147816
656.116	0.0150660
656.194	0.0151492
656.273	0.0152466
656.351	0.0154121
656.429	0.0156483
656.507	0.0157670
656.585	0.0160501
656.663	0.0159989
656.741	0.0159442
656.819	0.0159578
656.898	0.0161191
656.976	0.0161062
657.054	0.0159594
657.132	0.0159111
657.210	0.0156439
657.288	0.0154480
657.366	0.0151810
657.444	0.0150131
657.523	0.0147192
657.601	0.0144432
657.679	0.0142616
657.757	0.0140261
657.835	0.0139300
657.913	0.0135504
657.991	0.0135569
658.069	0.0135192
658.148	0.0136993
658.226	0.0136396
658.304	0.0136989
658.382	0.0136741
658.460	0.0138689
658.538	0.0140669
658.616	0.0143462
658.694	0.0145337
658.773	0.0145777
658.851	0.0149959
658.929	0.0150934
659.007	0.0152745
659.085	0.0154367
659.163	0.0158740
659.241	0.0158371
659.319	0.0161667
659.398	0.0161254
659.476	0.0163844
659.554	0.0164165
659.632	0.0163927
659.710	0.0165023
659.788	0.0164050
659.866	0.0162997
659.944	0.0161524
660.023	0.0160432
660.101	0.0159875
660.179	0.0157210
660.257	0.0156567
660.335	0.0154423
660.413	0.0152471
660.491	0.0150391
660.569	0.0147170
660.648	0.0146815
660.726	0.0146277
660.804	0.0143691
660.882	0.0142439
660.960	0.0143102
661.038	0.0141640
661.116	0.0140810
661.194	0.0140115
661.273	0.0140323
661.351	0.0139917
661.429	0.0139141
661.507	0.0142278
661.585	0.0141577
661.663	0.0140423
661.741	0.0141706
661.819	0.0142171
661.898	0.0140527
661.976	0.0143707
662.054	0.0143719
662.132	0.0144311
662.210	0.0143756
662.288	0.0143167
662.366	0.0144457
662.444	0.0144690
662.523	0.0144846
662.601	0.0146049
662.679	0.0146530
662.757	0.0147036
662.835	0.0147608
662.913	0.0148103
662.991	0.0149842
663.069	0.0150803
663.148	0.0151514
663.226	0.0153758
663.304	0.0155201
663.382	0.0157838
663.460	0.0159053
663.538	0.0160089
663.616	0.0161147
663.694	0.0161855
663.773	0.0164664
663.851	0.0164414
663.929	0.0166662
664.007	0.0168091
664.085	0.0168005
664.163	0.0168058
664.241	0.0168116
664.319	0.0166623
664.398	0.0168658
664.476	0.0166385
664.554	0.0163958
664.632	0.0161922
664.710	0.0159974
664.788	0.0158022
664.866	0.0155364
664.944	0.0152681
665.023	0.0149355
665.101	0.0145832
665.179	0.0141076
665.257	0.0139542
665.335	0.0135678
665.413	0.0131751
665.491	0.0128947
665.569	0.0125616
665.648	0.0123786
665.726	0.0121289
665.804	0.0119769
665.882	0.0119080
665.960	0.0116304
666.038	0.0116788
666.116	0.0118460
666.194	0.0119291
666.273	0.0122963
666.351	0.0123720
666.429	0.0124962
666.507	0.0129894
666.585	0.0133372
666.663	0.0135511
666.741	0.0140164
666.819	0.0145837
666.898	0.0149570
666.976	0.0155569
667.054	0.0158444
667.132	0.0161182
667.210	0.0165742
667.288	0.0168443
667.366	0.0171328
667.444	0.0173613
667.523	0.0176861
667.601	0.0180091
667.679	0.0179870
667.757	0.0181452
667.835	0.0182333
667.913	0.0183811
667.991	0.0183409
668.069	0.0183252
668.148	0.0181096
668.226	0.0177765
668.304	0.0176624
668.382	0.0174779
668.460	0.0172881
668.538	0.0170580
668.616	0.0168125
668.694	0.0163026
668.773	0.0158829
668.851	0.0157034
668.929	0.0152102
669.007	0.0148498
669.085	0.0146259
669.163	0.0143372
669.241	0.0139610
669.319	0.0134994
669.398	0.0132169
669.476	0.0130092
669.554	0.0127110
669.632	0.0124628
669.710	0.0121268
669.788	0.0119530
669.866	0.0117455
669.944	0.0115232
670.023	0.0115733
670.101	0.0115906
670.179	0.0114172
670.257	0.0115131
670.335	0.0116791
670.413	0.0118568
670.491	0.0120316
670.569	0.0121838
670.648	0.0124514
670.726	0.0128400
670.804	0.0131506
670.882	0.0134424
670.960	0.0139996
671.038	0.0142692
671.116	0.0145396
671.194	0.0148740
671.273	0.0151784
671.351	0.0155102
671.429	0.0159389
671.507	0.0160915
671.585	0.0161772
671.663	0.0164154
671.741	0.0166675
671.819	0.0169466
671.898	0.0169901
671.976	0.0174049
672.054	0.0173153
672.132	0.0174127
672.210	0.0176402
672.288	0.0177306
672.366	0.0177882
672.444	0.0177705
672.523	0.0178073
672.601	0.0178123
672.679	0.0178869
672.757	0.0177656
672.835	0.0176677
672.913	0.0173023
672.991	0.0173764
673.069	0.0173322
673.148	0.0169570
673.226	0.0166400
673.304	0.0165997
673.382	0.0163650
673.460	0.0160583
673.538	0.0157385
673.616	0.0155505
673.694	0.0152052
673.773	0.0149506
673.851	0.0146496
673.929	0.0143705
674.007	0.0140099
674.085	0.0136148
674.163	0.0132858
674.241	0.0129027
674.319	0.0125945
674.398	0.0122569
674.476	0.0120323
674.554	0.0119154
674.632	0.0114840
674.710	0.0113645
674.788	0.0113503
674.866	0.0111225
674.944	0.0109482
675.023	0.0109399
675.101	0.0109763
675.179	0.0110921
675.257	0.0113062
675.335	0.0114983
675.413	0.0116414
675.491	0.0118688
675.569	0.0123974
675.648	0.0128365
675.726	0.0131285
675.804	0.0136744
675.882	0.0142381
675.960	0.0147789
676.038	0.0153449
676.116	0.0158002
676.194	0.0162667
676.273	0.0168385
676.351	0.0173028
676.429	0.0176093
676.507	0.0179283
676.585	0.0183009
676.663	0.0183930
676.741	0.0186614
676.819	0.0189059
676.898	0.0189696
676.976	0.0190442
677.054	0.0189658
677.132	0.0189067
677.210	0.0189604
677.288	0.0187362
677.366	0.0185650
677.444	0.0184689
677.523	0.0181142
677.601	0.0178485
677.679	0.0174740
677.757	0.0170036
677.835	0.0167449
677.913	0.0162734
677.991	0.0158026
678.069	0.0153812
678.148	0.0148157
678.226	0.0144251
678.304	0.0142944
678.382	0.0137329
678.460	0.0134022
678.538	0.0131153
678.616	0.0127154
678.694	0.0125152
678.773	0.0122039
678.851	0.0120477
678.929	0.0119609
679.007	0.0117476
679.085	0.0118578
679.163	0.0118566
679.241	0.0117760
679.319	0.0118488
679.398	0.0119312
679.476	0.0120079
679.554	0.0123267
679.632	0.0124290
679.710	0.0125880
679.788	0.0128773
679.866	0.0132237
679.944	0.0134476
680.023	0.0136843
680.101	0.0139014
680.179	0.0141959
680.257	0.0147202
680.335	0.0149813
680.413	0.0150330
680.491	0.0154355
680.569	0.0156016
680.648	0.0157430
680.726	0.0159641
680.804	0.0160550
680.882	0.0160926
680.960	0.0162755
681.038	0.0162617
681.116	0.0163506
681.194	0.0161937
681.273	0.0162137
681.351	0.0160323
681.429	0.0160288
681.507	0.0159217
681.585	0.0157199
681.663	0.0157234
681.741	0.0154607
681.819	0.0153905
681.898	0.0153040
681.976	0.0151638
682.054	0.0150925
682.132	0.0150450
682.210	0.0149952
682.288	0.0148946
682.366	0.0148579
682.444	0.0149001
682.523	0.0148038
682.601	0.0148524
682.679	0.0148418
682.757	0.0150438
682.835	0.0150540
682.913	0.0150552
682.991	0.0151914
683.069	0.0152344
683.148	0.0154795
683.226	0.0155849
683.304	0.0155519
683.382	0.0157633
683.460	0.0158698
683.538	0.0158099
683.616	0.0159806
683.694	0.0160520
683.773	0.0161338
683.851	0.0161599
683.929	0.0161577
684.007	0.0161736
684.085	0.0160154
684.163	0.0159052
684.241	0.0157929
684.319	0.0156756
684.398	0.0155359
684.476	0.0155929
684.554	0.0154982
684.632	0.0152599
684.710	0.0150879
684.788	0.0149015
684.866	0.0146413
684.944	0.0146349
685.023	0.0144640
685.101	0.0141573
685.179	0.0141272
685.257	0.0138472
685.335	0.0137480
685.413	0.0136375
685.491	0.0135506
685.569	0.0134280
685.648	0.0131203
685.726	0.0132089
685.804	0.0130743
685.882	0.0131357
685.960	0.0129871
686.038	0.0130436
686.116	0.0130322
686.194	0.0129100
686.273	0.0129988
686.351	0.0131043
686.429	0.0133952
686.507	0.0132780
686.585	0.0134331
686.663	0.0135913
686.741	0.0136942
686.819	0.0139992
686.898	0.0142255
686.976	0.0144917
687.054	0.0147227
687.132	0.0151667
687.210	0.0155341
687.288	0.0157967
687.366	0.0160857
687.444	0.0163890
687.523	0.0168516
687.601	0.0169279
687.679	0.0170404
687.757	0.0173755
687.835	0.0174899
687.913	0.0175627
687.991	0.0176060
688.069	0.0176997
688.148	0.0175410
688.226	0.0175934
688.304	0.0175212
688.382	0.0172842
688.460	0.0170660
688.538	0.0170180
688.616	0.0168230
688.694	0.0162993
688.773	0.0160525
688.851	0.0158018
688.929	0.0153740
689.007	0.0151044
689.085	0.0147444
689.163	0.0143998
689.241	0.0142089
689.319	0.0138687
689.398	0.0135650
689.476	0.0135491
689.554	0.0134817
689.632	0.0133389
689.710	0.0134367
689.788	0.0133409
689.866	0.0134454
689.944	0.0133634
690.023	0.0134488
690.101	0.0135950
690.179	0.0137795
690.257	0.0139998
690.335	0.0140414
690.413	0.0142384
690.491	0.0143700
690.569	0.0146057
690.648	0.0148811
690.726	0.0150404
690.804	0.0151162
690.882	0.0153896
690.960	0.0155328
691.038	0.0155790
691.116	0.0156440
691.194	0.0156741
691.273	0.0155933
691.351	0.0154937
691.429	0.0154451
691.507	0.0152713
691.585	0.0150932
691.663	0.0149907
691.741	0.0148651
691.819	0.0145943
691.898	0.0144151
691.976	0.0141022
692.054	0.0138226
692.132	0.0136212
692.210	0.0133913
692.288	0.0132505
692.366	0.0130927
692.444	0.0130991
692.523	0.0129939
692.601	0.0128375
692.679	0.0128016
692.757	0.0128259
692.835	0.0129173
692.913	0.0129553
692.991	0.0132310
693.069	0.0133639
693.148	0.0135586
693.226	0.0139458
693.304	0.0141416
693.382	0.0143127
693.460	0.0149125
693.538	0.0153108
693.616	0.0155743
693.694	0.0159701
693.773	0.0162334
693.851	0.0166239
693.929	0.0169829
694.007	0.0172042
694.085	0.0176472
694.163	0.0178552
694.241	0.0178568
694.319	0.0181548
694.398	0.0183057
694.476	0.0181866
694.554	0.0182387
694.632	0.0183456
694.710	0.0181118
694.788	0.0179523
694.866	0.0178185
694.944	0.0175130
695.023	0.0175827
695.101	0.0173125
695.179	0.0169499
695.257	0.0166497
695.335	0.0163272
695.413	0.0159713
695.491	0.0157294
695.569	0.0152729
695.648	0.0150507
695.726	0.0146815
695.804	0.0144500
695.882	0.0141260
695.960	0.0138490
696.038	0.0133944
696.116	0.0131146
696.194	0.0128364
696.273	0.0125703
696.351	0.0123126
696.429	0.0121043
696.507	0.0121375
696.585	0.0120033
696.663	0.0119940
696.741	0.0119313
696.819	0.0119215
696.898	0.0120036
696.976	0.0122218
697.054	0.0122279
697.132	0.0123859
697.210	0.0125500
697.288	0.0125558
697.366	0.0126796
697.444	0.0129966
697.523	0.0130795
697.601	0.0133045
697.679	0.0136997
697.757	0.0138598
697.835	0.0138963
697.913	0.0142938
697.991	0.0146726
698.069	0.0147803
698.148	0.0150838
698.226	0.0152608
698.304	0.0156388
698.382	0.0156921
698.460	0.0160125
698.538	0.0161552
698.616	0.0162323
698.694	0.0164622
698.773	0.0165578
698.851	0.0166279
698.929	0.0166843
699.007	0.0167374
699.085	0.0165218
699.163	0.0165758
699.241	0.0166407
699.319	0.0166165
699.398	0.0166187
699.476	0.0164778
699.554	0.0165092
699.632	0.0163901
699.710	0.0162354
699.788	0.0160374
699.866	0.0158792
699.944	0.0158582
700.023	0.0157158
700.101	0.0155133
700.179	0.0154684
700.257	0.0153655
700.335	0.0152903
700.413	0.0150474
700.491	0.0149189
700.569	0.0147330
700.648	0.0146958
700.726	0.0146679
700.804	0.0144447
700.882	0.0143004
700.960	0.0141958
701.038	0.0143008
701.116	0.0142486
701.194	0.0140594
701.273	0.0142777
701.351	0.0144009
701.429	0.0145390
701.507	0.0145938
701.585	0.0146593
701.663	0.0148884
701.741	0.0149245
701.819	0.0149525
701.898	0.0150311
701.976	0.0151031
702.054	0.0150140
702.132	0.0150317
702.210	0.0150122
702.288	0.0151538
702.366	0.0150058
702.444	0.0149621
702.523	0.0147372
702.601	0.0145631
702.679	0.0146790
702.757	0.0144844
702.835	0.0144178
702.913	0.0141508
702.991	0.0141078
703.069	0.0141521
703.148	0.0140137
703.226	0.0138286
703.304	0.0137189
703.382	0.0137206
703.460	0.0136316
703.538	0.0135449
703.616	0.0137532
703.694	0.0137320
703.773	0.0137928
703.851	0.0138255
703.929	0.0140324
704.007	0.0141225
704.085	0.0141055
704.163	0.0142742
704.241	0.0144612
704.319	0.0145692
704.398	0.0146518
704.476	0.0146851
704.554	0.0147467
704.632	0.0150424
704.710	0.0151171
704.788	0.0151499
704.866	0.0151632
704.944	0.0152481
705.023	0.0152830
705.101	0.0154373
705.179	0.0154692
705.257	0.0156884
705.335	0.0157430
705.413	0.0157201
705.491	0.0158526
705.569	0.0160596
705.648	0.0158869
705.726	0.0160424
705.804	0.0161045
705.882	0.0162170
705.960	0.0162072
706.038	0.0162167
706.116	0.0161872
706.194	0.0161526
706.273	0.0161623
706.351	0.0161462
706.429	0.0160266
706.507	0.0161443
706.585	0.0159662
706.663	0.0159145
706.741	0.0158882
706.819	0.0157127
706.898	0.0158001
706.976	0.0157032
707.054	0.0155238
707.132	0.0154917
707.210	0.0154343
707.288	0.0152380
707.366	0.0151719
707.444	0.0151516
707.523	0.0152302
707.601	0.0150248
707.679	0.0148781
707.757	0.0147725
707.835	0.0146040
707.913	0.0148096
707.991	0.0147598
708.069	0.0145742
708.148	0.0144355
708.226	0.0143774
708.304	0.0143608
708.382	0.0141800
708.460	0.0140765
708.538	0.0141234
708.616	0.0140076
708.694	0.0139499
708.773	0.0138210
708.851	0.0136678
708.929	0.0137589
709.007	0.0137664
709.085	0.0136525
709.163	0.0137484
709.241	0.0136539
709.319	0.0135676
709.398	0.0136694
709.476	0.0135216
709.554	0.0134644
709.632	0.0137017
709.710	0.0135828
709.788	0.0136189
709.866	0.0136652
709.944	0.0138196
710.023	0.0139962
710.101	0.0139938
710.179	0.0141837
710.257	0.0143983
710.335	0.0145683
710.413	0.0146370
710.491	0.0148866
710.569	0.0149957
710.648	0.0151460
710.726	0.0151731
710.804	0.0152942
710.882	0.0155806
710.960	0.0158421
711.038	0.0159721
711.116	0.0158597
711.194	0.0160065
711.273	0.0161246
711.351	0.0162897
711.429	0.0162636
711.507	0.0163035
711.585	0.0164112
711.663	0.0164798
711.741	0.0165190
711.819	0.0164932
711.898	0.0165960
711.976	0.0162990
712.054	0.0163648
712.132	0.0164219
712.210	0.0159863
712.288	0.0159586
712.366	0.0158270
712.444	0.0160529
712.523	0.0157218
712.601	0.0157008
712.679	0.0154962
712.757	0.0154084
712.835	0.0153353
712.913	0.0151859
712.991	0.0151312
713.069	0.0150150
713.148	0.0149560
713.226	0.0149535
713.304	0.0148779
713.382	0.0147295
713.460	0.0148105
713.538	0.0145895
713.616	0.0144923
713.694	0.0147670
713.773	0.0145439
713.851	0.0144803
713.929	0.0143774
714.007	0.0143320
714.085	0.0144315
714.163	0.0144196
714.241	0.0142368
714.319	0.0142941
714.398	0.0141531
714.476	0.0141016
714.554	0.0141600
714.632	0.0141187
714.710	0.0141218
714.788	0.0140910
714.866	0.0141647
714.944	0.0141202
715.023	0.0140693
715.101	0.0142133
715.179	0.0143401
715.257	0.0143861
715.335	0.0144788
715.413	0.0143834
715.491	0.0145399
715.569	0.0144383
715.648	0.0145969
715.726	0.0147173
715.804	0.0146451
715.882	0.0146133
715.960	0.0148638
716.038	0.0148797
716.116	0.0150218
716.194	0.0150381
716.273	0.0149521
716.351	0.0151145
716.429	0.0151812
716.507	0.0150858
716.585	0.0152435
716.663	0.0152084
716.741	0.0151685
716.819	0.0150449
716.898	0.0151183
716.976	0.0150751
717.054	0.0150375
717.132	0.0150589
717.210	0.0148750
717.288	0.0147829
717.366	0.0146908
717.444	0.0145719
717.523	0.0147278
717.601	0.0145952
717.679	0.0146700
717.757	0.0145316
717.835	0.0146474
717.913	0.0147073
717.991	0.0147483
718.069	0.0149626
718.148	0.0150229
718.226	0.0151057
718.304	0.0151568
718.382	0.0153782
718.460	0.0154515
718.538	0.0155161
718.616	0.0157868
718.694	0.0157808
718.773	0.0158174
718.851	0.0159421
718.929	0.0160078
719.007	0.0159627
719.085	0.0159600
719.163	0.0161000
719.241	0.0160481
719.319	0.0161286
719.398	0.0161066
719.476	0.0159966
719.554	0.0160168
719.632	0.0158093
719.710	0.0158022
719.788	0.0156620
719.866	0.0155120
719.944	0.0154971
720.023	0.0154235
720.101	0.0153333
720.179	0.0151198
720.257	0.0149713
720.335	0.0148636
720.413	0.0148194
720.491	0.0146756
720.569	0.0145499
720.648	0.0143690
720.726	0.0140857
720.804	0.0140339
720.882	0.0139291
720.960	0.0139259
721.038	0.0138417
721.116	0.0135884
721.194	0.0137022
721.273	0.0136960
721.351	0.0137035
721.429	0.0138304
721.507	0.0138245
721.585	0.0138454
721.663	0.0140392
721.741	0.0139527
721.819	0.0141180
721.898	0.0143722
721.976	0.0142663
722.054	0.0143925
722.132	0.0145854
722.210	0.0145148
722.288	0.0146873
722.366	0.0147411
722.444	0.0147530
722.523	0.0149846
722.601	0.0149554
722.679	0.0149456
722.757	0.0151035
722.835	0.0151347
722.913	0.0151640
722.991	0.0150539
723.069	0.0151118
723.148	0.0151899
723.226	0.0151780
723.304	0.0152187
723.382	0.0152298
723.460	0.0152206
723.538	0.0152105
723.616	0.0152132
723.694	0.0152522
723.773	0.0152202
723.851	0.0153130
723.929	0.0151881
724.007	0.0153305
724.085	0.0153541
724.163	0.0154047
724.241	0.0155417
724.319	0.0153893
724.398	0.0154373
724.476	0.0155508
724.554	0.0155676
724.632	0.0156820
724.710	0.0156437
724.788	0.0157087
724.866	0.0157655
724.944	0.0156855
725.023	0.0156201
725.101	0.0155550
725.179	0.0155785
725.257	0.0156297
725.335	0.0157032
725.413	0.0157211
725.491	0.0155849
725.569	0.0156904
725.648	0.0155011
725.726	0.0154500
725.804	0.0156371
725.882	0.0155379
725.960	0.0154731
726.038	0.0152277
726.116	0.0151932
726.194	0.0151614
726.273	0.0152089
726.351	0.0149434
726.429	0.0147597
726.507	0.0146519
726.585	0.0145999
726.663	0.0144794
726.741	0.0144003
726.819	0.0142455
726.898	0.0142114
726.976	0.0141828
727.054	0.0138807
727.132	0.0141011
727.210	0.0138843
727.288	0.0139388
727.366	0.0137550
727.444	0.0137560
727.523	0.0139037
727.601	0.0139076
727.679	0.0137798
727.757	0.0137978
727.835	0.0138343
727.913	0.0138696
727.991	0.0139645
728.069	0.0140131
728.148	0.0140846
728.226	0.0141533
728.304	0.0142385
728.382	0.0143153
728.460	0.0144511
728.538	0.0147858
728.616	0.0146931
728.694	0.0146715
728.773	0.0147874
728.851	0.0149741
728.929	0.0150262
729.007	0.0149979
729.085	0.0150922
729.163	0.0153570
729.241	0.0153371
729.319	0.0154282
729.398	0.0154422
729.476	0.0154587
729.554	0.0153570
729.632	0.0155378
729.710	0.0154447
729.788	0.0155251
729.866	0.0156401
729.944	0.0154139
730.023	0.0154396
730.101	0.0155375
730.179	0.0155665
730.257	0.0156586
730.335	0.0153213
730.413	0.0154588
730.491	0.0154257
730.569	0.0155079
730.648	0.0154023
730.726	0.0152604
730.804	0.0152853
730.882	0.0153007
730.960	0.0152686
731.038	0.0151731
731.116	0.0152266
731.194	0.0152399
731.273	0.0152990
731.351	0.0151446
731.429	0.0150570
731.507	0.0150265
731.585	0.0151114
731.663	0.0149546
731.741	0.0150238
731.819	0.0148975
731.898	0.0148148
731.976	0.0147703
732.054	0.0148654
732.132	0.0148772
732.210	0.0148476
732.288	0.0148123
732.366	0.0147696
732.444	0.0146512
732.523	0.0147433
732.601	0.0148626
732.679	0.0147931
732.757	0.0148095
732.835	0.0148611
732.913	0.0148692
732.991	0.0148416
733.069	0.0147138
733.148	0.0147754
733.226	0.0148894
733.304	0.0146296
733.382	0.0146313
733.460	0.0148721
733.538	0.0149629
733.616	0.0148217
733.694	0.0146871
733.773	0.0146931
733.851	0.0148398
733.929	0.0146925
734.007	0.0146533
734.085	0.0147319
734.163	0.0147101
734.241	0.0146848
734.319	0.0145509
734.398	0.0146278
734.476	0.0146114
734.554	0.0145955
734.632	0.0146037
734.710	0.0146365
734.788	0.0145856
734.866	0.0144443
734.944	0.0146852
735.023	0.0148235
735.101	0.0148016
735.179	0.0147434
735.257	0.0148199
735.335	0.0149329
735.413	0.0149757
735.491	0.0150624
735.569	0.0150378
735.648	0.0150512
735.726	0.0150919
735.804	0.0152663
735.882	0.0151911
735.960	0.0151989
736.038	0.0152972
736.116	0.0153038
736.194	0.0153255
736.273	0.0153801
736.351	0.0154952
736.429	0.0154111
736.507	0.0154305
736.585	0.0154208
736.663	0.0155857
736.741	0.0155599
736.819	0.0154748
736.898	0.0154944
736.976	0.0154482
737.054	0.0153931
737.132	0.0155162
737.210	0.0154493
737.288	0.0154869
737.366	0.0154057
737.444	0.0153885
737.523	0.0152248
737.601	0.0151611
737.679	0.0150963
737.757	0.0153281
737.835	0.0150465
737.913	0.0152060
737.991	0.0151035
738.069	0.0149175
738.148	0.0149799
738.226	0.0150769
738.304	0.0150582
738.382	0.0149880
738.460	0.0150224
738.538	0.0150540
738.616	0.0151147
738.694	0.0149952
738.773	0.0151345
738.851	0.0150584
738.929	0.0150253
739.007	0.0150771
739.085	0.0150656
739.163	0.0149930
739.241	0.0149533
739.319	0.0150401
739.398	0.0150813
739.476	0.0148748
739.554	0.0147874
739.632	0.0149195
739.710	0.0148384
739.788	0.0148133
739.866	0.0148558
739.944	0.0147230
740.023	0.0147984
740.101	0.0147507
740.179	0.0147308
740.257	0.0146627
740.335	0.0145193
740.413	0.0146171
740.491	0.0146690
740.569	0.0146648
740.648	0.0145810
740.726	0.0144951
740.804	0.0144970
740.882	0.0145617
740.960	0.0145234
741.038	0.0145197
741.116	0.0145197
741.194	0.0144925
741.273	0.0145441
741.351	0.0145243
741.429	0.0145036
741.507	0.0146103
741.585	0.0146097
741.663	0.0145612
741.741	0.0145454
741.819	0.0145932
741.898	0.0146849
741.976	0.0146946
742.054	0.0147763
742.132	0.0146970
742.210	0.0146780
742.288	0.0149446
742.366	0.0149517
742.444	0.0150856
742.523	0.0150932
742.601	0.0151517
742.679	0.0151762
742.757	0.0152248
742.835	0.0153400
742.913	0.0153914
742.991	0.0154064
743.069	0.0154002
743.148	0.0155411
743.226	0.0155678
743.304	0.0156198
743.382	0.0157646
743.460	0.0156435
743.538	0.0156313
743.616	0.0155273
743.694	0.0155582
743.773	0.0157130
743.851	0.0156304
743.929	0.0154076
744.007	0.0154991
744.085	0.0154759
744.163	0.0152689
744.241	0.0153452
744.319	0.0153342
744.398	0.0151408
744.476	0.0151955
744.554	0.0151479
744.632	0.0150043
744.710	0.0148608
744.788	0.0148983
744.866	0.0148479
744.944	0.0147552
745.023	0.0146018
745.101	0.0146772
745.179	0.0146683
745.257	0.0146857
745.335	0.0145585
745.413	0.0145303
745.491	0.0147144
745.569	0.0147778
745.648	0.0145698
745.726	0.0146603
745.804	0.0146555
745.882	0.0147320
745.960	0.0147824
746.038	0.0146814
746.116	0.0146440
746.194	0.0147182
746.273	0.0146795
746.351	0.0146868
746.429	0.0147365
746.507	0.0146895
746.585	0.0145467
746.663	0.0146457
746.741	0.0147465
746.819	0.0147630
746.898	0.0148064
746.976	0.0147684
747.054	0.0148965
747.132	0.0146467
747.210	0.0146259
747.288	0.0147313
747.366	0.0147330
747.444	0.0147533
747.523	0.0147984
747.601	0.0149423
747.679	0.0149400
747.757	0.0149230
747.835	0.0148393
747.913	0.0149672
747.991	0.0150797
748.069	0.0149881
748.148	0.0149107
748.226	0.0150554
748.304	0.0148730
748.382	0.0149607
748.460	0.0150399
748.538	0.0150693
748.616	0.0148217
748.694	0.0148753
748.773	0.0148461
748.851	0.0148875
748.929	0.0148434
749.007	0.0148771
749.085	0.0148965
749.163	0.0148772
749.241	0.0147549
749.319	0.0146487
749.398	0.0148114
749.476	0.0148280
749.554	0.0148411
749.632	0.0147393
749.710	0.0146815
749.788	0.0148212
749.866	0.0147503
749.944	0.0148730
750.023	0.0149818
750.101	0.0147479
750.179	0.0149033
750.257	0.0148763
750.335	0.0148232
750.413	0.0149586
750.491	0.0149207
750.569	0.0148347
750.648	0.0150191
750.726	0.0152552
750.804	0.0151987
750.882	0.0150793
750.960	0.0150734
751.038	0.0151634
751.116	0.0152247
751.194	0.0153304
751.273	0.0153445
751.351	0.0151420
751.429	0.0153875
751.507	0.0152602
751.585	0.0152831
751.663	0.0153658
751.741	0.0152510
751.819	0.0152749
751.898	0.0152051
751.976	0.0152665
752.054	0.0152007
752.132	0.0153103
752.210	0.0151106
752.288	0.0152833
752.366	0.0151856
752.444	0.0151833
752.523	0.0150961
752.601	0.0150516
752.679	0.0150305
752.757	0.0148940
752.835	0.0149377
752.913	0.0148758
752.991	0.0147016
753.069	0.0147932
753.148	0.0147034
753.226	0.0146957
753.304	0.0146376
753.382	0.0145619
753.460	0.0146494
753.538	0.0144358
753.616	0.0144913
753.694	0.0143943
753.773	0.0145659
753.851	0.0144971
753.929	0.0144745
754.007	0.0143608
754.085	0.0144816
754.163	0.0145861
754.241	0.0144339
754.319	0.0144570
754.398	0.0144381
754.476	0.0146799
754.554	0.0147181
754.632	0.0145727
754.710	0.0147923
754.788	0.0148054
754.866	0.0146625
754.944	0.0149224
755.023	0.0150375
755.101	0.0150082
755.179	0.0150875
755.257	0.0150573
755.335	0.0151534
755.413	0.0151434
755.491	0.0150527
755.569	0.0151039
755.648	0.0151127
755.726	0.0152048
755.804	0.0151782
755.882	0.0152390
755.960	0.0152341
756.038	0.0151886
756.116	0.0152085
756.194	0.0152093
756.273	0.0151728
756.351	0.0153030
756.429	0.0152343
756.507	0.0152254
756.585	0.0151853
756.663	0.0151604
756.741	0.0152654
756.819	0.0151275
756.898	0.0150978
756.976	0.0152042
757.054	0.0151270
757.132	0.0150122
757.210	0.0148828
757.288	0.0149482
757.366	0.0150014
757.444	0.0150042
757.523	0.0150179
757.601	0.0148964
757.679	0.0148652
757.757	0.0148430
757.835	0.0147818
757.913	0.0148651
757.991	0.0149265
758.069	0.0148083
758.148	0.0148112
758.226	0.0149533
758.304	0.0148312
758.382	0.0146078
758.460	0.0145821
758.538	0.0147446
758.616	0.0148197
758.694	0.0148241
758.773	0.0146733
758.851	0.0147592
758.929	0.0145679
759.007	0.0146671
759.085	0.0146752
759.163	0.0147768
759.241	0.0147825
759.319	0.0147028
759.398	0.0148029
759.476	0.0148041
759.554	0.0148279
759.632	0.0150115
759.710	0.0150232
759.788	0.0149882
759.866	0.0150734
759.944	0.0150785
760.023	0.0150281
760.101	0.0151163
760.179	0.0152036
760.257	0.0152338
760.335	0.0152203
760.413	0.0151691
760.491	0.0150501
760.569	0.0152129
760.648	0.0151581
760.726	0.0150495
760.804	0.0150691
760.882	0.0150372
760.960	0.0148905
761.038	0.0149901
761.116	0.0148002
761.194	0.0146995
761.273	0.0146252
761.351	0.0146457
761.429	0.0146068
761.507	0.0146251
761.585	0.0145361
761.663	0.0144512
761.741	0.0146157
761.819	0.0144936
761.898	0.0146808
761.976	0.0146241
762.054	0.0146059
762.132	0.0145217
762.210	0.0147116
762.288	0.0149345
762.366	0.0147826
762.444	0.0149084
762.523	0.0149292
762.601	0.0148675
762.679	0.0148674
762.757	0.0149625
762.835	0.0150511
762.913	0.0148721
762.991	0.0149496
763.069	0.0150883
763.148	0.0150952
763.226	0.0151504
763.304	0.0150950
763.382	0.0150696
763.460	0.0151636
763.538	0.0152340
763.616	0.0152741
763.694	0.0151469
763.773	0.0153524
763.851	0.0152876
763.929	0.0152875
764.007	0.0152924
764.085	0.0153242
764.163	0.0155312
764.241	0.0154153
764.319	0.0154446
764.398	0.0154694
764.476	0.0155956
764.554	0.0154311
764.632	0.0154636
764.710	0.0155048
764.788	0.0155095
764.866	0.0154260
764.944	0.0155124
765.023	0.0154623
765.101	0.0153446
765.179	0.0154207
765.257	0.0152614
765.335	0.0151414
765.413	0.0152092
765.491	0.0150491
765.569	0.0151135
765.648	0.0149578
765.726	0.0148186
765.804	0.0148003
765.882	0.0146792
765.960	0.0146190
766.038	0.0145716
766.116	0.0144001
766.194	0.0144334
766.273	0.0143172
766.351	0.0143600
766.429	0.0143239
766.507	0.0142985
766.585	0.0143038
766.663	0.0142242
766.741	0.0142831
766.819	0.0143467
766.898	0.0143405
766.976	0.0145131
767.054	0.0144332
767.132	0.0144216
767.210	0.0145552
767.288	0.0146471
767.366	0.0147557
767.444	0.0145931
767.523	0.0147176
767.601	0.0149642
767.679	0.0150695
767.757	0.0151011
767.835	0.0152631
767.913	0.0153107
767.991	0.0152190
768.069	0.0153161
768.148	0.0152288
768.226	0.0153604
768.304	0.0153898
768.382	0.0154452
768.460	0.0155238
768.538	0.0153302
768.616	0.0152525
768.694	0.0153330
768.773	0.0153567
768.851	0.0153777
768.929	0.0154139
769.007	0.0153633
769.085	0.0153270
769.163	0.0154769
769.241	0.0152078
769.319	0.0152124
769.398	0.0152599
769.476	0.0151934
769.554	0.0152704
769.632	0.0152221
769.710	0.0153378
769.788	0.0153130
769.866	0.0151759
769.944	0.0151172
770.023	0.0152087
770.101	0.0152132
770.179	0.0150392
770.257	0.0150704
770.335	0.0150536
770.413	0.0151173
770.491	0.0150064
770.569	0.0149516
770.648	0.0149020
770.726	0.0148456
770.804	0.0148146
770.882	0.0148642
770.960	0.0148413
771.038	0.0147585
771.116	0.0146867
771.194	0.0145580
771.273	0.0146409
771.351	0.0145802
771.429	0.0144546
771.507	0.0146120
771.585	0.0144085
771.663	0.0144586
771.741	0.0145465
771.819	0.0144456
771.898	0.0143450
771.976	0.0144434
772.054	0.0146017
772.132	0.0145052
772.210	0.0147234
772.288	0.0146493
772.366	0.0146729
772.444	0.0147728
772.523	0.0147657
772.601	0.0148029
772.679	0.0147462
772.757	0.0148887
772.835	0.0149316
772.913	0.0150624
772.991	0.0150848
773.069	0.0151330
773.148	0.0150742
773.226	0.0150875
773.304	0.0152599
773.382	0.0152091
773.460	0.0152007
773.538	0.0152274
773.616	0.0154874
773.694	0.0153609
773.773	0.0154350
773.851	0.0154086
773.929	0.0153654
774.007	0.0153825
774.085	0.0152632
774.163	0.0153686
774.241	0.0152049
774.319	0.0151466
774.398	0.0150658
774.476	0.0150590
774.554	0.0149273
774.632	0.0151163
774.710	0.0149409
774.788	0.0148911
774.866	0.0149007
774.944	0.0148658
775.023	0.0147706
775.101	0.0147002
775.179	0.0145840
775.257	0.0146878
775.335	0.0147286
775.413	0.0145827
775.491	0.0147073
775.569	0.0146624
775.648	0.0148094
775.726	0.0147916
775.804	0.0147826
775.882	0.0147749
775.960	0.0147653
776.038	0.0148862
776.116	0.0148236
776.194	0.0149651
776.273	0.0149960
776.351	0.0151139
776.429	0.0150852
776.507	0.0150869
776.585	0.0151826
776.663	0.0151166
776.741	0.0150800
776.819	0.0149837
776.898	0.0150251
776.976	0.0152917
777.054	0.0150380
777.132	0.0150384
777.210	0.0151260
777.288	0.0150326
777.366	0.0151668
777.444	0.0150173
777.523	0.0149828
777.601	0.0150523
777.679	0.0149933
777.757	0.0151038
777.835	0.0151167
777.913	0.0149877
777.991	0.0150285
778.069	0.0150360
778.148	0.0150542
778.226	0.0150687
778.304	0.0150960
778.382	0.0150777
778.460	0.0153017
778.538	0.0151163
778.616	0.0151300
778.694	0.0152617
778.773	0.0152951
778.851	0.0150961
778.929	0.0151643
779.007	0.0152182
779.085	0.0152956
779.163	0.0153671
779.241	0.0152251
779.319	0.0152354
779.398	0.0153060
779.476	0.0152190
779.554	0.0152071
779.632	0.0151444
779.710	0.0150276
779.788	0.0150804
779.866	0.0150019
779.944	0.0150597
780.023	0.0150828
780.101	0.0149621
780.179	0.0150243
780.257	0.0150389
780.335	0.0149940
780.413	0.0150573
780.491	0.0150378
780.569	0.0148179
780.648	0.0149998
780.726	0.0149056
780.804	0.0149186
780.882	0.0148727
780.960	0.0148914
781.038	0.0149198
781.116	0.0147205
781.194	0.0148087
781.273	0.0149269
781.351	0.0148303
781.429	0.0149706
781.507	0.0149011
781.585	0.0147305
781.663	0.0146301
781.741	0.0146275
781.819	0.0145970
781.898	0.0145936
781.976	0.0145231
782.054	0.0144991
782.132	0.0144880
782.210	0.0143826
782.288	0.0142941
782.366	0.0143155
782.444	0.0142162
782.523	0.0143015
782.601	0.0144148
782.679	0.0143382
782.757	0.0143318
782.835	0.0144007
782.913	0.0146001
782.991	0.0143571
783.069	0.0145087
783.148	0.0145931
783.226	0.0146836
783.304	0.0147569
783.382	0.0148804
783.460	0.0148928
783.538	0.0150745
783.616	0.0152309
783.694	0.0150622
783.773	0.0151119
783.851	0.0153024
783.929	0.0153127
784.007	0.0153260
784.085	0.0153704
784.163	0.0154933
784.241	0.0154868
784.319	0.0156353
784.398	0.0156411
784.476	0.0155175
784.554	0.0156834
784.632	0.0156747
784.710	0.0156068
784.788	0.0156398
784.866	0.0155386
784.944	0.0156298
785.023	0.0155844
785.101	0.0154860
785.179	0.0156255
785.257	0.0154221
785.335	0.0153163
785.413	0.0153714
785.491	0.0152744
785.569	0.0152415
785.648	0.0152014
785.726	0.0150592
785.804	0.0152345
785.882	0.0149957
785.960	0.0149563
786.038	0.0149229
786.116	0.0148569
786.194	0.0148979
786.273	0.0148811
786.351	0.0148139
786.429	0.0145229
786.507	0.0145458
786.585	0.0146059
786.663	0.0145712
786.741	0.0145348
786.819	0.0145631
786.898	0.0143976
786.976	0.0143087
787.054	0.0143045
787.132	0.0143812
787.210	0.0143278
787.288	0.0143344
787.366	0.0143250
787.444	0.0143301
787.523	0.0143254
787.601	0.0142409
787.679	0.0144273
787.757	0.0145045
787.835	0.0145610
787.913	0.0144003
787.991	0.0145132
788.069	0.0145408
788.148	0.0144981
788.226	0.0147088
788.304	0.0146970
788.382	0.0145533
788.460	0.0146906
788.538	0.0146676
788.616	0.0146803
788.694	0.0148265
788.773	0.0148331
788.851	0.0148454
788.929	0.0148608
789.007	0.0147836
789.085	0.0148624
789.163	0.0148847
789.241	0.0149645
789.319	0.0150575
789.398	0.0149899
789.476	0.0149792
789.554	0.0149860
789.632	0.0150145
789.710	0.0151035
789.788	0.0150875
789.866	0.0150553
789.944	0.0151951
790.023	0.0152338
790.101	0.0152655
790.179	0.0153686
790.257	0.0154251
790.335	0.0153468
790.413	0.0154374
790.491	0.0154727
790.569	0.0154653
790.648	0.0154379
790.726	0.0155966
790.804	0.0157033
790.882	0.0155618
790.960	0.0156042
791.038	0.0155554
791.116	0.0156596
791.194	0.0155230
791.273	0.0156496
791.351	0.0154675
791.429	0.0155331
791.507	0.0155038
791.585	0.0153172
791.663	0.0154144
791.741	0.0152299
791.819	0.0152836
791.898	0.0153118
791.976	0.0153878
792.054	0.0152269
792.132	0.0149452
792.210	0.0149367
792.288	0.0150713
792.366	0.0150008
792.444	0.0149173
792.523	0.0149056
792.601	0.0147604
792.679	0.0147937
792.757	0.0146954
792.835	0.0147617
792.913	0.0147623
792.991	0.0146688
793.069	0.0147700
793.148	0.0148045
793.226	0.0146812
793.304	0.0145820
793.382	0.0147456
793.460	0.0145770
793.538	0.0145139
793.616	0.0145912
793.694	0.0145177
793.773	0.0145582
793.851	0.0146015
793.929	0.0145680
794.007	0.0144691
794.085	0.0145895
794.163	0.0146814
794.241	0.0146549
794.319	0.0147985
794.398	0.0148946
794.476	0.0147198
794.554	0.0149490
794.632	0.0149357
794.710	0.0150117
794.788	0.0149609
794.866	0.0149659
794.944	0.0152192
795.023	0.0153548
795.101	0.0153526
795.179	0.0152144
795.257	0.0151690
795.335	0.0152352
795.413	0.0153555
795.491	0.0152863
795.569	0.0151109
795.648	0.0149809
795.726	0.0152470
795.804	0.0152128
795.882	0.0151324
795.960	0.0151957
796.038	0.0150745
796.116	0.0150478
796.194	0.0150299
796.273	0.0150801
796.351	0.0150804
796.429	0.0151405
796.507	0.0150356
796.585	0.0150235
796.663	0.0149693
796.741	0.0150153
796.819	0.0149897
796.898	0.0148462
796.976	0.0149564
797.054	0.0149872
797.132	0.0150735
797.210	0.0148275
797.288	0.0148479
797.366	0.0150586
797.444	0.0149223
797.523	0.0149677
797.601	0.0150965
797.679	0.0150229
797.757	0.0149352
797.835	0.0152169
797.913	0.0149367
797.991	0.0149450
798.069	0.0151189
798.148	0.0150832
798.226	0.0151056
798.304	0.0149897
798.382	0.0149174
798.460	0.0149784
798.538	0.0149403
798.616	0.0149422
798.694	0.0148087
798.773	0.0149011
798.851	0.0147839
798.929	0.0148345
799.007	0.0146864
799.085	0.0147762
799.163	0.0148110
799.241	0.0148450
799.319	0.0148280
799.398	0.0147983
799.476	0.0148488
799.554	0.0147137
799.632	0.0147656
799.710	0.0146777
799.788	0.0147311
799.866	0.0147161
799.944	0.0146408
800.023	0.0147496
800.101	0.0148407
800.179	0.0148632
800.257	0.0148750
800.335	0.0147999
800.413	0.0148170
800.491	0.0148553
800.569	0.0149034
800.648	0.0149217
800.726	0.0148799
800.804	0.0149334
800.882	0.0149715
800.960	0.0149741
801.038	0.0148145
801.116	0.0149663
801.194	0.0148570
801.273	0.0148158
801.351	0.0148703
801.429	0.0148619
801.507	0.0146864
801.585	0.0147443
801.663	0.0146486
801.741	0.0146851
801.819	0.0146916
801.898	0.0148097
801.976	0.0149577
802.054	0.0148873
802.132	0.0148739
802.210	0.0150716
802.288	0.0151865
802.366	0.0152933
802.444	0.0153477
802.523	0.0154515
802.601	0.0154317
802.679	0.0154072
802.757	0.0153927
802.835	0.0154387
802.913	0.0152531
802.991	0.0151297
803.069	0.0150840
803.148	0.0151355
803.226	0.0150312
803.304	0.0150128
803.382	0.0149270
803.460	0.0147655
803.538	0.0147556
803.616	0.0148887
803.694	0.0149195
803.773	0.0147990
803.851	0.0147233
803.929	0.0148533
804.007	0.0148023
804.085	0.0147717
804.163	0.0146523
804.241	0.0148054
804.319	0.0146644
804.398	0.0145868
804.476	0.0146728
804.554	0.0145773
804.632	0.0146210
804.710	0.0146115
804.788	0.0147910
804.866	0.0147846
804.944	0.0147786
805.023	0.0149517
805.101	0.0150748
805.179	0.0149673
805.257	0.0151241
805.335	0.0151877
805.413	0.0151340
805.491	0.0151389
805.569	0.0152605
805.648	0.0150143
805.726	0.0150600
805.804	0.0150269
805.882	0.0149529
805.960	0.0147382
806.038	0.0148499
806.116	0.0146495
806.194	0.0146262
806.273	0.0146497
806.351	0.0145152
806.429	0.0144975
806.507	0.0145137
806.585	0.0144212
806.663	0.0146198
806.741	0.0146154
806.819	0.0146222
806.898	0.0146533
806.976	0.0148331
807.054	0.0149004
807.132	0.0150806
807.210	0.0152656
807.288	0.0151883
807.366	0.0152853
807.444	0.0153424
807.523	0.0153943
807.601	0.0152959
807.679	0.0153066
807.757	0.0153838
807.835	0.0152974
807.913	0.0152535
807.991	0.0151200
808.069	0.0150137
808.148	0.0149023
808.226	0.0148773
808.304	0.0148637
808.382	0.0146927
808.460	0.0145073
808.538	0.0144665
808.616	0.0143448
808.694	0.0144316
808.773	0.0144609
808.851	0.0144270
808.929	0.0144086
809.007	0.0144567
809.085	0.0146122
809.163	0.0146651
809.241	0.0149048
809.319	0.0149921
809.398	0.0149865
809.476	0.0152403
809.554	0.0151776
809.632	0.0152148
809.710	0.0153226
809.788	0.0154142
809.866	0.0154093
809.944	0.0154685
810.023	0.0154306
810.101	0.0155233
810.179	0.0154120
810.257	0.0152573
810.335	0.0153639
810.413	0.0153841
810.491	0.0150608
810.569	0.0150022
810.648	0.0149387
810.726	0.0147460
810.804	0.0147318
810.882	0.0146675
810.960	0.0146265
811.038	0.0145207
811.116	0.0144657
811.194	0.0143788
811.273	0.0144176
811.351	0.0143867
811.429	0.0143321
811.507	0.0143528
811.585	0.0144407
811.663	0.0145364
811.741	0.0146752
811.819	0.0146077
811.898	0.0147044
811.976	0.0149184
812.054	0.0148512
812.132	0.0148972
812.210	0.0149945
812.288	0.0151703
812.366	0.0151390
812.444	0.0153063
812.523	0.0152023
812.601	0.0153064
812.679	0.0152029
812.757	0.0150916
812.835	0.0150041
812.913	0.0149796
812.991	0.0148512
813.069	0.0146988
813.148	0.0147483
813.226	0.0145380
813.304	0.0145830
813.382	0.0147071
813.460	0.0147694
813.538	0.0147412
813.616	0.0147624
813.694	0.0149832
813.773	0.0150723
813.851	0.0148905
813.929	0.0149844
814.007	0.0150491
814.085	0.0149377
814.163	0.0148627
814.241	0.0149866
814.319	0.0150386
814.398	0.0149024
814.476	0.0150641
814.554	0.0150748
814.632	0.0150958
814.710	0.0149992
814.788	0.0150906
814.866	0.0151776
814.944	0.0152188
815.023	0.0153598
815.101	0.0152528
815.179	0.0152093
815.257	0.0153758
815.335	0.0153619
815.413	0.0152136
815.491	0.0151965
815.569	0.0153141
815.648	0.0152698
815.726	0.0152718
815.804	0.0153407
815.882	0.0153315
815.960	0.0153232
816.038	0.0151424
816.116	0.0153352
816.194	0.0151743
816.273	0.0151894
816.351	0.0151728
816.429	0.0150883
816.507	0.0149019
816.585	0.0151692
816.663	0.0149669
816.741	0.0150309
816.819	0.0149550
816.898	0.0148009
816.976	0.0149467
817.054	0.0150004
817.132	0.0149737
817.210	0.0148117
817.288	0.0149380
817.366	0.0148245
817.444	0.0148447
817.523	0.0148953
817.601	0.0148341
817.679	0.0148669
817.757	0.0149083
817.835	0.0148640
817.913	0.0148505
817.991	0.0148571
818.069	0.0148208
818.148	0.0150086
818.226	0.0148605
818.304	0.0148750
818.382	0.0149305
818.460	0.0147895
818.538	0.0148815
818.616	0.0148867
818.694	0.0147362
818.773	0.0149049
818.851	0.0148158
818.929	0.0149621
819.007	0.0148319
819.085	0.0148412
819.163	0.0148515
819.241	0.0147585
819.319	0.0149611
819.398	0.0149925
819.476	0.0149713
819.554	0.0149612
819.632	0.0149360
819.710	0.0150478
819.788	0.0149873
819.866	0.0149380
819.944	0.0148428
820.023	0.0149291
820.101	0.0148274
820.179	0.0148989
820.257	0.0149100
820.335	0.0148059
820.413	0.0147911
820.491	0.0148783
820.569	0.0150127
820.648	0.0149391
820.726	0.0148653
820.804	0.0149522
820.882	0.0151389
820.960	0.0154120
821.038	0.0154399
821.116	0.0152742
821.194	0.0153017
821.273	0.0153808
821.351	0.0154505
821.429	0.0154221
821.507	0.0151393
821.585	0.0152379
821.663	0.0152744
821.741	0.0150643
821.819	0.0150593
821.898	0.0150064
821.976	0.0147397
822.054	0.0148076
822.132	0.0147086
822.210	0.0147301
822.288	0.0148064
822.366	0.0145746
822.444	0.0146268
822.523	0.0145036
822.601	0.0145297
822.679	0.0144975
822.757	0.0146220
822.835	0.0147826
822.913	0.0147591
822.991	0.0147485
823.069	0.0148160
823.148	0.0147825
823.226	0.0148505
823.304	0.0147639
823.382	0.0148091
823.460	0.0149203
823.538	0.0148126
823.616	0.0149789
823.694	0.0150591
823.773	0.0149285
823.851	0.0149553
823.929	0.0148256
824.007	0.0148274
824.085	0.0150121
824.163	0.0150027
824.241	0.0146562
824.319	0.0147382
824.398	0.0147883
824.476	0.0147429
824.554	0.0145664
824.632	0.0146030
824.710	0.0146677
824.788	0.0146581
824.866	0.0148030
824.944	0.0148895
825.023	0.0148866
825.101	0.0149211
825.179	0.0150522
825.257	0.0149990
825.335	0.0149905
825.413	0.0151155
825.491	0.0152312
825.569	0.0150829
825.648	0.0151451
825.726	0.0151256
825.804	0.0151314
825.882	0.0152491
825.960	0.0151880
826.038	0.0151118
826.116	0.0152071
826.194	0.0152116
826.273	0.0152152
826.351	0.0151145
826.429	0.0151128
826.507	0.0151613
826.585	0.0150383
826.663	0.0151600
826.741	0.0149422
826.819	0.0150154
826.898	0.0149812
826.976	0.0149996
827.054	0.0150098
827.132	0.0149249
827.210	0.0147632
827.288	0.0150318
827.366	0.0151136
827.444	0.0148634
827.523	0.0151336
827.601	0.0152846
827.679	0.0151788
827.757	0.0152869
827.835	0.0153545
827.913	0.0153827
827.991	0.0155774
828.069	0.0155518
828.148	0.0155760
828.226	0.0154326
828.304	0.0155673
828.382	0.0153916
828.460	0.0153576
828.538	0.0154363
828.616	0.0153040
828.694	0.0152096
828.773	0.0150990
828.851	0.0149873
828.929	0.0148917
829.007	0.0148575
829.085	0.0145407
829.163	0.0145304
829.241	0.0145173
829.319	0.0143850
829.398	0.0143000
829.476	0.0141664
829.554	0.0144090
829.632	0.0142461
829.710	0.0140398
829.788	0.0141478
829.866	0.0141487
829.944	0.0140291
830.023	0.0139880
830.101	0.0140881
830.179	0.0142120
830.257	0.0141203
830.335	0.0142746
830.413	0.0142570
830.491	0.0144371
830.569	0.0146260
830.648	0.0145306
830.726	0.0148472
830.804	0.0148842
830.882	0.0149100
830.960	0.0149277
831.038	0.0149773
831.116	0.0150457
831.194	0.0152980
831.273	0.0154164
831.351	0.0154908
831.429	0.0155298
831.507	0.0154948
831.585	0.0156172
831.663	0.0155946
831.741	0.0154756
831.819	0.0156223
831.898	0.0154725
831.976	0.0154785
832.054	0.0154112
832.132	0.0153240
832.210	0.0153535
832.288	0.0153496
832.366	0.0150341
832.444	0.0150703
832.523	0.0149545
832.601	0.0148632
832.679	0.0146891
832.757	0.0146150
832.835	0.0144638
832.913	0.0144603
832.991	0.0145290
833.069	0.0144720
833.148	0.0142894
833.226	0.0144813
833.304	0.0144574
833.382	0.0144886
833.460	0.0146253
833.538	0.0146507
833.616	0.0145168
833.694	0.0146885
833.773	0.0147966
833.851	0.0148727
833.929	0.0150658
834.007	0.0150964
834.085	0.0150107
834.163	0.0151392
834.241	0.0152681
834.319	0.0153637
834.398	0.0155359
834.476	0.0154066
834.554	0.0154340
834.632	0.0156538
834.710	0.0156570
834.788	0.0154841
834.866	0.0155169
834.944	0.0156762
835.023	0.0155865
835.101	0.0155997
835.179	0.0154813
835.257	0.0153780
835.335	0.0153232
835.413	0.0154454
835.491	0.0151216
835.569	0.0150414
835.648	0.0151482
835.726	0.0149076
835.804	0.0148570
835.882	0.0147228
835.960	0.0147182
836.038	0.0144789
836.116	0.0143440
836.194	0.0144228
836.273	0.0143475
836.351	0.0144283
836.429	0.0143708
836.507	0.0142946
836.585	0.0142614
836.663	0.0140710
836.741	0.0143227
836.819	0.0144115
836.898	0.0144194
836.976	0.0145734
837.054	0.0144340
837.132	0.0145261
837.210	0.0146439
837.288	0.0147427
837.366	0.0148363
837.444	0.0149187
837.523	0.0149998
837.601	0.0148891
837.679	0.0150422
837.757	0.0150776
837.835	0.0152229
837.913	0.0153195
837.991	0.0153172
838.069	0.0153609
838.148	0.0155201
838.226	0.0154308
838.304	0.0156287
838.382	0.0157058
838.460	0.0156406
838.538	0.0155277
838.616	0.0156929
838.694	0.0155473
838.773	0.0156520
838.851	0.0156959
838.929	0.0155103
839.007	0.0156450
839.085	0.0155693
839.163	0.0154068
839.241	0.0153501
839.319	0.0153304
839.398	0.0151971
839.476	0.0152546
839.554	0.0150600
839.632	0.0149357
839.710	0.0149781
839.788	0.0148501
839.866	0.0147846
839.944	0.0144267
840.023	0.0146296
840.101	0.0145924
840.179	0.0144343
840.257	0.0142768
840.335	0.0142352
840.413	0.0142291
840.491	0.0144052
840.569	0.0143378
840.648	0.0142097
840.726	0.0142557
840.804	0.0144011
840.882	0.0143814
840.960	0.0146246
841.038	0.0146407
841.116	0.0145026
841.194	0.0146250
841.273	0.0147971
841.351	0.0148670
841.429	0.0149395
841.507	0.0151141
841.585	0.0150128
841.663	0.0152286
841.741	0.0151469
841.819	0.0152119
841.898	0.0153004
841.976	0.0152633
842.054	0.0152306
842.132	0.0153282
842.210	0.0154314
842.288	0.0154424
842.366	0.0154269
842.444	0.0153723
842.523	0.0153137
842.601	0.0154395
842.679	0.0153581
842.757	0.0153697
842.835	0.0154035
842.913	0.0153674
842.991	0.0153954
843.069	0.0153240
843.148	0.0152152
843.226	0.0151066
843.304	0.0151097
843.382	0.0149883
843.460	0.0149840
843.538	0.0148726
843.616	0.0149205
843.694	0.0147498
843.773	0.0147121
843.851	0.0146764
843.929	0.0145667
844.007	0.0144301
844.085	0.0144344
844.163	0.0144510
844.241	0.0143726
844.319	0.0144328
844.398	0.0144337
844.476	0.0143775
844.554	0.0144972
844.632	0.0145921
844.710	0.0145607
844.788	0.0146101
844.866	0.0145328
844.944	0.0146216
845.023	0.0146497
845.101	0.0150428
845.179	0.0149048
845.257	0.0149008
845.335	0.0149429
845.413	0.0149893
845.491	0.0150262
845.569	0.0151642
845.648	0.0152460
845.726	0.0152688
845.804	0.0153267
845.882	0.0155359
845.960	0.0155879
846.038	0.0155150
846.116	0.0154678
846.194	0.0155209
846.273	0.0153867
846.351	0.0152719
846.429	0.0152442
846.507	0.0152300
846.585	0.0152060
846.663	0.0150433
846.741	0.0149440
846.819	0.0149129
846.898	0.0149113
846.976	0.0148715
847.054	0.0148121
847.132	0.0146773
847.210	0.0146394
847.288	0.0146617
847.366	0.0147592
847.444	0.0145213
847.523	0.0146089
847.601	0.0146185
847.679	0.0144238
847.757	0.0145746
847.835	0.0143885
847.913	0.0145509
847.991	0.0148555
848.069	0.0145635
848.148	0.0146442
848.226	0.0147641
848.304	0.0148798
848.382	0.0148355
848.460	0.0149425
848.538	0.0149581
848.616	0.0150881
848.694	0.0151379
848.773	0.0152151
848.851	0.0152569
848.929	0.0152301
849.007	0.0152996
849.085	0.0152238
849.163	0.0154133
849.241	0.0151898
849.319	0.0153378
849.398	0.0152229
849.476	0.0153304
849.554	0.0152670
849.632	0.0151421
849.710	0.0152293
849.788	0.0151999
849.866	0.0151997
849.944	0.0152224
850.023	0.0150957
850.101	0.0151089
850.179	0.0151439
850.257	0.0151334
850.335	0.0151160
850.413	0.0150813
850.491	0.0149490
850.569	0.0148469
850.648	0.0149350
850.726	0.0149347
850.804	0.0147676
850.882	0.0148301
850.960	0.0149448
851.038	0.0147907
851.116	0.0147562
851.194	0.0148225
851.273	0.0147752
851.351	0.0148006
851.429	0.0147824
851.507	0.0146482
851.585	0.0148849
851.663	0.0148937
851.741	0.0148226
851.819	0.0148675
851.898	0.0148331
851.976	0.0147591
852.054	0.0147059
852.132	0.0148440
852.210	0.0149476
852.288	0.0148376
852.366	0.0148341
852.444	0.0147688
852.523	0.0148486
852.601	0.0149768
852.679	0.0148303
852.757	0.0147980
852.835	0.0148567
852.913	0.0149042
852.991	0.0148605
853.069	0.0148801
853.148	0.0148881
853.226	0.0148224
853.304	0.0148452
853.382	0.0149096
853.460	0.0148106
853.538	0.0148458
853.616	0.0149365
853.694	0.0149285
853.773	0.0149512
853.851	0.0149349
853.929	0.0148976
854.007	0.0149260
854.085	0.0147906
854.163	0.0149480
854.241	0.0150515
854.319	0.0148933
854.398	0.0149736
854.476	0.0150648
854.554	0.0150774
854.632	0.0150144
854.710	0.0149952
854.788	0.0150489
854.866	0.0150061
854.944	0.0148882
855.023	0.0150762
855.101	0.0147541
855.179	0.0148615
855.257	0.0149801
855.335	0.0149055
855.413	0.0149111
855.491	0.0149730
855.569	0.0148180
855.648	0.0147414
855.726	0.0148831
855.804	0.0149105
855.882	0.0149339
855.960	0.0148432
856.038	0.0148489
856.116	0.0149316
856.194	0.0149497
856.273	0.0149776
856.351	0.0149715
856.429	0.0148164
856.507	0.0148338
856.585	0.0150623
856.663	0.0149177
856.741	0.0148472
856.819	0.0149087
856.898	0.0148046
856.976	0.0147604
857.054	0.0148582
857.132	0.0148972
857.210	0.0149565
857.288	0.0149129
857.366	0.0148795
857.444	0.0148788
857.523	0.0149546
857.601	0.0149387
857.679	0.0150147
857.757	0.0150088
857.835	0.0149895
857.913	0.0150768
857.991	0.0151926
858.069	0.0151626
858.148	0.0151558
858.226	0.0150089
858.304	0.0149924
858.382	0.0149923
858.460	0.0152120
858.538	0.0149908
858.616	0.0151235
858.694	0.0149343
858.773	0.0150769
858.851	0.0151084
858.929	0.0150740
859.007	0.0150777
859.085	0.0150567
859.163	0.0149608
859.241	0.0150135
859.319	0.0149765
859.398	0.0149421
859.476	0.0149058
859.554	0.0149487
859.632	0.0149770
859.710	0.0149556
859.788	0.0149651
859.866	0.0150005
859.944	0.0150544
860.023	0.0150919
860.101	0.0149817
860.179	0.0151141
860.257	0.0150195
860.335	0.0150477
860.413	0.0150584
860.491	0.0151439
860.569	0.0151042
860.648	0.0150400
860.726	0.0150336
860.804	0.0150268
860.882	0.0149506
860.960	0.0149091
861.038	0.0149177
861.116	0.0149499
861.194	0.0148903
861.273	0.0148777
861.351	0.0148055
861.429	0.0148129
861.507	0.0149361
861.585	0.0148308
861.663	0.0148387
861.741	0.0147644
861.819	0.0147675
861.898	0.0148468
861.976	0.0149853
862.054	0.0148843
862.132	0.0149398
862.210	0.0148455
862.288	0.0148563
862.366	0.0148170
862.444	0.0149131
862.523	0.0149355
862.601	0.0150414
862.679	0.0149760
862.757	0.0148761
862.835	0.0149151
862.913	0.0150976
862.991	0.0151366
863.069	0.0149413
863.148	0.0151177
863.226	0.0152084
863.304	0.0151396
863.382	0.0150626
863.460	0.0151573
863.538	0.0151467
863.616	0.0151698
863.694	0.0150318
863.773	0.0150635
863.851	0.0150442
863.929	0.0150311
864.007	0.0151231
864.085	0.0151210
864.163	0.0151465
864.241	0.0149990
864.319	0.0150922
864.398	0.0148254
864.476	0.0147977
864.554	0.0149402
864.632	0.0149942
864.710	0.0148675
864.788	0.0148230
864.866	0.0150294
864.944	0.0149743
865.023	0.0148808
865.101	0.0150118
865.179	0.0150357
865.257	0.0149002
865.335	0.0149079
865.413	0.0148593
865.491	0.0149010
865.569	0.0148806
865.648	0.0149286
865.726	0.0148254
865.804	0.0148246
865.882	0.0147514
865.960	0.0147684
866.038	0.0148399
866.116	0.0145322
866.194	0.0146036
866.273	0.0147107
866.351	0.0148802
866.429	0.0148056
866.507	0.0146771
866.585	0.0148049
866.663	0.0148886
866.741	0.0148269
866.819	0.0148095
866.898	0.0148384
866.976	0.0149088
867.054	0.0150729
867.132	0.0148213
867.210	0.0150267
867.288	0.0151184
867.366	0.0149394
867.444	0.0149811
867.523	0.0151624
867.601	0.0151611
867.679	0.0152262
867.757	0.0152051
867.835	0.0152446
867.913	0.0152360
867.991	0.0152612
868.069	0.0153011
868.148	0.0152193
868.226	0.0151906
868.304	0.0152965
868.382	0.0152773
868.460	0.0151617
868.538	0.0151496
868.616	0.0152621
868.694	0.0152095
868.773	0.0150880
868.851	0.0149450
868.929	0.0150345
869.007	0.0149731
869.085	0.0151088
869.163	0.0148347
869.241	0.0147483
869.319	0.0148450
869.398	0.0147941
869.476	0.0147790
869.554	0.0148693
869.632	0.0148565
869.710	0.0146112
869.788	0.0148089
869.866	0.0148277
869.944	0.0146661
870.023	0.0148125
870.101	0.0147964
870.179	0.0148584
870.257	0.0148592
870.335	0.0148009
870.413	0.0148395
870.491	0.0147168
870.569	0.0148299
870.648	0.0149376
870.726	0.0149764
870.804	0.0149330
870.882	0.0148969
870.960	0.0151205
871.038	0.0150170
871.116	0.0151234
871.194	0.0149979
871.273	0.0149496
871.351	0.0148639
871.429	0.0149994
871.507	0.0151569
871.585	0.0152097
871.663	0.0151643
871.741	0.0151172
871.819	0.0151315
871.898	0.0151416
871.976	0.0151705
872.054	0.0150037
872.132	0.0151779
872.210	0.0151617
872.288	0.0150964
872.366	0.0151247
872.444	0.0150222
872.523	0.0149693
872.601	0.0149389
872.679	0.0148702
872.757	0.0149122
872.835	0.0148099
872.913	0.0149043
872.991	0.0146414
873.069	0.0146806
873.148	0.0147422
873.226	0.0147066
873.304	0.0145812
873.382	0.0146022
873.460	0.0145560
873.538	0.0145729
873.616	0.0146021
873.694	0.0145418
873.773	0.0145311
873.851	0.0146429
873.929	0.0146481
874.007	0.0146132
874.085	0.0148338
874.163	0.0147773
874.241	0.0147855
874.319	0.0149485
874.398	0.0148258
874.476	0.0148717
874.554	0.0151124
874.632	0.0149812
874.710	0.0150062
874.788	0.0149942
874.866	0.0150421
874.944	0.0149850
875.023	0.0151561
875.101	0.0151765
875.179	0.0152254
875.257	0.0152233
875.335	0.0154105
875.413	0.0152261
875.491	0.0152666
875.569	0.0152906
875.648	0.0154342
875.726	0.0153244
875.804	0.0151299
875.882	0.0153126
875.960	0.0152012
876.038	0.0151329
876.116	0.0149363
876.194	0.0150759
876.273	0.0151468
876.351	0.0150401
876.429	0.0149492
876.507	0.0151576
876.585	0.0149714
876.663	0.0149097
876.741	0.0148122
876.819	0.0148520
876.898	0.0148753
876.976	0.0147300
877.054	0.0146586
877.132	0.0147018
877.210	0.0147533
877.288	0.0147984
877.366	0.0148676
877.444	0.0147005
877.523	0.0146651
877.601	0.0147682
877.679	0.0147353
877.757	0.0148348
877.835	0.0147112
877.913	0.0146045
877.991	0.0148505
878.069	0.0147724
878.148	0.0148038
878.226	0.0148032
878.304	0.0147485
878.382	0.0148103
878.460	0.0148367
878.538	0.0148972
878.616	0.0147893
878.694	0.0147753
878.773	0.0148547
878.851	0.0150800
878.929	0.0151647
879.007	0.0149031
879.085	0.0151096
879.163	0.0150881
879.241	0.0150163
879.319	0.0150314
879.398	0.0151180
879.476	0.0151926
879.554	0.0151367
879.632	0.0152256
879.710	0.0151541
879.788	0.0151413
879.866	0.0151141
879.944	0.0150583
880.023	0.0150698
880.101	0.0150784
880.179	0.0152000
880.257	0.0150032
880.335	0.0149088
880.413	0.0151186
880.491	0.0148982
880.569	0.0150906
880.648	0.0150851
880.726	0.0148708
880.804	0.0149908
880.882	0.0149243
880.960	0.0150453
881.038	0.0149323
881.116	0.0148855
881.194	0.0148972
881.273	0.0148486
881.351	0.0149967
881.429	0.0149300
881.507	0.0150247
881.585	0.0149327
881.663	0.0150092
881.741	0.0149230
881.819	0.0149449
881.898	0.0150395
881.976	0.0151136
882.054	0.0150524
882.132	0.0151508
882.210	0.0151072
882.288	0.0151299
882.366	0.0152181
882.444	0.0151310
882.523	0.0151107
882.601	0.0151343
882.679	0.0150319
882.757	0.0152049
882.835	0.0151950
882.913	0.0150530
882.991	0.0149851
883.069	0.0150423
883.148	0.0149931
883.226	0.0149972
883.304	0.0148857
883.382	0.0149477
883.460	0.0151173
883.538	0.0148709
883.616	0.0149204
883.694	0.0148760
883.773	0.0149588
883.851	0.0148340
883.929	0.0148468
884.007	0.0147502
884.085	0.0148324
884.163	0.0148931
884.241	0.0148344
884.319	0.0148763
884.398	0.0149895
884.476	0.0149581
884.554	0.0149840
884.632	0.0148936
884.710	0.0148775
884.788	0.0149984
884.866	0.0149552
884.944	0.0149675
885.023	0.0151392
885.101	0.0150175
885.179	0.0150943
885.257	0.0152160
885.335	0.0151048
885.413	0.0150958
885.491	0.0151128
885.569	0.0151224
885.648	0.0151889
885.726	0.0152878
885.804	0.0152434
885.882	0.0151276
885.960	0.0153143
886.038	0.0152433
886.116	0.0151474
886.194	0.0150978
886.273	0.0151627
886.351	0.0152463
886.429	0.0151847
886.507	0.0151902
886.585	0.0151218
886.663	0.0150925
886.741	0.0150139
886.819	0.0148500
886.898	0.0149601
886.976	0.0150091
887.054	0.0148708
887.132	0.0149936
887.210	0.0148721
887.288	0.0147600
887.366	0.0148600
887.444	0.0147542
887.523	0.0149024
887.601	0.0148451
887.679	0.0147504
887.757	0.0148700
887.835	0.0147424
887.913	0.0147777
887.991	0.0146428
888.069	0.0147865
888.148	0.0148956
888.226	0.0148891
888.304	0.0148191
888.382	0.0149350
888.460	0.0149488
888.538	0.0147489
888.616	0.0149498
888.694	0.0150826
888.773	0.0150051
888.851	0.0149957
888.929	0.0149785
889.007	0.0151020
889.085	0.0150584
889.163	0.0148674
889.241	0.0149834
889.319	0.0151212
889.398	0.0149259
889.476	0.0149264
889.554	0.0148631
889.632	0.0148820
889.710	0.0148121
889.788	0.0147439
889.866	0.0148245
889.944	0.0148260
890.023	0.0148621
890.101	0.0148588
890.179	0.0147478
890.257	0.0147493
890.335	0.0147418
890.413	0.0147060
890.491	0.0148617
890.569	0.0149062
890.648	0.0147430
890.726	0.0146813
890.804	0.0147979
890.882	0.0148410
890.960	0.0149048
891.038	0.0149110
891.116	0.0147528
891.194	0.0148405
891.273	0.0149065
891.351	0.0148703
891.429	0.0148480
891.507	0.0148222
891.585	0.0149439
891.663	0.0149691
891.741	0.0149964
891.819	0.0148293
891.898	0.0149945
891.976	0.0149635
892.054	0.0149226
892.132	0.0148919
892.210	0.0149480
892.288	0.0150399
892.366	0.0149264
892.444	0.0150130
892.523	0.0149225
892.601	0.0149172
892.679	0.0150415
892.757	0.0148774
892.835	0.0149799
892.913	0.0149986
892.991	0.0149885
893.069	0.0150221
893.148	0.0150564
893.226	0.0150649
893.304	0.0150191
893.382	0.0149586
893.460	0.0150413
893.538	0.0150820
893.616	0.0151292
893.694	0.0150492
893.773	0.0151003
893.851	0.0151499
893.929	0.0150809
894.007	0.0150042
894.085	0.0150648
894.163	0.0149333
894.241	0.0149339
894.319	0.0149715
894.398	0.0148772
894.476	0.0150224
894.554	0.0148555
894.632	0.0147751
894.710	0.0148182
894.788	0.0148564
894.866	0.0147258
894.944	0.0148914
895.023	0.0146140
895.101	0.0147527
895.179	0.0148537
895.257	0.0147108
895.335	0.0146210
895.413	0.0148195
895.491	0.0148360
895.569	0.0147868
895.648	0.0147312
895.726	0.0149203
895.804	0.0150571
895.882	0.0148714
895.960	0.0148153
896.038	0.0148891
896.116	0.0147371
896.194	0.0149491
896.273	0.0147665
896.351	0.0149266
896.429	0.0149635
896.507	0.0147504
896.585	0.0148462
896.663	0.0148873
896.741	0.0147977
896.819	0.0149151
896.898	0.0149119
896.976	0.0150180
897.054	0.0149425
897.132	0.0150842
897.210	0.0150520
897.288	0.0149903
897.366	0.0148829
897.444	0.0149097
897.523	0.0147665
897.601	0.0151355
897.679	0.0150531
897.757	0.0148253
897.835	0.0149471
897.913	0.0149736
897.991	0.0148100
898.069	0.0149933
898.148	0.0148875
898.226	0.0148909
898.304	0.0148218
898.382	0.0147091
898.460	0.0148734
898.538	0.0148962
898.616	0.0149442
898.694	0.0147045
898.773	0.0147715
898.851	0.0148294
898.929	0.0148303
899.007	0.0148444
899.085	0.0147364
899.163	0.0147057
899.241	0.0148548
899.319	0.0148550
899.398	0.0148460
899.476	0.0148051
899.554	0.0146822
899.632	0.0147634
899.710	0.0148885
899.788	0.0148270
899.866	0.0147866
899.944	0.0147686
900.023	0.0146994
900.101	0.0147564
900.179	0.0147393
900.257	0.0149500
900.335	0.0148750
900.413	0.0148401
900.491	0.0149240
900.569	0.0148354
900.648	0.0149678
900.726	0.0149547
900.804	0.0150688
900.882	0.0150947
900.960	0.0150481
901.038	0.0149546
901.116	0.0150735
901.194	0.0149856
901.273	0.0150201
901.351	0.0150284
901.429	0.0150011
901.507	0.0149200
901.585	0.0150220
901.663	0.0148406
901.741	0.0148610
901.819	0.0149181
901.898	0.0149726
901.976	0.0148798
902.054	0.0149695
902.132	0.0148075
902.210	0.0148739
902.288	0.0150505
902.366	0.0148475
902.444	0.0148302
902.523	0.0149249
902.601	0.0148716
902.679	0.0149341
902.757	0.0149618
902.835	0.0149912
902.913	0.0149971
902.991	0.0149828
903.069	0.0148836
903.148	0.0150250
903.226	0.0150179
903.304	0.0149310
903.382	0.0149721
903.460	0.0150433
903.538	0.0150391
903.616	0.0149454
903.694	0.0148262
903.773	0.0148961
903.851	0.0149914
903.929	0.0148757
904.007	0.0147941
904.085	0.0148824
904.163	0.0148809
904.241	0.0148034
904.319	0.0147797
904.398	0.0147487
904.476	0.0147223
904.554	0.0146539
904.632	0.0145572
904.710	0.0144303
904.788	0.0145939
904.866	0.0145393
904.944	0.0146140
905.023	0.0145701
905.101	0.0146159
905.179	0.0145099
905.257	0.0144674
905.335	0.0145515
905.413	0.0145779
905.491	0.0145560
905.569	0.0147085
905.648	0.0145555
905.726	0.0146272
905.804	0.0148253
905.882	0.0149009
905.960	0.0148669
906.038	0.0148376
906.116	0.0148895
906.194	0.0149702
906.273	0.0149162
906.351	0.0150258
906.429	0.0150920
906.507	0.0149985
906.585	0.0150450
906.663	0.0151228
906.741	0.0152450
906.819	0.0152038
906.898	0.0151440
906.976	0.0153689
907.054	0.0151589
907.132	0.0152438
907.210	0.0150507
907.288	0.0151797
907.366	0.0150500
907.444	0.0150249
907.523	0.0152093
907.601	0.0152940
907.679	0.0149033
907.757	0.0150141
907.835	0.0150351
907.913	0.0151041
907.991	0.0150409
908.069	0.0150188
908.148	0.0149905
908.226	0.0148919
908.304	0.0149567
908.382	0.0151251
908.460	0.0149738
908.538	0.0149637
908.616	0.0148306
908.694	0.0149037
908.773	0.0149276
908.851	0.0150104
908.929	0.0148398
909.007	0.0149073
909.085	0.0149289
909.163	0.0148389
909.241	0.0146825
909.319	0.0148076
909.398	0.0149060
909.476	0.0149924
909.554	0.0149676
909.632	0.0149301
909.710	0.0148265
909.788	0.0149603
909.866	0.0149853
909.944	0.0149885
910.023	0.0151006
910.101	0.0150423
910.179	0.0152033
910.257	0.0149899
910.335	0.0150803
910.413	0.0151012
910.491	0.0151498
910.569	0.0153440
910.648	0.0152503
910.726	0.0151485
910.804	0.0152213
910.882	0.0151954
910.960	0.0153542
911.038	0.0152167
911.116	0.0150669
911.194	0.0152163
911.273	0.0151359
911.351	0.0150832
911.429	0.0150784
911.507	0.0150748
911.585	0.0150389
911.663	0.0149701
911.741	0.0149670
911.819	0.0149355
911.898	0.0149592
911.976	0.0148759
912.054	0.0148296
912.132	0.0148293
912.210	0.0150194
912.288	0.0148904
912.366	0.0148631
912.444	0.0146760
912.523	0.0147552
912.601	0.0147728
912.679	0.0147421
912.757	0.0146719
912.835	0.0147368
912.913	0.0147416
912.991	0.0148421
913.069	0.0147640
913.148	0.0148139
913.226	0.0146697
913.304	0.0148036
913.382	0.0147578
913.460	0.0148941
913.538	0.0148918
913.616	0.0149062
913.694	0.0150002
913.773	0.0149420
913.851	0.0148771
913.929	0.0150639
914.007	0.0150158
914.085	0.0150584
914.163	0.0151768
914.241	0.0151331
914.319	0.0150619
914.398	0.0150452
914.476	0.0151528
914.554	0.0149968
914.632	0.0149888
914.710	0.0150880
914.788	0.0150045
914.866	0.0151283
914.944	0.0152139
915.023	0.0149913
915.101	0.0151702
915.179	0.0150665
915.257	0.0148875
915.335	0.0150185
915.413	0.0149638
915.491	0.0149589
915.569	0.0148550
915.648	0.0149057
915.726	0.0149458
915.804	0.0149534
915.882	0.0148692
915.960	0.0148959
916.038	0.0149648
916.116	0.0149449
916.194	0.0148442
916.273	0.0148845
916.351	0.0147748
916.429	0.0147985
916.507	0.0149058
916.585	0.0148164
916.663	0.0148338
916.741	0.0149573
916.819	0.0147796
916.898	0.0146653
916.976	0.0149200
917.054	0.0148349
917.132	0.0148952
917.210	0.0149392
917.288	0.0147240
917.366	0.0148850
917.444	0.0148547
917.523	0.0149155
917.601	0.0148710
917.679	0.0148314
917.757	0.0148650
917.835	0.0149161
917.913	0.0147945
917.991	0.0149160
918.069	0.0147859
918.148	0.0148346
918.226	0.0148547
918.304	0.0148370
918.382	0.0147350
918.460	0.0148463
918.538	0.0148392
918.616	0.0146986
918.694	0.0148421
918.773	0.0148831
918.851	0.0148248
918.929	0.0148206
919.007	0.0148314
919.085	0.0149051
919.163	0.0148093
919.241	0.0148523
919.319	0.0149341
919.398	0.0149088
919.476	0.0149619
919.554	0.0148997
919.632	0.0149238
919.710	0.0149869
919.788	0.0148711
919.866	0.0149833
919.944	0.0150954
920.023	0.0151443
920.101	0.0150320
920.179	0.0150437
920.257	0.0149970
920.335	0.0151116
920.413	0.0152201
920.491	0.0150322
920.569	0.0150800
920.648	0.0151736
920.726	0.0151523
920.804	0.0151175
920.882	0.0150169
920.960	0.0149804
921.038	0.0151945
921.116	0.0150505
921.194	0.0150985
921.273	0.0151846
921.351	0.0150893
921.429	0.0149941
921.507	0.0149004
921.585	0.0149738
921.663	0.0150758
921.741	0.0149885
921.819	0.0150506
921.898	0.0149833
921.976	0.0149571
922.054	0.0149208
922.132	0.0149515
922.210	0.0149825
922.288	0.0149451
922.366	0.0149398
922.444	0.0149459
922.523	0.0148344
922.601	0.0148923
922.679	0.0149683
922.757	0.0148933
922.835	0.0147890
922.913	0.0147969
922.991	0.0148990
923.069	0.0148872
923.148	0.0148861
923.226	0.0148819
923.304	0.0148610
923.382	0.0147486
923.460	0.0148438
923.538	0.0148402
923.616	0.0148602
923.694	0.0148225
923.773	0.0149455
923.851	0.0148085
923.929	0.0148608
924.007	0.0148067
924.085	0.0147999
924.163	0.0147281
924.241	0.0150282
924.319	0.0149979
924.398	0.0148605
924.476	0.0148615
924.554	0.0148566
924.632	0.0148405
924.710	0.0150366
924.788	0.0150246
924.866	0.0149215
924.944	0.0149285
925.023	0.0148647
925.101	0.0150108
925.179	0.0148762
925.257	0.0148499
925.335	0.0149734
925.413	0.0148644
925.491	0.0148828
925.569	0.0148653
925.648	0.0148710
925.726	0.0148985
925.804	0.0148015
925.882	0.0148918
925.960	0.0149149
926.038	0.0146495
926.116	0.0148743
926.194	0.0149539
926.273	0.0148885
926.351	0.0149059
926.429	0.0148415
926.507	0.0147811
926.585	0.0147972
926.663	0.0148898
926.741	0.0147886
926.819	0.0150169
926.898	0.0149590
926.976	0.0148834
927.054	0.0149607
927.132	0.0149346
927.210	0.0149555
927.288	0.0148811
927.366	0.0149590
927.444	0.0149710
927.523	0.0149876
927.601	0.0150087
927.679	0.0149305
927.757	0.0150340
927.835	0.0150291
927.913	0.0150555
927.991	0.0149898
928.069	0.0152377
928.148	0.0150167
928.226	0.0150304
928.304	0.0151762
928.382	0.0151844
928.460	0.0149953
928.538	0.0149887
928.616	0.0151017
928.694	0.0150127
928.773	0.0150015
928.851	0.0149651
928.929	0.0149807
929.007	0.0149424
929.085	0.0149554
929.163	0.0148971
929.241	0.0148449
929.319	0.0147922
929.398	0.0148183
929.476	0.0148833
929.554	0.0146877
929.632	0.0147400
929.710	0.0148013
929.788	0.0146686
929.866	0.0146571
929.944	0.0148605
930.023	0.0147021
930.101	0.0147803
930.179	0.0149542
930.257	0.0147694
930.335	0.0147312
930.413	0.0146923
930.491	0.0146351
930.569	0.0147656
930.648	0.0147315
930.726	0.0147225
930.804	0.0148125
930.882	0.0147321
930.960	0.0146665
931.038	0.0147774
931.116	0.0148129
931.194	0.0147161
931.273	0.0147030
931.351	0.0147980
931.429	0.0147836
931.507	0.0148431
931.585	0.0146502
931.663	0.0147462
931.741	0.0148682
931.819	0.0148675
931.898	0.0147485
931.976	0.0146568
932.054	0.0147255
932.132	0.0149184
932.210	0.0148780
932.288	0.0147329
932.366	0.0149487
932.444	0.0148508
932.523	0.0148119
932.601	0.0149289
932.679	0.0149213
932.757	0.0148337
932.835	0.0150133
932.913	0.0148916
932.991	0.0148457
933.069	0.0148224
933.148	0.0149071
933.226	0.0149250
933.304	0.0149718
933.382	0.0148793
933.460	0.0149625
933.538	0.0148756
933.616	0.0149704
933.694	0.0149478
933.773	0.0149712
933.851	0.0150875
933.929	0.0149434
934.007	0.0150079
934.085	0.0150264
934.163	0.0149614
934.241	0.0149740
934.319	0.0149681
934.398	0.0150219
934.476	0.0150200
934.554	0.0149840
934.632	0.0150569
934.710	0.0150083
934.788	0.0150124
934.866	0.0149904
934.944	0.0150154
935.023	0.0149364
935.101	0.0149204
935.179	0.0149487
935.257	0.0151225
935.335	0.0150028
935.413	0.0148820
935.491	0.0150156
935.569	0.0148749
935.648	0.0147916
935.726	0.0149869
935.804	0.0149668
935.882	0.0148430
935.960	0.0148209
936.038	0.0149693
936.116	0.0149755
936.194	0.0148401
936.273	0.0149022
936.351	0.0148790
936.429	0.0147384
936.507	0.0148643
936.585	0.0148014
936.663	0.0147791
936.741	0.0147739
936.819	0.0147258
936.898	0.0147005
936.976	0.0149522
937.054	0.0146968
937.132	0.0148201
937.210	0.0147994
937.288	0.0149635
937.366	0.0147824
937.444	0.0148299
937.523	0.0149777
937.601	0.0149207
937.679	0.0149301
937.757	0.0149890
937.835	0.0150869
937.913	0.0148745
937.991	0.0148717
938.069	0.0151911
938.148	0.0150674
938.226	0.0149825
938.304	0.0150968
938.382	0.0150010
938.460	0.0150262
938.538	0.0150446
938.616	0.0150156
938.694	0.0151910
938.773	0.0151756
938.851	0.0149947
938.929	0.0152099
939.007	0.0151711
939.085	0.0151556
939.163	0.0150853
939.241	0.0151379
939.319	0.0152089
939.398	0.0149900
939.476	0.0149436
939.554	0.0149013
939.632	0.0151474
939.710	0.0151768
939.788	0.0151215
939.866	0.0152239
939.944	0.0150027
940.023	0.0150742
940.101	0.0150940
940.179	0.0150008
940.257	0.0149223
940.335	0.0149627
940.413	0.0149796
940.491	0.0150970
940.569	0.0149183
940.648	0.0148255
940.726	0.0148059
940.804	0.0148147
940.882	0.0150195
940.960	0.0149453
941.038	0.0148824
941.116	0.0148663
941.194	0.0148206
941.273	0.0150351
941.351	0.0149975
941.429	0.0148970
941.507	0.0148763
941.585	0.0148804
941.663	0.0149652
941.741	0.0148830
941.819	0.0149685
941.898	0.0149422
941.976	0.0149629
942.054	0.0148930
942.132	0.0150038
942.210	0.0150230
942.288	0.0150242
942.366	0.0150008
942.444	0.0148310
942.523	0.0150198
942.601	0.0148755
942.679	0.0149174
942.757	0.0149583
942.835	0.0149525
942.913	0.0149928
942.991	0.0148869
943.069	0.0150121
943.148	0.0149815
943.226	0.0148724
943.304	0.0150818
943.382	0.0149460
943.460	0.0150506
943.538	0.0151254
943.616	0.0148999
943.694	0.0150220
943.773	0.0150483
943.851	0.0150263
943.929	0.0151091
944.007	0.0150034
944.085	0.0150178
944.163	0.0150478
944.241	0.0151205
944.319	0.0149560
944.398	0.0150182
944.476	0.0149152
944.554	0.0150538
944.632	0.0151096
944.710	0.0150122
944.788	0.0149994
944.866	0.0149973
944.944	0.0149969
945.023	0.0148410
945.101	0.0149786
945.179	0.0150113
945.257	0.0149650
945.335	0.0149326
945.413	0.0149290
945.491	0.0149241
945.569	0.0150151
945.648	0.0150045
945.726	0.0149596
945.804	0.0150577
945.882	0.0149352
945.960	0.0150833
946.038	0.0150584
946.116	0.0149734
946.194	0.0150109
946.273	0.0151855
946.351	0.0150889
946.429	0.0150288
946.507	0.0150511
946.585	0.0150552
946.663	0.0149956
946.741	0.0151137
946.819	0.0151190
946.898	0.0150357
946.976	0.0151396
947.054	0.0150559
947.132	0.0151442
947.210	0.0150468
947.288	0.0150938
947.366	0.0150168
947.444	0.0149518
947.523	0.0151208
947.601	0.0149168
947.679	0.0150023
947.757	0.0149007
947.835	0.0149428
947.913	0.0147659
947.991	0.0149229
948.069	0.0149501
948.148	0.0148284
948.226	0.0147540
948.304	0.0149311
948.382	0.0146876
948.460	0.0145886
948.538	0.0148166
948.616	0.0148794
948.694	0.0148574
948.773	0.0148033
948.851	0.0147085
948.929	0.0147855
949.007	0.0147314
949.085	0.0147392
949.163	0.0147409
949.241	0.0148685
949.319	0.0148701
949.398	0.0148993
949.476	0.0148525
949.554	0.0148437
949.632	0.0148098
949.710	0.0149397
949.788	0.0149316
949.866	0.0148993
949.944	0.0148373
