05/14/2022	19:45:06	Ver.	4.1	UNKNOWN
Optical Delay	630.022520	Delta X		0.078125	Sweeps	1	Scan Rate	0/0
Coordinates	Axis 1	NaN	Axis 2	NaN	Axis 3	NaN	Axis 4	NaN	Axis 5	NaN	Axis 6	0.000000
TX Power	0.000000	RX Power	0.000000

630.023	0.0138354
630.101	0.0139834
630.179	0.0138817
630.257	0.0139719
630.335	0.0138788
630.413	0.0140422
630.491	0.0138829
630.569	0.0140450
630.648	0.0138538
630.726	0.0140788
630.804	0.0140984
630.882	0.0139518
630.960	0.0140061
631.038	0.0139204
631.116	0.0139150
631.194	0.0138492
631.273	0.0138525
631.351	0.0139762
631.429	0.0139952
631.507	0.0138564
631.585	0.0137685
631.663	0.0140645
631.741	0.0140266
631.819	0.0138010
631.898	0.0140132
631.976	0.0138374
632.054	0.0140243
632.132	0.0138353
632.210	0.0139598
632.288	0.0138921
632.366	0.0138344
632.444	0.0139774
632.523	0.0139256
632.601	0.0138483
632.679	0.0138262
632.757	0.0138416
632.835	0.0138674
632.913	0.0136655
632.991	0.0138090
633.069	0.0138088
633.148	0.0138280
633.226	0.0137630
633.304	0.0137386
633.382	0.0138615
633.460	0.0137887
633.538	0.0136404
633.616	0.0139340
633.694	0.0137998
633.773	0.0138004
633.851	0.0137640
633.929	0.0137579
634.007	0.0137951
634.085	0.0137940
634.163	0.0140274
634.241	0.0138561
634.319	0.0139226
634.398	0.0137032
634.476	0.0137560
634.554	0.0137859
634.632	0.0139075
634.710	0.0138459
634.788	0.0137171
634.866	0.0138115
634.944	0.0138876
635.023	0.0139708
635.101	0.0138794
635.179	0.0138643
635.257	0.0138118
635.335	0.0139587
635.413	0.0140240
635.491	0.0138705
635.569	0.0139158
635.648	0.0138737
635.726	0.0138108
635.804	0.0138620
635.882	0.0139645
635.960	0.0139095
636.038	0.0138030
636.116	0.0139075
636.194	0.0138718
636.273	0.0138698
636.351	0.0138558
636.429	0.0137042
636.507	0.0137943
636.585	0.0139076
636.663	0.0138392
636.741	0.0137743
636.819	0.0137930
636.898	0.0137463
636.976	0.0138255
637.054	0.0139120
637.132	0.0136549
637.210	0.0136773
637.288	0.0137209
637.366	0.0138165
637.444	0.0137782
637.523	0.0137919
637.601	0.0137244
637.679	0.0138008
637.757	0.0138217
637.835	0.0137703
637.913	0.0137068
637.991	0.0137981
638.069	0.0137791
638.148	0.0138818
638.226	0.0136806
638.304	0.0138259
638.382	0.0138194
638.460	0.0135500
638.538	0.0137329
638.616	0.0137504
638.694	0.0139090
638.773	0.0137017
638.851	0.0137169
638.929	0.0137002
639.007	0.0136868
639.085	0.0136873
639.163	0.0137012
639.241	0.0137534
639.319	0.0136179
639.398	0.0138221
639.476	0.0136517
639.554	0.0136365
639.632	0.0135792
639.710	0.0135950
639.788	0.0137999
639.866	0.0137711
639.944	0.0136353
640.023	0.0137477
640.101	0.0135576
640.179	0.0137318
640.257	0.0137451
640.335	0.0135974
640.413	0.0136688
640.491	0.0135509
640.569	0.0136670
640.648	0.0137615
640.726	0.0137501
640.804	0.0137228
640.882	0.0136553
640.960	0.0137891
641.038	0.0137637
641.116	0.0137368
641.194	0.0137397
641.273	0.0136757
641.351	0.0137370
641.429	0.0137056
641.507	0.0137034
641.585	0.0136283
641.663	0.0137598
641.741	0.0136588
641.819	0.0137611
641.898	0.0136658
641.976	0.0138006
642.054	0.0136340
642.132	0.0137603
642.210	0.0138129
642.288	0.0136988
642.366	0.0137880
642.444	0.0137125
642.523	0.0136627
642.601	0.0136291
642.679	0.0136369
642.757	0.0137206
642.835	0.0138058
642.913	0.0138303
642.991	0.0138911
643.069	0.0138356
643.148	0.0139613
643.226	0.0138092
643.304	0.0139887
643.382	0.0139899
643.460	0.0140444
643.538	0.0140398
643.616	0.0140192
643.694	0.0139963
643.773	0.0140242
643.851	0.0139043
643.929	0.0138888
644.007	0.0139404
644.085	0.0139973
644.163	0.0139648
644.241	0.0137722
644.319	0.0138488
644.398	0.0138356
644.476	0.0138708
644.554	0.0137614
644.632	0.0136829
644.710	0.0137366
644.788	0.0136845
644.866	0.0138480
644.944	0.0136827
645.023	0.0137419
645.101	0.0136575
645.179	0.0137623
645.257	0.0137719
645.335	0.0138240
645.413	0.0139059
645.491	0.0136406
645.569	0.0137557
645.648	0.0136846
645.726	0.0136951
645.804	0.0137588
645.882	0.0137553
645.960	0.0138888
646.038	0.0138589
646.116	0.0138100
646.194	0.0137911
646.273	0.0138807
646.351	0.0139024
646.429	0.0138038
646.507	0.0138944
646.585	0.0139083
646.663	0.0138390
646.741	0.0138236
646.819	0.0138441
646.898	0.0138380
646.976	0.0138419
647.054	0.0138464
647.132	0.0137377
647.210	0.0138346
647.288	0.0138808
647.366	0.0137170
647.444	0.0136940
647.523	0.0137585
647.601	0.0138342
647.679	0.0136364
647.757	0.0137163
647.835	0.0137007
647.913	0.0137149
647.991	0.0135686
648.069	0.0136044
648.148	0.0135873
648.226	0.0136697
648.304	0.0137259
648.382	0.0136153
648.460	0.0135209
648.538	0.0135971
648.616	0.0136058
648.694	0.0137871
648.773	0.0135992
648.851	0.0138024
648.929	0.0138610
649.007	0.0139202
649.085	0.0138662
649.163	0.0139217
649.241	0.0139445
649.319	0.0139660
649.398	0.0139013
649.476	0.0138341
649.554	0.0140483
649.632	0.0138046
649.710	0.0139429
649.788	0.0138595
649.866	0.0138444
649.944	0.0137964
650.023	0.0138702
650.101	0.0136794
650.179	0.0137460
650.257	0.0137696
650.335	0.0136081
650.413	0.0138337
650.491	0.0137167
650.569	0.0136466
650.648	0.0137067
650.726	0.0139145
650.804	0.0138267
650.882	0.0140549
650.960	0.0141171
651.038	0.0141298
651.116	0.0140876
651.194	0.0140902
651.273	0.0141848
651.351	0.0142026
651.429	0.0141080
651.507	0.0141598
651.585	0.0139552
651.663	0.0141116
651.741	0.0140417
651.819	0.0138528
651.898	0.0137717
651.976	0.0138203
652.054	0.0138688
652.132	0.0136708
652.210	0.0136190
652.288	0.0134763
652.366	0.0136349
652.444	0.0134032
652.523	0.0134196
652.601	0.0134602
652.679	0.0135966
652.757	0.0134288
652.835	0.0135305
652.913	0.0137105
652.991	0.0135902
653.069	0.0137160
653.148	0.0137257
653.226	0.0138772
653.304	0.0140445
653.382	0.0141615
653.460	0.0142271
653.538	0.0141669
653.616	0.0144049
653.694	0.0141844
653.773	0.0141737
653.851	0.0144319
653.929	0.0143784
654.007	0.0143492
654.085	0.0141760
654.163	0.0140974
654.241	0.0141927
654.319	0.0138770
654.398	0.0137818
654.476	0.0137627
654.554	0.0135561
654.632	0.0135476
654.710	0.0132922
654.788	0.0134407
654.866	0.0132571
654.944	0.0132567
655.023	0.0130952
655.101	0.0131250
655.179	0.0130859
655.257	0.0132085
655.335	0.0131244
655.413	0.0131883
655.491	0.0133989
655.569	0.0134222
655.648	0.0136358
655.726	0.0137389
655.804	0.0138764
655.882	0.0139977
655.960	0.0142074
656.038	0.0143242
656.116	0.0145362
656.194	0.0146265
656.273	0.0149010
656.351	0.0149265
656.429	0.0149107
656.507	0.0149847
656.585	0.0149352
656.663	0.0149552
656.741	0.0148514
656.819	0.0146399
656.898	0.0144475
656.976	0.0142137
657.054	0.0140134
657.132	0.0137020
657.210	0.0133922
657.288	0.0130312
657.366	0.0129595
657.444	0.0126087
657.523	0.0124931
657.601	0.0123148
657.679	0.0123243
657.757	0.0121896
657.835	0.0123273
657.913	0.0122156
657.991	0.0122849
658.069	0.0122779
658.148	0.0124802
658.226	0.0127796
658.304	0.0128804
658.382	0.0130594
658.460	0.0132680
658.538	0.0135382
658.616	0.0138416
658.694	0.0140841
658.773	0.0142796
658.851	0.0145496
658.929	0.0148483
659.007	0.0149767
659.085	0.0151723
659.163	0.0153193
659.241	0.0154448
659.319	0.0153030
659.398	0.0154529
659.476	0.0154008
659.554	0.0153737
659.632	0.0151897
659.710	0.0151747
659.788	0.0148490
659.866	0.0146996
659.944	0.0146364
660.023	0.0143557
660.101	0.0140723
660.179	0.0137632
660.257	0.0135545
660.335	0.0133863
660.413	0.0131873
660.491	0.0130094
660.569	0.0128505
660.648	0.0126565
660.726	0.0125032
660.804	0.0123367
660.882	0.0125261
660.960	0.0124796
661.038	0.0123799
661.116	0.0125054
661.194	0.0124521
661.273	0.0125739
661.351	0.0126382
661.429	0.0126746
661.507	0.0128278
661.585	0.0130191
661.663	0.0131781
661.741	0.0131375
661.819	0.0132533
661.898	0.0134283
661.976	0.0135320
662.054	0.0137076
662.132	0.0137390
662.210	0.0137830
662.288	0.0138586
662.366	0.0138628
662.444	0.0139846
662.523	0.0141535
662.601	0.0142194
662.679	0.0142020
662.757	0.0143390
662.835	0.0145711
662.913	0.0144000
662.991	0.0145112
663.069	0.0148439
663.148	0.0147283
663.226	0.0147307
663.304	0.0148032
663.382	0.0149899
663.460	0.0150766
663.538	0.0151012
663.616	0.0150977
663.694	0.0153443
663.773	0.0153082
663.851	0.0152318
663.929	0.0151195
664.007	0.0151725
664.085	0.0151165
664.163	0.0149310
664.241	0.0149527
664.319	0.0148428
664.398	0.0145876
664.476	0.0143191
664.554	0.0140022
664.632	0.0138467
664.710	0.0135390
664.788	0.0131023
664.866	0.0128660
664.944	0.0127805
665.023	0.0124407
665.101	0.0121621
665.179	0.0118320
665.257	0.0116907
665.335	0.0115105
665.413	0.0113052
665.491	0.0110966
665.569	0.0109156
665.648	0.0110019
665.726	0.0108965
665.804	0.0108459
665.882	0.0110423
665.960	0.0110664
666.038	0.0113815
666.116	0.0114465
666.194	0.0118335
666.273	0.0120818
666.351	0.0125004
666.429	0.0129004
666.507	0.0132551
666.585	0.0136043
666.663	0.0139307
666.741	0.0145002
666.819	0.0150031
666.898	0.0153532
666.976	0.0156886
667.054	0.0159953
667.132	0.0162774
667.210	0.0163697
667.288	0.0166129
667.366	0.0169343
667.444	0.0170118
667.523	0.0171662
667.601	0.0171651
667.679	0.0172006
667.757	0.0170831
667.835	0.0168357
667.913	0.0167918
667.991	0.0165376
668.069	0.0165015
668.148	0.0161506
668.226	0.0157913
668.304	0.0154321
668.382	0.0150060
668.460	0.0148988
668.538	0.0144994
668.616	0.0140371
668.694	0.0137527
668.773	0.0133729
668.851	0.0130407
668.929	0.0125383
669.007	0.0121407
669.085	0.0117256
669.163	0.0114091
669.241	0.0112267
669.319	0.0110194
669.398	0.0106811
669.476	0.0106038
669.554	0.0103577
669.632	0.0102402
669.710	0.0101526
669.788	0.0102808
669.866	0.0102415
669.944	0.0102299
670.023	0.0104707
670.101	0.0106198
670.179	0.0108923
670.257	0.0113486
670.335	0.0116245
670.413	0.0118918
670.491	0.0123132
670.569	0.0127843
670.648	0.0130491
670.726	0.0135403
670.804	0.0138662
670.882	0.0141997
670.960	0.0145948
671.038	0.0150103
671.116	0.0151970
671.194	0.0154470
671.273	0.0157870
671.351	0.0159423
671.429	0.0161759
671.507	0.0162269
671.585	0.0162305
671.663	0.0164045
671.741	0.0165398
671.819	0.0165574
671.898	0.0164893
671.976	0.0165860
672.054	0.0165577
672.132	0.0164427
672.210	0.0164645
672.288	0.0163699
672.366	0.0161395
672.444	0.0160706
672.523	0.0159006
672.601	0.0158113
672.679	0.0155499
672.757	0.0153617
672.835	0.0152035
672.913	0.0149705
672.991	0.0147530
673.069	0.0144737
673.148	0.0142847
673.226	0.0142264
673.304	0.0138559
673.382	0.0137418
673.460	0.0136538
673.538	0.0133445
673.616	0.0131019
673.694	0.0128877
673.773	0.0125989
673.851	0.0122401
673.929	0.0120793
674.007	0.0118665
674.085	0.0114239
674.163	0.0112030
674.241	0.0109077
674.319	0.0108096
674.398	0.0106001
674.476	0.0104242
674.554	0.0104146
674.632	0.0102560
674.710	0.0100963
674.788	0.0102253
674.866	0.0102063
674.944	0.0102435
675.023	0.0102201
675.101	0.0105764
675.179	0.0108417
675.257	0.0110368
675.335	0.0113476
675.413	0.0117033
675.491	0.0121053
675.569	0.0124799
675.648	0.0129924
675.726	0.0135697
675.804	0.0139967
675.882	0.0145605
675.960	0.0151665
676.038	0.0156951
676.116	0.0161165
676.194	0.0166431
676.273	0.0170555
676.351	0.0173214
676.429	0.0176318
676.507	0.0179371
676.585	0.0180975
676.663	0.0181881
676.741	0.0180962
676.819	0.0181664
676.898	0.0180195
676.976	0.0180103
677.054	0.0178740
677.132	0.0177934
677.210	0.0176684
677.288	0.0172453
677.366	0.0170246
677.444	0.0166630
677.523	0.0163942
677.601	0.0160159
677.679	0.0155025
677.757	0.0150108
677.835	0.0145492
677.913	0.0141254
677.991	0.0136472
678.069	0.0131370
678.148	0.0128781
678.226	0.0123586
678.304	0.0120111
678.382	0.0115553
678.460	0.0114416
678.538	0.0110812
678.616	0.0107609
678.694	0.0104737
678.773	0.0103998
678.851	0.0102359
678.929	0.0102344
679.007	0.0101882
679.085	0.0101600
679.163	0.0102235
679.241	0.0103529
679.319	0.0104497
679.398	0.0107230
679.476	0.0108691
679.554	0.0110027
679.632	0.0112581
679.710	0.0115475
679.788	0.0118724
679.866	0.0124092
679.944	0.0127631
680.023	0.0129655
680.101	0.0131958
680.179	0.0135810
680.257	0.0140784
680.335	0.0142183
680.413	0.0146965
680.491	0.0148689
680.569	0.0151671
680.648	0.0154754
680.726	0.0155001
680.804	0.0156641
680.882	0.0159100
680.960	0.0161028
681.038	0.0160944
681.116	0.0160828
681.194	0.0160120
681.273	0.0159376
681.351	0.0159695
681.429	0.0159003
681.507	0.0157468
681.585	0.0157048
681.663	0.0154571
681.741	0.0153915
681.819	0.0152463
681.898	0.0149493
681.976	0.0148248
682.054	0.0145309
682.132	0.0142892
682.210	0.0141562
682.288	0.0141138
682.366	0.0138762
682.444	0.0136485
682.523	0.0134995
682.601	0.0133810
682.679	0.0132910
682.757	0.0132143
682.835	0.0132040
682.913	0.0131924
682.991	0.0132884
683.069	0.0133329
683.148	0.0132909
683.226	0.0133575
683.304	0.0133553
683.382	0.0133862
683.460	0.0134447
683.538	0.0135459
683.616	0.0135420
683.694	0.0136520
683.773	0.0136819
683.851	0.0137285
683.929	0.0138081
684.007	0.0136014
684.085	0.0137505
684.163	0.0136949
684.241	0.0135184
684.319	0.0135744
684.398	0.0135942
684.476	0.0133361
684.554	0.0133095
684.632	0.0132379
684.710	0.0132499
684.788	0.0130500
684.866	0.0129272
684.944	0.0131028
685.023	0.0128306
685.101	0.0127773
685.179	0.0127648
685.257	0.0127058
685.335	0.0126881
685.413	0.0126019
685.491	0.0126021
685.569	0.0125171
685.648	0.0125413
685.726	0.0126238
685.804	0.0126926
685.882	0.0125514
685.960	0.0127655
686.038	0.0126987
686.116	0.0129059
686.194	0.0128669
686.273	0.0129438
686.351	0.0131960
686.429	0.0131189
686.507	0.0132544
686.585	0.0135943
686.663	0.0136992
686.741	0.0139058
686.819	0.0139106
686.898	0.0141907
686.976	0.0144608
687.054	0.0146329
687.132	0.0146985
687.210	0.0150159
687.288	0.0152081
687.366	0.0154043
687.444	0.0156855
687.523	0.0158769
687.601	0.0158954
687.679	0.0161865
687.757	0.0161879
687.835	0.0163454
687.913	0.0162669
687.991	0.0163277
688.069	0.0162489
688.148	0.0161337
688.226	0.0159727
688.304	0.0157944
688.382	0.0157018
688.460	0.0153748
688.538	0.0152221
688.616	0.0148843
688.694	0.0144906
688.773	0.0142040
688.851	0.0139143
688.929	0.0135386
689.007	0.0132286
689.085	0.0127633
689.163	0.0125837
689.241	0.0123427
689.319	0.0119616
689.398	0.0118542
689.476	0.0115424
689.554	0.0116074
689.632	0.0115769
689.710	0.0114919
689.788	0.0115638
689.866	0.0116598
689.944	0.0117774
690.023	0.0119004
690.101	0.0120806
690.179	0.0122778
690.257	0.0124802
690.335	0.0127070
690.413	0.0129035
690.491	0.0132074
690.569	0.0132807
690.648	0.0134807
690.726	0.0138161
690.804	0.0140646
690.882	0.0142022
690.960	0.0142844
691.038	0.0143506
691.116	0.0146118
691.194	0.0147429
691.273	0.0147161
691.351	0.0149671
691.429	0.0147794
691.507	0.0148260
691.585	0.0146259
691.663	0.0144453
691.741	0.0144248
691.819	0.0142099
691.898	0.0139728
691.976	0.0138251
692.054	0.0136298
692.132	0.0136378
692.210	0.0131895
692.288	0.0128571
692.366	0.0128012
692.444	0.0126151
692.523	0.0124608
692.601	0.0124059
692.679	0.0121440
692.757	0.0122121
692.835	0.0122980
692.913	0.0120941
692.991	0.0121909
693.069	0.0122906
693.148	0.0124861
693.226	0.0125484
693.304	0.0128555
693.382	0.0131016
693.460	0.0133684
693.538	0.0134293
693.616	0.0138560
693.694	0.0141118
693.773	0.0144131
693.851	0.0147993
693.929	0.0151372
694.007	0.0153359
694.085	0.0156266
694.163	0.0158566
694.241	0.0161596
694.319	0.0162521
694.398	0.0164037
694.476	0.0166070
694.554	0.0166380
694.632	0.0165330
694.710	0.0165726
694.788	0.0163625
694.866	0.0162802
694.944	0.0160894
695.023	0.0159452
695.101	0.0157597
695.179	0.0154573
695.257	0.0152337
695.335	0.0149512
695.413	0.0143970
695.491	0.0141336
695.569	0.0138966
695.648	0.0135344
695.726	0.0133450
695.804	0.0129721
695.882	0.0125404
695.960	0.0123092
696.038	0.0122108
696.116	0.0119421
696.194	0.0116302
696.273	0.0114779
696.351	0.0113298
696.429	0.0112206
696.507	0.0111874
696.585	0.0110639
696.663	0.0110109
696.741	0.0109684
696.819	0.0110894
696.898	0.0112695
696.976	0.0112883
697.054	0.0113553
697.132	0.0113833
697.210	0.0117114
697.288	0.0119508
697.366	0.0121445
697.444	0.0124487
697.523	0.0125287
697.601	0.0126537
697.679	0.0129681
697.757	0.0132201
697.835	0.0134104
697.913	0.0136842
697.991	0.0137878
698.069	0.0140302
698.148	0.0142738
698.226	0.0143896
698.304	0.0146809
698.382	0.0147808
698.460	0.0150863
698.538	0.0151469
698.616	0.0152335
698.694	0.0153931
698.773	0.0152984
698.851	0.0154681
698.929	0.0154852
699.007	0.0156072
699.085	0.0157702
699.163	0.0155840
699.241	0.0157246
699.319	0.0157368
699.398	0.0156734
699.476	0.0156993
699.554	0.0155785
699.632	0.0155585
699.710	0.0154045
699.788	0.0155335
699.866	0.0155072
699.944	0.0152544
700.023	0.0150941
700.101	0.0150060
700.179	0.0148564
700.257	0.0148887
700.335	0.0146427
700.413	0.0144328
700.491	0.0141406
700.569	0.0139894
700.648	0.0137768
700.726	0.0135356
700.804	0.0133700
700.882	0.0130249
700.960	0.0128378
701.038	0.0125634
701.116	0.0124110
701.194	0.0123676
701.273	0.0122308
701.351	0.0122266
701.429	0.0122576
701.507	0.0123519
701.585	0.0123537
701.663	0.0124728
701.741	0.0127745
701.819	0.0128277
701.898	0.0128916
701.976	0.0129800
702.054	0.0132033
702.132	0.0132449
702.210	0.0133158
702.288	0.0133369
702.366	0.0134588
702.444	0.0134900
702.523	0.0134371
702.601	0.0135620
702.679	0.0135559
702.757	0.0133947
702.835	0.0134237
702.913	0.0133668
702.991	0.0132850
703.069	0.0132491
703.148	0.0131976
703.226	0.0131140
703.304	0.0130535
703.382	0.0131356
703.460	0.0129574
703.538	0.0129716
703.616	0.0129363
703.694	0.0129003
703.773	0.0129324
703.851	0.0128139
703.929	0.0128753
704.007	0.0130549
704.085	0.0130833
704.163	0.0130699
704.241	0.0130612
704.319	0.0131828
704.398	0.0132749
704.476	0.0133125
704.554	0.0136915
704.632	0.0135669
704.710	0.0137737
704.788	0.0139613
704.866	0.0140685
704.944	0.0143006
705.023	0.0142001
705.101	0.0144969
705.179	0.0146771
705.257	0.0148616
705.335	0.0149655
705.413	0.0150881
705.491	0.0151752
705.569	0.0150672
705.648	0.0153699
705.726	0.0153963
705.804	0.0154859
705.882	0.0154527
705.960	0.0154050
706.038	0.0154448
706.116	0.0153650
706.194	0.0153502
706.273	0.0152319
706.351	0.0151003
706.429	0.0149371
706.507	0.0149194
706.585	0.0146248
706.663	0.0146018
706.741	0.0144679
706.819	0.0143003
706.898	0.0139674
706.976	0.0139574
707.054	0.0138801
707.132	0.0137968
707.210	0.0137825
707.288	0.0137050
707.366	0.0134312
707.444	0.0134929
707.523	0.0132510
707.601	0.0133582
707.679	0.0134318
707.757	0.0131792
707.835	0.0131577
707.913	0.0131498
707.991	0.0131529
708.069	0.0130141
708.148	0.0128196
708.226	0.0129174
708.304	0.0128836
708.382	0.0127551
708.460	0.0127445
708.538	0.0128297
708.616	0.0128390
708.694	0.0128602
708.773	0.0127412
708.851	0.0128730
708.929	0.0129083
709.007	0.0128490
709.085	0.0126305
709.163	0.0127797
709.241	0.0128185
709.319	0.0127251
709.398	0.0130276
709.476	0.0128222
709.554	0.0129654
709.632	0.0129459
709.710	0.0131490
709.788	0.0130778
709.866	0.0131004
709.944	0.0131070
710.023	0.0133640
710.101	0.0133201
710.179	0.0134200
710.257	0.0136050
710.335	0.0137418
710.413	0.0138261
710.491	0.0138131
710.569	0.0136840
710.648	0.0138431
710.726	0.0141101
710.804	0.0144282
710.882	0.0144863
710.960	0.0147325
711.038	0.0148248
711.116	0.0150316
711.194	0.0150861
711.273	0.0152885
711.351	0.0153445
711.429	0.0154578
711.507	0.0155564
711.585	0.0155784
711.663	0.0155736
711.741	0.0155611
711.819	0.0156443
711.898	0.0155560
711.976	0.0154683
712.054	0.0154251
712.132	0.0155231
712.210	0.0153964
712.288	0.0153365
712.366	0.0152997
712.444	0.0151930
712.523	0.0150405
712.601	0.0149522
712.679	0.0148560
712.757	0.0146739
712.835	0.0144904
712.913	0.0142345
712.991	0.0140867
713.069	0.0140534
713.148	0.0138299
713.226	0.0136628
713.304	0.0134000
713.382	0.0132125
713.460	0.0130814
713.538	0.0129425
713.616	0.0128387
713.694	0.0126348
713.773	0.0124671
713.851	0.0124770
713.929	0.0123087
714.007	0.0122884
714.085	0.0122186
714.163	0.0121745
714.241	0.0121961
714.319	0.0122186
714.398	0.0121598
714.476	0.0120230
714.554	0.0121350
714.632	0.0123032
714.710	0.0124606
714.788	0.0124045
714.866	0.0125712
714.944	0.0125674
715.023	0.0126873
715.101	0.0128323
715.179	0.0129861
715.257	0.0130626
715.335	0.0130585
715.413	0.0133443
715.491	0.0133065
715.569	0.0135413
715.648	0.0135989
715.726	0.0137399
715.804	0.0139449
715.882	0.0140360
715.960	0.0140700
716.038	0.0142193
716.116	0.0142585
716.194	0.0143869
716.273	0.0145468
716.351	0.0145196
716.429	0.0146779
716.507	0.0146077
716.585	0.0146490
716.663	0.0146156
716.741	0.0147544
716.819	0.0147599
716.898	0.0147906
716.976	0.0147706
717.054	0.0147095
717.132	0.0146455
717.210	0.0147074
717.288	0.0145746
717.366	0.0145559
717.444	0.0144473
717.523	0.0144375
717.601	0.0143099
717.679	0.0142381
717.757	0.0141978
717.835	0.0140175
717.913	0.0140923
717.991	0.0141109
718.069	0.0140336
718.148	0.0140508
718.226	0.0139104
718.304	0.0139854
718.382	0.0139137
718.460	0.0137186
718.538	0.0139242
718.616	0.0140604
718.694	0.0140965
718.773	0.0138506
718.851	0.0140317
718.929	0.0141305
719.007	0.0140904
719.085	0.0142950
719.163	0.0142752
719.241	0.0142913
719.319	0.0144711
719.398	0.0144328
719.476	0.0144253
719.554	0.0143866
719.632	0.0143018
719.710	0.0142772
719.788	0.0140273
719.866	0.0141402
719.944	0.0140193
720.023	0.0137434
720.101	0.0137362
720.179	0.0134535
720.257	0.0135373
720.335	0.0133498
720.413	0.0132258
720.491	0.0130061
720.569	0.0129941
720.648	0.0128225
720.726	0.0127354
720.804	0.0127444
720.882	0.0126457
720.960	0.0126110
721.038	0.0125362
721.116	0.0125617
721.194	0.0124068
721.273	0.0126015
721.351	0.0125985
721.429	0.0126556
721.507	0.0126288
721.585	0.0126670
721.663	0.0128210
721.741	0.0128464
721.819	0.0129449
721.898	0.0131638
721.976	0.0131557
722.054	0.0133488
722.132	0.0134711
722.210	0.0135860
722.288	0.0137439
722.366	0.0138661
722.444	0.0139069
722.523	0.0140955
722.601	0.0139127
722.679	0.0140773
722.757	0.0141444
722.835	0.0141558
722.913	0.0142086
722.991	0.0142995
723.069	0.0143681
723.148	0.0142788
723.226	0.0141741
723.304	0.0143630
723.382	0.0144132
723.460	0.0143458
723.538	0.0144830
723.616	0.0142918
723.694	0.0143311
723.773	0.0143220
723.851	0.0141759
723.929	0.0143693
724.007	0.0142850
724.085	0.0141697
724.163	0.0141038
724.241	0.0140992
724.319	0.0141570
724.398	0.0139596
724.476	0.0141888
724.554	0.0139497
724.632	0.0139295
724.710	0.0139252
724.788	0.0139075
724.866	0.0139034
724.944	0.0138895
725.023	0.0139606
725.101	0.0138791
725.179	0.0140557
725.257	0.0140052
725.335	0.0141975
725.413	0.0140997
725.491	0.0139517
725.569	0.0141316
725.648	0.0142239
725.726	0.0141345
725.804	0.0141885
725.882	0.0142303
725.960	0.0143177
726.038	0.0143151
726.116	0.0141251
726.194	0.0141769
726.273	0.0141361
726.351	0.0140412
726.429	0.0140974
726.507	0.0139742
726.585	0.0139042
726.663	0.0136428
726.741	0.0136129
726.819	0.0136732
726.898	0.0135413
726.976	0.0133771
727.054	0.0133777
727.132	0.0131749
727.210	0.0130853
727.288	0.0129283
727.366	0.0129933
727.444	0.0128706
727.523	0.0127682
727.601	0.0127359
727.679	0.0127026
727.757	0.0127709
727.835	0.0126821
727.913	0.0127193
727.991	0.0128259
728.069	0.0128909
728.148	0.0127377
728.226	0.0129870
728.304	0.0131050
728.382	0.0131367
728.460	0.0132555
728.538	0.0135264
728.616	0.0135754
728.694	0.0137298
728.773	0.0138005
728.851	0.0138280
728.929	0.0140458
729.007	0.0142247
729.085	0.0142080
729.163	0.0143449
729.241	0.0145417
729.319	0.0145034
729.398	0.0144874
729.476	0.0145313
729.554	0.0145672
729.632	0.0145627
729.710	0.0146124
729.788	0.0146566
729.866	0.0147048
729.944	0.0146262
730.023	0.0145062
730.101	0.0145172
730.179	0.0145403
730.257	0.0145383
730.335	0.0145255
730.413	0.0144704
730.491	0.0145602
730.569	0.0144176
730.648	0.0142883
730.726	0.0142476
730.804	0.0142015
730.882	0.0142892
730.960	0.0140942
731.038	0.0141948
731.116	0.0141993
731.194	0.0139819
731.273	0.0140736
731.351	0.0140708
731.429	0.0138821
731.507	0.0138270
731.585	0.0139187
731.663	0.0138741
731.741	0.0137486
731.819	0.0138335
731.898	0.0138442
731.976	0.0136532
732.054	0.0136868
732.132	0.0136359
732.210	0.0136382
732.288	0.0135612
732.366	0.0134668
732.444	0.0135863
732.523	0.0134697
732.601	0.0134605
732.679	0.0133926
732.757	0.0134263
732.835	0.0134180
732.913	0.0132599
732.991	0.0133106
733.069	0.0133718
733.148	0.0133966
733.226	0.0133988
733.304	0.0133099
733.382	0.0134638
733.460	0.0134713
733.538	0.0134608
733.616	0.0134584
733.694	0.0135720
733.773	0.0135674
733.851	0.0135416
733.929	0.0135082
734.007	0.0134795
734.085	0.0136356
734.163	0.0135503
734.241	0.0135262
734.319	0.0135442
734.398	0.0136056
734.476	0.0136916
734.554	0.0135832
734.632	0.0137874
734.710	0.0136779
734.788	0.0137451
734.866	0.0137045
734.944	0.0137408
735.023	0.0136954
735.101	0.0137241
735.179	0.0138566
735.257	0.0136968
735.335	0.0137589
735.413	0.0139831
735.491	0.0138515
735.569	0.0138949
735.648	0.0140141
735.726	0.0140063
735.804	0.0140557
735.882	0.0142004
735.960	0.0141759
736.038	0.0141320
736.116	0.0142606
736.194	0.0142676
736.273	0.0143405
736.351	0.0142088
736.429	0.0142480
736.507	0.0144520
736.585	0.0143632
736.663	0.0142654
736.741	0.0142801
736.819	0.0142416
736.898	0.0142883
736.976	0.0142733
737.054	0.0142226
737.132	0.0140582
737.210	0.0140612
737.288	0.0140851
737.366	0.0141436
737.444	0.0140602
737.523	0.0139482
737.601	0.0140639
737.679	0.0139320
737.757	0.0140306
737.835	0.0140051
737.913	0.0139161
737.991	0.0139409
738.069	0.0138734
738.148	0.0138384
738.226	0.0137649
738.304	0.0138283
738.382	0.0138050
738.460	0.0137811
738.538	0.0136075
738.616	0.0138260
738.694	0.0138316
738.773	0.0137897
738.851	0.0137259
738.929	0.0135905
739.007	0.0136056
739.085	0.0135432
739.163	0.0136289
739.241	0.0135668
739.319	0.0134618
739.398	0.0134185
739.476	0.0133315
739.554	0.0134862
739.632	0.0134782
739.710	0.0134859
739.788	0.0135503
739.866	0.0134233
739.944	0.0135218
740.023	0.0135299
740.101	0.0134147
740.179	0.0134477
740.257	0.0135814
740.335	0.0134322
740.413	0.0134605
740.491	0.0135235
740.569	0.0137991
740.648	0.0137022
740.726	0.0135903
740.804	0.0136849
740.882	0.0136079
740.960	0.0136962
741.038	0.0135937
741.116	0.0136385
741.194	0.0136072
741.273	0.0137691
741.351	0.0136360
741.429	0.0136150
741.507	0.0135987
741.585	0.0134738
741.663	0.0136136
741.741	0.0136229
741.819	0.0136266
741.898	0.0135978
741.976	0.0135890
742.054	0.0137042
742.132	0.0137148
742.210	0.0137016
742.288	0.0137610
742.366	0.0138604
742.444	0.0139796
742.523	0.0139566
742.601	0.0140826
742.679	0.0139676
742.757	0.0140040
742.835	0.0140833
742.913	0.0141035
742.991	0.0142408
743.069	0.0142036
743.148	0.0142252
743.226	0.0141850
743.304	0.0142525
743.382	0.0142125
743.460	0.0143140
743.538	0.0143832
743.616	0.0142599
743.694	0.0142716
743.773	0.0143221
743.851	0.0142909
743.929	0.0142605
744.007	0.0140887
744.085	0.0140753
744.163	0.0140477
744.241	0.0138632
744.319	0.0138158
744.398	0.0138783
744.476	0.0138284
744.554	0.0136696
744.632	0.0135943
744.710	0.0138572
744.788	0.0138204
744.866	0.0136738
744.944	0.0135497
745.023	0.0137126
745.101	0.0137550
745.179	0.0137104
745.257	0.0136369
745.335	0.0136047
745.413	0.0135760
745.491	0.0136278
745.569	0.0137296
745.648	0.0136757
745.726	0.0135854
745.804	0.0135971
745.882	0.0136568
745.960	0.0137649
746.038	0.0137118
746.116	0.0136803
746.194	0.0136679
746.273	0.0136941
746.351	0.0137917
746.429	0.0137327
746.507	0.0136152
746.585	0.0136433
746.663	0.0133555
746.741	0.0134333
746.819	0.0134430
746.898	0.0132977
746.976	0.0134081
747.054	0.0132839
747.132	0.0133399
747.210	0.0134041
747.288	0.0135719
747.366	0.0134623
747.444	0.0135213
747.523	0.0134881
747.601	0.0135717
747.679	0.0137791
747.757	0.0136144
747.835	0.0138399
747.913	0.0137634
747.991	0.0138301
748.069	0.0138048
748.148	0.0138817
748.226	0.0139420
748.304	0.0139977
748.382	0.0139960
748.460	0.0140031
748.538	0.0141177
748.616	0.0140758
748.694	0.0140388
748.773	0.0140066
748.851	0.0139881
748.929	0.0137921
749.007	0.0140481
749.085	0.0140143
749.163	0.0140274
749.241	0.0139111
749.319	0.0139575
749.398	0.0140424
749.476	0.0138509
749.554	0.0138435
749.632	0.0139387
749.710	0.0138787
749.788	0.0137831
749.866	0.0138779
749.944	0.0137661
750.023	0.0137704
750.101	0.0137405
750.179	0.0137518
750.257	0.0137819
750.335	0.0138915
750.413	0.0137229
750.491	0.0136153
750.569	0.0139045
750.648	0.0138857
750.726	0.0137983
750.804	0.0138205
750.882	0.0138424
750.960	0.0138027
751.038	0.0139214
751.116	0.0138132
751.194	0.0137752
751.273	0.0136713
751.351	0.0138187
751.429	0.0137548
751.507	0.0135870
751.585	0.0137296
751.663	0.0136341
751.741	0.0136526
751.819	0.0137189
751.898	0.0135779
751.976	0.0136523
752.054	0.0137034
752.132	0.0137476
752.210	0.0136922
752.288	0.0136621
752.366	0.0137008
752.444	0.0139487
752.523	0.0138355
752.601	0.0138596
752.679	0.0138137
752.757	0.0138401
752.835	0.0138464
752.913	0.0138968
752.991	0.0138936
753.069	0.0138835
753.148	0.0139093
753.226	0.0137906
753.304	0.0136781
753.382	0.0137838
753.460	0.0137814
753.538	0.0135555
753.616	0.0135861
753.694	0.0135142
753.773	0.0133868
753.851	0.0132859
753.929	0.0133055
754.007	0.0131495
754.085	0.0132309
754.163	0.0132729
754.241	0.0130838
754.319	0.0131113
754.398	0.0131781
754.476	0.0132166
754.554	0.0131200
754.632	0.0131698
754.710	0.0133508
754.788	0.0135165
754.866	0.0134855
754.944	0.0134528
755.023	0.0136879
755.101	0.0137247
755.179	0.0137202
755.257	0.0138026
755.335	0.0139043
755.413	0.0138914
755.491	0.0140259
755.569	0.0141977
755.648	0.0143048
755.726	0.0142678
755.804	0.0143285
755.882	0.0142719
755.960	0.0143879
756.038	0.0143457
756.116	0.0143165
756.194	0.0144360
756.273	0.0143746
756.351	0.0143526
756.429	0.0142592
756.507	0.0143743
756.585	0.0141901
756.663	0.0140329
756.741	0.0141803
756.819	0.0140736
756.898	0.0140009
756.976	0.0138949
757.054	0.0139464
757.132	0.0138025
757.210	0.0136855
757.288	0.0135475
757.366	0.0136066
757.444	0.0135301
757.523	0.0134268
757.601	0.0132713
757.679	0.0134555
757.757	0.0133659
757.835	0.0133626
757.913	0.0134806
757.991	0.0133984
758.069	0.0133875
758.148	0.0134785
758.226	0.0133131
758.304	0.0133918
758.382	0.0133366
758.460	0.0133852
758.538	0.0132620
758.616	0.0134680
758.694	0.0135678
758.773	0.0135099
758.851	0.0135828
758.929	0.0138150
759.007	0.0135430
759.085	0.0138242
759.163	0.0138536
759.241	0.0138149
759.319	0.0138809
759.398	0.0138631
759.476	0.0140025
759.554	0.0140314
759.632	0.0139510
759.710	0.0139779
759.788	0.0139735
759.866	0.0142043
759.944	0.0141193
760.023	0.0141722
760.101	0.0140636
760.179	0.0141473
760.257	0.0140823
760.335	0.0141491
760.413	0.0139906
760.491	0.0141434
760.569	0.0139629
760.648	0.0138622
760.726	0.0140086
760.804	0.0137993
760.882	0.0137725
760.960	0.0138001
761.038	0.0137147
761.116	0.0137341
761.194	0.0136779
761.273	0.0136647
761.351	0.0136549
761.429	0.0135441
761.507	0.0135942
761.585	0.0135325
761.663	0.0134970
761.741	0.0133624
761.819	0.0133548
761.898	0.0133444
761.976	0.0133650
762.054	0.0134152
762.132	0.0134589
762.210	0.0132138
762.288	0.0132629
762.366	0.0133385
762.444	0.0133372
762.523	0.0134911
762.601	0.0135048
762.679	0.0136148
762.757	0.0136420
762.835	0.0136325
762.913	0.0137378
762.991	0.0138854
763.069	0.0139301
763.148	0.0139760
763.226	0.0139478
763.304	0.0140139
763.382	0.0141453
763.460	0.0141864
763.538	0.0142615
763.616	0.0142621
763.694	0.0143245
763.773	0.0144736
763.851	0.0144911
763.929	0.0144871
764.007	0.0145133
764.085	0.0144609
764.163	0.0145586
764.241	0.0144301
764.319	0.0143274
764.398	0.0144293
764.476	0.0142942
764.554	0.0144301
764.632	0.0143846
764.710	0.0142054
764.788	0.0143434
764.866	0.0141709
764.944	0.0141474
765.023	0.0140594
765.101	0.0141267
765.179	0.0139960
765.257	0.0138213
765.335	0.0137891
765.413	0.0137593
765.491	0.0136192
765.569	0.0134192
765.648	0.0134118
765.726	0.0133987
765.804	0.0131726
765.882	0.0130183
765.960	0.0132639
766.038	0.0131646
766.116	0.0130760
766.194	0.0128535
766.273	0.0129333
766.351	0.0130443
766.429	0.0129298
766.507	0.0129541
766.585	0.0128546
766.663	0.0128799
766.741	0.0129137
766.819	0.0129526
766.898	0.0130540
766.976	0.0131179
767.054	0.0130886
767.132	0.0130676
767.210	0.0133783
767.288	0.0134848
767.366	0.0133674
767.444	0.0134947
767.523	0.0136817
767.601	0.0137846
767.679	0.0138249
767.757	0.0138725
767.835	0.0140518
767.913	0.0140651
767.991	0.0142337
768.069	0.0142631
768.148	0.0143359
768.226	0.0142111
768.304	0.0143517
768.382	0.0142922
768.460	0.0143613
768.538	0.0143548
768.616	0.0144610
768.694	0.0145704
768.773	0.0144267
768.851	0.0145289
768.929	0.0145298
769.007	0.0145159
769.085	0.0143483
769.163	0.0143993
769.241	0.0143832
769.319	0.0143594
769.398	0.0142117
769.476	0.0143849
769.554	0.0142362
769.632	0.0142084
769.710	0.0140022
769.788	0.0140069
769.866	0.0139072
769.944	0.0138464
770.023	0.0136646
770.101	0.0137348
770.179	0.0137889
770.257	0.0137752
770.335	0.0137995
770.413	0.0136458
770.491	0.0136359
770.569	0.0134216
770.648	0.0134599
770.726	0.0134396
770.804	0.0133579
770.882	0.0133155
770.960	0.0132239
771.038	0.0132014
771.116	0.0133429
771.194	0.0131721
771.273	0.0132013
771.351	0.0132133
771.429	0.0132312
771.507	0.0132946
771.585	0.0132552
771.663	0.0132309
771.741	0.0133859
771.819	0.0133243
771.898	0.0134486
771.976	0.0135505
772.054	0.0136070
772.132	0.0134635
772.210	0.0137019
772.288	0.0136550
772.366	0.0137823
772.444	0.0139307
772.523	0.0139249
772.601	0.0139020
772.679	0.0140494
772.757	0.0140614
772.835	0.0141545
772.913	0.0142506
772.991	0.0143925
773.069	0.0143244
773.148	0.0143639
773.226	0.0144862
773.304	0.0144683
773.382	0.0143826
773.460	0.0145294
773.538	0.0146123
773.616	0.0144338
773.694	0.0144628
773.773	0.0145332
773.851	0.0145040
773.929	0.0144402
774.007	0.0143748
774.085	0.0142400
774.163	0.0140966
774.241	0.0141837
774.319	0.0140520
774.398	0.0136967
774.476	0.0137729
774.554	0.0134993
774.632	0.0134615
774.710	0.0134971
774.788	0.0134434
774.866	0.0132491
774.944	0.0131391
775.023	0.0130508
775.101	0.0130974
775.179	0.0130819
775.257	0.0129402
775.335	0.0129407
775.413	0.0129083
775.491	0.0128740
775.569	0.0129198
775.648	0.0128899
775.726	0.0131043
775.804	0.0129988
775.882	0.0130820
775.960	0.0130590
776.038	0.0132114
776.116	0.0132882
776.194	0.0133358
776.273	0.0135619
776.351	0.0136997
776.429	0.0135490
776.507	0.0138237
776.585	0.0140020
776.663	0.0138380
776.741	0.0138867
776.819	0.0139361
776.898	0.0141564
776.976	0.0141470
777.054	0.0141792
777.132	0.0142636
777.210	0.0141977
777.288	0.0142604
777.366	0.0142937
777.444	0.0142664
777.523	0.0142538
777.601	0.0141566
777.679	0.0141262
777.757	0.0142643
777.835	0.0141319
777.913	0.0140430
777.991	0.0140224
778.069	0.0139797
778.148	0.0140005
778.226	0.0139726
778.304	0.0138531
778.382	0.0138725
778.460	0.0139304
778.538	0.0139731
778.616	0.0138520
778.694	0.0136980
778.773	0.0137128
778.851	0.0137830
778.929	0.0137684
779.007	0.0137901
779.085	0.0136700
779.163	0.0137760
779.241	0.0137098
779.319	0.0135929
779.398	0.0136447
779.476	0.0135162
779.554	0.0134586
779.632	0.0135788
779.710	0.0134953
779.788	0.0135060
779.866	0.0134119
779.944	0.0135744
780.023	0.0135437
780.101	0.0134302
780.179	0.0134741
780.257	0.0133835
780.335	0.0134151
780.413	0.0133560
780.491	0.0136956
780.569	0.0136529
780.648	0.0134996
780.726	0.0136834
780.804	0.0136797
780.882	0.0135101
780.960	0.0134843
781.038	0.0135899
781.116	0.0134722
781.194	0.0136725
781.273	0.0135361
781.351	0.0135254
781.429	0.0135516
781.507	0.0135541
781.585	0.0134447
781.663	0.0135263
781.741	0.0136120
781.819	0.0135125
781.898	0.0134089
781.976	0.0133849
782.054	0.0134907
782.132	0.0134718
782.210	0.0134160
782.288	0.0134294
782.366	0.0135613
782.444	0.0134779
782.523	0.0134050
782.601	0.0134551
782.679	0.0135065
782.757	0.0135707
782.835	0.0135631
782.913	0.0136508
782.991	0.0136444
783.069	0.0137151
783.148	0.0137049
783.226	0.0136657
783.304	0.0138709
783.382	0.0139160
783.460	0.0139477
783.538	0.0140253
783.616	0.0140752
783.694	0.0140430
783.773	0.0142101
783.851	0.0141615
783.929	0.0141789
784.007	0.0144296
784.085	0.0144418
784.163	0.0143562
784.241	0.0144219
784.319	0.0142951
784.398	0.0144272
784.476	0.0144538
784.554	0.0143718
784.632	0.0143941
784.710	0.0144595
784.788	0.0145120
784.866	0.0144476
784.944	0.0145000
785.023	0.0143118
785.101	0.0144865
785.179	0.0145205
785.257	0.0142396
785.335	0.0141585
785.413	0.0143432
785.491	0.0142521
785.569	0.0141547
785.648	0.0142300
785.726	0.0139422
785.804	0.0139310
785.882	0.0138794
785.960	0.0137815
786.038	0.0138145
786.116	0.0136791
786.194	0.0136371
786.273	0.0137196
786.351	0.0136181
786.429	0.0136161
786.507	0.0135864
786.585	0.0134075
786.663	0.0134070
786.741	0.0133731
786.819	0.0132890
786.898	0.0134193
786.976	0.0135601
787.054	0.0134646
787.132	0.0132716
787.210	0.0133253
787.288	0.0134885
787.366	0.0134417
787.444	0.0134837
787.523	0.0134744
787.601	0.0134772
787.679	0.0135050
787.757	0.0135617
787.835	0.0135487
787.913	0.0136134
787.991	0.0136978
788.069	0.0136336
788.148	0.0136862
788.226	0.0137828
788.304	0.0135865
788.382	0.0135944
788.460	0.0137425
788.538	0.0138093
788.616	0.0136219
788.694	0.0136686
788.773	0.0136530
788.851	0.0137415
788.929	0.0137820
789.007	0.0136559
789.085	0.0136460
789.163	0.0137676
789.241	0.0137734
789.319	0.0138831
789.398	0.0138345
789.476	0.0137868
789.554	0.0138216
789.632	0.0137035
789.710	0.0138345
789.788	0.0138436
789.866	0.0140260
789.944	0.0140411
790.023	0.0139621
790.101	0.0141394
790.179	0.0139860
790.257	0.0140223
790.335	0.0141639
790.413	0.0140843
790.491	0.0141353
790.569	0.0142113
790.648	0.0142345
790.726	0.0143618
790.804	0.0143153
790.882	0.0142651
790.960	0.0142778
791.038	0.0142641
791.116	0.0142419
791.194	0.0142256
791.273	0.0142442
791.351	0.0142619
791.429	0.0142006
791.507	0.0141357
791.585	0.0141690
791.663	0.0140787
791.741	0.0139961
791.819	0.0139208
791.898	0.0139023
791.976	0.0138904
792.054	0.0138582
792.132	0.0138019
792.210	0.0137244
792.288	0.0137068
792.366	0.0135703
792.444	0.0136666
792.523	0.0136008
792.601	0.0136844
792.679	0.0135600
792.757	0.0132628
792.835	0.0134171
792.913	0.0134393
792.991	0.0131891
793.069	0.0131741
793.148	0.0133451
793.226	0.0132499
793.304	0.0132001
793.382	0.0132263
793.460	0.0131862
793.538	0.0132546
793.616	0.0132027
793.694	0.0132735
793.773	0.0133407
793.851	0.0133154
793.929	0.0133852
794.007	0.0132929
794.085	0.0132748
794.163	0.0133467
794.241	0.0133672
794.319	0.0133891
794.398	0.0135494
794.476	0.0135490
794.554	0.0137536
794.632	0.0137009
794.710	0.0137832
794.788	0.0138432
794.866	0.0139706
794.944	0.0139404
795.023	0.0138372
795.101	0.0139785
795.179	0.0140012
795.257	0.0140661
795.335	0.0141478
795.413	0.0140154
795.491	0.0140036
795.569	0.0141262
795.648	0.0140511
795.726	0.0139816
795.804	0.0140261
795.882	0.0139326
795.960	0.0139337
796.038	0.0139685
796.116	0.0139020
796.194	0.0139843
796.273	0.0138905
796.351	0.0139049
796.429	0.0139620
796.507	0.0140604
796.585	0.0139558
796.663	0.0139685
796.741	0.0139552
796.819	0.0139825
796.898	0.0138300
796.976	0.0138141
797.054	0.0137614
797.132	0.0137528
797.210	0.0138374
797.288	0.0137913
797.366	0.0137343
797.444	0.0137644
797.523	0.0137667
797.601	0.0137310
797.679	0.0137691
797.757	0.0137651
797.835	0.0136111
797.913	0.0137337
797.991	0.0138342
798.069	0.0138174
798.148	0.0137589
798.226	0.0137172
798.304	0.0135534
798.382	0.0135452
798.460	0.0135766
798.538	0.0135566
798.616	0.0134968
798.694	0.0136496
798.773	0.0136615
798.851	0.0137048
798.929	0.0138042
799.007	0.0137338
799.085	0.0136335
799.163	0.0137005
799.241	0.0137431
799.319	0.0138539
799.398	0.0137188
799.476	0.0136990
799.554	0.0137147
799.632	0.0137830
799.710	0.0136240
799.788	0.0138115
799.866	0.0137914
799.944	0.0136834
800.023	0.0136481
800.101	0.0138530
800.179	0.0138043
800.257	0.0138850
800.335	0.0138607
800.413	0.0138482
800.491	0.0137022
800.569	0.0138591
800.648	0.0137329
800.726	0.0136234
800.804	0.0135983
800.882	0.0135616
800.960	0.0137183
801.038	0.0134925
801.116	0.0135132
801.194	0.0135410
801.273	0.0135503
801.351	0.0135009
801.429	0.0134109
801.507	0.0136176
801.585	0.0136233
801.663	0.0135763
801.741	0.0137331
801.819	0.0137508
801.898	0.0137046
801.976	0.0138232
802.054	0.0139443
802.132	0.0139426
802.210	0.0139474
802.288	0.0141099
802.366	0.0140934
802.444	0.0138657
802.523	0.0139295
802.601	0.0138782
802.679	0.0140987
802.757	0.0139473
802.835	0.0137759
802.913	0.0138864
802.991	0.0138294
803.069	0.0139000
803.148	0.0137695
803.226	0.0138280
803.304	0.0137912
803.382	0.0136315
803.460	0.0138856
803.538	0.0138049
803.616	0.0138139
803.694	0.0138062
803.773	0.0138895
803.851	0.0139054
803.929	0.0138452
804.007	0.0138594
804.085	0.0139130
804.163	0.0138117
804.241	0.0138390
804.319	0.0138730
804.398	0.0136745
804.476	0.0137920
804.554	0.0137846
804.632	0.0136586
804.710	0.0138476
804.788	0.0137904
804.866	0.0138106
804.944	0.0138038
805.023	0.0137306
805.101	0.0135300
805.179	0.0135863
805.257	0.0136375
805.335	0.0133848
805.413	0.0134833
805.491	0.0135546
805.569	0.0133766
805.648	0.0134666
805.726	0.0134163
805.804	0.0134684
805.882	0.0134966
805.960	0.0136400
806.038	0.0136497
806.116	0.0136836
806.194	0.0136181
806.273	0.0137881
806.351	0.0138371
806.429	0.0138802
806.507	0.0138469
806.585	0.0139383
806.663	0.0141021
806.741	0.0140444
806.819	0.0138564
806.898	0.0137510
806.976	0.0138053
807.054	0.0137486
807.132	0.0136325
807.210	0.0137215
807.288	0.0137186
807.366	0.0134197
807.444	0.0135049
807.523	0.0134146
807.601	0.0134679
807.679	0.0132842
807.757	0.0132937
807.835	0.0134059
807.913	0.0135302
807.991	0.0134866
808.069	0.0135683
808.148	0.0136368
808.226	0.0136765
808.304	0.0137980
808.382	0.0138609
808.460	0.0138294
808.538	0.0140053
808.616	0.0140445
808.694	0.0142004
808.773	0.0141334
808.851	0.0142236
808.929	0.0143304
809.007	0.0143460
809.085	0.0143183
809.163	0.0142325
809.241	0.0141941
809.319	0.0141484
809.398	0.0140067
809.476	0.0138673
809.554	0.0138110
809.632	0.0139278
809.710	0.0136436
809.788	0.0135789
809.866	0.0134794
809.944	0.0133978
810.023	0.0133923
810.101	0.0134357
810.179	0.0135099
810.257	0.0135814
810.335	0.0136803
810.413	0.0136609
810.491	0.0138982
810.569	0.0140189
810.648	0.0139019
810.726	0.0140591
810.804	0.0141904
810.882	0.0141036
810.960	0.0139806
811.038	0.0140405
811.116	0.0138331
811.194	0.0137993
811.273	0.0136972
811.351	0.0137307
811.429	0.0136454
811.507	0.0135229
811.585	0.0135162
811.663	0.0133786
811.741	0.0134932
811.819	0.0133562
811.898	0.0133863
811.976	0.0134529
812.054	0.0136363
812.132	0.0136782
812.210	0.0136304
812.288	0.0137907
812.366	0.0137646
812.444	0.0138879
812.523	0.0138904
812.601	0.0140376
812.679	0.0141103
812.757	0.0140591
812.835	0.0139021
812.913	0.0140552
812.991	0.0141326
813.069	0.0140701
813.148	0.0139497
813.226	0.0141297
813.304	0.0140593
813.382	0.0140839
813.460	0.0141200
813.538	0.0141808
813.616	0.0140216
813.694	0.0140374
813.773	0.0141730
813.851	0.0140376
813.929	0.0139497
814.007	0.0139348
814.085	0.0137691
814.163	0.0136764
814.241	0.0138869
814.319	0.0136301
814.398	0.0137196
814.476	0.0136595
814.554	0.0137346
814.632	0.0136469
814.710	0.0136880
814.788	0.0137514
814.866	0.0136709
814.944	0.0139382
815.023	0.0139668
815.101	0.0138633
815.179	0.0140292
815.257	0.0140103
815.335	0.0139088
815.413	0.0139532
815.491	0.0139601
815.569	0.0139561
815.648	0.0139172
815.726	0.0138101
815.804	0.0136604
815.882	0.0138039
815.960	0.0137107
816.038	0.0136266
816.116	0.0134276
816.194	0.0133277
816.273	0.0133835
816.351	0.0133748
816.429	0.0134190
816.507	0.0133947
816.585	0.0134426
816.663	0.0134400
816.741	0.0135306
816.819	0.0136121
816.898	0.0136178
816.976	0.0136719
817.054	0.0136019
817.132	0.0136361
817.210	0.0136495
817.288	0.0136558
817.366	0.0136230
817.444	0.0136368
817.523	0.0136096
817.601	0.0135003
817.679	0.0134374
817.757	0.0133771
817.835	0.0132738
817.913	0.0133334
817.991	0.0134632
818.069	0.0133983
818.148	0.0132936
818.226	0.0133463
818.304	0.0134765
818.382	0.0133536
818.460	0.0134640
818.538	0.0135180
818.616	0.0136702
818.694	0.0137215
818.773	0.0138506
818.851	0.0139121
818.929	0.0140289
819.007	0.0142124
819.085	0.0140681
819.163	0.0140577
819.241	0.0142096
819.319	0.0142473
819.398	0.0141940
819.476	0.0142596
819.554	0.0142294
819.632	0.0141591
819.710	0.0141940
819.788	0.0139093
819.866	0.0138827
819.944	0.0138924
820.023	0.0138032
820.101	0.0139471
820.179	0.0139052
820.257	0.0139331
820.335	0.0139443
820.413	0.0138554
820.491	0.0139386
820.569	0.0139210
820.648	0.0140351
820.726	0.0140260
820.804	0.0139131
820.882	0.0138603
820.960	0.0139207
821.038	0.0139285
821.116	0.0138914
821.194	0.0136959
821.273	0.0138335
821.351	0.0139143
821.429	0.0136916
821.507	0.0139462
821.585	0.0139058
821.663	0.0140900
821.741	0.0139870
821.819	0.0138875
821.898	0.0138551
821.976	0.0139019
822.054	0.0139583
822.132	0.0138470
822.210	0.0137701
822.288	0.0137965
822.366	0.0137618
822.444	0.0138499
822.523	0.0136311
822.601	0.0136142
822.679	0.0137640
822.757	0.0136286
822.835	0.0135560
822.913	0.0136547
822.991	0.0135843
823.069	0.0135275
823.148	0.0135232
823.226	0.0135771
823.304	0.0135043
823.382	0.0133845
823.460	0.0133349
823.538	0.0133447
823.616	0.0133048
823.694	0.0133379
823.773	0.0131322
823.851	0.0130353
823.929	0.0131782
824.007	0.0130285
824.085	0.0130544
824.163	0.0130727
824.241	0.0129723
824.319	0.0131221
824.398	0.0131535
824.476	0.0131407
824.554	0.0134261
824.632	0.0134397
824.710	0.0135849
824.788	0.0136698
824.866	0.0138177
824.944	0.0140041
825.023	0.0141323
825.101	0.0142322
825.179	0.0142658
825.257	0.0143182
825.335	0.0144575
825.413	0.0144690
825.491	0.0145448
825.569	0.0145437
825.648	0.0144357
825.726	0.0143217
825.804	0.0144253
825.882	0.0141421
825.960	0.0142254
826.038	0.0139893
826.116	0.0137314
826.194	0.0135808
826.273	0.0135560
826.351	0.0134964
826.429	0.0133673
826.507	0.0132176
826.585	0.0131234
826.663	0.0130701
826.741	0.0131281
826.819	0.0131493
826.898	0.0131630
826.976	0.0133428
827.054	0.0133368
827.132	0.0134901
827.210	0.0135556
827.288	0.0136374
827.366	0.0139292
827.444	0.0139453
827.523	0.0138770
827.601	0.0139400
827.679	0.0143118
827.757	0.0142281
827.835	0.0142899
827.913	0.0144094
827.991	0.0143929
828.069	0.0144572
828.148	0.0143603
828.226	0.0142741
828.304	0.0144627
828.382	0.0144189
828.460	0.0143597
828.538	0.0142729
828.616	0.0142439
828.694	0.0141318
828.773	0.0141081
828.851	0.0140749
828.929	0.0138113
829.007	0.0136166
829.085	0.0136505
829.163	0.0132815
829.241	0.0132857
829.319	0.0131454
829.398	0.0130981
829.476	0.0128065
829.554	0.0127596
829.632	0.0125296
829.710	0.0126359
829.788	0.0126865
829.866	0.0125638
829.944	0.0125894
830.023	0.0127122
830.101	0.0128777
830.179	0.0128645
830.257	0.0130182
830.335	0.0130725
830.413	0.0133000
830.491	0.0132930
830.569	0.0135378
830.648	0.0137640
830.726	0.0138127
830.804	0.0138713
830.882	0.0140238
830.960	0.0141571
831.038	0.0140285
831.116	0.0141458
831.194	0.0141864
831.273	0.0142796
831.351	0.0143137
831.429	0.0141457
831.507	0.0141599
831.585	0.0142959
831.663	0.0144613
831.741	0.0141312
831.819	0.0143137
831.898	0.0145201
831.976	0.0144246
832.054	0.0144437
832.132	0.0143450
832.210	0.0142482
832.288	0.0142675
832.366	0.0142110
832.444	0.0142804
832.523	0.0143224
832.601	0.0140945
832.679	0.0139798
832.757	0.0139484
832.835	0.0138937
832.913	0.0137006
832.991	0.0137107
833.069	0.0135526
833.148	0.0137130
833.226	0.0136394
833.304	0.0134100
833.382	0.0135332
833.460	0.0135362
833.538	0.0135605
833.616	0.0134464
833.694	0.0133418
833.773	0.0134033
833.851	0.0134097
833.929	0.0134486
834.007	0.0134634
834.085	0.0136395
834.163	0.0137383
834.241	0.0137141
834.319	0.0138007
834.398	0.0138610
834.476	0.0140997
834.554	0.0138732
834.632	0.0140239
834.710	0.0140892
834.788	0.0141490
834.866	0.0140878
834.944	0.0140314
835.023	0.0140658
835.101	0.0139936
835.179	0.0141502
835.257	0.0141557
835.335	0.0141536
835.413	0.0140343
835.491	0.0141297
835.569	0.0140401
835.648	0.0141151
835.726	0.0140212
835.804	0.0139866
835.882	0.0140047
835.960	0.0139728
836.038	0.0139207
836.116	0.0139784
836.194	0.0139188
836.273	0.0139977
836.351	0.0140726
836.429	0.0137396
836.507	0.0137428
836.585	0.0135249
836.663	0.0135190
836.741	0.0134753
836.819	0.0133759
836.898	0.0132826
836.976	0.0131834
837.054	0.0132607
837.132	0.0130543
837.210	0.0131771
837.288	0.0132359
837.366	0.0132291
837.444	0.0130621
837.523	0.0131698
837.601	0.0134021
837.679	0.0134400
837.757	0.0134203
837.835	0.0135294
837.913	0.0135658
837.991	0.0135474
838.069	0.0137879
838.148	0.0137926
838.226	0.0138525
838.304	0.0140973
838.382	0.0140727
838.460	0.0142022
838.538	0.0143620
838.616	0.0143932
838.694	0.0144768
838.773	0.0146666
838.851	0.0146859
838.929	0.0146931
839.007	0.0145837
839.085	0.0144209
839.163	0.0144849
839.241	0.0144919
839.319	0.0144511
839.398	0.0142805
839.476	0.0142135
839.554	0.0141572
839.632	0.0141685
839.710	0.0140497
839.788	0.0138437
839.866	0.0137154
839.944	0.0138454
840.023	0.0137326
840.101	0.0136803
840.179	0.0134980
840.257	0.0135735
840.335	0.0134946
840.413	0.0134557
840.491	0.0133694
840.569	0.0133781
840.648	0.0132431
840.726	0.0134148
840.804	0.0133843
840.882	0.0133586
840.960	0.0133359
841.038	0.0134296
841.116	0.0133975
841.194	0.0133470
841.273	0.0135332
841.351	0.0135008
841.429	0.0136111
841.507	0.0136481
841.585	0.0137571
841.663	0.0136790
841.741	0.0137958
841.819	0.0139782
841.898	0.0139917
841.976	0.0140810
842.054	0.0140849
842.132	0.0141138
842.210	0.0141201
842.288	0.0140954
842.366	0.0141155
842.444	0.0139511
842.523	0.0142100
842.601	0.0142710
842.679	0.0141217
842.757	0.0141826
842.835	0.0142304
842.913	0.0142754
842.991	0.0142064
843.069	0.0140958
843.148	0.0141334
843.226	0.0141380
843.304	0.0140218
843.382	0.0139932
843.460	0.0140681
843.538	0.0139668
843.616	0.0139582
843.694	0.0140114
843.773	0.0137582
843.851	0.0137209
843.929	0.0136870
844.007	0.0135498
844.085	0.0136507
844.163	0.0135541
844.241	0.0135042
844.319	0.0135467
844.398	0.0133140
844.476	0.0134619
844.554	0.0135093
844.632	0.0134578
844.710	0.0135381
844.788	0.0134650
844.866	0.0135152
844.944	0.0133469
845.023	0.0133743
845.101	0.0133958
845.179	0.0133177
845.257	0.0135007
845.335	0.0134133
845.413	0.0136090
845.491	0.0135445
845.569	0.0135820
845.648	0.0136577
845.726	0.0138178
845.804	0.0135616
845.882	0.0138987
845.960	0.0138193
846.038	0.0140119
846.116	0.0140226
846.194	0.0138972
846.273	0.0139972
846.351	0.0138686
846.429	0.0139563
846.507	0.0139874
846.585	0.0138994
846.663	0.0139108
846.741	0.0138506
846.819	0.0138625
846.898	0.0137464
846.976	0.0137318
847.054	0.0137660
847.132	0.0136291
847.210	0.0138585
847.288	0.0135563
847.366	0.0136007
847.444	0.0136932
847.523	0.0136021
847.601	0.0134058
847.679	0.0134496
847.757	0.0135294
847.835	0.0133847
847.913	0.0134723
847.991	0.0135148
848.069	0.0135026
848.148	0.0134837
848.226	0.0134663
848.304	0.0135026
848.382	0.0135390
848.460	0.0135250
848.538	0.0134472
848.616	0.0136767
848.694	0.0136585
848.773	0.0136855
848.851	0.0136861
848.929	0.0137076
849.007	0.0136823
849.085	0.0138815
849.163	0.0139565
849.241	0.0137872
849.319	0.0139587
849.398	0.0139347
849.476	0.0139867
849.554	0.0139224
849.632	0.0138317
849.710	0.0139639
849.788	0.0138852
849.866	0.0139539
849.944	0.0137828
850.023	0.0138248
850.101	0.0137254
850.179	0.0138680
850.257	0.0136833
850.335	0.0137414
850.413	0.0136177
850.491	0.0137758
850.569	0.0138090
850.648	0.0137119
850.726	0.0136731
850.804	0.0137485
850.882	0.0137379
850.960	0.0137943
851.038	0.0137045
851.116	0.0138529
851.194	0.0136514
851.273	0.0136028
851.351	0.0137157
851.429	0.0136519
851.507	0.0137437
851.585	0.0135426
851.663	0.0136086
851.741	0.0136901
851.819	0.0136259
851.898	0.0135569
851.976	0.0136538
852.054	0.0137335
852.132	0.0136936
852.210	0.0135977
852.288	0.0136731
852.366	0.0136128
852.444	0.0138532
852.523	0.0138479
852.601	0.0137483
852.679	0.0137077
852.757	0.0137917
852.835	0.0139092
852.913	0.0137559
852.991	0.0138262
853.069	0.0139229
853.148	0.0139317
853.226	0.0138038
853.304	0.0138918
853.382	0.0139336
853.460	0.0138647
853.538	0.0138029
853.616	0.0138854
853.694	0.0136515
853.773	0.0138546
853.851	0.0137959
853.929	0.0136348
854.007	0.0137274
854.085	0.0137479
854.163	0.0136250
854.241	0.0136330
854.319	0.0136463
854.398	0.0136807
854.476	0.0137102
854.554	0.0137078
854.632	0.0137450
854.710	0.0138668
854.788	0.0138555
854.866	0.0138947
854.944	0.0139884
855.023	0.0137861
855.101	0.0139356
855.179	0.0140845
855.257	0.0139320
855.335	0.0140520
855.413	0.0140288
855.491	0.0141524
855.569	0.0138915
855.648	0.0139252
855.726	0.0138206
855.804	0.0139080
855.882	0.0139159
855.960	0.0138999
856.038	0.0137499
856.116	0.0137879
856.194	0.0137584
856.273	0.0137669
856.351	0.0138293
856.429	0.0137244
856.507	0.0138924
856.585	0.0137428
856.663	0.0137722
856.741	0.0137403
856.819	0.0138609
856.898	0.0138106
856.976	0.0135880
857.054	0.0135965
857.132	0.0134775
857.210	0.0135065
857.288	0.0136549
857.366	0.0136423
857.444	0.0135423
857.523	0.0135188
857.601	0.0135945
857.679	0.0135480
857.757	0.0135168
857.835	0.0136835
857.913	0.0135168
857.991	0.0136230
858.069	0.0137505
858.148	0.0137971
858.226	0.0137838
858.304	0.0138608
858.382	0.0138439
858.460	0.0138844
858.538	0.0139436
858.616	0.0139459
858.694	0.0137933
858.773	0.0138542
858.851	0.0138107
858.929	0.0138480
859.007	0.0137542
859.085	0.0139124
859.163	0.0138958
859.241	0.0138999
859.319	0.0138974
859.398	0.0138037
859.476	0.0138506
859.554	0.0138660
859.632	0.0138549
859.710	0.0138797
859.788	0.0139633
859.866	0.0139439
859.944	0.0138984
860.023	0.0138830
860.101	0.0139784
860.179	0.0139409
860.257	0.0139289
860.335	0.0137225
860.413	0.0138268
860.491	0.0138171
860.569	0.0139468
860.648	0.0138124
860.726	0.0138320
860.804	0.0139683
860.882	0.0139220
860.960	0.0139644
861.038	0.0138607
861.116	0.0138653
861.194	0.0139774
861.273	0.0139838
861.351	0.0137566
861.429	0.0138608
861.507	0.0138217
861.585	0.0136884
861.663	0.0137534
861.741	0.0137150
861.819	0.0138676
861.898	0.0136394
861.976	0.0137695
862.054	0.0138984
862.132	0.0138077
862.210	0.0137521
862.288	0.0137675
862.366	0.0138788
862.444	0.0137979
862.523	0.0137537
862.601	0.0139422
862.679	0.0138241
862.757	0.0137089
862.835	0.0137769
862.913	0.0139317
862.991	0.0140025
863.069	0.0139021
863.148	0.0139178
863.226	0.0138671
863.304	0.0139968
863.382	0.0139159
863.460	0.0139511
863.538	0.0140067
863.616	0.0140691
863.694	0.0139410
863.773	0.0140231
863.851	0.0140241
863.929	0.0140583
864.007	0.0140868
864.085	0.0139870
864.163	0.0139551
864.241	0.0139802
864.319	0.0139390
864.398	0.0140868
864.476	0.0139906
864.554	0.0138975
864.632	0.0139410
864.710	0.0140118
864.788	0.0139108
864.866	0.0138120
864.944	0.0139398
865.023	0.0138297
865.101	0.0137771
865.179	0.0138521
865.257	0.0138726
865.335	0.0137907
865.413	0.0138091
865.491	0.0137360
865.569	0.0137266
865.648	0.0136191
865.726	0.0136675
865.804	0.0137707
865.882	0.0135388
865.960	0.0134911
866.038	0.0136111
866.116	0.0136869
866.194	0.0134950
866.273	0.0135578
866.351	0.0134764
866.429	0.0134190
866.507	0.0134506
866.585	0.0135049
866.663	0.0134009
866.741	0.0135558
866.819	0.0134688
866.898	0.0136034
866.976	0.0135333
867.054	0.0136164
867.132	0.0137038
867.210	0.0136645
867.288	0.0136642
867.366	0.0137461
867.444	0.0138323
867.523	0.0138983
867.601	0.0138422
867.679	0.0138817
867.757	0.0140013
867.835	0.0139365
867.913	0.0139587
867.991	0.0139148
868.069	0.0141109
868.148	0.0140276
868.226	0.0139700
868.304	0.0139983
868.382	0.0139899
868.460	0.0140414
868.538	0.0140150
868.616	0.0138416
868.694	0.0138323
868.773	0.0138610
868.851	0.0139292
868.929	0.0139671
869.007	0.0138152
869.085	0.0138210
869.163	0.0137117
869.241	0.0138083
869.319	0.0136613
869.398	0.0136023
869.476	0.0136524
869.554	0.0135579
869.632	0.0135557
869.710	0.0136601
869.788	0.0135484
869.866	0.0137061
869.944	0.0136281
870.023	0.0136488
870.101	0.0136926
870.179	0.0136404
870.257	0.0136498
870.335	0.0136655
870.413	0.0136177
870.491	0.0135213
870.569	0.0137050
870.648	0.0136088
870.726	0.0135947
870.804	0.0137701
870.882	0.0138218
870.960	0.0135896
871.038	0.0136853
871.116	0.0137067
871.194	0.0136628
871.273	0.0138136
871.351	0.0137465
871.429	0.0137328
871.507	0.0136990
871.585	0.0138899
871.663	0.0138153
871.741	0.0136880
871.819	0.0139400
871.898	0.0137846
871.976	0.0139073
872.054	0.0139742
872.132	0.0139491
872.210	0.0136884
872.288	0.0138348
872.366	0.0138696
872.444	0.0140139
872.523	0.0139636
872.601	0.0139745
872.679	0.0139215
872.757	0.0139605
872.835	0.0139938
872.913	0.0139845
872.991	0.0138468
873.069	0.0138200
873.148	0.0138006
873.226	0.0139262
873.304	0.0137917
873.382	0.0137782
873.460	0.0136759
873.538	0.0138511
873.616	0.0136385
873.694	0.0136433
873.773	0.0136549
873.851	0.0136179
873.929	0.0137236
874.007	0.0137355
874.085	0.0137397
874.163	0.0137617
874.241	0.0137031
874.319	0.0138159
874.398	0.0137701
874.476	0.0137814
874.554	0.0137507
874.632	0.0139614
874.710	0.0138591
874.788	0.0138332
874.866	0.0137209
874.944	0.0140347
875.023	0.0138565
875.101	0.0137245
875.179	0.0139090
875.257	0.0138691
875.335	0.0138372
875.413	0.0138226
875.491	0.0137630
875.569	0.0138642
875.648	0.0138724
875.726	0.0138201
875.804	0.0138364
875.882	0.0138847
875.960	0.0138888
876.038	0.0138707
876.116	0.0138379
876.194	0.0139298
876.273	0.0138219
876.351	0.0138446
876.429	0.0138168
876.507	0.0137556
876.585	0.0137794
876.663	0.0137107
876.741	0.0136834
876.819	0.0136495
876.898	0.0137350
876.976	0.0137416
877.054	0.0137444
877.132	0.0137331
877.210	0.0136067
877.288	0.0136382
877.366	0.0137433
877.444	0.0137230
877.523	0.0137840
877.601	0.0139197
877.679	0.0138683
877.757	0.0137514
877.835	0.0137717
877.913	0.0138494
877.991	0.0138136
878.069	0.0138288
878.148	0.0138775
878.226	0.0138412
878.304	0.0139420
878.382	0.0139256
878.460	0.0138575
878.538	0.0138819
878.616	0.0140250
878.694	0.0139527
878.773	0.0138804
878.851	0.0140215
878.929	0.0141017
879.007	0.0140366
879.085	0.0138295
879.163	0.0139133
879.241	0.0138923
879.319	0.0138420
879.398	0.0139473
879.476	0.0138364
879.554	0.0139544
879.632	0.0137905
879.710	0.0138515
879.788	0.0136674
879.866	0.0138110
879.944	0.0137819
880.023	0.0136163
880.101	0.0136097
880.179	0.0136477
880.257	0.0136273
880.335	0.0135651
880.413	0.0135876
880.491	0.0135708
880.569	0.0135518
880.648	0.0135216
880.726	0.0134945
880.804	0.0136667
880.882	0.0135567
880.960	0.0135975
881.038	0.0136453
881.116	0.0136092
881.194	0.0136390
881.273	0.0138931
881.351	0.0137890
881.429	0.0138240
881.507	0.0138556
881.585	0.0137458
881.663	0.0138276
881.741	0.0139046
881.819	0.0138628
881.898	0.0140504
881.976	0.0139279
882.054	0.0140243
882.132	0.0140403
882.210	0.0140636
882.288	0.0140808
882.366	0.0141289
882.444	0.0140523
882.523	0.0139865
882.601	0.0139822
882.679	0.0139586
882.757	0.0138528
882.835	0.0139448
882.913	0.0138432
882.991	0.0138612
883.069	0.0138121
883.148	0.0138041
883.226	0.0138680
883.304	0.0137101
883.382	0.0136273
883.460	0.0135712
883.538	0.0137988
883.616	0.0136501
883.694	0.0136060
883.773	0.0135207
883.851	0.0135207
883.929	0.0135229
884.007	0.0133278
884.085	0.0134795
884.163	0.0135361
884.241	0.0134007
884.319	0.0134550
884.398	0.0133236
884.476	0.0134143
884.554	0.0135616
884.632	0.0135011
884.710	0.0134262
884.788	0.0135749
884.866	0.0136427
884.944	0.0135513
885.023	0.0136828
885.101	0.0136459
885.179	0.0135600
885.257	0.0137426
885.335	0.0138133
885.413	0.0138570
885.491	0.0138400
885.569	0.0138051
885.648	0.0138345
885.726	0.0139620
885.804	0.0139275
885.882	0.0138580
885.960	0.0137809
886.038	0.0139121
886.116	0.0140555
886.194	0.0140367
886.273	0.0139832
886.351	0.0140123
886.429	0.0139829
886.507	0.0141177
886.585	0.0139751
886.663	0.0138435
886.741	0.0138260
886.819	0.0139725
886.898	0.0139166
886.976	0.0139356
887.054	0.0138303
887.132	0.0138424
887.210	0.0138017
887.288	0.0137037
887.366	0.0137894
887.444	0.0137801
887.523	0.0137901
887.601	0.0137741
887.679	0.0136787
887.757	0.0136975
887.835	0.0138017
887.913	0.0136862
887.991	0.0136468
888.069	0.0136065
888.148	0.0138245
888.226	0.0137643
888.304	0.0137586
888.382	0.0137967
888.460	0.0138281
888.538	0.0138347
888.616	0.0138037
888.694	0.0138293
888.773	0.0138480
888.851	0.0137148
888.929	0.0137405
889.007	0.0138404
889.085	0.0139043
889.163	0.0135654
889.241	0.0136787
889.319	0.0136460
889.398	0.0135870
889.476	0.0136282
889.554	0.0136845
889.632	0.0134925
889.710	0.0134531
889.788	0.0135679
889.866	0.0136797
889.944	0.0135955
890.023	0.0135595
890.101	0.0136489
890.179	0.0135803
890.257	0.0135627
890.335	0.0135380
890.413	0.0136749
890.491	0.0135647
890.569	0.0135785
890.648	0.0134859
890.726	0.0136050
890.804	0.0136176
890.882	0.0136395
890.960	0.0136865
891.038	0.0134972
891.116	0.0135281
891.194	0.0136642
891.273	0.0136060
891.351	0.0136839
891.429	0.0137433
891.507	0.0137199
891.585	0.0137291
891.663	0.0137279
891.741	0.0136972
891.819	0.0137161
891.898	0.0137734
891.976	0.0137981
892.054	0.0138466
892.132	0.0136514
892.210	0.0137975
892.288	0.0138066
892.366	0.0136897
892.444	0.0137684
892.523	0.0138440
892.601	0.0137575
892.679	0.0138324
892.757	0.0136765
892.835	0.0138625
892.913	0.0138141
892.991	0.0138065
893.069	0.0138617
893.148	0.0139091
893.226	0.0139696
893.304	0.0138925
893.382	0.0139671
893.460	0.0138037
893.538	0.0140433
893.616	0.0139362
893.694	0.0139633
893.773	0.0140648
893.851	0.0138886
893.929	0.0139648
894.007	0.0140493
894.085	0.0140542
894.163	0.0139250
894.241	0.0138765
894.319	0.0136346
894.398	0.0137455
894.476	0.0136770
894.554	0.0135717
894.632	0.0137521
894.710	0.0136999
894.788	0.0136967
894.866	0.0136775
894.944	0.0135960
895.023	0.0134729
895.101	0.0135798
895.179	0.0134245
895.257	0.0135800
895.335	0.0136353
895.413	0.0136840
895.491	0.0136092
895.569	0.0136979
895.648	0.0136510
895.726	0.0137256
895.804	0.0136515
895.882	0.0136479
895.960	0.0138818
896.038	0.0137703
896.116	0.0138483
896.194	0.0140155
896.273	0.0139468
896.351	0.0139291
896.429	0.0140231
896.507	0.0139661
896.585	0.0139294
896.663	0.0140860
896.741	0.0138403
896.819	0.0140186
896.898	0.0139581
896.976	0.0140224
897.054	0.0140884
897.132	0.0139363
897.210	0.0140338
897.288	0.0139491
897.366	0.0139231
897.444	0.0139716
897.523	0.0139309
897.601	0.0138502
897.679	0.0139584
897.757	0.0138921
897.835	0.0141017
897.913	0.0139932
897.991	0.0137606
898.069	0.0139443
898.148	0.0137974
898.226	0.0137797
898.304	0.0137755
898.382	0.0137443
898.460	0.0136724
898.538	0.0136633
898.616	0.0137083
898.694	0.0136262
898.773	0.0135904
898.851	0.0136514
898.929	0.0135702
899.007	0.0135409
899.085	0.0136147
899.163	0.0134413
899.241	0.0135222
899.319	0.0134710
899.398	0.0133392
899.476	0.0134930
899.554	0.0134935
899.632	0.0135358
899.710	0.0135576
899.788	0.0134607
899.866	0.0135380
899.944	0.0136773
900.023	0.0136906
900.101	0.0136374
900.179	0.0136462
900.257	0.0136136
900.335	0.0136855
900.413	0.0137897
900.491	0.0138842
900.569	0.0137380
900.648	0.0138515
900.726	0.0139314
900.804	0.0139507
900.882	0.0138711
900.960	0.0139582
901.038	0.0138158
901.116	0.0139701
901.194	0.0139117
901.273	0.0139037
901.351	0.0138293
901.429	0.0139677
901.507	0.0138065
901.585	0.0139040
901.663	0.0138914
901.741	0.0138256
901.819	0.0139960
901.898	0.0140821
901.976	0.0139411
902.054	0.0139068
902.132	0.0139444
902.210	0.0139197
902.288	0.0139409
902.366	0.0139305
902.444	0.0138785
902.523	0.0139326
902.601	0.0139081
902.679	0.0141306
902.757	0.0139973
902.835	0.0140281
902.913	0.0139338
902.991	0.0138881
903.069	0.0139575
903.148	0.0139440
903.226	0.0138148
903.304	0.0137788
903.382	0.0138903
903.460	0.0138715
903.538	0.0137585
903.616	0.0138333
903.694	0.0138103
903.773	0.0138322
903.851	0.0137380
903.929	0.0138017
904.007	0.0138473
904.085	0.0137331
904.163	0.0138086
904.241	0.0137569
904.319	0.0137665
904.398	0.0136871
904.476	0.0136897
904.554	0.0137527
904.632	0.0137150
904.710	0.0136298
904.788	0.0135317
904.866	0.0134823
904.944	0.0137012
905.023	0.0136691
905.101	0.0136499
905.179	0.0135917
905.257	0.0136948
905.335	0.0136939
905.413	0.0137643
905.491	0.0137453
905.569	0.0136459
905.648	0.0135964
905.726	0.0137926
905.804	0.0138281
905.882	0.0138118
905.960	0.0137531
906.038	0.0139653
906.116	0.0140315
906.194	0.0139929
906.273	0.0139658
906.351	0.0141947
906.429	0.0140339
906.507	0.0138935
906.585	0.0141345
906.663	0.0140675
906.741	0.0140970
906.819	0.0142109
906.898	0.0140734
906.976	0.0141421
907.054	0.0141881
907.132	0.0139671
907.210	0.0140765
907.288	0.0140618
907.366	0.0138799
907.444	0.0140714
907.523	0.0138873
907.601	0.0138924
907.679	0.0139554
907.757	0.0138417
907.835	0.0139223
907.913	0.0137222
907.991	0.0137428
908.069	0.0137668
908.148	0.0138148
908.226	0.0136976
908.304	0.0136564
908.382	0.0136765
908.460	0.0137064
908.538	0.0134553
908.616	0.0135484
908.694	0.0135423
908.773	0.0135899
908.851	0.0135552
908.929	0.0133793
909.007	0.0134381
909.085	0.0134932
909.163	0.0135244
909.241	0.0134028
909.319	0.0135925
909.398	0.0134878
909.476	0.0135361
909.554	0.0135088
909.632	0.0134149
909.710	0.0135839
909.788	0.0135917
909.866	0.0136629
909.944	0.0137286
910.023	0.0137185
910.101	0.0137263
910.179	0.0137905
910.257	0.0137673
910.335	0.0138374
910.413	0.0139646
910.491	0.0139463
910.569	0.0138657
910.648	0.0139138
910.726	0.0139782
910.804	0.0140438
910.882	0.0140226
910.960	0.0142203
911.038	0.0140430
911.116	0.0139488
911.194	0.0139777
911.273	0.0140216
911.351	0.0138895
911.429	0.0138969
911.507	0.0139025
911.585	0.0139421
911.663	0.0138236
911.741	0.0137008
911.819	0.0137901
911.898	0.0138132
911.976	0.0138414
912.054	0.0137189
912.132	0.0138049
912.210	0.0137768
912.288	0.0137026
912.366	0.0137373
912.444	0.0137792
912.523	0.0136472
912.601	0.0137658
912.679	0.0138374
912.757	0.0137055
912.835	0.0136883
912.913	0.0137236
912.991	0.0136292
913.069	0.0135542
913.148	0.0136865
913.226	0.0137744
913.304	0.0137223
913.382	0.0136272
913.460	0.0136948
913.538	0.0135559
913.616	0.0137219
913.694	0.0137289
913.773	0.0136781
913.851	0.0137095
913.929	0.0137740
914.007	0.0138023
914.085	0.0136803
914.163	0.0137700
914.241	0.0138142
914.319	0.0138161
914.398	0.0137775
914.476	0.0138707
914.554	0.0138453
914.632	0.0137792
914.710	0.0139579
914.788	0.0138864
914.866	0.0139040
914.944	0.0137831
915.023	0.0138880
915.101	0.0139195
915.179	0.0139981
915.257	0.0138616
915.335	0.0139187
915.413	0.0138744
915.491	0.0137269
915.569	0.0138583
915.648	0.0139444
915.726	0.0138146
915.804	0.0137884
915.882	0.0139056
915.960	0.0138166
916.038	0.0137415
916.116	0.0138573
916.194	0.0137815
916.273	0.0137363
916.351	0.0138820
916.429	0.0137978
916.507	0.0136517
916.585	0.0136925
916.663	0.0137827
916.741	0.0138131
916.819	0.0136976
916.898	0.0136715
916.976	0.0136490
917.054	0.0137804
917.132	0.0137429
917.210	0.0137549
917.288	0.0136678
917.366	0.0136629
917.444	0.0137165
917.523	0.0137337
917.601	0.0135233
917.679	0.0136958
917.757	0.0137148
917.835	0.0135810
917.913	0.0136335
917.991	0.0136637
918.069	0.0137556
918.148	0.0135870
918.226	0.0136260
918.304	0.0136048
918.382	0.0135282
918.460	0.0135734
918.538	0.0136054
918.616	0.0135130
918.694	0.0135497
918.773	0.0135503
918.851	0.0136937
918.929	0.0135879
919.007	0.0134844
919.085	0.0135194
919.163	0.0136009
919.241	0.0135067
919.319	0.0134003
919.398	0.0136450
919.476	0.0135703
919.554	0.0135021
919.632	0.0136689
919.710	0.0136603
919.788	0.0136693
919.866	0.0136521
919.944	0.0135945
920.023	0.0137817
920.101	0.0138555
920.179	0.0135843
920.257	0.0137143
920.335	0.0137189
920.413	0.0137684
920.491	0.0137495
920.569	0.0138919
920.648	0.0138168
920.726	0.0138723
920.804	0.0137297
920.882	0.0138770
920.960	0.0138403
921.038	0.0137382
921.116	0.0137597
921.194	0.0137339
921.273	0.0137446
921.351	0.0140064
921.429	0.0138378
921.507	0.0138571
921.585	0.0137946
921.663	0.0137800
921.741	0.0137937
921.819	0.0137268
921.898	0.0138714
921.976	0.0138538
922.054	0.0138032
922.132	0.0136988
922.210	0.0136153
922.288	0.0137421
922.366	0.0138531
922.444	0.0136514
922.523	0.0136592
922.601	0.0136337
922.679	0.0135456
922.757	0.0135041
922.835	0.0135272
922.913	0.0135502
922.991	0.0135969
923.069	0.0138747
923.148	0.0135912
923.226	0.0134898
923.304	0.0136311
923.382	0.0135609
923.460	0.0135293
923.538	0.0137016
923.616	0.0136320
923.694	0.0137078
923.773	0.0137595
923.851	0.0136972
923.929	0.0138255
924.007	0.0137894
924.085	0.0136971
924.163	0.0136869
924.241	0.0137679
924.319	0.0138166
924.398	0.0138921
924.476	0.0137177
924.554	0.0136911
924.632	0.0137979
924.710	0.0138161
924.788	0.0138095
924.866	0.0135548
924.944	0.0136753
925.023	0.0138998
925.101	0.0137518
925.179	0.0136846
925.257	0.0138487
925.335	0.0137119
925.413	0.0136378
925.491	0.0137804
925.569	0.0137670
925.648	0.0138903
925.726	0.0137332
925.804	0.0137674
925.882	0.0137792
925.960	0.0138313
926.038	0.0137448
926.116	0.0137254
926.194	0.0137466
926.273	0.0137812
926.351	0.0137275
926.429	0.0136253
926.507	0.0137464
926.585	0.0138029
926.663	0.0139057
926.741	0.0136530
926.819	0.0137204
926.898	0.0137318
926.976	0.0137243
927.054	0.0137997
927.132	0.0137275
927.210	0.0139181
927.288	0.0138292
927.366	0.0138737
927.444	0.0137650
927.523	0.0136697
927.601	0.0137925
927.679	0.0137866
927.757	0.0138234
927.835	0.0138438
927.913	0.0140587
927.991	0.0139371
928.069	0.0138672
928.148	0.0139690
928.226	0.0139527
928.304	0.0138815
928.382	0.0140697
928.460	0.0139873
928.538	0.0140934
928.616	0.0139157
928.694	0.0138666
928.773	0.0139185
928.851	0.0139358
928.929	0.0138005
929.007	0.0139772
929.085	0.0137336
929.163	0.0138483
929.241	0.0137841
929.319	0.0138345
929.398	0.0138182
929.476	0.0138121
929.554	0.0137861
929.632	0.0137706
929.710	0.0137991
929.788	0.0135932
929.866	0.0136900
929.944	0.0136976
930.023	0.0137576
930.101	0.0137602
930.179	0.0136320
930.257	0.0136739
930.335	0.0137450
930.413	0.0136709
930.491	0.0136545
930.569	0.0136331
930.648	0.0136466
930.726	0.0135325
930.804	0.0136049
930.882	0.0137627
930.960	0.0137325
931.038	0.0134817
931.116	0.0137525
931.194	0.0135323
931.273	0.0136683
931.351	0.0137959
931.429	0.0137128
931.507	0.0136751
931.585	0.0138110
931.663	0.0137547
931.741	0.0137463
931.819	0.0138454
931.898	0.0138801
931.976	0.0139088
932.054	0.0138999
932.132	0.0141012
932.210	0.0139671
932.288	0.0138721
932.366	0.0138856
932.444	0.0139191
932.523	0.0140860
932.601	0.0141110
932.679	0.0140981
932.757	0.0140343
932.835	0.0139297
932.913	0.0140642
932.991	0.0139062
933.069	0.0138184
933.148	0.0137896
933.226	0.0138953
933.304	0.0139211
933.382	0.0138218
933.460	0.0138229
933.538	0.0138307
933.616	0.0137465
933.694	0.0137751
933.773	0.0137891
933.851	0.0138039
933.929	0.0136579
934.007	0.0137062
934.085	0.0136610
934.163	0.0136179
934.241	0.0138148
934.319	0.0137518
934.398	0.0137442
934.476	0.0137346
934.554	0.0137734
934.632	0.0137347
934.710	0.0137887
934.788	0.0138261
934.866	0.0137347
934.944	0.0136698
935.023	0.0138098
935.101	0.0138255
935.179	0.0137970
935.257	0.0137839
935.335	0.0138568
935.413	0.0137299
935.491	0.0137447
935.569	0.0138674
935.648	0.0136526
935.726	0.0137724
935.804	0.0138505
935.882	0.0138367
935.960	0.0138080
936.038	0.0138123
936.116	0.0137057
936.194	0.0138171
936.273	0.0137359
936.351	0.0137753
936.429	0.0137423
936.507	0.0137579
936.585	0.0137448
936.663	0.0137610
936.741	0.0137784
936.819	0.0136593
936.898	0.0137965
936.976	0.0138101
937.054	0.0137444
937.132	0.0136827
937.210	0.0138591
937.288	0.0136948
937.366	0.0137052
937.444	0.0138197
937.523	0.0138311
937.601	0.0137378
937.679	0.0139571
937.757	0.0139637
937.835	0.0138145
937.913	0.0138595
937.991	0.0139010
938.069	0.0138171
938.148	0.0138160
938.226	0.0138739
938.304	0.0138628
938.382	0.0137737
938.460	0.0138607
938.538	0.0138512
938.616	0.0137325
938.694	0.0138344
938.773	0.0138224
938.851	0.0137960
938.929	0.0137845
939.007	0.0137859
939.085	0.0137837
939.163	0.0138424
939.241	0.0138157
939.319	0.0138725
939.398	0.0138816
939.476	0.0137702
939.554	0.0137524
939.632	0.0137299
939.710	0.0137639
939.788	0.0136964
939.866	0.0136833
939.944	0.0137159
940.023	0.0136802
940.101	0.0137180
940.179	0.0136570
940.257	0.0136134
940.335	0.0136415
940.413	0.0136561
940.491	0.0136646
940.569	0.0136269
940.648	0.0135296
940.726	0.0137461
940.804	0.0138423
940.882	0.0136167
940.960	0.0137270
941.038	0.0136530
941.116	0.0137086
941.194	0.0135550
941.273	0.0136372
941.351	0.0137798
941.429	0.0137041
941.507	0.0136245
941.585	0.0136456
941.663	0.0136533
941.741	0.0136677
941.819	0.0136118
941.898	0.0135018
941.976	0.0136633
942.054	0.0136347
942.132	0.0137103
942.210	0.0136417
942.288	0.0136560
942.366	0.0135513
942.444	0.0135631
942.523	0.0135937
942.601	0.0136825
942.679	0.0135830
942.757	0.0136347
942.835	0.0135776
942.913	0.0136037
942.991	0.0135736
943.069	0.0135424
943.148	0.0135590
943.226	0.0136211
943.304	0.0136015
943.382	0.0136760
943.460	0.0136591
943.538	0.0135979
943.616	0.0136602
943.694	0.0136589
943.773	0.0136774
943.851	0.0137763
943.929	0.0136282
944.007	0.0138284
944.085	0.0138366
944.163	0.0136845
944.241	0.0138113
944.319	0.0137984
944.398	0.0137700
944.476	0.0137743
944.554	0.0137700
944.632	0.0137871
944.710	0.0137988
944.788	0.0137514
944.866	0.0137588
944.944	0.0137685
945.023	0.0137695
945.101	0.0137965
945.179	0.0136362
945.257	0.0137215
945.335	0.0138052
945.413	0.0137200
945.491	0.0137093
945.569	0.0136597
945.648	0.0136240
945.726	0.0136707
945.804	0.0138211
945.882	0.0138448
945.960	0.0138530
946.038	0.0139176
946.116	0.0139754
946.194	0.0139420
946.273	0.0139602
946.351	0.0138106
946.429	0.0140103
946.507	0.0138962
946.585	0.0137292
946.663	0.0139749
946.741	0.0139813
946.819	0.0138712
946.898	0.0138425
946.976	0.0139423
947.054	0.0139732
947.132	0.0138229
947.210	0.0137604
947.288	0.0138263
947.366	0.0137559
947.444	0.0138103
947.523	0.0137167
947.601	0.0136467
947.679	0.0138048
947.757	0.0136559
947.835	0.0136397
947.913	0.0135475
947.991	0.0135574
948.069	0.0135796
948.148	0.0136057
948.226	0.0136339
948.304	0.0135692
948.382	0.0136337
948.460	0.0137114
948.538	0.0136100
948.616	0.0134586
948.694	0.0134995
948.773	0.0137074
948.851	0.0137062
948.929	0.0135813
949.007	0.0136062
949.085	0.0136004
949.163	0.0136903
949.241	0.0136350
949.319	0.0136377
949.398	0.0137164
949.476	0.0136231
949.554	0.0136317
949.632	0.0137715
949.710	0.0138348
949.788	0.0137764
949.866	0.0138690
949.944	0.0137511
