05/14/2022	19:46:51	Ver.	4.1	UNKNOWN
Optical Delay	630.022520	Delta X		0.078125	Sweeps	1	Scan Rate	0/0
Coordinates	Axis 1	NaN	Axis 2	NaN	Axis 3	NaN	Axis 4	NaN	Axis 5	NaN	Axis 6	0.000000
TX Power	0.000000	RX Power	0.000000

630.023	0.0153211
630.101	0.0153408
630.179	0.0153172
630.257	0.0153041
630.335	0.0152574
630.413	0.0153748
630.491	0.0153890
630.569	0.0153411
630.648	0.0154269
630.726	0.0153535
630.804	0.0152987
630.882	0.0153271
630.960	0.0153982
631.038	0.0151946
631.116	0.0154249
631.194	0.0152872
631.273	0.0151732
631.351	0.0152170
631.429	0.0151184
631.507	0.0152669
631.585	0.0152589
631.663	0.0151412
631.741	0.0151382
631.819	0.0152895
631.898	0.0152831
631.976	0.0152174
632.054	0.0151334
632.132	0.0153255
632.210	0.0152775
632.288	0.0152029
632.366	0.0153133
632.444	0.0152160
632.523	0.0152053
632.601	0.0152555
632.679	0.0152209
632.757	0.0152454
632.835	0.0151836
632.913	0.0151089
632.991	0.0151180
633.069	0.0151894
633.148	0.0150544
633.226	0.0151955
633.304	0.0152368
633.382	0.0152197
633.460	0.0152728
633.538	0.0151881
633.616	0.0151268
633.694	0.0151796
633.773	0.0152262
633.851	0.0151555
633.929	0.0151357
634.007	0.0151738
634.085	0.0152396
634.163	0.0151893
634.241	0.0152187
634.319	0.0151237
634.398	0.0151759
634.476	0.0151942
634.554	0.0151289
634.632	0.0150796
634.710	0.0152193
634.788	0.0152616
634.866	0.0152488
634.944	0.0153272
635.023	0.0152205
635.101	0.0151405
635.179	0.0152822
635.257	0.0151791
635.335	0.0152757
635.413	0.0153391
635.491	0.0151781
635.569	0.0151448
635.648	0.0152960
635.726	0.0151790
635.804	0.0152457
635.882	0.0153664
635.960	0.0152422
636.038	0.0152588
636.116	0.0153033
636.194	0.0152635
636.273	0.0151364
636.351	0.0152336
636.429	0.0153677
636.507	0.0151948
636.585	0.0152374
636.663	0.0152891
636.741	0.0152363
636.819	0.0151744
636.898	0.0152317
636.976	0.0151562
637.054	0.0151835
637.132	0.0151848
637.210	0.0151820
637.288	0.0152432
637.366	0.0153278
637.444	0.0152747
637.523	0.0150827
637.601	0.0152528
637.679	0.0153088
637.757	0.0151891
637.835	0.0152155
637.913	0.0151859
637.991	0.0151393
638.069	0.0151221
638.148	0.0151593
638.226	0.0152195
638.304	0.0152982
638.382	0.0151955
638.460	0.0153278
638.538	0.0153370
638.616	0.0152838
638.694	0.0153110
638.773	0.0151819
638.851	0.0152673
638.929	0.0152749
639.007	0.0152013
639.085	0.0151762
639.163	0.0153002
639.241	0.0152807
639.319	0.0153614
639.398	0.0152703
639.476	0.0153677
639.554	0.0153083
639.632	0.0153157
639.710	0.0153728
639.788	0.0153214
639.866	0.0153259
639.944	0.0152679
640.023	0.0152557
640.101	0.0152650
640.179	0.0153034
640.257	0.0153488
640.335	0.0153975
640.413	0.0152792
640.491	0.0153123
640.569	0.0152454
640.648	0.0151628
640.726	0.0152376
640.804	0.0153124
640.882	0.0153335
640.960	0.0154369
641.038	0.0153394
641.116	0.0152446
641.194	0.0152323
641.273	0.0153842
641.351	0.0153048
641.429	0.0152225
641.507	0.0153794
641.585	0.0153780
641.663	0.0153714
641.741	0.0154315
641.819	0.0153062
641.898	0.0152933
641.976	0.0152570
642.054	0.0154676
642.132	0.0153931
642.210	0.0155254
642.288	0.0153018
642.366	0.0152687
642.444	0.0153596
642.523	0.0154074
642.601	0.0153371
642.679	0.0153645
642.757	0.0153329
642.835	0.0152985
642.913	0.0152805
642.991	0.0153806
643.069	0.0153144
643.148	0.0152634
643.226	0.0153388
643.304	0.0151528
643.382	0.0152630
643.460	0.0152182
643.538	0.0151823
643.616	0.0152309
643.694	0.0152589
643.773	0.0152405
643.851	0.0152036
643.929	0.0152419
644.007	0.0152105
644.085	0.0152759
644.163	0.0153756
644.241	0.0151187
644.319	0.0152992
644.398	0.0151978
644.476	0.0152553
644.554	0.0153170
644.632	0.0151846
644.710	0.0152310
644.788	0.0152576
644.866	0.0151776
644.944	0.0151726
645.023	0.0153379
645.101	0.0151494
645.179	0.0152746
645.257	0.0151408
645.335	0.0151508
645.413	0.0152553
645.491	0.0152302
645.569	0.0151708
645.648	0.0151396
645.726	0.0152113
645.804	0.0150250
645.882	0.0151933
645.960	0.0150116
646.038	0.0152168
646.116	0.0152595
646.194	0.0150162
646.273	0.0150739
646.351	0.0151506
646.429	0.0151284
646.507	0.0152572
646.585	0.0152306
646.663	0.0152306
646.741	0.0151372
646.819	0.0152274
646.898	0.0152353
646.976	0.0150710
647.054	0.0150324
647.132	0.0153186
647.210	0.0152198
647.288	0.0152789
647.366	0.0151939
647.444	0.0153027
647.523	0.0152937
647.601	0.0151259
647.679	0.0152661
647.757	0.0153104
647.835	0.0151431
647.913	0.0151761
647.991	0.0150818
648.069	0.0151134
648.148	0.0152593
648.226	0.0151973
648.304	0.0150848
648.382	0.0151826
648.460	0.0152649
648.538	0.0152911
648.616	0.0153253
648.694	0.0152048
648.773	0.0150750
648.851	0.0151445
648.929	0.0151170
649.007	0.0151371
649.085	0.0152820
649.163	0.0151617
649.241	0.0152444
649.319	0.0152565
649.398	0.0151258
649.476	0.0151125
649.554	0.0150620
649.632	0.0151684
649.710	0.0151938
649.788	0.0149808
649.866	0.0152123
649.944	0.0151054
650.023	0.0150548
650.101	0.0150874
650.179	0.0151479
650.257	0.0149858
650.335	0.0151418
650.413	0.0151542
650.491	0.0151477
650.569	0.0152964
650.648	0.0152254
650.726	0.0153340
650.804	0.0152486
650.882	0.0152112
650.960	0.0153148
651.038	0.0154188
651.116	0.0152734
651.194	0.0152402
651.273	0.0153271
651.351	0.0151682
651.429	0.0152023
651.507	0.0152258
651.585	0.0151138
651.663	0.0150629
651.741	0.0152387
651.819	0.0151402
651.898	0.0150927
651.976	0.0150473
652.054	0.0151828
652.132	0.0149921
652.210	0.0150139
652.288	0.0149907
652.366	0.0151766
652.444	0.0150506
652.523	0.0150665
652.601	0.0150690
652.679	0.0151759
652.757	0.0151012
652.835	0.0154128
652.913	0.0152688
652.991	0.0153880
653.069	0.0153693
653.148	0.0153802
653.226	0.0153498
653.304	0.0155151
653.382	0.0154660
653.460	0.0154851
653.538	0.0153135
653.616	0.0152309
653.694	0.0152884
653.773	0.0152859
653.851	0.0152238
653.929	0.0151823
654.007	0.0151743
654.085	0.0151025
654.163	0.0150873
654.241	0.0149445
654.319	0.0149451
654.398	0.0149082
654.476	0.0150607
654.554	0.0149309
654.632	0.0148230
654.710	0.0150776
654.788	0.0150693
654.866	0.0150787
654.944	0.0151644
655.023	0.0151327
655.101	0.0152955
655.179	0.0153992
655.257	0.0155844
655.335	0.0156082
655.413	0.0156180
655.491	0.0157662
655.569	0.0157723
655.648	0.0156801
655.726	0.0157499
655.804	0.0158130
655.882	0.0157383
655.960	0.0156003
656.038	0.0156330
656.116	0.0154390
656.194	0.0154165
656.273	0.0152973
656.351	0.0152351
656.429	0.0151205
656.507	0.0149596
656.585	0.0148786
656.663	0.0149968
656.741	0.0147026
656.819	0.0144663
656.898	0.0145510
656.976	0.0144815
657.054	0.0145898
657.132	0.0145718
657.210	0.0145168
657.288	0.0145661
657.366	0.0146457
657.444	0.0148873
657.523	0.0148560
657.601	0.0151656
657.679	0.0153000
657.757	0.0153924
657.835	0.0155453
657.913	0.0156390
657.991	0.0158201
658.069	0.0159399
658.148	0.0160150
658.226	0.0160892
658.304	0.0161353
658.382	0.0162546
658.460	0.0162617
658.538	0.0162788
658.616	0.0161409
658.694	0.0160566
658.773	0.0159737
658.851	0.0157893
658.929	0.0155719
659.007	0.0155023
659.085	0.0152214
659.163	0.0151058
659.241	0.0146706
659.319	0.0146478
659.398	0.0144671
659.476	0.0141965
659.554	0.0141920
659.632	0.0139611
659.710	0.0138351
659.788	0.0140122
659.866	0.0138375
659.944	0.0139592
660.023	0.0140844
660.101	0.0141525
660.179	0.0144008
660.257	0.0146413
660.335	0.0147077
660.413	0.0150243
660.491	0.0152725
660.569	0.0154505
660.648	0.0157805
660.726	0.0160411
660.804	0.0161426
660.882	0.0163654
660.960	0.0165777
661.038	0.0167937
661.116	0.0170026
661.194	0.0168070
661.273	0.0168719
661.351	0.0170312
661.429	0.0169715
661.507	0.0168896
661.585	0.0166343
661.663	0.0163289
661.741	0.0162055
661.819	0.0160156
661.898	0.0158877
661.976	0.0156234
662.054	0.0152770
662.132	0.0150289
662.210	0.0147532
662.288	0.0146394
662.366	0.0143802
662.444	0.0140683
662.523	0.0142101
662.601	0.0140826
662.679	0.0138948
662.757	0.0138851
662.835	0.0138810
662.913	0.0138842
662.991	0.0138374
663.069	0.0140930
663.148	0.0140898
663.226	0.0141010
663.304	0.0143647
663.382	0.0145293
663.460	0.0148771
663.538	0.0149642
663.616	0.0150671
663.694	0.0152908
663.773	0.0155373
663.851	0.0156581
663.929	0.0157594
664.007	0.0159336
664.085	0.0159534
664.163	0.0159529
664.241	0.0162101
664.319	0.0161143
664.398	0.0159187
664.476	0.0158756
664.554	0.0158930
664.632	0.0157471
664.710	0.0157489
664.788	0.0157175
664.866	0.0155095
664.944	0.0154993
665.023	0.0154159
665.101	0.0152876
665.179	0.0152275
665.257	0.0152340
665.335	0.0152415
665.413	0.0152761
665.491	0.0151729
665.569	0.0152290
665.648	0.0152711
665.726	0.0153107
665.804	0.0152851
665.882	0.0153133
665.960	0.0153035
666.038	0.0154106
666.116	0.0154686
666.194	0.0155266
666.273	0.0154414
666.351	0.0152891
666.429	0.0152632
666.507	0.0153287
666.585	0.0152505
666.663	0.0151723
666.741	0.0151386
666.819	0.0149832
666.898	0.0148685
666.976	0.0145583
667.054	0.0146044
667.132	0.0144930
667.210	0.0144463
667.288	0.0143783
667.366	0.0140578
667.444	0.0140341
667.523	0.0137755
667.601	0.0138302
667.679	0.0137075
667.757	0.0137255
667.835	0.0136866
667.913	0.0136787
667.991	0.0138034
668.069	0.0139150
668.148	0.0139314
668.226	0.0140865
668.304	0.0142513
668.382	0.0144956
668.460	0.0145659
668.538	0.0147979
668.616	0.0148721
668.694	0.0151962
668.773	0.0155375
668.851	0.0157513
668.929	0.0158358
669.007	0.0162663
669.085	0.0167567
669.163	0.0166736
669.241	0.0167678
669.319	0.0169833
669.398	0.0172302
669.476	0.0173299
669.554	0.0173290
669.632	0.0174158
669.710	0.0173161
669.788	0.0174779
669.866	0.0170686
669.944	0.0170377
670.023	0.0168930
670.101	0.0168274
670.179	0.0166276
670.257	0.0163206
670.335	0.0158913
670.413	0.0158193
670.491	0.0155539
670.569	0.0151856
670.648	0.0149510
670.726	0.0147983
670.804	0.0144162
670.882	0.0141522
670.960	0.0140928
671.038	0.0137289
671.116	0.0135303
671.194	0.0133498
671.273	0.0132329
671.351	0.0130126
671.429	0.0129891
671.507	0.0129633
671.585	0.0128027
671.663	0.0128421
671.741	0.0128331
671.819	0.0128258
671.898	0.0129215
671.976	0.0129626
672.054	0.0131493
672.132	0.0132964
672.210	0.0136155
672.288	0.0138160
672.366	0.0138324
672.444	0.0141540
672.523	0.0144887
672.601	0.0148209
672.679	0.0152361
672.757	0.0153487
672.835	0.0157118
672.913	0.0159533
672.991	0.0162204
673.069	0.0163831
673.148	0.0167236
673.226	0.0171141
673.304	0.0172097
673.382	0.0172353
673.460	0.0174345
673.538	0.0175062
673.616	0.0175200
673.694	0.0175694
673.773	0.0174346
673.851	0.0172256
673.929	0.0171406
674.007	0.0171592
674.085	0.0171043
674.163	0.0169457
674.241	0.0167985
674.319	0.0165662
674.398	0.0164489
674.476	0.0161310
674.554	0.0158231
674.632	0.0156092
674.710	0.0155746
674.788	0.0153541
674.866	0.0151783
674.944	0.0150578
675.023	0.0149754
675.101	0.0148177
675.179	0.0148791
675.257	0.0148734
675.335	0.0145194
675.413	0.0146043
675.491	0.0147792
675.569	0.0145185
675.648	0.0146835
675.726	0.0147717
675.804	0.0144878
675.882	0.0146368
675.960	0.0145098
676.038	0.0146051
676.116	0.0144541
676.194	0.0145733
676.273	0.0145831
676.351	0.0143043
676.429	0.0142771
676.507	0.0142079
676.585	0.0141482
676.663	0.0141552
676.741	0.0139069
676.819	0.0138224
676.898	0.0136404
676.976	0.0136639
677.054	0.0137171
677.132	0.0135951
677.210	0.0134940
677.288	0.0136513
677.366	0.0136395
677.444	0.0138428
677.523	0.0139131
677.601	0.0140736
677.679	0.0141772
677.757	0.0143477
677.835	0.0146180
677.913	0.0148417
677.991	0.0149873
678.069	0.0151983
678.148	0.0155181
678.226	0.0158493
678.304	0.0160459
678.382	0.0163577
678.460	0.0167413
678.538	0.0169113
678.616	0.0169905
678.694	0.0176025
678.773	0.0177860
678.851	0.0178190
678.929	0.0179993
679.007	0.0179774
679.085	0.0181975
679.163	0.0182497
679.241	0.0185060
679.319	0.0181951
679.398	0.0181879
679.476	0.0181547
679.554	0.0180204
679.632	0.0178725
679.710	0.0175910
679.788	0.0172276
679.866	0.0168668
679.944	0.0165683
680.023	0.0161486
680.101	0.0158007
680.179	0.0154851
680.257	0.0151462
680.335	0.0146425
680.413	0.0141532
680.491	0.0139842
680.569	0.0136618
680.648	0.0133417
680.726	0.0130217
680.804	0.0128066
680.882	0.0125993
680.960	0.0124921
681.038	0.0122018
681.116	0.0121000
681.194	0.0120068
681.273	0.0119957
681.351	0.0119460
681.429	0.0119215
681.507	0.0120994
681.585	0.0121874
681.663	0.0121612
681.741	0.0124103
681.819	0.0124383
681.898	0.0127611
681.976	0.0129957
682.054	0.0132251
682.132	0.0135692
682.210	0.0137924
682.288	0.0143484
682.366	0.0147781
682.444	0.0150855
682.523	0.0156452
682.601	0.0159710
682.679	0.0163897
682.757	0.0167212
682.835	0.0169137
682.913	0.0173054
682.991	0.0177124
683.069	0.0178527
683.148	0.0180712
683.226	0.0180879
683.304	0.0182362
683.382	0.0184529
683.460	0.0184962
683.538	0.0183727
683.616	0.0183879
683.694	0.0184158
683.773	0.0182303
683.851	0.0180789
683.929	0.0177892
684.007	0.0175147
684.085	0.0172485
684.163	0.0169865
684.241	0.0167255
684.319	0.0165260
684.398	0.0163219
684.476	0.0160262
684.554	0.0155018
684.632	0.0151138
684.710	0.0149511
684.788	0.0144348
684.866	0.0143098
684.944	0.0140694
685.023	0.0137152
685.101	0.0135440
685.179	0.0133545
685.257	0.0132016
685.335	0.0130580
685.413	0.0129061
685.491	0.0128947
685.569	0.0128870
685.648	0.0128951
685.726	0.0129913
685.804	0.0130784
685.882	0.0133794
685.960	0.0135181
686.038	0.0135242
686.116	0.0136751
686.194	0.0140370
686.273	0.0142529
686.351	0.0143211
686.429	0.0146069
686.507	0.0148232
686.585	0.0149742
686.663	0.0150878
686.741	0.0151608
686.819	0.0153424
686.898	0.0155877
686.976	0.0156807
687.054	0.0158456
687.132	0.0160221
687.210	0.0160648
687.288	0.0160879
687.366	0.0160567
687.444	0.0159285
687.523	0.0160063
687.601	0.0159423
687.679	0.0158839
687.757	0.0157520
687.835	0.0156859
687.913	0.0157712
687.991	0.0155914
688.069	0.0155797
688.148	0.0155949
688.226	0.0154749
688.304	0.0154555
688.382	0.0153979
688.460	0.0151801
688.538	0.0153665
688.616	0.0154034
688.694	0.0152778
688.773	0.0152242
688.851	0.0152000
688.929	0.0152529
689.007	0.0151855
689.085	0.0153284
689.163	0.0152972
689.241	0.0152541
689.319	0.0155199
689.398	0.0154128
689.476	0.0155350
689.554	0.0155501
689.632	0.0155566
689.710	0.0156573
689.788	0.0158234
689.866	0.0159023
689.944	0.0159000
690.023	0.0160023
690.101	0.0159561
690.179	0.0160591
690.257	0.0159262
690.335	0.0160655
690.413	0.0160165
690.491	0.0159882
690.569	0.0159876
690.648	0.0160158
690.726	0.0159210
690.804	0.0158595
690.882	0.0159905
690.960	0.0158000
691.038	0.0155559
691.116	0.0155520
691.194	0.0154937
691.273	0.0152490
691.351	0.0151408
691.429	0.0151372
691.507	0.0150743
691.585	0.0148568
691.663	0.0148547
691.741	0.0146991
691.819	0.0147022
691.898	0.0145088
691.976	0.0144788
692.054	0.0143655
692.132	0.0142210
692.210	0.0142190
692.288	0.0141171
692.366	0.0140900
692.444	0.0140874
692.523	0.0140175
692.601	0.0140462
692.679	0.0139089
692.757	0.0140125
692.835	0.0141088
692.913	0.0141394
692.991	0.0142635
693.069	0.0143862
693.148	0.0145594
693.226	0.0145705
693.304	0.0149457
693.382	0.0151383
693.460	0.0153588
693.538	0.0154398
693.616	0.0156684
693.694	0.0159574
693.773	0.0160351
693.851	0.0160541
693.929	0.0162963
694.007	0.0163432
694.085	0.0165942
694.163	0.0165606
694.241	0.0164371
694.319	0.0164802
694.398	0.0164410
694.476	0.0164758
694.554	0.0164788
694.632	0.0163402
694.710	0.0162781
694.788	0.0161536
694.866	0.0160258
694.944	0.0159296
695.023	0.0158211
695.101	0.0157003
695.179	0.0154089
695.257	0.0153214
695.335	0.0152587
695.413	0.0150659
695.491	0.0150922
695.569	0.0147999
695.648	0.0147350
695.726	0.0147701
695.804	0.0146036
695.882	0.0143916
695.960	0.0143501
696.038	0.0143485
696.116	0.0143210
696.194	0.0144179
696.273	0.0145556
696.351	0.0144850
696.429	0.0142981
696.507	0.0145184
696.585	0.0144300
696.663	0.0146405
696.741	0.0148513
696.819	0.0149586
696.898	0.0150121
696.976	0.0152753
697.054	0.0156597
697.132	0.0156767
697.210	0.0157310
697.288	0.0157866
697.366	0.0159611
697.444	0.0160762
697.523	0.0163374
697.601	0.0164474
697.679	0.0163533
697.757	0.0163503
697.835	0.0164960
697.913	0.0165723
697.991	0.0165047
698.069	0.0164649
698.148	0.0164532
698.226	0.0161285
698.304	0.0159985
698.382	0.0158860
698.460	0.0155820
698.538	0.0156288
698.616	0.0154491
698.694	0.0153490
698.773	0.0150154
698.851	0.0148347
698.929	0.0147300
699.007	0.0143949
699.085	0.0143598
699.163	0.0141774
699.241	0.0140269
699.319	0.0139975
699.398	0.0138091
699.476	0.0137907
699.554	0.0136399
699.632	0.0137141
699.710	0.0137175
699.788	0.0136546
699.866	0.0137968
699.944	0.0138615
700.023	0.0139726
700.101	0.0140825
700.179	0.0141779
700.257	0.0144259
700.335	0.0145167
700.413	0.0146307
700.491	0.0149570
700.569	0.0149586
700.648	0.0150353
700.726	0.0152420
700.804	0.0154398
700.882	0.0156041
700.960	0.0156433
701.038	0.0160101
701.116	0.0160158
701.194	0.0161707
701.273	0.0162234
701.351	0.0164048
701.429	0.0164515
701.507	0.0164497
701.585	0.0164597
701.663	0.0166436
701.741	0.0166299
701.819	0.0167119
701.898	0.0166920
701.976	0.0166251
702.054	0.0166676
702.132	0.0165692
702.210	0.0166341
702.288	0.0165118
702.366	0.0164322
702.444	0.0165053
702.523	0.0163525
702.601	0.0161392
702.679	0.0159514
702.757	0.0160792
702.835	0.0159631
702.913	0.0158537
702.991	0.0155894
703.069	0.0155600
703.148	0.0154910
703.226	0.0154950
703.304	0.0153016
703.382	0.0151604
703.460	0.0150217
703.538	0.0149647
703.616	0.0150202
703.694	0.0149288
703.773	0.0146773
703.851	0.0148085
703.929	0.0146974
704.007	0.0146262
704.085	0.0144185
704.163	0.0145695
704.241	0.0144375
704.319	0.0142497
704.398	0.0144077
704.476	0.0142752
704.554	0.0142031
704.632	0.0141990
704.710	0.0141452
704.788	0.0141079
704.866	0.0142954
704.944	0.0141743
705.023	0.0142057
705.101	0.0141495
705.179	0.0142618
705.257	0.0143344
705.335	0.0141415
705.413	0.0143858
705.491	0.0144302
705.569	0.0146308
705.648	0.0146354
705.726	0.0146159
705.804	0.0148180
705.882	0.0147619
705.960	0.0149771
706.038	0.0150926
706.116	0.0153162
706.194	0.0153134
706.273	0.0154589
706.351	0.0154730
706.429	0.0154971
706.507	0.0157053
706.585	0.0158674
706.663	0.0157207
706.741	0.0159786
706.819	0.0158131
706.898	0.0160074
706.976	0.0161004
707.054	0.0160218
707.132	0.0159153
707.210	0.0162000
707.288	0.0160639
707.366	0.0162688
707.444	0.0162558
707.523	0.0162389
707.601	0.0163360
707.679	0.0162924
707.757	0.0163227
707.835	0.0163213
707.913	0.0162891
707.991	0.0162527
708.069	0.0162028
708.148	0.0164326
708.226	0.0163642
708.304	0.0165817
708.382	0.0164166
708.460	0.0162291
708.538	0.0162866
708.616	0.0162933
708.694	0.0162734
708.773	0.0163554
708.851	0.0161292
708.929	0.0161669
709.007	0.0161049
709.085	0.0160156
709.163	0.0159989
709.241	0.0158555
709.319	0.0157478
709.398	0.0156880
709.476	0.0155506
709.554	0.0155315
709.632	0.0153661
709.710	0.0152476
709.788	0.0151781
709.866	0.0150388
709.944	0.0147154
710.023	0.0145980
710.101	0.0143928
710.179	0.0142748
710.257	0.0141153
710.335	0.0139991
710.413	0.0137657
710.491	0.0136195
710.569	0.0136513
710.648	0.0135942
710.726	0.0136935
710.804	0.0134258
710.882	0.0135563
710.960	0.0136144
711.038	0.0138342
711.116	0.0137630
711.194	0.0138123
711.273	0.0139156
711.351	0.0139865
711.429	0.0143362
711.507	0.0146131
711.585	0.0146809
711.663	0.0148962
711.741	0.0150134
711.819	0.0152430
711.898	0.0153906
711.976	0.0154903
712.054	0.0157007
712.132	0.0156673
712.210	0.0159736
712.288	0.0160196
712.366	0.0160741
712.444	0.0160975
712.523	0.0161468
712.601	0.0159937
712.679	0.0163041
712.757	0.0162001
712.835	0.0161578
712.913	0.0161687
712.991	0.0161198
713.069	0.0159864
713.148	0.0159351
713.226	0.0160271
713.304	0.0158649
713.382	0.0159125
713.460	0.0159631
713.538	0.0157454
713.616	0.0157917
713.694	0.0158713
713.773	0.0158778
713.851	0.0158424
713.929	0.0157343
714.007	0.0157553
714.085	0.0159169
714.163	0.0159480
714.241	0.0159695
714.319	0.0158762
714.398	0.0160059
714.476	0.0159644
714.554	0.0160474
714.632	0.0159864
714.710	0.0160024
714.788	0.0159782
714.866	0.0160004
714.944	0.0159198
715.023	0.0160001
715.101	0.0158360
715.179	0.0157557
715.257	0.0156694
715.335	0.0157048
715.413	0.0153918
715.491	0.0155134
715.569	0.0155085
715.648	0.0152562
715.726	0.0152298
715.804	0.0149809
715.882	0.0148806
715.960	0.0149055
716.038	0.0147007
716.116	0.0145807
716.194	0.0145839
716.273	0.0144332
716.351	0.0142088
716.429	0.0141636
716.507	0.0142281
716.585	0.0140749
716.663	0.0139177
716.741	0.0140372
716.819	0.0138930
716.898	0.0138141
716.976	0.0138143
717.054	0.0139305
717.132	0.0139163
717.210	0.0138728
717.288	0.0140114
717.366	0.0141183
717.444	0.0141865
717.523	0.0143062
717.601	0.0143354
717.679	0.0145428
717.757	0.0145654
717.835	0.0147453
717.913	0.0147224
717.991	0.0150642
718.069	0.0150585
718.148	0.0151382
718.226	0.0153591
718.304	0.0154028
718.382	0.0155508
718.460	0.0155704
718.538	0.0156268
718.616	0.0157614
718.694	0.0159026
718.773	0.0159914
718.851	0.0159384
718.929	0.0160005
719.007	0.0162237
719.085	0.0162118
719.163	0.0161535
719.241	0.0162737
719.319	0.0162438
719.398	0.0163187
719.476	0.0163340
719.554	0.0163121
719.632	0.0162981
719.710	0.0163329
719.788	0.0162106
719.866	0.0163082
719.944	0.0161843
720.023	0.0163849
720.101	0.0162128
720.179	0.0161177
720.257	0.0159255
720.335	0.0161833
720.413	0.0160873
720.491	0.0159350
720.569	0.0159349
720.648	0.0159605
720.726	0.0158456
720.804	0.0157285
720.882	0.0155953
720.960	0.0156242
721.038	0.0154803
721.116	0.0154477
721.194	0.0154600
721.273	0.0153864
721.351	0.0153590
721.429	0.0153005
721.507	0.0152051
721.585	0.0151449
721.663	0.0150660
721.741	0.0151202
721.819	0.0149808
721.898	0.0150349
721.976	0.0149877
722.054	0.0149383
722.132	0.0149586
722.210	0.0147710
722.288	0.0147916
722.366	0.0146750
722.444	0.0148374
722.523	0.0146194
722.601	0.0146381
722.679	0.0145501
722.757	0.0145620
722.835	0.0146059
722.913	0.0145283
722.991	0.0146291
723.069	0.0146111
723.148	0.0145530
723.226	0.0146429
723.304	0.0145824
723.382	0.0145966
723.460	0.0147067
723.538	0.0147306
723.616	0.0147942
723.694	0.0149396
723.773	0.0149491
723.851	0.0148489
723.929	0.0148833
724.007	0.0152086
724.085	0.0152689
724.163	0.0151719
724.241	0.0153548
724.319	0.0154099
724.398	0.0153725
724.476	0.0154565
724.554	0.0155703
724.632	0.0156918
724.710	0.0156981
724.788	0.0157201
724.866	0.0156419
724.944	0.0157755
725.023	0.0158181
725.101	0.0157257
725.179	0.0158748
725.257	0.0158629
725.335	0.0159431
725.413	0.0158574
725.491	0.0158773
725.569	0.0158032
725.648	0.0157978
725.726	0.0158104
725.804	0.0158587
725.882	0.0158431
725.960	0.0159411
726.038	0.0158804
726.116	0.0157330
726.194	0.0158186
726.273	0.0157091
726.351	0.0158072
726.429	0.0155941
726.507	0.0156291
726.585	0.0155897
726.663	0.0156147
726.741	0.0154121
726.819	0.0154751
726.898	0.0155232
726.976	0.0153351
727.054	0.0153208
727.132	0.0153668
727.210	0.0153285
727.288	0.0153128
727.366	0.0152100
727.444	0.0150859
727.523	0.0151665
727.601	0.0150637
727.679	0.0151984
727.757	0.0151113
727.835	0.0149195
727.913	0.0149630
727.991	0.0150188
728.069	0.0149086
728.148	0.0149783
728.226	0.0149696
728.304	0.0148786
728.382	0.0149216
728.460	0.0148934
728.538	0.0148920
728.616	0.0147604
728.694	0.0148036
728.773	0.0146922
728.851	0.0147245
728.929	0.0146964
729.007	0.0145891
729.085	0.0145517
729.163	0.0144684
729.241	0.0144718
729.319	0.0145164
729.398	0.0146491
729.476	0.0144254
729.554	0.0145581
729.632	0.0145662
729.710	0.0147343
729.788	0.0147781
729.866	0.0149323
729.944	0.0150219
730.023	0.0149751
730.101	0.0150391
730.179	0.0152352
730.257	0.0152377
730.335	0.0152879
730.413	0.0155448
730.491	0.0156232
730.569	0.0155444
730.648	0.0156819
730.726	0.0158321
730.804	0.0158203
730.882	0.0158355
730.960	0.0159628
731.038	0.0159919
731.116	0.0160235
731.194	0.0159707
731.273	0.0160043
731.351	0.0159753
731.429	0.0160207
731.507	0.0159918
731.585	0.0158500
731.663	0.0157172
731.741	0.0156197
731.819	0.0155441
731.898	0.0155888
731.976	0.0155341
732.054	0.0155568
732.132	0.0154435
732.210	0.0153416
732.288	0.0151955
732.366	0.0152100
732.444	0.0151807
732.523	0.0151655
732.601	0.0150767
732.679	0.0150117
732.757	0.0149849
732.835	0.0150224
732.913	0.0148714
732.991	0.0150301
733.069	0.0150599
733.148	0.0151639
733.226	0.0150592
733.304	0.0150990
733.382	0.0150316
733.460	0.0150321
733.538	0.0151122
733.616	0.0150481
733.694	0.0151228
733.773	0.0149689
733.851	0.0150262
733.929	0.0153303
734.007	0.0152775
734.085	0.0151881
734.163	0.0153461
734.241	0.0154588
734.319	0.0152995
734.398	0.0154171
734.476	0.0152838
734.554	0.0153670
734.632	0.0155491
734.710	0.0153880
734.788	0.0153754
734.866	0.0154205
734.944	0.0154485
735.023	0.0156459
735.101	0.0154749
735.179	0.0154436
735.257	0.0153792
735.335	0.0153191
735.413	0.0153980
735.491	0.0152827
735.569	0.0153674
735.648	0.0153004
735.726	0.0152141
735.804	0.0152940
735.882	0.0152419
735.960	0.0152602
736.038	0.0151034
736.116	0.0151685
736.194	0.0151170
736.273	0.0151599
736.351	0.0150398
736.429	0.0151093
736.507	0.0151094
736.585	0.0150703
736.663	0.0150459
736.741	0.0150890
736.819	0.0151845
736.898	0.0150477
736.976	0.0150630
737.054	0.0149958
737.132	0.0150051
737.210	0.0151001
737.288	0.0151002
737.366	0.0151836
737.444	0.0150823
737.523	0.0150639
737.601	0.0149931
737.679	0.0151398
737.757	0.0150908
737.835	0.0152668
737.913	0.0152667
737.991	0.0150836
738.069	0.0151472
738.148	0.0150694
738.226	0.0152200
738.304	0.0152831
738.382	0.0151497
738.460	0.0152629
738.538	0.0152668
738.616	0.0151779
738.694	0.0152090
738.773	0.0151172
738.851	0.0152084
738.929	0.0152630
739.007	0.0152686
739.085	0.0151764
739.163	0.0151726
739.241	0.0153740
739.319	0.0152669
739.398	0.0152125
739.476	0.0152248
739.554	0.0151591
739.632	0.0152120
739.710	0.0153840
739.788	0.0152740
739.866	0.0153032
739.944	0.0154594
740.023	0.0153083
740.101	0.0153786
740.179	0.0152918
740.257	0.0153513
740.335	0.0153797
740.413	0.0154066
740.491	0.0154094
740.569	0.0153152
740.648	0.0154317
740.726	0.0153076
740.804	0.0152965
740.882	0.0154801
740.960	0.0155312
741.038	0.0153613
741.116	0.0153648
741.194	0.0153070
741.273	0.0152499
741.351	0.0154865
741.429	0.0154428
741.507	0.0153072
741.585	0.0151892
741.663	0.0152657
741.741	0.0152179
741.819	0.0151562
741.898	0.0152726
741.976	0.0151865
742.054	0.0151151
742.132	0.0152071
742.210	0.0150719
742.288	0.0150546
742.366	0.0150436
742.444	0.0149247
742.523	0.0150012
742.601	0.0148978
742.679	0.0150620
742.757	0.0148211
742.835	0.0147687
742.913	0.0147913
742.991	0.0147472
743.069	0.0147748
743.148	0.0149883
743.226	0.0149163
743.304	0.0148975
743.382	0.0148873
743.460	0.0150416
743.538	0.0148748
743.616	0.0150131
743.694	0.0150223
743.773	0.0150365
743.851	0.0152968
743.929	0.0153205
744.007	0.0151736
744.085	0.0153474
744.163	0.0154031
744.241	0.0152135
744.319	0.0153094
744.398	0.0153691
744.476	0.0153493
744.554	0.0153678
744.632	0.0154161
744.710	0.0154490
744.788	0.0155296
744.866	0.0155342
744.944	0.0155162
745.023	0.0156107
745.101	0.0155878
745.179	0.0155908
745.257	0.0157023
745.335	0.0155832
745.413	0.0155808
745.491	0.0157217
745.569	0.0156978
745.648	0.0156023
745.726	0.0156897
745.804	0.0157558
745.882	0.0156638
745.960	0.0157443
746.038	0.0158585
746.116	0.0157610
746.194	0.0156728
746.273	0.0157130
746.351	0.0156705
746.429	0.0158048
746.507	0.0157912
746.585	0.0155623
746.663	0.0155921
746.741	0.0155915
746.819	0.0155161
746.898	0.0154660
746.976	0.0155207
747.054	0.0154591
747.132	0.0153903
747.210	0.0153526
747.288	0.0154775
747.366	0.0153435
747.444	0.0153763
747.523	0.0152462
747.601	0.0153127
747.679	0.0152263
747.757	0.0152122
747.835	0.0152189
747.913	0.0152815
747.991	0.0151583
748.069	0.0151870
748.148	0.0151815
748.226	0.0150452
748.304	0.0151334
748.382	0.0149675
748.460	0.0150146
748.538	0.0149701
748.616	0.0150418
748.694	0.0150220
748.773	0.0149494
748.851	0.0149902
748.929	0.0150573
749.007	0.0148608
749.085	0.0149768
749.163	0.0147968
749.241	0.0147594
749.319	0.0149594
749.398	0.0148136
749.476	0.0148742
749.554	0.0149824
749.632	0.0148485
749.710	0.0148875
749.788	0.0148895
749.866	0.0148742
749.944	0.0150264
750.023	0.0149506
750.101	0.0150187
750.179	0.0149661
750.257	0.0150053
750.335	0.0150149
750.413	0.0149280
750.491	0.0151768
750.569	0.0152377
750.648	0.0152274
750.726	0.0152702
750.804	0.0153162
750.882	0.0153634
750.960	0.0154391
751.038	0.0154842
751.116	0.0154478
751.194	0.0156366
751.273	0.0154091
751.351	0.0152819
751.429	0.0155513
751.507	0.0155962
751.585	0.0154610
751.663	0.0157073
751.741	0.0156520
751.819	0.0157040
751.898	0.0157167
751.976	0.0156625
752.054	0.0156001
752.132	0.0157200
752.210	0.0157722
752.288	0.0157848
752.366	0.0156751
752.444	0.0155974
752.523	0.0155865
752.601	0.0156110
752.679	0.0156017
752.757	0.0154556
752.835	0.0154448
752.913	0.0154079
752.991	0.0153404
753.069	0.0152514
753.148	0.0152542
753.226	0.0150907
753.304	0.0151471
753.382	0.0150623
753.460	0.0150989
753.538	0.0150418
753.616	0.0149551
753.694	0.0151485
753.773	0.0150457
753.851	0.0150455
753.929	0.0150262
754.007	0.0150692
754.085	0.0151239
754.163	0.0150903
754.241	0.0151307
754.319	0.0151555
754.398	0.0151180
754.476	0.0151815
754.554	0.0152601
754.632	0.0151488
754.710	0.0152667
754.788	0.0153149
754.866	0.0153028
754.944	0.0154102
755.023	0.0153574
755.101	0.0153023
755.179	0.0152277
755.257	0.0152490
755.335	0.0152795
755.413	0.0153748
755.491	0.0152770
755.569	0.0150960
755.648	0.0151125
755.726	0.0150365
755.804	0.0150928
755.882	0.0150547
755.960	0.0149213
756.038	0.0148335
756.116	0.0148322
756.194	0.0148359
756.273	0.0148608
756.351	0.0148569
756.429	0.0149252
756.507	0.0147852
756.585	0.0147668
756.663	0.0149648
756.741	0.0151906
756.819	0.0151537
756.898	0.0150957
756.976	0.0152995
757.054	0.0152156
757.132	0.0152295
757.210	0.0153087
757.288	0.0153860
757.366	0.0155189
757.444	0.0156393
757.523	0.0155418
757.601	0.0156042
757.679	0.0155678
757.757	0.0157613
757.835	0.0156815
757.913	0.0157081
757.991	0.0157172
758.069	0.0156887
758.148	0.0157825
758.226	0.0158277
758.304	0.0156396
758.382	0.0155722
758.460	0.0157372
758.538	0.0155831
758.616	0.0156153
758.694	0.0155862
758.773	0.0155647
758.851	0.0156206
758.929	0.0155551
759.007	0.0153885
759.085	0.0155325
759.163	0.0155025
759.241	0.0154414
759.319	0.0154042
759.398	0.0153553
759.476	0.0152951
759.554	0.0153513
759.632	0.0151043
759.710	0.0150682
759.788	0.0152005
759.866	0.0152086
759.944	0.0150576
760.023	0.0150122
760.101	0.0150527
760.179	0.0151719
760.257	0.0150121
760.335	0.0150255
760.413	0.0150094
760.491	0.0149924
760.569	0.0150891
760.648	0.0151446
760.726	0.0150453
760.804	0.0151934
760.882	0.0151110
760.960	0.0151387
761.038	0.0152708
761.116	0.0151285
761.194	0.0152253
761.273	0.0152372
761.351	0.0150964
761.429	0.0152280
761.507	0.0153271
761.585	0.0153692
761.663	0.0152380
761.741	0.0153703
761.819	0.0153437
761.898	0.0151816
761.976	0.0153946
762.054	0.0153799
762.132	0.0153751
762.210	0.0154749
762.288	0.0155515
762.366	0.0153261
762.444	0.0155222
762.523	0.0154136
762.601	0.0152110
762.679	0.0154200
762.757	0.0154274
762.835	0.0152875
762.913	0.0154758
762.991	0.0154263
763.069	0.0152985
763.148	0.0151823
763.226	0.0153018
763.304	0.0153448
763.382	0.0152565
763.460	0.0151782
763.538	0.0150947
763.616	0.0150220
763.694	0.0150499
763.773	0.0149870
763.851	0.0148897
763.929	0.0149057
764.007	0.0148440
764.085	0.0148004
764.163	0.0148094
764.241	0.0148782
764.319	0.0147677
764.398	0.0147164
764.476	0.0148127
764.554	0.0146602
764.632	0.0148603
764.710	0.0149093
764.788	0.0148454
764.866	0.0149593
764.944	0.0149172
765.023	0.0150446
765.101	0.0152082
765.179	0.0152643
765.257	0.0150777
765.335	0.0152225
765.413	0.0152406
765.491	0.0154665
765.569	0.0155141
765.648	0.0156676
765.726	0.0156908
765.804	0.0156646
765.882	0.0155937
765.960	0.0155041
766.038	0.0156330
766.116	0.0156912
766.194	0.0157809
766.273	0.0158090
766.351	0.0155950
766.429	0.0157613
766.507	0.0156762
766.585	0.0155425
766.663	0.0155733
766.741	0.0155672
766.819	0.0154419
766.898	0.0153484
766.976	0.0153996
767.054	0.0154416
767.132	0.0153380
767.210	0.0151817
767.288	0.0151841
767.366	0.0150854
767.444	0.0150793
767.523	0.0151250
767.601	0.0151505
767.679	0.0150221
767.757	0.0150307
767.835	0.0149218
767.913	0.0149500
767.991	0.0148860
768.069	0.0149692
768.148	0.0148466
768.226	0.0148642
768.304	0.0150713
768.382	0.0150906
768.460	0.0149387
768.538	0.0149174
768.616	0.0151118
768.694	0.0150636
768.773	0.0151671
768.851	0.0151524
768.929	0.0151578
769.007	0.0151447
769.085	0.0149779
769.163	0.0151588
769.241	0.0151917
769.319	0.0152181
769.398	0.0151222
769.476	0.0152358
769.554	0.0153459
769.632	0.0153036
769.710	0.0154773
769.788	0.0154179
769.866	0.0153670
769.944	0.0155991
770.023	0.0154341
770.101	0.0155627
770.179	0.0155119
770.257	0.0155865
770.335	0.0155275
770.413	0.0156023
770.491	0.0155049
770.569	0.0154859
770.648	0.0154334
770.726	0.0154835
770.804	0.0155051
770.882	0.0153533
770.960	0.0153782
771.038	0.0151749
771.116	0.0153165
771.194	0.0151434
771.273	0.0151250
771.351	0.0151180
771.429	0.0151452
771.507	0.0151506
771.585	0.0150218
771.663	0.0149615
771.741	0.0149654
771.819	0.0149837
771.898	0.0150546
771.976	0.0150687
772.054	0.0150784
772.132	0.0150021
772.210	0.0151883
772.288	0.0151601
772.366	0.0150958
772.444	0.0151545
772.523	0.0151973
772.601	0.0151266
772.679	0.0150972
772.757	0.0153773
772.835	0.0153309
772.913	0.0152268
772.991	0.0154121
773.069	0.0153847
773.148	0.0152542
773.226	0.0152962
773.304	0.0154795
773.382	0.0152897
773.460	0.0154176
773.538	0.0153617
773.616	0.0153029
773.694	0.0152747
773.773	0.0153389
773.851	0.0154005
773.929	0.0153444
774.007	0.0153441
774.085	0.0153269
774.163	0.0152235
774.241	0.0154873
774.319	0.0153197
774.398	0.0151922
774.476	0.0150654
774.554	0.0153661
774.632	0.0153093
774.710	0.0152406
774.788	0.0153529
774.866	0.0151852
774.944	0.0153712
775.023	0.0152910
775.101	0.0153844
775.179	0.0154428
775.257	0.0153096
775.335	0.0154285
775.413	0.0154461
775.491	0.0154339
775.569	0.0155201
775.648	0.0154755
775.726	0.0154815
775.804	0.0153535
775.882	0.0154497
775.960	0.0154808
776.038	0.0153043
776.116	0.0153957
776.194	0.0154791
776.273	0.0155195
776.351	0.0153042
776.429	0.0152473
776.507	0.0151665
776.585	0.0152041
776.663	0.0152195
776.741	0.0152460
776.819	0.0151350
776.898	0.0150648
776.976	0.0151257
777.054	0.0150365
777.132	0.0150242
777.210	0.0148695
777.288	0.0148918
777.366	0.0147762
777.444	0.0148796
777.523	0.0146729
777.601	0.0147160
777.679	0.0146626
777.757	0.0146502
777.835	0.0146568
777.913	0.0147334
777.991	0.0146177
778.069	0.0146722
778.148	0.0146737
778.226	0.0147614
778.304	0.0148830
778.382	0.0148422
778.460	0.0149162
778.538	0.0149793
778.616	0.0151339
778.694	0.0151470
778.773	0.0151685
778.851	0.0153975
778.929	0.0154506
779.007	0.0154223
779.085	0.0154233
779.163	0.0155067
779.241	0.0156187
779.319	0.0158184
779.398	0.0157957
779.476	0.0157412
779.554	0.0157555
779.632	0.0158472
779.710	0.0157902
779.788	0.0158299
779.866	0.0158073
779.944	0.0158917
780.023	0.0158770
780.101	0.0159036
780.179	0.0158937
780.257	0.0156995
780.335	0.0157309
780.413	0.0157333
780.491	0.0157455
780.569	0.0157757
780.648	0.0155549
780.726	0.0155000
780.804	0.0155280
780.882	0.0154943
780.960	0.0153153
781.038	0.0154926
781.116	0.0155387
781.194	0.0154250
781.273	0.0152352
781.351	0.0152431
781.429	0.0152022
781.507	0.0152792
781.585	0.0150841
781.663	0.0150650
781.741	0.0151935
781.819	0.0150591
781.898	0.0152426
781.976	0.0150959
782.054	0.0150430
782.132	0.0150551
782.210	0.0150734
782.288	0.0151376
782.366	0.0150967
782.444	0.0151818
782.523	0.0151585
782.601	0.0151638
782.679	0.0151559
782.757	0.0153201
782.835	0.0151678
782.913	0.0151593
782.991	0.0152848
783.069	0.0152158
783.148	0.0152401
783.226	0.0152203
783.304	0.0151389
783.382	0.0151185
783.460	0.0151221
783.538	0.0151944
783.616	0.0153271
783.694	0.0152231
783.773	0.0151736
783.851	0.0151599
783.929	0.0152328
784.007	0.0152177
784.085	0.0151220
784.163	0.0150558
784.241	0.0153961
784.319	0.0151643
784.398	0.0151479
784.476	0.0151835
784.554	0.0152073
784.632	0.0151678
784.710	0.0150480
784.788	0.0150644
784.866	0.0152208
784.944	0.0151558
785.023	0.0152344
785.101	0.0152780
785.179	0.0152776
785.257	0.0150232
785.335	0.0153683
785.413	0.0154599
785.491	0.0153030
785.569	0.0153878
785.648	0.0154301
785.726	0.0154103
785.804	0.0154605
785.882	0.0154660
785.960	0.0155389
786.038	0.0155304
786.116	0.0153479
786.194	0.0153981
786.273	0.0155991
786.351	0.0156155
786.429	0.0154635
786.507	0.0154587
786.585	0.0156243
786.663	0.0155371
786.741	0.0154852
786.819	0.0154871
786.898	0.0154639
786.976	0.0156023
787.054	0.0156028
787.132	0.0154458
787.210	0.0155659
787.288	0.0155911
787.366	0.0155058
787.444	0.0155044
787.523	0.0154855
787.601	0.0154058
787.679	0.0153749
787.757	0.0153568
787.835	0.0153900
787.913	0.0153349
787.991	0.0152777
788.069	0.0151623
788.148	0.0151895
788.226	0.0150374
788.304	0.0151985
788.382	0.0150146
788.460	0.0148602
788.538	0.0149657
788.616	0.0149052
788.694	0.0149576
788.773	0.0147549
788.851	0.0147139
788.929	0.0147661
789.007	0.0147595
789.085	0.0146101
789.163	0.0148418
789.241	0.0148472
789.319	0.0147476
789.398	0.0148427
789.476	0.0148540
789.554	0.0147523
789.632	0.0147951
789.710	0.0149501
789.788	0.0150465
789.866	0.0149683
789.944	0.0149749
790.023	0.0150137
790.101	0.0150890
790.179	0.0151765
790.257	0.0151113
790.335	0.0152858
790.413	0.0154017
790.491	0.0153689
790.569	0.0153728
790.648	0.0154881
790.726	0.0153481
790.804	0.0152254
790.882	0.0155198
790.960	0.0155464
791.038	0.0154678
791.116	0.0154365
791.194	0.0154361
791.273	0.0153563
791.351	0.0152940
791.429	0.0154936
791.507	0.0153577
791.585	0.0153045
791.663	0.0153422
791.741	0.0152789
791.819	0.0152180
791.898	0.0152332
791.976	0.0151952
792.054	0.0151968
792.132	0.0151497
792.210	0.0150258
792.288	0.0149974
792.366	0.0150679
792.444	0.0150198
792.523	0.0150191
792.601	0.0150377
792.679	0.0148936
792.757	0.0150833
792.835	0.0149794
792.913	0.0149794
792.991	0.0150159
793.069	0.0151575
793.148	0.0150264
793.226	0.0151853
793.304	0.0151801
793.382	0.0150159
793.460	0.0150261
793.538	0.0151800
793.616	0.0153122
793.694	0.0152431
793.773	0.0151795
793.851	0.0153654
793.929	0.0154184
794.007	0.0154072
794.085	0.0153614
794.163	0.0152528
794.241	0.0154819
794.319	0.0154650
794.398	0.0152982
794.476	0.0154037
794.554	0.0154987
794.632	0.0153363
794.710	0.0153152
794.788	0.0153908
794.866	0.0152936
794.944	0.0152475
795.023	0.0153907
795.101	0.0152348
795.179	0.0152751
795.257	0.0152076
795.335	0.0152231
795.413	0.0150944
795.491	0.0151044
795.569	0.0151315
795.648	0.0150875
795.726	0.0151350
795.804	0.0153082
795.882	0.0151113
795.960	0.0149341
796.038	0.0150692
796.116	0.0149966
796.194	0.0150867
796.273	0.0150431
796.351	0.0150034
796.429	0.0150644
796.507	0.0151008
796.585	0.0150341
796.663	0.0151270
796.741	0.0150961
796.819	0.0151032
796.898	0.0152094
796.976	0.0151162
797.054	0.0150251
797.132	0.0151974
797.210	0.0153337
797.288	0.0152931
797.366	0.0152395
797.444	0.0152901
797.523	0.0154572
797.601	0.0154272
797.679	0.0152846
797.757	0.0152999
797.835	0.0154113
797.913	0.0155845
797.991	0.0155526
798.069	0.0154798
798.148	0.0154858
798.226	0.0156628
798.304	0.0154375
798.382	0.0154787
798.460	0.0155243
798.538	0.0153779
798.616	0.0155594
798.694	0.0155008
798.773	0.0154632
798.851	0.0155418
798.929	0.0154925
799.007	0.0155379
799.085	0.0153825
799.163	0.0153350
799.241	0.0154398
799.319	0.0154596
799.398	0.0154674
799.476	0.0153899
799.554	0.0153469
799.632	0.0153676
799.710	0.0153111
799.788	0.0152586
799.866	0.0152826
799.944	0.0152869
800.023	0.0151704
800.101	0.0152156
800.179	0.0151190
800.257	0.0151607
800.335	0.0151895
800.413	0.0152561
800.491	0.0151461
800.569	0.0150134
800.648	0.0152516
800.726	0.0152975
800.804	0.0152990
800.882	0.0151375
800.960	0.0150642
801.038	0.0152509
801.116	0.0151045
801.194	0.0150420
801.273	0.0151048
801.351	0.0151775
801.429	0.0151240
801.507	0.0151163
801.585	0.0151538
801.663	0.0151831
801.741	0.0151154
801.819	0.0151204
801.898	0.0152962
801.976	0.0153709
802.054	0.0152302
802.132	0.0152873
802.210	0.0151722
802.288	0.0152144
802.366	0.0151923
802.444	0.0155038
802.523	0.0153896
802.601	0.0152128
802.679	0.0153085
802.757	0.0152138
802.835	0.0151717
802.913	0.0153830
802.991	0.0152859
803.069	0.0152708
803.148	0.0153560
803.226	0.0153706
803.304	0.0153074
803.382	0.0153614
803.460	0.0153834
803.538	0.0154382
803.616	0.0153131
803.694	0.0154316
803.773	0.0154668
803.851	0.0153105
803.929	0.0152866
804.007	0.0155817
804.085	0.0154542
804.163	0.0153123
804.241	0.0152507
804.319	0.0153926
804.398	0.0153988
804.476	0.0153962
804.554	0.0152773
804.632	0.0153173
804.710	0.0154621
804.788	0.0154962
804.866	0.0154147
804.944	0.0153852
805.023	0.0153687
805.101	0.0153919
805.179	0.0154194
805.257	0.0153934
805.335	0.0153680
805.413	0.0154246
805.491	0.0152023
805.569	0.0151578
805.648	0.0152082
805.726	0.0151474
805.804	0.0151951
805.882	0.0151532
805.960	0.0152350
806.038	0.0151561
806.116	0.0152923
806.194	0.0153197
806.273	0.0152327
806.351	0.0152720
806.429	0.0152391
806.507	0.0153024
806.585	0.0152997
806.663	0.0152583
806.741	0.0151852
806.819	0.0152027
806.898	0.0152438
806.976	0.0151907
807.054	0.0152288
807.132	0.0150532
807.210	0.0150209
807.288	0.0151551
807.366	0.0150643
807.444	0.0151566
807.523	0.0150818
807.601	0.0151148
807.679	0.0151848
807.757	0.0151466
807.835	0.0153043
807.913	0.0153812
807.991	0.0153388
808.069	0.0155074
808.148	0.0155010
808.226	0.0155868
808.304	0.0156502
808.382	0.0155496
808.460	0.0155177
808.538	0.0155828
808.616	0.0154966
808.694	0.0153617
808.773	0.0154259
808.851	0.0153184
808.929	0.0153605
809.007	0.0151730
809.085	0.0153536
809.163	0.0153262
809.241	0.0151900
809.319	0.0154180
809.398	0.0152331
809.476	0.0152678
809.554	0.0153399
809.632	0.0153455
809.710	0.0154119
809.788	0.0154415
809.866	0.0153984
809.944	0.0155512
810.023	0.0156075
810.101	0.0153465
810.179	0.0154720
810.257	0.0154279
810.335	0.0154202
810.413	0.0152806
810.491	0.0154626
810.569	0.0154034
810.648	0.0152483
810.726	0.0152962
810.804	0.0154065
810.882	0.0154137
810.960	0.0153793
811.038	0.0152576
811.116	0.0152594
811.194	0.0152953
811.273	0.0152949
811.351	0.0153444
811.429	0.0154454
811.507	0.0153940
811.585	0.0154077
811.663	0.0153638
811.741	0.0154017
811.819	0.0152950
811.898	0.0152684
811.976	0.0153359
812.054	0.0152039
812.132	0.0150562
812.210	0.0151057
812.288	0.0151027
812.366	0.0151856
812.444	0.0150642
812.523	0.0150506
812.601	0.0149534
812.679	0.0149065
812.757	0.0148487
812.835	0.0149409
812.913	0.0149095
812.991	0.0148633
813.069	0.0149241
813.148	0.0152235
813.226	0.0150315
813.304	0.0149448
813.382	0.0150340
813.460	0.0150259
813.538	0.0150954
813.616	0.0150681
813.694	0.0149734
813.773	0.0150421
813.851	0.0151668
813.929	0.0149493
814.007	0.0148774
814.085	0.0149051
814.163	0.0148267
814.241	0.0148632
814.319	0.0148869
814.398	0.0148361
814.476	0.0148891
814.554	0.0148754
814.632	0.0149448
814.710	0.0149575
814.788	0.0151011
814.866	0.0151243
814.944	0.0153168
815.023	0.0153355
815.101	0.0154071
815.179	0.0154036
815.257	0.0153600
815.335	0.0155050
815.413	0.0155245
815.491	0.0155408
815.569	0.0154789
815.648	0.0154878
815.726	0.0154433
815.804	0.0155413
815.882	0.0154591
815.960	0.0156762
816.038	0.0155986
816.116	0.0155356
816.194	0.0154869
816.273	0.0154416
816.351	0.0153952
816.429	0.0153592
816.507	0.0153879
816.585	0.0152924
816.663	0.0152725
816.741	0.0151815
816.819	0.0153459
816.898	0.0152594
816.976	0.0151491
817.054	0.0151500
817.132	0.0152995
817.210	0.0152946
817.288	0.0153108
817.366	0.0153664
817.444	0.0154208
817.523	0.0154823
817.601	0.0154533
817.679	0.0154202
817.757	0.0153152
817.835	0.0152882
817.913	0.0151303
817.991	0.0152818
818.069	0.0151631
818.148	0.0152031
818.226	0.0152387
818.304	0.0150917
818.382	0.0149473
818.460	0.0150052
818.538	0.0150955
818.616	0.0151228
818.694	0.0149837
818.773	0.0151180
818.851	0.0151024
818.929	0.0149668
819.007	0.0149514
819.085	0.0150052
819.163	0.0150667
819.241	0.0150795
819.319	0.0148210
819.398	0.0150298
819.476	0.0148637
819.554	0.0149193
819.632	0.0150564
819.710	0.0148389
819.788	0.0149200
819.866	0.0149807
819.944	0.0149727
820.023	0.0149976
820.101	0.0149352
820.179	0.0150916
820.257	0.0151532
820.335	0.0151979
820.413	0.0152085
820.491	0.0151813
820.569	0.0152196
820.648	0.0152782
820.726	0.0153300
820.804	0.0153431
820.882	0.0156542
820.960	0.0155509
821.038	0.0157381
821.116	0.0156548
821.194	0.0156548
821.273	0.0157543
821.351	0.0158097
821.429	0.0155943
821.507	0.0156898
821.585	0.0157832
821.663	0.0155846
821.741	0.0155952
821.819	0.0154356
821.898	0.0153965
821.976	0.0154684
822.054	0.0152374
822.132	0.0149947
822.210	0.0150400
822.288	0.0150806
822.366	0.0149415
822.444	0.0149218
822.523	0.0148672
822.601	0.0150050
822.679	0.0150200
822.757	0.0150338
822.835	0.0151172
822.913	0.0152481
822.991	0.0154010
823.069	0.0156122
823.148	0.0156815
823.226	0.0158836
823.304	0.0159252
823.382	0.0160437
823.460	0.0161505
823.538	0.0162169
823.616	0.0163120
823.694	0.0161155
823.773	0.0160675
823.851	0.0159853
823.929	0.0157620
824.007	0.0155219
824.085	0.0155534
824.163	0.0151977
824.241	0.0150704
824.319	0.0149694
824.398	0.0146674
824.476	0.0145753
824.554	0.0143728
824.632	0.0142897
824.710	0.0141675
824.788	0.0140854
824.866	0.0140324
824.944	0.0140391
825.023	0.0142014
825.101	0.0141177
825.179	0.0142767
825.257	0.0145565
825.335	0.0144898
825.413	0.0147133
825.491	0.0148759
825.569	0.0151200
825.648	0.0154275
825.726	0.0155013
825.804	0.0156866
825.882	0.0158613
825.960	0.0160776
826.038	0.0162616
826.116	0.0161709
826.194	0.0162821
826.273	0.0164438
826.351	0.0164123
826.429	0.0163297
826.507	0.0163445
826.585	0.0162441
826.663	0.0160016
826.741	0.0159239
826.819	0.0157247
826.898	0.0154329
826.976	0.0153326
827.054	0.0151180
827.132	0.0148788
827.210	0.0146354
827.288	0.0143936
827.366	0.0142702
827.444	0.0140007
827.523	0.0139373
827.601	0.0137718
827.679	0.0139378
827.757	0.0139384
827.835	0.0139871
827.913	0.0141568
827.991	0.0142726
828.069	0.0145657
828.148	0.0146018
828.226	0.0149067
828.304	0.0152722
828.382	0.0153651
828.460	0.0156225
828.538	0.0157736
828.616	0.0159422
828.694	0.0160577
828.773	0.0162437
828.851	0.0164209
828.929	0.0164204
829.007	0.0165195
829.085	0.0165654
829.163	0.0167143
829.241	0.0166720
829.319	0.0164660
829.398	0.0164622
829.476	0.0164024
829.554	0.0163007
829.632	0.0160812
829.710	0.0158452
829.788	0.0155408
829.866	0.0153305
829.944	0.0151608
830.023	0.0149737
830.101	0.0146120
830.179	0.0145265
830.257	0.0143098
830.335	0.0142065
830.413	0.0141010
830.491	0.0140367
830.569	0.0141542
830.648	0.0140250
830.726	0.0139191
830.804	0.0140634
830.882	0.0142829
830.960	0.0143285
831.038	0.0146306
831.116	0.0147001
831.194	0.0147871
831.273	0.0149179
831.351	0.0150734
831.429	0.0152512
831.507	0.0155598
831.585	0.0157504
831.663	0.0158573
831.741	0.0157703
831.819	0.0161035
831.898	0.0161845
831.976	0.0161737
832.054	0.0162119
832.132	0.0163656
832.210	0.0162325
832.288	0.0162090
832.366	0.0160495
832.444	0.0159702
832.523	0.0158051
832.601	0.0155596
832.679	0.0154335
832.757	0.0153658
832.835	0.0151565
832.913	0.0149162
832.991	0.0149687
833.069	0.0147821
833.148	0.0146606
833.226	0.0145612
833.304	0.0144355
833.382	0.0143684
833.460	0.0143507
833.538	0.0143526
833.616	0.0143841
833.694	0.0144232
833.773	0.0142355
833.851	0.0144221
833.929	0.0145565
834.007	0.0144678
834.085	0.0146674
834.163	0.0148129
834.241	0.0148257
834.319	0.0150603
834.398	0.0152090
834.476	0.0153445
834.554	0.0153162
834.632	0.0154700
834.710	0.0155716
834.788	0.0155309
834.866	0.0156307
834.944	0.0158688
835.023	0.0159289
835.101	0.0158507
835.179	0.0158456
835.257	0.0158699
835.335	0.0158661
835.413	0.0158945
835.491	0.0156808
835.569	0.0156342
835.648	0.0154601
835.726	0.0154901
835.804	0.0152896
835.882	0.0152928
835.960	0.0151906
836.038	0.0151054
836.116	0.0149317
836.194	0.0150145
836.273	0.0151229
836.351	0.0150116
836.429	0.0150966
836.507	0.0150518
836.585	0.0151563
836.663	0.0153617
836.741	0.0152390
836.819	0.0152241
836.898	0.0152794
836.976	0.0152856
837.054	0.0151759
837.132	0.0152433
837.210	0.0153590
837.288	0.0153959
837.366	0.0153650
837.444	0.0153972
837.523	0.0153995
837.601	0.0154545
837.679	0.0153500
837.757	0.0153513
837.835	0.0155904
837.913	0.0154754
837.991	0.0153815
838.069	0.0153850
838.148	0.0154294
838.226	0.0153168
838.304	0.0153994
838.382	0.0152980
838.460	0.0151765
838.538	0.0153026
838.616	0.0151824
838.694	0.0152786
838.773	0.0152874
838.851	0.0153419
838.929	0.0152499
839.007	0.0151979
839.085	0.0153887
839.163	0.0152711
839.241	0.0152564
839.319	0.0153893
839.398	0.0152972
839.476	0.0152925
839.554	0.0153873
839.632	0.0154372
839.710	0.0154232
839.788	0.0153349
839.866	0.0153203
839.944	0.0152126
840.023	0.0150966
840.101	0.0151616
840.179	0.0150767
840.257	0.0150723
840.335	0.0151550
840.413	0.0151205
840.491	0.0152605
840.569	0.0153250
840.648	0.0152945
840.726	0.0153483
840.804	0.0152673
840.882	0.0153729
840.960	0.0155014
841.038	0.0153713
841.116	0.0153710
841.194	0.0154265
841.273	0.0153188
841.351	0.0154235
841.429	0.0154449
841.507	0.0155735
841.585	0.0154452
841.663	0.0153891
841.741	0.0154535
841.819	0.0154042
841.898	0.0153975
841.976	0.0152901
842.054	0.0154094
842.132	0.0152206
842.210	0.0152331
842.288	0.0152480
842.366	0.0151411
842.444	0.0151875
842.523	0.0150047
842.601	0.0151031
842.679	0.0150595
842.757	0.0150429
842.835	0.0150184
842.913	0.0150783
842.991	0.0151645
843.069	0.0151740
843.148	0.0152702
843.226	0.0153494
843.304	0.0153851
843.382	0.0153889
843.460	0.0154322
843.538	0.0154189
843.616	0.0156063
843.694	0.0156768
843.773	0.0154978
843.851	0.0154735
843.929	0.0156275
844.007	0.0153955
844.085	0.0154787
844.163	0.0155083
844.241	0.0155566
844.319	0.0155331
844.398	0.0157563
844.476	0.0157186
844.554	0.0156533
844.632	0.0156263
844.710	0.0156719
844.788	0.0159031
844.866	0.0157428
844.944	0.0156566
845.023	0.0156741
845.101	0.0156953
845.179	0.0156294
845.257	0.0154869
845.335	0.0154012
845.413	0.0152768
845.491	0.0152221
845.569	0.0151145
845.648	0.0149911
845.726	0.0150401
845.804	0.0149165
845.882	0.0147765
845.960	0.0148068
846.038	0.0148271
846.116	0.0147549
846.194	0.0146335
846.273	0.0147188
846.351	0.0149097
846.429	0.0147990
846.507	0.0148507
846.585	0.0148024
846.663	0.0148983
846.741	0.0149719
846.819	0.0150327
846.898	0.0151237
846.976	0.0153527
847.054	0.0151756
847.132	0.0152868
847.210	0.0153518
847.288	0.0154209
847.366	0.0156321
847.444	0.0155806
847.523	0.0156503
847.601	0.0155956
847.679	0.0157171
847.757	0.0157439
847.835	0.0156831
847.913	0.0156568
847.991	0.0157708
848.069	0.0156157
848.148	0.0156216
848.226	0.0156664
848.304	0.0156387
848.382	0.0156777
848.460	0.0156960
848.538	0.0156400
848.616	0.0156377
848.694	0.0157320
848.773	0.0156596
848.851	0.0155520
848.929	0.0154942
849.007	0.0155337
849.085	0.0152819
849.163	0.0151991
849.241	0.0152632
849.319	0.0150661
849.398	0.0150137
849.476	0.0149731
849.554	0.0148591
849.632	0.0148196
849.710	0.0147545
849.788	0.0145272
849.866	0.0146039
849.944	0.0146235
850.023	0.0145763
850.101	0.0147887
850.179	0.0149473
850.257	0.0149229
850.335	0.0149409
850.413	0.0150207
850.491	0.0149872
850.569	0.0150150
850.648	0.0150159
850.726	0.0152462
850.804	0.0153468
850.882	0.0153584
850.960	0.0154075
851.038	0.0153753
851.116	0.0153751
851.194	0.0154195
851.273	0.0156033
851.351	0.0156940
851.429	0.0157571
851.507	0.0157072
851.585	0.0159061
851.663	0.0159325
851.741	0.0160134
851.819	0.0160332
851.898	0.0159653
851.976	0.0160659
852.054	0.0159452
852.132	0.0159920
852.210	0.0159868
852.288	0.0158637
852.366	0.0158876
852.444	0.0157972
852.523	0.0156026
852.601	0.0155043
852.679	0.0154172
852.757	0.0152296
852.835	0.0150852
852.913	0.0150906
852.991	0.0149342
853.069	0.0147911
853.148	0.0147274
853.226	0.0147404
853.304	0.0147120
853.382	0.0145247
853.460	0.0145919
853.538	0.0144472
853.616	0.0145156
853.694	0.0144715
853.773	0.0144491
853.851	0.0145419
853.929	0.0144436
854.007	0.0144746
854.085	0.0146357
854.163	0.0147168
854.241	0.0147349
854.319	0.0147189
854.398	0.0148993
854.476	0.0150694
854.554	0.0149840
854.632	0.0150952
854.710	0.0152799
854.788	0.0153086
854.866	0.0152833
854.944	0.0155602
855.023	0.0157372
855.101	0.0157912
855.179	0.0156334
855.257	0.0156675
855.335	0.0158698
855.413	0.0158583
855.491	0.0158869
855.569	0.0159010
855.648	0.0158138
855.726	0.0159088
855.804	0.0159698
855.882	0.0159989
855.960	0.0159637
856.038	0.0158231
856.116	0.0157622
856.194	0.0157330
856.273	0.0157880
856.351	0.0157901
856.429	0.0156538
856.507	0.0155237
856.585	0.0154399
856.663	0.0153320
856.741	0.0153053
856.819	0.0151679
856.898	0.0152154
856.976	0.0150309
857.054	0.0150780
857.132	0.0151168
857.210	0.0149095
857.288	0.0150969
857.366	0.0149895
857.444	0.0148347
857.523	0.0148385
857.601	0.0149313
857.679	0.0149186
857.757	0.0149708
857.835	0.0150326
857.913	0.0150751
857.991	0.0149092
858.069	0.0149673
858.148	0.0150670
858.226	0.0152135
858.304	0.0151065
858.382	0.0151498
858.460	0.0152515
858.538	0.0153725
858.616	0.0153415
858.694	0.0152292
858.773	0.0153570
858.851	0.0153915
858.929	0.0154402
859.007	0.0154433
859.085	0.0154636
859.163	0.0155371
859.241	0.0155526
859.319	0.0157314
859.398	0.0155855
859.476	0.0155126
859.554	0.0155684
859.632	0.0156246
859.710	0.0155904
859.788	0.0153902
859.866	0.0154254
859.944	0.0154812
860.023	0.0153862
860.101	0.0153707
860.179	0.0153264
860.257	0.0154365
860.335	0.0154107
860.413	0.0153826
860.491	0.0152647
860.569	0.0154397
860.648	0.0152790
860.726	0.0153548
860.804	0.0151422
860.882	0.0154340
860.960	0.0152860
861.038	0.0153651
861.116	0.0151815
861.194	0.0153506
861.273	0.0152182
861.351	0.0150166
861.429	0.0151658
861.507	0.0151284
861.585	0.0150137
861.663	0.0150531
861.741	0.0150000
861.819	0.0149568
861.898	0.0150380
861.976	0.0149788
862.054	0.0149607
862.132	0.0150237
862.210	0.0150574
862.288	0.0150363
862.366	0.0150752
862.444	0.0151201
862.523	0.0150697
862.601	0.0151267
862.679	0.0151945
862.757	0.0153638
862.835	0.0153344
862.913	0.0153230
862.991	0.0153356
863.069	0.0152820
863.148	0.0154766
863.226	0.0156185
863.304	0.0153986
863.382	0.0154626
863.460	0.0155109
863.538	0.0155681
863.616	0.0156348
863.694	0.0157045
863.773	0.0156458
863.851	0.0155341
863.929	0.0155939
864.007	0.0156620
864.085	0.0157209
864.163	0.0156091
864.241	0.0155715
864.319	0.0156063
864.398	0.0155601
864.476	0.0156113
864.554	0.0155852
864.632	0.0155945
864.710	0.0155527
864.788	0.0153352
864.866	0.0152682
864.944	0.0154895
865.023	0.0154152
865.101	0.0152525
865.179	0.0152728
865.257	0.0152911
865.335	0.0152152
865.413	0.0150771
865.491	0.0151921
865.569	0.0150300
865.648	0.0150772
865.726	0.0151209
865.804	0.0151627
865.882	0.0151465
865.960	0.0151521
866.038	0.0150662
866.116	0.0150009
866.194	0.0150487
866.273	0.0150533
866.351	0.0149595
866.429	0.0151022
866.507	0.0149375
866.585	0.0150737
866.663	0.0149699
866.741	0.0150715
866.819	0.0151868
866.898	0.0151015
866.976	0.0151336
867.054	0.0153376
867.132	0.0152544
867.210	0.0153276
867.288	0.0153283
867.366	0.0153758
867.444	0.0154308
867.523	0.0155241
867.601	0.0155682
867.679	0.0154653
867.757	0.0155180
867.835	0.0154877
867.913	0.0154499
867.991	0.0154812
868.069	0.0154329
868.148	0.0154253
868.226	0.0152849
868.304	0.0152094
868.382	0.0151498
868.460	0.0151654
868.538	0.0152396
868.616	0.0152330
868.694	0.0149548
868.773	0.0150574
868.851	0.0151791
868.929	0.0151332
869.007	0.0150023
869.085	0.0149251
869.163	0.0149843
869.241	0.0150609
869.319	0.0151071
869.398	0.0150640
869.476	0.0150935
869.554	0.0151653
869.632	0.0152673
869.710	0.0151499
869.788	0.0151823
869.866	0.0153329
869.944	0.0153777
870.023	0.0153276
870.101	0.0153009
870.179	0.0154387
870.257	0.0155635
870.335	0.0154385
870.413	0.0154727
870.491	0.0154623
870.569	0.0155700
870.648	0.0154523
870.726	0.0154861
870.804	0.0155236
870.882	0.0153260
870.960	0.0155289
871.038	0.0154283
871.116	0.0152515
871.194	0.0154314
871.273	0.0154763
871.351	0.0154021
871.429	0.0153102
871.507	0.0153997
871.585	0.0154176
871.663	0.0152396
871.741	0.0152991
871.819	0.0153127
871.898	0.0152466
871.976	0.0151723
872.054	0.0151475
872.132	0.0151485
872.210	0.0152679
872.288	0.0151873
872.366	0.0152267
872.444	0.0152581
872.523	0.0152191
872.601	0.0152440
872.679	0.0152028
872.757	0.0152133
872.835	0.0152243
872.913	0.0150957
872.991	0.0150666
873.069	0.0151769
873.148	0.0150726
873.226	0.0150666
873.304	0.0150104
873.382	0.0150408
873.460	0.0150333
873.538	0.0149085
873.616	0.0150279
873.694	0.0150162
873.773	0.0149005
873.851	0.0150315
873.929	0.0150738
874.007	0.0151639
874.085	0.0153030
874.163	0.0152695
874.241	0.0152975
874.319	0.0152866
874.398	0.0153136
874.476	0.0152409
874.554	0.0153806
874.632	0.0154340
874.710	0.0155287
874.788	0.0155256
874.866	0.0152480
874.944	0.0152653
875.023	0.0153719
875.101	0.0154215
875.179	0.0155343
875.257	0.0155154
875.335	0.0153600
875.413	0.0152686
875.491	0.0153627
875.569	0.0153662
875.648	0.0154591
875.726	0.0154340
875.804	0.0154017
875.882	0.0153218
875.960	0.0152661
876.038	0.0152274
876.116	0.0152473
876.194	0.0152941
876.273	0.0151806
876.351	0.0152753
876.429	0.0152927
876.507	0.0152687
876.585	0.0154060
876.663	0.0152268
876.741	0.0151174
876.819	0.0154545
876.898	0.0153795
876.976	0.0154039
877.054	0.0153635
877.132	0.0154160
877.210	0.0153423
877.288	0.0154861
877.366	0.0153666
877.444	0.0153146
877.523	0.0153266
877.601	0.0154077
877.679	0.0153683
877.757	0.0152830
877.835	0.0153532
877.913	0.0152956
877.991	0.0152568
878.069	0.0152406
878.148	0.0154543
878.226	0.0154066
878.304	0.0153678
878.382	0.0154187
878.460	0.0152818
878.538	0.0150494
878.616	0.0151656
878.694	0.0151798
878.773	0.0153165
878.851	0.0153895
878.929	0.0152111
879.007	0.0152567
879.085	0.0153935
879.163	0.0153458
879.241	0.0154085
879.319	0.0151015
879.398	0.0152448
879.476	0.0153873
879.554	0.0153123
879.632	0.0154033
879.710	0.0153393
879.788	0.0152187
879.866	0.0152110
879.944	0.0153521
880.023	0.0153831
880.101	0.0154588
880.179	0.0153627
880.257	0.0152377
880.335	0.0152400
880.413	0.0153052
880.491	0.0153505
880.569	0.0153510
880.648	0.0153387
880.726	0.0153395
880.804	0.0152686
880.882	0.0153426
880.960	0.0154026
881.038	0.0153017
881.116	0.0152991
881.194	0.0152522
881.273	0.0152920
881.351	0.0153143
881.429	0.0152830
881.507	0.0151816
881.585	0.0153581
881.663	0.0153690
881.741	0.0151226
881.819	0.0151968
881.898	0.0151933
881.976	0.0151717
882.054	0.0153516
882.132	0.0154785
882.210	0.0152421
882.288	0.0151733
882.366	0.0152994
882.444	0.0151760
882.523	0.0152377
882.601	0.0151382
882.679	0.0152110
882.757	0.0151758
882.835	0.0151501
882.913	0.0151951
882.991	0.0151305
883.069	0.0150850
883.148	0.0152254
883.226	0.0152058
883.304	0.0151541
883.382	0.0150916
883.460	0.0151485
883.538	0.0152473
883.616	0.0152796
883.694	0.0151594
883.773	0.0153024
883.851	0.0152596
883.929	0.0152390
884.007	0.0152271
884.085	0.0153725
884.163	0.0153504
884.241	0.0152826
884.319	0.0153499
884.398	0.0152458
884.476	0.0152026
884.554	0.0154271
884.632	0.0153472
884.710	0.0152116
884.788	0.0152014
884.866	0.0151420
884.944	0.0154102
885.023	0.0153448
885.101	0.0152898
885.179	0.0152466
885.257	0.0153069
885.335	0.0153055
885.413	0.0153607
885.491	0.0154150
885.569	0.0152266
885.648	0.0153184
885.726	0.0154297
885.804	0.0153979
885.882	0.0153042
885.960	0.0154067
886.038	0.0154895
886.116	0.0155223
886.194	0.0153140
886.273	0.0152264
886.351	0.0151847
886.429	0.0152095
886.507	0.0151828
886.585	0.0152153
886.663	0.0152454
886.741	0.0152015
886.819	0.0152579
886.898	0.0151498
886.976	0.0152583
887.054	0.0151962
887.132	0.0151073
887.210	0.0151718
887.288	0.0151844
887.366	0.0151261
887.444	0.0150257
887.523	0.0151277
887.601	0.0151730
887.679	0.0151256
887.757	0.0151633
887.835	0.0151150
887.913	0.0152825
887.991	0.0152209
888.069	0.0152538
888.148	0.0154190
888.226	0.0153039
888.304	0.0154929
888.382	0.0153691
888.460	0.0154234
888.538	0.0155968
888.616	0.0154356
888.694	0.0155878
888.773	0.0155666
888.851	0.0156334
888.929	0.0156296
889.007	0.0154979
889.085	0.0154896
889.163	0.0156306
889.241	0.0155589
889.319	0.0155199
889.398	0.0155144
889.476	0.0154868
889.554	0.0153439
889.632	0.0153197
889.710	0.0155157
889.788	0.0154763
889.866	0.0154391
889.944	0.0154472
890.023	0.0153686
890.101	0.0152451
890.179	0.0154212
890.257	0.0152870
890.335	0.0152711
890.413	0.0153156
890.491	0.0153962
890.569	0.0153564
890.648	0.0153542
890.726	0.0153408
890.804	0.0152398
890.882	0.0153234
890.960	0.0154208
891.038	0.0154188
891.116	0.0153984
891.194	0.0152697
891.273	0.0152562
891.351	0.0153578
891.429	0.0153658
891.507	0.0152645
891.585	0.0153495
891.663	0.0153515
891.741	0.0152407
891.819	0.0151968
891.898	0.0151352
891.976	0.0152396
892.054	0.0151015
892.132	0.0150893
892.210	0.0150340
892.288	0.0149862
892.366	0.0149572
892.444	0.0149203
892.523	0.0149936
892.601	0.0150004
892.679	0.0149076
892.757	0.0149694
892.835	0.0149648
892.913	0.0149278
892.991	0.0149741
893.069	0.0150246
893.148	0.0150693
893.226	0.0148842
893.304	0.0150244
893.382	0.0150249
893.460	0.0150449
893.538	0.0150512
893.616	0.0152155
893.694	0.0150404
893.773	0.0150993
893.851	0.0150506
893.929	0.0152486
894.007	0.0151567
894.085	0.0152340
894.163	0.0152039
894.241	0.0153207
894.319	0.0151272
894.398	0.0151122
894.476	0.0152158
894.554	0.0153372
894.632	0.0153091
894.710	0.0153632
894.788	0.0153983
894.866	0.0152435
894.944	0.0153165
895.023	0.0152818
895.101	0.0151673
895.179	0.0152916
895.257	0.0153123
895.335	0.0153446
895.413	0.0153480
895.491	0.0154691
895.569	0.0152215
895.648	0.0153177
895.726	0.0152534
895.804	0.0154096
895.882	0.0153676
895.960	0.0153588
896.038	0.0152417
896.116	0.0152786
896.194	0.0151984
896.273	0.0153030
896.351	0.0151449
896.429	0.0152094
896.507	0.0152421
896.585	0.0150600
896.663	0.0151376
896.741	0.0151768
896.819	0.0150713
896.898	0.0150868
896.976	0.0149764
897.054	0.0149806
897.132	0.0150033
897.210	0.0151247
897.288	0.0149926
897.366	0.0150460
897.444	0.0150816
897.523	0.0150598
897.601	0.0149815
897.679	0.0149978
897.757	0.0150456
897.835	0.0150895
897.913	0.0151108
897.991	0.0150056
898.069	0.0151002
898.148	0.0152496
898.226	0.0151597
898.304	0.0151170
898.382	0.0152388
898.460	0.0152576
898.538	0.0151743
898.616	0.0151864
898.694	0.0153149
898.773	0.0152467
898.851	0.0152062
898.929	0.0153162
899.007	0.0152592
899.085	0.0151419
899.163	0.0152629
899.241	0.0153861
899.319	0.0153832
899.398	0.0152095
899.476	0.0153498
899.554	0.0152785
899.632	0.0153543
899.710	0.0154076
899.788	0.0153445
899.866	0.0155421
899.944	0.0154489
900.023	0.0153394
900.101	0.0154408
900.179	0.0153716
900.257	0.0154759
900.335	0.0152696
900.413	0.0153525
900.491	0.0154649
900.569	0.0153565
900.648	0.0153144
900.726	0.0154088
900.804	0.0153605
900.882	0.0152406
900.960	0.0151833
901.038	0.0153312
901.116	0.0152826
901.194	0.0153001
901.273	0.0153104
901.351	0.0151690
901.429	0.0151324
901.507	0.0152271
901.585	0.0151827
901.663	0.0151091
901.741	0.0152419
901.819	0.0151498
901.898	0.0152359
901.976	0.0151994
902.054	0.0151765
902.132	0.0152690
902.210	0.0151366
902.288	0.0152841
902.366	0.0152495
902.444	0.0153073
902.523	0.0153323
902.601	0.0154455
902.679	0.0153770
902.757	0.0154520
902.835	0.0155213
902.913	0.0154644
902.991	0.0153262
903.069	0.0152602
903.148	0.0155033
903.226	0.0154357
903.304	0.0155019
903.382	0.0152921
903.460	0.0154068
903.538	0.0154807
903.616	0.0155910
903.694	0.0153864
903.773	0.0153774
903.851	0.0154297
903.929	0.0154416
904.007	0.0153963
904.085	0.0155106
904.163	0.0154179
904.241	0.0154253
904.319	0.0152682
904.398	0.0153337
904.476	0.0153828
904.554	0.0153284
904.632	0.0152396
904.710	0.0153571
904.788	0.0152666
904.866	0.0152377
904.944	0.0153283
905.023	0.0152574
905.101	0.0152742
905.179	0.0152670
905.257	0.0152524
905.335	0.0153178
905.413	0.0154278
905.491	0.0151612
905.569	0.0151931
905.648	0.0153428
905.726	0.0152200
905.804	0.0152794
905.882	0.0154234
905.960	0.0152122
906.038	0.0151929
906.116	0.0150861
906.194	0.0152245
906.273	0.0152222
906.351	0.0152362
906.429	0.0152072
906.507	0.0150390
906.585	0.0151126
906.663	0.0149877
906.741	0.0151785
906.819	0.0150471
906.898	0.0150503
906.976	0.0149754
907.054	0.0151139
907.132	0.0150713
907.210	0.0150372
907.288	0.0150595
907.366	0.0151781
907.444	0.0151453
907.523	0.0151176
907.601	0.0152204
907.679	0.0151884
907.757	0.0150468
907.835	0.0152608
907.913	0.0151936
907.991	0.0151295
908.069	0.0151105
908.148	0.0152367
908.226	0.0153381
908.304	0.0151295
908.382	0.0152335
908.460	0.0152529
908.538	0.0153056
908.616	0.0152219
908.694	0.0153039
908.773	0.0153256
908.851	0.0152930
908.929	0.0152351
909.007	0.0153359
909.085	0.0153503
909.163	0.0153274
909.241	0.0152570
909.319	0.0153652
909.398	0.0153584
909.476	0.0153331
909.554	0.0151817
909.632	0.0153344
909.710	0.0153848
909.788	0.0153424
909.866	0.0152789
909.944	0.0152986
910.023	0.0152761
910.101	0.0152885
910.179	0.0153014
910.257	0.0151370
910.335	0.0151470
910.413	0.0152029
910.491	0.0151758
910.569	0.0151824
910.648	0.0151829
910.726	0.0151476
910.804	0.0151620
910.882	0.0151987
910.960	0.0151657
911.038	0.0152238
911.116	0.0149740
911.194	0.0150596
911.273	0.0152024
911.351	0.0151169
911.429	0.0151634
911.507	0.0151117
911.585	0.0150375
911.663	0.0151939
911.741	0.0151263
911.819	0.0151247
911.898	0.0151286
911.976	0.0152218
912.054	0.0152594
912.132	0.0152480
912.210	0.0152103
912.288	0.0151904
912.366	0.0152622
912.444	0.0152915
912.523	0.0150847
912.601	0.0151643
912.679	0.0151952
912.757	0.0151785
912.835	0.0151367
912.913	0.0153214
912.991	0.0154060
913.069	0.0153291
913.148	0.0153594
913.226	0.0152824
913.304	0.0152087
913.382	0.0152629
913.460	0.0150966
913.538	0.0152853
913.616	0.0152386
913.694	0.0152451
913.773	0.0153477
913.851	0.0150900
913.929	0.0152223
914.007	0.0151308
914.085	0.0151347
914.163	0.0150800
914.241	0.0150626
914.319	0.0150732
914.398	0.0151208
914.476	0.0152356
914.554	0.0151619
914.632	0.0151362
914.710	0.0150860
914.788	0.0151611
914.866	0.0151536
914.944	0.0151725
915.023	0.0149648
915.101	0.0149219
915.179	0.0150092
915.257	0.0151393
915.335	0.0149683
915.413	0.0149467
915.491	0.0150376
915.569	0.0150371
915.648	0.0150636
915.726	0.0150459
915.804	0.0149434
915.882	0.0150658
915.960	0.0151257
916.038	0.0151486
916.116	0.0150844
916.194	0.0151874
916.273	0.0151052
916.351	0.0150960
916.429	0.0151396
916.507	0.0151359
916.585	0.0151654
916.663	0.0151561
916.741	0.0151067
916.819	0.0152998
916.898	0.0152744
916.976	0.0153307
917.054	0.0152793
917.132	0.0152185
917.210	0.0152003
917.288	0.0153428
917.366	0.0151886
917.444	0.0153233
917.523	0.0153992
917.601	0.0152229
917.679	0.0153323
917.757	0.0153059
917.835	0.0152599
917.913	0.0153410
917.991	0.0154195
918.069	0.0152891
918.148	0.0151846
918.226	0.0152412
918.304	0.0151868
918.382	0.0153678
918.460	0.0152439
918.538	0.0152566
918.616	0.0152177
918.694	0.0151974
918.773	0.0151106
918.851	0.0152020
918.929	0.0151163
919.007	0.0150475
919.085	0.0151057
919.163	0.0152327
919.241	0.0150580
919.319	0.0151553
919.398	0.0153326
919.476	0.0152313
919.554	0.0150928
919.632	0.0151223
919.710	0.0152077
919.788	0.0152128
919.866	0.0151932
919.944	0.0151933
920.023	0.0151846
920.101	0.0152470
920.179	0.0152928
920.257	0.0152320
920.335	0.0152622
920.413	0.0152411
920.491	0.0151141
920.569	0.0152029
920.648	0.0154161
920.726	0.0154108
920.804	0.0152200
920.882	0.0151891
920.960	0.0153152
921.038	0.0154093
921.116	0.0153249
921.194	0.0151132
921.273	0.0153651
921.351	0.0151471
921.429	0.0153032
921.507	0.0152745
921.585	0.0154305
921.663	0.0151310
921.741	0.0152032
921.819	0.0153110
921.898	0.0152031
921.976	0.0152390
922.054	0.0153435
922.132	0.0153751
922.210	0.0154039
922.288	0.0152935
922.366	0.0153725
922.444	0.0155198
922.523	0.0154250
922.601	0.0155328
922.679	0.0153313
922.757	0.0154562
922.835	0.0155379
922.913	0.0154966
922.991	0.0155106
923.069	0.0154618
923.148	0.0154664
923.226	0.0155126
923.304	0.0154974
923.382	0.0153831
923.460	0.0154170
923.538	0.0154400
923.616	0.0152336
923.694	0.0153448
923.773	0.0152972
923.851	0.0152900
923.929	0.0153422
924.007	0.0153207
924.085	0.0152530
924.163	0.0151488
924.241	0.0153263
924.319	0.0151686
924.398	0.0150457
924.476	0.0151092
924.554	0.0150965
924.632	0.0151460
924.710	0.0151241
924.788	0.0149728
924.866	0.0150418
924.944	0.0149969
925.023	0.0150471
925.101	0.0151421
925.179	0.0149725
925.257	0.0150559
925.335	0.0151357
925.413	0.0152869
925.491	0.0151932
925.569	0.0151181
925.648	0.0152103
925.726	0.0153024
925.804	0.0152114
925.882	0.0151691
925.960	0.0153116
926.038	0.0152527
926.116	0.0153137
926.194	0.0151579
926.273	0.0151805
926.351	0.0151397
926.429	0.0152644
926.507	0.0150629
926.585	0.0150879
926.663	0.0152451
926.741	0.0151692
926.819	0.0152849
926.898	0.0151863
926.976	0.0151400
927.054	0.0150962
927.132	0.0150584
927.210	0.0150634
927.288	0.0152886
927.366	0.0151364
927.444	0.0150744
927.523	0.0151903
927.601	0.0151575
927.679	0.0150385
927.757	0.0151202
927.835	0.0150900
927.913	0.0151375
927.991	0.0153129
928.069	0.0153059
928.148	0.0152655
928.226	0.0152945
928.304	0.0152144
928.382	0.0150974
928.460	0.0151588
928.538	0.0153776
928.616	0.0152306
928.694	0.0151787
928.773	0.0153130
928.851	0.0152069
928.929	0.0151665
929.007	0.0152489
929.085	0.0152175
929.163	0.0150982
929.241	0.0151061
929.319	0.0150805
929.398	0.0150164
929.476	0.0151404
929.554	0.0151954
929.632	0.0151846
929.710	0.0151064
929.788	0.0150685
929.866	0.0151586
929.944	0.0151690
930.023	0.0151389
930.101	0.0150400
930.179	0.0150567
930.257	0.0149542
930.335	0.0149896
930.413	0.0150242
930.491	0.0150601
930.569	0.0151417
930.648	0.0151589
930.726	0.0150850
930.804	0.0150445
930.882	0.0151443
930.960	0.0151933
931.038	0.0152405
931.116	0.0152230
931.194	0.0152526
931.273	0.0152364
931.351	0.0152585
931.429	0.0152431
931.507	0.0152710
931.585	0.0152695
931.663	0.0153101
931.741	0.0152897
931.819	0.0152559
931.898	0.0151897
931.976	0.0152081
932.054	0.0151028
932.132	0.0152592
932.210	0.0152296
932.288	0.0151690
932.366	0.0152192
932.444	0.0152141
932.523	0.0151869
932.601	0.0151962
932.679	0.0152126
932.757	0.0153555
932.835	0.0150745
932.913	0.0150626
932.991	0.0150906
933.069	0.0151722
933.148	0.0151411
933.226	0.0151059
933.304	0.0152464
933.382	0.0152024
933.460	0.0150797
933.538	0.0150959
933.616	0.0151986
933.694	0.0151802
933.773	0.0151768
933.851	0.0150990
933.929	0.0152052
934.007	0.0154115
934.085	0.0154726
934.163	0.0153539
934.241	0.0153362
934.319	0.0152866
934.398	0.0154188
934.476	0.0154156
934.554	0.0154103
934.632	0.0153281
934.710	0.0154649
934.788	0.0154276
934.866	0.0153690
934.944	0.0153439
935.023	0.0153388
935.101	0.0154124
935.179	0.0154170
935.257	0.0153817
935.335	0.0153569
935.413	0.0152460
935.491	0.0152798
935.569	0.0153924
935.648	0.0154108
935.726	0.0153143
935.804	0.0151086
935.882	0.0151954
935.960	0.0151878
936.038	0.0151785
936.116	0.0150349
936.194	0.0149657
936.273	0.0150285
936.351	0.0150083
936.429	0.0149188
936.507	0.0150713
936.585	0.0150307
936.663	0.0149607
936.741	0.0150296
936.819	0.0150479
936.898	0.0150922
936.976	0.0150695
937.054	0.0151420
937.132	0.0151025
937.210	0.0150753
937.288	0.0150547
937.366	0.0151648
937.444	0.0150755
937.523	0.0151948
937.601	0.0151673
937.679	0.0152823
937.757	0.0152476
937.835	0.0153239
937.913	0.0152484
937.991	0.0153230
938.069	0.0153078
938.148	0.0153367
938.226	0.0153474
938.304	0.0152182
938.382	0.0153316
938.460	0.0153114
938.538	0.0153883
938.616	0.0153565
938.694	0.0152959
938.773	0.0153600
938.851	0.0153598
938.929	0.0152567
939.007	0.0154416
939.085	0.0153314
939.163	0.0153273
939.241	0.0154064
939.319	0.0153059
939.398	0.0154014
939.476	0.0153252
939.554	0.0152835
939.632	0.0152042
939.710	0.0152505
939.788	0.0153044
939.866	0.0152342
939.944	0.0152718
940.023	0.0152824
940.101	0.0153226
940.179	0.0153051
940.257	0.0153033
940.335	0.0153145
940.413	0.0152509
940.491	0.0153150
940.569	0.0152839
940.648	0.0151719
940.726	0.0153812
940.804	0.0153095
940.882	0.0153201
940.960	0.0153689
941.038	0.0153520
941.116	0.0154337
941.194	0.0154079
941.273	0.0154337
941.351	0.0153455
941.429	0.0153367
941.507	0.0152501
941.585	0.0155721
941.663	0.0154691
941.741	0.0155135
941.819	0.0154194
941.898	0.0154343
941.976	0.0155530
942.054	0.0153709
942.132	0.0155587
942.210	0.0154726
942.288	0.0154847
942.366	0.0154612
942.444	0.0155139
942.523	0.0154648
942.601	0.0155257
942.679	0.0154031
942.757	0.0153761
942.835	0.0155921
942.913	0.0154461
942.991	0.0153953
943.069	0.0153767
943.148	0.0153172
943.226	0.0153699
943.304	0.0151975
943.382	0.0152418
943.460	0.0153632
943.538	0.0152876
943.616	0.0151990
943.694	0.0154113
943.773	0.0153756
943.851	0.0151624
943.929	0.0152366
944.007	0.0153409
944.085	0.0153308
944.163	0.0152862
944.241	0.0152955
944.319	0.0152462
944.398	0.0151022
944.476	0.0150968
944.554	0.0152694
944.632	0.0152519
944.710	0.0152808
944.788	0.0151876
944.866	0.0152089
944.944	0.0150900
945.023	0.0151997
945.101	0.0152325
945.179	0.0152586
945.257	0.0151171
945.335	0.0151022
945.413	0.0151138
945.491	0.0151804
945.569	0.0151019
945.648	0.0151729
945.726	0.0150813
945.804	0.0151929
945.882	0.0152261
945.960	0.0151350
946.038	0.0151917
946.116	0.0151817
946.194	0.0151434
946.273	0.0152750
946.351	0.0152504
946.429	0.0153115
946.507	0.0152421
946.585	0.0152281
946.663	0.0152761
946.741	0.0151830
946.819	0.0152631
946.898	0.0151513
946.976	0.0152298
947.054	0.0151823
947.132	0.0152900
947.210	0.0152712
947.288	0.0152951
947.366	0.0153434
947.444	0.0153534
947.523	0.0151916
947.601	0.0152181
947.679	0.0152166
947.757	0.0153452
947.835	0.0153065
947.913	0.0154105
947.991	0.0153918
948.069	0.0153700
948.148	0.0153996
948.226	0.0154210
948.304	0.0155276
948.382	0.0153466
948.460	0.0153049
948.538	0.0154624
948.616	0.0154836
948.694	0.0153486
948.773	0.0155196
948.851	0.0155305
948.929	0.0154645
949.007	0.0155341
949.085	0.0153427
949.163	0.0154511
949.241	0.0155712
949.319	0.0155914
949.398	0.0153004
949.476	0.0154870
949.554	0.0153274
949.632	0.0154890
949.710	0.0153226
949.788	0.0154108
949.866	0.0153040
949.944	0.0152656
