05/14/2022	19:47:31	Ver.	4.1	UNKNOWN
Optical Delay	630.022520	Delta X		0.078125	Sweeps	1	Scan Rate	0/0
Coordinates	Axis 1	NaN	Axis 2	NaN	Axis 3	NaN	Axis 4	NaN	Axis 5	NaN	Axis 6	0.000000
TX Power	0.000000	RX Power	0.000000

630.023	0.0150457
630.101	0.0150112
630.179	0.0149416
630.257	0.0150277
630.335	0.0150723
630.413	0.0149490
630.491	0.0149114
630.569	0.0149713
630.648	0.0148807
630.726	0.0150237
630.804	0.0149449
630.882	0.0148691
630.960	0.0148376
631.038	0.0149072
631.116	0.0149533
631.194	0.0149663
631.273	0.0148344
631.351	0.0150072
631.429	0.0150702
631.507	0.0148672
631.585	0.0150581
631.663	0.0149642
631.741	0.0149044
631.819	0.0148763
631.898	0.0149154
631.976	0.0147894
632.054	0.0148598
632.132	0.0149051
632.210	0.0150893
632.288	0.0148708
632.366	0.0148568
632.444	0.0149301
632.523	0.0148841
632.601	0.0148396
632.679	0.0149597
632.757	0.0151190
632.835	0.0148196
632.913	0.0151247
632.991	0.0149722
633.069	0.0149723
633.148	0.0150470
633.226	0.0149491
633.304	0.0149631
633.382	0.0150367
633.460	0.0149594
633.538	0.0149704
633.616	0.0150681
633.694	0.0150085
633.773	0.0149240
633.851	0.0149622
633.929	0.0151962
634.007	0.0151404
634.085	0.0149885
634.163	0.0151008
634.241	0.0150953
634.319	0.0149766
634.398	0.0150087
634.476	0.0150095
634.554	0.0149373
634.632	0.0150370
634.710	0.0150994
634.788	0.0149490
634.866	0.0150876
634.944	0.0151381
635.023	0.0150175
635.101	0.0151750
635.179	0.0151431
635.257	0.0150304
635.335	0.0150805
635.413	0.0151898
635.491	0.0152048
635.569	0.0151604
635.648	0.0149879
635.726	0.0150893
635.804	0.0150726
635.882	0.0150490
635.960	0.0149610
636.038	0.0150761
636.116	0.0150317
636.194	0.0150333
636.273	0.0150455
636.351	0.0151189
636.429	0.0150383
636.507	0.0150380
636.585	0.0151086
636.663	0.0151092
636.741	0.0150868
636.819	0.0151227
636.898	0.0151534
636.976	0.0150163
637.054	0.0149958
637.132	0.0150797
637.210	0.0150761
637.288	0.0151677
637.366	0.0150886
637.444	0.0151835
637.523	0.0152145
637.601	0.0151215
637.679	0.0150138
637.757	0.0149913
637.835	0.0151552
637.913	0.0151653
637.991	0.0151286
638.069	0.0150564
638.148	0.0151674
638.226	0.0151811
638.304	0.0150671
638.382	0.0150590
638.460	0.0150900
638.538	0.0152699
638.616	0.0151771
638.694	0.0150704
638.773	0.0150469
638.851	0.0151648
638.929	0.0152106
639.007	0.0152187
639.085	0.0151991
639.163	0.0150535
639.241	0.0151420
639.319	0.0151485
639.398	0.0151016
639.476	0.0151917
639.554	0.0152176
639.632	0.0150072
639.710	0.0151382
639.788	0.0151051
639.866	0.0151210
639.944	0.0151785
640.023	0.0151800
640.101	0.0151329
640.179	0.0150610
640.257	0.0149901
640.335	0.0150896
640.413	0.0151266
640.491	0.0149641
640.569	0.0148668
640.648	0.0149986
640.726	0.0150291
640.804	0.0149897
640.882	0.0150313
640.960	0.0148764
641.038	0.0149777
641.116	0.0148486
641.194	0.0148568
641.273	0.0149319
641.351	0.0148464
641.429	0.0148363
641.507	0.0148623
641.585	0.0148099
641.663	0.0148465
641.741	0.0148917
641.819	0.0148492
641.898	0.0148895
641.976	0.0146802
642.054	0.0148448
642.132	0.0148349
642.210	0.0148458
642.288	0.0149048
642.366	0.0148544
642.444	0.0148163
642.523	0.0146847
642.601	0.0146101
642.679	0.0147745
642.757	0.0148436
642.835	0.0148910
642.913	0.0149118
642.991	0.0147876
643.069	0.0148667
643.148	0.0148655
643.226	0.0148306
643.304	0.0148451
643.382	0.0147715
643.460	0.0148070
643.538	0.0147777
643.616	0.0147303
643.694	0.0148414
643.773	0.0148268
643.851	0.0148376
643.929	0.0147889
644.007	0.0149094
644.085	0.0147518
644.163	0.0148251
644.241	0.0148145
644.319	0.0147883
644.398	0.0148301
644.476	0.0146703
644.554	0.0148262
644.632	0.0148895
644.710	0.0147171
644.788	0.0145685
644.866	0.0147769
644.944	0.0146942
645.023	0.0148458
645.101	0.0148730
645.179	0.0147958
645.257	0.0146857
645.335	0.0148072
645.413	0.0148182
645.491	0.0149004
645.569	0.0148863
645.648	0.0148016
645.726	0.0149370
645.804	0.0148819
645.882	0.0149066
645.960	0.0149181
646.038	0.0149255
646.116	0.0149194
646.194	0.0150281
646.273	0.0149327
646.351	0.0149615
646.429	0.0149097
646.507	0.0150165
646.585	0.0149632
646.663	0.0149778
646.741	0.0149013
646.819	0.0150178
646.898	0.0151366
646.976	0.0151457
647.054	0.0149838
647.132	0.0149973
647.210	0.0150620
647.288	0.0150587
647.366	0.0149745
647.444	0.0150407
647.523	0.0149636
647.601	0.0149847
647.679	0.0149979
647.757	0.0150259
647.835	0.0150359
647.913	0.0150753
647.991	0.0151125
648.069	0.0150279
648.148	0.0150723
648.226	0.0150809
648.304	0.0150082
648.382	0.0149747
648.460	0.0149897
648.538	0.0151190
648.616	0.0149251
648.694	0.0149961
648.773	0.0149256
648.851	0.0150551
648.929	0.0149392
649.007	0.0150371
649.085	0.0150230
649.163	0.0149872
649.241	0.0152845
649.319	0.0152737
649.398	0.0150867
649.476	0.0150636
649.554	0.0151611
649.632	0.0150961
649.710	0.0150817
649.788	0.0153130
649.866	0.0152279
649.944	0.0151534
650.023	0.0152242
650.101	0.0151557
650.179	0.0152248
650.257	0.0152345
650.335	0.0152195
650.413	0.0153115
650.491	0.0152369
650.569	0.0151861
650.648	0.0152613
650.726	0.0151291
650.804	0.0150304
650.882	0.0152502
650.960	0.0150235
651.038	0.0151454
651.116	0.0151334
651.194	0.0151852
651.273	0.0150350
651.351	0.0149203
651.429	0.0150127
651.507	0.0150938
651.585	0.0150091
651.663	0.0150214
651.741	0.0150654
651.819	0.0151006
651.898	0.0152164
651.976	0.0151498
652.054	0.0151054
652.132	0.0153262
652.210	0.0151573
652.288	0.0153477
652.366	0.0152451
652.444	0.0153382
652.523	0.0152274
652.601	0.0151614
652.679	0.0152106
652.757	0.0150911
652.835	0.0151623
652.913	0.0151107
652.991	0.0149803
653.069	0.0147601
653.148	0.0149834
653.226	0.0148455
653.304	0.0148164
653.382	0.0148182
653.460	0.0147545
653.538	0.0147466
653.616	0.0146932
653.694	0.0147728
653.773	0.0147137
653.851	0.0147955
653.929	0.0150216
654.007	0.0150763
654.085	0.0151422
654.163	0.0152243
654.241	0.0152684
654.319	0.0153427
654.398	0.0154788
654.476	0.0154195
654.554	0.0154911
654.632	0.0155511
654.710	0.0155300
654.788	0.0155001
654.866	0.0154856
654.944	0.0154266
655.023	0.0154527
655.101	0.0153577
655.179	0.0152255
655.257	0.0151410
655.335	0.0150487
655.413	0.0148185
655.491	0.0148042
655.569	0.0145975
655.648	0.0145155
655.726	0.0145499
655.804	0.0144616
655.882	0.0143397
655.960	0.0142296
656.038	0.0142917
656.116	0.0142546
656.194	0.0141904
656.273	0.0142641
656.351	0.0144939
656.429	0.0144684
656.507	0.0145354
656.585	0.0146379
656.663	0.0147417
656.741	0.0149925
656.819	0.0151262
656.898	0.0152401
656.976	0.0153596
657.054	0.0153169
657.132	0.0155914
657.210	0.0155257
657.288	0.0156745
657.366	0.0157692
657.444	0.0157112
657.523	0.0157169
657.601	0.0155367
657.679	0.0155965
657.757	0.0154359
657.835	0.0153726
657.913	0.0153406
657.991	0.0151283
658.069	0.0149616
658.148	0.0146320
658.226	0.0145497
658.304	0.0144620
658.382	0.0141139
658.460	0.0140659
658.538	0.0141074
658.616	0.0139140
658.694	0.0136953
658.773	0.0139513
658.851	0.0138586
658.929	0.0137473
659.007	0.0139133
659.085	0.0140607
659.163	0.0141276
659.241	0.0144101
659.319	0.0144729
659.398	0.0146114
659.476	0.0148158
659.554	0.0151015
659.632	0.0153497
659.710	0.0153168
659.788	0.0156036
659.866	0.0158829
659.944	0.0161752
660.023	0.0162321
660.101	0.0162578
660.179	0.0162679
660.257	0.0163091
660.335	0.0163100
660.413	0.0162944
660.491	0.0160517
660.569	0.0159894
660.648	0.0159750
660.726	0.0156691
660.804	0.0154059
660.882	0.0151894
660.960	0.0149792
661.038	0.0147620
661.116	0.0145475
661.194	0.0144353
661.273	0.0142898
661.351	0.0140585
661.429	0.0138856
661.507	0.0137282
661.585	0.0137019
661.663	0.0135638
661.741	0.0134638
661.819	0.0136837
661.898	0.0135519
661.976	0.0136089
662.054	0.0136023
662.132	0.0137207
662.210	0.0139350
662.288	0.0140228
662.366	0.0140695
662.444	0.0144207
662.523	0.0145739
662.601	0.0146586
662.679	0.0148934
662.757	0.0150994
662.835	0.0152963
662.913	0.0152794
662.991	0.0155109
663.069	0.0156089
663.148	0.0156651
663.226	0.0156611
663.304	0.0157175
663.382	0.0156841
663.460	0.0156423
663.538	0.0154958
663.616	0.0154964
663.694	0.0152878
663.773	0.0151516
663.851	0.0152180
663.929	0.0149656
664.007	0.0149628
664.085	0.0148965
664.163	0.0146879
664.241	0.0147749
664.319	0.0146107
664.398	0.0146463
664.476	0.0148126
664.554	0.0147829
664.632	0.0146809
664.710	0.0149238
664.788	0.0148454
664.866	0.0149516
664.944	0.0149837
665.023	0.0148799
665.101	0.0150334
665.179	0.0151935
665.257	0.0150467
665.335	0.0150843
665.413	0.0152459
665.491	0.0152000
665.569	0.0151461
665.648	0.0151778
665.726	0.0151555
665.804	0.0150182
665.882	0.0148707
665.960	0.0149104
666.038	0.0147734
666.116	0.0145432
666.194	0.0144664
666.273	0.0144036
666.351	0.0143468
666.429	0.0141006
666.507	0.0140724
666.585	0.0140108
666.663	0.0139683
666.741	0.0138133
666.819	0.0138264
666.898	0.0139302
666.976	0.0139819
667.054	0.0138203
667.132	0.0138980
667.210	0.0139713
667.288	0.0141450
667.366	0.0143480
667.444	0.0143056
667.523	0.0144877
667.601	0.0147237
667.679	0.0149852
667.757	0.0150936
667.835	0.0153212
667.913	0.0154873
667.991	0.0158187
668.069	0.0160888
668.148	0.0163911
668.226	0.0163227
668.304	0.0164841
668.382	0.0167798
668.460	0.0168260
668.538	0.0167915
668.616	0.0168945
668.694	0.0168839
668.773	0.0169366
668.851	0.0168439
668.929	0.0166578
669.007	0.0165086
669.085	0.0163787
669.163	0.0161400
669.241	0.0159292
669.319	0.0158730
669.398	0.0156473
669.476	0.0153020
669.554	0.0152380
669.632	0.0149636
669.710	0.0147643
669.788	0.0145458
669.866	0.0144206
669.944	0.0142418
670.023	0.0139457
670.101	0.0137867
670.179	0.0137132
670.257	0.0135328
670.335	0.0133948
670.413	0.0132613
670.491	0.0131346
670.569	0.0131263
670.648	0.0130063
670.726	0.0131210
670.804	0.0130822
670.882	0.0131773
670.960	0.0130854
671.038	0.0133603
671.116	0.0135234
671.194	0.0134351
671.273	0.0134705
671.351	0.0138365
671.429	0.0139336
671.507	0.0140906
671.585	0.0144370
671.663	0.0147470
671.741	0.0149159
671.819	0.0152363
671.898	0.0154820
671.976	0.0156746
672.054	0.0160101
672.132	0.0161143
672.210	0.0164154
672.288	0.0164607
672.366	0.0166494
672.444	0.0168078
672.523	0.0168630
672.601	0.0169107
672.679	0.0168790
672.757	0.0169569
672.835	0.0168731
672.913	0.0167416
672.991	0.0166894
673.069	0.0166769
673.148	0.0163855
673.226	0.0164030
673.304	0.0162191
673.382	0.0159914
673.460	0.0157683
673.538	0.0156350
673.616	0.0154765
673.694	0.0150945
673.773	0.0149771
673.851	0.0149135
673.929	0.0147570
674.007	0.0145425
674.085	0.0143714
674.163	0.0143681
674.241	0.0144674
674.319	0.0142828
674.398	0.0141816
674.476	0.0141810
674.554	0.0143400
674.632	0.0143395
674.710	0.0142521
674.788	0.0143810
674.866	0.0143726
674.944	0.0146007
675.023	0.0144847
675.101	0.0143477
675.179	0.0144351
675.257	0.0145263
675.335	0.0145119
675.413	0.0144830
675.491	0.0144484
675.569	0.0142163
675.648	0.0141896
675.726	0.0142823
675.804	0.0142371
675.882	0.0140797
675.960	0.0141875
676.038	0.0140741
676.116	0.0139120
676.194	0.0138362
676.273	0.0138342
676.351	0.0138154
676.429	0.0139807
676.507	0.0140186
676.585	0.0139657
676.663	0.0140251
676.741	0.0142143
676.819	0.0143810
676.898	0.0144093
676.976	0.0146627
677.054	0.0149971
677.132	0.0150889
677.210	0.0152414
677.288	0.0154783
677.366	0.0157317
677.444	0.0159662
677.523	0.0162830
677.601	0.0164147
677.679	0.0166252
677.757	0.0168538
677.835	0.0170889
677.913	0.0172797
677.991	0.0174289
678.069	0.0174162
678.148	0.0176539
678.226	0.0176102
678.304	0.0176659
678.382	0.0176251
678.460	0.0176949
678.538	0.0175916
678.616	0.0174433
678.694	0.0173452
678.773	0.0171818
678.851	0.0168114
678.929	0.0166834
679.007	0.0164651
679.085	0.0161594
679.163	0.0156774
679.241	0.0153425
679.319	0.0151261
679.398	0.0146542
679.476	0.0143452
679.554	0.0139974
679.632	0.0136210
679.710	0.0133066
679.788	0.0129964
679.866	0.0126513
679.944	0.0123916
680.023	0.0123628
680.101	0.0123082
680.179	0.0121261
680.257	0.0119022
680.335	0.0119942
680.413	0.0119390
680.491	0.0119315
680.569	0.0118850
680.648	0.0118841
680.726	0.0120546
680.804	0.0122549
680.882	0.0123637
680.960	0.0125584
681.038	0.0129295
681.116	0.0132050
681.194	0.0134235
681.273	0.0137059
681.351	0.0140188
681.429	0.0145626
681.507	0.0149621
681.585	0.0152635
681.663	0.0156909
681.741	0.0160632
681.819	0.0163467
681.898	0.0165982
681.976	0.0171046
682.054	0.0172913
682.132	0.0173299
682.210	0.0177309
682.288	0.0179259
682.366	0.0179299
682.444	0.0179201
682.523	0.0180047
682.601	0.0181604
682.679	0.0180381
682.757	0.0179033
682.835	0.0175809
682.913	0.0175662
682.991	0.0173679
683.069	0.0171164
683.148	0.0170014
683.226	0.0166151
683.304	0.0163356
683.382	0.0161658
683.460	0.0157846
683.538	0.0154637
683.616	0.0151781
683.694	0.0147884
683.773	0.0146346
683.851	0.0142768
683.929	0.0140912
684.007	0.0136100
684.085	0.0134504
684.163	0.0132582
684.241	0.0132096
684.319	0.0130687
684.398	0.0129286
684.476	0.0128709
684.554	0.0126825
684.632	0.0125625
684.710	0.0126830
684.788	0.0128304
684.866	0.0129233
684.944	0.0128703
685.023	0.0130453
685.101	0.0131634
685.179	0.0133820
685.257	0.0136381
685.335	0.0138258
685.413	0.0139184
685.491	0.0140337
685.569	0.0143217
685.648	0.0145016
685.726	0.0147629
685.804	0.0149940
685.882	0.0152546
685.960	0.0154330
686.038	0.0156636
686.116	0.0157230
686.194	0.0157373
686.273	0.0159608
686.351	0.0160390
686.429	0.0161654
686.507	0.0162148
686.585	0.0161776
686.663	0.0162166
686.741	0.0161681
686.819	0.0160879
686.898	0.0159816
686.976	0.0159888
687.054	0.0159348
687.132	0.0157368
687.210	0.0154937
687.288	0.0154794
687.366	0.0153442
687.444	0.0154466
687.523	0.0151147
687.601	0.0151487
687.679	0.0150536
687.757	0.0151086
687.835	0.0148596
687.913	0.0147387
687.991	0.0147409
688.069	0.0148112
688.148	0.0147971
688.226	0.0147846
688.304	0.0147015
688.382	0.0146781
688.460	0.0147534
688.538	0.0148173
688.616	0.0148547
688.694	0.0149591
688.773	0.0150521
688.851	0.0150665
688.929	0.0151322
689.007	0.0153338
689.085	0.0153564
689.163	0.0154694
689.241	0.0154948
689.319	0.0154762
689.398	0.0155159
689.476	0.0156355
689.554	0.0156436
689.632	0.0155875
689.710	0.0154531
689.788	0.0155028
689.866	0.0156223
689.944	0.0156125
690.023	0.0155289
690.101	0.0155135
690.179	0.0154797
690.257	0.0152177
690.335	0.0151315
690.413	0.0151211
690.491	0.0149727
690.569	0.0149246
690.648	0.0149716
690.726	0.0148300
690.804	0.0147600
690.882	0.0146309
690.960	0.0144511
691.038	0.0144276
691.116	0.0143770
691.194	0.0144208
691.273	0.0143272
691.351	0.0143661
691.429	0.0143266
691.507	0.0140987
691.585	0.0141120
691.663	0.0141937
691.741	0.0140669
691.819	0.0140748
691.898	0.0141245
691.976	0.0140831
692.054	0.0141907
692.132	0.0141387
692.210	0.0140945
692.288	0.0143366
692.366	0.0143304
692.444	0.0144905
692.523	0.0146360
692.601	0.0148366
692.679	0.0149020
692.757	0.0151405
692.835	0.0152996
692.913	0.0153339
692.991	0.0153745
693.069	0.0156319
693.148	0.0157763
693.226	0.0158487
693.304	0.0158738
693.382	0.0160997
693.460	0.0160919
693.538	0.0160001
693.616	0.0162890
693.694	0.0160829
693.773	0.0162579
693.851	0.0162000
693.929	0.0160536
694.007	0.0160040
694.085	0.0159100
694.163	0.0159460
694.241	0.0158430
694.319	0.0157702
694.398	0.0156639
694.476	0.0155512
694.554	0.0151796
694.632	0.0151490
694.710	0.0150237
694.788	0.0149163
694.866	0.0147520
694.944	0.0145877
695.023	0.0144888
695.101	0.0144662
695.179	0.0142144
695.257	0.0142154
695.335	0.0141801
695.413	0.0140827
695.491	0.0141711
695.569	0.0142101
695.648	0.0141628
695.726	0.0141730
695.804	0.0142014
695.882	0.0142055
695.960	0.0144640
696.038	0.0144082
696.116	0.0145490
696.194	0.0147309
696.273	0.0148795
696.351	0.0150506
696.429	0.0150080
696.507	0.0152575
696.585	0.0154865
696.663	0.0156541
696.741	0.0156879
696.819	0.0157680
696.898	0.0159357
696.976	0.0161117
697.054	0.0160181
697.132	0.0161783
697.210	0.0161629
697.288	0.0162351
697.366	0.0161968
697.444	0.0161761
697.523	0.0161368
697.601	0.0161018
697.679	0.0158821
697.757	0.0157628
697.835	0.0156364
697.913	0.0155653
697.991	0.0152209
698.069	0.0152161
698.148	0.0149289
698.226	0.0149157
698.304	0.0145987
698.382	0.0144851
698.460	0.0145523
698.538	0.0142146
698.616	0.0140108
698.694	0.0138092
698.773	0.0136500
698.851	0.0137357
698.929	0.0136555
699.007	0.0134845
699.085	0.0134758
699.163	0.0134772
699.241	0.0137562
699.319	0.0137174
699.398	0.0138993
699.476	0.0139297
699.554	0.0141351
699.632	0.0143106
699.710	0.0145386
699.788	0.0147086
699.866	0.0148196
699.944	0.0150008
700.023	0.0151843
700.101	0.0152208
700.179	0.0155952
700.257	0.0156626
700.335	0.0156722
700.413	0.0158929
700.491	0.0159864
700.569	0.0160673
700.648	0.0161247
700.726	0.0162283
700.804	0.0163513
700.882	0.0162656
700.960	0.0163988
701.038	0.0163732
701.116	0.0165194
701.194	0.0163380
701.273	0.0164253
701.351	0.0164583
701.429	0.0165386
701.507	0.0163466
701.585	0.0163334
701.663	0.0161758
701.741	0.0159812
701.819	0.0159843
701.898	0.0158602
701.976	0.0157559
702.054	0.0154649
702.132	0.0154846
702.210	0.0153384
702.288	0.0151550
702.366	0.0150717
702.444	0.0149490
702.523	0.0147564
702.601	0.0146806
702.679	0.0146895
702.757	0.0145085
702.835	0.0145096
702.913	0.0145055
702.991	0.0144693
703.069	0.0145100
703.148	0.0144111
703.226	0.0145254
703.304	0.0144397
703.382	0.0144963
703.460	0.0146389
703.538	0.0145155
703.616	0.0145559
703.694	0.0144535
703.773	0.0142991
703.851	0.0145403
703.929	0.0144198
704.007	0.0144296
704.085	0.0144274
704.163	0.0142822
704.241	0.0142327
704.319	0.0141116
704.398	0.0141985
704.476	0.0140875
704.554	0.0140318
704.632	0.0141479
704.710	0.0140873
704.788	0.0141148
704.866	0.0141673
704.944	0.0142487
705.023	0.0143139
705.101	0.0142493
705.179	0.0144096
705.257	0.0145474
705.335	0.0146134
705.413	0.0147656
705.491	0.0148593
705.569	0.0150247
705.648	0.0151266
705.726	0.0153117
705.804	0.0154734
705.882	0.0156018
705.960	0.0157357
706.038	0.0158347
706.116	0.0160536
706.194	0.0161201
706.273	0.0162381
706.351	0.0162653
706.429	0.0162540
706.507	0.0162318
706.585	0.0163590
706.663	0.0165176
706.741	0.0163966
706.819	0.0164635
706.898	0.0164793
706.976	0.0163931
707.054	0.0162489
707.132	0.0162836
707.210	0.0161924
707.288	0.0160844
707.366	0.0159986
707.444	0.0158562
707.523	0.0158918
707.601	0.0157754
707.679	0.0156688
707.757	0.0155342
707.835	0.0153819
707.913	0.0153926
707.991	0.0153253
708.069	0.0153827
708.148	0.0150868
708.226	0.0151996
708.304	0.0150426
708.382	0.0150680
708.460	0.0147446
708.538	0.0147719
708.616	0.0148183
708.694	0.0147500
708.773	0.0148116
708.851	0.0146451
708.929	0.0146060
709.007	0.0144720
709.085	0.0144950
709.163	0.0143721
709.241	0.0141815
709.319	0.0141956
709.398	0.0141388
709.476	0.0139572
709.554	0.0139669
709.632	0.0139899
709.710	0.0139586
709.788	0.0137733
709.866	0.0138090
709.944	0.0138624
710.023	0.0137901
710.101	0.0137649
710.179	0.0140259
710.257	0.0139342
710.335	0.0139204
710.413	0.0141281
710.491	0.0140243
710.569	0.0142644
710.648	0.0141528
710.726	0.0144000
710.804	0.0146741
710.882	0.0147539
710.960	0.0148551
711.038	0.0148887
711.116	0.0151235
711.194	0.0153750
711.273	0.0153261
711.351	0.0154401
711.429	0.0155618
711.507	0.0156487
711.585	0.0156902
711.663	0.0158045
711.741	0.0158242
711.819	0.0159252
711.898	0.0159034
711.976	0.0160069
712.054	0.0158403
712.132	0.0156744
712.210	0.0161185
712.288	0.0158962
712.366	0.0157377
712.444	0.0158134
712.523	0.0157129
712.601	0.0157146
712.679	0.0155659
712.757	0.0156404
712.835	0.0157848
712.913	0.0156039
712.991	0.0156443
713.069	0.0154340
713.148	0.0155666
713.226	0.0155677
713.304	0.0154868
713.382	0.0154401
713.460	0.0154407
713.538	0.0155330
713.616	0.0153829
713.694	0.0152684
713.773	0.0155027
713.851	0.0153121
713.929	0.0152106
714.007	0.0151051
714.085	0.0151420
714.163	0.0151453
714.241	0.0149438
714.319	0.0150956
714.398	0.0150322
714.476	0.0149874
714.554	0.0149403
714.632	0.0148283
714.710	0.0148180
714.788	0.0147822
714.866	0.0147245
714.944	0.0145394
715.023	0.0144432
715.101	0.0144794
715.179	0.0144605
715.257	0.0144209
715.335	0.0143157
715.413	0.0143327
715.491	0.0142790
715.569	0.0143938
715.648	0.0142108
715.726	0.0142805
715.804	0.0143623
715.882	0.0143626
715.960	0.0143200
716.038	0.0143399
716.116	0.0142285
716.194	0.0144795
716.273	0.0143814
716.351	0.0143475
716.429	0.0144375
716.507	0.0145200
716.585	0.0144624
716.663	0.0146380
716.741	0.0148402
716.819	0.0147856
716.898	0.0148155
716.976	0.0146868
717.054	0.0150320
717.132	0.0150706
717.210	0.0150574
717.288	0.0150928
717.366	0.0151166
717.444	0.0152702
717.523	0.0152392
717.601	0.0152201
717.679	0.0153051
717.757	0.0155083
717.835	0.0155151
717.913	0.0155023
717.991	0.0154337
718.069	0.0155920
718.148	0.0156490
718.226	0.0156728
718.304	0.0156388
718.382	0.0156567
718.460	0.0157196
718.538	0.0156365
718.616	0.0157159
718.694	0.0158318
718.773	0.0159049
718.851	0.0159298
718.929	0.0158183
719.007	0.0158654
719.085	0.0158881
719.163	0.0157462
719.241	0.0158843
719.319	0.0156455
719.398	0.0157741
719.476	0.0157650
719.554	0.0158222
719.632	0.0156676
719.710	0.0156282
719.788	0.0154932
719.866	0.0154970
719.944	0.0155389
720.023	0.0153638
720.101	0.0153486
720.179	0.0153850
720.257	0.0154977
720.335	0.0152756
720.413	0.0151666
720.491	0.0150925
720.569	0.0151894
720.648	0.0149571
720.726	0.0148569
720.804	0.0146954
720.882	0.0147257
720.960	0.0146794
721.038	0.0145780
721.116	0.0145187
721.194	0.0144707
721.273	0.0143233
721.351	0.0144198
721.429	0.0143179
721.507	0.0141537
721.585	0.0141448
721.663	0.0142625
721.741	0.0140753
721.819	0.0142439
721.898	0.0142233
721.976	0.0140733
722.054	0.0142081
722.132	0.0141691
722.210	0.0143034
722.288	0.0142123
722.366	0.0142355
722.444	0.0143199
722.523	0.0143979
722.601	0.0143052
722.679	0.0143108
722.757	0.0144727
722.835	0.0143963
722.913	0.0145012
722.991	0.0146929
723.069	0.0146872
723.148	0.0146780
723.226	0.0147693
723.304	0.0149782
723.382	0.0148383
723.460	0.0149286
723.538	0.0150240
723.616	0.0151822
723.694	0.0152201
723.773	0.0152946
723.851	0.0151788
723.929	0.0154039
724.007	0.0156004
724.085	0.0156319
724.163	0.0156206
724.241	0.0155768
724.319	0.0155260
724.398	0.0158363
724.476	0.0156855
724.554	0.0158543
724.632	0.0158163
724.710	0.0156071
724.788	0.0156171
724.866	0.0157645
724.944	0.0157806
725.023	0.0156825
725.101	0.0155837
725.179	0.0154807
725.257	0.0154554
725.335	0.0152769
725.413	0.0154443
725.491	0.0154215
725.569	0.0153254
725.648	0.0153316
725.726	0.0155026
725.804	0.0152806
725.882	0.0150771
725.960	0.0150636
726.038	0.0152281
726.116	0.0152106
726.194	0.0151877
726.273	0.0151773
726.351	0.0151389
726.429	0.0151821
726.507	0.0152000
726.585	0.0149316
726.663	0.0149479
726.741	0.0148896
726.819	0.0148013
726.898	0.0147344
726.976	0.0146748
727.054	0.0148327
727.132	0.0146035
727.210	0.0146514
727.288	0.0144714
727.366	0.0144308
727.444	0.0145618
727.523	0.0144147
727.601	0.0142990
727.679	0.0143277
727.757	0.0143294
727.835	0.0141882
727.913	0.0141897
727.991	0.0142888
728.069	0.0143675
728.148	0.0143146
728.226	0.0142509
728.304	0.0145224
728.382	0.0144953
728.460	0.0143999
728.538	0.0144035
728.616	0.0143800
728.694	0.0146172
728.773	0.0146333
728.851	0.0145834
728.929	0.0146796
729.007	0.0147778
729.085	0.0149541
729.163	0.0148762
729.241	0.0149492
729.319	0.0150754
729.398	0.0152616
729.476	0.0152020
729.554	0.0153946
729.632	0.0154778
729.710	0.0153591
729.788	0.0152667
729.866	0.0154995
729.944	0.0156437
730.023	0.0156441
730.101	0.0154465
730.179	0.0157404
730.257	0.0155918
730.335	0.0156412
730.413	0.0157159
730.491	0.0156149
730.569	0.0156120
730.648	0.0157071
730.726	0.0156317
730.804	0.0156366
730.882	0.0154777
730.960	0.0156145
731.038	0.0154197
731.116	0.0153415
731.194	0.0152321
731.273	0.0151782
731.351	0.0151005
731.429	0.0151390
731.507	0.0149647
731.585	0.0149043
731.663	0.0148012
731.741	0.0146326
731.819	0.0146973
731.898	0.0146334
731.976	0.0145641
732.054	0.0146515
732.132	0.0144638
732.210	0.0144917
732.288	0.0144891
732.366	0.0145527
732.444	0.0143073
732.523	0.0143750
732.601	0.0143407
732.679	0.0144407
732.757	0.0145051
732.835	0.0143909
732.913	0.0143188
732.991	0.0144482
733.069	0.0146785
733.148	0.0147144
733.226	0.0147314
733.304	0.0148301
733.382	0.0148717
733.460	0.0148389
733.538	0.0150317
733.616	0.0150086
733.694	0.0151599
733.773	0.0151470
733.851	0.0151650
733.929	0.0151342
734.007	0.0151801
734.085	0.0153465
734.163	0.0151600
734.241	0.0152503
734.319	0.0153270
734.398	0.0152165
734.476	0.0152546
734.554	0.0150333
734.632	0.0152003
734.710	0.0152731
734.788	0.0151386
734.866	0.0151577
734.944	0.0149718
735.023	0.0151252
735.101	0.0151935
735.179	0.0150195
735.257	0.0150119
735.335	0.0150070
735.413	0.0149064
735.491	0.0149892
735.569	0.0148940
735.648	0.0150410
735.726	0.0149711
735.804	0.0149990
735.882	0.0149121
735.960	0.0151392
736.038	0.0149064
736.116	0.0149197
736.194	0.0151720
736.273	0.0150625
736.351	0.0151199
736.429	0.0150771
736.507	0.0151561
736.585	0.0151320
736.663	0.0151267
736.741	0.0150267
736.819	0.0150184
736.898	0.0150422
736.976	0.0150128
737.054	0.0150283
737.132	0.0150076
737.210	0.0148920
737.288	0.0149590
737.366	0.0150022
737.444	0.0149862
737.523	0.0149312
737.601	0.0149017
737.679	0.0147733
737.757	0.0149252
737.835	0.0149173
737.913	0.0148326
737.991	0.0148598
738.069	0.0149234
738.148	0.0147713
738.226	0.0149437
738.304	0.0149595
738.382	0.0148688
738.460	0.0148972
738.538	0.0148110
738.616	0.0149133
738.694	0.0149990
738.773	0.0148939
738.851	0.0149670
738.929	0.0150513
739.007	0.0149541
739.085	0.0150269
739.163	0.0151775
739.241	0.0150991
739.319	0.0152154
739.398	0.0152850
739.476	0.0152808
739.554	0.0152477
739.632	0.0155018
739.710	0.0153326
739.788	0.0153344
739.866	0.0153763
739.944	0.0152830
740.023	0.0153874
740.101	0.0153672
740.179	0.0153104
740.257	0.0153426
740.335	0.0152747
740.413	0.0153252
740.491	0.0154514
740.569	0.0152368
740.648	0.0152081
740.726	0.0150352
740.804	0.0149625
740.882	0.0149967
740.960	0.0150652
741.038	0.0150237
741.116	0.0148177
741.194	0.0147303
741.273	0.0147466
741.351	0.0148415
741.429	0.0146857
741.507	0.0146767
741.585	0.0146087
741.663	0.0145269
741.741	0.0145191
741.819	0.0145377
741.898	0.0145188
741.976	0.0145370
742.054	0.0145277
742.132	0.0144263
742.210	0.0144957
742.288	0.0145083
742.366	0.0144217
742.444	0.0144824
742.523	0.0146360
742.601	0.0146216
742.679	0.0145195
742.757	0.0146699
742.835	0.0146424
742.913	0.0145953
742.991	0.0147405
743.069	0.0146363
743.148	0.0146185
743.226	0.0146899
743.304	0.0147102
743.382	0.0147752
743.460	0.0148659
743.538	0.0148655
743.616	0.0150292
743.694	0.0150801
743.773	0.0151259
743.851	0.0152141
743.929	0.0152151
744.007	0.0151981
744.085	0.0152652
744.163	0.0152589
744.241	0.0153186
744.319	0.0155029
744.398	0.0154192
744.476	0.0154486
744.554	0.0154753
744.632	0.0155667
744.710	0.0155244
744.788	0.0154423
744.866	0.0153575
744.944	0.0153554
745.023	0.0152497
745.101	0.0154309
745.179	0.0152573
745.257	0.0151453
745.335	0.0152336
745.413	0.0153625
745.491	0.0152261
745.569	0.0151513
745.648	0.0152439
745.726	0.0152479
745.804	0.0151810
745.882	0.0152799
745.960	0.0149352
746.038	0.0150909
746.116	0.0151421
746.194	0.0150174
746.273	0.0151949
746.351	0.0150357
746.429	0.0151150
746.507	0.0150915
746.585	0.0151636
746.663	0.0149730
746.741	0.0148937
746.819	0.0150109
746.898	0.0148673
746.976	0.0148469
747.054	0.0148157
747.132	0.0148046
747.210	0.0147392
747.288	0.0146457
747.366	0.0146439
747.444	0.0146218
747.523	0.0145830
747.601	0.0145705
747.679	0.0146802
747.757	0.0144540
747.835	0.0145470
747.913	0.0145095
747.991	0.0143894
748.069	0.0143678
748.148	0.0144392
748.226	0.0145470
748.304	0.0143565
748.382	0.0144955
748.460	0.0146738
748.538	0.0149258
748.616	0.0147610
748.694	0.0146963
748.773	0.0147521
748.851	0.0149072
748.929	0.0148885
749.007	0.0149113
749.085	0.0148210
749.163	0.0148421
749.241	0.0148948
749.319	0.0148221
749.398	0.0149117
749.476	0.0149017
749.554	0.0150097
749.632	0.0149451
749.710	0.0150571
749.788	0.0149635
749.866	0.0150179
749.944	0.0150198
750.023	0.0149334
750.101	0.0150301
750.179	0.0149718
750.257	0.0149947
750.335	0.0150888
750.413	0.0151685
750.491	0.0151003
750.569	0.0152995
750.648	0.0153036
750.726	0.0152631
750.804	0.0153943
750.882	0.0154733
750.960	0.0155801
751.038	0.0155039
751.116	0.0155054
751.194	0.0155460
751.273	0.0155011
751.351	0.0156628
751.429	0.0158150
751.507	0.0157243
751.585	0.0155637
751.663	0.0155595
751.741	0.0155132
751.819	0.0156463
751.898	0.0156142
751.976	0.0155484
752.054	0.0154107
752.132	0.0153314
752.210	0.0152133
752.288	0.0152335
752.366	0.0151100
752.444	0.0150742
752.523	0.0151560
752.601	0.0149731
752.679	0.0149515
752.757	0.0148965
752.835	0.0149542
752.913	0.0148143
752.991	0.0146790
753.069	0.0149541
753.148	0.0149274
753.226	0.0148539
753.304	0.0148740
753.382	0.0149688
753.460	0.0148909
753.538	0.0148330
753.616	0.0150267
753.694	0.0150432
753.773	0.0150453
753.851	0.0149842
753.929	0.0151392
754.007	0.0151907
754.085	0.0151440
754.163	0.0150886
754.241	0.0151006
754.319	0.0150842
754.398	0.0150228
754.476	0.0150858
754.554	0.0151171
754.632	0.0150299
754.710	0.0150269
754.788	0.0149653
754.866	0.0148789
754.944	0.0147105
755.023	0.0145072
755.101	0.0146868
755.179	0.0146396
755.257	0.0146576
755.335	0.0145956
755.413	0.0146409
755.491	0.0144585
755.569	0.0145281
755.648	0.0145158
755.726	0.0146046
755.804	0.0145503
755.882	0.0146112
755.960	0.0144788
756.038	0.0145765
756.116	0.0145278
756.194	0.0147079
756.273	0.0146977
756.351	0.0147092
756.429	0.0148782
756.507	0.0148258
756.585	0.0148875
756.663	0.0149234
756.741	0.0150627
756.819	0.0151125
756.898	0.0150840
756.976	0.0151037
757.054	0.0151411
757.132	0.0152256
757.210	0.0152153
757.288	0.0152966
757.366	0.0152348
757.444	0.0151026
757.523	0.0153333
757.601	0.0152518
757.679	0.0151911
757.757	0.0152819
757.835	0.0149948
757.913	0.0150462
757.991	0.0151385
758.069	0.0149653
758.148	0.0149091
758.226	0.0149586
758.304	0.0147247
758.382	0.0148412
758.460	0.0148991
758.538	0.0149035
758.616	0.0147672
758.694	0.0148753
758.773	0.0147091
758.851	0.0147230
758.929	0.0148297
759.007	0.0146993
759.085	0.0147726
759.163	0.0148498
759.241	0.0148558
759.319	0.0148489
759.398	0.0149043
759.476	0.0148322
759.554	0.0147185
759.632	0.0148141
759.710	0.0147134
759.788	0.0147141
759.866	0.0148018
759.944	0.0148232
760.023	0.0146579
760.101	0.0147456
760.179	0.0148109
760.257	0.0146822
760.335	0.0147510
760.413	0.0147474
760.491	0.0145755
760.569	0.0147223
760.648	0.0147832
760.726	0.0148052
760.804	0.0148256
760.882	0.0148321
760.960	0.0150282
761.038	0.0148370
761.116	0.0148074
761.194	0.0149258
761.273	0.0149226
761.351	0.0149258
761.429	0.0149994
761.507	0.0149960
761.585	0.0150378
761.663	0.0150690
761.741	0.0151022
761.819	0.0151158
761.898	0.0151270
761.976	0.0152068
762.054	0.0150929
762.132	0.0150863
762.210	0.0150199
762.288	0.0151299
762.366	0.0151687
762.444	0.0149818
762.523	0.0150935
762.601	0.0150571
762.679	0.0148286
762.757	0.0150735
762.835	0.0149335
762.913	0.0149286
762.991	0.0151012
763.069	0.0151040
763.148	0.0148412
763.226	0.0149583
763.304	0.0150115
763.382	0.0149498
763.460	0.0149175
763.538	0.0149715
763.616	0.0148580
763.694	0.0148542
763.773	0.0149545
763.851	0.0148379
763.929	0.0148090
764.007	0.0148727
764.085	0.0148904
764.163	0.0148502
764.241	0.0147613
764.319	0.0147997
764.398	0.0148930
764.476	0.0149598
764.554	0.0151066
764.632	0.0149654
764.710	0.0151248
764.788	0.0151347
764.866	0.0150499
764.944	0.0151481
765.023	0.0152983
765.101	0.0154541
765.179	0.0152375
765.257	0.0154142
765.335	0.0153731
765.413	0.0154731
765.491	0.0154864
765.569	0.0154089
765.648	0.0154483
765.726	0.0153704
765.804	0.0154037
765.882	0.0152709
765.960	0.0152182
766.038	0.0153083
766.116	0.0153172
766.194	0.0152187
766.273	0.0151000
766.351	0.0151823
766.429	0.0151070
766.507	0.0150875
766.585	0.0149899
766.663	0.0149206
766.741	0.0148750
766.819	0.0148554
766.898	0.0148425
766.976	0.0148074
767.054	0.0147213
767.132	0.0146800
767.210	0.0147235
767.288	0.0147522
767.366	0.0146518
767.444	0.0145909
767.523	0.0145936
767.601	0.0146599
767.679	0.0146253
767.757	0.0145407
767.835	0.0146291
767.913	0.0146629
767.991	0.0146508
768.069	0.0146996
768.148	0.0147397
768.226	0.0147012
768.304	0.0148168
768.382	0.0147272
768.460	0.0148575
768.538	0.0148245
768.616	0.0149972
768.694	0.0150053
768.773	0.0149435
768.851	0.0150314
768.929	0.0151106
769.007	0.0152370
769.085	0.0152496
769.163	0.0152413
769.241	0.0152542
769.319	0.0152026
769.398	0.0152509
769.476	0.0153032
769.554	0.0152727
769.632	0.0152664
769.710	0.0151893
769.788	0.0152118
769.866	0.0151745
769.944	0.0150822
770.023	0.0151831
770.101	0.0151986
770.179	0.0151572
770.257	0.0151785
770.335	0.0149204
770.413	0.0148965
770.491	0.0149464
770.569	0.0147935
770.648	0.0147517
770.726	0.0147815
770.804	0.0147430
770.882	0.0146975
770.960	0.0147010
771.038	0.0147708
771.116	0.0147363
771.194	0.0147737
771.273	0.0146855
771.351	0.0147986
771.429	0.0147670
771.507	0.0147417
771.585	0.0147514
771.663	0.0148116
771.741	0.0148545
771.819	0.0149090
771.898	0.0149890
771.976	0.0149558
772.054	0.0148901
772.132	0.0148960
772.210	0.0150361
772.288	0.0150529
772.366	0.0148584
772.444	0.0150458
772.523	0.0149417
772.601	0.0151260
772.679	0.0150056
772.757	0.0151572
772.835	0.0149532
772.913	0.0149796
772.991	0.0151730
773.069	0.0150668
773.148	0.0150673
773.226	0.0151171
773.304	0.0150462
773.382	0.0151250
773.460	0.0150150
773.538	0.0149683
773.616	0.0150562
773.694	0.0151403
773.773	0.0151685
773.851	0.0151631
773.929	0.0151218
774.007	0.0151894
774.085	0.0151781
774.163	0.0151105
774.241	0.0151727
774.319	0.0151989
774.398	0.0152531
774.476	0.0151796
774.554	0.0152909
774.632	0.0152654
774.710	0.0152356
774.788	0.0152055
774.866	0.0151535
774.944	0.0152328
775.023	0.0153257
775.101	0.0152298
775.179	0.0151969
775.257	0.0153059
775.335	0.0152830
775.413	0.0150387
775.491	0.0152412
775.569	0.0152274
775.648	0.0151866
775.726	0.0150292
775.804	0.0150929
775.882	0.0151147
775.960	0.0150262
776.038	0.0149010
776.116	0.0149777
776.194	0.0149772
776.273	0.0150201
776.351	0.0146864
776.429	0.0147588
776.507	0.0147881
776.585	0.0146532
776.663	0.0147241
776.741	0.0147596
776.819	0.0146824
776.898	0.0147025
776.976	0.0147932
777.054	0.0146789
777.132	0.0146709
777.210	0.0146452
777.288	0.0148093
777.366	0.0147449
777.444	0.0147594
777.523	0.0147843
777.601	0.0148798
777.679	0.0148144
777.757	0.0148954
777.835	0.0148396
777.913	0.0149248
777.991	0.0150694
778.069	0.0150115
778.148	0.0150759
778.226	0.0153054
778.304	0.0153242
778.382	0.0152263
778.460	0.0154659
778.538	0.0154693
778.616	0.0156010
778.694	0.0155733
778.773	0.0155421
778.851	0.0157065
778.929	0.0155757
779.007	0.0156520
779.085	0.0157939
779.163	0.0157484
779.241	0.0157751
779.319	0.0156603
779.398	0.0154971
779.476	0.0156403
779.554	0.0154842
779.632	0.0154510
779.710	0.0155734
779.788	0.0153320
779.866	0.0152921
779.944	0.0152213
780.023	0.0150194
780.101	0.0149551
780.179	0.0150368
780.257	0.0149201
780.335	0.0148460
780.413	0.0149627
780.491	0.0148001
780.569	0.0146636
780.648	0.0146090
780.726	0.0145817
780.804	0.0148344
780.882	0.0146292
780.960	0.0144457
781.038	0.0146202
781.116	0.0147910
781.194	0.0145808
781.273	0.0146457
781.351	0.0146505
781.429	0.0146470
781.507	0.0146280
781.585	0.0146239
781.663	0.0144395
781.741	0.0146407
781.819	0.0147002
781.898	0.0146103
781.976	0.0146297
782.054	0.0146908
782.132	0.0147056
782.210	0.0147005
782.288	0.0147393
782.366	0.0148343
782.444	0.0149350
782.523	0.0147837
782.601	0.0149045
782.679	0.0147797
782.757	0.0148428
782.835	0.0148596
782.913	0.0147875
782.991	0.0149193
783.069	0.0148219
783.148	0.0151006
783.226	0.0149062
783.304	0.0151749
783.382	0.0151317
783.460	0.0149506
783.538	0.0150487
783.616	0.0150458
783.694	0.0149707
783.773	0.0151418
783.851	0.0150879
783.929	0.0151454
784.007	0.0151823
784.085	0.0151092
784.163	0.0152151
784.241	0.0150748
784.319	0.0150506
784.398	0.0150278
784.476	0.0152351
784.554	0.0152013
784.632	0.0150432
784.710	0.0149677
784.788	0.0150832
784.866	0.0151788
784.944	0.0150817
785.023	0.0151163
785.101	0.0150644
785.179	0.0151423
785.257	0.0151524
785.335	0.0150719
785.413	0.0149419
785.491	0.0149062
785.569	0.0150536
785.648	0.0150706
785.726	0.0151273
785.804	0.0151406
785.882	0.0151735
785.960	0.0151596
786.038	0.0150784
786.116	0.0152520
786.194	0.0152459
786.273	0.0152292
786.351	0.0152065
786.429	0.0151633
786.507	0.0152117
786.585	0.0151557
786.663	0.0152114
786.741	0.0152279
786.819	0.0150671
786.898	0.0151050
786.976	0.0150985
787.054	0.0151091
787.132	0.0151580
787.210	0.0149246
787.288	0.0150153
787.366	0.0151005
787.444	0.0148598
787.523	0.0149606
787.601	0.0149269
787.679	0.0147327
787.757	0.0147370
787.835	0.0146054
787.913	0.0146141
787.991	0.0147233
788.069	0.0146407
788.148	0.0146053
788.226	0.0146235
788.304	0.0145368
788.382	0.0144723
788.460	0.0144923
788.538	0.0145982
788.616	0.0145286
788.694	0.0145175
788.773	0.0146165
788.851	0.0145966
788.929	0.0145642
789.007	0.0145699
789.085	0.0145620
789.163	0.0146574
789.241	0.0147838
789.319	0.0146873
789.398	0.0149239
789.476	0.0148173
789.554	0.0149062
789.632	0.0149618
789.710	0.0149995
789.788	0.0150186
789.866	0.0149794
789.944	0.0150431
790.023	0.0151709
790.101	0.0151976
790.179	0.0151099
790.257	0.0151866
790.335	0.0152722
790.413	0.0151710
790.491	0.0152275
790.569	0.0152193
790.648	0.0151860
790.726	0.0152161
790.804	0.0151616
790.882	0.0152190
790.960	0.0150161
791.038	0.0150619
791.116	0.0150162
791.194	0.0149549
791.273	0.0149708
791.351	0.0149978
791.429	0.0150474
791.507	0.0149472
791.585	0.0149065
791.663	0.0149242
791.741	0.0147435
791.819	0.0147950
791.898	0.0149456
791.976	0.0149849
792.054	0.0148354
792.132	0.0147664
792.210	0.0148219
792.288	0.0148823
792.366	0.0148681
792.444	0.0148631
792.523	0.0148882
792.601	0.0149570
792.679	0.0150018
792.757	0.0149284
792.835	0.0150006
792.913	0.0150758
792.991	0.0150588
793.069	0.0148825
793.148	0.0150478
793.226	0.0150238
793.304	0.0148934
793.382	0.0150082
793.460	0.0150233
793.538	0.0152353
793.616	0.0150645
793.694	0.0151498
793.773	0.0152942
793.851	0.0153039
793.929	0.0152737
794.007	0.0152519
794.085	0.0151060
794.163	0.0151580
794.241	0.0152342
794.319	0.0152224
794.398	0.0150929
794.476	0.0150658
794.554	0.0151434
794.632	0.0150787
794.710	0.0151749
794.788	0.0150868
794.866	0.0151122
794.944	0.0150940
795.023	0.0150885
795.101	0.0150944
795.179	0.0151088
795.257	0.0148828
795.335	0.0148211
795.413	0.0150051
795.491	0.0150149
795.569	0.0149263
795.648	0.0149662
795.726	0.0148293
795.804	0.0147658
795.882	0.0148386
795.960	0.0148312
796.038	0.0150153
796.116	0.0148859
796.194	0.0149052
796.273	0.0148122
796.351	0.0148930
796.429	0.0149570
796.507	0.0151060
796.585	0.0150479
796.663	0.0150047
796.741	0.0151187
796.819	0.0149396
796.898	0.0149468
796.976	0.0150978
797.054	0.0150979
797.132	0.0151010
797.210	0.0150731
797.288	0.0152283
797.366	0.0152325
797.444	0.0151825
797.523	0.0152328
797.601	0.0152509
797.679	0.0151569
797.757	0.0152274
797.835	0.0153390
797.913	0.0151737
797.991	0.0151371
798.069	0.0151707
798.148	0.0151127
798.226	0.0151198
798.304	0.0150356
798.382	0.0150452
798.460	0.0150340
798.538	0.0151349
798.616	0.0152089
798.694	0.0149462
798.773	0.0148164
798.851	0.0148581
798.929	0.0150072
799.007	0.0149126
799.085	0.0149178
799.163	0.0148917
799.241	0.0147761
799.319	0.0148494
799.398	0.0148295
799.476	0.0149376
799.554	0.0149502
799.632	0.0148557
799.710	0.0148947
799.788	0.0148416
799.866	0.0150625
799.944	0.0149400
800.023	0.0148734
800.101	0.0148189
800.179	0.0148808
800.257	0.0146195
800.335	0.0147590
800.413	0.0148269
800.491	0.0149010
800.569	0.0147237
800.648	0.0149944
800.726	0.0148127
800.804	0.0147161
800.882	0.0148383
800.960	0.0149438
801.038	0.0149247
801.116	0.0148643
801.194	0.0148510
801.273	0.0149190
801.351	0.0149184
801.429	0.0150349
801.507	0.0149867
801.585	0.0149692
801.663	0.0151057
801.741	0.0150957
801.819	0.0150842
801.898	0.0151230
801.976	0.0150343
802.054	0.0151884
802.132	0.0151600
802.210	0.0151711
802.288	0.0151861
802.366	0.0152161
802.444	0.0152686
802.523	0.0152860
802.601	0.0152127
802.679	0.0151712
802.757	0.0152071
802.835	0.0152555
802.913	0.0152412
802.991	0.0152384
803.069	0.0151053
803.148	0.0151338
803.226	0.0152218
803.304	0.0152113
803.382	0.0152242
803.460	0.0152221
803.538	0.0152616
803.616	0.0151797
803.694	0.0151595
803.773	0.0151860
803.851	0.0151582
803.929	0.0150871
804.007	0.0150526
804.085	0.0151669
804.163	0.0151304
804.241	0.0150602
804.319	0.0150942
804.398	0.0150774
804.476	0.0149689
804.554	0.0150525
804.632	0.0150777
804.710	0.0149453
804.788	0.0149751
804.866	0.0149969
804.944	0.0149356
805.023	0.0149936
805.101	0.0151070
805.179	0.0150438
805.257	0.0149022
805.335	0.0149997
805.413	0.0148798
805.491	0.0148853
805.569	0.0148753
805.648	0.0147653
805.726	0.0147784
805.804	0.0145751
805.882	0.0145733
805.960	0.0147990
806.038	0.0147496
806.116	0.0148076
806.194	0.0148278
806.273	0.0147707
806.351	0.0149837
806.429	0.0150454
806.507	0.0149896
806.585	0.0150829
806.663	0.0150562
806.741	0.0151124
806.819	0.0150603
806.898	0.0150098
806.976	0.0150345
807.054	0.0150696
807.132	0.0150957
807.210	0.0149538
807.288	0.0148618
807.366	0.0149024
807.444	0.0147728
807.523	0.0147437
807.601	0.0147804
807.679	0.0147556
807.757	0.0148514
807.835	0.0149603
807.913	0.0149140
807.991	0.0150135
808.069	0.0149648
808.148	0.0149702
808.226	0.0150645
808.304	0.0151494
808.382	0.0151627
808.460	0.0151000
808.538	0.0152615
808.616	0.0152911
808.694	0.0151205
808.773	0.0150386
808.851	0.0150842
808.929	0.0150697
809.007	0.0150163
809.085	0.0148929
809.163	0.0149508
809.241	0.0149648
809.319	0.0149848
809.398	0.0150399
809.476	0.0151245
809.554	0.0150397
809.632	0.0150905
809.710	0.0151397
809.788	0.0151624
809.866	0.0150390
809.944	0.0150616
810.023	0.0149506
810.101	0.0149907
810.179	0.0151878
810.257	0.0149945
810.335	0.0148293
810.413	0.0149801
810.491	0.0148970
810.569	0.0149593
810.648	0.0149089
810.726	0.0150381
810.804	0.0151342
810.882	0.0151305
810.960	0.0151942
811.038	0.0152272
811.116	0.0153220
811.194	0.0152308
811.273	0.0151900
811.351	0.0152094
811.429	0.0151076
811.507	0.0151308
811.585	0.0147852
811.663	0.0149442
811.741	0.0149860
811.819	0.0147047
811.898	0.0147237
811.976	0.0146939
812.054	0.0146945
812.132	0.0148048
812.210	0.0146230
812.288	0.0145710
812.366	0.0148534
812.444	0.0146939
812.523	0.0145898
812.601	0.0146935
812.679	0.0147818
812.757	0.0145886
812.835	0.0147738
812.913	0.0147058
812.991	0.0148119
813.069	0.0148557
813.148	0.0148215
813.226	0.0147576
813.304	0.0149567
813.382	0.0149583
813.460	0.0149584
813.538	0.0149255
813.616	0.0153006
813.694	0.0151697
813.773	0.0151379
813.851	0.0153305
813.929	0.0153931
814.007	0.0151910
814.085	0.0152658
814.163	0.0153307
814.241	0.0150947
814.319	0.0150016
814.398	0.0151578
814.476	0.0151501
814.554	0.0149721
814.632	0.0148917
814.710	0.0147591
814.788	0.0147697
814.866	0.0147756
814.944	0.0148106
815.023	0.0147144
815.101	0.0148086
815.179	0.0149859
815.257	0.0150030
815.335	0.0151852
815.413	0.0152570
815.491	0.0154462
815.569	0.0154375
815.648	0.0154202
815.726	0.0157943
815.804	0.0156222
815.882	0.0156492
815.960	0.0154071
816.038	0.0153828
816.116	0.0154128
816.194	0.0151096
816.273	0.0151678
816.351	0.0151413
816.429	0.0151553
816.507	0.0149432
816.585	0.0149782
816.663	0.0149904
816.741	0.0148878
816.819	0.0148014
816.898	0.0148237
816.976	0.0147402
817.054	0.0146718
817.132	0.0150131
817.210	0.0149342
817.288	0.0150328
817.366	0.0150542
817.444	0.0151131
817.523	0.0152847
817.601	0.0153080
817.679	0.0152409
817.757	0.0152609
817.835	0.0153397
817.913	0.0151426
817.991	0.0149050
818.069	0.0148961
818.148	0.0147701
818.226	0.0146803
818.304	0.0146146
818.382	0.0144987
818.460	0.0144262
818.538	0.0142882
818.616	0.0142354
818.694	0.0143983
818.773	0.0143854
818.851	0.0144580
818.929	0.0143169
819.007	0.0145615
819.085	0.0145849
819.163	0.0145871
819.241	0.0145900
819.319	0.0147009
819.398	0.0146713
819.476	0.0147735
819.554	0.0149031
819.632	0.0150398
819.710	0.0151285
819.788	0.0153613
819.866	0.0155276
819.944	0.0155343
820.023	0.0155879
820.101	0.0156144
820.179	0.0157362
820.257	0.0158019
820.335	0.0156369
820.413	0.0155544
820.491	0.0156433
820.569	0.0154072
820.648	0.0152899
820.726	0.0151064
820.804	0.0151245
820.882	0.0150613
820.960	0.0148524
821.038	0.0149740
821.116	0.0149092
821.194	0.0148496
821.273	0.0147489
821.351	0.0147185
821.429	0.0145564
821.507	0.0146463
821.585	0.0145940
821.663	0.0146815
821.741	0.0145790
821.819	0.0145668
821.898	0.0146091
821.976	0.0147802
822.054	0.0146873
822.132	0.0148505
822.210	0.0150862
822.288	0.0149890
822.366	0.0152134
822.444	0.0152966
822.523	0.0155116
822.601	0.0155324
822.679	0.0157523
822.757	0.0157685
822.835	0.0158599
822.913	0.0157962
822.991	0.0159558
823.069	0.0157592
823.148	0.0157164
823.226	0.0158625
823.304	0.0156545
823.382	0.0152687
823.460	0.0152624
823.538	0.0151553
823.616	0.0150082
823.694	0.0146832
823.773	0.0145007
823.851	0.0142484
823.929	0.0141641
824.007	0.0139991
824.085	0.0140617
824.163	0.0140813
824.241	0.0138583
824.319	0.0137476
824.398	0.0139882
824.476	0.0141180
824.554	0.0142126
824.632	0.0142705
824.710	0.0145415
824.788	0.0147343
824.866	0.0148989
824.944	0.0150684
825.023	0.0151815
825.101	0.0154881
825.179	0.0156306
825.257	0.0157600
825.335	0.0158128
825.413	0.0158221
825.491	0.0159479
825.569	0.0160970
825.648	0.0159913
825.726	0.0160800
825.804	0.0160660
825.882	0.0159011
825.960	0.0158632
826.038	0.0156369
826.116	0.0154767
826.194	0.0151574
826.273	0.0151637
826.351	0.0149947
826.429	0.0146743
826.507	0.0144498
826.585	0.0142358
826.663	0.0142537
826.741	0.0139818
826.819	0.0138779
826.898	0.0139136
826.976	0.0139427
827.054	0.0140240
827.132	0.0140562
827.210	0.0142112
827.288	0.0144260
827.366	0.0145008
827.444	0.0147129
827.523	0.0149391
827.601	0.0152534
827.679	0.0153604
827.757	0.0155911
827.835	0.0157737
827.913	0.0159985
827.991	0.0160017
828.069	0.0162175
828.148	0.0161446
828.226	0.0161777
828.304	0.0160201
828.382	0.0159517
828.460	0.0159392
828.538	0.0157426
828.616	0.0156312
828.694	0.0154466
828.773	0.0152708
828.851	0.0148141
828.929	0.0147134
829.007	0.0144955
829.085	0.0145493
829.163	0.0143082
829.241	0.0141764
829.319	0.0141869
829.398	0.0139979
829.476	0.0139789
829.554	0.0139341
829.632	0.0140348
829.710	0.0141694
829.788	0.0143549
829.866	0.0144145
829.944	0.0144597
830.023	0.0145435
830.101	0.0147768
830.179	0.0149135
830.257	0.0150847
830.335	0.0150997
830.413	0.0151512
830.491	0.0153422
830.569	0.0154198
830.648	0.0153889
830.726	0.0154035
830.804	0.0155994
830.882	0.0155927
830.960	0.0156308
831.038	0.0156231
831.116	0.0156395
831.194	0.0154810
831.273	0.0155556
831.351	0.0155175
831.429	0.0153273
831.507	0.0153564
831.585	0.0151987
831.663	0.0151405
831.741	0.0149615
831.819	0.0148092
831.898	0.0146937
831.976	0.0146266
832.054	0.0145095
832.132	0.0145263
832.210	0.0145039
832.288	0.0143509
832.366	0.0144878
832.444	0.0144527
832.523	0.0146163
832.601	0.0146171
832.679	0.0146626
832.757	0.0148179
832.835	0.0148887
832.913	0.0148932
832.991	0.0150159
833.069	0.0152370
833.148	0.0153248
833.226	0.0152273
833.304	0.0152282
833.382	0.0153476
833.460	0.0155975
833.538	0.0155494
833.616	0.0155541
833.694	0.0154789
833.773	0.0155441
833.851	0.0156428
833.929	0.0156204
834.007	0.0154583
834.085	0.0154347
834.163	0.0154433
834.241	0.0154543
834.319	0.0153572
834.398	0.0153021
834.476	0.0151270
834.554	0.0150163
834.632	0.0149044
834.710	0.0149675
834.788	0.0148115
834.866	0.0148090
834.944	0.0146288
835.023	0.0145333
835.101	0.0145497
835.179	0.0145966
835.257	0.0144926
835.335	0.0145089
835.413	0.0146233
835.491	0.0146210
835.569	0.0146109
835.648	0.0144958
835.726	0.0147647
835.804	0.0148138
835.882	0.0149715
835.960	0.0150185
836.038	0.0152280
836.116	0.0152322
836.194	0.0154079
836.273	0.0154447
836.351	0.0154168
836.429	0.0156520
836.507	0.0156409
836.585	0.0156512
836.663	0.0157471
836.741	0.0156140
836.819	0.0155973
836.898	0.0155158
836.976	0.0155309
837.054	0.0155975
837.132	0.0154407
837.210	0.0153132
837.288	0.0152460
837.366	0.0150757
837.444	0.0150137
837.523	0.0149861
837.601	0.0150001
837.679	0.0150135
837.757	0.0149966
837.835	0.0148353
837.913	0.0148074
837.991	0.0146359
838.069	0.0146101
838.148	0.0146516
838.226	0.0145331
838.304	0.0145597
838.382	0.0145824
838.460	0.0144039
838.538	0.0144823
838.616	0.0145187
838.694	0.0146080
838.773	0.0145860
838.851	0.0146171
838.929	0.0147616
839.007	0.0148607
839.085	0.0148132
839.163	0.0149033
839.241	0.0150429
839.319	0.0150603
839.398	0.0151142
839.476	0.0151263
839.554	0.0153472
839.632	0.0154372
839.710	0.0153773
839.788	0.0153775
839.866	0.0153883
839.944	0.0154972
840.023	0.0155949
840.101	0.0156177
840.179	0.0155783
840.257	0.0154913
840.335	0.0155885
840.413	0.0156364
840.491	0.0154851
840.569	0.0154041
840.648	0.0155167
840.726	0.0155329
840.804	0.0155027
840.882	0.0152815
840.960	0.0151582
841.038	0.0151131
841.116	0.0151078
841.194	0.0149442
841.273	0.0149172
841.351	0.0148383
841.429	0.0146326
841.507	0.0144213
841.585	0.0144004
841.663	0.0144535
841.741	0.0142028
841.819	0.0142882
841.898	0.0140997
841.976	0.0141589
842.054	0.0141051
842.132	0.0141330
842.210	0.0142889
842.288	0.0143762
842.366	0.0143275
842.444	0.0145218
842.523	0.0146540
842.601	0.0146712
842.679	0.0147333
842.757	0.0149120
842.835	0.0150846
842.913	0.0152338
842.991	0.0152354
843.069	0.0153120
843.148	0.0155315
843.226	0.0156504
843.304	0.0156486
843.382	0.0157349
843.460	0.0158374
843.538	0.0158890
843.616	0.0157875
843.694	0.0158472
843.773	0.0158831
843.851	0.0159431
843.929	0.0158968
844.007	0.0159440
844.085	0.0156624
844.163	0.0156522
844.241	0.0155663
844.319	0.0154436
844.398	0.0152941
844.476	0.0151363
844.554	0.0151994
844.632	0.0149941
844.710	0.0149568
844.788	0.0145540
844.866	0.0145018
844.944	0.0144133
845.023	0.0142199
845.101	0.0142905
845.179	0.0141976
845.257	0.0141959
845.335	0.0140011
845.413	0.0140625
845.491	0.0139555
845.569	0.0139816
845.648	0.0139851
845.726	0.0139303
845.804	0.0139332
845.882	0.0141236
845.960	0.0140830
846.038	0.0140968
846.116	0.0141877
846.194	0.0143694
846.273	0.0144285
846.351	0.0145621
846.429	0.0145978
846.507	0.0148381
846.585	0.0147981
846.663	0.0150517
846.741	0.0151127
846.819	0.0152969
846.898	0.0153819
846.976	0.0155593
847.054	0.0159047
847.132	0.0157955
847.210	0.0157085
847.288	0.0159119
847.366	0.0160540
847.444	0.0158438
847.523	0.0158314
847.601	0.0159573
847.679	0.0158257
847.757	0.0158528
847.835	0.0157001
847.913	0.0155576
847.991	0.0154022
848.069	0.0154020
848.148	0.0152753
848.226	0.0152854
848.304	0.0149483
848.382	0.0149270
848.460	0.0149089
848.538	0.0147861
848.616	0.0148967
848.694	0.0145764
848.773	0.0145729
848.851	0.0146323
848.929	0.0145325
849.007	0.0144005
849.085	0.0143286
849.163	0.0143885
849.241	0.0143177
849.319	0.0142766
849.398	0.0142986
849.476	0.0142632
849.554	0.0144196
849.632	0.0142966
849.710	0.0145313
849.788	0.0144675
849.866	0.0145084
849.944	0.0145285
850.023	0.0146832
850.101	0.0147937
850.179	0.0149487
850.257	0.0149344
850.335	0.0149903
850.413	0.0151623
850.491	0.0151456
850.569	0.0153352
850.648	0.0154491
850.726	0.0154565
850.804	0.0155416
850.882	0.0157327
850.960	0.0156878
851.038	0.0158101
851.116	0.0159117
851.194	0.0157500
851.273	0.0157771
851.351	0.0157772
851.429	0.0158586
851.507	0.0158797
851.585	0.0157752
851.663	0.0157442
851.741	0.0158127
851.819	0.0155242
851.898	0.0154481
851.976	0.0153806
852.054	0.0153225
852.132	0.0151884
852.210	0.0151936
852.288	0.0147866
852.366	0.0147803
852.444	0.0147273
852.523	0.0145268
852.601	0.0143996
852.679	0.0142442
852.757	0.0142645
852.835	0.0141830
852.913	0.0141287
852.991	0.0142030
853.069	0.0141842
853.148	0.0141965
853.226	0.0141923
853.304	0.0142835
853.382	0.0144070
853.460	0.0143469
853.538	0.0143510
853.616	0.0144408
853.694	0.0147191
853.773	0.0147336
853.851	0.0147944
853.929	0.0148387
854.007	0.0149859
854.085	0.0150822
854.163	0.0152340
854.241	0.0154616
854.319	0.0152826
854.398	0.0154865
854.476	0.0153848
854.554	0.0155150
854.632	0.0156025
854.710	0.0155814
854.788	0.0156622
854.866	0.0155672
854.944	0.0154344
855.023	0.0154990
855.101	0.0156355
855.179	0.0155358
855.257	0.0154311
855.335	0.0153835
855.413	0.0153098
855.491	0.0152285
855.569	0.0153658
855.648	0.0154192
855.726	0.0151254
855.804	0.0151987
855.882	0.0151228
855.960	0.0151567
856.038	0.0151328
856.116	0.0149783
856.194	0.0148450
856.273	0.0147821
856.351	0.0148988
856.429	0.0148633
856.507	0.0147675
856.585	0.0147171
856.663	0.0145724
856.741	0.0145089
856.819	0.0145637
856.898	0.0146124
856.976	0.0146731
857.054	0.0145406
857.132	0.0144456
857.210	0.0146388
857.288	0.0143999
857.366	0.0145509
857.444	0.0145265
857.523	0.0146415
857.601	0.0146854
857.679	0.0147272
857.757	0.0149287
857.835	0.0148832
857.913	0.0148521
857.991	0.0148496
858.069	0.0149302
858.148	0.0151621
858.226	0.0150717
858.304	0.0149984
858.382	0.0152000
858.460	0.0152283
858.538	0.0152310
858.616	0.0153226
858.694	0.0153056
858.773	0.0151688
858.851	0.0152630
858.929	0.0152918
859.007	0.0153786
859.085	0.0152317
859.163	0.0152045
859.241	0.0152638
859.319	0.0150117
859.398	0.0151929
859.476	0.0150562
859.554	0.0152483
859.632	0.0150096
859.710	0.0149671
859.788	0.0149195
859.866	0.0150379
859.944	0.0149527
860.023	0.0149586
860.101	0.0149355
860.179	0.0148277
860.257	0.0149802
860.335	0.0148652
860.413	0.0148168
860.491	0.0147649
860.569	0.0148846
860.648	0.0146846
860.726	0.0147332
860.804	0.0148510
860.882	0.0148630
860.960	0.0146777
861.038	0.0145766
861.116	0.0147627
861.194	0.0146165
861.273	0.0146693
861.351	0.0146037
861.429	0.0146571
861.507	0.0147727
861.585	0.0148177
861.663	0.0147011
861.741	0.0148196
861.819	0.0149133
861.898	0.0148522
861.976	0.0148388
862.054	0.0148031
862.132	0.0149146
862.210	0.0149506
862.288	0.0148244
862.366	0.0149837
862.444	0.0149210
862.523	0.0151045
862.601	0.0151197
862.679	0.0152657
862.757	0.0152095
862.835	0.0153284
862.913	0.0152930
862.991	0.0153135
863.069	0.0153999
863.148	0.0155410
863.226	0.0153406
863.304	0.0154045
863.382	0.0154721
863.460	0.0152931
863.538	0.0153242
863.616	0.0153333
863.694	0.0154224
863.773	0.0152277
863.851	0.0151321
863.929	0.0152051
864.007	0.0151400
864.085	0.0149986
864.163	0.0149927
864.241	0.0151907
864.319	0.0150141
864.398	0.0149761
864.476	0.0148220
864.554	0.0148909
864.632	0.0148732
864.710	0.0148759
864.788	0.0148653
864.866	0.0150225
864.944	0.0149190
865.023	0.0149098
865.101	0.0149432
865.179	0.0149095
865.257	0.0149577
865.335	0.0149535
865.413	0.0150025
865.491	0.0149674
865.569	0.0148741
865.648	0.0148891
865.726	0.0148988
865.804	0.0149577
865.882	0.0150069
865.960	0.0149657
866.038	0.0149792
866.116	0.0151047
866.194	0.0149641
866.273	0.0150889
866.351	0.0150687
866.429	0.0151646
866.507	0.0150394
866.585	0.0151591
866.663	0.0151703
866.741	0.0152363
866.819	0.0152199
866.898	0.0151782
866.976	0.0152042
867.054	0.0151639
867.132	0.0150729
867.210	0.0151495
867.288	0.0152151
867.366	0.0152401
867.444	0.0150779
867.523	0.0150153
867.601	0.0150348
867.679	0.0149958
867.757	0.0148971
867.835	0.0150912
867.913	0.0148592
867.991	0.0149067
868.069	0.0149621
868.148	0.0148969
868.226	0.0147182
868.304	0.0149508
868.382	0.0149786
868.460	0.0148554
868.538	0.0149388
868.616	0.0149050
868.694	0.0147824
868.773	0.0150262
868.851	0.0150305
868.929	0.0150848
869.007	0.0150386
869.085	0.0152345
869.163	0.0151157
869.241	0.0150557
869.319	0.0153366
869.398	0.0152138
869.476	0.0151868
869.554	0.0152531
869.632	0.0153716
869.710	0.0153079
869.788	0.0154576
869.866	0.0153391
869.944	0.0152930
870.023	0.0153362
870.101	0.0153702
870.179	0.0152955
870.257	0.0152969
870.335	0.0152491
870.413	0.0151778
870.491	0.0151897
870.569	0.0151612
870.648	0.0150430
870.726	0.0151303
870.804	0.0150092
870.882	0.0149311
870.960	0.0150673
871.038	0.0150521
871.116	0.0150474
871.194	0.0148342
871.273	0.0148019
871.351	0.0150672
871.429	0.0150494
871.507	0.0150011
871.585	0.0149435
871.663	0.0150886
871.741	0.0149393
871.819	0.0149577
871.898	0.0149598
871.976	0.0148952
872.054	0.0150263
872.132	0.0150871
872.210	0.0150014
872.288	0.0148120
872.366	0.0149107
872.444	0.0150076
872.523	0.0148997
872.601	0.0149097
872.679	0.0148698
872.757	0.0149280
872.835	0.0148788
872.913	0.0148530
872.991	0.0149403
873.069	0.0149592
873.148	0.0150097
873.226	0.0149168
873.304	0.0150192
873.382	0.0150034
873.460	0.0148969
873.538	0.0152159
873.616	0.0152235
873.694	0.0150941
873.773	0.0151100
873.851	0.0153967
873.929	0.0152010
874.007	0.0152755
874.085	0.0151620
874.163	0.0153104
874.241	0.0154658
874.319	0.0154482
874.398	0.0153181
874.476	0.0152753
874.554	0.0151633
874.632	0.0151618
874.710	0.0151045
874.788	0.0151762
874.866	0.0150977
874.944	0.0152068
875.023	0.0151316
875.101	0.0150214
875.179	0.0151229
875.257	0.0150946
875.335	0.0151276
875.413	0.0152657
875.491	0.0149704
875.569	0.0149065
875.648	0.0151192
875.726	0.0151118
875.804	0.0150729
875.882	0.0151222
875.960	0.0151550
876.038	0.0152325
876.116	0.0149897
876.194	0.0150677
876.273	0.0151649
876.351	0.0151176
876.429	0.0150437
876.507	0.0150975
876.585	0.0152419
876.663	0.0151517
876.741	0.0150163
876.819	0.0150193
876.898	0.0151926
876.976	0.0150771
877.054	0.0149792
877.132	0.0150346
877.210	0.0151337
877.288	0.0149212
877.366	0.0150005
877.444	0.0149136
877.523	0.0149714
877.601	0.0149115
877.679	0.0148894
877.757	0.0149249
877.835	0.0148507
877.913	0.0148832
877.991	0.0149426
878.069	0.0148311
878.148	0.0148943
878.226	0.0149210
878.304	0.0148408
878.382	0.0148861
878.460	0.0148355
878.538	0.0148886
878.616	0.0150311
878.694	0.0148615
878.773	0.0149828
878.851	0.0150660
878.929	0.0149639
879.007	0.0149792
879.085	0.0148456
879.163	0.0150028
879.241	0.0148999
879.319	0.0149287
879.398	0.0149380
879.476	0.0150947
879.554	0.0148547
879.632	0.0150208
879.710	0.0150126
879.788	0.0149895
879.866	0.0149228
879.944	0.0149786
880.023	0.0149191
880.101	0.0148480
880.179	0.0148091
880.257	0.0147816
880.335	0.0148516
880.413	0.0147774
880.491	0.0147502
880.569	0.0149207
880.648	0.0148365
880.726	0.0146927
880.804	0.0148280
880.882	0.0148719
880.960	0.0147424
881.038	0.0147222
881.116	0.0147702
881.194	0.0149820
881.273	0.0148356
881.351	0.0147493
881.429	0.0146920
881.507	0.0148716
881.585	0.0148762
881.663	0.0148351
881.741	0.0148710
881.819	0.0148769
881.898	0.0149339
881.976	0.0148315
882.054	0.0150740
882.132	0.0149580
882.210	0.0149861
882.288	0.0149585
882.366	0.0148748
882.444	0.0149043
882.523	0.0149409
882.601	0.0148533
882.679	0.0149632
882.757	0.0150353
882.835	0.0149236
882.913	0.0148941
882.991	0.0149174
883.069	0.0150465
883.148	0.0151173
883.226	0.0149819
883.304	0.0150619
883.382	0.0150798
883.460	0.0151047
883.538	0.0151369
883.616	0.0150391
883.694	0.0148983
883.773	0.0150433
883.851	0.0150280
883.929	0.0152200
884.007	0.0150651
884.085	0.0149761
884.163	0.0150349
884.241	0.0150273
884.319	0.0150809
884.398	0.0150342
884.476	0.0151014
884.554	0.0149975
884.632	0.0150020
884.710	0.0150495
884.788	0.0150628
884.866	0.0150961
884.944	0.0151298
885.023	0.0149738
885.101	0.0150921
885.179	0.0150296
885.257	0.0150443
885.335	0.0149693
885.413	0.0150878
885.491	0.0151222
885.569	0.0150643
885.648	0.0149432
885.726	0.0149359
885.804	0.0150147
885.882	0.0150178
885.960	0.0148529
886.038	0.0149490
886.116	0.0149863
886.194	0.0148891
886.273	0.0150185
886.351	0.0149936
886.429	0.0149614
886.507	0.0149637
886.585	0.0148833
886.663	0.0149913
886.741	0.0149410
886.819	0.0149403
886.898	0.0149496
886.976	0.0150004
887.054	0.0149163
887.132	0.0148541
887.210	0.0150269
887.288	0.0150049
887.366	0.0149355
887.444	0.0150170
887.523	0.0150076
887.601	0.0149957
887.679	0.0151080
887.757	0.0151797
887.835	0.0151115
887.913	0.0150506
887.991	0.0151742
888.069	0.0152084
888.148	0.0152477
888.226	0.0152143
888.304	0.0152403
888.382	0.0152022
888.460	0.0152974
888.538	0.0153492
888.616	0.0151299
888.694	0.0151022
888.773	0.0151981
888.851	0.0151224
888.929	0.0151716
889.007	0.0151900
889.085	0.0151260
889.163	0.0150156
889.241	0.0150926
889.319	0.0150192
889.398	0.0150126
889.476	0.0149333
889.554	0.0149779
889.632	0.0149863
889.710	0.0148785
889.788	0.0151266
889.866	0.0148698
889.944	0.0149741
890.023	0.0149839
890.101	0.0148918
890.179	0.0149705
890.257	0.0150008
890.335	0.0149152
890.413	0.0148260
890.491	0.0148945
890.569	0.0147874
890.648	0.0149548
890.726	0.0148936
890.804	0.0150269
890.882	0.0148567
890.960	0.0148319
891.038	0.0149372
891.116	0.0148997
891.194	0.0149547
891.273	0.0148135
891.351	0.0148916
891.429	0.0148114
891.507	0.0147574
891.585	0.0147194
891.663	0.0148194
891.741	0.0148815
891.819	0.0147681
891.898	0.0148069
891.976	0.0149367
892.054	0.0148211
892.132	0.0148315
892.210	0.0149252
892.288	0.0149297
892.366	0.0149059
892.444	0.0149106
892.523	0.0149966
892.601	0.0150160
892.679	0.0150745
892.757	0.0150194
892.835	0.0150291
892.913	0.0150834
892.991	0.0150265
893.069	0.0151022
893.148	0.0150478
893.226	0.0150609
893.304	0.0151504
893.382	0.0150947
893.460	0.0153053
893.538	0.0150968
893.616	0.0151242
893.694	0.0152239
893.773	0.0151871
893.851	0.0151043
893.929	0.0150320
894.007	0.0151244
894.085	0.0152217
894.163	0.0152417
894.241	0.0151427
894.319	0.0151420
894.398	0.0150095
894.476	0.0151531
894.554	0.0150728
894.632	0.0149480
894.710	0.0150650
894.788	0.0150297
894.866	0.0150731
894.944	0.0150124
895.023	0.0151829
895.101	0.0150983
895.179	0.0152052
895.257	0.0150341
895.335	0.0151180
895.413	0.0151121
895.491	0.0150381
895.569	0.0149193
895.648	0.0149943
895.726	0.0150664
895.804	0.0150665
895.882	0.0149702
895.960	0.0150125
896.038	0.0148086
896.116	0.0148710
896.194	0.0148956
896.273	0.0148342
896.351	0.0148895
896.429	0.0149252
896.507	0.0147540
896.585	0.0149277
896.663	0.0148331
896.741	0.0148644
896.819	0.0149641
896.898	0.0149517
896.976	0.0150158
897.054	0.0148946
897.132	0.0149238
897.210	0.0150157
897.288	0.0150561
897.366	0.0150163
897.444	0.0152391
897.523	0.0152699
897.601	0.0152033
897.679	0.0152183
897.757	0.0151405
897.835	0.0152039
897.913	0.0151508
897.991	0.0152519
898.069	0.0153356
898.148	0.0152521
898.226	0.0152124
898.304	0.0152477
898.382	0.0152740
898.460	0.0152259
898.538	0.0152078
898.616	0.0152245
898.694	0.0153052
898.773	0.0152031
898.851	0.0152444
898.929	0.0151215
899.007	0.0151517
899.085	0.0151871
899.163	0.0152163
899.241	0.0151837
899.319	0.0151513
899.398	0.0150980
899.476	0.0151112
899.554	0.0151422
899.632	0.0152444
899.710	0.0150693
899.788	0.0149256
899.866	0.0150839
899.944	0.0150262
900.023	0.0148929
900.101	0.0149004
900.179	0.0149896
900.257	0.0148485
900.335	0.0149608
900.413	0.0148727
900.491	0.0148278
900.569	0.0149368
900.648	0.0149791
900.726	0.0149320
900.804	0.0148123
900.882	0.0149137
900.960	0.0148675
901.038	0.0148648
901.116	0.0147691
901.194	0.0148497
901.273	0.0148570
901.351	0.0148161
901.429	0.0147675
901.507	0.0148806
901.585	0.0149089
901.663	0.0147965
901.741	0.0148652
901.819	0.0149933
901.898	0.0148512
901.976	0.0148967
902.054	0.0149685
902.132	0.0150053
902.210	0.0150648
902.288	0.0150790
902.366	0.0150300
902.444	0.0150230
902.523	0.0150628
902.601	0.0150027
902.679	0.0150291
902.757	0.0151340
902.835	0.0150809
902.913	0.0149456
902.991	0.0150476
903.069	0.0150157
903.148	0.0149961
903.226	0.0149623
903.304	0.0150031
903.382	0.0150051
903.460	0.0149192
903.538	0.0147559
903.616	0.0148601
903.694	0.0147867
903.773	0.0147392
903.851	0.0147940
903.929	0.0147451
904.007	0.0147807
904.085	0.0146950
904.163	0.0148015
904.241	0.0149001
904.319	0.0147325
904.398	0.0148636
904.476	0.0147626
904.554	0.0148493
904.632	0.0148019
904.710	0.0148449
904.788	0.0147947
904.866	0.0147889
904.944	0.0147852
905.023	0.0146581
905.101	0.0147627
905.179	0.0147204
905.257	0.0148047
905.335	0.0146748
905.413	0.0147408
905.491	0.0148425
905.569	0.0147126
905.648	0.0147947
905.726	0.0147536
905.804	0.0148128
905.882	0.0148646
905.960	0.0148424
906.038	0.0147684
906.116	0.0147403
906.194	0.0148775
906.273	0.0148048
906.351	0.0147541
906.429	0.0147740
906.507	0.0147795
906.585	0.0147672
906.663	0.0148782
906.741	0.0149362
906.819	0.0148394
906.898	0.0149124
906.976	0.0149326
907.054	0.0149752
907.132	0.0149260
907.210	0.0148924
907.288	0.0150370
907.366	0.0150838
907.444	0.0149462
907.523	0.0149374
907.601	0.0150166
907.679	0.0152001
907.757	0.0150977
907.835	0.0150513
907.913	0.0152739
907.991	0.0151494
908.069	0.0151892
908.148	0.0151775
908.226	0.0149838
908.304	0.0150975
908.382	0.0150886
908.460	0.0150512
908.538	0.0150215
908.616	0.0151723
908.694	0.0150314
908.773	0.0150201
908.851	0.0150254
908.929	0.0150417
909.007	0.0150526
909.085	0.0150930
909.163	0.0151593
909.241	0.0150210
909.319	0.0149559
909.398	0.0150355
909.476	0.0149180
909.554	0.0149655
909.632	0.0150455
909.710	0.0150179
909.788	0.0148460
909.866	0.0150674
909.944	0.0149948
910.023	0.0148397
910.101	0.0149659
910.179	0.0149246
910.257	0.0151226
910.335	0.0150055
910.413	0.0149190
910.491	0.0150012
910.569	0.0149401
910.648	0.0149915
910.726	0.0149704
910.804	0.0149522
910.882	0.0149729
910.960	0.0149877
911.038	0.0148553
911.116	0.0150128
911.194	0.0149715
911.273	0.0149828
911.351	0.0150593
911.429	0.0150622
911.507	0.0150310
911.585	0.0150772
911.663	0.0149131
911.741	0.0149671
911.819	0.0151350
911.898	0.0151467
911.976	0.0150174
912.054	0.0151960
912.132	0.0151196
912.210	0.0150606
912.288	0.0150964
912.366	0.0151826
912.444	0.0150977
912.523	0.0150544
912.601	0.0149757
912.679	0.0149766
912.757	0.0150335
912.835	0.0151188
912.913	0.0149032
912.991	0.0148891
913.069	0.0148920
913.148	0.0148904
913.226	0.0149190
913.304	0.0150083
913.382	0.0148971
913.460	0.0149397
913.538	0.0148103
913.616	0.0148679
913.694	0.0149316
913.773	0.0146365
913.851	0.0147652
913.929	0.0148275
914.007	0.0149595
914.085	0.0149786
914.163	0.0148080
914.241	0.0148179
914.319	0.0148226
914.398	0.0148743
914.476	0.0147135
914.554	0.0147210
914.632	0.0148758
914.710	0.0148943
914.788	0.0146797
914.866	0.0147950
914.944	0.0147665
915.023	0.0146934
915.101	0.0150208
915.179	0.0148951
915.257	0.0149487
915.335	0.0148812
915.413	0.0150330
915.491	0.0150658
915.569	0.0151314
915.648	0.0150375
915.726	0.0150389
915.804	0.0152032
915.882	0.0152103
915.960	0.0151168
916.038	0.0151208
916.116	0.0151447
916.194	0.0152854
916.273	0.0152900
916.351	0.0152165
916.429	0.0152994
916.507	0.0153165
916.585	0.0153915
916.663	0.0152407
916.741	0.0154641
916.819	0.0153397
916.898	0.0152761
916.976	0.0153214
917.054	0.0152773
917.132	0.0152650
917.210	0.0152940
917.288	0.0151985
917.366	0.0151958
917.444	0.0151836
917.523	0.0152323
917.601	0.0150827
917.679	0.0150204
917.757	0.0151504
917.835	0.0151549
917.913	0.0150921
917.991	0.0150326
918.069	0.0150230
918.148	0.0149176
918.226	0.0149596
918.304	0.0149809
918.382	0.0148775
918.460	0.0149007
918.538	0.0148866
918.616	0.0148946
918.694	0.0148965
918.773	0.0148877
918.851	0.0149271
918.929	0.0148194
919.007	0.0147917
919.085	0.0148719
919.163	0.0149551
919.241	0.0148641
919.319	0.0150091
919.398	0.0148135
919.476	0.0148648
919.554	0.0147929
919.632	0.0150135
919.710	0.0148356
919.788	0.0148647
919.866	0.0149585
919.944	0.0148244
920.023	0.0148444
920.101	0.0148801
920.179	0.0149552
920.257	0.0149461
920.335	0.0149861
920.413	0.0150560
920.491	0.0148562
920.569	0.0149041
920.648	0.0148732
920.726	0.0150213
920.804	0.0149233
920.882	0.0150137
920.960	0.0150736
921.038	0.0148898
921.116	0.0151727
921.194	0.0149770
921.273	0.0150608
921.351	0.0151185
921.429	0.0151183
921.507	0.0149990
921.585	0.0150100
921.663	0.0151694
921.741	0.0150906
921.819	0.0151373
921.898	0.0150937
921.976	0.0150205
922.054	0.0150578
922.132	0.0151944
922.210	0.0151102
922.288	0.0150906
922.366	0.0149927
922.444	0.0148871
922.523	0.0150563
922.601	0.0150767
922.679	0.0149416
922.757	0.0149180
922.835	0.0148840
922.913	0.0148637
922.991	0.0147870
923.069	0.0149437
923.148	0.0147100
923.226	0.0146596
923.304	0.0146552
923.382	0.0148328
923.460	0.0147483
923.538	0.0146986
923.616	0.0148596
923.694	0.0147831
923.773	0.0147394
923.851	0.0147464
923.929	0.0146564
924.007	0.0146220
924.085	0.0146671
924.163	0.0145853
924.241	0.0147454
924.319	0.0148270
924.398	0.0147156
924.476	0.0147069
924.554	0.0148156
924.632	0.0147054
924.710	0.0148848
924.788	0.0150311
924.866	0.0148447
924.944	0.0148713
925.023	0.0148856
925.101	0.0148758
925.179	0.0148827
925.257	0.0148820
925.335	0.0149686
925.413	0.0150285
925.491	0.0148901
925.569	0.0148742
925.648	0.0149430
925.726	0.0150209
925.804	0.0149887
925.882	0.0150195
925.960	0.0151045
926.038	0.0151502
926.116	0.0152036
926.194	0.0151741
926.273	0.0151757
926.351	0.0152686
926.429	0.0152116
926.507	0.0151744
926.585	0.0153207
926.663	0.0152811
926.741	0.0153083
926.819	0.0153074
926.898	0.0152662
926.976	0.0153160
927.054	0.0152457
927.132	0.0152498
927.210	0.0153303
927.288	0.0151148
927.366	0.0151936
927.444	0.0152399
927.523	0.0151553
927.601	0.0152811
927.679	0.0151910
927.757	0.0151459
927.835	0.0151211
927.913	0.0151388
927.991	0.0151184
928.069	0.0152017
928.148	0.0151591
928.226	0.0151019
928.304	0.0151896
928.382	0.0150748
928.460	0.0150412
928.538	0.0150593
928.616	0.0149476
928.694	0.0149879
928.773	0.0151128
928.851	0.0150858
928.929	0.0149557
929.007	0.0149677
929.085	0.0148895
929.163	0.0148940
929.241	0.0149054
929.319	0.0148545
929.398	0.0149289
929.476	0.0149817
929.554	0.0149844
929.632	0.0149995
929.710	0.0150484
929.788	0.0149715
929.866	0.0151600
929.944	0.0149364
930.023	0.0150295
930.101	0.0149202
930.179	0.0151115
930.257	0.0151395
930.335	0.0151198
930.413	0.0150561
930.491	0.0151186
930.569	0.0150115
930.648	0.0151916
930.726	0.0151619
930.804	0.0151262
930.882	0.0151481
930.960	0.0150526
931.038	0.0150675
931.116	0.0150027
931.194	0.0149197
931.273	0.0149819
931.351	0.0148591
931.429	0.0148045
931.507	0.0149498
931.585	0.0149274
931.663	0.0149259
931.741	0.0149435
931.819	0.0150256
931.898	0.0148794
931.976	0.0149065
932.054	0.0148825
932.132	0.0149410
932.210	0.0147505
932.288	0.0149381
932.366	0.0150159
932.444	0.0150143
932.523	0.0149740
932.601	0.0148945
932.679	0.0150477
932.757	0.0151585
932.835	0.0151678
932.913	0.0150214
932.991	0.0150812
933.069	0.0150600
933.148	0.0151736
933.226	0.0151575
933.304	0.0153735
933.382	0.0150492
933.460	0.0153033
933.538	0.0152571
933.616	0.0151447
933.694	0.0152781
933.773	0.0151656
933.851	0.0152652
933.929	0.0152266
934.007	0.0151237
934.085	0.0152888
934.163	0.0153668
934.241	0.0152217
934.319	0.0151066
934.398	0.0151191
934.476	0.0151590
934.554	0.0150548
934.632	0.0150713
934.710	0.0151354
934.788	0.0151870
934.866	0.0149911
934.944	0.0150571
935.023	0.0151190
935.101	0.0150925
935.179	0.0149818
935.257	0.0149927
935.335	0.0149535
935.413	0.0150067
935.491	0.0148814
935.569	0.0147202
935.648	0.0149135
935.726	0.0148594
935.804	0.0148423
935.882	0.0148927
935.960	0.0147125
936.038	0.0148878
936.116	0.0149032
936.194	0.0150143
936.273	0.0148737
936.351	0.0150031
936.429	0.0148787
936.507	0.0149190
936.585	0.0150480
936.663	0.0150213
936.741	0.0150676
936.819	0.0151182
936.898	0.0151237
936.976	0.0151093
937.054	0.0150681
937.132	0.0152279
937.210	0.0151247
937.288	0.0150356
937.366	0.0151219
937.444	0.0151537
937.523	0.0153158
937.601	0.0151558
937.679	0.0151661
937.757	0.0152078
937.835	0.0153104
937.913	0.0150868
937.991	0.0150312
938.069	0.0151207
938.148	0.0151343
938.226	0.0151143
938.304	0.0149952
938.382	0.0150621
938.460	0.0150260
938.538	0.0149236
938.616	0.0149493
938.694	0.0149957
938.773	0.0149654
938.851	0.0149237
938.929	0.0150233
939.007	0.0150552
939.085	0.0150615
939.163	0.0149731
939.241	0.0150030
939.319	0.0150797
939.398	0.0150908
939.476	0.0150021
939.554	0.0149500
939.632	0.0151272
939.710	0.0151668
939.788	0.0150389
939.866	0.0150777
939.944	0.0150404
940.023	0.0149981
940.101	0.0150430
940.179	0.0151656
940.257	0.0151601
940.335	0.0151157
940.413	0.0153542
940.491	0.0152709
940.569	0.0152530
940.648	0.0153896
940.726	0.0152857
940.804	0.0152513
940.882	0.0153175
940.960	0.0154607
941.038	0.0153255
941.116	0.0152859
941.194	0.0152214
941.273	0.0152892
941.351	0.0153135
941.429	0.0153789
941.507	0.0151424
941.585	0.0153038
941.663	0.0152249
941.741	0.0151941
941.819	0.0152728
941.898	0.0151976
941.976	0.0150468
942.054	0.0149908
942.132	0.0150230
942.210	0.0150170
942.288	0.0150488
942.366	0.0150574
942.444	0.0149918
942.523	0.0150075
942.601	0.0150529
942.679	0.0149563
942.757	0.0150419
942.835	0.0150308
942.913	0.0150355
942.991	0.0149915
943.069	0.0150114
943.148	0.0150100
943.226	0.0149573
943.304	0.0148502
943.382	0.0150418
943.460	0.0151000
943.538	0.0150420
943.616	0.0149620
943.694	0.0150044
943.773	0.0150212
943.851	0.0149621
943.929	0.0148428
944.007	0.0148950
944.085	0.0148100
944.163	0.0149122
944.241	0.0149161
944.319	0.0150488
944.398	0.0150984
944.476	0.0148428
944.554	0.0148535
944.632	0.0148772
944.710	0.0148846
944.788	0.0150362
944.866	0.0150769
944.944	0.0149883
945.023	0.0149594
945.101	0.0150928
945.179	0.0148833
945.257	0.0148437
945.335	0.0150280
945.413	0.0150407
945.491	0.0148864
945.569	0.0149187
945.648	0.0148998
945.726	0.0149548
945.804	0.0149664
945.882	0.0147687
945.960	0.0148938
946.038	0.0149277
946.116	0.0148492
946.194	0.0148600
946.273	0.0148770
946.351	0.0149540
946.429	0.0149579
946.507	0.0149380
946.585	0.0148777
946.663	0.0150636
946.741	0.0149914
946.819	0.0149805
946.898	0.0148667
946.976	0.0150602
947.054	0.0150906
947.132	0.0150111
947.210	0.0151226
947.288	0.0150348
947.366	0.0151974
947.444	0.0151927
947.523	0.0151237
947.601	0.0152242
947.679	0.0152870
947.757	0.0152425
947.835	0.0152439
947.913	0.0152975
947.991	0.0150860
948.069	0.0151972
948.148	0.0152068
948.226	0.0152408
948.304	0.0152679
948.382	0.0152885
948.460	0.0150704
948.538	0.0151531
948.616	0.0151515
948.694	0.0150779
948.773	0.0150684
948.851	0.0151311
948.929	0.0151025
949.007	0.0149822
949.085	0.0149837
949.163	0.0150404
949.241	0.0149606
949.319	0.0149390
949.398	0.0148277
949.476	0.0148567
949.554	0.0148543
949.632	0.0147484
949.710	0.0148504
949.788	0.0147838
949.866	0.0148781
949.944	0.0148705
