05/14/2022	19:48:11	Ver.	4.1	UNKNOWN
Optical Delay	630.022520	Delta X		0.078125	Sweeps	1	Scan Rate	0/0
Coordinates	Axis 1	NaN	Axis 2	NaN	Axis 3	NaN	Axis 4	NaN	Axis 5	NaN	Axis 6	0.000000
TX Power	0.000000	RX Power	0.000000

630.023	0.0148726
630.101	0.0149282
630.179	0.0148173
630.257	0.0149963
630.335	0.0150037
630.413	0.0149306
630.491	0.0148981
630.569	0.0149967
630.648	0.0149355
630.726	0.0149374
630.804	0.0149050
630.882	0.0150208
630.960	0.0149456
631.038	0.0150259
631.116	0.0149780
631.194	0.0149389
631.273	0.0149857
631.351	0.0149921
631.429	0.0148724
631.507	0.0149863
631.585	0.0149321
631.663	0.0149766
631.741	0.0147699
631.819	0.0149568
631.898	0.0147372
631.976	0.0148144
632.054	0.0150705
632.132	0.0148190
632.210	0.0148101
632.288	0.0150518
632.366	0.0147977
632.444	0.0148548
632.523	0.0148792
632.601	0.0150390
632.679	0.0148172
632.757	0.0148437
632.835	0.0149804
632.913	0.0149603
632.991	0.0148309
633.069	0.0148517
633.148	0.0149626
633.226	0.0149254
633.304	0.0147298
633.382	0.0148542
633.460	0.0148958
633.538	0.0149200
633.616	0.0148305
633.694	0.0148009
633.773	0.0149423
633.851	0.0147144
633.929	0.0148818
634.007	0.0149161
634.085	0.0148191
634.163	0.0149398
634.241	0.0148265
634.319	0.0150130
634.398	0.0149822
634.476	0.0147975
634.554	0.0149506
634.632	0.0148937
634.710	0.0149926
634.788	0.0149213
634.866	0.0149960
634.944	0.0149419
635.023	0.0148130
635.101	0.0149916
635.179	0.0150481
635.257	0.0150228
635.335	0.0149036
635.413	0.0148677
635.491	0.0148614
635.569	0.0150225
635.648	0.0151013
635.726	0.0151058
635.804	0.0149171
635.882	0.0149049
635.960	0.0148453
636.038	0.0149323
636.116	0.0149229
636.194	0.0149294
636.273	0.0148878
636.351	0.0148840
636.429	0.0147953
636.507	0.0150381
636.585	0.0147932
636.663	0.0147562
636.741	0.0149919
636.819	0.0148064
636.898	0.0147447
636.976	0.0148121
637.054	0.0147587
637.132	0.0148888
637.210	0.0148672
637.288	0.0148500
637.366	0.0147548
637.444	0.0148775
637.523	0.0147962
637.601	0.0149397
637.679	0.0149167
637.757	0.0149540
637.835	0.0148317
637.913	0.0150924
637.991	0.0148639
638.069	0.0148359
638.148	0.0149767
638.226	0.0151389
638.304	0.0150407
638.382	0.0151778
638.460	0.0150292
638.538	0.0151279
638.616	0.0150098
638.694	0.0151150
638.773	0.0150118
638.851	0.0149922
638.929	0.0149693
639.007	0.0148650
639.085	0.0150519
639.163	0.0149245
639.241	0.0150014
639.319	0.0149802
639.398	0.0148711
639.476	0.0148853
639.554	0.0149438
639.632	0.0148961
639.710	0.0149198
639.788	0.0149995
639.866	0.0147787
639.944	0.0148161
640.023	0.0148424
640.101	0.0150381
640.179	0.0149252
640.257	0.0148764
640.335	0.0149224
640.413	0.0148954
640.491	0.0147882
640.569	0.0147742
640.648	0.0148177
640.726	0.0147569
640.804	0.0148873
640.882	0.0149231
640.960	0.0148420
641.038	0.0146728
641.116	0.0147641
641.194	0.0147248
641.273	0.0148381
641.351	0.0148239
641.429	0.0147910
641.507	0.0148415
641.585	0.0147870
641.663	0.0148015
641.741	0.0147103
641.819	0.0147887
641.898	0.0147524
641.976	0.0147640
642.054	0.0148540
642.132	0.0147760
642.210	0.0148114
642.288	0.0149385
642.366	0.0148896
642.444	0.0146207
642.523	0.0148241
642.601	0.0148125
642.679	0.0148720
642.757	0.0149551
642.835	0.0146874
642.913	0.0148613
642.991	0.0148076
643.069	0.0148050
643.148	0.0148154
643.226	0.0148071
643.304	0.0147762
643.382	0.0148051
643.460	0.0148436
643.538	0.0147087
643.616	0.0146883
643.694	0.0148058
643.773	0.0147647
643.851	0.0147835
643.929	0.0148079
644.007	0.0148151
644.085	0.0148610
644.163	0.0148299
644.241	0.0149816
644.319	0.0148866
644.398	0.0149303
644.476	0.0150183
644.554	0.0150333
644.632	0.0150336
644.710	0.0149010
644.788	0.0150822
644.866	0.0149805
644.944	0.0150338
645.023	0.0150296
645.101	0.0150494
645.179	0.0151331
645.257	0.0150747
645.335	0.0149711
645.413	0.0150275
645.491	0.0150581
645.569	0.0151538
645.648	0.0151717
645.726	0.0150825
645.804	0.0150089
645.882	0.0150959
645.960	0.0151830
646.038	0.0151006
646.116	0.0149505
646.194	0.0150525
646.273	0.0150370
646.351	0.0150185
646.429	0.0150694
646.507	0.0150466
646.585	0.0149306
646.663	0.0150249
646.741	0.0149728
646.819	0.0150116
646.898	0.0150023
646.976	0.0149752
647.054	0.0148753
647.132	0.0150078
647.210	0.0148770
647.288	0.0150815
647.366	0.0150086
647.444	0.0149784
647.523	0.0149943
647.601	0.0150725
647.679	0.0151370
647.757	0.0151161
647.835	0.0151247
647.913	0.0150690
647.991	0.0151850
648.069	0.0150820
648.148	0.0149979
648.226	0.0150506
648.304	0.0149918
648.382	0.0150452
648.460	0.0151108
648.538	0.0150848
648.616	0.0152361
648.694	0.0149953
648.773	0.0150651
648.851	0.0149986
648.929	0.0150321
649.007	0.0151591
649.085	0.0149726
649.163	0.0150771
649.241	0.0150274
649.319	0.0149496
649.398	0.0151415
649.476	0.0150817
649.554	0.0149934
649.632	0.0149187
649.710	0.0149410
649.788	0.0149795
649.866	0.0149019
649.944	0.0148669
650.023	0.0148431
650.101	0.0148643
650.179	0.0148743
650.257	0.0149879
650.335	0.0149630
650.413	0.0149017
650.491	0.0149306
650.569	0.0150959
650.648	0.0149689
650.726	0.0150528
650.804	0.0150166
650.882	0.0150802
650.960	0.0151579
651.038	0.0149584
651.116	0.0150603
651.194	0.0149722
651.273	0.0150864
651.351	0.0149368
651.429	0.0149431
651.507	0.0149738
651.585	0.0148922
651.663	0.0148441
651.741	0.0148380
651.819	0.0149120
651.898	0.0148416
651.976	0.0147881
652.054	0.0148512
652.132	0.0147956
652.210	0.0146033
652.288	0.0145641
652.366	0.0147129
652.444	0.0148237
652.523	0.0147496
652.601	0.0146741
652.679	0.0147499
652.757	0.0149224
652.835	0.0147769
652.913	0.0147742
652.991	0.0149889
653.069	0.0150101
653.148	0.0149245
653.226	0.0147936
653.304	0.0149751
653.382	0.0150261
653.460	0.0149281
653.538	0.0149316
653.616	0.0150124
653.694	0.0147525
653.773	0.0147952
653.851	0.0148066
653.929	0.0147352
654.007	0.0147348
654.085	0.0147433
654.163	0.0145471
654.241	0.0145274
654.319	0.0144675
654.398	0.0144486
654.476	0.0144558
654.554	0.0143877
654.632	0.0144193
654.710	0.0143550
654.788	0.0143349
654.866	0.0145231
654.944	0.0144059
655.023	0.0146028
655.101	0.0146159
655.179	0.0146835
655.257	0.0148228
655.335	0.0149063
655.413	0.0148692
655.491	0.0148415
655.569	0.0148073
655.648	0.0149284
655.726	0.0149767
655.804	0.0150584
655.882	0.0148158
655.960	0.0149814
656.038	0.0148540
656.116	0.0147993
656.194	0.0147333
656.273	0.0147839
656.351	0.0148012
656.429	0.0146577
656.507	0.0144687
656.585	0.0144324
656.663	0.0144864
656.741	0.0143922
656.819	0.0143942
656.898	0.0143776
656.976	0.0143244
657.054	0.0142558
657.132	0.0143583
657.210	0.0142048
657.288	0.0142575
657.366	0.0146214
657.444	0.0147043
657.523	0.0146073
657.601	0.0147062
657.679	0.0147695
657.757	0.0150681
657.835	0.0150828
657.913	0.0151746
657.991	0.0152982
658.069	0.0152186
658.148	0.0153585
658.226	0.0154327
658.304	0.0154770
658.382	0.0155564
658.460	0.0154419
658.538	0.0154234
658.616	0.0152316
658.694	0.0153957
658.773	0.0153766
658.851	0.0152414
658.929	0.0150338
659.007	0.0149966
659.085	0.0148996
659.163	0.0147185
659.241	0.0145338
659.319	0.0145007
659.398	0.0144673
659.476	0.0142196
659.554	0.0140040
659.632	0.0139280
659.710	0.0138235
659.788	0.0137418
659.866	0.0138463
659.944	0.0138341
660.023	0.0138601
660.101	0.0140561
660.179	0.0140775
660.257	0.0141138
660.335	0.0144123
660.413	0.0143179
660.491	0.0146206
660.569	0.0148560
660.648	0.0150113
660.726	0.0151425
660.804	0.0154173
660.882	0.0153571
660.960	0.0156763
661.038	0.0159013
661.116	0.0158516
661.194	0.0159382
661.273	0.0161148
661.351	0.0158973
661.429	0.0159465
661.507	0.0158527
661.585	0.0158260
661.663	0.0156610
661.741	0.0154545
661.819	0.0151553
661.898	0.0152438
661.976	0.0151482
662.054	0.0148753
662.132	0.0145846
662.210	0.0145107
662.288	0.0143684
662.366	0.0141448
662.444	0.0140740
662.523	0.0138753
662.601	0.0137383
662.679	0.0137786
662.757	0.0138194
662.835	0.0136333
662.913	0.0137524
662.991	0.0136799
663.069	0.0138347
663.148	0.0139814
663.226	0.0138885
663.304	0.0139085
663.382	0.0141093
663.460	0.0144105
663.538	0.0145786
663.616	0.0147264
663.694	0.0148954
663.773	0.0151235
663.851	0.0152089
663.929	0.0152338
664.007	0.0152725
664.085	0.0154343
664.163	0.0155892
664.241	0.0156480
664.319	0.0156934
664.398	0.0155952
664.476	0.0155652
664.554	0.0154706
664.632	0.0153233
664.710	0.0152036
664.788	0.0152393
664.866	0.0150912
664.944	0.0151584
665.023	0.0151351
665.101	0.0149607
665.179	0.0148032
665.257	0.0148187
665.335	0.0148272
665.413	0.0147562
665.491	0.0148594
665.569	0.0148499
665.648	0.0149435
665.726	0.0150365
665.804	0.0149677
665.882	0.0148886
665.960	0.0148518
666.038	0.0149691
666.116	0.0150786
666.194	0.0152396
666.273	0.0152156
666.351	0.0149775
666.429	0.0149942
666.507	0.0152505
666.585	0.0152470
666.663	0.0150394
666.741	0.0150821
666.819	0.0151557
666.898	0.0150482
666.976	0.0149568
667.054	0.0148853
667.132	0.0150493
667.210	0.0148361
667.288	0.0147236
667.366	0.0145789
667.444	0.0144945
667.523	0.0144650
667.601	0.0143184
667.679	0.0143295
667.757	0.0140978
667.835	0.0140143
667.913	0.0140221
667.991	0.0142117
668.069	0.0141924
668.148	0.0141165
668.226	0.0141594
668.304	0.0142808
668.382	0.0142918
668.460	0.0143247
668.538	0.0145582
668.616	0.0146492
668.694	0.0147987
668.773	0.0148406
668.851	0.0150909
668.929	0.0151589
669.007	0.0153204
669.085	0.0154619
669.163	0.0157158
669.241	0.0157803
669.319	0.0159342
669.398	0.0159779
669.476	0.0162280
669.554	0.0161049
669.632	0.0161816
669.710	0.0163608
669.788	0.0163484
669.866	0.0162187
669.944	0.0162326
670.023	0.0161079
670.101	0.0160489
670.179	0.0159156
670.257	0.0158330
670.335	0.0157333
670.413	0.0156005
670.491	0.0153325
670.569	0.0152510
670.648	0.0151436
670.726	0.0149134
670.804	0.0147726
670.882	0.0145471
670.960	0.0143819
671.038	0.0143890
671.116	0.0143018
671.194	0.0140678
671.273	0.0138973
671.351	0.0139250
671.429	0.0137096
671.507	0.0135999
671.585	0.0135879
671.663	0.0134146
671.741	0.0134226
671.819	0.0134496
671.898	0.0133900
671.976	0.0133852
672.054	0.0133556
672.132	0.0133278
672.210	0.0135443
672.288	0.0136273
672.366	0.0138084
672.444	0.0138913
672.523	0.0141022
672.601	0.0142503
672.679	0.0145682
672.757	0.0146070
672.835	0.0148914
672.913	0.0149211
672.991	0.0153754
673.069	0.0156025
673.148	0.0156632
673.226	0.0157800
673.304	0.0160567
673.382	0.0163097
673.460	0.0162093
673.538	0.0164102
673.616	0.0164858
673.694	0.0164640
673.773	0.0164322
673.851	0.0165901
673.929	0.0165099
674.007	0.0164418
674.085	0.0164478
674.163	0.0161524
674.241	0.0161404
674.319	0.0160078
674.398	0.0159397
674.476	0.0157212
674.554	0.0154971
674.632	0.0153857
674.710	0.0151772
674.788	0.0150053
674.866	0.0148932
674.944	0.0148434
675.023	0.0146854
675.101	0.0144403
675.179	0.0143800
675.257	0.0143697
675.335	0.0144132
675.413	0.0142367
675.491	0.0141528
675.569	0.0142725
675.648	0.0143403
675.726	0.0143854
675.804	0.0143595
675.882	0.0144223
675.960	0.0145507
676.038	0.0145364
676.116	0.0146429
676.194	0.0145782
676.273	0.0146859
676.351	0.0147174
676.429	0.0147982
676.507	0.0147299
676.585	0.0145724
676.663	0.0147070
676.741	0.0146764
676.819	0.0146991
676.898	0.0145471
676.976	0.0145456
677.054	0.0144383
677.132	0.0143557
677.210	0.0143256
677.288	0.0143177
677.366	0.0141151
677.444	0.0143031
677.523	0.0142005
677.601	0.0141487
677.679	0.0141803
677.757	0.0143314
677.835	0.0143439
677.913	0.0142901
677.991	0.0144321
678.069	0.0145213
678.148	0.0145804
678.226	0.0147322
678.304	0.0147353
678.382	0.0148991
678.460	0.0151202
678.538	0.0151649
678.616	0.0153802
678.694	0.0155467
678.773	0.0157993
678.851	0.0158799
678.929	0.0161623
679.007	0.0161810
679.085	0.0161897
679.163	0.0163889
679.241	0.0165584
679.319	0.0165572
679.398	0.0166566
679.476	0.0166866
679.554	0.0166769
679.632	0.0166875
679.710	0.0166772
679.788	0.0165778
679.866	0.0163891
679.944	0.0163236
680.023	0.0162772
680.101	0.0160658
680.179	0.0159116
680.257	0.0156347
680.335	0.0153837
680.413	0.0152038
680.491	0.0149831
680.569	0.0147284
680.648	0.0143121
680.726	0.0140353
680.804	0.0137303
680.882	0.0134492
680.960	0.0130408
681.038	0.0129892
681.116	0.0129169
681.194	0.0127051
681.273	0.0126405
681.351	0.0124815
681.429	0.0124128
681.507	0.0123074
681.585	0.0124486
681.663	0.0125053
681.741	0.0123950
681.819	0.0126869
681.898	0.0129243
681.976	0.0128912
682.054	0.0129728
682.132	0.0131898
682.210	0.0135262
682.288	0.0137701
682.366	0.0140863
682.444	0.0143837
682.523	0.0145640
682.601	0.0149427
682.679	0.0151319
682.757	0.0155680
682.835	0.0160059
682.913	0.0160591
682.991	0.0163431
683.069	0.0165507
683.148	0.0168016
683.226	0.0169892
683.304	0.0171850
683.382	0.0171607
683.460	0.0172525
683.538	0.0173328
683.616	0.0174920
683.694	0.0174596
683.773	0.0173764
683.851	0.0171186
683.929	0.0171909
684.007	0.0171696
684.085	0.0168703
684.163	0.0167786
684.241	0.0166032
684.319	0.0164452
684.398	0.0161110
684.476	0.0159936
684.554	0.0157881
684.632	0.0155447
684.710	0.0153157
684.788	0.0151286
684.866	0.0149944
684.944	0.0146914
685.023	0.0143216
685.101	0.0143863
685.179	0.0140487
685.257	0.0137828
685.335	0.0137603
685.413	0.0134732
685.491	0.0135315
685.569	0.0133213
685.648	0.0131805
685.726	0.0132241
685.804	0.0131486
685.882	0.0131823
685.960	0.0131842
686.038	0.0131604
686.116	0.0133152
686.194	0.0133869
686.273	0.0133457
686.351	0.0134512
686.429	0.0134458
686.507	0.0136860
686.585	0.0140984
686.663	0.0139443
686.741	0.0141943
686.819	0.0144296
686.898	0.0144984
686.976	0.0146253
687.054	0.0147615
687.132	0.0150288
687.210	0.0151330
687.288	0.0153226
687.366	0.0154845
687.444	0.0156368
687.523	0.0158049
687.601	0.0158624
687.679	0.0159851
687.757	0.0159313
687.835	0.0160864
687.913	0.0161470
687.991	0.0161818
688.069	0.0160477
688.148	0.0158659
688.226	0.0159400
688.304	0.0157344
688.382	0.0157230
688.460	0.0156059
688.538	0.0155482
688.616	0.0154890
688.694	0.0154072
688.773	0.0151951
688.851	0.0150697
688.929	0.0150746
689.007	0.0149761
689.085	0.0149690
689.163	0.0148315
689.241	0.0147854
689.319	0.0147518
689.398	0.0149106
689.476	0.0148587
689.554	0.0149487
689.632	0.0148766
689.710	0.0148064
689.788	0.0147913
689.866	0.0151526
689.944	0.0150197
690.023	0.0149947
690.101	0.0152103
690.179	0.0153654
690.257	0.0153340
690.335	0.0153025
690.413	0.0155347
690.491	0.0153449
690.569	0.0152743
690.648	0.0155008
690.726	0.0155476
690.804	0.0154939
690.882	0.0154564
690.960	0.0154800
691.038	0.0154423
691.116	0.0153654
691.194	0.0152199
691.273	0.0150702
691.351	0.0152126
691.429	0.0151163
691.507	0.0151066
691.585	0.0151036
691.663	0.0150938
691.741	0.0148226
691.819	0.0146404
691.898	0.0145249
691.976	0.0146098
692.054	0.0145604
692.132	0.0144430
692.210	0.0144386
692.288	0.0144238
692.366	0.0144401
692.444	0.0144702
692.523	0.0144198
692.601	0.0143764
692.679	0.0144566
692.757	0.0144512
692.835	0.0144509
692.913	0.0144727
692.991	0.0145628
693.069	0.0144743
693.148	0.0143425
693.226	0.0144241
693.304	0.0144780
693.382	0.0146030
693.460	0.0145292
693.538	0.0145585
693.616	0.0147936
693.694	0.0148180
693.773	0.0148737
693.851	0.0147955
693.929	0.0148354
694.007	0.0149055
694.085	0.0151082
694.163	0.0150927
694.241	0.0153155
694.319	0.0154150
694.398	0.0154013
694.476	0.0155402
694.554	0.0156232
694.632	0.0157560
694.710	0.0158247
694.788	0.0158442
694.866	0.0160540
694.944	0.0161496
695.023	0.0162289
695.101	0.0160079
695.179	0.0160899
695.257	0.0159697
695.335	0.0158644
695.413	0.0158648
695.491	0.0158500
695.569	0.0158366
695.648	0.0156662
695.726	0.0155425
695.804	0.0152303
695.882	0.0152204
695.960	0.0150244
696.038	0.0149434
696.116	0.0147077
696.194	0.0145193
696.273	0.0144587
696.351	0.0143164
696.429	0.0142138
696.507	0.0140598
696.585	0.0140520
696.663	0.0140232
696.741	0.0140723
696.819	0.0139489
696.898	0.0141654
696.976	0.0142247
697.054	0.0141602
697.132	0.0142995
697.210	0.0142182
697.288	0.0143840
697.366	0.0145029
697.444	0.0147189
697.523	0.0147935
697.601	0.0148216
697.679	0.0148145
697.757	0.0151323
697.835	0.0150993
697.913	0.0150879
697.991	0.0152036
698.069	0.0153794
698.148	0.0155310
698.226	0.0154910
698.304	0.0156503
698.382	0.0157508
698.460	0.0158125
698.538	0.0158111
698.616	0.0158755
698.694	0.0159041
698.773	0.0159082
698.851	0.0158921
698.929	0.0159715
699.007	0.0158617
699.085	0.0157191
699.163	0.0155526
699.241	0.0155717
699.319	0.0153606
699.398	0.0150304
699.476	0.0150117
699.554	0.0149792
699.632	0.0148380
699.710	0.0145666
699.788	0.0144896
699.866	0.0143192
699.944	0.0141637
700.023	0.0139793
700.101	0.0138542
700.179	0.0139783
700.257	0.0136813
700.335	0.0136848
700.413	0.0136192
700.491	0.0135394
700.569	0.0136584
700.648	0.0136045
700.726	0.0136840
700.804	0.0139551
700.882	0.0140942
700.960	0.0142782
701.038	0.0143833
701.116	0.0144968
701.194	0.0147357
701.273	0.0150327
701.351	0.0151125
701.429	0.0152613
701.507	0.0155121
701.585	0.0155943
701.663	0.0158605
701.741	0.0159499
701.819	0.0159708
701.898	0.0160432
701.976	0.0161204
702.054	0.0160109
702.132	0.0160225
702.210	0.0161663
702.288	0.0160897
702.366	0.0161941
702.444	0.0160789
702.523	0.0160902
702.601	0.0159798
702.679	0.0158611
702.757	0.0158138
702.835	0.0158279
702.913	0.0155770
702.991	0.0154411
703.069	0.0152672
703.148	0.0151865
703.226	0.0152036
703.304	0.0148840
703.382	0.0147342
703.460	0.0146662
703.538	0.0145730
703.616	0.0145690
703.694	0.0145695
703.773	0.0143747
703.851	0.0144270
703.929	0.0144044
704.007	0.0142327
704.085	0.0143536
704.163	0.0143121
704.241	0.0143134
704.319	0.0143923
704.398	0.0145225
704.476	0.0144660
704.554	0.0144225
704.632	0.0144964
704.710	0.0145537
704.788	0.0145463
704.866	0.0144617
704.944	0.0145772
705.023	0.0147015
705.101	0.0147007
705.179	0.0146839
705.257	0.0145691
705.335	0.0145325
705.413	0.0146791
705.491	0.0144802
705.569	0.0146031
705.648	0.0143967
705.726	0.0141974
705.804	0.0142905
705.882	0.0142422
705.960	0.0141959
706.038	0.0140735
706.116	0.0139341
706.194	0.0140878
706.273	0.0141736
706.351	0.0140247
706.429	0.0141048
706.507	0.0141428
706.585	0.0142641
706.663	0.0144621
706.741	0.0144910
706.819	0.0144614
706.898	0.0145483
706.976	0.0146600
707.054	0.0150516
707.132	0.0150013
707.210	0.0152612
707.288	0.0154984
707.366	0.0155796
707.444	0.0157683
707.523	0.0159322
707.601	0.0160809
707.679	0.0161832
707.757	0.0164135
707.835	0.0164075
707.913	0.0164311
707.991	0.0164622
708.069	0.0164648
708.148	0.0165026
708.226	0.0165434
708.304	0.0164339
708.382	0.0163731
708.460	0.0163457
708.538	0.0162641
708.616	0.0160369
708.694	0.0158292
708.773	0.0159831
708.851	0.0157642
708.929	0.0155029
709.007	0.0152174
709.085	0.0152698
709.163	0.0151987
709.241	0.0151201
709.319	0.0149319
709.398	0.0149063
709.476	0.0147928
709.554	0.0147966
709.632	0.0146120
709.710	0.0145438
709.788	0.0145039
709.866	0.0144577
709.944	0.0144584
710.023	0.0145010
710.101	0.0145435
710.179	0.0144131
710.257	0.0142529
710.335	0.0142095
710.413	0.0142919
710.491	0.0140863
710.569	0.0143097
710.648	0.0142194
710.726	0.0141611
710.804	0.0141387
710.882	0.0142419
710.960	0.0142738
711.038	0.0143114
711.116	0.0141753
711.194	0.0141785
711.273	0.0142124
711.351	0.0143391
711.429	0.0143163
711.507	0.0142898
711.585	0.0143204
711.663	0.0143438
711.741	0.0145673
711.819	0.0146289
711.898	0.0145019
711.976	0.0146419
712.054	0.0145368
712.132	0.0147366
712.210	0.0147565
712.288	0.0147337
712.366	0.0147431
712.444	0.0148463
712.523	0.0150926
712.601	0.0151346
712.679	0.0153782
712.757	0.0153764
712.835	0.0153072
712.913	0.0154415
712.991	0.0155832
713.069	0.0156429
713.148	0.0157793
713.226	0.0157111
713.304	0.0156426
713.382	0.0158954
713.460	0.0159196
713.538	0.0157882
713.616	0.0159763
713.694	0.0159943
713.773	0.0158734
713.851	0.0157885
713.929	0.0159961
714.007	0.0158620
714.085	0.0157907
714.163	0.0158587
714.241	0.0157041
714.319	0.0158279
714.398	0.0156600
714.476	0.0156068
714.554	0.0156778
714.632	0.0156621
714.710	0.0154322
714.788	0.0152965
714.866	0.0152940
714.944	0.0153012
715.023	0.0152070
715.101	0.0151543
715.179	0.0149778
715.257	0.0150065
715.335	0.0149610
715.413	0.0149461
715.491	0.0148732
715.569	0.0147652
715.648	0.0146078
715.726	0.0146231
715.804	0.0146645
715.882	0.0146529
715.960	0.0145979
716.038	0.0143583
716.116	0.0144598
716.194	0.0145538
716.273	0.0144526
716.351	0.0144476
716.429	0.0145498
716.507	0.0145038
716.585	0.0144913
716.663	0.0144009
716.741	0.0142626
716.819	0.0144942
716.898	0.0144427
716.976	0.0145974
717.054	0.0145901
717.132	0.0145798
717.210	0.0146073
717.288	0.0146478
717.366	0.0146731
717.444	0.0145560
717.523	0.0146716
717.601	0.0147598
717.679	0.0148322
717.757	0.0147454
717.835	0.0148603
717.913	0.0149242
717.991	0.0149107
718.069	0.0149306
718.148	0.0149235
718.226	0.0149499
718.304	0.0149486
718.382	0.0149502
718.460	0.0149216
718.538	0.0150791
718.616	0.0151230
718.694	0.0149587
718.773	0.0150761
718.851	0.0150066
718.929	0.0150392
719.007	0.0150256
719.085	0.0150990
719.163	0.0151048
719.241	0.0150292
719.319	0.0150689
719.398	0.0150289
719.476	0.0150746
719.554	0.0152073
719.632	0.0152559
719.710	0.0152232
719.788	0.0152481
719.866	0.0153697
719.944	0.0152672
720.023	0.0153668
720.101	0.0154648
720.179	0.0154846
720.257	0.0155611
720.335	0.0154277
720.413	0.0155332
720.491	0.0155576
720.569	0.0156737
720.648	0.0156211
720.726	0.0155711
720.804	0.0154554
720.882	0.0157165
720.960	0.0155927
721.038	0.0155511
721.116	0.0154350
721.194	0.0154980
721.273	0.0153152
721.351	0.0153708
721.429	0.0152458
721.507	0.0153391
721.585	0.0151730
721.663	0.0150843
721.741	0.0150892
721.819	0.0149902
721.898	0.0150384
721.976	0.0150151
722.054	0.0148485
722.132	0.0147570
722.210	0.0146693
722.288	0.0147991
722.366	0.0146278
722.444	0.0143935
722.523	0.0145391
722.601	0.0145364
722.679	0.0143884
722.757	0.0142944
722.835	0.0143448
722.913	0.0143814
722.991	0.0142576
723.069	0.0142858
723.148	0.0143037
723.226	0.0144086
723.304	0.0142336
723.382	0.0141157
723.460	0.0142603
723.538	0.0142982
723.616	0.0141074
723.694	0.0143314
723.773	0.0143190
723.851	0.0143430
723.929	0.0142903
724.007	0.0143953
724.085	0.0144857
724.163	0.0144791
724.241	0.0143768
724.319	0.0145935
724.398	0.0146130
724.476	0.0146924
724.554	0.0147897
724.632	0.0148041
724.710	0.0148538
724.788	0.0150024
724.866	0.0149417
724.944	0.0152414
725.023	0.0151517
725.101	0.0151234
725.179	0.0153364
725.257	0.0152615
725.335	0.0153307
725.413	0.0154832
725.491	0.0154648
725.569	0.0155206
725.648	0.0155540
725.726	0.0156842
725.804	0.0156178
725.882	0.0156150
725.960	0.0154547
726.038	0.0155801
726.116	0.0155192
726.194	0.0155383
726.273	0.0155640
726.351	0.0154459
726.429	0.0154420
726.507	0.0153619
726.585	0.0153114
726.663	0.0151408
726.741	0.0152195
726.819	0.0152740
726.898	0.0150804
726.976	0.0150416
727.054	0.0149266
727.132	0.0148992
727.210	0.0148783
727.288	0.0148932
727.366	0.0147488
727.444	0.0146834
727.523	0.0146694
727.601	0.0147160
727.679	0.0145911
727.757	0.0146608
727.835	0.0145540
727.913	0.0145573
727.991	0.0145813
728.069	0.0145652
728.148	0.0143720
728.226	0.0145461
728.304	0.0145765
728.382	0.0145655
728.460	0.0144088
728.538	0.0143791
728.616	0.0144064
728.694	0.0142855
728.773	0.0143084
728.851	0.0144069
728.929	0.0144150
729.007	0.0142948
729.085	0.0143924
729.163	0.0143085
729.241	0.0143052
729.319	0.0143259
729.398	0.0144168
729.476	0.0144363
729.554	0.0144530
729.632	0.0146968
729.710	0.0145520
729.788	0.0144938
729.866	0.0148840
729.944	0.0148307
730.023	0.0148349
730.101	0.0149644
730.179	0.0150616
730.257	0.0151762
730.335	0.0151455
730.413	0.0152583
730.491	0.0154488
730.569	0.0154053
730.648	0.0155363
730.726	0.0155206
730.804	0.0155595
730.882	0.0154554
730.960	0.0155700
731.038	0.0154922
731.116	0.0155206
731.194	0.0155419
731.273	0.0155079
731.351	0.0154134
731.429	0.0154385
731.507	0.0155095
731.585	0.0154158
731.663	0.0152782
731.741	0.0153097
731.819	0.0152847
731.898	0.0153107
731.976	0.0154604
732.054	0.0152320
732.132	0.0151959
732.210	0.0151546
732.288	0.0152261
732.366	0.0151091
732.444	0.0150208
732.523	0.0152358
732.601	0.0151270
732.679	0.0149119
732.757	0.0149937
732.835	0.0148109
732.913	0.0147794
732.991	0.0148438
733.069	0.0148650
733.148	0.0147569
733.226	0.0147476
733.304	0.0147256
733.382	0.0146375
733.460	0.0146539
733.538	0.0147618
733.616	0.0145528
733.694	0.0144928
733.773	0.0145718
733.851	0.0145599
733.929	0.0146495
734.007	0.0145654
734.085	0.0144894
734.163	0.0145243
734.241	0.0144784
734.319	0.0145201
734.398	0.0145677
734.476	0.0146157
734.554	0.0144549
734.632	0.0146351
734.710	0.0145694
734.788	0.0145854
734.866	0.0148264
734.944	0.0146856
735.023	0.0147606
735.101	0.0149352
735.179	0.0147899
735.257	0.0149367
735.335	0.0150323
735.413	0.0150511
735.491	0.0151601
735.569	0.0152110
735.648	0.0150737
735.726	0.0150368
735.804	0.0151394
735.882	0.0151784
735.960	0.0151275
736.038	0.0153182
736.116	0.0150938
736.194	0.0152719
736.273	0.0152050
736.351	0.0151479
736.429	0.0151948
736.507	0.0150791
736.585	0.0152541
736.663	0.0152554
736.741	0.0151413
736.819	0.0152442
736.898	0.0151132
736.976	0.0151413
737.054	0.0152081
737.132	0.0151680
737.210	0.0149586
737.288	0.0150594
737.366	0.0149296
737.444	0.0149816
737.523	0.0149729
737.601	0.0149545
737.679	0.0148524
737.757	0.0149308
737.835	0.0148580
737.913	0.0147559
737.991	0.0147814
738.069	0.0147530
738.148	0.0146420
738.226	0.0146139
738.304	0.0146732
738.382	0.0146356
738.460	0.0145784
738.538	0.0144994
738.616	0.0145459
738.694	0.0145985
738.773	0.0144928
738.851	0.0145258
738.929	0.0145605
739.007	0.0144266
739.085	0.0145337
739.163	0.0146119
739.241	0.0144942
739.319	0.0144676
739.398	0.0144758
739.476	0.0145676
739.554	0.0145950
739.632	0.0144777
739.710	0.0146601
739.788	0.0147036
739.866	0.0148559
739.944	0.0146696
740.023	0.0148415
740.101	0.0148638
740.179	0.0150295
740.257	0.0150253
740.335	0.0149255
740.413	0.0150998
740.491	0.0151527
740.569	0.0151969
740.648	0.0149999
740.726	0.0151532
740.804	0.0152020
740.882	0.0152856
740.960	0.0151912
741.038	0.0152354
741.116	0.0152370
741.194	0.0153358
741.273	0.0153706
741.351	0.0155205
741.429	0.0154177
741.507	0.0153349
741.585	0.0153636
741.663	0.0153394
741.741	0.0151597
741.819	0.0151945
741.898	0.0152483
741.976	0.0151793
742.054	0.0150793
742.132	0.0150186
742.210	0.0149959
742.288	0.0150047
742.366	0.0149701
742.444	0.0148758
742.523	0.0148196
742.601	0.0148923
742.679	0.0148610
742.757	0.0148447
742.835	0.0148836
742.913	0.0146354
742.991	0.0147092
743.069	0.0147337
743.148	0.0147207
743.226	0.0148271
743.304	0.0147900
743.382	0.0147475
743.460	0.0148046
743.538	0.0147010
743.616	0.0148765
743.694	0.0147389
743.773	0.0148842
743.851	0.0147659
743.929	0.0149651
744.007	0.0147890
744.085	0.0148430
744.163	0.0149364
744.241	0.0149763
744.319	0.0149391
744.398	0.0149990
744.476	0.0149272
744.554	0.0149866
744.632	0.0150416
744.710	0.0149772
744.788	0.0150707
744.866	0.0150868
744.944	0.0150204
745.023	0.0150270
745.101	0.0151395
745.179	0.0151472
745.257	0.0150992
745.335	0.0151905
745.413	0.0150985
745.491	0.0151938
745.569	0.0152322
745.648	0.0152664
745.726	0.0152287
745.804	0.0152494
745.882	0.0152110
745.960	0.0154655
746.038	0.0152799
746.116	0.0152485
746.194	0.0151875
746.273	0.0153727
746.351	0.0152177
746.429	0.0151067
746.507	0.0152242
746.585	0.0151418
746.663	0.0149465
746.741	0.0151002
746.819	0.0152750
746.898	0.0151374
746.976	0.0148840
747.054	0.0150686
747.132	0.0149674
747.210	0.0149639
747.288	0.0148323
747.366	0.0148686
747.444	0.0149490
747.523	0.0149384
747.601	0.0146632
747.679	0.0147945
747.757	0.0146887
747.835	0.0148897
747.913	0.0148677
747.991	0.0148321
748.069	0.0148048
748.148	0.0148789
748.226	0.0147255
748.304	0.0146596
748.382	0.0146670
748.460	0.0147672
748.538	0.0146022
748.616	0.0146124
748.694	0.0146056
748.773	0.0146968
748.851	0.0145385
748.929	0.0146217
749.007	0.0145183
749.085	0.0144916
749.163	0.0145305
749.241	0.0146078
749.319	0.0144735
749.398	0.0144441
749.476	0.0145037
749.554	0.0144714
749.632	0.0143052
749.710	0.0145287
749.788	0.0143970
749.866	0.0144244
749.944	0.0144754
750.023	0.0144724
750.101	0.0145251
750.179	0.0146581
750.257	0.0147343
750.335	0.0147149
750.413	0.0147177
750.491	0.0147856
750.569	0.0149229
750.648	0.0148129
750.726	0.0149550
750.804	0.0150083
750.882	0.0149992
750.960	0.0149966
751.038	0.0150807
751.116	0.0151050
751.194	0.0151387
751.273	0.0152022
751.351	0.0151899
751.429	0.0152097
751.507	0.0151824
751.585	0.0153288
751.663	0.0152068
751.741	0.0152227
751.819	0.0153155
751.898	0.0151734
751.976	0.0151796
752.054	0.0152448
752.132	0.0152880
752.210	0.0152129
752.288	0.0152641
752.366	0.0151595
752.444	0.0152523
752.523	0.0152571
752.601	0.0151582
752.679	0.0151052
752.757	0.0152811
752.835	0.0152159
752.913	0.0151809
752.991	0.0151035
753.069	0.0150130
753.148	0.0151032
753.226	0.0151500
753.304	0.0151635
753.382	0.0151102
753.460	0.0151042
753.538	0.0150320
753.616	0.0150048
753.694	0.0149604
753.773	0.0149390
753.851	0.0149126
753.929	0.0149179
754.007	0.0148176
754.085	0.0149338
754.163	0.0147343
754.241	0.0147284
754.319	0.0147007
754.398	0.0146830
754.476	0.0146621
754.554	0.0146537
754.632	0.0146761
754.710	0.0146246
754.788	0.0144614
754.866	0.0146533
754.944	0.0145940
755.023	0.0145758
755.101	0.0146011
755.179	0.0147063
755.257	0.0147070
755.335	0.0146851
755.413	0.0147301
755.491	0.0147129
755.569	0.0148298
755.648	0.0146944
755.726	0.0148674
755.804	0.0147009
755.882	0.0148608
755.960	0.0148438
756.038	0.0148198
756.116	0.0147908
756.194	0.0148004
756.273	0.0148326
756.351	0.0148540
756.429	0.0146919
756.507	0.0146658
756.585	0.0146733
756.663	0.0148837
756.741	0.0148456
756.819	0.0146519
756.898	0.0147806
756.976	0.0146963
757.054	0.0148386
757.132	0.0148923
757.210	0.0148933
757.288	0.0148438
757.366	0.0149511
757.444	0.0149654
757.523	0.0149213
757.601	0.0148666
757.679	0.0150446
757.757	0.0151511
757.835	0.0150024
757.913	0.0149919
757.991	0.0151070
758.069	0.0150446
758.148	0.0150559
758.226	0.0150405
758.304	0.0149136
758.382	0.0150581
758.460	0.0149530
758.538	0.0150767
758.616	0.0149975
758.694	0.0149826
758.773	0.0150113
758.851	0.0149252
758.929	0.0149763
759.007	0.0149490
759.085	0.0150437
759.163	0.0149866
759.241	0.0149296
759.319	0.0149446
759.398	0.0150532
759.476	0.0150282
759.554	0.0149379
759.632	0.0149139
759.710	0.0149088
759.788	0.0149857
759.866	0.0150332
759.944	0.0149131
760.023	0.0148251
760.101	0.0146853
760.179	0.0147851
760.257	0.0146590
760.335	0.0147591
760.413	0.0147197
760.491	0.0147883
760.569	0.0148139
760.648	0.0147272
760.726	0.0147898
760.804	0.0148990
760.882	0.0148933
760.960	0.0148483
761.038	0.0147874
761.116	0.0147562
761.194	0.0148219
761.273	0.0148293
761.351	0.0150191
761.429	0.0149503
761.507	0.0148898
761.585	0.0148151
761.663	0.0148811
761.741	0.0147733
761.819	0.0149911
761.898	0.0148592
761.976	0.0148009
762.054	0.0148470
762.132	0.0147826
762.210	0.0147526
762.288	0.0146570
762.366	0.0148360
762.444	0.0147512
762.523	0.0147993
762.601	0.0148237
762.679	0.0147956
762.757	0.0147737
762.835	0.0149199
762.913	0.0147629
762.991	0.0149226
763.069	0.0149815
763.148	0.0148919
763.226	0.0149212
763.304	0.0149188
763.382	0.0148092
763.460	0.0149316
763.538	0.0148501
763.616	0.0149410
763.694	0.0150350
763.773	0.0149546
763.851	0.0148564
763.929	0.0150143
764.007	0.0149783
764.085	0.0150798
764.163	0.0150655
764.241	0.0150497
764.319	0.0149093
764.398	0.0150835
764.476	0.0150762
764.554	0.0149795
764.632	0.0150800
764.710	0.0149734
764.788	0.0149299
764.866	0.0149285
764.944	0.0148781
765.023	0.0150851
765.101	0.0150613
765.179	0.0148916
765.257	0.0149866
765.335	0.0150005
765.413	0.0150987
765.491	0.0151134
765.569	0.0151184
765.648	0.0150632
765.726	0.0150944
765.804	0.0151698
765.882	0.0152316
765.960	0.0151604
766.038	0.0152705
766.116	0.0153243
766.194	0.0153004
766.273	0.0153439
766.351	0.0152395
766.429	0.0152837
766.507	0.0154679
766.585	0.0153365
766.663	0.0154360
766.741	0.0152568
766.819	0.0152654
766.898	0.0152227
766.976	0.0150991
767.054	0.0152225
767.132	0.0151716
767.210	0.0150200
767.288	0.0149965
767.366	0.0150148
767.444	0.0150600
767.523	0.0150410
767.601	0.0149788
767.679	0.0150851
767.757	0.0148917
767.835	0.0147662
767.913	0.0148553
767.991	0.0147161
768.069	0.0147367
768.148	0.0147323
768.226	0.0148077
768.304	0.0147015
768.382	0.0147693
768.460	0.0146790
768.538	0.0148089
768.616	0.0147550
768.694	0.0147213
768.773	0.0149737
768.851	0.0148611
768.929	0.0146973
769.007	0.0148909
769.085	0.0149097
769.163	0.0149427
769.241	0.0148951
769.319	0.0147790
769.398	0.0148605
769.476	0.0147900
769.554	0.0147709
769.632	0.0149359
769.710	0.0148529
769.788	0.0147926
769.866	0.0148226
769.944	0.0147928
770.023	0.0149073
770.101	0.0148067
770.179	0.0148350
770.257	0.0148990
770.335	0.0149091
770.413	0.0149439
770.491	0.0149102
770.569	0.0149728
770.648	0.0150152
770.726	0.0150063
770.804	0.0149636
770.882	0.0149641
770.960	0.0150148
771.038	0.0149444
771.116	0.0149060
771.194	0.0148404
771.273	0.0148308
771.351	0.0148178
771.429	0.0148801
771.507	0.0147465
771.585	0.0147617
771.663	0.0147466
771.741	0.0146761
771.819	0.0146093
771.898	0.0145847
771.976	0.0145688
772.054	0.0146043
772.132	0.0147865
772.210	0.0147224
772.288	0.0145641
772.366	0.0146345
772.444	0.0146004
772.523	0.0147463
772.601	0.0147294
772.679	0.0146620
772.757	0.0146851
772.835	0.0147825
772.913	0.0148031
772.991	0.0149345
773.069	0.0146936
773.148	0.0148746
773.226	0.0148631
773.304	0.0149654
773.382	0.0149692
773.460	0.0148569
773.538	0.0148174
773.616	0.0150426
773.694	0.0148934
773.773	0.0149944
773.851	0.0149207
773.929	0.0149310
774.007	0.0148602
774.085	0.0149158
774.163	0.0150504
774.241	0.0150169
774.319	0.0149036
774.398	0.0149865
774.476	0.0150007
774.554	0.0149368
774.632	0.0150636
774.710	0.0151521
774.788	0.0150137
774.866	0.0150537
774.944	0.0152564
775.023	0.0152781
775.101	0.0152056
775.179	0.0152463
775.257	0.0152077
775.335	0.0152711
775.413	0.0154351
775.491	0.0153406
775.569	0.0151515
775.648	0.0152135
775.726	0.0154964
775.804	0.0152890
775.882	0.0151571
775.960	0.0151879
776.038	0.0150980
776.116	0.0151385
776.194	0.0151203
776.273	0.0150879
776.351	0.0150641
776.429	0.0150263
776.507	0.0149309
776.585	0.0150613
776.663	0.0148313
776.741	0.0148792
776.819	0.0148364
776.898	0.0148885
776.976	0.0150031
777.054	0.0149526
777.132	0.0149898
777.210	0.0148786
777.288	0.0147533
777.366	0.0148213
777.444	0.0148869
777.523	0.0148038
777.601	0.0147543
777.679	0.0148219
777.757	0.0148125
777.835	0.0148615
777.913	0.0149486
777.991	0.0148371
778.069	0.0148752
778.148	0.0148003
778.226	0.0148433
778.304	0.0148624
778.382	0.0147885
778.460	0.0149666
778.538	0.0147485
778.616	0.0147488
778.694	0.0147343
778.773	0.0147267
778.851	0.0146711
778.929	0.0147028
779.007	0.0146336
779.085	0.0148988
779.163	0.0147158
779.241	0.0146568
779.319	0.0147446
779.398	0.0146798
779.476	0.0149694
779.554	0.0148735
779.632	0.0147980
779.710	0.0150546
779.788	0.0151054
779.866	0.0149725
779.944	0.0152084
780.023	0.0151886
780.101	0.0153922
780.179	0.0152026
780.257	0.0152730
780.335	0.0153333
780.413	0.0155354
780.491	0.0153274
780.569	0.0151926
780.648	0.0153225
780.726	0.0152902
780.804	0.0152335
780.882	0.0152210
780.960	0.0152037
781.038	0.0152514
781.116	0.0151698
781.194	0.0151178
781.273	0.0150808
781.351	0.0151233
781.429	0.0152466
781.507	0.0151165
781.585	0.0150941
781.663	0.0150885
781.741	0.0149465
781.819	0.0149783
781.898	0.0150315
781.976	0.0149582
782.054	0.0148875
782.132	0.0148432
782.210	0.0148363
782.288	0.0148588
782.366	0.0150007
782.444	0.0148752
782.523	0.0147136
782.601	0.0149030
782.679	0.0147325
782.757	0.0147550
782.835	0.0147270
782.913	0.0148164
782.991	0.0146544
783.069	0.0145677
783.148	0.0145206
783.226	0.0145870
783.304	0.0146972
783.382	0.0146244
783.460	0.0146268
783.538	0.0146083
783.616	0.0146496
783.694	0.0145842
783.773	0.0145750
783.851	0.0146599
783.929	0.0145882
784.007	0.0146639
784.085	0.0147459
784.163	0.0147224
784.241	0.0147543
784.319	0.0147673
784.398	0.0147533
784.476	0.0147720
784.554	0.0149995
784.632	0.0149454
784.710	0.0148697
784.788	0.0149580
784.866	0.0150246
784.944	0.0151845
785.023	0.0151717
785.101	0.0151719
785.179	0.0152348
785.257	0.0151893
785.335	0.0151360
785.413	0.0151881
785.491	0.0152908
785.569	0.0152628
785.648	0.0153360
785.726	0.0152327
785.804	0.0152474
785.882	0.0153526
785.960	0.0154298
786.038	0.0151444
786.116	0.0153182
786.194	0.0152046
786.273	0.0152837
786.351	0.0152164
786.429	0.0150591
786.507	0.0150962
786.585	0.0151260
786.663	0.0149984
786.741	0.0150134
786.819	0.0150223
786.898	0.0150413
786.976	0.0151664
787.054	0.0150143
787.132	0.0149765
787.210	0.0149494
787.288	0.0149206
787.366	0.0149276
787.444	0.0146519
787.523	0.0146082
787.601	0.0147509
787.679	0.0147852
787.757	0.0147383
787.835	0.0148302
787.913	0.0146032
787.991	0.0146655
788.069	0.0146657
788.148	0.0146685
788.226	0.0146952
788.304	0.0146590
788.382	0.0145733
788.460	0.0146055
788.538	0.0145391
788.616	0.0147176
788.694	0.0147554
788.773	0.0146986
788.851	0.0146408
788.929	0.0146254
789.007	0.0144935
789.085	0.0145712
789.163	0.0144853
789.241	0.0147115
789.319	0.0145795
789.398	0.0144861
789.476	0.0146414
789.554	0.0143154
789.632	0.0143840
789.710	0.0145673
789.788	0.0146280
789.866	0.0146468
789.944	0.0145605
790.023	0.0145213
790.101	0.0147102
790.179	0.0146497
790.257	0.0146937
790.335	0.0147414
790.413	0.0147990
790.491	0.0148391
790.569	0.0149020
790.648	0.0149688
790.726	0.0150514
790.804	0.0151061
790.882	0.0148935
790.960	0.0151051
791.038	0.0152583
791.116	0.0150531
791.194	0.0151695
791.273	0.0152322
791.351	0.0153466
791.429	0.0151705
791.507	0.0152589
791.585	0.0151550
791.663	0.0151189
791.741	0.0151795
791.819	0.0152505
791.898	0.0151783
791.976	0.0151720
792.054	0.0151949
792.132	0.0150998
792.210	0.0151254
792.288	0.0151311
792.366	0.0150330
792.444	0.0150052
792.523	0.0150468
792.601	0.0150634
792.679	0.0149827
792.757	0.0149927
792.835	0.0148705
792.913	0.0149516
792.991	0.0148025
793.069	0.0149401
793.148	0.0150536
793.226	0.0149655
793.304	0.0148161
793.382	0.0149501
793.460	0.0148689
793.538	0.0147687
793.616	0.0148276
793.694	0.0149834
793.773	0.0148291
793.851	0.0148056
793.929	0.0148825
794.007	0.0148280
794.085	0.0148322
794.163	0.0149358
794.241	0.0149881
794.319	0.0149554
794.398	0.0149686
794.476	0.0150371
794.554	0.0150025
794.632	0.0150031
794.710	0.0149299
794.788	0.0150808
794.866	0.0151139
794.944	0.0151327
795.023	0.0151381
795.101	0.0151579
795.179	0.0151500
795.257	0.0150976
795.335	0.0151894
795.413	0.0151923
795.491	0.0150238
795.569	0.0151666
795.648	0.0151221
795.726	0.0151490
795.804	0.0150406
795.882	0.0150644
795.960	0.0150974
796.038	0.0151408
796.116	0.0152256
796.194	0.0150751
796.273	0.0150479
796.351	0.0151329
796.429	0.0150607
796.507	0.0150954
796.585	0.0150172
796.663	0.0148771
796.741	0.0148751
796.819	0.0149386
796.898	0.0148615
796.976	0.0147958
797.054	0.0148899
797.132	0.0148624
797.210	0.0146759
797.288	0.0147072
797.366	0.0146851
797.444	0.0146526
797.523	0.0145824
797.601	0.0145925
797.679	0.0146207
797.757	0.0146841
797.835	0.0145521
797.913	0.0147660
797.991	0.0147082
798.069	0.0146867
798.148	0.0145800
798.226	0.0147094
798.304	0.0146140
798.382	0.0146365
798.460	0.0147749
798.538	0.0149046
798.616	0.0148079
798.694	0.0149172
798.773	0.0148034
798.851	0.0147833
798.929	0.0148128
799.007	0.0148116
799.085	0.0149067
799.163	0.0148309
799.241	0.0150400
799.319	0.0149792
799.398	0.0150022
799.476	0.0149847
799.554	0.0150814
799.632	0.0149534
799.710	0.0150677
799.788	0.0150049
799.866	0.0150513
799.944	0.0151601
800.023	0.0150422
800.101	0.0149671
800.179	0.0150711
800.257	0.0150945
800.335	0.0151181
800.413	0.0150056
800.491	0.0149851
800.569	0.0151588
800.648	0.0149010
800.726	0.0149012
800.804	0.0150381
800.882	0.0149906
800.960	0.0148839
801.038	0.0150375
801.116	0.0150466
801.194	0.0150285
801.273	0.0150491
801.351	0.0149656
801.429	0.0150273
801.507	0.0149702
801.585	0.0151093
801.663	0.0149446
801.741	0.0149207
801.819	0.0150222
801.898	0.0150197
801.976	0.0149896
802.054	0.0148699
802.132	0.0149760
802.210	0.0149364
802.288	0.0149503
802.366	0.0149731
802.444	0.0149122
802.523	0.0149406
802.601	0.0148335
802.679	0.0148586
802.757	0.0149474
802.835	0.0149855
802.913	0.0150397
802.991	0.0148855
803.069	0.0150726
803.148	0.0151003
803.226	0.0149924
803.304	0.0150217
803.382	0.0150726
803.460	0.0150981
803.538	0.0150124
803.616	0.0151661
803.694	0.0150687
803.773	0.0150423
803.851	0.0150932
803.929	0.0151717
804.007	0.0150642
804.085	0.0151029
804.163	0.0152708
804.241	0.0152511
804.319	0.0151913
804.398	0.0151418
804.476	0.0151015
804.554	0.0151111
804.632	0.0151906
804.710	0.0152011
804.788	0.0150596
804.866	0.0150243
804.944	0.0149908
805.023	0.0150115
805.101	0.0150671
805.179	0.0149548
805.257	0.0148821
805.335	0.0148673
805.413	0.0150534
805.491	0.0148130
805.569	0.0149941
805.648	0.0148210
805.726	0.0149501
805.804	0.0149109
805.882	0.0148910
805.960	0.0148951
806.038	0.0149062
806.116	0.0148057
806.194	0.0149270
806.273	0.0146964
806.351	0.0146175
806.429	0.0146754
806.507	0.0146492
806.585	0.0146722
806.663	0.0147037
806.741	0.0147376
806.819	0.0147130
806.898	0.0146402
806.976	0.0147115
807.054	0.0147289
807.132	0.0149236
807.210	0.0148915
807.288	0.0147458
807.366	0.0149447
807.444	0.0150094
807.523	0.0148637
807.601	0.0149567
807.679	0.0149096
807.757	0.0149763
807.835	0.0147684
807.913	0.0148326
807.991	0.0148285
808.069	0.0148793
808.148	0.0147512
808.226	0.0148882
808.304	0.0147152
808.382	0.0150582
808.460	0.0149807
808.538	0.0149673
808.616	0.0150616
808.694	0.0150447
808.773	0.0152127
808.851	0.0152696
808.929	0.0152685
809.007	0.0152119
809.085	0.0152162
809.163	0.0152747
809.241	0.0153596
809.319	0.0152470
809.398	0.0152349
809.476	0.0151761
809.554	0.0152359
809.632	0.0151744
809.710	0.0151789
809.788	0.0150660
809.866	0.0151052
809.944	0.0150793
810.023	0.0150262
810.101	0.0151086
810.179	0.0151881
810.257	0.0151634
810.335	0.0152165
810.413	0.0150887
810.491	0.0150622
810.569	0.0150539
810.648	0.0149913
810.726	0.0150883
810.804	0.0150205
810.882	0.0150868
810.960	0.0151147
811.038	0.0150715
811.116	0.0151373
811.194	0.0149780
811.273	0.0149809
811.351	0.0149977
811.429	0.0150296
811.507	0.0151511
811.585	0.0149119
811.663	0.0149123
811.741	0.0148103
811.819	0.0149434
811.898	0.0147495
811.976	0.0147951
812.054	0.0145784
812.132	0.0146927
812.210	0.0146254
812.288	0.0143576
812.366	0.0145520
812.444	0.0146118
812.523	0.0145512
812.601	0.0146452
812.679	0.0145749
812.757	0.0146377
812.835	0.0147084
812.913	0.0147038
812.991	0.0147787
813.069	0.0148295
813.148	0.0148593
813.226	0.0148796
813.304	0.0147636
813.382	0.0147580
813.460	0.0148271
813.538	0.0145812
813.616	0.0146365
813.694	0.0147103
813.773	0.0146202
813.851	0.0145695
813.929	0.0146555
814.007	0.0147504
814.085	0.0147694
814.163	0.0147431
814.241	0.0147578
814.319	0.0147146
814.398	0.0148937
814.476	0.0147685
814.554	0.0149582
814.632	0.0149537
814.710	0.0148635
814.788	0.0147756
814.866	0.0148132
814.944	0.0148495
815.023	0.0148281
815.101	0.0149643
815.179	0.0149325
815.257	0.0148784
815.335	0.0149029
815.413	0.0151015
815.491	0.0150365
815.569	0.0151873
815.648	0.0151485
815.726	0.0152311
815.804	0.0152679
815.882	0.0152214
815.960	0.0151711
816.038	0.0151025
816.116	0.0152637
816.194	0.0152288
816.273	0.0152576
816.351	0.0151294
816.429	0.0151342
816.507	0.0150561
816.585	0.0149505
816.663	0.0148698
816.741	0.0150204
816.819	0.0148934
816.898	0.0148290
816.976	0.0148850
817.054	0.0147758
817.132	0.0148913
817.210	0.0148651
817.288	0.0147917
817.366	0.0147012
817.444	0.0148898
817.523	0.0149085
817.601	0.0148515
817.679	0.0148705
817.757	0.0149903
817.835	0.0148391
817.913	0.0147106
817.991	0.0147939
818.069	0.0148484
818.148	0.0149149
818.226	0.0147118
818.304	0.0147264
818.382	0.0147796
818.460	0.0147439
818.538	0.0148547
818.616	0.0148558
818.694	0.0150688
818.773	0.0150163
818.851	0.0150591
818.929	0.0151372
819.007	0.0152109
819.085	0.0152908
819.163	0.0152059
819.241	0.0152428
819.319	0.0151922
819.398	0.0150200
819.476	0.0148720
819.554	0.0148854
819.632	0.0148949
819.710	0.0147768
819.788	0.0147200
819.866	0.0147262
819.944	0.0146943
820.023	0.0147778
820.101	0.0148207
820.179	0.0147569
820.257	0.0147839
820.335	0.0149757
820.413	0.0148319
820.491	0.0148392
820.569	0.0149884
820.648	0.0149477
820.726	0.0148057
820.804	0.0147704
820.882	0.0148473
820.960	0.0147795
821.038	0.0148432
821.116	0.0151353
821.194	0.0149172
821.273	0.0150745
821.351	0.0153147
821.429	0.0152994
821.507	0.0153391
821.585	0.0154617
821.663	0.0156312
821.741	0.0156052
821.819	0.0156196
821.898	0.0156958
821.976	0.0156371
822.054	0.0155555
822.132	0.0156932
822.210	0.0155058
822.288	0.0152875
822.366	0.0154002
822.444	0.0152748
822.523	0.0153020
822.601	0.0149975
822.679	0.0150943
822.757	0.0151340
822.835	0.0149241
822.913	0.0148479
822.991	0.0148257
823.069	0.0147649
823.148	0.0145492
823.226	0.0147207
823.304	0.0146011
823.382	0.0145944
823.460	0.0145774
823.538	0.0146590
823.616	0.0146791
823.694	0.0147183
823.773	0.0147450
823.851	0.0148582
823.929	0.0149730
824.007	0.0148645
824.085	0.0149899
824.163	0.0150217
824.241	0.0150764
824.319	0.0153967
824.398	0.0154742
824.476	0.0155730
824.554	0.0155620
824.632	0.0154839
824.710	0.0155377
824.788	0.0155251
824.866	0.0154881
824.944	0.0154771
825.023	0.0152383
825.101	0.0151934
825.179	0.0151257
825.257	0.0150989
825.335	0.0148318
825.413	0.0146659
825.491	0.0145733
825.569	0.0145840
825.648	0.0145687
825.726	0.0144241
825.804	0.0143378
825.882	0.0142955
825.960	0.0143121
826.038	0.0143311
826.116	0.0144241
826.194	0.0144354
826.273	0.0145755
826.351	0.0146088
826.429	0.0147167
826.507	0.0147349
826.585	0.0147358
826.663	0.0148563
826.741	0.0147988
826.819	0.0149841
826.898	0.0148849
826.976	0.0149949
827.054	0.0150427
827.132	0.0149921
827.210	0.0151150
827.288	0.0150494
827.366	0.0149735
827.444	0.0150241
827.523	0.0149186
827.601	0.0150821
827.679	0.0148637
827.757	0.0150369
827.835	0.0150406
827.913	0.0150157
827.991	0.0152539
828.069	0.0151409
828.148	0.0150957
828.226	0.0152085
828.304	0.0151862
828.382	0.0150648
828.460	0.0151877
828.538	0.0150774
828.616	0.0151781
828.694	0.0152621
828.773	0.0151221
828.851	0.0150690
828.929	0.0149529
829.007	0.0151929
829.085	0.0149244
829.163	0.0150593
829.241	0.0151383
829.319	0.0150881
829.398	0.0152523
829.476	0.0150747
829.554	0.0149812
829.632	0.0149249
829.710	0.0148770
829.788	0.0150925
829.866	0.0148223
829.944	0.0145720
830.023	0.0146369
830.101	0.0146188
830.179	0.0144292
830.257	0.0145402
830.335	0.0144740
830.413	0.0145943
830.491	0.0145886
830.569	0.0145667
830.648	0.0146893
830.726	0.0148247
830.804	0.0147738
830.882	0.0148232
830.960	0.0150480
831.038	0.0151853
831.116	0.0153823
831.194	0.0155762
831.273	0.0154963
831.351	0.0156029
831.429	0.0158040
831.507	0.0156997
831.585	0.0157874
831.663	0.0157055
831.741	0.0156752
831.819	0.0156412
831.898	0.0156441
831.976	0.0154251
832.054	0.0154011
832.132	0.0151451
832.210	0.0149686
832.288	0.0148087
832.366	0.0146701
832.444	0.0145863
832.523	0.0143710
832.601	0.0143290
832.679	0.0141917
832.757	0.0142004
832.835	0.0141482
832.913	0.0142416
832.991	0.0142050
833.069	0.0143448
833.148	0.0144117
833.226	0.0145441
833.304	0.0145674
833.382	0.0147785
833.460	0.0148116
833.538	0.0148633
833.616	0.0149279
833.694	0.0149573
833.773	0.0151917
833.851	0.0151758
833.929	0.0152336
834.007	0.0151816
834.085	0.0155271
834.163	0.0155401
834.241	0.0154543
834.319	0.0155740
834.398	0.0157612
834.476	0.0156291
834.554	0.0156853
834.632	0.0157696
834.710	0.0157326
834.788	0.0157957
834.866	0.0156268
834.944	0.0155057
835.023	0.0155002
835.101	0.0154097
835.179	0.0154330
835.257	0.0150555
835.335	0.0150016
835.413	0.0149451
835.491	0.0146214
835.569	0.0144966
835.648	0.0146323
835.726	0.0145006
835.804	0.0142546
835.882	0.0142277
835.960	0.0141344
836.038	0.0141209
836.116	0.0141453
836.194	0.0140527
836.273	0.0141698
836.351	0.0142226
836.429	0.0141964
836.507	0.0141960
836.585	0.0145588
836.663	0.0145831
836.741	0.0145671
836.819	0.0147344
836.898	0.0148384
836.976	0.0150223
837.054	0.0148831
837.132	0.0152847
837.210	0.0152560
837.288	0.0152434
837.366	0.0153183
837.444	0.0153030
837.523	0.0154858
837.601	0.0155462
837.679	0.0155836
837.757	0.0155974
837.835	0.0157537
837.913	0.0158477
837.991	0.0158389
838.069	0.0157505
838.148	0.0157378
838.226	0.0157886
838.304	0.0156182
838.382	0.0155070
838.460	0.0154288
838.538	0.0154209
838.616	0.0152585
838.694	0.0150885
838.773	0.0148383
838.851	0.0146794
838.929	0.0146003
839.007	0.0145298
839.085	0.0144310
839.163	0.0142741
839.241	0.0141620
839.319	0.0140832
839.398	0.0140292
839.476	0.0140963
839.554	0.0139867
839.632	0.0139386
839.710	0.0139420
839.788	0.0138533
839.866	0.0140952
839.944	0.0140353
840.023	0.0141089
840.101	0.0142348
840.179	0.0143302
840.257	0.0144175
840.335	0.0145103
840.413	0.0145654
840.491	0.0146645
840.569	0.0148883
840.648	0.0149856
840.726	0.0150760
840.804	0.0150947
840.882	0.0152100
840.960	0.0153721
841.038	0.0153327
841.116	0.0155752
841.194	0.0155476
841.273	0.0155693
841.351	0.0157040
841.429	0.0157964
841.507	0.0158331
841.585	0.0158852
841.663	0.0159239
841.741	0.0158237
841.819	0.0157088
841.898	0.0156449
841.976	0.0156065
842.054	0.0156088
842.132	0.0155313
842.210	0.0154264
842.288	0.0151674
842.366	0.0150009
842.444	0.0148442
842.523	0.0147365
842.601	0.0145780
842.679	0.0143398
842.757	0.0142950
842.835	0.0140627
842.913	0.0138879
842.991	0.0139052
843.069	0.0137096
843.148	0.0137550
843.226	0.0136927
843.304	0.0137921
843.382	0.0136613
843.460	0.0138040
843.538	0.0139658
843.616	0.0139457
843.694	0.0139858
843.773	0.0142747
843.851	0.0143421
843.929	0.0144818
844.007	0.0147144
844.085	0.0148392
844.163	0.0150744
844.241	0.0151670
844.319	0.0154068
844.398	0.0153030
844.476	0.0156333
844.554	0.0156419
844.632	0.0159370
844.710	0.0160146
844.788	0.0161830
844.866	0.0161446
844.944	0.0163421
845.023	0.0164122
845.101	0.0164432
845.179	0.0162347
845.257	0.0162930
845.335	0.0161989
845.413	0.0158828
845.491	0.0160149
845.569	0.0157870
845.648	0.0155811
845.726	0.0156350
845.804	0.0154163
845.882	0.0152623
845.960	0.0150148
846.038	0.0147134
846.116	0.0147456
846.194	0.0147526
846.273	0.0144926
846.351	0.0143427
846.429	0.0141822
846.507	0.0141148
846.585	0.0138469
846.663	0.0139377
846.741	0.0139275
846.819	0.0139657
846.898	0.0138895
846.976	0.0137627
847.054	0.0137861
847.132	0.0140549
847.210	0.0141082
847.288	0.0140801
847.366	0.0141948
847.444	0.0143888
847.523	0.0143345
847.601	0.0145676
847.679	0.0146509
847.757	0.0146273
847.835	0.0148582
847.913	0.0148173
847.991	0.0150277
848.069	0.0151038
848.148	0.0152750
848.226	0.0151995
848.304	0.0153006
848.382	0.0155791
848.460	0.0154372
848.538	0.0154790
848.616	0.0157627
848.694	0.0159013
848.773	0.0157899
848.851	0.0157383
848.929	0.0158767
849.007	0.0158541
849.085	0.0157870
849.163	0.0160238
849.241	0.0157555
849.319	0.0156757
849.398	0.0155417
849.476	0.0154125
849.554	0.0152811
849.632	0.0150819
849.710	0.0150470
849.788	0.0148243
849.866	0.0145985
849.944	0.0144642
850.023	0.0144142
850.101	0.0143696
850.179	0.0139281
850.257	0.0140774
850.335	0.0141435
850.413	0.0140879
850.491	0.0139141
850.569	0.0138968
850.648	0.0138750
850.726	0.0139513
850.804	0.0140050
850.882	0.0140221
850.960	0.0139685
851.038	0.0139571
851.116	0.0140321
851.194	0.0141069
851.273	0.0142504
851.351	0.0143211
851.429	0.0145238
851.507	0.0143673
851.585	0.0146702
851.663	0.0147404
851.741	0.0149388
851.819	0.0149834
851.898	0.0151734
851.976	0.0151995
852.054	0.0151891
852.132	0.0153304
852.210	0.0153817
852.288	0.0154475
852.366	0.0155756
852.444	0.0154620
852.523	0.0155926
852.601	0.0157144
852.679	0.0157629
852.757	0.0155848
852.835	0.0155052
852.913	0.0157333
852.991	0.0155904
853.069	0.0156592
853.148	0.0154644
853.226	0.0154860
853.304	0.0153745
853.382	0.0152751
853.460	0.0151654
853.538	0.0151039
853.616	0.0150368
853.694	0.0146559
853.773	0.0146542
853.851	0.0147024
853.929	0.0146806
854.007	0.0144022
854.085	0.0144614
854.163	0.0142984
854.241	0.0143353
854.319	0.0143188
854.398	0.0142764
854.476	0.0141934
854.554	0.0142158
854.632	0.0141240
854.710	0.0144021
854.788	0.0143551
854.866	0.0143965
854.944	0.0142938
855.023	0.0145389
855.101	0.0143212
855.179	0.0146104
855.257	0.0147736
855.335	0.0147623
855.413	0.0149355
855.491	0.0149975
855.569	0.0150680
855.648	0.0152615
855.726	0.0151630
855.804	0.0152451
855.882	0.0151904
855.960	0.0153682
856.038	0.0152253
856.116	0.0152393
856.194	0.0152924
856.273	0.0152502
856.351	0.0152242
856.429	0.0152130
856.507	0.0152051
856.585	0.0152753
856.663	0.0151695
856.741	0.0151411
856.819	0.0151206
856.898	0.0151749
856.976	0.0151849
857.054	0.0151134
857.132	0.0152528
857.210	0.0149849
857.288	0.0151078
857.366	0.0150572
857.444	0.0150587
857.523	0.0149934
857.601	0.0150163
857.679	0.0150603
857.757	0.0149336
857.835	0.0148889
857.913	0.0148625
857.991	0.0147939
858.069	0.0147115
858.148	0.0148210
858.226	0.0147679
858.304	0.0146595
858.382	0.0147099
858.460	0.0147532
858.538	0.0146523
858.616	0.0145831
858.694	0.0145917
858.773	0.0147015
858.851	0.0146449
858.929	0.0147079
859.007	0.0147523
859.085	0.0146861
859.163	0.0145943
859.241	0.0147704
859.319	0.0147813
859.398	0.0147881
859.476	0.0147461
859.554	0.0147069
859.632	0.0148315
859.710	0.0150208
859.788	0.0148166
859.866	0.0148808
859.944	0.0150369
860.023	0.0149579
860.101	0.0149630
860.179	0.0149953
860.257	0.0150622
860.335	0.0150500
860.413	0.0151646
860.491	0.0152012
860.569	0.0150610
860.648	0.0150428
860.726	0.0151092
860.804	0.0150171
860.882	0.0150406
860.960	0.0151199
861.038	0.0149365
861.116	0.0150636
861.194	0.0150702
861.273	0.0149911
861.351	0.0148885
861.429	0.0149171
861.507	0.0148666
861.585	0.0148960
861.663	0.0148234
861.741	0.0148594
861.819	0.0147321
861.898	0.0146872
861.976	0.0147107
862.054	0.0147582
862.132	0.0147900
862.210	0.0147643
862.288	0.0147701
862.366	0.0148853
862.444	0.0147866
862.523	0.0149041
862.601	0.0149049
862.679	0.0148540
862.757	0.0148286
862.835	0.0149519
862.913	0.0149357
862.991	0.0148661
863.069	0.0150495
863.148	0.0149876
863.226	0.0149842
863.304	0.0149230
863.382	0.0149168
863.460	0.0150739
863.538	0.0149966
863.616	0.0150772
863.694	0.0150168
863.773	0.0152220
863.851	0.0151929
863.929	0.0152229
864.007	0.0152481
864.085	0.0153136
864.163	0.0152684
864.241	0.0153926
864.319	0.0154328
864.398	0.0153957
864.476	0.0153172
864.554	0.0154365
864.632	0.0152398
864.710	0.0153445
864.788	0.0154032
864.866	0.0152732
864.944	0.0152558
865.023	0.0150121
865.101	0.0151708
865.179	0.0150851
865.257	0.0149572
865.335	0.0149192
865.413	0.0148724
865.491	0.0148213
865.569	0.0147887
865.648	0.0148367
865.726	0.0147353
865.804	0.0148504
865.882	0.0146252
865.960	0.0146104
866.038	0.0146567
866.116	0.0145460
866.194	0.0147199
866.273	0.0146602
866.351	0.0145727
866.429	0.0146724
866.507	0.0146478
866.585	0.0147157
866.663	0.0146865
866.741	0.0146553
866.819	0.0146989
866.898	0.0146496
866.976	0.0147028
867.054	0.0147934
867.132	0.0146838
867.210	0.0148762
867.288	0.0148933
867.366	0.0148032
867.444	0.0148277
867.523	0.0148883
867.601	0.0147940
867.679	0.0148547
867.757	0.0148985
867.835	0.0149358
867.913	0.0148663
867.991	0.0149468
868.069	0.0148917
868.148	0.0149712
868.226	0.0150273
868.304	0.0150266
868.382	0.0149399
868.460	0.0149746
868.538	0.0148720
868.616	0.0149831
868.694	0.0150397
868.773	0.0148593
868.851	0.0150300
868.929	0.0149456
869.007	0.0149438
869.085	0.0149015
869.163	0.0148721
869.241	0.0149029
869.319	0.0148310
869.398	0.0148094
869.476	0.0146830
869.554	0.0149192
869.632	0.0148404
869.710	0.0148199
869.788	0.0147952
869.866	0.0149357
869.944	0.0149461
870.023	0.0148783
870.101	0.0148473
870.179	0.0152107
870.257	0.0151019
870.335	0.0150644
870.413	0.0150478
870.491	0.0149341
870.569	0.0151246
870.648	0.0150484
870.726	0.0150002
870.804	0.0150439
870.882	0.0151299
870.960	0.0152130
871.038	0.0151072
871.116	0.0151491
871.194	0.0152519
871.273	0.0152879
871.351	0.0150877
871.429	0.0152621
871.507	0.0152020
871.585	0.0152009
871.663	0.0152065
871.741	0.0152399
871.819	0.0151748
871.898	0.0151276
871.976	0.0151980
872.054	0.0153147
872.132	0.0151353
872.210	0.0150522
872.288	0.0150291
872.366	0.0149852
872.444	0.0149086
872.523	0.0149919
872.601	0.0149607
872.679	0.0148126
872.757	0.0147889
872.835	0.0149162
872.913	0.0149210
872.991	0.0149453
873.069	0.0149457
873.148	0.0149651
873.226	0.0150205
873.304	0.0149924
873.382	0.0150794
873.460	0.0152158
873.538	0.0152912
873.616	0.0151873
873.694	0.0152845
873.773	0.0150960
873.851	0.0152557
873.929	0.0150005
874.007	0.0150271
874.085	0.0151439
874.163	0.0150713
874.241	0.0149490
874.319	0.0151594
874.398	0.0150303
874.476	0.0150993
874.554	0.0149190
874.632	0.0150219
874.710	0.0150621
874.788	0.0151233
874.866	0.0150530
874.944	0.0151016
875.023	0.0150599
875.101	0.0152261
875.179	0.0150914
875.257	0.0149940
875.335	0.0150130
875.413	0.0150928
875.491	0.0149560
875.569	0.0150756
875.648	0.0150649
875.726	0.0148555
875.804	0.0148254
875.882	0.0147739
875.960	0.0148594
876.038	0.0147624
876.116	0.0146774
876.194	0.0147344
876.273	0.0147266
876.351	0.0146703
876.429	0.0146490
876.507	0.0146585
876.585	0.0147065
876.663	0.0147617
876.741	0.0146954
876.819	0.0146539
876.898	0.0146641
876.976	0.0145866
877.054	0.0146082
877.132	0.0146607
877.210	0.0148466
877.288	0.0146719
877.366	0.0146442
877.444	0.0148014
877.523	0.0146645
877.601	0.0146321
877.679	0.0148100
877.757	0.0149586
877.835	0.0149345
877.913	0.0148919
877.991	0.0147854
878.069	0.0148733
878.148	0.0147134
878.226	0.0148136
878.304	0.0147447
878.382	0.0146922
878.460	0.0148273
878.538	0.0148643
878.616	0.0147871
878.694	0.0148927
878.773	0.0148284
878.851	0.0149049
878.929	0.0148474
879.007	0.0148353
879.085	0.0148443
879.163	0.0146650
879.241	0.0148995
879.319	0.0146733
879.398	0.0146950
879.476	0.0149316
879.554	0.0147530
879.632	0.0145811
879.710	0.0146656
879.788	0.0147888
879.866	0.0146644
879.944	0.0146922
880.023	0.0146671
880.101	0.0146724
880.179	0.0147249
880.257	0.0147307
880.335	0.0147176
880.413	0.0148029
880.491	0.0148516
880.569	0.0147582
880.648	0.0147523
880.726	0.0149592
880.804	0.0148253
880.882	0.0149177
880.960	0.0147878
881.038	0.0148571
881.116	0.0148770
881.194	0.0148999
881.273	0.0149757
881.351	0.0149774
881.429	0.0148370
881.507	0.0147130
881.585	0.0150537
881.663	0.0149245
881.741	0.0150730
881.819	0.0149136
881.898	0.0149969
881.976	0.0148774
882.054	0.0146803
882.132	0.0149851
882.210	0.0149489
882.288	0.0148764
882.366	0.0149076
882.444	0.0149802
882.523	0.0150341
882.601	0.0149063
882.679	0.0148058
882.757	0.0148495
882.835	0.0148474
882.913	0.0148959
882.991	0.0149059
883.069	0.0149873
883.148	0.0148582
883.226	0.0147813
883.304	0.0149632
883.382	0.0150395
883.460	0.0149488
883.538	0.0149565
883.616	0.0150404
883.694	0.0150704
883.773	0.0150697
883.851	0.0151444
883.929	0.0151535
884.007	0.0151191
884.085	0.0152916
884.163	0.0151933
884.241	0.0152925
884.319	0.0153465
884.398	0.0152202
884.476	0.0154373
884.554	0.0153516
884.632	0.0152214
884.710	0.0154173
884.788	0.0152852
884.866	0.0153184
884.944	0.0152116
885.023	0.0151879
885.101	0.0153538
885.179	0.0151994
885.257	0.0153162
885.335	0.0152565
885.413	0.0151324
885.491	0.0152637
885.569	0.0153378
885.648	0.0152090
885.726	0.0151791
885.804	0.0151685
885.882	0.0151376
885.960	0.0151360
886.038	0.0151527
886.116	0.0152943
886.194	0.0150126
886.273	0.0151022
886.351	0.0150423
886.429	0.0151028
886.507	0.0152136
886.585	0.0150565
886.663	0.0150750
886.741	0.0150067
886.819	0.0150613
886.898	0.0150376
886.976	0.0149234
887.054	0.0149496
887.132	0.0150489
887.210	0.0148878
887.288	0.0149658
887.366	0.0149963
887.444	0.0148939
887.523	0.0150114
887.601	0.0149162
887.679	0.0149435
887.757	0.0149030
887.835	0.0149950
887.913	0.0150145
887.991	0.0150314
888.069	0.0149928
888.148	0.0150096
888.226	0.0150381
888.304	0.0150035
888.382	0.0149977
888.460	0.0150508
888.538	0.0150918
888.616	0.0150057
888.694	0.0150914
888.773	0.0150857
888.851	0.0150516
888.929	0.0150024
889.007	0.0150580
889.085	0.0150296
889.163	0.0149040
889.241	0.0149220
889.319	0.0150181
889.398	0.0149882
889.476	0.0148458
889.554	0.0148126
889.632	0.0148370
889.710	0.0149194
889.788	0.0148169
889.866	0.0148048
889.944	0.0147548
890.023	0.0148213
890.101	0.0147388
890.179	0.0147179
890.257	0.0148397
890.335	0.0148109
890.413	0.0147169
890.491	0.0147408
890.569	0.0147639
890.648	0.0147298
890.726	0.0146461
890.804	0.0146287
890.882	0.0148313
890.960	0.0148623
891.038	0.0147380
891.116	0.0148198
891.194	0.0149509
891.273	0.0148155
891.351	0.0147766
891.429	0.0147526
891.507	0.0147512
891.585	0.0145340
891.663	0.0146986
891.741	0.0148901
891.819	0.0147845
891.898	0.0148155
891.976	0.0146758
892.054	0.0149248
892.132	0.0147272
892.210	0.0147559
892.288	0.0147782
892.366	0.0147408
892.444	0.0148967
892.523	0.0150953
892.601	0.0147792
892.679	0.0148900
892.757	0.0148926
892.835	0.0149661
892.913	0.0148499
892.991	0.0148363
893.069	0.0148636
893.148	0.0147917
893.226	0.0147890
893.304	0.0147404
893.382	0.0149406
893.460	0.0149315
893.538	0.0148121
893.616	0.0148244
893.694	0.0149893
893.773	0.0149825
893.851	0.0147829
893.929	0.0149326
894.007	0.0149470
894.085	0.0148988
894.163	0.0148817
894.241	0.0150556
894.319	0.0149438
894.398	0.0151322
894.476	0.0150610
894.554	0.0151681
894.632	0.0149928
894.710	0.0150458
894.788	0.0151305
894.866	0.0152902
894.944	0.0151440
895.023	0.0152050
895.101	0.0152775
895.179	0.0151051
895.257	0.0151611
895.335	0.0151516
895.413	0.0151955
895.491	0.0152435
895.569	0.0151134
895.648	0.0150899
895.726	0.0150841
895.804	0.0151388
895.882	0.0151144
895.960	0.0151440
896.038	0.0151350
896.116	0.0149805
896.194	0.0151470
896.273	0.0150755
896.351	0.0151304
896.429	0.0150510
896.507	0.0149446
896.585	0.0149799
896.663	0.0149290
896.741	0.0150746
896.819	0.0149322
896.898	0.0149159
896.976	0.0148375
897.054	0.0149174
897.132	0.0148301
897.210	0.0148518
897.288	0.0148496
897.366	0.0149239
897.444	0.0148113
897.523	0.0146101
897.601	0.0146339
897.679	0.0145871
897.757	0.0147540
897.835	0.0146960
897.913	0.0144904
897.991	0.0145003
898.069	0.0147241
898.148	0.0146996
898.226	0.0147351
898.304	0.0145767
898.382	0.0146580
898.460	0.0146618
898.538	0.0148606
898.616	0.0147088
898.694	0.0147512
898.773	0.0149435
898.851	0.0149706
898.929	0.0148825
899.007	0.0148740
899.085	0.0150554
899.163	0.0149779
899.241	0.0148646
899.319	0.0149647
899.398	0.0151994
899.476	0.0149796
899.554	0.0149937
899.632	0.0149940
899.710	0.0151549
899.788	0.0149323
899.866	0.0149790
899.944	0.0148949
900.023	0.0149312
900.101	0.0147353
900.179	0.0147784
900.257	0.0146737
900.335	0.0147363
900.413	0.0147423
900.491	0.0146460
900.569	0.0148489
900.648	0.0146654
900.726	0.0146582
900.804	0.0145834
900.882	0.0145309
900.960	0.0145856
901.038	0.0144685
901.116	0.0144920
901.194	0.0144706
901.273	0.0144275
901.351	0.0144699
901.429	0.0144431
901.507	0.0143890
901.585	0.0145843
901.663	0.0145330
901.741	0.0144090
901.819	0.0145660
901.898	0.0145033
901.976	0.0145071
902.054	0.0145541
902.132	0.0146513
902.210	0.0146513
902.288	0.0146449
902.366	0.0146990
902.444	0.0146443
902.523	0.0147169
902.601	0.0146376
902.679	0.0145061
902.757	0.0147179
902.835	0.0147658
902.913	0.0145626
902.991	0.0147974
903.069	0.0148525
903.148	0.0148036
903.226	0.0148619
903.304	0.0148571
903.382	0.0148567
903.460	0.0150344
903.538	0.0149020
903.616	0.0149958
903.694	0.0149747
903.773	0.0150198
903.851	0.0150507
903.929	0.0149427
904.007	0.0149686
904.085	0.0149214
904.163	0.0150345
904.241	0.0150329
904.319	0.0149970
904.398	0.0148888
904.476	0.0148695
904.554	0.0150891
904.632	0.0148035
904.710	0.0149541
904.788	0.0149436
904.866	0.0148347
904.944	0.0149557
905.023	0.0150125
905.101	0.0148967
905.179	0.0149854
905.257	0.0149825
905.335	0.0150269
905.413	0.0150377
905.491	0.0150665
905.569	0.0150897
905.648	0.0151849
905.726	0.0150587
905.804	0.0149957
905.882	0.0150593
905.960	0.0150445
906.038	0.0150150
906.116	0.0150859
906.194	0.0150193
906.273	0.0150512
906.351	0.0150869
906.429	0.0150784
906.507	0.0148190
906.585	0.0150434
906.663	0.0149551
906.741	0.0149630
906.819	0.0150079
906.898	0.0151477
906.976	0.0150953
907.054	0.0150326
907.132	0.0151376
907.210	0.0151569
907.288	0.0150137
907.366	0.0152494
907.444	0.0151332
907.523	0.0150347
907.601	0.0151555
907.679	0.0151308
907.757	0.0152017
907.835	0.0151277
907.913	0.0151176
907.991	0.0150154
908.069	0.0149799
908.148	0.0151096
908.226	0.0149960
908.304	0.0150383
908.382	0.0149863
908.460	0.0148600
908.538	0.0149180
908.616	0.0149309
908.694	0.0149226
908.773	0.0149324
908.851	0.0149662
908.929	0.0149435
909.007	0.0149523
909.085	0.0151224
909.163	0.0149160
909.241	0.0149038
909.319	0.0150272
909.398	0.0149776
909.476	0.0149778
909.554	0.0149901
909.632	0.0149609
909.710	0.0148642
909.788	0.0150130
909.866	0.0149995
909.944	0.0150270
910.023	0.0150064
910.101	0.0150282
910.179	0.0150620
910.257	0.0150150
910.335	0.0149126
910.413	0.0148381
910.491	0.0149768
910.569	0.0149875
910.648	0.0148681
910.726	0.0149677
910.804	0.0148296
910.882	0.0149246
910.960	0.0148101
911.038	0.0148942
911.116	0.0148141
911.194	0.0148006
911.273	0.0149549
911.351	0.0150017
911.429	0.0149204
911.507	0.0148591
911.585	0.0148999
911.663	0.0149097
911.741	0.0147897
911.819	0.0148838
911.898	0.0148335
911.976	0.0147942
912.054	0.0147781
912.132	0.0147076
912.210	0.0147639
912.288	0.0148415
912.366	0.0148993
912.444	0.0149722
912.523	0.0147118
912.601	0.0148145
912.679	0.0147704
912.757	0.0147815
912.835	0.0149057
912.913	0.0148228
912.991	0.0148956
913.069	0.0149528
913.148	0.0149644
913.226	0.0149072
913.304	0.0149168
913.382	0.0148944
913.460	0.0151194
913.538	0.0147726
913.616	0.0148685
913.694	0.0149715
913.773	0.0150462
913.851	0.0149101
913.929	0.0148264
914.007	0.0148824
914.085	0.0148826
914.163	0.0148531
914.241	0.0148980
914.319	0.0148904
914.398	0.0145764
914.476	0.0147789
914.554	0.0148192
914.632	0.0147272
914.710	0.0148253
914.788	0.0147326
914.866	0.0148083
914.944	0.0148046
915.023	0.0146993
915.101	0.0148949
915.179	0.0148004
915.257	0.0146799
915.335	0.0147823
915.413	0.0147511
915.491	0.0148911
915.569	0.0148412
915.648	0.0147176
915.726	0.0146866
915.804	0.0147698
915.882	0.0147906
915.960	0.0146659
916.038	0.0147325
916.116	0.0147508
916.194	0.0148737
916.273	0.0148391
916.351	0.0147534
916.429	0.0147799
916.507	0.0148509
916.585	0.0148590
916.663	0.0149798
916.741	0.0149728
916.819	0.0149184
916.898	0.0148814
916.976	0.0148516
917.054	0.0149426
917.132	0.0150481
917.210	0.0150401
917.288	0.0149654
917.366	0.0149918
917.444	0.0151131
917.523	0.0151189
917.601	0.0151413
917.679	0.0150988
917.757	0.0152022
917.835	0.0150460
917.913	0.0150240
917.991	0.0151698
918.069	0.0150579
918.148	0.0152058
918.226	0.0149392
918.304	0.0150334
918.382	0.0151758
918.460	0.0148947
918.538	0.0149166
918.616	0.0149437
918.694	0.0148685
918.773	0.0149261
918.851	0.0148253
918.929	0.0148853
919.007	0.0148887
919.085	0.0149107
919.163	0.0149126
919.241	0.0149656
919.319	0.0149789
919.398	0.0147765
919.476	0.0147064
919.554	0.0148698
919.632	0.0149113
919.710	0.0148257
919.788	0.0148986
919.866	0.0148621
919.944	0.0148470
920.023	0.0148260
920.101	0.0147421
920.179	0.0147283
920.257	0.0147554
920.335	0.0147539
920.413	0.0145753
920.491	0.0146982
920.569	0.0147755
920.648	0.0149302
920.726	0.0147325
920.804	0.0146641
920.882	0.0147594
920.960	0.0148074
921.038	0.0147695
921.116	0.0148013
921.194	0.0147464
921.273	0.0148522
921.351	0.0147104
921.429	0.0148624
921.507	0.0148765
921.585	0.0148651
921.663	0.0147896
921.741	0.0147421
921.819	0.0146643
921.898	0.0149230
921.976	0.0148044
922.054	0.0148167
922.132	0.0148827
922.210	0.0147845
922.288	0.0149947
922.366	0.0149929
922.444	0.0148044
922.523	0.0148978
922.601	0.0149815
922.679	0.0150185
922.757	0.0149908
922.835	0.0148567
922.913	0.0150526
922.991	0.0150343
923.069	0.0150584
923.148	0.0150869
923.226	0.0150453
923.304	0.0150866
923.382	0.0151205
923.460	0.0150513
923.538	0.0151701
923.616	0.0151255
923.694	0.0151032
923.773	0.0150659
923.851	0.0150774
923.929	0.0150794
924.007	0.0151089
924.085	0.0152014
924.163	0.0150489
924.241	0.0150625
924.319	0.0149860
924.398	0.0150453
924.476	0.0149041
924.554	0.0149507
924.632	0.0149115
924.710	0.0149213
924.788	0.0150400
924.866	0.0149069
924.944	0.0149363
925.023	0.0147868
925.101	0.0148819
925.179	0.0151258
925.257	0.0149544
925.335	0.0148979
925.413	0.0148577
925.491	0.0148679
925.569	0.0148627
925.648	0.0148434
925.726	0.0148287
925.804	0.0147059
925.882	0.0148167
925.960	0.0147168
926.038	0.0147494
926.116	0.0149587
926.194	0.0148768
926.273	0.0147542
926.351	0.0147778
926.429	0.0147961
926.507	0.0148323
926.585	0.0147839
926.663	0.0147717
926.741	0.0147906
926.819	0.0149408
926.898	0.0148843
926.976	0.0149011
927.054	0.0149455
927.132	0.0147671
927.210	0.0150469
927.288	0.0151131
927.366	0.0150884
927.444	0.0150027
927.523	0.0150824
927.601	0.0151313
927.679	0.0151098
927.757	0.0152084
927.835	0.0152199
927.913	0.0150509
927.991	0.0150841
928.069	0.0152365
928.148	0.0152367
928.226	0.0150885
928.304	0.0151687
928.382	0.0150927
928.460	0.0151637
928.538	0.0150804
928.616	0.0150021
928.694	0.0150981
928.773	0.0150517
928.851	0.0150555
928.929	0.0149003
929.007	0.0147823
929.085	0.0148858
929.163	0.0150215
929.241	0.0148368
929.319	0.0148480
929.398	0.0147859
929.476	0.0148943
929.554	0.0149328
929.632	0.0148922
929.710	0.0148949
929.788	0.0148769
929.866	0.0147639
929.944	0.0149471
930.023	0.0148782
930.101	0.0149689
930.179	0.0149104
930.257	0.0148576
930.335	0.0149281
930.413	0.0149176
930.491	0.0148817
930.569	0.0149919
930.648	0.0149436
930.726	0.0149284
930.804	0.0148609
930.882	0.0148351
930.960	0.0148424
931.038	0.0149172
931.116	0.0149585
931.194	0.0149674
931.273	0.0150686
931.351	0.0148579
931.429	0.0149123
931.507	0.0149302
931.585	0.0150211
931.663	0.0150722
931.741	0.0149931
931.819	0.0149238
931.898	0.0150304
931.976	0.0148770
932.054	0.0149261
932.132	0.0149819
932.210	0.0151033
932.288	0.0149265
932.366	0.0149113
932.444	0.0150870
932.523	0.0149744
932.601	0.0149722
932.679	0.0149125
932.757	0.0146735
932.835	0.0149561
932.913	0.0148287
932.991	0.0148348
933.069	0.0147569
933.148	0.0149729
933.226	0.0149670
933.304	0.0148193
933.382	0.0149728
933.460	0.0149096
933.538	0.0148709
933.616	0.0148035
933.694	0.0149933
933.773	0.0148617
933.851	0.0148956
933.929	0.0150091
934.007	0.0150404
934.085	0.0150580
934.163	0.0150886
934.241	0.0151653
934.319	0.0152242
934.398	0.0151119
934.476	0.0151860
934.554	0.0151215
934.632	0.0152480
934.710	0.0152453
934.788	0.0152525
934.866	0.0154207
934.944	0.0152374
935.023	0.0152512
935.101	0.0151691
935.179	0.0151912
935.257	0.0152078
935.335	0.0151277
935.413	0.0150894
935.491	0.0150384
935.569	0.0149212
935.648	0.0150078
935.726	0.0148561
935.804	0.0147614
935.882	0.0149338
935.960	0.0149006
936.038	0.0148135
936.116	0.0147956
936.194	0.0147379
936.273	0.0147762
936.351	0.0146480
936.429	0.0144904
936.507	0.0147488
936.585	0.0147136
936.663	0.0147253
936.741	0.0147781
936.819	0.0147363
936.898	0.0147320
936.976	0.0146989
937.054	0.0148710
937.132	0.0149459
937.210	0.0148079
937.288	0.0147071
937.366	0.0150108
937.444	0.0148997
937.523	0.0148727
937.601	0.0148677
937.679	0.0148673
937.757	0.0149182
937.835	0.0148297
937.913	0.0150561
937.991	0.0149626
938.069	0.0151422
938.148	0.0150156
938.226	0.0149485
938.304	0.0150826
938.382	0.0151944
938.460	0.0150863
938.538	0.0152293
938.616	0.0150951
938.694	0.0151776
938.773	0.0151644
938.851	0.0150756
938.929	0.0150388
939.007	0.0151779
939.085	0.0150943
939.163	0.0150220
939.241	0.0150711
939.319	0.0150159
939.398	0.0150110
939.476	0.0149591
939.554	0.0150061
939.632	0.0150360
939.710	0.0149800
939.788	0.0149446
939.866	0.0149335
939.944	0.0149666
940.023	0.0148696
940.101	0.0150033
940.179	0.0150185
940.257	0.0151002
940.335	0.0149387
940.413	0.0149219
940.491	0.0150012
940.569	0.0151380
940.648	0.0149744
940.726	0.0150482
940.804	0.0150374
940.882	0.0150703
940.960	0.0150124
941.038	0.0149612
941.116	0.0149630
941.194	0.0149133
941.273	0.0148458
941.351	0.0149617
941.429	0.0150104
941.507	0.0149503
941.585	0.0148301
941.663	0.0149370
941.741	0.0149290
941.819	0.0149135
941.898	0.0148636
941.976	0.0148505
942.054	0.0148104
942.132	0.0148745
942.210	0.0148708
942.288	0.0149577
942.366	0.0149310
942.444	0.0150031
942.523	0.0149471
942.601	0.0148969
942.679	0.0149828
942.757	0.0148893
942.835	0.0150195
942.913	0.0148418
942.991	0.0149821
943.069	0.0148581
943.148	0.0148400
943.226	0.0148382
943.304	0.0149464
943.382	0.0151380
943.460	0.0148718
943.538	0.0148111
943.616	0.0149281
943.694	0.0149070
943.773	0.0149610
943.851	0.0148775
943.929	0.0148165
944.007	0.0148234
944.085	0.0147578
944.163	0.0148722
944.241	0.0147339
944.319	0.0146533
944.398	0.0147790
944.476	0.0149166
944.554	0.0148846
944.632	0.0148727
944.710	0.0148210
944.788	0.0149832
944.866	0.0148396
944.944	0.0149512
945.023	0.0151133
945.101	0.0150277
945.179	0.0149062
945.257	0.0149660
945.335	0.0149806
945.413	0.0150273
945.491	0.0151905
945.569	0.0150227
945.648	0.0148604
945.726	0.0149401
945.804	0.0151468
945.882	0.0151276
945.960	0.0151453
946.038	0.0150108
946.116	0.0149082
946.194	0.0150284
946.273	0.0149487
946.351	0.0149759
946.429	0.0149215
946.507	0.0149022
946.585	0.0148029
946.663	0.0148887
946.741	0.0149436
946.819	0.0149571
946.898	0.0147588
946.976	0.0147979
947.054	0.0149950
947.132	0.0147906
947.210	0.0148136
947.288	0.0147499
947.366	0.0148399
947.444	0.0149419
947.523	0.0149927
947.601	0.0149497
947.679	0.0148701
947.757	0.0149269
947.835	0.0149471
947.913	0.0150462
947.991	0.0150637
948.069	0.0150414
948.148	0.0151158
948.226	0.0150043
948.304	0.0150777
948.382	0.0150079
948.460	0.0151439
948.538	0.0151105
948.616	0.0149271
948.694	0.0151385
948.773	0.0153321
948.851	0.0152074
948.929	0.0152148
949.007	0.0152473
949.085	0.0153275
949.163	0.0152734
949.241	0.0152587
949.319	0.0152370
949.398	0.0153061
949.476	0.0151709
949.554	0.0151451
949.632	0.0151521
949.710	0.0150878
949.788	0.0151398
949.866	0.0151039
949.944	0.0148056
