05/14/2022	19:49:16	Ver.	4.1	UNKNOWN
Optical Delay	630.022520	Delta X		0.078125	Sweeps	1	Scan Rate	0/0
Coordinates	Axis 1	NaN	Axis 2	NaN	Axis 3	NaN	Axis 4	NaN	Axis 5	NaN	Axis 6	0.000000
TX Power	0.000000	RX Power	0.000000

630.023	0.0149908
630.101	0.0154016
630.179	0.0151413
630.257	0.0152491
630.335	0.0154208
630.413	0.0153365
630.491	0.0153582
630.569	0.0153435
630.648	0.0153735
630.726	0.0153740
630.804	0.0153727
630.882	0.0153253
630.960	0.0153597
631.038	0.0154890
631.116	0.0154485
631.194	0.0153251
631.273	0.0153214
631.351	0.0153543
631.429	0.0153579
631.507	0.0152583
631.585	0.0153757
631.663	0.0153115
631.741	0.0153742
631.819	0.0153795
631.898	0.0153754
631.976	0.0153863
632.054	0.0153570
632.132	0.0154163
632.210	0.0153767
632.288	0.0156799
632.366	0.0153969
632.444	0.0155174
632.523	0.0154395
632.601	0.0154811
632.679	0.0154537
632.757	0.0154594
632.835	0.0153237
632.913	0.0154465
632.991	0.0155291
633.069	0.0153403
633.148	0.0153326
633.226	0.0152923
633.304	0.0153025
633.382	0.0153729
633.460	0.0151717
633.538	0.0150526
633.616	0.0151192
633.694	0.0152496
633.773	0.0153874
633.851	0.0151765
633.929	0.0151404
634.007	0.0152143
634.085	0.0151082
634.163	0.0152908
634.241	0.0152464
634.319	0.0153223
634.398	0.0152464
634.476	0.0152308
634.554	0.0154990
634.632	0.0152566
634.710	0.0153056
634.788	0.0153767
634.866	0.0152724
634.944	0.0154063
635.023	0.0153306
635.101	0.0153660
635.179	0.0153757
635.257	0.0154305
635.335	0.0151929
635.413	0.0151166
635.491	0.0151272
635.569	0.0152404
635.648	0.0150533
635.726	0.0150802
635.804	0.0150867
635.882	0.0150598
635.960	0.0150662
636.038	0.0149377
636.116	0.0148479
636.194	0.0148113
636.273	0.0149025
636.351	0.0149910
636.429	0.0148546
636.507	0.0148413
636.585	0.0148584
636.663	0.0148538
636.741	0.0148155
636.819	0.0148843
636.898	0.0147651
636.976	0.0147499
637.054	0.0147044
637.132	0.0148872
637.210	0.0147253
637.288	0.0147052
637.366	0.0148218
637.444	0.0149268
637.523	0.0147948
637.601	0.0147900
637.679	0.0147955
637.757	0.0147937
637.835	0.0146952
637.913	0.0149123
637.991	0.0149640
638.069	0.0147421
638.148	0.0147587
638.226	0.0148043
638.304	0.0147597
638.382	0.0147951
638.460	0.0147050
638.538	0.0146301
638.616	0.0146411
638.694	0.0146160
638.773	0.0145448
638.851	0.0145799
638.929	0.0145071
639.007	0.0145158
639.085	0.0147034
639.163	0.0146276
639.241	0.0147604
639.319	0.0145347
639.398	0.0146168
639.476	0.0146676
639.554	0.0147664
639.632	0.0145361
639.710	0.0146698
639.788	0.0146507
639.866	0.0147626
639.944	0.0148540
640.023	0.0147134
640.101	0.0147987
640.179	0.0147852
640.257	0.0147737
640.335	0.0147311
640.413	0.0147202
640.491	0.0147528
640.569	0.0148203
640.648	0.0148141
640.726	0.0147312
640.804	0.0147409
640.882	0.0147729
640.960	0.0147568
641.038	0.0147734
641.116	0.0147542
641.194	0.0147748
641.273	0.0146700
641.351	0.0146610
641.429	0.0147751
641.507	0.0148185
641.585	0.0147774
641.663	0.0146867
641.741	0.0147103
641.819	0.0148653
641.898	0.0149838
641.976	0.0148058
642.054	0.0149075
642.132	0.0148669
642.210	0.0148746
642.288	0.0150085
642.366	0.0148647
642.444	0.0147453
642.523	0.0150237
642.601	0.0149364
642.679	0.0148788
642.757	0.0147961
642.835	0.0148592
642.913	0.0147919
642.991	0.0146760
643.069	0.0147392
643.148	0.0148362
643.226	0.0149374
643.304	0.0147983
643.382	0.0146815
643.460	0.0147366
643.538	0.0146208
643.616	0.0146863
643.694	0.0147074
643.773	0.0147826
643.851	0.0147771
643.929	0.0148290
644.007	0.0147087
644.085	0.0147192
644.163	0.0148129
644.241	0.0147442
644.319	0.0147379
644.398	0.0148169
644.476	0.0147598
644.554	0.0147569
644.632	0.0147990
644.710	0.0148393
644.788	0.0149275
644.866	0.0148222
644.944	0.0148933
645.023	0.0148192
645.101	0.0149101
645.179	0.0149119
645.257	0.0149021
645.335	0.0150652
645.413	0.0151282
645.491	0.0150391
645.569	0.0151892
645.648	0.0151613
645.726	0.0151633
645.804	0.0152711
645.882	0.0152427
645.960	0.0152647
646.038	0.0152595
646.116	0.0152847
646.194	0.0151051
646.273	0.0154214
646.351	0.0152209
646.429	0.0152860
646.507	0.0152547
646.585	0.0152064
646.663	0.0152581
646.741	0.0151486
646.819	0.0151801
646.898	0.0150526
646.976	0.0152085
647.054	0.0151344
647.132	0.0152187
647.210	0.0151003
647.288	0.0151208
647.366	0.0150327
647.444	0.0151239
647.523	0.0151379
647.601	0.0151392
647.679	0.0150642
647.757	0.0151064
647.835	0.0150140
647.913	0.0151492
647.991	0.0150079
648.069	0.0150076
648.148	0.0148839
648.226	0.0148073
648.304	0.0149760
648.382	0.0147819
648.460	0.0147588
648.538	0.0147970
648.616	0.0147310
648.694	0.0146402
648.773	0.0146251
648.851	0.0146458
648.929	0.0146298
649.007	0.0145000
649.085	0.0145242
649.163	0.0143885
649.241	0.0143835
649.319	0.0145182
649.398	0.0146088
649.476	0.0146355
649.554	0.0145429
649.632	0.0147707
649.710	0.0146439
649.788	0.0147446
649.866	0.0147285
649.944	0.0149343
650.023	0.0148370
650.101	0.0148101
650.179	0.0147327
650.257	0.0148202
650.335	0.0149210
650.413	0.0147579
650.491	0.0147300
650.569	0.0146223
650.648	0.0148685
650.726	0.0149372
650.804	0.0148318
650.882	0.0148243
650.960	0.0148442
651.038	0.0147969
651.116	0.0147446
651.194	0.0148164
651.273	0.0148666
651.351	0.0148822
651.429	0.0148715
651.507	0.0148682
651.585	0.0149940
651.663	0.0150280
651.741	0.0149300
651.819	0.0150101
651.898	0.0149822
651.976	0.0149507
652.054	0.0150273
652.132	0.0150542
652.210	0.0150508
652.288	0.0149882
652.366	0.0147539
652.444	0.0148230
652.523	0.0148345
652.601	0.0148506
652.679	0.0148748
652.757	0.0149372
652.835	0.0148955
652.913	0.0149296
652.991	0.0148820
653.069	0.0149583
653.148	0.0149607
653.226	0.0151344
653.304	0.0150443
653.382	0.0152377
653.460	0.0151687
653.538	0.0151208
653.616	0.0152257
653.694	0.0153036
653.773	0.0153767
653.851	0.0153804
653.929	0.0153630
654.007	0.0154391
654.085	0.0154694
654.163	0.0153944
654.241	0.0155778
654.319	0.0156091
654.398	0.0155818
654.476	0.0155277
654.554	0.0155669
654.632	0.0155708
654.710	0.0155376
654.788	0.0153432
654.866	0.0153352
654.944	0.0153082
655.023	0.0152638
655.101	0.0151267
655.179	0.0149660
655.257	0.0147649
655.335	0.0148280
655.413	0.0147701
655.491	0.0146600
655.569	0.0147002
655.648	0.0145245
655.726	0.0146494
655.804	0.0147103
655.882	0.0145640
655.960	0.0147424
656.038	0.0147781
656.116	0.0148300
656.194	0.0147462
656.273	0.0148148
656.351	0.0149330
656.429	0.0150307
656.507	0.0151041
656.585	0.0149328
656.663	0.0151217
656.741	0.0149665
656.819	0.0152678
656.898	0.0151900
656.976	0.0152115
657.054	0.0150739
657.132	0.0151064
657.210	0.0152174
657.288	0.0152456
657.366	0.0153236
657.444	0.0152589
657.523	0.0152573
657.601	0.0152838
657.679	0.0151770
657.757	0.0150374
657.835	0.0149812
657.913	0.0150196
657.991	0.0148214
658.069	0.0146780
658.148	0.0146233
658.226	0.0143977
658.304	0.0144537
658.382	0.0143421
658.460	0.0143098
658.538	0.0141938
658.616	0.0142874
658.694	0.0142560
658.773	0.0140226
658.851	0.0142930
658.929	0.0142865
659.007	0.0144653
659.085	0.0143250
659.163	0.0144843
659.241	0.0145890
659.319	0.0145284
659.398	0.0145773
659.476	0.0146785
659.554	0.0147379
659.632	0.0148598
659.710	0.0148953
659.788	0.0151288
659.866	0.0151992
659.944	0.0153285
660.023	0.0152184
660.101	0.0154951
660.179	0.0155376
660.257	0.0154378
660.335	0.0154412
660.413	0.0154379
660.491	0.0154593
660.569	0.0153289
660.648	0.0152995
660.726	0.0152019
660.804	0.0152742
660.882	0.0151417
660.960	0.0150612
661.038	0.0148753
661.116	0.0149327
661.194	0.0147690
661.273	0.0147095
661.351	0.0147340
661.429	0.0146038
661.507	0.0145624
661.585	0.0145992
661.663	0.0145042
661.741	0.0145655
661.819	0.0145697
661.898	0.0144368
661.976	0.0143713
662.054	0.0145277
662.132	0.0146513
662.210	0.0145722
662.288	0.0147967
662.366	0.0147488
662.444	0.0149863
662.523	0.0149191
662.601	0.0149730
662.679	0.0151918
662.757	0.0152623
662.835	0.0152801
662.913	0.0152105
662.991	0.0151868
663.069	0.0153313
663.148	0.0154623
663.226	0.0153154
663.304	0.0151963
663.382	0.0150555
663.460	0.0152743
663.538	0.0152867
663.616	0.0151991
663.694	0.0151784
663.773	0.0152428
663.851	0.0151276
663.929	0.0151246
664.007	0.0151153
664.085	0.0150321
664.163	0.0150121
664.241	0.0150849
664.319	0.0150725
664.398	0.0150213
664.476	0.0149753
664.554	0.0151167
664.632	0.0153082
664.710	0.0150908
664.788	0.0152068
664.866	0.0150784
664.944	0.0149989
665.023	0.0150645
665.101	0.0149214
665.179	0.0149953
665.257	0.0151019
665.335	0.0150673
665.413	0.0150356
665.491	0.0149833
665.569	0.0147607
665.648	0.0147907
665.726	0.0147228
665.804	0.0146855
665.882	0.0145193
665.960	0.0146600
666.038	0.0146354
666.116	0.0145123
666.194	0.0145741
666.273	0.0145329
666.351	0.0143699
666.429	0.0144380
666.507	0.0144083
666.585	0.0146075
666.663	0.0146033
666.741	0.0145045
666.819	0.0145502
666.898	0.0145145
666.976	0.0145282
667.054	0.0147027
667.132	0.0147268
667.210	0.0146942
667.288	0.0148904
667.366	0.0149773
667.444	0.0148070
667.523	0.0149800
667.601	0.0151497
667.679	0.0152199
667.757	0.0152106
667.835	0.0152399
667.913	0.0154249
667.991	0.0153421
668.069	0.0154156
668.148	0.0155013
668.226	0.0155746
668.304	0.0155978
668.382	0.0155732
668.460	0.0154378
668.538	0.0157040
668.616	0.0158512
668.694	0.0156405
668.773	0.0156927
668.851	0.0156630
668.929	0.0155643
669.007	0.0155292
669.085	0.0155042
669.163	0.0154328
669.241	0.0153333
669.319	0.0152291
669.398	0.0153301
669.476	0.0152944
669.554	0.0150867
669.632	0.0151642
669.710	0.0150856
669.788	0.0147630
669.866	0.0148147
669.944	0.0146285
670.023	0.0146877
670.101	0.0145058
670.179	0.0145009
670.257	0.0143550
670.335	0.0143861
670.413	0.0142746
670.491	0.0142268
670.569	0.0141270
670.648	0.0141690
670.726	0.0141087
670.804	0.0139283
670.882	0.0139882
670.960	0.0140001
671.038	0.0139973
671.116	0.0140540
671.194	0.0140639
671.273	0.0140118
671.351	0.0140909
671.429	0.0142490
671.507	0.0142071
671.585	0.0145132
671.663	0.0145437
671.741	0.0146223
671.819	0.0147862
671.898	0.0149081
671.976	0.0149522
672.054	0.0150359
672.132	0.0152779
672.210	0.0153209
672.288	0.0154966
672.366	0.0155520
672.444	0.0156534
672.523	0.0157143
672.601	0.0156574
672.679	0.0159729
672.757	0.0159752
672.835	0.0159896
672.913	0.0159416
672.991	0.0160066
673.069	0.0160320
673.148	0.0159325
673.226	0.0158737
673.304	0.0158418
673.382	0.0158868
673.460	0.0157912
673.538	0.0156715
673.616	0.0155518
673.694	0.0154079
673.773	0.0152853
673.851	0.0152955
673.929	0.0151921
674.007	0.0150471
674.085	0.0149519
674.163	0.0148825
674.241	0.0148733
674.319	0.0148360
674.398	0.0147593
674.476	0.0146072
674.554	0.0147491
674.632	0.0148090
674.710	0.0147353
674.788	0.0148949
674.866	0.0149534
674.944	0.0146677
675.023	0.0147076
675.101	0.0146586
675.179	0.0146294
675.257	0.0146969
675.335	0.0145358
675.413	0.0146132
675.491	0.0146941
675.569	0.0145329
675.648	0.0145883
675.726	0.0145378
675.804	0.0144574
675.882	0.0145582
675.960	0.0145138
676.038	0.0144045
676.116	0.0144966
676.194	0.0146012
676.273	0.0145006
676.351	0.0145631
676.429	0.0143697
676.507	0.0146024
676.585	0.0146527
676.663	0.0145096
676.741	0.0144727
676.819	0.0145936
676.898	0.0145573
676.976	0.0146470
677.054	0.0146769
677.132	0.0147294
677.210	0.0147884
677.288	0.0148060
677.366	0.0149942
677.444	0.0151371
677.523	0.0152132
677.601	0.0154264
677.679	0.0155126
677.757	0.0158204
677.835	0.0159712
677.913	0.0161070
677.991	0.0162411
678.069	0.0163557
678.148	0.0165807
678.226	0.0165368
678.304	0.0167058
678.382	0.0166936
678.460	0.0167586
678.538	0.0168566
678.616	0.0169394
678.694	0.0168703
678.773	0.0168742
678.851	0.0167636
678.929	0.0166560
679.007	0.0165675
679.085	0.0165025
679.163	0.0164511
679.241	0.0163229
679.319	0.0159378
679.398	0.0158218
679.476	0.0156034
679.554	0.0155486
679.632	0.0150783
679.710	0.0150022
679.788	0.0145831
679.866	0.0143702
679.944	0.0141658
680.023	0.0138389
680.101	0.0137403
680.179	0.0136325
680.257	0.0135265
680.335	0.0132819
680.413	0.0132734
680.491	0.0132714
680.569	0.0132790
680.648	0.0132232
680.726	0.0132700
680.804	0.0133585
680.882	0.0133195
680.960	0.0134069
681.038	0.0136390
681.116	0.0136851
681.194	0.0138403
681.273	0.0141679
681.351	0.0143640
681.429	0.0144553
681.507	0.0147054
681.585	0.0148598
681.663	0.0150976
681.741	0.0152987
681.819	0.0153046
681.898	0.0157348
681.976	0.0157766
682.054	0.0159221
682.132	0.0161122
682.210	0.0162084
682.288	0.0161166
682.366	0.0163536
682.444	0.0163780
682.523	0.0162877
682.601	0.0164050
682.679	0.0163670
682.757	0.0163300
682.835	0.0162036
682.913	0.0160427
682.991	0.0158924
683.069	0.0158517
683.148	0.0158273
683.226	0.0155779
683.304	0.0155118
683.382	0.0153855
683.460	0.0152605
683.538	0.0150352
683.616	0.0148335
683.694	0.0147202
683.773	0.0146786
683.851	0.0145140
683.929	0.0144600
684.007	0.0145548
684.085	0.0144341
684.163	0.0142546
684.241	0.0141865
684.319	0.0139668
684.398	0.0139603
684.476	0.0140430
684.554	0.0140025
684.632	0.0138770
684.710	0.0137872
684.788	0.0138780
684.866	0.0139191
684.944	0.0140184
685.023	0.0137690
685.101	0.0140350
685.179	0.0141009
685.257	0.0141716
685.335	0.0141077
685.413	0.0140580
685.491	0.0141590
685.569	0.0140775
685.648	0.0141400
685.726	0.0143156
685.804	0.0143964
685.882	0.0145293
685.960	0.0146657
686.038	0.0147509
686.116	0.0149892
686.194	0.0150224
686.273	0.0152982
686.351	0.0153726
686.429	0.0155099
686.507	0.0157032
686.585	0.0157492
686.663	0.0159753
686.741	0.0159634
686.819	0.0160445
686.898	0.0160015
686.976	0.0162624
687.054	0.0161164
687.132	0.0162285
687.210	0.0160156
687.288	0.0160042
687.366	0.0159763
687.444	0.0159608
687.523	0.0156839
687.601	0.0156003
687.679	0.0155573
687.757	0.0154494
687.835	0.0153873
687.913	0.0153762
687.991	0.0152531
688.069	0.0151784
688.148	0.0152451
688.226	0.0151554
688.304	0.0151622
688.382	0.0151851
688.460	0.0151283
688.538	0.0151652
688.616	0.0151068
688.694	0.0152469
688.773	0.0152689
688.851	0.0151511
688.929	0.0152454
689.007	0.0152652
689.085	0.0153712
689.163	0.0153488
689.241	0.0153574
689.319	0.0154839
689.398	0.0153972
689.476	0.0155582
689.554	0.0154951
689.632	0.0156483
689.710	0.0154153
689.788	0.0154518
689.866	0.0155782
689.944	0.0155420
690.023	0.0153744
690.101	0.0153041
690.179	0.0153509
690.257	0.0151911
690.335	0.0151225
690.413	0.0150208
690.491	0.0149370
690.569	0.0149225
690.648	0.0149499
690.726	0.0149474
690.804	0.0148248
690.882	0.0147430
690.960	0.0147452
691.038	0.0146484
691.116	0.0146726
691.194	0.0146500
691.273	0.0146679
691.351	0.0146606
691.429	0.0147674
691.507	0.0147261
691.585	0.0146931
691.663	0.0146031
691.741	0.0148208
691.819	0.0148171
691.898	0.0146649
691.976	0.0147504
692.054	0.0148444
692.132	0.0146290
692.210	0.0146921
692.288	0.0148582
692.366	0.0147479
692.444	0.0147862
692.523	0.0147433
692.601	0.0147540
692.679	0.0146622
692.757	0.0145208
692.835	0.0146304
692.913	0.0145488
692.991	0.0146339
693.069	0.0144933
693.148	0.0147265
693.226	0.0145533
693.304	0.0146389
693.382	0.0146394
693.460	0.0146768
693.538	0.0147881
693.616	0.0149494
693.694	0.0150410
693.773	0.0151812
693.851	0.0150983
693.929	0.0151316
694.007	0.0153694
694.085	0.0153191
694.163	0.0153805
694.241	0.0153588
694.319	0.0153021
694.398	0.0152959
694.476	0.0153603
694.554	0.0152306
694.632	0.0151868
694.710	0.0150735
694.788	0.0150220
694.866	0.0148792
694.944	0.0148339
695.023	0.0146764
695.101	0.0144863
695.179	0.0144953
695.257	0.0143147
695.335	0.0143342
695.413	0.0144212
695.491	0.0142574
695.569	0.0142367
695.648	0.0141991
695.726	0.0143777
695.804	0.0143242
695.882	0.0143749
695.960	0.0143019
696.038	0.0143211
696.116	0.0144507
696.194	0.0144173
696.273	0.0145006
696.351	0.0146248
696.429	0.0145201
696.507	0.0145918
696.585	0.0147205
696.663	0.0147879
696.741	0.0147829
696.819	0.0147761
696.898	0.0148634
696.976	0.0150713
697.054	0.0149931
697.132	0.0150719
697.210	0.0150344
697.288	0.0151200
697.366	0.0152055
697.444	0.0153129
697.523	0.0153857
697.601	0.0154494
697.679	0.0154493
697.757	0.0155499
697.835	0.0156603
697.913	0.0155711
697.991	0.0156207
698.069	0.0158574
698.148	0.0157444
698.226	0.0156882
698.304	0.0157535
698.382	0.0158859
698.460	0.0155078
698.538	0.0155857
698.616	0.0155024
698.694	0.0154023
698.773	0.0153833
698.851	0.0151714
698.929	0.0151327
699.007	0.0150618
699.085	0.0149235
699.163	0.0147591
699.241	0.0147504
699.319	0.0146918
699.398	0.0144173
699.476	0.0144509
699.554	0.0143748
699.632	0.0142673
699.710	0.0141180
699.788	0.0142034
699.866	0.0144208
699.944	0.0144054
700.023	0.0141777
700.101	0.0143979
700.179	0.0146615
700.257	0.0147337
700.335	0.0149805
700.413	0.0150582
700.491	0.0151346
700.569	0.0152689
700.648	0.0153627
700.726	0.0156087
700.804	0.0157365
700.882	0.0157362
700.960	0.0159363
701.038	0.0160123
701.116	0.0160053
701.194	0.0160206
701.273	0.0160740
701.351	0.0159927
701.429	0.0162202
701.507	0.0160381
701.585	0.0160482
701.663	0.0159454
701.741	0.0159197
701.819	0.0158006
701.898	0.0156709
701.976	0.0155769
702.054	0.0156016
702.132	0.0153565
702.210	0.0154327
702.288	0.0154881
702.366	0.0152259
702.444	0.0152486
702.523	0.0152113
702.601	0.0151595
702.679	0.0151034
702.757	0.0152312
702.835	0.0152965
702.913	0.0150792
702.991	0.0151160
703.069	0.0152319
703.148	0.0150637
703.226	0.0151390
703.304	0.0150993
703.382	0.0150809
703.460	0.0151987
703.538	0.0151666
703.616	0.0149835
703.694	0.0149402
703.773	0.0149866
703.851	0.0149670
703.929	0.0149340
704.007	0.0148544
704.085	0.0149088
704.163	0.0149396
704.241	0.0148950
704.319	0.0148093
704.398	0.0148187
704.476	0.0148084
704.554	0.0147765
704.632	0.0146912
704.710	0.0148665
704.788	0.0147524
704.866	0.0146939
704.944	0.0146070
705.023	0.0146637
705.101	0.0145560
705.179	0.0146302
705.257	0.0145273
705.335	0.0144552
705.413	0.0145041
705.491	0.0145089
705.569	0.0146413
705.648	0.0146110
705.726	0.0145782
705.804	0.0144456
705.882	0.0146706
705.960	0.0146193
706.038	0.0148041
706.116	0.0148817
706.194	0.0149106
706.273	0.0151764
706.351	0.0153097
706.429	0.0153382
706.507	0.0153770
706.585	0.0155415
706.663	0.0157928
706.741	0.0157418
706.819	0.0159956
706.898	0.0159545
706.976	0.0159636
707.054	0.0161035
707.132	0.0160641
707.210	0.0160242
707.288	0.0161244
707.366	0.0158947
707.444	0.0159211
707.523	0.0159400
707.601	0.0158401
707.679	0.0156358
707.757	0.0155247
707.835	0.0156720
707.913	0.0155103
707.991	0.0153408
708.069	0.0152315
708.148	0.0150373
708.226	0.0150613
708.304	0.0148183
708.382	0.0146116
708.460	0.0145150
708.538	0.0144383
708.616	0.0142851
708.694	0.0142722
708.773	0.0141724
708.851	0.0142487
708.929	0.0139944
709.007	0.0138457
709.085	0.0140202
709.163	0.0139350
709.241	0.0138849
709.319	0.0138367
709.398	0.0138789
709.476	0.0140254
709.554	0.0141952
709.632	0.0142427
709.710	0.0143076
709.788	0.0144769
709.866	0.0144927
709.944	0.0144994
710.023	0.0145437
710.101	0.0147267
710.179	0.0147625
710.257	0.0147124
710.335	0.0149181
710.413	0.0149509
710.491	0.0148749
710.569	0.0149176
710.648	0.0150439
710.726	0.0151746
710.804	0.0151003
710.882	0.0151130
710.960	0.0149238
711.038	0.0150423
711.116	0.0150413
711.194	0.0150422
711.273	0.0150124
711.351	0.0150346
711.429	0.0149358
711.507	0.0150714
711.585	0.0150767
711.663	0.0149727
711.741	0.0149538
711.819	0.0149643
711.898	0.0149922
711.976	0.0149905
712.054	0.0152127
712.132	0.0151553
712.210	0.0150681
712.288	0.0153021
712.366	0.0153233
712.444	0.0154129
712.523	0.0154228
712.601	0.0155758
712.679	0.0154402
712.757	0.0154865
712.835	0.0156414
712.913	0.0157726
712.991	0.0157056
713.069	0.0156964
713.148	0.0157385
713.226	0.0156833
713.304	0.0156008
713.382	0.0157432
713.460	0.0156815
713.538	0.0156236
713.616	0.0156023
713.694	0.0154941
713.773	0.0154677
713.851	0.0154369
713.929	0.0152161
714.007	0.0153040
714.085	0.0152576
714.163	0.0151586
714.241	0.0152014
714.319	0.0149859
714.398	0.0148114
714.476	0.0149081
714.554	0.0149709
714.632	0.0150375
714.710	0.0147982
714.788	0.0147163
714.866	0.0148218
714.944	0.0149220
715.023	0.0147985
715.101	0.0147508
715.179	0.0147552
715.257	0.0147712
715.335	0.0148102
715.413	0.0147968
715.491	0.0148254
715.569	0.0147088
715.648	0.0147978
715.726	0.0146328
715.804	0.0148309
715.882	0.0149162
715.960	0.0147475
716.038	0.0148240
716.116	0.0146867
716.194	0.0149065
716.273	0.0149564
716.351	0.0148294
716.429	0.0149080
716.507	0.0147482
716.585	0.0148322
716.663	0.0150008
716.741	0.0150104
716.819	0.0150490
716.898	0.0150229
716.976	0.0150216
717.054	0.0150909
717.132	0.0150159
717.210	0.0150010
717.288	0.0152517
717.366	0.0152683
717.444	0.0151270
717.523	0.0151011
717.601	0.0151934
717.679	0.0151771
717.757	0.0152670
717.835	0.0152361
717.913	0.0152444
717.991	0.0151820
718.069	0.0150980
718.148	0.0149516
718.226	0.0150143
718.304	0.0151367
718.382	0.0151574
718.460	0.0150841
718.538	0.0151593
718.616	0.0150166
718.694	0.0150153
718.773	0.0149874
718.851	0.0150582
718.929	0.0151566
719.007	0.0151979
719.085	0.0150486
719.163	0.0150777
719.241	0.0150003
719.319	0.0151202
719.398	0.0152646
719.476	0.0152492
719.554	0.0151838
719.632	0.0152334
719.710	0.0153214
719.788	0.0152716
719.866	0.0152362
719.944	0.0152193
720.023	0.0150747
720.101	0.0150508
720.179	0.0151917
720.257	0.0150081
720.335	0.0149250
720.413	0.0148923
720.491	0.0149172
720.569	0.0147945
720.648	0.0147442
720.726	0.0144789
720.804	0.0146700
720.882	0.0145632
720.960	0.0144632
721.038	0.0145023
721.116	0.0145164
721.194	0.0143407
721.273	0.0143908
721.351	0.0145254
721.429	0.0144575
721.507	0.0145113
721.585	0.0145169
721.663	0.0144643
721.741	0.0143522
721.819	0.0144067
721.898	0.0143807
721.976	0.0145395
722.054	0.0144799
722.132	0.0144247
722.210	0.0144724
722.288	0.0143206
722.366	0.0144693
722.444	0.0145158
722.523	0.0145174
722.601	0.0144453
722.679	0.0144249
722.757	0.0145049
722.835	0.0145045
722.913	0.0144239
722.991	0.0145614
723.069	0.0145976
723.148	0.0144881
723.226	0.0146649
723.304	0.0146442
723.382	0.0148148
723.460	0.0149271
723.538	0.0147854
723.616	0.0149127
723.694	0.0149024
723.773	0.0149800
723.851	0.0149835
723.929	0.0149368
724.007	0.0150193
724.085	0.0152055
724.163	0.0151996
724.241	0.0151910
724.319	0.0152401
724.398	0.0153776
724.476	0.0154109
724.554	0.0155138
724.632	0.0153139
724.710	0.0155344
724.788	0.0156324
724.866	0.0155709
724.944	0.0156580
725.023	0.0156567
725.101	0.0157742
725.179	0.0157089
725.257	0.0156294
725.335	0.0157355
725.413	0.0157277
725.491	0.0156527
725.569	0.0157937
725.648	0.0157537
725.726	0.0157307
725.804	0.0156584
725.882	0.0156590
725.960	0.0155318
726.038	0.0154864
726.116	0.0154906
726.194	0.0153455
726.273	0.0152489
726.351	0.0150871
726.429	0.0151072
726.507	0.0151774
726.585	0.0151442
726.663	0.0150802
726.741	0.0150539
726.819	0.0150324
726.898	0.0149579
726.976	0.0150278
727.054	0.0148798
727.132	0.0147630
727.210	0.0150386
727.288	0.0150330
727.366	0.0149259
727.444	0.0146307
727.523	0.0148893
727.601	0.0146110
727.679	0.0147093
727.757	0.0146696
727.835	0.0146585
727.913	0.0145275
727.991	0.0143994
728.069	0.0143964
728.148	0.0144360
728.226	0.0145168
728.304	0.0143712
728.382	0.0144492
728.460	0.0144759
728.538	0.0144910
728.616	0.0144762
728.694	0.0146034
728.773	0.0146185
728.851	0.0147385
728.929	0.0147262
729.007	0.0148209
729.085	0.0149213
729.163	0.0151494
729.241	0.0150823
729.319	0.0150011
729.398	0.0150906
729.476	0.0152159
729.554	0.0153500
729.632	0.0151955
729.710	0.0152016
729.788	0.0153548
729.866	0.0152914
729.944	0.0154002
730.023	0.0153439
730.101	0.0154870
730.179	0.0155819
730.257	0.0153701
730.335	0.0154623
730.413	0.0156526
730.491	0.0154873
730.569	0.0155016
730.648	0.0157037
730.726	0.0155157
730.804	0.0154309
730.882	0.0156163
730.960	0.0156258
731.038	0.0153383
731.116	0.0154112
731.194	0.0152610
731.273	0.0154949
731.351	0.0152705
731.429	0.0150871
731.507	0.0152707
731.585	0.0151891
731.663	0.0151593
731.741	0.0150741
731.819	0.0152255
731.898	0.0151678
731.976	0.0152164
732.054	0.0153279
732.132	0.0152538
732.210	0.0152780
732.288	0.0152219
732.366	0.0154262
732.444	0.0154321
732.523	0.0153533
732.601	0.0154347
732.679	0.0154433
732.757	0.0153517
732.835	0.0153820
732.913	0.0153077
732.991	0.0152792
733.069	0.0151764
733.148	0.0151379
733.226	0.0150362
733.304	0.0149378
733.382	0.0151202
733.460	0.0150828
733.538	0.0149606
733.616	0.0149616
733.694	0.0149573
733.773	0.0148207
733.851	0.0146983
733.929	0.0147499
734.007	0.0147940
734.085	0.0149672
734.163	0.0148138
734.241	0.0147461
734.319	0.0147193
734.398	0.0147604
734.476	0.0146944
734.554	0.0148385
734.632	0.0147607
734.710	0.0148280
734.788	0.0149112
734.866	0.0147546
734.944	0.0147902
735.023	0.0149294
735.101	0.0150469
735.179	0.0149294
735.257	0.0151203
735.335	0.0151498
735.413	0.0151572
735.491	0.0151520
735.569	0.0152409
735.648	0.0151648
735.726	0.0152287
735.804	0.0152661
735.882	0.0152490
735.960	0.0152113
736.038	0.0149853
736.116	0.0149947
736.194	0.0150582
736.273	0.0150655
736.351	0.0149442
736.429	0.0150282
736.507	0.0149364
736.585	0.0148790
736.663	0.0148808
736.741	0.0150342
736.819	0.0147720
736.898	0.0146550
736.976	0.0147029
737.054	0.0147752
737.132	0.0147116
737.210	0.0146939
737.288	0.0145240
737.366	0.0146023
737.444	0.0146233
737.523	0.0146288
737.601	0.0145813
737.679	0.0145380
737.757	0.0146066
737.835	0.0145583
737.913	0.0145460
737.991	0.0144125
738.069	0.0144588
738.148	0.0144742
738.226	0.0144023
738.304	0.0145210
738.382	0.0144842
738.460	0.0145730
738.538	0.0145912
738.616	0.0146562
738.694	0.0145992
738.773	0.0148099
738.851	0.0146678
738.929	0.0148396
739.007	0.0149140
739.085	0.0148634
739.163	0.0149120
739.241	0.0149162
739.319	0.0151998
739.398	0.0151579
739.476	0.0151305
739.554	0.0152995
739.632	0.0153336
739.710	0.0153055
739.788	0.0152686
739.866	0.0153233
739.944	0.0154824
740.023	0.0153239
740.101	0.0154126
740.179	0.0154721
740.257	0.0155025
740.335	0.0155894
740.413	0.0154584
740.491	0.0155296
740.569	0.0155531
740.648	0.0154469
740.726	0.0154916
740.804	0.0154142
740.882	0.0154525
740.960	0.0153212
741.038	0.0151466
741.116	0.0153355
741.194	0.0151076
741.273	0.0152298
741.351	0.0150688
741.429	0.0150025
741.507	0.0148933
741.585	0.0149179
741.663	0.0149021
741.741	0.0150352
741.819	0.0148992
741.898	0.0148266
741.976	0.0149190
742.054	0.0147346
742.132	0.0146591
742.210	0.0146380
742.288	0.0145938
742.366	0.0145094
742.444	0.0144448
742.523	0.0144160
742.601	0.0143059
742.679	0.0143695
742.757	0.0143913
742.835	0.0141884
742.913	0.0141492
742.991	0.0142387
743.069	0.0143236
743.148	0.0141964
743.226	0.0141137
743.304	0.0142744
743.382	0.0141631
743.460	0.0143513
743.538	0.0143164
743.616	0.0143496
743.694	0.0142163
743.773	0.0142197
743.851	0.0144060
743.929	0.0144949
744.007	0.0144427
744.085	0.0143723
744.163	0.0145390
744.241	0.0146591
744.319	0.0147141
744.398	0.0146954
744.476	0.0146750
744.554	0.0148876
744.632	0.0146808
744.710	0.0147891
744.788	0.0149088
744.866	0.0148669
744.944	0.0147866
745.023	0.0149562
745.101	0.0149461
745.179	0.0150224
745.257	0.0148530
745.335	0.0148847
745.413	0.0148753
745.491	0.0148541
745.569	0.0148574
745.648	0.0147539
745.726	0.0147853
745.804	0.0147504
745.882	0.0146903
745.960	0.0148127
746.038	0.0150111
746.116	0.0147961
746.194	0.0148130
746.273	0.0148442
746.351	0.0149853
746.429	0.0149078
746.507	0.0150133
746.585	0.0150855
746.663	0.0150678
746.741	0.0151445
746.819	0.0150740
746.898	0.0151291
746.976	0.0153137
747.054	0.0151607
747.132	0.0151804
747.210	0.0151847
747.288	0.0151577
747.366	0.0151584
747.444	0.0151973
747.523	0.0153375
747.601	0.0152524
747.679	0.0152097
747.757	0.0150959
747.835	0.0150245
747.913	0.0150802
747.991	0.0149477
748.069	0.0149993
748.148	0.0150162
748.226	0.0150523
748.304	0.0150853
748.382	0.0148770
748.460	0.0148626
748.538	0.0150073
748.616	0.0149326
748.694	0.0148824
748.773	0.0150546
748.851	0.0151109
748.929	0.0149715
749.007	0.0149623
749.085	0.0150341
749.163	0.0150497
749.241	0.0151254
749.319	0.0149501
749.398	0.0150092
749.476	0.0147591
749.554	0.0147939
749.632	0.0148743
749.710	0.0147270
749.788	0.0147649
749.866	0.0148272
749.944	0.0147960
750.023	0.0146378
750.101	0.0147150
750.179	0.0146751
750.257	0.0147752
750.335	0.0148327
750.413	0.0147913
750.491	0.0148553
750.569	0.0149366
750.648	0.0149967
750.726	0.0150285
750.804	0.0151950
750.882	0.0151247
750.960	0.0150932
751.038	0.0152267
751.116	0.0152086
751.194	0.0154258
751.273	0.0153394
751.351	0.0152252
751.429	0.0152726
751.507	0.0153212
751.585	0.0153209
751.663	0.0152842
751.741	0.0152129
751.819	0.0152592
751.898	0.0153546
751.976	0.0153555
752.054	0.0152738
752.132	0.0151263
752.210	0.0151487
752.288	0.0152647
752.366	0.0150562
752.444	0.0149361
752.523	0.0149976
752.601	0.0148583
752.679	0.0148919
752.757	0.0148967
752.835	0.0149071
752.913	0.0148318
752.991	0.0148085
753.069	0.0148109
753.148	0.0150601
753.226	0.0148598
753.304	0.0148431
753.382	0.0150124
753.460	0.0150510
753.538	0.0149329
753.616	0.0149272
753.694	0.0149866
753.773	0.0150013
753.851	0.0149361
753.929	0.0150445
754.007	0.0148338
754.085	0.0150645
754.163	0.0149374
754.241	0.0150148
754.319	0.0149688
754.398	0.0150098
754.476	0.0148033
754.554	0.0148653
754.632	0.0146762
754.710	0.0147196
754.788	0.0147450
754.866	0.0148010
754.944	0.0148888
755.023	0.0148170
755.101	0.0149061
755.179	0.0148891
755.257	0.0149071
755.335	0.0148560
755.413	0.0150032
755.491	0.0149728
755.569	0.0148613
755.648	0.0149393
755.726	0.0149236
755.804	0.0148772
755.882	0.0148647
755.960	0.0148569
756.038	0.0148009
756.116	0.0147501
756.194	0.0148853
756.273	0.0147344
756.351	0.0146982
756.429	0.0147914
756.507	0.0149379
756.585	0.0147800
756.663	0.0148524
756.741	0.0148257
756.819	0.0148026
756.898	0.0148907
756.976	0.0149754
757.054	0.0149831
757.132	0.0149117
757.210	0.0148748
757.288	0.0148969
757.366	0.0151125
757.444	0.0148426
757.523	0.0151126
757.601	0.0150179
757.679	0.0149903
757.757	0.0149512
757.835	0.0149928
757.913	0.0150642
757.991	0.0149243
758.069	0.0148964
758.148	0.0149863
758.226	0.0150325
758.304	0.0148817
758.382	0.0149546
758.460	0.0149443
758.538	0.0149809
758.616	0.0149413
758.694	0.0150357
758.773	0.0149337
758.851	0.0149354
758.929	0.0151289
759.007	0.0149565
759.085	0.0150951
759.163	0.0150710
759.241	0.0152087
759.319	0.0151147
759.398	0.0151054
759.476	0.0152237
759.554	0.0153499
759.632	0.0151847
759.710	0.0152858
759.788	0.0152866
759.866	0.0151576
759.944	0.0152268
760.023	0.0152725
760.101	0.0153387
760.179	0.0152476
760.257	0.0151563
760.335	0.0153024
760.413	0.0152594
760.491	0.0152608
760.569	0.0152312
760.648	0.0151550
760.726	0.0152944
760.804	0.0153883
760.882	0.0153284
760.960	0.0153074
761.038	0.0155095
761.116	0.0154549
761.194	0.0153951
761.273	0.0155475
761.351	0.0155026
761.429	0.0154565
761.507	0.0153416
761.585	0.0154482
761.663	0.0151958
761.741	0.0152577
761.819	0.0151889
761.898	0.0151363
761.976	0.0151061
762.054	0.0151475
762.132	0.0151528
762.210	0.0150749
762.288	0.0150372
762.366	0.0149926
762.444	0.0150666
762.523	0.0149619
762.601	0.0150992
762.679	0.0152470
762.757	0.0151669
762.835	0.0151305
762.913	0.0151751
762.991	0.0152121
763.069	0.0153566
763.148	0.0152410
763.226	0.0151986
763.304	0.0151748
763.382	0.0150869
763.460	0.0150329
763.538	0.0149443
763.616	0.0150301
763.694	0.0150450
763.773	0.0150143
763.851	0.0148844
763.929	0.0148238
764.007	0.0148621
764.085	0.0148876
764.163	0.0149031
764.241	0.0147852
764.319	0.0148008
764.398	0.0146400
764.476	0.0146387
764.554	0.0147282
764.632	0.0145520
764.710	0.0146791
764.788	0.0146280
764.866	0.0146229
764.944	0.0146237
765.023	0.0146561
765.101	0.0146107
765.179	0.0146955
765.257	0.0145732
765.335	0.0146959
765.413	0.0146592
765.491	0.0144669
765.569	0.0145900
765.648	0.0146454
765.726	0.0146944
765.804	0.0146202
765.882	0.0146632
765.960	0.0147118
766.038	0.0146027
766.116	0.0146324
766.194	0.0145440
766.273	0.0144991
766.351	0.0145859
766.429	0.0145090
766.507	0.0143651
766.585	0.0142410
766.663	0.0142838
766.741	0.0143383
766.819	0.0144089
766.898	0.0143873
766.976	0.0144051
767.054	0.0143478
767.132	0.0142957
767.210	0.0144067
767.288	0.0144962
767.366	0.0144810
767.444	0.0145612
767.523	0.0145253
767.601	0.0144890
767.679	0.0145654
767.757	0.0146301
767.835	0.0146417
767.913	0.0145917
767.991	0.0145866
768.069	0.0146786
768.148	0.0149184
768.226	0.0147102
768.304	0.0148193
768.382	0.0148174
768.460	0.0150305
768.538	0.0149584
768.616	0.0151181
768.694	0.0151407
768.773	0.0151855
768.851	0.0153019
768.929	0.0152663
769.007	0.0154011
769.085	0.0154515
769.163	0.0154226
769.241	0.0154371
769.319	0.0153800
769.398	0.0153880
769.476	0.0152618
769.554	0.0150755
769.632	0.0150991
769.710	0.0151088
769.788	0.0149824
769.866	0.0147797
769.944	0.0147978
770.023	0.0147415
770.101	0.0145854
770.179	0.0145975
770.257	0.0145718
770.335	0.0144584
770.413	0.0145174
770.491	0.0146230
770.569	0.0145052
770.648	0.0145241
770.726	0.0145708
770.804	0.0147906
770.882	0.0147337
770.960	0.0147676
771.038	0.0149257
771.116	0.0148551
771.194	0.0149410
771.273	0.0151088
771.351	0.0150306
771.429	0.0149929
771.507	0.0151569
771.585	0.0152948
771.663	0.0153642
771.741	0.0155112
771.819	0.0152673
771.898	0.0154467
771.976	0.0153445
772.054	0.0155042
772.132	0.0153304
772.210	0.0154361
772.288	0.0154318
772.366	0.0152881
772.444	0.0152174
772.523	0.0152833
772.601	0.0151179
772.679	0.0150607
772.757	0.0149608
772.835	0.0150489
772.913	0.0149572
772.991	0.0148784
773.069	0.0149306
773.148	0.0149385
773.226	0.0148967
773.304	0.0148708
773.382	0.0148315
773.460	0.0149522
773.538	0.0149329
773.616	0.0150649
773.694	0.0151614
773.773	0.0151793
773.851	0.0152081
773.929	0.0153886
774.007	0.0153815
774.085	0.0154254
774.163	0.0154691
774.241	0.0154919
774.319	0.0154630
774.398	0.0154316
774.476	0.0153552
774.554	0.0154705
774.632	0.0154967
774.710	0.0153452
774.788	0.0152322
774.866	0.0152239
774.944	0.0151968
775.023	0.0149897
775.101	0.0149181
775.179	0.0149502
775.257	0.0148050
775.335	0.0147160
775.413	0.0146152
775.491	0.0145205
775.569	0.0145646
775.648	0.0146074
775.726	0.0144591
775.804	0.0143880
775.882	0.0143604
775.960	0.0143594
776.038	0.0144654
776.116	0.0144138
776.194	0.0146520
776.273	0.0145108
776.351	0.0145821
776.429	0.0147025
776.507	0.0147334
776.585	0.0150407
776.663	0.0149805
776.741	0.0149582
776.819	0.0150120
776.898	0.0150662
776.976	0.0150308
777.054	0.0150779
777.132	0.0150155
777.210	0.0151709
777.288	0.0151362
777.366	0.0151514
777.444	0.0149975
777.523	0.0149947
777.601	0.0150710
777.679	0.0150826
777.757	0.0151326
777.835	0.0150367
777.913	0.0152116
777.991	0.0149631
778.069	0.0151640
778.148	0.0152441
778.226	0.0151893
778.304	0.0152554
778.382	0.0151936
778.460	0.0154774
778.538	0.0155281
778.616	0.0154824
778.694	0.0155692
778.773	0.0155155
778.851	0.0157592
778.929	0.0156257
779.007	0.0156455
779.085	0.0156524
779.163	0.0158347
779.241	0.0154733
779.319	0.0155487
779.398	0.0155647
779.476	0.0152434
779.554	0.0153404
779.632	0.0153492
779.710	0.0153555
779.788	0.0150913
779.866	0.0153131
779.944	0.0151929
780.023	0.0150925
780.101	0.0150327
780.179	0.0149937
780.257	0.0150470
780.335	0.0150108
780.413	0.0150304
780.491	0.0148158
780.569	0.0150319
780.648	0.0148100
780.726	0.0149762
780.804	0.0149952
780.882	0.0146956
780.960	0.0149285
781.038	0.0148830
781.116	0.0148111
781.194	0.0148481
781.273	0.0149177
781.351	0.0150443
781.429	0.0150866
781.507	0.0150748
781.585	0.0150254
781.663	0.0150916
781.741	0.0151700
781.819	0.0151486
781.898	0.0151835
781.976	0.0150785
782.054	0.0151650
782.132	0.0150794
782.210	0.0150596
782.288	0.0149020
782.366	0.0149471
782.444	0.0152470
782.523	0.0148559
782.601	0.0148063
782.679	0.0148132
782.757	0.0150562
782.835	0.0148302
782.913	0.0148492
782.991	0.0147960
783.069	0.0147041
783.148	0.0146191
783.226	0.0145254
783.304	0.0147033
783.382	0.0145657
783.460	0.0144944
783.538	0.0145560
783.616	0.0146181
783.694	0.0144949
783.773	0.0145007
783.851	0.0143748
783.929	0.0143497
784.007	0.0144273
784.085	0.0143050
784.163	0.0144976
784.241	0.0144741
784.319	0.0143202
784.398	0.0145948
784.476	0.0145445
784.554	0.0144662
784.632	0.0146015
784.710	0.0145058
784.788	0.0145927
784.866	0.0147753
784.944	0.0147749
785.023	0.0147102
785.101	0.0149429
785.179	0.0147255
785.257	0.0149161
785.335	0.0149577
785.413	0.0150861
785.491	0.0150161
785.569	0.0150749
785.648	0.0150842
785.726	0.0150815
785.804	0.0150891
785.882	0.0150855
785.960	0.0151563
786.038	0.0149007
786.116	0.0150799
786.194	0.0150865
786.273	0.0149824
786.351	0.0149055
786.429	0.0149641
786.507	0.0149077
786.585	0.0148834
786.663	0.0148835
786.741	0.0148569
786.819	0.0148810
786.898	0.0148650
786.976	0.0149394
787.054	0.0150121
787.132	0.0149844
787.210	0.0148534
787.288	0.0148562
787.366	0.0149402
787.444	0.0148786
787.523	0.0149883
787.601	0.0148037
787.679	0.0147420
787.757	0.0148126
787.835	0.0149962
787.913	0.0148417
787.991	0.0149387
788.069	0.0148429
788.148	0.0148322
788.226	0.0149056
788.304	0.0149685
788.382	0.0148813
788.460	0.0148837
788.538	0.0149946
788.616	0.0149124
788.694	0.0149725
788.773	0.0150407
788.851	0.0150620
788.929	0.0149900
789.007	0.0151409
789.085	0.0150159
789.163	0.0151245
789.241	0.0152348
789.319	0.0151596
789.398	0.0153426
789.476	0.0153129
789.554	0.0154182
789.632	0.0154300
789.710	0.0152590
789.788	0.0152694
789.866	0.0154678
789.944	0.0153503
790.023	0.0153814
790.101	0.0155128
790.179	0.0155353
790.257	0.0155784
790.335	0.0156219
790.413	0.0155373
790.491	0.0155377
790.569	0.0154371
790.648	0.0155617
790.726	0.0154351
790.804	0.0153268
790.882	0.0154481
790.960	0.0154627
791.038	0.0154254
791.116	0.0152726
791.194	0.0152328
791.273	0.0153710
791.351	0.0153288
791.429	0.0153012
791.507	0.0152107
791.585	0.0153268
791.663	0.0149139
791.741	0.0149846
791.819	0.0151040
791.898	0.0151395
791.976	0.0150136
792.054	0.0151467
792.132	0.0150858
792.210	0.0150974
792.288	0.0151616
792.366	0.0150298
792.444	0.0149549
792.523	0.0150999
792.601	0.0149744
792.679	0.0147792
792.757	0.0148345
792.835	0.0148037
792.913	0.0148259
792.991	0.0148959
793.069	0.0146915
793.148	0.0148441
793.226	0.0146467
793.304	0.0147025
793.382	0.0147060
793.460	0.0144270
793.538	0.0146696
793.616	0.0147433
793.694	0.0148242
793.773	0.0147290
793.851	0.0147289
793.929	0.0147695
794.007	0.0148490
794.085	0.0148455
794.163	0.0149072
794.241	0.0150023
794.319	0.0149664
794.398	0.0150912
794.476	0.0148873
794.554	0.0150716
794.632	0.0150179
794.710	0.0150582
794.788	0.0149677
794.866	0.0150979
794.944	0.0149864
795.023	0.0149749
795.101	0.0151249
795.179	0.0151673
795.257	0.0148910
795.335	0.0150234
795.413	0.0149746
795.491	0.0148347
795.569	0.0148859
795.648	0.0146955
795.726	0.0148454
795.804	0.0145125
795.882	0.0145356
795.960	0.0146540
796.038	0.0145100
796.116	0.0145872
796.194	0.0146010
796.273	0.0146384
796.351	0.0145560
796.429	0.0145308
796.507	0.0145675
796.585	0.0147949
796.663	0.0149031
796.741	0.0147607
796.819	0.0147838
796.898	0.0148286
796.976	0.0148411
797.054	0.0149046
797.132	0.0147530
797.210	0.0149350
797.288	0.0148788
797.366	0.0149493
797.444	0.0149064
797.523	0.0150341
797.601	0.0149064
797.679	0.0149206
797.757	0.0150452
797.835	0.0150504
797.913	0.0149524
797.991	0.0149081
798.069	0.0149282
798.148	0.0149894
798.226	0.0149402
798.304	0.0149951
798.382	0.0150797
798.460	0.0149740
798.538	0.0150150
798.616	0.0150019
798.694	0.0149344
798.773	0.0149455
798.851	0.0149278
798.929	0.0149720
799.007	0.0150323
799.085	0.0150880
799.163	0.0150073
799.241	0.0148587
799.319	0.0148754
799.398	0.0150865
799.476	0.0150496
799.554	0.0151003
799.632	0.0149941
799.710	0.0151286
799.788	0.0151867
799.866	0.0151865
799.944	0.0152512
800.023	0.0152594
800.101	0.0152901
800.179	0.0154007
800.257	0.0152555
800.335	0.0153488
800.413	0.0151548
800.491	0.0153314
800.569	0.0154098
800.648	0.0153130
800.726	0.0152401
800.804	0.0154691
800.882	0.0154221
800.960	0.0153149
801.038	0.0153572
801.116	0.0152293
801.194	0.0152993
801.273	0.0151953
801.351	0.0153320
801.429	0.0153893
801.507	0.0151568
801.585	0.0152502
801.663	0.0152271
801.741	0.0153104
801.819	0.0152865
801.898	0.0152174
801.976	0.0155229
802.054	0.0154506
802.132	0.0153470
802.210	0.0155427
802.288	0.0155288
802.366	0.0154402
802.444	0.0154448
802.523	0.0154268
802.601	0.0154114
802.679	0.0153756
802.757	0.0154926
802.835	0.0153711
802.913	0.0154977
802.991	0.0153441
803.069	0.0153894
803.148	0.0152676
803.226	0.0153312
803.304	0.0153187
803.382	0.0153642
803.460	0.0153609
803.538	0.0153595
803.616	0.0153510
803.694	0.0153301
803.773	0.0153241
803.851	0.0152446
803.929	0.0152451
804.007	0.0153899
804.085	0.0155408
804.163	0.0152328
804.241	0.0151632
804.319	0.0152670
804.398	0.0150935
804.476	0.0152180
804.554	0.0152034
804.632	0.0150005
804.710	0.0152435
804.788	0.0152889
804.866	0.0150712
804.944	0.0149533
805.023	0.0151023
805.101	0.0151372
805.179	0.0149189
805.257	0.0150237
805.335	0.0150476
805.413	0.0151192
805.491	0.0149685
805.569	0.0150843
805.648	0.0149010
805.726	0.0149210
805.804	0.0148273
805.882	0.0147825
805.960	0.0147596
806.038	0.0148020
806.116	0.0147998
806.194	0.0147728
806.273	0.0148660
806.351	0.0147414
806.429	0.0146426
806.507	0.0146434
806.585	0.0145883
806.663	0.0145982
806.741	0.0146507
806.819	0.0146088
806.898	0.0145190
806.976	0.0146477
807.054	0.0146790
807.132	0.0145372
807.210	0.0145955
807.288	0.0145226
807.366	0.0146216
807.444	0.0148248
807.523	0.0149174
807.601	0.0148941
807.679	0.0149317
807.757	0.0149721
807.835	0.0149403
807.913	0.0149196
807.991	0.0149867
808.069	0.0150128
808.148	0.0150946
808.226	0.0150641
808.304	0.0149632
808.382	0.0149248
808.460	0.0149210
808.538	0.0148933
808.616	0.0148518
808.694	0.0146472
808.773	0.0146561
808.851	0.0147562
808.929	0.0147860
809.007	0.0146257
809.085	0.0147221
809.163	0.0147266
809.241	0.0148524
809.319	0.0147589
809.398	0.0148695
809.476	0.0148820
809.554	0.0148505
809.632	0.0149622
809.710	0.0148886
809.788	0.0148960
809.866	0.0149433
809.944	0.0149116
810.023	0.0149177
810.101	0.0147607
810.179	0.0148742
810.257	0.0148025
810.335	0.0148737
810.413	0.0147771
810.491	0.0145789
810.569	0.0146236
810.648	0.0147454
810.726	0.0145712
810.804	0.0147507
810.882	0.0147670
810.960	0.0147425
811.038	0.0147295
811.116	0.0148261
811.194	0.0148022
811.273	0.0148816
811.351	0.0148923
811.429	0.0149186
811.507	0.0147993
811.585	0.0148623
811.663	0.0148562
811.741	0.0147704
811.819	0.0147970
811.898	0.0147947
811.976	0.0148338
812.054	0.0149036
812.132	0.0149604
812.210	0.0147701
812.288	0.0148728
812.366	0.0149296
812.444	0.0148161
812.523	0.0148596
812.601	0.0149211
812.679	0.0148837
812.757	0.0148392
812.835	0.0148096
812.913	0.0147071
812.991	0.0147057
813.069	0.0147954
813.148	0.0146890
813.226	0.0148898
813.304	0.0149353
813.382	0.0150144
813.460	0.0150296
813.538	0.0150751
813.616	0.0152116
813.694	0.0152802
813.773	0.0152807
813.851	0.0153292
813.929	0.0153251
814.007	0.0153850
814.085	0.0153471
814.163	0.0153769
814.241	0.0153366
814.319	0.0152364
814.398	0.0154424
814.476	0.0153030
814.554	0.0151966
814.632	0.0151370
814.710	0.0153673
814.788	0.0151830
814.866	0.0153465
814.944	0.0153467
815.023	0.0153079
815.101	0.0152982
815.179	0.0152557
815.257	0.0151240
815.335	0.0151315
815.413	0.0152109
815.491	0.0151711
815.569	0.0150771
815.648	0.0151219
815.726	0.0150341
815.804	0.0149603
815.882	0.0150349
815.960	0.0150157
816.038	0.0153159
816.116	0.0153097
816.194	0.0153478
816.273	0.0153630
816.351	0.0153876
816.429	0.0156512
816.507	0.0154545
816.585	0.0154357
816.663	0.0154006
816.741	0.0154865
816.819	0.0154533
816.898	0.0153429
816.976	0.0150526
817.054	0.0152575
817.132	0.0151894
817.210	0.0151357
817.288	0.0149637
817.366	0.0148836
817.444	0.0149816
817.523	0.0150108
817.601	0.0148186
817.679	0.0147321
817.757	0.0147649
817.835	0.0146742
817.913	0.0147573
817.991	0.0144614
818.069	0.0147044
818.148	0.0147653
818.226	0.0147691
818.304	0.0147890
818.382	0.0148753
818.460	0.0149718
818.538	0.0150874
818.616	0.0151933
818.694	0.0154082
818.773	0.0154437
818.851	0.0154339
818.929	0.0156570
819.007	0.0157733
819.085	0.0157270
819.163	0.0157134
819.241	0.0156684
819.319	0.0157204
819.398	0.0156290
819.476	0.0155172
819.554	0.0154353
819.632	0.0151695
819.710	0.0152145
819.788	0.0149943
819.866	0.0149282
819.944	0.0148870
820.023	0.0147365
820.101	0.0146377
820.179	0.0145880
820.257	0.0144601
820.335	0.0145943
820.413	0.0145332
820.491	0.0146115
820.569	0.0145335
820.648	0.0147380
820.726	0.0147736
820.804	0.0149624
820.882	0.0151301
820.960	0.0151038
821.038	0.0152063
821.116	0.0154692
821.194	0.0154240
821.273	0.0156451
821.351	0.0156390
821.429	0.0156406
821.507	0.0157648
821.585	0.0156904
821.663	0.0157004
821.741	0.0155615
821.819	0.0155459
821.898	0.0155505
821.976	0.0154288
822.054	0.0152606
822.132	0.0151653
822.210	0.0151210
822.288	0.0149409
822.366	0.0148547
822.444	0.0148618
822.523	0.0148682
822.601	0.0148218
822.679	0.0145958
822.757	0.0146656
822.835	0.0147334
822.913	0.0146806
822.991	0.0148344
823.069	0.0149611
823.148	0.0148421
823.226	0.0147223
823.304	0.0150088
823.382	0.0148285
823.460	0.0148960
823.538	0.0149377
823.616	0.0149516
823.694	0.0150304
823.773	0.0151131
823.851	0.0152853
823.929	0.0153655
824.007	0.0153186
824.085	0.0154676
824.163	0.0154225
824.241	0.0154704
824.319	0.0155628
824.398	0.0156299
824.476	0.0155673
824.554	0.0155327
824.632	0.0156052
824.710	0.0156579
824.788	0.0154696
824.866	0.0154634
824.944	0.0152839
825.023	0.0152582
825.101	0.0150731
825.179	0.0150244
825.257	0.0148194
825.335	0.0147791
825.413	0.0146095
825.491	0.0146512
825.569	0.0143626
825.648	0.0142049
825.726	0.0141662
825.804	0.0142725
825.882	0.0142403
825.960	0.0143094
826.038	0.0143643
826.116	0.0142713
826.194	0.0144908
826.273	0.0146763
826.351	0.0144220
826.429	0.0148388
826.507	0.0146352
826.585	0.0148556
826.663	0.0149379
826.741	0.0149726
826.819	0.0150323
826.898	0.0150887
826.976	0.0151716
827.054	0.0152190
827.132	0.0152000
827.210	0.0150180
827.288	0.0151088
827.366	0.0149831
827.444	0.0148508
827.523	0.0149293
827.601	0.0148300
827.679	0.0147756
827.757	0.0146512
827.835	0.0144842
827.913	0.0144296
827.991	0.0143566
828.069	0.0143880
828.148	0.0143108
828.226	0.0143045
828.304	0.0142863
828.382	0.0143072
828.460	0.0142278
828.538	0.0141478
828.616	0.0141940
828.694	0.0141861
828.773	0.0140901
828.851	0.0142561
828.929	0.0142236
829.007	0.0144308
829.085	0.0144406
829.163	0.0144776
829.241	0.0146534
829.319	0.0146415
829.398	0.0147797
829.476	0.0150058
829.554	0.0151602
829.632	0.0152372
829.710	0.0154724
829.788	0.0155644
829.866	0.0156182
829.944	0.0158242
830.023	0.0157899
830.101	0.0157112
830.179	0.0157834
830.257	0.0158925
830.335	0.0158775
830.413	0.0157002
830.491	0.0157347
830.569	0.0155965
830.648	0.0156905
830.726	0.0155349
830.804	0.0153116
830.882	0.0152522
830.960	0.0151808
831.038	0.0150883
831.116	0.0148048
831.194	0.0146672
831.273	0.0147138
831.351	0.0144604
831.429	0.0144759
831.507	0.0144074
831.585	0.0142429
831.663	0.0144137
831.741	0.0143216
831.819	0.0140994
831.898	0.0143108
831.976	0.0143466
832.054	0.0142641
832.132	0.0143803
832.210	0.0145972
832.288	0.0146177
832.366	0.0148054
832.444	0.0146822
832.523	0.0148026
832.601	0.0149432
832.679	0.0151328
832.757	0.0150607
832.835	0.0153336
832.913	0.0155232
832.991	0.0156313
833.069	0.0155549
833.148	0.0157024
833.226	0.0156885
833.304	0.0156739
833.382	0.0156577
833.460	0.0158204
833.538	0.0158988
833.616	0.0157598
833.694	0.0156401
833.773	0.0156043
833.851	0.0154591
833.929	0.0154099
834.007	0.0154876
834.085	0.0151952
834.163	0.0151032
834.241	0.0152692
834.319	0.0151764
834.398	0.0150190
834.476	0.0149323
834.554	0.0147266
834.632	0.0147784
834.710	0.0147789
834.788	0.0147192
834.866	0.0145076
834.944	0.0145685
835.023	0.0144148
835.101	0.0142752
835.179	0.0143040
835.257	0.0143893
835.335	0.0142773
835.413	0.0142593
835.491	0.0142625
835.569	0.0143826
835.648	0.0143703
835.726	0.0144968
835.804	0.0146071
835.882	0.0146854
835.960	0.0148731
836.038	0.0148728
836.116	0.0150681
836.194	0.0152302
836.273	0.0153693
836.351	0.0154730
836.429	0.0156473
836.507	0.0156676
836.585	0.0158929
836.663	0.0162747
836.741	0.0163352
836.819	0.0163992
836.898	0.0162382
836.976	0.0162324
837.054	0.0162946
837.132	0.0161777
837.210	0.0160984
837.288	0.0159399
837.366	0.0158302
837.444	0.0156018
837.523	0.0156528
837.601	0.0155133
837.679	0.0153387
837.757	0.0152711
837.835	0.0151227
837.913	0.0149026
837.991	0.0148939
838.069	0.0147662
838.148	0.0146606
838.226	0.0145454
838.304	0.0144341
838.382	0.0141978
838.460	0.0140119
838.538	0.0140308
838.616	0.0139216
838.694	0.0138917
838.773	0.0139016
838.851	0.0137472
838.929	0.0137171
839.007	0.0138638
839.085	0.0139150
839.163	0.0139821
839.241	0.0138004
839.319	0.0140195
839.398	0.0142007
839.476	0.0141645
839.554	0.0143624
839.632	0.0144005
839.710	0.0143912
839.788	0.0145806
839.866	0.0146734
839.944	0.0148959
840.023	0.0150130
840.101	0.0151770
840.179	0.0153672
840.257	0.0154432
840.335	0.0156479
840.413	0.0158356
840.491	0.0159136
840.569	0.0160285
840.648	0.0161800
840.726	0.0160395
840.804	0.0160486
840.882	0.0162404
840.960	0.0161491
841.038	0.0158542
841.116	0.0157462
841.194	0.0156055
841.273	0.0157565
841.351	0.0155329
841.429	0.0153120
841.507	0.0151478
841.585	0.0150471
841.663	0.0149954
841.741	0.0149435
841.819	0.0147710
841.898	0.0147363
841.976	0.0147247
842.054	0.0145918
842.132	0.0145089
842.210	0.0145150
842.288	0.0143925
842.366	0.0143034
842.444	0.0141547
842.523	0.0141880
842.601	0.0142360
842.679	0.0142635
842.757	0.0142576
842.835	0.0142221
842.913	0.0144465
842.991	0.0144360
843.069	0.0145883
843.148	0.0146507
843.226	0.0147202
843.304	0.0151054
843.382	0.0151233
843.460	0.0152162
843.538	0.0151139
843.616	0.0153898
843.694	0.0155256
843.773	0.0156923
843.851	0.0158124
843.929	0.0158331
844.007	0.0159435
844.085	0.0161053
844.163	0.0160083
844.241	0.0160835
844.319	0.0162290
844.398	0.0162129
844.476	0.0161710
844.554	0.0159716
844.632	0.0160021
844.710	0.0158035
844.788	0.0157079
844.866	0.0156293
844.944	0.0153893
845.023	0.0151630
845.101	0.0149770
845.179	0.0148347
845.257	0.0147744
845.335	0.0144690
845.413	0.0144388
845.491	0.0142613
845.569	0.0141367
845.648	0.0141847
845.726	0.0142240
845.804	0.0141099
845.882	0.0141933
845.960	0.0140517
846.038	0.0141556
846.116	0.0141615
846.194	0.0141153
846.273	0.0142004
846.351	0.0142905
846.429	0.0141290
846.507	0.0142419
846.585	0.0142236
846.663	0.0142809
846.741	0.0142195
846.819	0.0142393
846.898	0.0145367
846.976	0.0145377
847.054	0.0145959
847.132	0.0146890
847.210	0.0147661
847.288	0.0149193
847.366	0.0149961
847.444	0.0150368
847.523	0.0151803
847.601	0.0153035
847.679	0.0153991
847.757	0.0153999
847.835	0.0155252
847.913	0.0157180
847.991	0.0155029
848.069	0.0156132
848.148	0.0156157
848.226	0.0154989
848.304	0.0156411
848.382	0.0155524
848.460	0.0155370
848.538	0.0154534
848.616	0.0153291
848.694	0.0154845
848.773	0.0152814
848.851	0.0151479
848.929	0.0151500
849.007	0.0150309
849.085	0.0150431
849.163	0.0149312
849.241	0.0148237
849.319	0.0146140
849.398	0.0145586
849.476	0.0147073
849.554	0.0144946
849.632	0.0144366
849.710	0.0146394
849.788	0.0145078
849.866	0.0144503
849.944	0.0145384
850.023	0.0147078
850.101	0.0145100
850.179	0.0147060
850.257	0.0146834
850.335	0.0147821
850.413	0.0149952
850.491	0.0148566
850.569	0.0149750
850.648	0.0149199
850.726	0.0150725
850.804	0.0150038
850.882	0.0149912
850.960	0.0151201
851.038	0.0150253
851.116	0.0151685
851.194	0.0151308
851.273	0.0152707
851.351	0.0154050
851.429	0.0153022
851.507	0.0154072
851.585	0.0153133
851.663	0.0153085
851.741	0.0154359
851.819	0.0154341
851.898	0.0155559
851.976	0.0155418
852.054	0.0153530
852.132	0.0155009
852.210	0.0154755
852.288	0.0153047
852.366	0.0153312
852.444	0.0153297
852.523	0.0152799
852.601	0.0152903
852.679	0.0151548
852.757	0.0150191
852.835	0.0150245
852.913	0.0149274
852.991	0.0149120
853.069	0.0147947
853.148	0.0146893
853.226	0.0147440
853.304	0.0147696
853.382	0.0147339
853.460	0.0145556
853.538	0.0146776
853.616	0.0145723
853.694	0.0145303
853.773	0.0145347
853.851	0.0146428
853.929	0.0146898
854.007	0.0145891
854.085	0.0145203
854.163	0.0145892
854.241	0.0147441
854.319	0.0147186
854.398	0.0147520
854.476	0.0149198
854.554	0.0147053
854.632	0.0147060
854.710	0.0150233
854.788	0.0147646
854.866	0.0147596
854.944	0.0148347
855.023	0.0147697
855.101	0.0147687
855.179	0.0147526
855.257	0.0148792
855.335	0.0150668
855.413	0.0149669
855.491	0.0150660
855.569	0.0149191
855.648	0.0150983
855.726	0.0150903
855.804	0.0150367
855.882	0.0151245
855.960	0.0151794
856.038	0.0151662
856.116	0.0150818
856.194	0.0151138
856.273	0.0149959
856.351	0.0149426
856.429	0.0150169
856.507	0.0148277
856.585	0.0147596
856.663	0.0147608
856.741	0.0149206
856.819	0.0149213
856.898	0.0149658
856.976	0.0149825
857.054	0.0151530
857.132	0.0149891
857.210	0.0151980
857.288	0.0150804
857.366	0.0152929
857.444	0.0151458
857.523	0.0151013
857.601	0.0150995
857.679	0.0152570
857.757	0.0151704
857.835	0.0150960
857.913	0.0153210
857.991	0.0152556
858.069	0.0152969
858.148	0.0150315
858.226	0.0149945
858.304	0.0151180
858.382	0.0151193
858.460	0.0150450
858.538	0.0150504
858.616	0.0151258
858.694	0.0152399
858.773	0.0150619
858.851	0.0150058
858.929	0.0151418
859.007	0.0150869
859.085	0.0150709
859.163	0.0150912
859.241	0.0150603
859.319	0.0152189
859.398	0.0152208
859.476	0.0151806
859.554	0.0151424
859.632	0.0152651
859.710	0.0153461
859.788	0.0151401
859.866	0.0152285
859.944	0.0151834
860.023	0.0152615
860.101	0.0152894
860.179	0.0152927
860.257	0.0152220
860.335	0.0151574
860.413	0.0151996
860.491	0.0151931
860.569	0.0151267
860.648	0.0150560
860.726	0.0150675
860.804	0.0150860
860.882	0.0149349
860.960	0.0147346
861.038	0.0147563
861.116	0.0148597
861.194	0.0147498
861.273	0.0147411
861.351	0.0146535
861.429	0.0145917
861.507	0.0146139
861.585	0.0147768
861.663	0.0145923
861.741	0.0146290
861.819	0.0146978
861.898	0.0147356
861.976	0.0147129
862.054	0.0148133
862.132	0.0147465
862.210	0.0148130
862.288	0.0147909
862.366	0.0147552
862.444	0.0147072
862.523	0.0150123
862.601	0.0149435
862.679	0.0149226
862.757	0.0150275
862.835	0.0150317
862.913	0.0149952
862.991	0.0150223
863.069	0.0150795
863.148	0.0149550
863.226	0.0149439
863.304	0.0150576
863.382	0.0151312
863.460	0.0150739
863.538	0.0150812
863.616	0.0151315
863.694	0.0149838
863.773	0.0149886
863.851	0.0149960
863.929	0.0150391
864.007	0.0151261
864.085	0.0149477
864.163	0.0148466
864.241	0.0149047
864.319	0.0149870
864.398	0.0151677
864.476	0.0150935
864.554	0.0150357
864.632	0.0152000
864.710	0.0151395
864.788	0.0150879
864.866	0.0150997
864.944	0.0153144
865.023	0.0153674
865.101	0.0152217
865.179	0.0152164
865.257	0.0152573
865.335	0.0153064
865.413	0.0151817
865.491	0.0151627
865.569	0.0151987
865.648	0.0153351
865.726	0.0153428
865.804	0.0153410
865.882	0.0153252
865.960	0.0153542
866.038	0.0153990
866.116	0.0154515
866.194	0.0154002
866.273	0.0154166
866.351	0.0153883
866.429	0.0153946
866.507	0.0153375
866.585	0.0153665
866.663	0.0154153
866.741	0.0153052
866.819	0.0151556
866.898	0.0152349
866.976	0.0152032
867.054	0.0150463
867.132	0.0151405
867.210	0.0152203
867.288	0.0150552
867.366	0.0149629
867.444	0.0150202
867.523	0.0150232
867.601	0.0151457
867.679	0.0149662
867.757	0.0148561
867.835	0.0149733
867.913	0.0149403
867.991	0.0150169
868.069	0.0149800
868.148	0.0150550
868.226	0.0150018
868.304	0.0149515
868.382	0.0150350
868.460	0.0150470
868.538	0.0149385
868.616	0.0149451
868.694	0.0151225
868.773	0.0150934
868.851	0.0152858
868.929	0.0151125
869.007	0.0149742
869.085	0.0149911
869.163	0.0149783
869.241	0.0150987
869.319	0.0149455
869.398	0.0151183
869.476	0.0149904
869.554	0.0150414
869.632	0.0151228
869.710	0.0152273
869.788	0.0151554
869.866	0.0154305
869.944	0.0152473
870.023	0.0153233
870.101	0.0153997
870.179	0.0152560
870.257	0.0153445
870.335	0.0153020
870.413	0.0152457
870.491	0.0151902
870.569	0.0153442
870.648	0.0152432
870.726	0.0152966
870.804	0.0151801
870.882	0.0150903
870.960	0.0150678
871.038	0.0151607
871.116	0.0150471
871.194	0.0150049
871.273	0.0149738
871.351	0.0149396
871.429	0.0149566
871.507	0.0148784
871.585	0.0149445
871.663	0.0148275
871.741	0.0146725
871.819	0.0148034
871.898	0.0148882
871.976	0.0149234
872.054	0.0148244
872.132	0.0148038
872.210	0.0147097
872.288	0.0145326
872.366	0.0144775
872.444	0.0145884
872.523	0.0145921
872.601	0.0144550
872.679	0.0146671
872.757	0.0144247
872.835	0.0145547
872.913	0.0146777
872.991	0.0145709
873.069	0.0146587
873.148	0.0145066
873.226	0.0146271
873.304	0.0144940
873.382	0.0145985
873.460	0.0148003
873.538	0.0146161
873.616	0.0146196
873.694	0.0146796
873.773	0.0147068
873.851	0.0146901
873.929	0.0147585
874.007	0.0148100
874.085	0.0148628
874.163	0.0147821
874.241	0.0147529
874.319	0.0145825
874.398	0.0148108
874.476	0.0149023
874.554	0.0147208
874.632	0.0147926
874.710	0.0148327
874.788	0.0147823
874.866	0.0146964
874.944	0.0147582
875.023	0.0147764
875.101	0.0149183
875.179	0.0149792
875.257	0.0150931
875.335	0.0149416
875.413	0.0151908
875.491	0.0150659
875.569	0.0151730
875.648	0.0151797
875.726	0.0151328
875.804	0.0150871
875.882	0.0151138
875.960	0.0152793
876.038	0.0151673
876.116	0.0151563
876.194	0.0150200
876.273	0.0150835
876.351	0.0149909
876.429	0.0151686
876.507	0.0150597
876.585	0.0149622
876.663	0.0150294
876.741	0.0151265
876.819	0.0150837
876.898	0.0149758
876.976	0.0150830
877.054	0.0150317
877.132	0.0150421
877.210	0.0150471
877.288	0.0150210
877.366	0.0151028
877.444	0.0151420
877.523	0.0151709
877.601	0.0151309
877.679	0.0152705
877.757	0.0154092
877.835	0.0153111
877.913	0.0152779
877.991	0.0152837
878.069	0.0152142
878.148	0.0152219
878.226	0.0152814
878.304	0.0152206
878.382	0.0151995
878.460	0.0151296
878.538	0.0151822
878.616	0.0149144
878.694	0.0151912
878.773	0.0149854
878.851	0.0150005
878.929	0.0151247
879.007	0.0150883
879.085	0.0150153
879.163	0.0151562
879.241	0.0149825
879.319	0.0150173
879.398	0.0149746
879.476	0.0149384
879.554	0.0148820
879.632	0.0149361
879.710	0.0150249
879.788	0.0150996
879.866	0.0150027
879.944	0.0149933
880.023	0.0150806
880.101	0.0150227
880.179	0.0150143
880.257	0.0151119
880.335	0.0150425
880.413	0.0149913
880.491	0.0149838
880.569	0.0149119
880.648	0.0150913
880.726	0.0150753
880.804	0.0149328
880.882	0.0149780
880.960	0.0150774
881.038	0.0149601
881.116	0.0150672
881.194	0.0150665
881.273	0.0150178
881.351	0.0148919
881.429	0.0150436
881.507	0.0150776
881.585	0.0151060
881.663	0.0150635
881.741	0.0148590
881.819	0.0149767
881.898	0.0150402
881.976	0.0150348
882.054	0.0149750
882.132	0.0149546
882.210	0.0149934
882.288	0.0150173
882.366	0.0150447
882.444	0.0151483
882.523	0.0150542
882.601	0.0148792
882.679	0.0150158
882.757	0.0151189
882.835	0.0150263
882.913	0.0150123
882.991	0.0150922
883.069	0.0150300
883.148	0.0149866
883.226	0.0151521
883.304	0.0149745
883.382	0.0150294
883.460	0.0148742
883.538	0.0149896
883.616	0.0150525
883.694	0.0150024
883.773	0.0149892
883.851	0.0149297
883.929	0.0149571
884.007	0.0151041
884.085	0.0150801
884.163	0.0149445
884.241	0.0148734
884.319	0.0149510
884.398	0.0149604
884.476	0.0148450
884.554	0.0148479
884.632	0.0149295
884.710	0.0148282
884.788	0.0149252
884.866	0.0149110
884.944	0.0148256
885.023	0.0149110
885.101	0.0150033
885.179	0.0150999
885.257	0.0149737
885.335	0.0150195
885.413	0.0151450
885.491	0.0150115
885.569	0.0148704
885.648	0.0149641
885.726	0.0149316
885.804	0.0149480
885.882	0.0148779
885.960	0.0149574
886.038	0.0149135
886.116	0.0148785
886.194	0.0147101
886.273	0.0148356
886.351	0.0146917
886.429	0.0147746
886.507	0.0147697
886.585	0.0147723
886.663	0.0146930
886.741	0.0146925
886.819	0.0147005
886.898	0.0146989
886.976	0.0147433
887.054	0.0146368
887.132	0.0148059
887.210	0.0148531
887.288	0.0148187
887.366	0.0147884
887.444	0.0148481
887.523	0.0149359
887.601	0.0149953
887.679	0.0149061
887.757	0.0149551
887.835	0.0149599
887.913	0.0150893
887.991	0.0149963
888.069	0.0148585
888.148	0.0149389
888.226	0.0148707
888.304	0.0149731
888.382	0.0150089
888.460	0.0147969
888.538	0.0148937
888.616	0.0149261
888.694	0.0149718
888.773	0.0149871
888.851	0.0148583
888.929	0.0148981
889.007	0.0150155
889.085	0.0150187
889.163	0.0150130
889.241	0.0150564
889.319	0.0150504
889.398	0.0150057
889.476	0.0148826
889.554	0.0150095
889.632	0.0149334
889.710	0.0149504
889.788	0.0148412
889.866	0.0149477
889.944	0.0148261
890.023	0.0147246
890.101	0.0148524
890.179	0.0147906
890.257	0.0147157
890.335	0.0147402
890.413	0.0148007
890.491	0.0146854
890.569	0.0148734
890.648	0.0147850
890.726	0.0148209
890.804	0.0147274
890.882	0.0148664
890.960	0.0147770
891.038	0.0149146
891.116	0.0148332
891.194	0.0149448
891.273	0.0149290
891.351	0.0149693
891.429	0.0151290
891.507	0.0150696
891.585	0.0151470
891.663	0.0152372
891.741	0.0153725
891.819	0.0152840
891.898	0.0153853
891.976	0.0152592
892.054	0.0151976
892.132	0.0153439
892.210	0.0152081
892.288	0.0151412
892.366	0.0153114
892.444	0.0152847
892.523	0.0152079
892.601	0.0152043
892.679	0.0153206
892.757	0.0152267
892.835	0.0151665
892.913	0.0152660
892.991	0.0151761
893.069	0.0152020
893.148	0.0153003
893.226	0.0152456
893.304	0.0151601
893.382	0.0151152
893.460	0.0151414
893.538	0.0151546
893.616	0.0151555
893.694	0.0150197
893.773	0.0149844
893.851	0.0148999
893.929	0.0149743
894.007	0.0149342
894.085	0.0149615
894.163	0.0149563
894.241	0.0149261
894.319	0.0148347
894.398	0.0148382
894.476	0.0149574
894.554	0.0148982
894.632	0.0149844
894.710	0.0150694
894.788	0.0149944
894.866	0.0150906
894.944	0.0151367
895.023	0.0150910
895.101	0.0151074
895.179	0.0150674
895.257	0.0151314
895.335	0.0150571
895.413	0.0149718
895.491	0.0150562
895.569	0.0151228
895.648	0.0152740
895.726	0.0150349
895.804	0.0150232
895.882	0.0150503
895.960	0.0150555
896.038	0.0151229
896.116	0.0149697
896.194	0.0150066
896.273	0.0149806
896.351	0.0148824
896.429	0.0149902
896.507	0.0150020
896.585	0.0148830
896.663	0.0148199
896.741	0.0148603
896.819	0.0148407
896.898	0.0146918
896.976	0.0146989
897.054	0.0148070
897.132	0.0146980
897.210	0.0146176
897.288	0.0146083
897.366	0.0146948
897.444	0.0147903
897.523	0.0145577
897.601	0.0146218
897.679	0.0147238
897.757	0.0147030
897.835	0.0148647
897.913	0.0148069
897.991	0.0148537
898.069	0.0149910
898.148	0.0148970
898.226	0.0149252
898.304	0.0150855
898.382	0.0151241
898.460	0.0152370
898.538	0.0153046
898.616	0.0153262
898.694	0.0152948
898.773	0.0152379
898.851	0.0153892
898.929	0.0151850
899.007	0.0151777
899.085	0.0150655
899.163	0.0149268
899.241	0.0150908
899.319	0.0148804
899.398	0.0147766
899.476	0.0148116
899.554	0.0148756
899.632	0.0148895
899.710	0.0147519
899.788	0.0146999
899.866	0.0147037
899.944	0.0148105
900.023	0.0147295
900.101	0.0146959
900.179	0.0148479
900.257	0.0147262
900.335	0.0147962
900.413	0.0148822
900.491	0.0149274
900.569	0.0149095
900.648	0.0149777
900.726	0.0150112
900.804	0.0148820
900.882	0.0149516
900.960	0.0149019
901.038	0.0147787
901.116	0.0147817
901.194	0.0147674
901.273	0.0148091
901.351	0.0148221
901.429	0.0148746
901.507	0.0147257
901.585	0.0147331
901.663	0.0146546
901.741	0.0148572
901.819	0.0149065
901.898	0.0150317
901.976	0.0148039
902.054	0.0149373
902.132	0.0150863
902.210	0.0152013
902.288	0.0149831
902.366	0.0151760
902.444	0.0150894
902.523	0.0151154
902.601	0.0151312
902.679	0.0150774
902.757	0.0149596
902.835	0.0149725
902.913	0.0149867
902.991	0.0149459
903.069	0.0149645
903.148	0.0150461
903.226	0.0151057
903.304	0.0150871
903.382	0.0150117
903.460	0.0150433
903.538	0.0150850
903.616	0.0150805
903.694	0.0151252
903.773	0.0150329
903.851	0.0149994
903.929	0.0151763
904.007	0.0149500
904.085	0.0150696
904.163	0.0150213
904.241	0.0149615
904.319	0.0150181
904.398	0.0150860
904.476	0.0149161
904.554	0.0150533
904.632	0.0150399
904.710	0.0148313
904.788	0.0149696
904.866	0.0150238
904.944	0.0150785
905.023	0.0149995
905.101	0.0149771
905.179	0.0150124
905.257	0.0149020
905.335	0.0149139
905.413	0.0149438
905.491	0.0151270
905.569	0.0149820
905.648	0.0150160
905.726	0.0151662
905.804	0.0149592
905.882	0.0150349
905.960	0.0151443
906.038	0.0151041
906.116	0.0152441
906.194	0.0152586
906.273	0.0153378
906.351	0.0150884
906.429	0.0152900
906.507	0.0152837
906.585	0.0151866
906.663	0.0153040
906.741	0.0151176
906.819	0.0149742
906.898	0.0150040
906.976	0.0148561
907.054	0.0148669
907.132	0.0149018
907.210	0.0147121
907.288	0.0145358
907.366	0.0144558
907.444	0.0146063
907.523	0.0144477
907.601	0.0145184
907.679	0.0145137
907.757	0.0146774
907.835	0.0146024
907.913	0.0146057
907.991	0.0147171
908.069	0.0145491
908.148	0.0146571
908.226	0.0146693
908.304	0.0146458
908.382	0.0146426
908.460	0.0146555
908.538	0.0146555
908.616	0.0145821
908.694	0.0144273
908.773	0.0144869
908.851	0.0145757
908.929	0.0146306
909.007	0.0145708
909.085	0.0144135
909.163	0.0145624
909.241	0.0146989
909.319	0.0145776
909.398	0.0146789
909.476	0.0146182
909.554	0.0146088
909.632	0.0146896
909.710	0.0147576
909.788	0.0146908
909.866	0.0146555
909.944	0.0146377
910.023	0.0147983
910.101	0.0147697
910.179	0.0149521
910.257	0.0148782
910.335	0.0148963
910.413	0.0149709
910.491	0.0148840
910.569	0.0149261
910.648	0.0150193
910.726	0.0151187
910.804	0.0149515
910.882	0.0149519
910.960	0.0149799
911.038	0.0150816
911.116	0.0150714
911.194	0.0150256
911.273	0.0149416
911.351	0.0148759
911.429	0.0149789
911.507	0.0148847
911.585	0.0149924
911.663	0.0149197
911.741	0.0147640
911.819	0.0148264
911.898	0.0148818
911.976	0.0150172
912.054	0.0148242
912.132	0.0150954
912.210	0.0151453
912.288	0.0150698
912.366	0.0152024
912.444	0.0152009
912.523	0.0151895
912.601	0.0153192
912.679	0.0152339
912.757	0.0152349
912.835	0.0153082
912.913	0.0152792
912.991	0.0152581
913.069	0.0151402
913.148	0.0151760
913.226	0.0150628
913.304	0.0151492
913.382	0.0150787
913.460	0.0150438
913.538	0.0149320
913.616	0.0151347
913.694	0.0151617
913.773	0.0151483
913.851	0.0150408
913.929	0.0151933
914.007	0.0153084
914.085	0.0150627
914.163	0.0152280
914.241	0.0152453
914.319	0.0151872
914.398	0.0151507
914.476	0.0151240
914.554	0.0151407
914.632	0.0151441
914.710	0.0150425
914.788	0.0151439
914.866	0.0151267
914.944	0.0150433
915.023	0.0149542
915.101	0.0150783
915.179	0.0152269
915.257	0.0151233
915.335	0.0151147
915.413	0.0150245
915.491	0.0150842
915.569	0.0152123
915.648	0.0150865
915.726	0.0152358
915.804	0.0152155
915.882	0.0152428
915.960	0.0151653
916.038	0.0152279
916.116	0.0151707
916.194	0.0151664
916.273	0.0152020
916.351	0.0151479
916.429	0.0152674
916.507	0.0152702
916.585	0.0152078
916.663	0.0151678
916.741	0.0152592
916.819	0.0153445
916.898	0.0154299
916.976	0.0152724
917.054	0.0152609
917.132	0.0153838
917.210	0.0152566
917.288	0.0152177
917.366	0.0152837
917.444	0.0153429
917.523	0.0152885
917.601	0.0153075
917.679	0.0152763
917.757	0.0153349
917.835	0.0152741
917.913	0.0152275
917.991	0.0151846
918.069	0.0153052
918.148	0.0151678
918.226	0.0150619
918.304	0.0151073
918.382	0.0150720
918.460	0.0150657
918.538	0.0150097
918.616	0.0149772
918.694	0.0149487
918.773	0.0148991
918.851	0.0150116
918.929	0.0150650
919.007	0.0148719
919.085	0.0148285
919.163	0.0149025
919.241	0.0149026
919.319	0.0149091
919.398	0.0148862
919.476	0.0147878
919.554	0.0148024
919.632	0.0148856
919.710	0.0148829
919.788	0.0148595
919.866	0.0149514
919.944	0.0149695
920.023	0.0149168
920.101	0.0148811
920.179	0.0148598
920.257	0.0149060
920.335	0.0149808
920.413	0.0150099
920.491	0.0149237
920.569	0.0149609
920.648	0.0149303
920.726	0.0149030
920.804	0.0150434
920.882	0.0151015
920.960	0.0149670
921.038	0.0150328
921.116	0.0149488
921.194	0.0150281
921.273	0.0150136
921.351	0.0152412
921.429	0.0149512
921.507	0.0150794
921.585	0.0151734
921.663	0.0148925
921.741	0.0150029
921.819	0.0148959
921.898	0.0149931
921.976	0.0148325
922.054	0.0150711
922.132	0.0149574
922.210	0.0147935
922.288	0.0149027
922.366	0.0148328
922.444	0.0149022
922.523	0.0150217
922.601	0.0149736
922.679	0.0150566
922.757	0.0150833
922.835	0.0150481
922.913	0.0151562
922.991	0.0151466
923.069	0.0152123
923.148	0.0152587
923.226	0.0152117
923.304	0.0152554
923.382	0.0152233
923.460	0.0153230
923.538	0.0151167
923.616	0.0151695
923.694	0.0153221
923.773	0.0152656
923.851	0.0153226
923.929	0.0154755
924.007	0.0152460
924.085	0.0151347
924.163	0.0152270
924.241	0.0154421
924.319	0.0153205
924.398	0.0152392
924.476	0.0151752
924.554	0.0153381
924.632	0.0152203
924.710	0.0151121
924.788	0.0150552
924.866	0.0151352
924.944	0.0149283
925.023	0.0149887
925.101	0.0150325
925.179	0.0149989
925.257	0.0149361
925.335	0.0149178
925.413	0.0148366
925.491	0.0149017
925.569	0.0149705
925.648	0.0148736
925.726	0.0149617
925.804	0.0148743
925.882	0.0148512
925.960	0.0149337
926.038	0.0148981
926.116	0.0148365
926.194	0.0149853
926.273	0.0149567
926.351	0.0149511
926.429	0.0149936
926.507	0.0148316
926.585	0.0149210
926.663	0.0149601
926.741	0.0149956
926.819	0.0148960
926.898	0.0148870
926.976	0.0149765
927.054	0.0150228
927.132	0.0149383
927.210	0.0149823
927.288	0.0149474
927.366	0.0149236
927.444	0.0150530
927.523	0.0151170
927.601	0.0149633
927.679	0.0150147
927.757	0.0149876
927.835	0.0150616
927.913	0.0150513
927.991	0.0150665
928.069	0.0149027
928.148	0.0147815
928.226	0.0148813
928.304	0.0149149
928.382	0.0147558
928.460	0.0147153
928.538	0.0147476
928.616	0.0146377
928.694	0.0147218
928.773	0.0146395
928.851	0.0146198
928.929	0.0145869
929.007	0.0146806
929.085	0.0146806
929.163	0.0145841
929.241	0.0147277
929.319	0.0147180
929.398	0.0147952
929.476	0.0148819
929.554	0.0149180
929.632	0.0150264
929.710	0.0148943
929.788	0.0150089
929.866	0.0148280
929.944	0.0148772
930.023	0.0148235
930.101	0.0148888
930.179	0.0150803
930.257	0.0151498
930.335	0.0149225
930.413	0.0149461
930.491	0.0148897
930.569	0.0151434
930.648	0.0149499
930.726	0.0149834
930.804	0.0149533
930.882	0.0150715
930.960	0.0150611
931.038	0.0150185
931.116	0.0150861
931.194	0.0151326
931.273	0.0150771
931.351	0.0151299
931.429	0.0152263
931.507	0.0152315
931.585	0.0151976
931.663	0.0150320
931.741	0.0150549
931.819	0.0150491
931.898	0.0151709
931.976	0.0151846
932.054	0.0149678
932.132	0.0148676
932.210	0.0148968
932.288	0.0149216
932.366	0.0147699
932.444	0.0148539
932.523	0.0149322
932.601	0.0148891
932.679	0.0149130
932.757	0.0148907
932.835	0.0149416
932.913	0.0150445
932.991	0.0150877
933.069	0.0152267
933.148	0.0152351
933.226	0.0152466
933.304	0.0152670
933.382	0.0152911
933.460	0.0153610
933.538	0.0153706
933.616	0.0153245
933.694	0.0153232
933.773	0.0153806
933.851	0.0152425
933.929	0.0153075
934.007	0.0151542
934.085	0.0154132
934.163	0.0153102
934.241	0.0150688
934.319	0.0151802
934.398	0.0152348
934.476	0.0152361
934.554	0.0150316
934.632	0.0151145
934.710	0.0153131
934.788	0.0151488
934.866	0.0151173
934.944	0.0150806
935.023	0.0150533
935.101	0.0152598
935.179	0.0149773
935.257	0.0151247
935.335	0.0151569
935.413	0.0149921
935.491	0.0150066
935.569	0.0149529
935.648	0.0149042
935.726	0.0149405
935.804	0.0148889
935.882	0.0146918
935.960	0.0147043
936.038	0.0147707
936.116	0.0145856
936.194	0.0147560
936.273	0.0146987
936.351	0.0148387
936.429	0.0148046
936.507	0.0148648
936.585	0.0149368
936.663	0.0150693
936.741	0.0150693
936.819	0.0151406
936.898	0.0151707
936.976	0.0152438
937.054	0.0151599
937.132	0.0153951
937.210	0.0152829
937.288	0.0153301
937.366	0.0152611
937.444	0.0152065
937.523	0.0153458
937.601	0.0152456
937.679	0.0150645
937.757	0.0151654
937.835	0.0151880
937.913	0.0151013
937.991	0.0150909
938.069	0.0150196
938.148	0.0150774
938.226	0.0152444
938.304	0.0150895
938.382	0.0150921
938.460	0.0149509
938.538	0.0150505
938.616	0.0149551
938.694	0.0150889
938.773	0.0151285
938.851	0.0150154
938.929	0.0151752
939.007	0.0151704
939.085	0.0152243
939.163	0.0152553
939.241	0.0150094
939.319	0.0151958
939.398	0.0152275
939.476	0.0151344
939.554	0.0151347
939.632	0.0151570
939.710	0.0151596
939.788	0.0151094
939.866	0.0150312
939.944	0.0151026
940.023	0.0150377
940.101	0.0149253
940.179	0.0150324
940.257	0.0149583
940.335	0.0148985
940.413	0.0150264
940.491	0.0149558
940.569	0.0149368
940.648	0.0148694
940.726	0.0148572
940.804	0.0150024
940.882	0.0150088
940.960	0.0148884
941.038	0.0149014
941.116	0.0149174
941.194	0.0150048
941.273	0.0148206
941.351	0.0150220
941.429	0.0149605
941.507	0.0150124
941.585	0.0149865
941.663	0.0150291
941.741	0.0149688
941.819	0.0149620
941.898	0.0151153
941.976	0.0151530
942.054	0.0150159
942.132	0.0150349
942.210	0.0150000
942.288	0.0150642
942.366	0.0150218
942.444	0.0150101
942.523	0.0151698
942.601	0.0150887
942.679	0.0150346
942.757	0.0150765
942.835	0.0152053
942.913	0.0151095
942.991	0.0151273
943.069	0.0151163
943.148	0.0151653
943.226	0.0152947
943.304	0.0152254
943.382	0.0150609
943.460	0.0151670
943.538	0.0152698
943.616	0.0151735
943.694	0.0152545
943.773	0.0152462
943.851	0.0152618
943.929	0.0152750
944.007	0.0152517
944.085	0.0152010
944.163	0.0151475
944.241	0.0150887
944.319	0.0151242
944.398	0.0151287
944.476	0.0151999
944.554	0.0152893
944.632	0.0152271
944.710	0.0152490
944.788	0.0153129
944.866	0.0153108
944.944	0.0152522
945.023	0.0152481
945.101	0.0154712
945.179	0.0153592
945.257	0.0153405
945.335	0.0153901
945.413	0.0153012
945.491	0.0152589
945.569	0.0151575
945.648	0.0151753
945.726	0.0152754
945.804	0.0152337
945.882	0.0152741
945.960	0.0151295
946.038	0.0152599
946.116	0.0151315
946.194	0.0150305
946.273	0.0150766
946.351	0.0150773
946.429	0.0150116
946.507	0.0150309
946.585	0.0149697
946.663	0.0150901
946.741	0.0150944
946.819	0.0151448
946.898	0.0150848
946.976	0.0150422
947.054	0.0151139
947.132	0.0150103
947.210	0.0151077
947.288	0.0151535
947.366	0.0150820
947.444	0.0150677
947.523	0.0153306
947.601	0.0151257
947.679	0.0151953
947.757	0.0153725
947.835	0.0152191
947.913	0.0152733
947.991	0.0152634
948.069	0.0152053
948.148	0.0152900
948.226	0.0151726
948.304	0.0153648
948.382	0.0152025
948.460	0.0152213
948.538	0.0152586
948.616	0.0152535
948.694	0.0152543
948.773	0.0152850
948.851	0.0152570
948.929	0.0152245
949.007	0.0152294
949.085	0.0152428
949.163	0.0152490
949.241	0.0152020
949.319	0.0151746
949.398	0.0151449
949.476	0.0151293
949.554	0.0151360
949.632	0.0150595
949.710	0.0151542
949.788	0.0151312
949.866	0.0151176
949.944	0.0149967
