05/14/2022	19:19:10	Ver.	4.1	UNKNOWN
Optical Delay	650.016352	Delta X		0.078125	Sweeps	1	Scan Rate	0/0
Coordinates	Axis 1	NaN	Axis 2	NaN	Axis 3	NaN	Axis 4	NaN	Axis 5	NaN	Axis 6	0.000000
TX Power	0.000000	RX Power	0.000000

650.016	0.0139509
650.094	0.0139404
650.173	0.0140436
650.251	0.0139803
650.329	0.0139702
650.407	0.0140329
650.485	0.0139167
650.563	0.0139729
650.641	0.0140065
650.719	0.0140744
650.798	0.0140275
650.876	0.0138773
650.954	0.0139721
651.032	0.0139801
651.110	0.0139175
651.188	0.0140040
651.266	0.0140302
651.344	0.0139868
651.423	0.0140528
651.501	0.0139303
651.579	0.0139596
651.657	0.0139692
651.735	0.0140806
651.813	0.0137908
651.891	0.0138225
651.969	0.0140543
652.048	0.0140178
652.126	0.0140329
652.204	0.0140816
652.282	0.0138200
652.360	0.0138103
652.438	0.0140228
652.516	0.0139651
652.594	0.0139280
652.673	0.0139584
652.751	0.0138854
652.829	0.0139108
652.907	0.0139754
652.985	0.0139304
653.063	0.0140693
653.141	0.0140096
653.219	0.0140388
653.298	0.0140140
653.376	0.0139157
653.454	0.0139300
653.532	0.0138680
653.610	0.0138726
653.688	0.0139294
653.766	0.0140617
653.844	0.0138644
653.923	0.0138088
654.001	0.0139431
654.079	0.0139038
654.157	0.0138569
654.235	0.0139458
654.313	0.0138345
654.391	0.0140041
654.469	0.0139463
654.548	0.0139111
654.626	0.0139484
654.704	0.0138105
654.782	0.0140026
654.860	0.0139646
654.938	0.0140373
655.016	0.0140092
655.094	0.0139075
655.173	0.0139050
655.251	0.0140131
655.329	0.0138255
655.407	0.0139638
655.485	0.0139084
655.563	0.0139706
655.641	0.0140359
655.719	0.0141483
655.798	0.0140288
655.876	0.0139390
655.954	0.0138754
656.032	0.0140806
656.110	0.0138226
656.188	0.0138490
656.266	0.0139645
656.344	0.0139840
656.423	0.0140484
656.501	0.0139963
656.579	0.0139809
656.657	0.0140380
656.735	0.0139508
656.813	0.0139954
656.891	0.0140010
656.969	0.0140426
657.048	0.0138248
657.126	0.0140560
657.204	0.0139729
657.282	0.0139326
657.360	0.0139585
657.438	0.0139118
657.516	0.0140527
657.594	0.0138751
657.673	0.0139394
657.751	0.0140431
657.829	0.0139891
657.907	0.0139586
657.985	0.0139830
658.063	0.0140057
658.141	0.0140195
658.219	0.0138876
658.298	0.0138694
658.376	0.0139851
658.454	0.0139288
658.532	0.0138850
658.610	0.0138451
658.688	0.0139571
658.766	0.0139265
658.844	0.0140583
658.923	0.0139815
659.001	0.0139172
659.079	0.0138272
659.157	0.0137478
659.235	0.0138748
659.313	0.0139619
659.391	0.0139515
659.469	0.0139572
659.548	0.0139106
659.626	0.0139668
659.704	0.0138594
659.782	0.0139056
659.860	0.0140128
659.938	0.0138863
660.016	0.0140238
660.094	0.0139826
660.173	0.0139828
660.251	0.0140341
660.329	0.0138300
660.407	0.0138177
660.485	0.0137865
660.563	0.0138326
660.641	0.0138300
660.719	0.0139214
660.798	0.0137830
660.876	0.0138055
660.954	0.0138264
661.032	0.0138058
661.110	0.0139720
661.188	0.0138718
661.266	0.0138416
661.344	0.0138206
661.423	0.0137554
661.501	0.0139052
661.579	0.0139342
661.657	0.0139281
661.735	0.0138431
661.813	0.0138036
661.891	0.0138633
661.969	0.0138674
662.048	0.0139598
662.126	0.0138937
662.204	0.0137298
662.282	0.0139953
662.360	0.0138819
662.438	0.0140002
662.516	0.0138180
662.594	0.0139236
662.673	0.0138638
662.751	0.0138220
662.829	0.0139031
662.907	0.0139565
662.985	0.0140280
663.063	0.0139449
663.141	0.0138970
663.219	0.0138811
663.298	0.0137811
663.376	0.0138084
663.454	0.0138137
663.532	0.0139610
663.610	0.0138969
663.688	0.0137882
663.766	0.0137775
663.844	0.0138174
663.923	0.0139923
664.001	0.0138627
664.079	0.0137314
664.157	0.0138022
664.235	0.0139853
664.313	0.0139175
664.391	0.0139718
664.469	0.0137584
664.548	0.0138287
664.626	0.0139734
664.704	0.0137920
664.782	0.0139187
664.860	0.0138244
664.938	0.0137784
665.016	0.0138586
665.094	0.0138195
665.173	0.0138715
665.251	0.0138541
665.329	0.0139485
665.407	0.0138723
665.485	0.0138947
665.563	0.0139204
665.641	0.0139329
665.719	0.0137263
665.798	0.0137478
665.876	0.0138779
665.954	0.0138539
666.032	0.0138164
666.110	0.0138576
666.188	0.0138430
666.266	0.0138448
666.344	0.0138950
666.423	0.0139291
666.501	0.0137476
666.579	0.0137932
666.657	0.0137936
666.735	0.0139319
666.813	0.0138996
666.891	0.0139245
666.969	0.0138682
667.048	0.0137749
667.126	0.0139057
667.204	0.0138618
667.282	0.0139867
667.360	0.0138396
667.438	0.0138322
667.516	0.0138675
667.594	0.0139363
667.673	0.0139428
667.751	0.0139221
667.829	0.0139185
667.907	0.0138876
667.985	0.0140945
668.063	0.0139422
668.141	0.0138876
668.219	0.0140236
668.298	0.0139791
668.376	0.0139594
668.454	0.0138176
668.532	0.0139217
668.610	0.0139712
668.688	0.0139817
668.766	0.0140229
668.844	0.0140354
668.923	0.0140044
669.001	0.0140667
669.079	0.0139548
669.157	0.0139751
669.235	0.0139204
669.313	0.0140044
669.391	0.0139320
669.469	0.0140513
669.548	0.0138853
669.626	0.0139537
669.704	0.0138653
669.782	0.0139683
669.860	0.0140020
669.938	0.0140812
670.016	0.0139299
670.094	0.0140669
670.173	0.0140246
670.251	0.0139600
670.329	0.0141127
670.407	0.0139906
670.485	0.0139490
670.563	0.0139989
670.641	0.0140331
670.719	0.0140079
670.798	0.0139064
670.876	0.0139233
670.954	0.0140141
671.032	0.0140204
671.110	0.0138456
671.188	0.0139906
671.266	0.0138596
671.344	0.0140183
671.423	0.0140556
671.501	0.0140118
671.579	0.0140712
671.657	0.0141116
671.735	0.0139801
671.813	0.0140319
671.891	0.0140641
671.969	0.0140254
672.048	0.0139253
672.126	0.0140197
672.204	0.0139432
672.282	0.0140422
672.360	0.0140807
672.438	0.0139177
672.516	0.0140302
672.594	0.0140762
672.673	0.0140433
672.751	0.0140456
672.829	0.0139101
672.907	0.0140258
672.985	0.0140711
673.063	0.0140179
673.141	0.0137983
673.219	0.0139845
673.298	0.0139960
673.376	0.0139926
673.454	0.0141022
673.532	0.0140016
673.610	0.0141487
673.688	0.0141236
673.766	0.0139753
673.844	0.0141347
673.923	0.0140776
674.001	0.0139746
674.079	0.0140260
674.157	0.0140667
674.235	0.0140002
674.313	0.0140379
674.391	0.0138806
674.469	0.0139307
674.548	0.0140565
674.626	0.0140725
674.704	0.0140817
674.782	0.0140548
674.860	0.0140216
674.938	0.0140036
675.016	0.0139478
675.094	0.0140562
675.173	0.0141132
675.251	0.0140569
675.329	0.0141538
675.407	0.0139349
675.485	0.0139543
675.563	0.0140269
675.641	0.0139484
675.719	0.0139621
675.798	0.0140022
675.876	0.0138705
675.954	0.0139876
676.032	0.0139443
676.110	0.0140729
676.188	0.0139339
676.266	0.0140129
676.344	0.0141261
676.423	0.0139571
676.501	0.0139915
676.579	0.0140452
676.657	0.0139777
676.735	0.0140443
676.813	0.0139175
676.891	0.0139606
676.969	0.0139822
677.048	0.0138524
677.126	0.0139359
677.204	0.0138219
677.282	0.0138686
677.360	0.0138111
677.438	0.0138420
677.516	0.0139600
677.594	0.0138125
677.673	0.0138965
677.751	0.0139384
677.829	0.0138077
677.907	0.0138823
677.985	0.0138670
678.063	0.0138699
678.141	0.0140469
678.219	0.0140305
678.298	0.0138744
678.376	0.0140578
678.454	0.0140745
678.532	0.0140726
678.610	0.0141271
678.688	0.0141670
678.766	0.0141741
678.844	0.0141940
678.923	0.0140990
679.001	0.0138963
679.079	0.0138177
679.157	0.0136521
679.235	0.0134946
679.313	0.0134759
679.391	0.0134447
679.469	0.0135394
679.548	0.0135410
679.626	0.0135591
679.704	0.0135120
679.782	0.0137187
679.860	0.0138231
679.938	0.0138396
680.016	0.0138564
680.094	0.0140420
680.173	0.0140506
680.251	0.0141322
680.329	0.0143575
680.407	0.0143040
680.485	0.0143537
680.563	0.0144244
680.641	0.0146389
680.719	0.0145270
680.798	0.0144669
680.876	0.0143686
680.954	0.0142432
681.032	0.0141386
681.110	0.0138440
681.188	0.0136781
681.266	0.0134331
681.344	0.0130730
681.423	0.0128541
681.501	0.0126123
681.579	0.0125558
681.657	0.0123917
681.735	0.0124140
681.813	0.0126727
681.891	0.0128507
681.969	0.0131345
682.048	0.0135350
682.126	0.0137899
682.204	0.0142476
682.282	0.0144989
682.360	0.0148106
682.438	0.0149567
682.516	0.0152547
682.594	0.0154055
682.673	0.0154025
682.751	0.0153574
682.829	0.0152129
682.907	0.0151043
682.985	0.0150208
683.063	0.0147446
683.141	0.0144737
683.219	0.0142941
683.298	0.0141286
683.376	0.0139269
683.454	0.0135903
683.532	0.0134292
683.610	0.0133216
683.688	0.0130128
683.766	0.0130111
683.844	0.0128420
683.923	0.0127815
684.001	0.0126164
684.079	0.0126845
684.157	0.0125629
684.235	0.0123793
684.313	0.0123719
684.391	0.0124581
684.469	0.0124698
684.548	0.0124744
684.626	0.0125288
684.704	0.0128779
684.782	0.0131882
684.860	0.0134087
684.938	0.0136259
685.016	0.0138831
685.094	0.0143752
685.173	0.0146761
685.251	0.0149889
685.329	0.0153029
685.407	0.0156450
685.485	0.0158090
685.563	0.0157506
685.641	0.0157220
685.719	0.0155225
685.798	0.0153924
685.876	0.0150507
685.954	0.0148540
686.032	0.0146616
686.110	0.0144090
686.188	0.0142422
686.266	0.0141917
686.344	0.0141669
686.423	0.0140188
686.501	0.0141557
686.579	0.0138698
686.657	0.0139198
686.735	0.0137719
686.813	0.0135133
686.891	0.0135096
686.969	0.0131844
687.048	0.0127499
687.126	0.0127978
687.204	0.0124084
687.282	0.0121433
687.360	0.0119949
687.438	0.0116135
687.516	0.0115282
687.594	0.0115485
687.673	0.0116096
687.751	0.0117419
687.829	0.0118523
687.907	0.0123429
687.985	0.0125504
688.063	0.0129719
688.141	0.0135090
688.219	0.0138795
688.298	0.0144553
688.376	0.0147876
688.454	0.0150668
688.532	0.0155569
688.610	0.0157887
688.688	0.0159407
688.766	0.0159534
688.844	0.0159983
688.923	0.0160884
689.001	0.0160277
689.079	0.0159503
689.157	0.0158357
689.235	0.0155925
689.313	0.0154372
689.391	0.0152986
689.469	0.0151968
689.548	0.0150049
689.626	0.0146674
689.704	0.0144138
689.782	0.0140676
689.860	0.0137350
689.938	0.0133143
690.016	0.0128840
690.094	0.0126525
690.173	0.0123936
690.251	0.0121861
690.329	0.0120535
690.407	0.0120924
690.485	0.0122958
690.563	0.0125733
690.641	0.0128341
690.719	0.0130034
690.798	0.0133366
690.876	0.0137953
690.954	0.0139287
691.032	0.0142343
691.110	0.0143952
691.188	0.0145872
691.266	0.0145195
691.344	0.0145520
691.423	0.0143082
691.501	0.0142043
691.579	0.0143394
691.657	0.0141085
691.735	0.0138837
691.813	0.0137277
691.891	0.0137495
691.969	0.0136210
692.048	0.0133929
692.126	0.0131818
692.204	0.0131277
692.282	0.0129716
692.360	0.0127307
692.438	0.0128105
692.516	0.0126437
692.594	0.0127739
692.673	0.0128850
692.751	0.0128831
692.829	0.0132135
692.907	0.0131983
692.985	0.0135316
693.063	0.0139760
693.141	0.0141100
693.219	0.0143013
693.298	0.0147208
693.376	0.0148199
693.454	0.0150040
693.532	0.0151891
693.610	0.0154185
693.688	0.0156864
693.766	0.0157424
693.844	0.0158453
693.923	0.0160957
694.001	0.0160888
694.079	0.0162109
694.157	0.0163157
694.235	0.0162003
694.313	0.0160559
694.391	0.0161584
694.469	0.0159218
694.548	0.0157185
694.626	0.0154823
694.704	0.0152789
694.782	0.0149687
694.860	0.0147217
694.938	0.0145276
695.016	0.0143230
695.094	0.0139362
695.173	0.0138099
695.251	0.0136926
695.329	0.0132872
695.407	0.0129999
695.485	0.0127422
695.563	0.0122990
695.641	0.0119120
695.719	0.0115291
695.798	0.0111279
695.876	0.0106038
695.954	0.0101675
696.032	0.00993164
696.110	0.00965195
696.188	0.00950615
696.266	0.00944023
696.344	0.00935623
696.423	0.00948151
696.501	0.00987770
696.579	0.0101562
696.657	0.0105530
696.735	0.0110299
696.813	0.0115932
696.891	0.0123291
696.969	0.0128756
697.048	0.0135029
697.126	0.0140886
697.204	0.0146684
697.282	0.0152344
697.360	0.0159351
697.438	0.0164077
697.516	0.0168134
697.594	0.0174384
697.673	0.0176340
697.751	0.0179889
697.829	0.0183789
697.907	0.0186565
697.985	0.0187569
698.063	0.0188854
698.141	0.0188474
698.219	0.0188533
698.298	0.0188034
698.376	0.0188936
698.454	0.0188432
698.532	0.0186156
698.610	0.0184203
698.688	0.0182263
698.766	0.0179134
698.844	0.0176228
698.923	0.0173046
699.001	0.0167513
699.079	0.0160757
699.157	0.0154433
699.235	0.0149908
699.313	0.0141721
699.391	0.0134867
699.469	0.0127534
699.548	0.0118882
699.626	0.0112074
699.704	0.0107103
699.782	0.00982025
699.860	0.00938545
699.938	0.00895081
700.016	0.00820541
700.094	0.00803177
700.173	0.00773247
700.251	0.00744324
700.329	0.00706497
700.407	0.00706306
700.485	0.00691559
700.563	0.00696678
700.641	0.00710678
700.719	0.00723915
700.798	0.00743256
700.876	0.00771896
700.954	0.00829582
701.032	0.00886650
701.110	0.00960846
701.188	0.0101821
701.266	0.0113743
701.344	0.0124578
701.423	0.0133308
701.501	0.0142491
701.579	0.0154798
701.657	0.0167614
701.735	0.0178075
701.813	0.0186902
701.891	0.0196226
701.969	0.0203840
702.048	0.0208098
702.126	0.0211556
702.204	0.0213585
702.282	0.0215044
702.360	0.0214859
702.438	0.0213054
702.516	0.0212557
702.594	0.0210003
702.673	0.0206982
702.751	0.0205478
702.829	0.0201582
702.907	0.0197964
702.985	0.0195651
703.063	0.0192355
703.141	0.0189188
703.219	0.0185471
703.298	0.0179449
703.376	0.0172348
703.454	0.0164064
703.532	0.0156197
703.610	0.0145895
703.688	0.0135752
703.766	0.0124760
703.844	0.0114198
703.923	0.0102747
704.001	0.00917503
704.079	0.00833694
704.157	0.00765778
704.235	0.00688332
704.313	0.00630745
704.391	0.00630157
704.469	0.00601273
704.548	0.00609680
704.626	0.00630219
704.704	0.00650368
704.782	0.00714920
704.860	0.00771095
704.938	0.00824837
705.016	0.00893997
705.094	0.00980957
705.173	0.0102824
705.251	0.0109689
705.329	0.0118436
705.407	0.0125495
705.485	0.0130710
705.563	0.0137256
705.641	0.0142693
705.719	0.0146101
705.798	0.0150480
705.876	0.0152218
705.954	0.0154208
706.032	0.0154443
706.110	0.0155522
706.188	0.0153452
706.266	0.0153413
706.344	0.0151965
706.423	0.0153126
706.501	0.0152587
706.579	0.0155206
706.657	0.0154745
706.735	0.0155991
706.813	0.0157871
706.891	0.0156826
706.969	0.0158966
707.048	0.0158641
707.126	0.0157518
707.204	0.0159561
707.282	0.0161439
707.360	0.0160667
707.438	0.0158336
707.516	0.0161057
707.594	0.0161672
707.673	0.0164291
707.751	0.0164973
707.829	0.0166376
707.907	0.0168302
707.985	0.0171949
708.063	0.0172993
708.141	0.0175655
708.219	0.0177161
708.298	0.0178069
708.376	0.0180871
708.454	0.0178969
708.532	0.0179189
708.610	0.0174949
708.688	0.0169467
708.766	0.0163162
708.844	0.0157855
708.923	0.0150490
709.001	0.0141217
709.079	0.0132867
709.157	0.0123387
709.235	0.0114129
709.313	0.0105907
709.391	0.00997673
709.469	0.00947258
709.548	0.00907310
709.626	0.00891678
709.704	0.00866714
709.782	0.00874489
709.860	0.00867249
709.938	0.00896622
710.016	0.00926659
710.094	0.00954239
710.173	0.00979034
710.251	0.0100243
710.329	0.0103107
710.407	0.0106852
710.485	0.0109928
710.563	0.0112970
710.641	0.0116099
710.719	0.0116061
710.798	0.0117282
710.876	0.0119959
710.954	0.0120941
711.032	0.0121053
711.110	0.0121000
711.188	0.0120128
711.266	0.0120054
711.344	0.0121707
711.423	0.0120812
711.501	0.0120806
711.579	0.0123210
711.657	0.0125037
711.735	0.0127552
711.813	0.0130170
711.891	0.0134003
711.969	0.0138721
712.048	0.0143975
712.126	0.0149240
712.204	0.0155513
712.282	0.0161174
712.360	0.0167017
712.438	0.0173531
712.516	0.0180293
712.594	0.0185474
712.673	0.0191396
712.751	0.0195354
712.829	0.0199091
712.907	0.0203619
712.985	0.0205840
713.063	0.0206017
713.141	0.0207593
713.219	0.0208045
713.298	0.0204638
713.376	0.0203854
713.454	0.0201263
713.532	0.0197951
713.610	0.0194298
713.688	0.0189808
713.766	0.0182265
713.844	0.0178174
713.923	0.0169947
714.001	0.0161651
714.079	0.0153129
714.157	0.0143209
714.235	0.0133580
714.313	0.0124348
714.391	0.0113697
714.469	0.0104415
714.548	0.00955574
714.626	0.00877228
714.704	0.00815979
714.782	0.00765816
714.860	0.00724236
714.938	0.00693314
715.016	0.00678581
715.094	0.00680313
715.173	0.00679253
715.251	0.00717804
715.329	0.00747139
715.407	0.00772591
715.485	0.00813950
715.563	0.00862839
715.641	0.00932777
715.719	0.00987991
715.798	0.0101752
715.876	0.0107744
715.954	0.0114929
716.032	0.0117611
716.110	0.0122888
716.188	0.0127308
716.266	0.0130752
716.344	0.0133833
716.423	0.0135663
716.501	0.0138311
716.579	0.0139991
716.657	0.0142122
716.735	0.0143745
716.813	0.0145598
716.891	0.0145289
716.969	0.0146821
717.048	0.0147474
717.126	0.0148237
717.204	0.0151727
717.282	0.0152357
717.360	0.0154798
717.438	0.0157182
717.516	0.0160674
717.594	0.0162183
717.673	0.0166240
717.751	0.0169938
717.829	0.0171712
717.907	0.0174371
717.985	0.0177024
718.063	0.0177942
718.141	0.0179148
718.219	0.0181863
718.298	0.0183400
718.376	0.0183649
718.454	0.0183871
718.532	0.0184434
718.610	0.0182957
718.688	0.0184555
718.766	0.0184315
718.844	0.0182524
718.923	0.0180408
719.001	0.0178066
719.079	0.0176098
719.157	0.0171316
719.235	0.0168667
719.313	0.0162884
719.391	0.0157038
719.469	0.0150603
719.548	0.0144683
719.626	0.0136880
719.704	0.0130473
719.782	0.0124751
719.860	0.0119198
719.938	0.0112761
720.016	0.0108128
720.094	0.0105286
720.173	0.0103121
720.251	0.0100212
720.329	0.0100185
720.407	0.00996117
720.485	0.0100543
720.563	0.0102272
720.641	0.0101700
720.719	0.0103375
720.798	0.0103764
720.876	0.0104981
720.954	0.0105061
721.032	0.0105181
721.110	0.0104043
721.188	0.0104176
721.266	0.0102230
721.344	0.0102586
721.423	0.0103936
721.501	0.0103531
721.579	0.0103158
721.657	0.0104814
721.735	0.0106422
721.813	0.0107568
721.891	0.0111179
721.969	0.0114938
722.048	0.0117399
722.126	0.0124297
722.204	0.0128069
722.282	0.0131595
722.360	0.0137229
722.438	0.0142519
722.516	0.0148958
722.594	0.0152178
722.673	0.0156739
722.751	0.0160992
722.829	0.0164349
722.907	0.0166071
722.985	0.0169455
723.063	0.0167892
723.141	0.0168789
723.219	0.0169691
723.298	0.0172152
723.376	0.0171715
723.454	0.0170646
723.532	0.0170757
723.610	0.0171996
723.688	0.0176533
723.766	0.0176217
723.844	0.0177895
723.923	0.0178233
724.001	0.0177778
724.079	0.0178980
724.157	0.0179421
724.235	0.0179434
724.313	0.0177257
724.391	0.0175735
724.469	0.0173460
724.548	0.0168975
724.626	0.0164452
724.704	0.0160703
724.782	0.0158072
724.860	0.0151488
724.938	0.0148160
725.016	0.0143040
725.094	0.0139320
725.173	0.0135875
725.251	0.0132915
725.329	0.0130811
725.407	0.0125853
725.485	0.0124533
725.563	0.0122881
725.641	0.0121408
725.719	0.0118721
725.798	0.0117422
725.876	0.0117807
725.954	0.0116565
726.032	0.0112390
726.110	0.0112730
726.188	0.0111420
726.266	0.0109559
726.344	0.0109771
726.423	0.0107156
726.501	0.0107250
726.579	0.0106836
726.657	0.0104319
726.735	0.0105006
726.813	0.0105889
726.891	0.0104323
726.969	0.0103969
727.048	0.0105798
727.126	0.0107008
727.204	0.0109860
727.282	0.0111820
727.360	0.0113504
727.438	0.0117152
727.516	0.0120758
727.594	0.0122620
727.673	0.0127092
727.751	0.0129424
727.829	0.0132012
727.907	0.0136006
727.985	0.0137695
728.063	0.0141042
728.141	0.0142361
728.219	0.0145838
728.298	0.0146996
728.376	0.0148459
728.454	0.0151297
728.532	0.0153613
728.610	0.0156693
728.688	0.0158211
728.766	0.0160748
728.844	0.0161628
728.923	0.0164693
729.001	0.0165211
729.079	0.0167045
729.157	0.0169582
729.235	0.0171049
729.313	0.0170999
729.391	0.0168066
729.469	0.0169585
729.548	0.0169745
729.626	0.0166027
729.704	0.0166267
729.782	0.0162819
729.860	0.0159637
729.938	0.0156711
730.016	0.0154051
730.094	0.0151744
730.173	0.0149356
730.251	0.0148471
730.329	0.0146804
730.407	0.0145943
730.485	0.0144022
730.563	0.0143504
730.641	0.0143657
730.719	0.0142413
730.798	0.0140800
730.876	0.0140278
730.954	0.0139207
731.032	0.0138586
731.110	0.0136908
731.188	0.0136746
731.266	0.0134704
731.344	0.0133739
731.423	0.0132933
731.501	0.0130476
731.579	0.0129470
731.657	0.0127716
731.735	0.0126673
731.813	0.0124308
731.891	0.0123746
731.969	0.0122611
732.048	0.0120904
732.126	0.0122831
732.204	0.0121764
732.282	0.0121468
732.360	0.0122845
732.438	0.0121146
732.516	0.0122577
732.594	0.0122192
732.673	0.0123534
732.751	0.0123149
732.829	0.0124452
732.907	0.0125758
732.985	0.0124888
733.063	0.0127033
733.141	0.0125778
733.219	0.0125436
733.298	0.0124576
733.376	0.0125527
733.454	0.0126694
733.532	0.0125639
733.610	0.0126880
733.688	0.0126885
733.766	0.0126890
733.844	0.0129350
733.923	0.0129906
734.001	0.0134151
734.079	0.0136153
734.157	0.0138388
734.235	0.0140816
734.313	0.0143604
734.391	0.0145264
734.469	0.0148087
734.548	0.0152602
734.626	0.0154363
734.704	0.0155867
734.782	0.0157602
734.860	0.0157905
734.938	0.0158852
735.016	0.0157886
735.094	0.0156885
735.173	0.0155849
735.251	0.0153478
735.329	0.0151356
735.407	0.0150128
735.485	0.0147945
735.563	0.0145717
735.641	0.0143624
735.719	0.0142228
735.798	0.0139990
735.876	0.0140499
735.954	0.0139565
736.032	0.0138406
736.110	0.0138490
736.188	0.0138686
736.266	0.0139874
736.344	0.0138519
736.423	0.0141242
736.501	0.0142104
736.579	0.0141486
736.657	0.0144975
736.735	0.0145770
736.813	0.0147827
736.891	0.0148982
736.969	0.0149349
737.048	0.0148450
737.126	0.0148995
737.204	0.0149884
737.282	0.0149053
737.360	0.0147342
737.438	0.0147944
737.516	0.0147454
737.594	0.0145367
737.673	0.0144270
737.751	0.0141514
737.829	0.0142313
737.907	0.0141950
737.985	0.0140626
738.063	0.0139909
738.141	0.0138898
738.219	0.0138633
738.298	0.0137537
738.376	0.0135101
738.454	0.0133670
738.532	0.0131830
738.610	0.0131194
738.688	0.0130402
738.766	0.0129487
738.844	0.0126450
738.923	0.0124206
739.001	0.0123896
739.079	0.0122331
739.157	0.0120827
739.235	0.0119775
739.313	0.0119938
739.391	0.0121889
739.469	0.0121287
739.548	0.0122334
739.626	0.0122717
739.704	0.0123939
739.782	0.0125882
739.860	0.0127649
739.938	0.0127635
740.016	0.0129177
740.094	0.0131216
740.173	0.0131826
740.251	0.0132592
740.329	0.0134023
740.407	0.0135201
740.485	0.0135593
740.563	0.0137183
740.641	0.0137542
740.719	0.0136989
740.798	0.0138024
740.876	0.0137906
740.954	0.0139449
741.032	0.0139753
741.110	0.0140691
741.188	0.0142401
741.266	0.0143025
741.344	0.0145037
741.423	0.0146648
741.501	0.0148240
741.579	0.0148025
741.657	0.0149092
741.735	0.0151404
741.813	0.0151250
741.891	0.0152932
741.969	0.0153492
742.048	0.0152804
742.126	0.0152825
742.204	0.0154932
742.282	0.0153692
742.360	0.0154212
742.438	0.0154198
742.516	0.0152402
742.594	0.0154108
742.673	0.0152870
742.751	0.0152964
742.829	0.0151828
742.907	0.0150607
742.985	0.0151598
743.063	0.0151127
743.141	0.0151102
743.219	0.0150738
743.298	0.0147367
743.376	0.0147756
743.454	0.0146716
743.532	0.0146214
743.610	0.0145821
743.688	0.0142905
743.766	0.0140657
743.844	0.0139795
743.923	0.0138897
744.001	0.0135870
744.079	0.0134280
744.157	0.0132262
744.235	0.0132516
744.313	0.0130296
744.391	0.0130834
744.469	0.0130526
744.548	0.0131117
744.626	0.0131036
744.704	0.0130344
744.782	0.0132250
744.860	0.0130399
744.938	0.0132664
745.016	0.0135542
745.094	0.0133762
745.173	0.0135480
745.251	0.0134877
745.329	0.0134243
745.407	0.0133841
745.485	0.0132941
745.563	0.0133451
745.641	0.0133508
745.719	0.0130706
745.798	0.0130676
745.876	0.0128499
745.954	0.0128272
746.032	0.0129042
746.110	0.0128602
746.188	0.0127422
746.266	0.0125452
746.344	0.0127308
746.423	0.0126292
746.501	0.0125893
746.579	0.0126789
746.657	0.0127168
746.735	0.0127468
746.813	0.0129263
746.891	0.0129177
746.969	0.0131201
747.048	0.0133076
747.126	0.0134344
747.204	0.0136262
747.282	0.0135980
747.360	0.0138761
747.438	0.0139886
747.516	0.0142622
747.594	0.0143671
747.673	0.0145237
747.751	0.0148293
747.829	0.0148939
747.907	0.0150880
747.985	0.0150864
748.063	0.0150898
748.141	0.0151622
748.219	0.0152433
748.298	0.0153673
748.376	0.0151835
748.454	0.0152097
748.532	0.0151772
748.610	0.0152574
748.688	0.0151973
748.766	0.0150883
748.844	0.0149843
748.923	0.0150140
749.001	0.0149293
749.079	0.0148812
749.157	0.0146657
749.235	0.0145052
749.313	0.0145612
749.391	0.0145425
749.469	0.0143408
749.548	0.0142611
749.626	0.0144090
749.704	0.0141519
749.782	0.0142395
749.860	0.0142654
749.938	0.0143036
750.016	0.0143652
750.094	0.0142586
750.173	0.0141395
750.251	0.0142467
750.329	0.0144001
750.407	0.0142385
750.485	0.0142417
750.563	0.0142139
750.641	0.0141678
750.719	0.0140292
750.798	0.0140533
750.876	0.0138699
750.954	0.0137651
751.032	0.0137180
751.110	0.0134781
751.188	0.0132581
751.266	0.0131865
751.344	0.0131918
751.423	0.0130182
751.501	0.0129468
751.579	0.0128928
751.657	0.0128839
751.735	0.0127673
751.813	0.0128265
751.891	0.0127964
751.969	0.0129749
752.048	0.0129727
752.126	0.0129082
752.204	0.0129686
752.282	0.0132081
752.360	0.0131757
752.438	0.0134307
752.516	0.0134908
752.594	0.0133998
752.673	0.0134789
752.751	0.0136252
752.829	0.0135609
752.907	0.0135918
752.985	0.0137296
753.063	0.0135178
753.141	0.0135065
753.219	0.0136621
753.298	0.0136304
753.376	0.0135318
753.454	0.0135084
753.532	0.0135348
753.610	0.0135626
753.688	0.0136431
753.766	0.0139050
753.844	0.0138490
753.923	0.0139430
754.001	0.0140135
754.079	0.0140030
754.157	0.0142077
754.235	0.0142253
754.313	0.0142638
754.391	0.0141761
754.469	0.0142192
754.548	0.0142210
754.626	0.0143494
754.704	0.0144022
754.782	0.0142915
754.860	0.0143115
754.938	0.0141768
755.016	0.0142572
755.094	0.0144200
755.173	0.0144210
755.251	0.0144154
755.329	0.0145772
755.407	0.0146593
755.485	0.0145016
755.563	0.0146756
755.641	0.0149158
755.719	0.0148582
755.798	0.0148468
755.876	0.0148435
755.954	0.0149723
756.032	0.0149536
756.110	0.0147932
756.188	0.0147906
756.266	0.0147162
756.344	0.0145353
756.423	0.0145587
756.501	0.0146164
756.579	0.0144597
756.657	0.0143000
756.735	0.0141154
756.813	0.0139754
756.891	0.0140723
756.969	0.0138299
757.048	0.0138321
757.126	0.0137876
757.204	0.0135929
757.282	0.0133938
757.360	0.0134480
757.438	0.0133013
757.516	0.0131801
757.594	0.0132622
757.673	0.0132567
757.751	0.0131969
757.829	0.0132235
757.907	0.0132204
757.985	0.0132455
758.063	0.0134695
758.141	0.0132578
758.219	0.0132708
758.298	0.0133980
758.376	0.0134528
758.454	0.0135590
758.532	0.0134481
758.610	0.0135691
758.688	0.0135115
758.766	0.0133944
758.844	0.0134748
758.923	0.0135242
759.001	0.0133837
759.079	0.0134628
759.157	0.0133943
759.235	0.0133005
759.313	0.0134385
759.391	0.0132060
759.469	0.0133767
759.548	0.0133829
759.626	0.0131097
759.704	0.0131241
759.782	0.0132931
759.860	0.0131518
759.938	0.0131463
760.016	0.0132420
760.094	0.0132740
760.173	0.0132072
760.251	0.0131884
760.329	0.0133066
760.407	0.0133652
760.485	0.0135303
760.563	0.0136085
760.641	0.0137622
760.719	0.0138120
760.798	0.0139070
760.876	0.0140313
760.954	0.0142791
761.032	0.0141418
761.110	0.0143015
761.188	0.0144618
761.266	0.0146115
761.344	0.0146879
761.423	0.0147235
761.501	0.0148280
761.579	0.0149879
761.657	0.0148700
761.735	0.0149770
761.813	0.0151279
761.891	0.0150608
761.969	0.0148232
762.048	0.0148724
762.126	0.0147723
762.204	0.0147253
762.282	0.0146678
762.360	0.0146141
762.438	0.0145062
762.516	0.0145415
762.594	0.0144269
762.673	0.0142205
762.751	0.0141754
762.829	0.0141482
762.907	0.0142236
762.985	0.0141953
763.063	0.0141481
763.141	0.0141376
763.219	0.0141631
763.298	0.0140800
763.376	0.0141303
763.454	0.0141827
763.532	0.0142530
763.610	0.0141434
763.688	0.0140775
763.766	0.0140806
763.844	0.0139814
763.923	0.0139610
764.001	0.0137305
764.079	0.0136152
764.157	0.0135258
764.235	0.0136974
764.313	0.0133596
764.391	0.0133486
764.469	0.0132652
764.548	0.0130595
764.626	0.0129178
764.704	0.0130727
764.782	0.0131339
764.860	0.0131254
764.938	0.0129951
765.016	0.0131612
765.094	0.0132269
765.173	0.0129689
765.251	0.0130383
765.329	0.0133513
765.407	0.0131544
765.485	0.0132108
765.563	0.0131932
765.641	0.0132720
765.719	0.0134019
765.798	0.0133724
765.876	0.0136118
765.954	0.0134882
766.032	0.0135598
766.110	0.0136137
766.188	0.0136046
766.266	0.0137887
766.344	0.0137284
766.423	0.0137852
766.501	0.0138007
766.579	0.0138763
766.657	0.0138638
766.735	0.0138400
766.813	0.0139523
766.891	0.0141335
766.969	0.0139292
767.048	0.0139677
767.126	0.0139654
767.204	0.0140193
767.282	0.0141495
767.360	0.0140266
767.438	0.0140884
767.516	0.0142265
767.594	0.0142334
767.673	0.0142304
767.751	0.0143011
767.829	0.0142455
767.907	0.0143446
767.985	0.0145033
768.063	0.0142859
768.141	0.0143179
768.219	0.0143230
768.298	0.0144083
768.376	0.0144199
768.454	0.0143613
768.532	0.0143816
768.610	0.0143576
768.688	0.0143591
768.766	0.0143002
768.844	0.0144495
768.923	0.0144196
769.001	0.0145143
769.079	0.0144741
769.157	0.0142960
769.235	0.0143620
769.313	0.0144695
769.391	0.0144407
769.469	0.0142563
769.548	0.0142776
769.626	0.0143062
769.704	0.0143209
769.782	0.0142800
769.860	0.0143698
769.938	0.0143332
770.016	0.0142706
770.094	0.0141914
770.173	0.0140747
770.251	0.0139988
770.329	0.0141045
770.407	0.0139582
770.485	0.0138453
770.563	0.0138354
770.641	0.0138351
770.719	0.0135943
770.798	0.0137060
770.876	0.0136302
770.954	0.0134078
771.032	0.0135303
771.110	0.0134971
771.188	0.0132597
771.266	0.0133681
771.344	0.0134846
771.423	0.0133575
771.501	0.0133102
771.579	0.0133732
771.657	0.0134991
771.735	0.0135294
771.813	0.0135565
771.891	0.0135091
771.969	0.0137170
772.048	0.0136433
772.126	0.0137102
772.204	0.0138132
772.282	0.0138345
772.360	0.0137392
772.438	0.0137594
772.516	0.0137521
772.594	0.0137610
772.673	0.0136632
772.751	0.0138897
772.829	0.0139458
772.907	0.0140549
772.985	0.0139696
773.063	0.0140028
773.141	0.0138148
773.219	0.0139164
773.298	0.0140528
773.376	0.0139224
773.454	0.0139091
773.532	0.0139551
773.610	0.0139077
773.688	0.0139827
773.766	0.0140645
773.844	0.0139457
773.923	0.0139296
774.001	0.0141457
774.079	0.0140646
774.157	0.0139388
774.235	0.0141168
774.313	0.0141761
774.391	0.0142394
774.469	0.0141827
774.548	0.0140324
774.626	0.0141530
774.704	0.0143938
774.782	0.0143134
774.860	0.0140691
774.938	0.0143190
775.016	0.0142999
775.094	0.0142693
775.173	0.0141618
775.251	0.0141460
775.329	0.0141821
775.407	0.0141603
775.485	0.0143199
775.563	0.0142998
775.641	0.0140356
775.719	0.0140874
775.798	0.0141248
775.876	0.0142329
775.954	0.0142255
776.032	0.0141876
776.110	0.0142929
776.188	0.0141390
776.266	0.0141485
776.344	0.0141265
776.423	0.0142774
776.501	0.0140941
776.579	0.0140953
776.657	0.0141602
776.735	0.0139835
776.813	0.0141781
776.891	0.0142972
776.969	0.0141147
777.048	0.0140811
777.126	0.0140498
777.204	0.0140921
777.282	0.0140776
777.360	0.0139992
777.438	0.0139075
777.516	0.0138331
777.594	0.0138046
777.673	0.0138102
777.751	0.0138054
777.829	0.0136379
777.907	0.0136069
777.985	0.0137045
778.063	0.0136379
778.141	0.0134911
778.219	0.0134718
778.298	0.0135449
778.376	0.0136037
778.454	0.0136263
778.532	0.0136191
778.610	0.0136404
778.688	0.0138420
778.766	0.0136177
778.844	0.0136656
778.923	0.0137267
779.001	0.0137315
779.079	0.0136522
779.157	0.0136240
779.235	0.0136648
779.313	0.0137926
779.391	0.0137461
779.469	0.0137788
779.548	0.0137556
779.626	0.0136841
779.704	0.0137173
779.782	0.0138609
779.860	0.0136609
779.938	0.0137362
780.016	0.0135514
780.094	0.0135946
780.173	0.0136160
780.251	0.0136237
780.329	0.0136479
780.407	0.0136096
780.485	0.0136538
780.563	0.0137101
780.641	0.0137298
780.719	0.0137931
780.798	0.0137125
780.876	0.0137613
780.954	0.0139493
781.032	0.0141168
781.110	0.0140260
781.188	0.0140682
781.266	0.0142599
781.344	0.0141841
781.423	0.0142686
781.501	0.0144966
781.579	0.0143942
781.657	0.0144042
781.735	0.0144434
781.813	0.0145061
781.891	0.0146030
781.969	0.0144534
782.048	0.0144968
782.126	0.0144943
782.204	0.0146217
782.282	0.0145610
782.360	0.0146201
782.438	0.0144160
782.516	0.0144035
782.594	0.0142262
782.673	0.0141593
782.751	0.0141022
782.829	0.0140636
782.907	0.0140577
782.985	0.0141084
783.063	0.0140239
783.141	0.0138199
783.219	0.0137500
783.298	0.0137592
783.376	0.0136078
783.454	0.0136319
783.532	0.0136884
783.610	0.0136011
783.688	0.0134901
783.766	0.0134941
783.844	0.0133293
783.923	0.0134873
784.001	0.0133252
784.079	0.0133383
784.157	0.0135229
784.235	0.0136311
784.313	0.0135691
784.391	0.0135564
784.469	0.0136279
784.548	0.0136056
784.626	0.0136063
784.704	0.0138991
784.782	0.0136761
784.860	0.0136946
784.938	0.0139658
785.016	0.0139297
785.094	0.0137993
785.173	0.0139336
785.251	0.0139572
785.329	0.0139843
785.407	0.0139741
785.485	0.0140733
785.563	0.0139478
785.641	0.0140658
785.719	0.0139137
785.798	0.0138835
785.876	0.0140260
785.954	0.0139485
786.032	0.0138574
786.110	0.0140176
786.188	0.0138366
786.266	0.0138381
786.344	0.0138501
786.423	0.0137615
786.501	0.0138750
786.579	0.0137373
786.657	0.0138335
786.735	0.0137513
786.813	0.0137743
786.891	0.0138169
786.969	0.0136782
787.048	0.0137250
787.126	0.0137894
787.204	0.0137685
787.282	0.0137563
787.360	0.0138023
787.438	0.0138232
787.516	0.0135865
787.594	0.0137527
787.673	0.0137741
787.751	0.0138846
787.829	0.0139433
787.907	0.0139117
787.985	0.0137640
788.063	0.0139924
788.141	0.0141128
788.219	0.0139731
788.298	0.0138692
788.376	0.0139961
788.454	0.0139511
788.532	0.0139436
788.610	0.0139902
788.688	0.0139927
788.766	0.0139787
788.844	0.0138586
788.923	0.0137836
789.001	0.0136602
789.079	0.0137304
789.157	0.0138432
789.235	0.0136080
789.313	0.0136612
789.391	0.0136712
789.469	0.0136555
789.548	0.0137948
789.626	0.0138342
789.704	0.0137874
789.782	0.0137755
789.860	0.0139145
789.938	0.0139110
790.016	0.0140336
790.094	0.0140295
790.173	0.0137785
790.251	0.0140091
790.329	0.0140336
790.407	0.0142316
790.485	0.0142322
790.563	0.0140839
790.641	0.0141614
790.719	0.0140141
790.798	0.0140785
790.876	0.0140375
790.954	0.0140643
791.032	0.0141222
791.110	0.0140953
791.188	0.0143188
791.266	0.0141932
791.344	0.0141557
791.423	0.0142414
791.501	0.0142542
791.579	0.0141181
791.657	0.0142002
791.735	0.0140053
791.813	0.0140592
791.891	0.0141391
791.969	0.0139228
792.048	0.0139472
792.126	0.0139208
792.204	0.0138990
792.282	0.0138707
792.360	0.0138615
792.438	0.0136896
792.516	0.0136900
792.594	0.0136489
792.673	0.0136276
792.751	0.0135896
792.829	0.0134767
792.907	0.0135005
792.985	0.0134894
793.063	0.0135258
793.141	0.0135482
793.219	0.0134301
793.298	0.0136942
793.376	0.0134940
793.454	0.0135147
793.532	0.0136572
793.610	0.0135848
793.688	0.0137938
793.766	0.0139603
793.844	0.0138659
793.923	0.0137839
794.001	0.0139639
794.079	0.0139911
794.157	0.0139973
794.235	0.0140514
794.313	0.0140337
794.391	0.0139603
794.469	0.0141631
794.548	0.0142035
794.626	0.0142524
794.704	0.0143143
794.782	0.0143511
794.860	0.0143263
794.938	0.0142924
795.016	0.0144187
795.094	0.0145473
795.173	0.0145570
795.251	0.0145091
795.329	0.0142908
795.407	0.0144419
795.485	0.0144520
795.563	0.0143083
795.641	0.0141480
795.719	0.0141531
795.798	0.0141499
795.876	0.0140148
795.954	0.0137163
796.032	0.0138906
796.110	0.0137556
796.188	0.0135447
796.266	0.0135609
796.344	0.0135692
796.423	0.0134291
796.501	0.0132361
796.579	0.0133443
796.657	0.0134550
796.735	0.0132391
796.813	0.0134856
796.891	0.0134123
796.969	0.0135654
797.048	0.0135851
797.126	0.0135307
797.204	0.0135548
797.282	0.0136366
797.360	0.0135755
797.438	0.0137395
797.516	0.0135426
797.594	0.0137563
797.673	0.0138670
797.751	0.0138841
797.829	0.0139613
797.907	0.0139936
797.985	0.0139779
798.063	0.0142456
798.141	0.0141087
798.219	0.0141971
798.298	0.0142209
798.376	0.0143032
798.454	0.0144454
798.532	0.0144285
798.610	0.0145715
798.688	0.0145236
798.766	0.0143050
798.844	0.0146407
798.923	0.0145724
799.001	0.0146876
799.079	0.0146869
799.157	0.0145599
799.235	0.0147620
799.313	0.0146095
799.391	0.0146755
799.469	0.0145318
799.548	0.0146585
799.626	0.0146124
799.704	0.0144553
799.782	0.0144324
799.860	0.0144221
799.938	0.0142422
800.016	0.0141391
800.094	0.0139733
800.173	0.0138847
800.251	0.0137524
800.329	0.0136391
800.407	0.0136032
800.485	0.0133542
800.563	0.0134158
800.641	0.0132812
800.719	0.0132198
800.798	0.0131191
800.876	0.0131069
800.954	0.0131241
801.032	0.0128254
801.110	0.0129165
801.188	0.0130713
801.266	0.0129340
801.344	0.0130144
801.423	0.0129733
801.501	0.0130670
801.579	0.0129930
801.657	0.0130317
801.735	0.0132407
801.813	0.0131438
801.891	0.0131950
801.969	0.0132824
802.048	0.0133883
802.126	0.0135446
802.204	0.0135373
802.282	0.0137529
802.360	0.0137676
802.438	0.0139133
802.516	0.0139487
802.594	0.0141472
802.673	0.0140067
802.751	0.0139938
802.829	0.0141812
802.907	0.0142592
802.985	0.0141284
803.063	0.0141969
803.141	0.0142396
803.219	0.0142997
803.298	0.0143140
803.376	0.0143404
803.454	0.0144482
803.532	0.0143777
803.610	0.0144472
803.688	0.0143475
803.766	0.0142892
803.844	0.0143742
803.923	0.0145670
804.001	0.0144720
804.079	0.0145416
804.157	0.0146116
804.235	0.0145733
804.313	0.0147169
804.391	0.0146091
804.469	0.0147001
804.548	0.0146379
804.626	0.0145998
804.704	0.0145636
804.782	0.0146198
804.860	0.0144700
804.938	0.0142472
805.016	0.0142690
805.094	0.0141768
805.173	0.0142039
805.251	0.0140656
805.329	0.0139456
805.407	0.0140381
805.485	0.0136622
805.563	0.0138004
805.641	0.0136747
805.719	0.0135677
805.798	0.0134013
805.876	0.0131582
805.954	0.0131424
806.032	0.0132409
806.110	0.0132167
806.188	0.0131111
806.266	0.0130546
806.344	0.0131172
806.423	0.0131327
806.501	0.0130972
806.579	0.0130058
806.657	0.0130287
806.735	0.0129873
806.813	0.0130514
806.891	0.0130416
806.969	0.0131126
807.048	0.0131500
807.126	0.0131710
807.204	0.0130767
807.282	0.0132047
807.360	0.0133504
807.438	0.0133919
807.516	0.0134517
807.594	0.0134372
807.673	0.0135221
807.751	0.0136253
807.829	0.0136514
807.907	0.0138295
807.985	0.0136636
808.063	0.0138687
808.141	0.0139204
808.219	0.0141447
808.298	0.0140536
808.376	0.0140035
808.454	0.0140927
808.532	0.0141322
808.610	0.0141051
808.688	0.0142474
808.766	0.0141670
808.844	0.0142355
808.923	0.0141761
809.001	0.0143832
809.079	0.0142317
809.157	0.0144499
809.235	0.0144455
809.313	0.0144482
809.391	0.0145445
809.469	0.0145174
809.548	0.0147063
809.626	0.0147024
809.704	0.0147099
809.782	0.0147696
809.860	0.0147035
809.938	0.0146230
810.016	0.0146634
810.094	0.0147498
810.173	0.0148323
810.251	0.0146424
810.329	0.0146864
810.407	0.0146342
810.485	0.0145449
810.563	0.0144082
810.641	0.0144843
810.719	0.0143312
810.798	0.0141998
810.876	0.0140834
810.954	0.0139399
811.032	0.0138292
811.110	0.0138113
811.188	0.0137045
811.266	0.0134391
811.344	0.0134587
811.423	0.0133919
811.501	0.0134288
811.579	0.0132021
811.657	0.0130376
811.735	0.0129975
811.813	0.0129559
811.891	0.0130672
811.969	0.0128927
812.048	0.0128451
812.126	0.0128488
812.204	0.0126924
812.282	0.0128177
812.360	0.0128603
812.438	0.0130083
812.516	0.0129141
812.594	0.0129694
812.673	0.0130825
812.751	0.0130499
812.829	0.0131982
812.907	0.0133429
812.985	0.0134268
813.063	0.0136254
813.141	0.0134875
813.219	0.0135670
813.298	0.0136749
813.376	0.0137409
813.454	0.0138626
813.532	0.0139589
813.610	0.0140153
813.688	0.0141197
813.766	0.0142284
813.844	0.0142049
813.923	0.0142120
814.001	0.0141841
814.079	0.0141645
814.157	0.0141454
814.235	0.0143991
814.313	0.0143626
814.391	0.0143537
814.469	0.0143381
814.548	0.0145058
814.626	0.0145632
814.704	0.0144883
814.782	0.0145737
814.860	0.0146685
814.938	0.0147636
815.016	0.0147870
815.094	0.0149624
815.173	0.0149642
815.251	0.0148909
815.329	0.0149559
815.407	0.0149469
815.485	0.0150875
815.563	0.0150282
815.641	0.0150004
815.719	0.0148771
815.798	0.0149065
815.876	0.0148748
815.954	0.0147857
816.032	0.0144351
816.110	0.0144221
816.188	0.0142996
816.266	0.0142454
816.344	0.0139983
816.423	0.0139641
816.501	0.0138398
816.579	0.0134942
816.657	0.0133736
816.735	0.0133403
816.813	0.0131914
816.891	0.0131581
816.969	0.0128669
817.048	0.0129129
817.126	0.0127461
817.204	0.0127741
817.282	0.0127013
817.360	0.0126950
817.438	0.0126131
817.516	0.0125961
817.594	0.0126817
817.673	0.0127030
817.751	0.0126694
817.829	0.0128044
817.907	0.0130058
817.985	0.0131072
818.063	0.0131736
818.141	0.0131385
818.219	0.0132290
818.298	0.0133267
818.376	0.0136284
818.454	0.0137019
818.532	0.0137260
818.610	0.0137762
818.688	0.0136662
818.766	0.0138095
818.844	0.0137798
818.923	0.0140330
819.001	0.0142141
819.079	0.0141378
819.157	0.0142507
819.235	0.0145122
819.313	0.0144889
819.391	0.0143217
819.469	0.0142946
819.548	0.0145125
819.626	0.0146404
819.704	0.0146169
819.782	0.0147346
819.860	0.0147832
819.938	0.0147826
820.016	0.0147943
820.094	0.0148161
820.173	0.0148708
820.251	0.0148964
820.329	0.0149135
820.407	0.0149924
820.485	0.0148579
820.563	0.0149286
820.641	0.0150261
820.719	0.0148843
820.798	0.0147224
820.876	0.0147449
820.954	0.0149073
821.032	0.0148015
821.110	0.0147213
821.188	0.0145923
821.266	0.0144990
821.344	0.0144913
821.423	0.0143851
821.501	0.0141940
821.579	0.0142470
821.657	0.0140395
821.735	0.0138798
821.813	0.0136853
821.891	0.0139446
821.969	0.0136179
822.048	0.0135691
822.126	0.0132888
822.204	0.0133776
822.282	0.0133088
822.360	0.0131692
822.438	0.0131480
822.516	0.0130000
822.594	0.0128615
822.673	0.0128941
822.751	0.0128340
822.829	0.0128195
822.907	0.0127003
822.985	0.0127611
823.063	0.0126965
823.141	0.0127792
823.219	0.0127308
823.298	0.0128629
823.376	0.0128474
823.454	0.0129668
823.532	0.0130419
823.610	0.0131313
823.688	0.0132126
823.766	0.0133706
823.844	0.0133673
823.923	0.0135319
824.001	0.0136062
824.079	0.0135820
824.157	0.0137925
824.235	0.0140330
824.313	0.0139929
824.391	0.0141500
824.469	0.0142214
824.548	0.0142481
824.626	0.0143613
824.704	0.0144865
824.782	0.0146282
824.860	0.0146679
824.938	0.0147231
825.016	0.0146822
825.094	0.0146046
825.173	0.0147661
825.251	0.0147528
825.329	0.0148048
825.407	0.0148441
825.485	0.0146306
825.563	0.0146744
825.641	0.0147766
825.719	0.0146331
825.798	0.0145534
825.876	0.0146371
825.954	0.0146413
826.032	0.0144845
826.110	0.0144227
826.188	0.0143005
826.266	0.0142347
826.344	0.0141996
826.423	0.0141405
826.501	0.0140495
826.579	0.0139610
826.657	0.0139654
826.735	0.0138110
826.813	0.0138008
826.891	0.0137429
826.969	0.0136780
827.048	0.0137113
827.126	0.0137864
827.204	0.0137206
827.282	0.0138277
827.360	0.0137319
827.438	0.0137525
827.516	0.0136886
827.594	0.0136441
827.673	0.0137914
827.751	0.0137295
827.829	0.0136460
827.907	0.0136077
827.985	0.0136141
828.063	0.0137214
828.141	0.0136867
828.219	0.0135978
828.298	0.0136657
828.376	0.0135811
828.454	0.0135760
828.532	0.0136698
828.610	0.0136361
828.688	0.0136293
828.766	0.0136862
828.844	0.0137833
828.923	0.0136926
829.001	0.0137313
829.079	0.0137733
829.157	0.0137151
829.235	0.0138571
829.313	0.0139505
829.391	0.0136333
829.469	0.0137096
829.548	0.0136440
829.626	0.0135661
829.704	0.0137587
829.782	0.0137265
829.860	0.0136018
829.938	0.0135846
830.016	0.0136722
830.094	0.0137087
830.173	0.0135091
830.251	0.0136471
830.329	0.0135202
830.407	0.0137189
830.485	0.0137601
830.563	0.0137831
830.641	0.0138075
830.719	0.0138577
830.798	0.0137967
830.876	0.0139854
830.954	0.0141243
831.032	0.0140154
831.110	0.0139793
831.188	0.0141363
831.266	0.0142639
831.344	0.0142242
831.423	0.0142078
831.501	0.0143385
831.579	0.0144636
831.657	0.0144028
831.735	0.0144083
831.813	0.0144122
831.891	0.0145744
831.969	0.0145314
832.048	0.0142816
832.126	0.0144079
832.204	0.0143817
832.282	0.0143996
832.360	0.0144083
832.438	0.0142641
832.516	0.0142120
832.594	0.0143756
832.673	0.0141631
832.751	0.0141259
832.829	0.0139994
832.907	0.0140442
832.985	0.0140025
833.063	0.0138953
833.141	0.0138279
833.219	0.0137738
833.298	0.0137418
833.376	0.0137836
833.454	0.0137412
833.532	0.0136954
833.610	0.0136657
833.688	0.0137032
833.766	0.0137524
833.844	0.0137595
833.923	0.0136780
834.001	0.0135551
834.079	0.0136923
834.157	0.0136950
834.235	0.0137255
834.313	0.0137006
834.391	0.0137503
834.469	0.0137146
834.548	0.0138278
834.626	0.0137889
834.704	0.0138428
834.782	0.0139259
834.860	0.0138166
834.938	0.0140400
835.016	0.0139559
835.094	0.0139849
835.173	0.0141599
835.251	0.0139715
835.329	0.0140289
835.407	0.0140319
835.485	0.0139021
835.563	0.0138398
835.641	0.0138998
835.719	0.0139989
835.798	0.0138234
835.876	0.0138934
835.954	0.0139082
836.032	0.0139145
836.110	0.0139212
836.188	0.0137057
836.266	0.0139658
836.344	0.0137442
836.423	0.0137207
836.501	0.0137440
836.579	0.0138348
836.657	0.0137376
836.735	0.0137752
836.813	0.0137972
836.891	0.0137504
836.969	0.0137429
837.048	0.0137883
837.126	0.0138279
837.204	0.0137208
837.282	0.0137267
837.360	0.0137424
837.438	0.0136758
837.516	0.0138097
837.594	0.0139775
837.673	0.0137966
837.751	0.0137385
837.829	0.0136832
837.907	0.0139098
837.985	0.0138455
838.063	0.0137724
838.141	0.0138290
838.219	0.0140317
838.298	0.0139395
838.376	0.0139965
838.454	0.0139026
838.532	0.0139865
838.610	0.0141573
838.688	0.0139684
838.766	0.0140420
838.844	0.0141841
838.923	0.0140920
839.001	0.0139888
839.079	0.0142088
839.157	0.0141544
839.235	0.0141345
839.313	0.0142548
839.391	0.0143235
839.469	0.0143125
839.548	0.0143513
839.626	0.0142547
839.704	0.0141744
839.782	0.0143101
839.860	0.0143011
839.938	0.0142053
840.016	0.0142967
840.094	0.0141827
840.173	0.0142160
840.251	0.0140771
840.329	0.0142931
840.407	0.0141878
840.485	0.0142451
840.563	0.0142993
840.641	0.0141991
840.719	0.0142480
840.798	0.0141438
840.876	0.0140878
840.954	0.0142626
841.032	0.0142173
841.110	0.0139753
841.188	0.0140136
841.266	0.0140545
841.344	0.0141302
841.423	0.0138110
841.501	0.0140102
841.579	0.0140063
841.657	0.0138063
841.735	0.0137527
841.813	0.0136953
841.891	0.0135542
841.969	0.0136866
842.048	0.0135228
842.126	0.0135058
842.204	0.0133949
842.282	0.0132945
842.360	0.0134228
842.438	0.0133233
842.516	0.0132494
842.594	0.0132122
842.673	0.0133602
842.751	0.0134406
842.829	0.0132837
842.907	0.0134245
842.985	0.0133843
843.063	0.0134357
843.141	0.0134235
843.219	0.0135140
843.298	0.0136600
843.376	0.0135513
843.454	0.0136436
843.532	0.0137579
843.610	0.0137135
843.688	0.0137721
843.766	0.0139622
843.844	0.0139174
843.923	0.0139665
844.001	0.0140308
844.079	0.0139468
844.157	0.0140555
844.235	0.0141010
844.313	0.0140454
844.391	0.0141593
844.469	0.0141551
844.548	0.0140202
844.626	0.0141616
844.704	0.0141985
844.782	0.0142821
844.860	0.0143211
844.938	0.0144072
845.016	0.0143847
845.094	0.0142316
845.173	0.0143097
845.251	0.0142652
845.329	0.0144209
845.407	0.0143882
845.485	0.0144915
845.563	0.0143011
845.641	0.0143787
845.719	0.0142771
845.798	0.0144637
845.876	0.0143604
845.954	0.0143780
846.032	0.0143991
846.110	0.0143326
846.188	0.0143703
846.266	0.0142857
846.344	0.0143462
846.423	0.0143600
846.501	0.0142313
846.579	0.0142239
846.657	0.0140886
846.735	0.0141739
846.813	0.0141396
846.891	0.0140145
846.969	0.0138375
847.048	0.0138282
847.126	0.0138279
847.204	0.0137606
847.282	0.0135968
847.360	0.0135792
847.438	0.0135153
847.516	0.0135278
847.594	0.0134620
847.673	0.0133608
847.751	0.0131734
847.829	0.0131855
847.907	0.0132872
847.985	0.0132903
848.063	0.0131609
848.141	0.0132046
848.219	0.0132940
848.298	0.0132539
848.376	0.0133592
848.454	0.0132124
848.532	0.0133149
848.610	0.0133939
848.688	0.0133288
848.766	0.0134975
848.844	0.0134998
848.923	0.0134724
849.001	0.0135731
849.079	0.0136490
849.157	0.0135780
849.235	0.0136490
849.313	0.0138280
849.391	0.0137617
849.469	0.0138107
849.548	0.0138577
849.626	0.0138474
849.704	0.0139574
849.782	0.0139474
849.860	0.0138816
849.938	0.0141357
850.016	0.0139588
850.094	0.0140673
850.173	0.0140820
850.251	0.0140195
850.329	0.0141151
850.407	0.0139230
850.485	0.0141500
850.563	0.0142085
850.641	0.0141833
850.719	0.0141033
850.798	0.0141148
850.876	0.0141064
850.954	0.0141467
851.032	0.0142785
851.110	0.0142006
851.188	0.0144080
851.266	0.0142613
851.344	0.0143383
851.423	0.0143153
851.501	0.0144562
851.579	0.0144553
851.657	0.0144991
851.735	0.0144314
851.813	0.0143843
851.891	0.0144000
851.969	0.0142881
852.048	0.0142062
852.126	0.0142706
852.204	0.0141768
852.282	0.0142590
852.360	0.0140685
852.438	0.0141164
852.516	0.0140096
852.594	0.0140709
852.673	0.0139174
852.751	0.0139098
852.829	0.0140237
852.907	0.0138602
852.985	0.0138654
853.063	0.0138951
853.141	0.0136247
853.219	0.0136926
853.298	0.0137606
853.376	0.0137231
853.454	0.0136639
853.532	0.0135983
853.610	0.0137581
853.688	0.0134748
853.766	0.0135390
853.844	0.0136321
853.923	0.0135496
854.001	0.0136167
854.079	0.0135375
854.157	0.0135858
854.235	0.0137070
854.313	0.0134631
854.391	0.0134800
854.469	0.0136097
854.548	0.0134921
854.626	0.0135935
854.704	0.0135104
854.782	0.0135378
854.860	0.0136276
854.938	0.0135774
855.016	0.0136887
855.094	0.0137137
855.173	0.0136972
855.251	0.0136568
855.329	0.0138879
855.407	0.0138280
855.485	0.0138906
855.563	0.0138486
855.641	0.0138232
855.719	0.0139707
855.798	0.0140041
855.876	0.0140494
855.954	0.0140222
856.032	0.0141118
856.110	0.0141414
856.188	0.0140842
856.266	0.0142771
856.344	0.0142464
856.423	0.0142219
856.501	0.0142490
856.579	0.0144416
856.657	0.0145249
856.735	0.0144072
856.813	0.0142922
856.891	0.0144379
856.969	0.0143837
857.048	0.0143174
857.126	0.0143380
857.204	0.0143256
857.282	0.0144546
857.360	0.0142732
857.438	0.0142535
857.516	0.0142828
857.594	0.0142876
857.673	0.0142091
857.751	0.0142540
857.829	0.0141448
857.907	0.0141262
857.985	0.0141202
858.063	0.0140176
858.141	0.0138939
858.219	0.0139705
858.298	0.0138492
858.376	0.0139030
858.454	0.0138770
858.532	0.0137429
858.610	0.0139308
858.688	0.0137253
858.766	0.0136895
858.844	0.0136405
858.923	0.0137802
859.001	0.0136597
859.079	0.0134568
859.157	0.0136365
859.235	0.0135820
859.313	0.0135052
859.391	0.0134794
859.469	0.0133947
859.548	0.0135349
859.626	0.0133140
859.704	0.0135320
859.782	0.0134949
859.860	0.0135471
859.938	0.0135681
860.016	0.0134509
860.094	0.0136713
860.173	0.0135951
860.251	0.0137154
860.329	0.0136068
860.407	0.0136617
860.485	0.0137492
860.563	0.0137787
860.641	0.0138326
860.719	0.0138714
860.798	0.0139118
860.876	0.0139310
860.954	0.0138750
861.032	0.0140343
861.110	0.0140923
861.188	0.0139950
861.266	0.0140581
861.344	0.0141199
861.423	0.0140936
861.501	0.0141556
861.579	0.0141782
861.657	0.0141164
861.735	0.0142010
861.813	0.0140769
861.891	0.0141438
861.969	0.0142900
862.048	0.0141994
862.126	0.0141436
862.204	0.0141251
862.282	0.0142207
862.360	0.0141454
862.438	0.0142489
862.516	0.0141330
862.594	0.0139847
862.673	0.0139810
862.751	0.0141339
862.829	0.0141087
862.907	0.0140836
862.985	0.0141096
863.063	0.0139951
863.141	0.0140501
863.219	0.0139375
863.298	0.0139792
863.376	0.0141133
863.454	0.0139662
863.532	0.0139153
863.610	0.0141068
863.688	0.0139644
863.766	0.0138679
863.844	0.0139151
863.923	0.0140518
864.001	0.0138704
864.079	0.0139485
864.157	0.0139472
864.235	0.0140002
864.313	0.0138868
864.391	0.0139516
864.469	0.0137587
864.548	0.0137004
864.626	0.0139838
864.704	0.0139102
864.782	0.0139085
864.860	0.0139429
864.938	0.0139291
865.016	0.0138908
865.094	0.0139556
865.173	0.0139503
865.251	0.0138935
865.329	0.0139632
865.407	0.0139086
865.485	0.0139794
865.563	0.0137823
865.641	0.0138844
865.719	0.0138647
865.798	0.0137173
865.876	0.0137086
865.954	0.0136663
866.032	0.0137347
866.110	0.0136240
866.188	0.0139311
866.266	0.0136520
866.344	0.0135516
866.423	0.0135983
866.501	0.0136132
866.579	0.0134891
866.657	0.0136460
866.735	0.0135857
866.813	0.0135383
866.891	0.0136540
866.969	0.0136894
867.048	0.0136279
867.126	0.0135946
867.204	0.0137351
867.282	0.0137833
867.360	0.0137180
867.438	0.0137900
867.516	0.0139800
867.594	0.0137716
867.673	0.0139104
867.751	0.0140426
867.829	0.0141367
867.907	0.0141721
867.985	0.0142330
868.063	0.0143098
868.141	0.0145937
868.219	0.0144936
868.298	0.0144217
868.376	0.0144411
868.454	0.0145383
868.532	0.0143901
868.610	0.0144299
868.688	0.0143383
868.766	0.0143542
868.844	0.0142355
868.923	0.0142295
869.001	0.0141994
869.079	0.0141891
869.157	0.0139891
869.235	0.0139664
869.313	0.0139252
869.391	0.0139852
869.469	0.0137444
869.548	0.0139885
869.626	0.0138950
869.704	0.0137645
869.782	0.0139011
869.860	0.0139219
869.938	0.0137148
870.016	0.0137627
870.094	0.0137816
870.173	0.0137740
870.251	0.0138580
870.329	0.0137613
870.407	0.0135540
870.485	0.0137173
870.563	0.0135967
870.641	0.0136513
870.719	0.0135996
870.798	0.0136125
870.876	0.0135737
870.954	0.0136207
871.032	0.0135041
871.110	0.0135419
871.188	0.0137415
871.266	0.0135184
871.344	0.0134908
871.423	0.0136301
871.501	0.0137016
871.579	0.0136267
871.657	0.0137017
871.735	0.0136814
871.813	0.0137680
871.891	0.0136156
871.969	0.0136962
872.048	0.0137640
872.126	0.0138673
872.204	0.0139731
872.282	0.0137820
872.360	0.0137644
872.438	0.0138101
872.516	0.0138577
872.594	0.0139953
872.673	0.0138380
872.751	0.0138876
872.829	0.0139867
872.907	0.0139771
872.985	0.0137890
873.063	0.0138984
873.141	0.0138374
873.219	0.0139722
873.298	0.0138934
873.376	0.0138989
873.454	0.0138709
873.532	0.0140038
873.610	0.0139922
873.688	0.0140337
873.766	0.0140202
873.844	0.0141400
873.923	0.0141541
874.001	0.0141501
874.079	0.0140939
874.157	0.0142302
874.235	0.0141842
874.313	0.0141933
874.391	0.0141538
874.469	0.0141338
874.548	0.0138790
874.626	0.0139271
874.704	0.0139770
874.782	0.0139670
874.860	0.0139210
874.938	0.0139138
875.016	0.0139877
875.094	0.0139822
875.173	0.0139195
875.251	0.0138786
875.329	0.0140453
875.407	0.0139987
875.485	0.0139238
875.563	0.0139544
875.641	0.0139101
875.719	0.0138450
875.798	0.0137482
875.876	0.0139043
875.954	0.0138877
876.032	0.0138058
876.110	0.0138808
876.188	0.0137725
876.266	0.0136056
876.344	0.0136410
876.423	0.0138056
876.501	0.0137181
876.579	0.0137349
876.657	0.0135334
876.735	0.0136583
876.813	0.0135995
876.891	0.0135650
876.969	0.0136276
877.048	0.0136401
877.126	0.0136855
877.204	0.0136960
877.282	0.0136887
877.360	0.0137640
877.438	0.0138765
877.516	0.0137942
877.594	0.0138636
877.673	0.0137525
877.751	0.0136899
877.829	0.0137243
877.907	0.0138528
877.985	0.0138716
878.063	0.0139746
878.141	0.0139771
878.219	0.0141263
878.298	0.0141080
878.376	0.0141710
878.454	0.0141270
878.532	0.0140645
878.610	0.0143025
878.688	0.0142773
878.766	0.0141776
878.844	0.0140598
878.923	0.0140536
879.001	0.0141371
879.079	0.0141504
879.157	0.0142487
879.235	0.0141103
879.313	0.0140853
879.391	0.0141045
879.469	0.0140820
879.548	0.0140815
879.626	0.0140599
879.704	0.0141401
879.782	0.0139766
879.860	0.0141464
879.938	0.0141606
880.016	0.0140387
880.094	0.0140447
880.173	0.0140649
880.251	0.0141721
880.329	0.0140570
880.407	0.0140289
880.485	0.0140199
880.563	0.0140477
880.641	0.0138967
880.719	0.0138985
880.798	0.0139230
880.876	0.0138177
880.954	0.0137954
881.032	0.0138365
881.110	0.0137941
881.188	0.0137041
881.266	0.0137052
881.344	0.0135233
881.423	0.0136671
881.501	0.0136397
881.579	0.0136778
881.657	0.0137121
881.735	0.0137592
881.813	0.0137813
881.891	0.0136395
881.969	0.0137024
882.048	0.0138514
882.126	0.0137859
882.204	0.0138152
882.282	0.0138253
882.360	0.0138059
882.438	0.0140170
882.516	0.0140521
882.594	0.0139215
882.673	0.0140721
882.751	0.0140569
882.829	0.0141162
882.907	0.0140876
882.985	0.0140327
883.063	0.0141888
883.141	0.0141079
883.219	0.0138993
883.298	0.0139460
883.376	0.0140386
883.454	0.0139441
883.532	0.0138962
883.610	0.0140202
883.688	0.0137576
883.766	0.0137415
883.844	0.0138613
883.923	0.0137769
884.001	0.0138621
884.079	0.0137048
884.157	0.0137436
884.235	0.0137783
884.313	0.0137463
884.391	0.0138417
884.469	0.0137778
884.548	0.0137834
884.626	0.0138091
884.704	0.0137804
884.782	0.0138458
884.860	0.0137731
884.938	0.0137284
885.016	0.0138640
885.094	0.0140295
885.173	0.0138683
885.251	0.0139168
885.329	0.0139101
885.407	0.0140340
885.485	0.0139837
885.563	0.0140669
885.641	0.0140568
885.719	0.0141465
885.798	0.0141677
885.876	0.0141167
885.954	0.0141338
886.032	0.0142097
886.110	0.0140433
886.188	0.0139795
886.266	0.0139903
886.344	0.0139319
886.423	0.0140110
886.501	0.0139249
886.579	0.0138698
886.657	0.0138231
886.735	0.0138908
886.813	0.0137942
886.891	0.0138490
886.969	0.0139204
887.048	0.0138602
887.126	0.0139121
887.204	0.0136617
887.282	0.0135841
887.360	0.0135966
887.438	0.0135963
887.516	0.0135336
887.594	0.0133900
887.673	0.0134702
887.751	0.0135524
887.829	0.0134082
887.907	0.0133414
887.985	0.0135692
888.063	0.0135454
888.141	0.0136018
888.219	0.0137211
888.298	0.0136475
888.376	0.0138058
888.454	0.0140578
888.532	0.0141064
888.610	0.0141827
888.688	0.0141213
888.766	0.0142419
888.844	0.0142927
888.923	0.0142601
889.001	0.0143262
889.079	0.0143600
889.157	0.0143176
889.235	0.0142691
889.313	0.0142997
889.391	0.0142287
889.469	0.0141911
889.548	0.0142987
889.626	0.0141314
889.704	0.0141615
889.782	0.0141356
889.860	0.0140749
889.938	0.0140185
890.016	0.0141222
890.094	0.0142860
890.173	0.0140323
890.251	0.0140692
890.329	0.0139353
890.407	0.0140107
890.485	0.0138601
890.563	0.0139370
890.641	0.0136900
890.719	0.0135969
890.798	0.0137006
890.876	0.0137215
890.954	0.0136050
891.032	0.0135722
891.110	0.0135279
891.188	0.0134107
891.266	0.0133177
891.344	0.0132346
891.423	0.0131686
891.501	0.0132320
891.579	0.0132348
891.657	0.0132885
891.735	0.0133466
891.813	0.0133063
891.891	0.0133332
891.969	0.0134525
892.048	0.0135334
892.126	0.0133693
892.204	0.0134852
892.282	0.0134273
892.360	0.0135011
892.438	0.0136451
892.516	0.0136420
892.594	0.0136317
892.673	0.0137384
892.751	0.0139500
892.829	0.0137796
892.907	0.0138187
892.985	0.0139245
893.063	0.0140057
893.141	0.0141623
893.219	0.0141704
893.298	0.0143193
893.376	0.0141717
893.454	0.0143475
893.532	0.0144212
893.610	0.0143511
893.688	0.0143423
893.766	0.0144038
893.844	0.0144140
893.923	0.0143893
894.001	0.0143220
894.079	0.0142580
894.157	0.0143513
894.235	0.0144318
894.313	0.0143060
894.391	0.0142437
894.469	0.0142092
894.548	0.0140530
894.626	0.0142566
894.704	0.0140818
894.782	0.0141147
894.860	0.0141951
894.938	0.0143202
895.016	0.0141890
895.094	0.0139998
895.173	0.0137981
895.251	0.0139390
895.329	0.0138031
895.407	0.0135573
895.485	0.0137174
895.563	0.0135007
895.641	0.0134660
895.719	0.0133504
895.798	0.0134283
895.876	0.0134859
895.954	0.0133130
896.032	0.0133030
896.110	0.0133216
896.188	0.0133840
896.266	0.0136840
896.344	0.0136659
896.423	0.0134510
896.501	0.0135542
896.579	0.0136543
896.657	0.0138242
896.735	0.0138682
896.813	0.0138580
896.891	0.0139484
896.969	0.0139365
897.048	0.0139013
897.126	0.0139645
897.204	0.0139779
897.282	0.0140071
897.360	0.0140112
897.438	0.0140832
897.516	0.0139930
897.594	0.0140076
897.673	0.0140452
897.751	0.0140270
897.829	0.0140102
897.907	0.0139378
897.985	0.0138058
898.063	0.0138537
898.141	0.0137999
898.219	0.0137814
898.298	0.0138189
898.376	0.0136861
898.454	0.0138170
898.532	0.0138364
898.610	0.0138217
898.688	0.0138104
898.766	0.0138652
898.844	0.0138692
898.923	0.0138504
899.001	0.0138404
899.079	0.0138606
899.157	0.0138470
899.235	0.0140110
899.313	0.0141502
899.391	0.0139812
899.469	0.0140791
899.548	0.0142310
899.626	0.0142208
899.704	0.0141922
899.782	0.0141604
899.860	0.0142166
899.938	0.0144104
900.016	0.0143298
900.094	0.0143246
900.173	0.0142822
900.251	0.0143974
900.329	0.0142692
900.407	0.0142125
900.485	0.0140514
900.563	0.0140388
900.641	0.0139648
900.719	0.0138290
900.798	0.0137458
900.876	0.0137797
900.954	0.0136620
901.032	0.0136285
901.110	0.0135472
901.188	0.0135847
901.266	0.0136911
901.344	0.0137930
901.423	0.0138880
901.501	0.0136714
901.579	0.0137554
901.657	0.0140125
901.735	0.0140376
901.813	0.0139484
901.891	0.0140350
901.969	0.0140579
902.048	0.0142079
902.126	0.0139407
902.204	0.0141885
902.282	0.0140552
902.360	0.0140343
902.438	0.0140020
902.516	0.0138283
902.594	0.0138373
902.673	0.0138248
902.751	0.0138216
902.829	0.0139669
902.907	0.0136916
902.985	0.0137045
903.063	0.0136243
903.141	0.0134103
903.219	0.0134143
903.298	0.0133485
903.376	0.0133370
903.454	0.0134222
903.532	0.0133540
903.610	0.0131957
903.688	0.0132587
903.766	0.0133319
903.844	0.0133842
903.923	0.0134783
904.001	0.0135031
904.079	0.0135825
904.157	0.0137175
904.235	0.0138560
904.313	0.0138892
904.391	0.0139774
904.469	0.0141249
904.548	0.0143182
904.626	0.0142374
904.704	0.0145393
904.782	0.0145384
904.860	0.0146124
904.938	0.0146235
905.016	0.0146770
905.094	0.0146887
905.173	0.0148074
905.251	0.0146343
905.329	0.0145782
905.407	0.0146872
905.485	0.0146822
905.563	0.0144885
905.641	0.0144827
905.719	0.0142495
905.798	0.0143051
905.876	0.0141676
905.954	0.0139860
906.032	0.0139858
906.110	0.0139236
906.188	0.0137639
906.266	0.0136190
906.344	0.0137431
906.423	0.0136404
906.501	0.0135290
906.579	0.0136203
906.657	0.0135617
906.735	0.0134789
906.813	0.0135925
906.891	0.0136298
906.969	0.0136633
907.048	0.0136298
907.126	0.0137328
907.204	0.0138415
907.282	0.0138993
907.360	0.0137978
907.438	0.0138757
907.516	0.0139149
907.594	0.0140295
907.673	0.0141106
907.751	0.0139680
907.829	0.0140018
907.907	0.0140488
907.985	0.0139372
908.063	0.0139347
908.141	0.0137732
908.219	0.0136134
908.298	0.0136206
908.376	0.0135380
908.454	0.0134592
908.532	0.0134500
908.610	0.0132573
908.688	0.0132688
908.766	0.0132590
908.844	0.0131986
908.923	0.0131458
909.001	0.0132298
909.079	0.0133936
909.157	0.0133610
909.235	0.0134325
909.313	0.0134077
909.391	0.0135812
909.469	0.0137606
909.548	0.0139493
909.626	0.0138825
909.704	0.0139906
909.782	0.0140548
909.860	0.0141348
909.938	0.0142065
910.016	0.0143374
910.094	0.0144573
910.173	0.0144355
910.251	0.0145348
910.329	0.0144923
910.407	0.0145329
910.485	0.0144431
910.563	0.0143410
910.641	0.0145641
910.719	0.0144727
910.798	0.0144009
910.876	0.0142954
910.954	0.0143156
911.032	0.0141167
911.110	0.0142093
911.188	0.0140176
911.266	0.0140436
911.344	0.0141736
911.423	0.0138874
911.501	0.0137041
911.579	0.0136627
911.657	0.0136118
911.735	0.0135334
911.813	0.0135450
911.891	0.0134187
911.969	0.0134544
912.048	0.0133898
912.126	0.0134642
912.204	0.0135684
912.282	0.0134659
912.360	0.0135471
912.438	0.0135751
912.516	0.0136032
912.594	0.0137910
912.673	0.0137586
912.751	0.0139099
912.829	0.0137407
912.907	0.0138144
912.985	0.0139179
913.063	0.0138173
913.141	0.0139279
913.219	0.0138928
913.298	0.0138145
913.376	0.0139217
913.454	0.0139680
913.532	0.0139526
913.610	0.0139265
913.688	0.0138818
913.766	0.0139024
913.844	0.0140485
913.923	0.0139461
914.001	0.0140780
914.079	0.0139635
914.157	0.0140961
914.235	0.0139773
914.313	0.0140546
914.391	0.0140723
914.469	0.0140776
914.548	0.0140501
914.626	0.0140295
914.704	0.0140598
914.782	0.0140833
914.860	0.0139676
914.938	0.0141822
915.016	0.0140087
915.094	0.0140005
915.173	0.0140458
915.251	0.0139465
915.329	0.0138996
915.407	0.0139652
915.485	0.0140270
915.563	0.0139254
915.641	0.0138637
915.719	0.0138857
915.798	0.0137857
915.876	0.0138505
915.954	0.0139108
916.032	0.0138700
916.110	0.0137370
916.188	0.0138463
916.266	0.0138252
916.344	0.0137080
916.423	0.0136447
916.501	0.0137016
916.579	0.0136290
916.657	0.0134726
916.735	0.0135994
916.813	0.0135180
916.891	0.0135654
916.969	0.0134695
917.048	0.0135853
917.126	0.0134097
917.204	0.0135528
917.282	0.0136578
917.360	0.0136298
917.438	0.0136429
917.516	0.0138713
917.594	0.0138444
917.673	0.0138477
917.751	0.0139864
917.829	0.0139550
917.907	0.0141189
917.985	0.0141528
918.063	0.0141808
918.141	0.0143383
918.219	0.0142907
918.298	0.0142721
918.376	0.0142617
918.454	0.0144041
918.532	0.0143484
918.610	0.0142697
918.688	0.0143673
918.766	0.0144875
918.844	0.0143018
918.923	0.0141457
919.001	0.0142013
919.079	0.0143076
919.157	0.0140780
919.235	0.0141209
919.313	0.0141543
919.391	0.0142033
919.469	0.0141290
919.548	0.0140094
919.626	0.0139927
919.704	0.0140415
919.782	0.0140309
919.860	0.0138711
919.938	0.0137724
920.016	0.0138258
920.094	0.0137607
920.173	0.0137405
920.251	0.0137188
920.329	0.0138630
920.407	0.0137543
920.485	0.0137907
920.563	0.0138279
920.641	0.0137031
920.719	0.0139036
920.798	0.0137652
920.876	0.0138322
920.954	0.0138239
921.032	0.0137651
921.110	0.0139130
921.188	0.0139235
921.266	0.0138084
921.344	0.0138982
921.423	0.0138191
921.501	0.0137997
921.579	0.0137472
921.657	0.0137745
921.735	0.0137269
921.813	0.0138671
921.891	0.0138474
921.969	0.0138799
922.048	0.0139162
922.126	0.0138183
922.204	0.0138345
922.282	0.0139598
922.360	0.0140040
922.438	0.0140046
922.516	0.0138969
922.594	0.0138234
922.673	0.0140186
922.751	0.0139837
922.829	0.0138551
922.907	0.0138485
922.985	0.0138037
923.063	0.0139728
923.141	0.0138597
923.219	0.0139558
923.298	0.0139925
923.376	0.0140253
923.454	0.0139222
923.532	0.0139768
923.610	0.0140078
923.688	0.0139928
923.766	0.0139758
923.844	0.0140190
923.923	0.0138913
924.001	0.0140965
924.079	0.0139808
924.157	0.0140648
924.235	0.0140099
924.313	0.0139140
924.391	0.0138120
924.469	0.0138780
924.548	0.0139935
924.626	0.0139326
924.704	0.0137921
924.782	0.0138583
924.860	0.0138836
924.938	0.0138097
925.016	0.0137080
925.094	0.0137460
925.173	0.0137319
925.251	0.0135383
925.329	0.0136234
925.407	0.0136625
925.485	0.0136511
925.563	0.0137611
925.641	0.0136995
925.719	0.0137438
925.798	0.0138657
925.876	0.0138083
925.954	0.0137587
926.032	0.0138144
926.110	0.0139668
926.188	0.0141164
926.266	0.0140482
926.344	0.0139993
926.423	0.0140882
926.501	0.0139481
926.579	0.0140844
926.657	0.0140239
926.735	0.0141195
926.813	0.0140076
926.891	0.0139806
926.969	0.0139515
927.048	0.0139596
927.126	0.0139740
927.204	0.0138306
927.282	0.0138525
927.360	0.0139497
927.438	0.0137592
927.516	0.0138113
927.594	0.0137954
927.673	0.0138599
927.751	0.0138226
927.829	0.0136893
927.907	0.0137305
927.985	0.0138931
928.063	0.0137949
928.141	0.0138599
928.219	0.0138063
928.298	0.0138763
928.376	0.0139408
928.454	0.0138736
928.532	0.0139021
928.610	0.0140118
928.688	0.0141113
928.766	0.0140489
928.844	0.0140086
928.923	0.0139475
929.001	0.0139930
929.079	0.0139280
929.157	0.0138993
929.235	0.0138909
929.313	0.0137166
929.391	0.0137451
929.469	0.0137028
929.548	0.0138235
929.626	0.0136448
929.704	0.0135692
929.782	0.0136377
929.860	0.0134949
929.938	0.0134584
930.016	0.0135533
930.094	0.0135235
930.173	0.0134878
930.251	0.0134251
930.329	0.0134411
930.407	0.0134560
930.485	0.0134621
930.563	0.0134000
930.641	0.0134958
930.719	0.0135883
930.798	0.0136970
930.876	0.0135889
930.954	0.0136650
931.032	0.0136967
931.110	0.0137489
931.188	0.0137878
931.266	0.0139253
931.344	0.0140372
931.423	0.0140679
931.501	0.0141747
931.579	0.0141212
931.657	0.0142716
931.735	0.0143092
931.813	0.0142529
931.891	0.0141875
931.969	0.0141827
932.048	0.0141389
932.126	0.0142302
932.204	0.0141866
932.282	0.0141090
932.360	0.0141253
932.438	0.0140877
932.516	0.0140624
932.594	0.0140294
932.673	0.0140189
932.751	0.0138469
932.829	0.0138630
932.907	0.0139754
932.985	0.0139091
933.063	0.0140480
933.141	0.0139082
933.219	0.0139017
933.298	0.0140237
933.376	0.0140773
933.454	0.0139333
933.532	0.0139227
933.610	0.0140624
933.688	0.0140366
933.766	0.0138561
933.844	0.0138776
933.923	0.0139090
934.001	0.0138625
934.079	0.0139278
934.157	0.0138847
934.235	0.0138625
934.313	0.0139005
934.391	0.0138337
934.469	0.0138069
934.548	0.0138792
934.626	0.0137894
934.704	0.0137367
934.782	0.0135529
934.860	0.0136408
934.938	0.0137088
935.016	0.0136733
935.094	0.0136639
935.173	0.0135992
935.251	0.0135772
935.329	0.0136141
935.407	0.0136180
935.485	0.0135524
935.563	0.0135290
935.641	0.0136804
935.719	0.0136530
935.798	0.0136234
935.876	0.0137825
935.954	0.0136472
936.032	0.0137785
936.110	0.0137921
936.188	0.0138910
936.266	0.0140178
936.344	0.0139617
936.423	0.0139339
936.501	0.0142204
936.579	0.0140871
936.657	0.0142203
936.735	0.0142647
936.813	0.0143230
936.891	0.0141846
936.969	0.0142529
937.048	0.0142037
937.126	0.0142488
937.204	0.0142793
937.282	0.0142853
937.360	0.0142191
937.438	0.0142274
937.516	0.0141528
937.594	0.0141093
937.673	0.0141415
937.751	0.0140444
937.829	0.0140255
937.907	0.0140372
937.985	0.0139011
938.063	0.0138927
938.141	0.0138451
938.219	0.0139059
938.298	0.0139113
938.376	0.0139001
938.454	0.0138422
938.532	0.0138436
938.610	0.0139652
938.688	0.0138260
938.766	0.0138158
938.844	0.0139090
938.923	0.0138171
939.001	0.0139565
939.079	0.0139841
939.157	0.0139257
939.235	0.0139426
939.313	0.0139429
939.391	0.0139512
939.469	0.0140200
939.548	0.0140113
939.626	0.0140575
939.704	0.0138869
939.782	0.0139095
939.860	0.0138919
939.938	0.0138805
940.016	0.0136944
940.094	0.0137557
940.173	0.0137807
940.251	0.0136493
940.329	0.0135835
940.407	0.0135692
940.485	0.0136186
940.563	0.0135372
940.641	0.0135074
940.719	0.0134933
940.798	0.0135567
940.876	0.0136349
940.954	0.0136352
941.032	0.0137572
941.110	0.0137890
941.188	0.0136903
941.266	0.0137162
941.344	0.0138512
941.423	0.0139646
941.501	0.0140437
941.579	0.0140946
941.657	0.0141489
941.735	0.0142513
941.813	0.0143445
941.891	0.0142512
941.969	0.0143796
942.048	0.0143567
942.126	0.0142055
942.204	0.0143938
942.282	0.0145050
942.360	0.0143166
942.438	0.0142490
942.516	0.0142091
942.594	0.0142511
942.673	0.0140031
942.751	0.0141735
942.829	0.0139763
942.907	0.0139832
942.985	0.0139089
943.063	0.0140351
943.141	0.0139827
943.219	0.0138180
943.298	0.0139104
943.376	0.0137517
943.454	0.0139140
943.532	0.0137763
943.610	0.0136089
943.688	0.0138092
943.766	0.0138238
943.844	0.0138750
943.923	0.0138211
944.001	0.0137257
944.079	0.0139076
944.157	0.0139223
944.235	0.0140459
944.313	0.0139871
944.391	0.0139494
944.469	0.0139032
944.548	0.0138914
944.626	0.0139063
944.704	0.0140224
944.782	0.0140408
944.860	0.0138522
944.938	0.0138065
945.016	0.0138193
945.094	0.0138867
945.173	0.0137820
945.251	0.0137144
945.329	0.0136850
945.407	0.0134672
945.485	0.0136288
945.563	0.0135081
945.641	0.0135009
945.719	0.0135361
945.798	0.0134435
945.876	0.0135975
945.954	0.0136531
946.032	0.0136160
946.110	0.0136005
946.188	0.0136443
946.266	0.0135358
946.344	0.0136591
946.423	0.0138360
946.501	0.0137393
946.579	0.0138018
946.657	0.0139585
946.735	0.0140522
946.813	0.0140595
946.891	0.0139801
946.969	0.0141648
947.048	0.0140175
947.126	0.0141861
947.204	0.0143118
947.282	0.0143031
947.360	0.0142656
947.438	0.0141326
947.516	0.0142625
947.594	0.0142367
947.673	0.0141808
947.751	0.0142621
947.829	0.0142918
947.907	0.0142138
947.985	0.0140293
948.063	0.0140664
948.141	0.0140919
948.219	0.0140522
948.298	0.0139754
948.376	0.0139036
948.454	0.0139961
948.532	0.0139278
948.610	0.0138711
948.688	0.0138667
948.766	0.0137955
948.844	0.0138772
948.923	0.0139577
949.001	0.0139404
949.079	0.0139155
949.157	0.0138394
949.235	0.0138755
949.313	0.0139774
949.391	0.0138992
949.469	0.0138948
949.548	0.0137251
949.626	0.0139222
949.704	0.0139166
949.782	0.0138605
949.860	0.0137929
949.938	0.0140725
950.016	0.0137222
950.094	0.0137591
950.173	0.0138382
950.251	0.0135653
950.329	0.0136364
950.407	0.0137068
950.485	0.0136135
950.563	0.0136203
950.641	0.0135735
950.719	0.0135352
950.798	0.0135386
950.876	0.0135283
950.954	0.0134667
951.032	0.0135085
951.110	0.0135484
951.188	0.0135416
951.266	0.0135699
951.344	0.0135531
951.423	0.0136432
951.501	0.0135625
951.579	0.0137045
951.657	0.0137424
951.735	0.0137518
951.813	0.0138616
951.891	0.0139235
951.969	0.0138371
952.048	0.0138295
952.126	0.0139100
952.204	0.0138930
952.282	0.0139624
952.360	0.0139157
952.438	0.0140726
952.516	0.0140950
952.594	0.0141661
952.673	0.0142373
952.751	0.0142747
952.829	0.0142933
952.907	0.0142101
952.985	0.0141597
953.063	0.0143339
953.141	0.0141743
953.219	0.0141390
953.298	0.0141263
953.376	0.0140618
953.454	0.0139934
953.532	0.0138690
953.610	0.0138944
953.688	0.0139439
953.766	0.0138625
953.844	0.0138455
953.923	0.0137846
954.001	0.0136199
954.079	0.0137020
954.157	0.0137807
954.235	0.0138306
954.313	0.0138506
954.391	0.0137972
954.469	0.0137209
954.548	0.0138277
954.626	0.0137379
954.704	0.0137620
954.782	0.0139537
954.860	0.0138352
954.938	0.0138152
955.016	0.0138565
955.094	0.0140015
955.173	0.0139600
955.251	0.0139277
955.329	0.0140131
955.407	0.0138493
955.485	0.0140258
955.563	0.0139702
955.641	0.0138055
955.719	0.0139649
955.798	0.0138418
955.876	0.0138142
955.954	0.0136555
956.032	0.0136395
956.110	0.0135229
956.188	0.0136118
956.266	0.0137515
956.344	0.0136993
956.423	0.0137193
956.501	0.0137043
956.579	0.0138097
956.657	0.0136788
956.735	0.0136795
956.813	0.0138276
956.891	0.0137623
956.969	0.0138709
957.048	0.0139481
957.126	0.0139745
957.204	0.0140226
957.282	0.0140166
957.360	0.0140647
957.438	0.0141148
957.516	0.0141821
957.594	0.0142529
957.673	0.0141475
957.751	0.0143318
957.829	0.0142049
957.907	0.0143313
957.985	0.0141531
958.063	0.0143111
958.141	0.0143338
958.219	0.0142159
958.298	0.0142351
958.376	0.0141673
958.454	0.0140446
958.532	0.0140205
958.610	0.0141151
958.688	0.0140177
958.766	0.0139281
958.844	0.0138511
958.923	0.0140037
959.001	0.0138521
959.079	0.0138969
959.157	0.0138648
959.235	0.0138635
959.313	0.0136910
959.391	0.0137225
959.469	0.0138483
959.548	0.0136899
959.626	0.0138611
959.704	0.0138104
959.782	0.0136850
959.860	0.0136654
959.938	0.0137099
960.016	0.0138421
960.094	0.0138952
960.173	0.0138732
960.251	0.0138514
960.329	0.0138531
960.407	0.0138557
960.485	0.0139745
960.563	0.0140049
960.641	0.0141262
960.719	0.0140422
960.798	0.0139899
960.876	0.0139799
960.954	0.0140839
961.032	0.0140134
961.110	0.0138822
961.188	0.0138725
961.266	0.0139354
961.344	0.0138854
961.423	0.0137634
961.501	0.0139375
961.579	0.0138475
961.657	0.0137029
961.735	0.0136617
961.813	0.0138375
961.891	0.0137618
961.969	0.0136981
962.048	0.0137466
962.126	0.0138055
962.204	0.0137850
962.282	0.0138196
962.360	0.0139720
962.438	0.0138881
962.516	0.0140167
962.594	0.0139182
962.673	0.0140659
962.751	0.0141205
962.829	0.0142110
962.907	0.0141233
962.985	0.0141734
963.063	0.0142545
963.141	0.0142151
963.219	0.0141624
963.298	0.0142633
963.376	0.0141982
963.454	0.0142366
963.532	0.0142346
963.610	0.0142273
963.688	0.0141283
963.766	0.0140563
963.844	0.0139395
963.923	0.0139617
964.001	0.0139436
964.079	0.0139883
964.157	0.0138793
964.235	0.0138627
964.313	0.0138780
964.391	0.0139037
964.469	0.0138980
964.548	0.0138075
964.626	0.0139017
964.704	0.0137908
964.782	0.0138197
964.860	0.0137921
964.938	0.0137675
965.016	0.0136722
965.094	0.0137923
965.173	0.0139526
965.251	0.0137560
965.329	0.0137693
965.407	0.0138816
965.485	0.0138724
965.563	0.0139347
965.641	0.0138530
965.719	0.0138192
965.798	0.0136715
965.876	0.0137122
965.954	0.0139117
966.032	0.0138510
966.110	0.0137427
966.188	0.0138522
966.266	0.0137154
966.344	0.0137646
966.423	0.0137822
966.501	0.0135470
966.579	0.0136634
966.657	0.0136771
966.735	0.0135859
966.813	0.0136271
966.891	0.0135333
966.969	0.0135642
967.048	0.0135641
967.126	0.0134271
967.204	0.0137164
967.282	0.0136577
967.360	0.0136245
967.438	0.0136819
967.516	0.0137418
967.594	0.0137513
967.673	0.0139400
967.751	0.0140640
967.829	0.0140957
967.907	0.0140205
967.985	0.0140532
968.063	0.0141589
968.141	0.0141544
968.219	0.0142020
968.298	0.0142449
968.376	0.0143573
968.454	0.0142200
968.532	0.0142202
968.610	0.0143414
968.688	0.0141145
968.766	0.0141839
968.844	0.0141815
968.923	0.0141649
969.001	0.0140607
969.079	0.0139130
969.157	0.0140778
969.235	0.0139789
969.313	0.0140979
969.391	0.0139597
969.469	0.0138583
969.548	0.0139516
969.626	0.0139380
969.704	0.0137894
969.782	0.0137890
969.860	0.0139438
969.938	0.0138118
