05/14/2022	19:19:45	Ver.	4.1	UNKNOWN
Optical Delay	650.016352	Delta X		0.078125	Sweeps	1	Scan Rate	0/0
Coordinates	Axis 1	NaN	Axis 2	NaN	Axis 3	NaN	Axis 4	NaN	Axis 5	NaN	Axis 6	0.000000
TX Power	0.000000	RX Power	0.000000

650.016	0.0138706
650.094	0.0138970
650.173	0.0137805
650.251	0.0139256
650.329	0.0139744
650.407	0.0139413
650.485	0.0136877
650.563	0.0139155
650.641	0.0138457
650.719	0.0137222
650.798	0.0137804
650.876	0.0137769
650.954	0.0138971
651.032	0.0138833
651.110	0.0139417
651.188	0.0138577
651.266	0.0138434
651.344	0.0138255
651.423	0.0138734
651.501	0.0138551
651.579	0.0138257
651.657	0.0136626
651.735	0.0136627
651.813	0.0137884
651.891	0.0138191
651.969	0.0138129
652.048	0.0137746
652.126	0.0137890
652.204	0.0139066
652.282	0.0137858
652.360	0.0137039
652.438	0.0138200
652.516	0.0138321
652.594	0.0139048
652.673	0.0139021
652.751	0.0137401
652.829	0.0136927
652.907	0.0137775
652.985	0.0138063
653.063	0.0137306
653.141	0.0136118
653.219	0.0137650
653.298	0.0137402
653.376	0.0137301
653.454	0.0137714
653.532	0.0138462
653.610	0.0138026
653.688	0.0136861
653.766	0.0137950
653.844	0.0138190
653.923	0.0137256
654.001	0.0137763
654.079	0.0138039
654.157	0.0138438
654.235	0.0137488
654.313	0.0137332
654.391	0.0137742
654.469	0.0137832
654.548	0.0138361
654.626	0.0139503
654.704	0.0136382
654.782	0.0137300
654.860	0.0138520
654.938	0.0137157
655.016	0.0138174
655.094	0.0138815
655.173	0.0138274
655.251	0.0137709
655.329	0.0137267
655.407	0.0138513
655.485	0.0136806
655.563	0.0138749
655.641	0.0139135
655.719	0.0138751
655.798	0.0137309
655.876	0.0137949
655.954	0.0138634
656.032	0.0137003
656.110	0.0138351
656.188	0.0138853
656.266	0.0138734
656.344	0.0138374
656.423	0.0137688
656.501	0.0138306
656.579	0.0138049
656.657	0.0136636
656.735	0.0138538
656.813	0.0137479
656.891	0.0139059
656.969	0.0138229
657.048	0.0136874
657.126	0.0138116
657.204	0.0138308
657.282	0.0137469
657.360	0.0138474
657.438	0.0137309
657.516	0.0137141
657.594	0.0137124
657.673	0.0137994
657.751	0.0139610
657.829	0.0137028
657.907	0.0137186
657.985	0.0138681
658.063	0.0138803
658.141	0.0137511
658.219	0.0138010
658.298	0.0136632
658.376	0.0137609
658.454	0.0137029
658.532	0.0138555
658.610	0.0138106
658.688	0.0137062
658.766	0.0138139
658.844	0.0137875
658.923	0.0137942
659.001	0.0138850
659.079	0.0138191
659.157	0.0137394
659.235	0.0136841
659.313	0.0138258
659.391	0.0138490
659.469	0.0138288
659.548	0.0138266
659.626	0.0138014
659.704	0.0138654
659.782	0.0138551
659.860	0.0138416
659.938	0.0138783
660.016	0.0138897
660.094	0.0138670
660.173	0.0139375
660.251	0.0139149
660.329	0.0138202
660.407	0.0138660
660.485	0.0138653
660.563	0.0138667
660.641	0.0138486
660.719	0.0139722
660.798	0.0137782
660.876	0.0137914
660.954	0.0138300
661.032	0.0139067
661.110	0.0139449
661.188	0.0139842
661.266	0.0138709
661.344	0.0140190
661.423	0.0138140
661.501	0.0137945
661.579	0.0138877
661.657	0.0139438
661.735	0.0139725
661.813	0.0138070
661.891	0.0138708
661.969	0.0140025
662.048	0.0139850
662.126	0.0138419
662.204	0.0139439
662.282	0.0139286
662.360	0.0139254
662.438	0.0138436
662.516	0.0140697
662.594	0.0139500
662.673	0.0137666
662.751	0.0138277
662.829	0.0141680
662.907	0.0139235
662.985	0.0140623
663.063	0.0140389
663.141	0.0138252
663.219	0.0138356
663.298	0.0138537
663.376	0.0139815
663.454	0.0139655
663.532	0.0139582
663.610	0.0139047
663.688	0.0139400
663.766	0.0139492
663.844	0.0138693
663.923	0.0138014
664.001	0.0137758
664.079	0.0139291
664.157	0.0137823
664.235	0.0140215
664.313	0.0139935
664.391	0.0138582
664.469	0.0137798
664.548	0.0139223
664.626	0.0139687
664.704	0.0138240
664.782	0.0139836
664.860	0.0139513
664.938	0.0138360
665.016	0.0139570
665.094	0.0139664
665.173	0.0139186
665.251	0.0139372
665.329	0.0139505
665.407	0.0139951
665.485	0.0139069
665.563	0.0140444
665.641	0.0138929
665.719	0.0139597
665.798	0.0139211
665.876	0.0140146
665.954	0.0140655
666.032	0.0137556
666.110	0.0140342
666.188	0.0138684
666.266	0.0140752
666.344	0.0139682
666.423	0.0139532
666.501	0.0138681
666.579	0.0140340
666.657	0.0139500
666.735	0.0139857
666.813	0.0140123
666.891	0.0138442
666.969	0.0138065
667.048	0.0139844
667.126	0.0139503
667.204	0.0139681
667.282	0.0140124
667.360	0.0140161
667.438	0.0139304
667.516	0.0138795
667.594	0.0140224
667.673	0.0139954
667.751	0.0139255
667.829	0.0140030
667.907	0.0139294
667.985	0.0140015
668.063	0.0140035
668.141	0.0138816
668.219	0.0139457
668.298	0.0139104
668.376	0.0138768
668.454	0.0138660
668.532	0.0139198
668.610	0.0139294
668.688	0.0140710
668.766	0.0138511
668.844	0.0138601
668.923	0.0141199
669.001	0.0140432
669.079	0.0139578
669.157	0.0139601
669.235	0.0139470
669.313	0.0139950
669.391	0.0139707
669.469	0.0139001
669.548	0.0137567
669.626	0.0138596
669.704	0.0140673
669.782	0.0138524
669.860	0.0140051
669.938	0.0140044
670.016	0.0139140
670.094	0.0138744
670.173	0.0139340
670.251	0.0139291
670.329	0.0138962
670.407	0.0138065
670.485	0.0138963
670.563	0.0139486
670.641	0.0140081
670.719	0.0139428
670.798	0.0140583
670.876	0.0138083
670.954	0.0139590
671.032	0.0139370
671.110	0.0139460
671.188	0.0138061
671.266	0.0138993
671.344	0.0139260
671.423	0.0138428
671.501	0.0138322
671.579	0.0138633
671.657	0.0138429
671.735	0.0139856
671.813	0.0139668
671.891	0.0138649
671.969	0.0138057
672.048	0.0138693
672.126	0.0137888
672.204	0.0139052
672.282	0.0138734
672.360	0.0137670
672.438	0.0138432
672.516	0.0138732
672.594	0.0138486
672.673	0.0137844
672.751	0.0139421
672.829	0.0139225
672.907	0.0137692
672.985	0.0138145
673.063	0.0137290
673.141	0.0137609
673.219	0.0138919
673.298	0.0138026
673.376	0.0138921
673.454	0.0138075
673.532	0.0138539
673.610	0.0138614
673.688	0.0137804
673.766	0.0137646
673.844	0.0138796
673.923	0.0138007
674.001	0.0137218
674.079	0.0137950
674.157	0.0138138
674.235	0.0136919
674.313	0.0136597
674.391	0.0139388
674.469	0.0138847
674.548	0.0137553
674.626	0.0138072
674.704	0.0138292
674.782	0.0137563
674.860	0.0137468
674.938	0.0137522
675.016	0.0137812
675.094	0.0137154
675.173	0.0137076
675.251	0.0135942
675.329	0.0137163
675.407	0.0138193
675.485	0.0137097
675.563	0.0137518
675.641	0.0136968
675.719	0.0136303
675.798	0.0138296
675.876	0.0137177
675.954	0.0137920
676.032	0.0137218
676.110	0.0137183
676.188	0.0137570
676.266	0.0136085
676.344	0.0136252
676.423	0.0136999
676.501	0.0136048
676.579	0.0137980
676.657	0.0136197
676.735	0.0136108
676.813	0.0136897
676.891	0.0136719
676.969	0.0137401
677.048	0.0136583
677.126	0.0136972
677.204	0.0138241
677.282	0.0136341
677.360	0.0137095
677.438	0.0137714
677.516	0.0137222
677.594	0.0137240
677.673	0.0139520
677.751	0.0139286
677.829	0.0138862
677.907	0.0141605
677.985	0.0140278
678.063	0.0140458
678.141	0.0139898
678.219	0.0140395
678.298	0.0138453
678.376	0.0136268
678.454	0.0135687
678.532	0.0134647
678.610	0.0133933
678.688	0.0133175
678.766	0.0131404
678.844	0.0133011
678.923	0.0134370
679.001	0.0134110
679.079	0.0135271
679.157	0.0137294
679.235	0.0137392
679.313	0.0138415
679.391	0.0140081
679.469	0.0140234
679.548	0.0140405
679.626	0.0141233
679.704	0.0141529
679.782	0.0141612
679.860	0.0144375
679.938	0.0142767
680.016	0.0142181
680.094	0.0142792
680.173	0.0143192
680.251	0.0142076
680.329	0.0141914
680.407	0.0140905
680.485	0.0140384
680.563	0.0138746
680.641	0.0135832
680.719	0.0133809
680.798	0.0130592
680.876	0.0129179
680.954	0.0126498
681.032	0.0125230
681.110	0.0124851
681.188	0.0125201
681.266	0.0126190
681.344	0.0128497
681.423	0.0129072
681.501	0.0133864
681.579	0.0138055
681.657	0.0142368
681.735	0.0145798
681.813	0.0152086
681.891	0.0153728
681.969	0.0155029
682.048	0.0155727
682.126	0.0157114
682.204	0.0157674
682.282	0.0155449
682.360	0.0154285
682.438	0.0150734
682.516	0.0148443
682.594	0.0146634
682.673	0.0143966
682.751	0.0138412
682.829	0.0136873
682.907	0.0133097
682.985	0.0130859
683.063	0.0128219
683.141	0.0126266
683.219	0.0123958
683.298	0.0124075
683.376	0.0122105
683.454	0.0121500
683.532	0.0123931
683.610	0.0124971
683.688	0.0125372
683.766	0.0127760
683.844	0.0129243
683.923	0.0131445
684.001	0.0133116
684.079	0.0133061
684.157	0.0134441
684.235	0.0136542
684.313	0.0137976
684.391	0.0138785
684.469	0.0141204
684.548	0.0143861
684.626	0.0146179
684.704	0.0148806
684.782	0.0151568
684.860	0.0156511
684.938	0.0158621
685.016	0.0158939
685.094	0.0161415
685.173	0.0160741
685.251	0.0160915
685.329	0.0156356
685.407	0.0154533
685.485	0.0149025
685.563	0.0143792
685.641	0.0140990
685.719	0.0136178
685.798	0.0131894
685.876	0.0128727
685.954	0.0127872
686.032	0.0125713
686.110	0.0126283
686.188	0.0129317
686.266	0.0129990
686.344	0.0131201
686.423	0.0133628
686.501	0.0134660
686.579	0.0134677
686.657	0.0132935
686.735	0.0132661
686.813	0.0130560
686.891	0.0127363
686.969	0.0125913
687.048	0.0124210
687.126	0.0120770
687.204	0.0120948
687.282	0.0121551
687.360	0.0121887
687.438	0.0125182
687.516	0.0128278
687.594	0.0131754
687.673	0.0135097
687.751	0.0140343
687.829	0.0143666
687.907	0.0146105
687.985	0.0150207
688.063	0.0152861
688.141	0.0156025
688.219	0.0156911
688.298	0.0158833
688.376	0.0159090
688.454	0.0161491
688.532	0.0161659
688.610	0.0161201
688.688	0.0163622
688.766	0.0160472
688.844	0.0160368
688.923	0.0157527
689.001	0.0155892
689.079	0.0153204
689.157	0.0149580
689.235	0.0144730
689.313	0.0139652
689.391	0.0136361
689.469	0.0132335
689.548	0.0128211
689.626	0.0124600
689.704	0.0121906
689.782	0.0120294
689.860	0.0118277
689.938	0.0118318
690.016	0.0117297
690.094	0.0117965
690.173	0.0118422
690.251	0.0121843
690.329	0.0124694
690.407	0.0124113
690.485	0.0127116
690.563	0.0128970
690.641	0.0131213
690.719	0.0134095
690.798	0.0136842
690.876	0.0137312
690.954	0.0141656
691.032	0.0144145
691.110	0.0146596
691.188	0.0149596
691.266	0.0151415
691.344	0.0152494
691.423	0.0153874
691.501	0.0152504
691.579	0.0153886
691.657	0.0151120
691.735	0.0147013
691.813	0.0143076
691.891	0.0139542
691.969	0.0136073
692.048	0.0131173
692.126	0.0128022
692.204	0.0126653
692.282	0.0125486
692.360	0.0123903
692.438	0.0125908
692.516	0.0125735
692.594	0.0129007
692.673	0.0131653
692.751	0.0133054
692.829	0.0135646
692.907	0.0138354
692.985	0.0142879
693.063	0.0145652
693.141	0.0148045
693.219	0.0150372
693.298	0.0152554
693.376	0.0154119
693.454	0.0156428
693.532	0.0156857
693.610	0.0158916
693.688	0.0160126
693.766	0.0158810
693.844	0.0158250
693.923	0.0156321
694.001	0.0154329
694.079	0.0151950
694.157	0.0148043
694.235	0.0144211
694.313	0.0141846
694.391	0.0137163
694.469	0.0134629
694.548	0.0132978
694.626	0.0130871
694.704	0.0129744
694.782	0.0127724
694.860	0.0127715
694.938	0.0128130
695.016	0.0126546
695.094	0.0125137
695.173	0.0124869
695.251	0.0123548
695.329	0.0117457
695.407	0.0115617
695.485	0.0114424
695.563	0.0112307
695.641	0.0111058
695.719	0.0109711
695.798	0.0108823
695.876	0.0110464
695.954	0.0111647
696.032	0.0114603
696.110	0.0118700
696.188	0.0120066
696.266	0.0121667
696.344	0.0125903
696.423	0.0132162
696.501	0.0134865
696.579	0.0138129
696.657	0.0140672
696.735	0.0143784
696.813	0.0148637
696.891	0.0152679
696.969	0.0156419
697.048	0.0160227
697.126	0.0165026
697.204	0.0167950
697.282	0.0173225
697.360	0.0175741
697.438	0.0177583
697.516	0.0177692
697.594	0.0179574
697.673	0.0179124
697.751	0.0178376
697.829	0.0177300
697.907	0.0175536
697.985	0.0172745
698.063	0.0168865
698.141	0.0164892
698.219	0.0161600
698.298	0.0155712
698.376	0.0153272
698.454	0.0147552
698.532	0.0140845
698.610	0.0136735
698.688	0.0134454
698.766	0.0127878
698.844	0.0125235
698.923	0.0121888
699.001	0.0119985
699.079	0.0119025
699.157	0.0117455
699.235	0.0115676
699.313	0.0115391
699.391	0.0114859
699.469	0.0113259
699.548	0.0113223
699.626	0.0113784
699.704	0.0110740
699.782	0.0111642
699.860	0.0111591
699.938	0.0108499
700.016	0.0104706
700.094	0.0103114
700.173	0.0100514
700.251	0.00994812
700.329	0.00990875
700.407	0.00978020
700.485	0.00976768
700.563	0.00964821
700.641	0.00978096
700.719	0.00989731
700.798	0.0102698
700.876	0.0105860
700.954	0.0110369
701.032	0.0115312
701.110	0.0120621
701.188	0.0128371
701.266	0.0136394
701.344	0.0144498
701.423	0.0150096
701.501	0.0159447
701.579	0.0167167
701.657	0.0174736
701.735	0.0179890
701.813	0.0187910
701.891	0.0195083
701.969	0.0200565
702.048	0.0205030
702.126	0.0210397
702.204	0.0212854
702.282	0.0215877
702.360	0.0217599
702.438	0.0217291
702.516	0.0217767
702.594	0.0214693
702.673	0.0209312
702.751	0.0204456
702.829	0.0196926
702.907	0.0188713
702.985	0.0177554
703.063	0.0169065
703.141	0.0157155
703.219	0.0145031
703.298	0.0132832
703.376	0.0124029
703.454	0.0112635
703.532	0.0104147
703.610	0.00940239
703.688	0.00860275
703.766	0.00796478
703.844	0.00759949
703.923	0.00721695
704.001	0.00690826
704.079	0.00665321
704.157	0.00666611
704.235	0.00666046
704.313	0.00663940
704.391	0.00704773
704.469	0.00726654
704.548	0.00758858
704.626	0.00795349
704.704	0.00858482
704.782	0.00915009
704.860	0.00956459
704.938	0.0101186
705.016	0.0105879
705.094	0.0112640
705.173	0.0116621
705.251	0.0122494
705.329	0.0126774
705.407	0.0130515
705.485	0.0134095
705.563	0.0139925
705.641	0.0144222
705.719	0.0146823
705.798	0.0152442
705.876	0.0156451
705.954	0.0162173
706.032	0.0166159
706.110	0.0170051
706.188	0.0173622
706.266	0.0177769
706.344	0.0179472
706.423	0.0180745
706.501	0.0182877
706.579	0.0184846
706.657	0.0184204
706.735	0.0183224
706.813	0.0180540
706.891	0.0180579
706.969	0.0179265
707.048	0.0177287
707.126	0.0175533
707.204	0.0174608
707.282	0.0173202
707.360	0.0171655
707.438	0.0170924
707.516	0.0169438
707.594	0.0168173
707.673	0.0167690
707.751	0.0167045
707.829	0.0166392
707.907	0.0163464
707.985	0.0161273
708.063	0.0157668
708.141	0.0154233
708.219	0.0149290
708.298	0.0142676
708.376	0.0135564
708.454	0.0125813
708.532	0.0117973
708.610	0.0111942
708.688	0.0103789
708.766	0.00962753
708.844	0.00898567
708.923	0.00852722
709.001	0.00810570
709.079	0.00797401
709.157	0.00773727
709.235	0.00781967
709.313	0.00813637
709.391	0.00829330
709.469	0.00867569
709.548	0.00918007
709.626	0.00953537
709.704	0.0101939
709.782	0.0108452
709.860	0.0114732
709.938	0.0122926
710.016	0.0129194
710.094	0.0136619
710.173	0.0143618
710.251	0.0146789
710.329	0.0151328
710.407	0.0154221
710.485	0.0156231
710.563	0.0154831
710.641	0.0154143
710.719	0.0150641
710.798	0.0148271
710.876	0.0144178
710.954	0.0140866
711.032	0.0137116
711.110	0.0132758
711.188	0.0129528
711.266	0.0127465
711.344	0.0125989
711.423	0.0124505
711.501	0.0124119
711.579	0.0126803
711.657	0.0129779
711.735	0.0133304
711.813	0.0136760
711.891	0.0143273
711.969	0.0149395
712.048	0.0153822
712.126	0.0158392
712.204	0.0163309
712.282	0.0165955
712.360	0.0170145
712.438	0.0173394
712.516	0.0178527
712.594	0.0181523
712.673	0.0182839
712.751	0.0185721
712.829	0.0188387
712.907	0.0190159
712.985	0.0190937
713.063	0.0191989
713.141	0.0193759
713.219	0.0192884
713.298	0.0191895
713.376	0.0189881
713.454	0.0186186
713.532	0.0181091
713.610	0.0175073
713.688	0.0167500
713.766	0.0160181
713.844	0.0150229
713.923	0.0141138
714.001	0.0130526
714.079	0.0120575
714.157	0.0110620
714.235	0.0102994
714.313	0.00936134
714.391	0.00882225
714.469	0.00818436
714.548	0.00775787
714.626	0.00751442
714.704	0.00749466
714.782	0.00743835
714.860	0.00759560
714.938	0.00790855
715.016	0.00813271
715.094	0.00835129
715.173	0.00881355
715.251	0.00927887
715.329	0.00962654
715.407	0.0100683
715.485	0.0105586
715.563	0.0112823
715.641	0.0115754
715.719	0.0120637
715.798	0.0125008
715.876	0.0128914
715.954	0.0131826
716.032	0.0136111
716.110	0.0136371
716.188	0.0138792
716.266	0.0139518
716.344	0.0141312
716.423	0.0140048
716.501	0.0141254
716.579	0.0141296
716.657	0.0142842
716.735	0.0143767
716.813	0.0144027
716.891	0.0144655
716.969	0.0147507
717.048	0.0150794
717.126	0.0153114
717.204	0.0158476
717.282	0.0160912
717.360	0.0165644
717.438	0.0168698
717.516	0.0171201
717.594	0.0175675
717.673	0.0178284
717.751	0.0180486
717.829	0.0181540
717.907	0.0183184
717.985	0.0184151
718.063	0.0183496
718.141	0.0183993
718.219	0.0183957
718.298	0.0181821
718.376	0.0182098
718.454	0.0181320
718.532	0.0179355
718.610	0.0177332
718.688	0.0175793
718.766	0.0173240
718.844	0.0169836
718.923	0.0166274
719.001	0.0162037
719.079	0.0154606
719.157	0.0149240
719.235	0.0143211
719.313	0.0136113
719.391	0.0129967
719.469	0.0123183
719.548	0.0116393
719.626	0.0110342
719.704	0.0106420
719.782	0.0100197
719.860	0.00975105
719.938	0.00949539
720.016	0.00922440
720.094	0.00907974
720.173	0.00897217
720.251	0.00904503
720.329	0.00926979
720.407	0.00942146
720.485	0.00962868
720.563	0.00975510
720.641	0.0100271
720.719	0.0103487
720.798	0.0105708
720.876	0.0108142
720.954	0.0112132
721.032	0.0112868
721.110	0.0114216
721.188	0.0117668
721.266	0.0120408
721.344	0.0122281
721.423	0.0124703
721.501	0.0126134
721.579	0.0127184
721.657	0.0128774
721.735	0.0129402
721.813	0.0130003
721.891	0.0131912
721.969	0.0132111
722.048	0.0132318
722.126	0.0134354
722.204	0.0136805
722.282	0.0135489
722.360	0.0138947
722.438	0.0140749
722.516	0.0144076
722.594	0.0147406
722.673	0.0149474
722.751	0.0152300
722.829	0.0155972
722.907	0.0158990
722.985	0.0162639
723.063	0.0164975
723.141	0.0167518
723.219	0.0170206
723.298	0.0172453
723.376	0.0175475
723.454	0.0177431
723.532	0.0178548
723.610	0.0180048
723.688	0.0180976
723.766	0.0181324
723.844	0.0180659
723.923	0.0181498
724.001	0.0183010
724.079	0.0181740
724.157	0.0180453
724.235	0.0178501
724.313	0.0174329
724.391	0.0173666
724.469	0.0169923
724.548	0.0164979
724.626	0.0161097
724.704	0.0155035
724.782	0.0148921
724.860	0.0143427
724.938	0.0135828
725.016	0.0132054
725.094	0.0124941
725.173	0.0121159
725.251	0.0116763
725.329	0.0113114
725.407	0.0111599
725.485	0.0109369
725.563	0.0107072
725.641	0.0107802
725.719	0.0107449
725.798	0.0106394
725.876	0.0104810
725.954	0.0106276
726.032	0.0105148
726.110	0.0104311
726.188	0.0104370
726.266	0.0104112
726.344	0.0101618
726.423	0.0101958
726.501	0.0101434
726.579	0.0102297
726.657	0.0104613
726.735	0.0105567
726.813	0.0106257
726.891	0.0105990
726.969	0.0107648
727.048	0.0109920
727.126	0.0109779
727.204	0.0114337
727.282	0.0116496
727.360	0.0118665
727.438	0.0120926
727.516	0.0124633
727.594	0.0128386
727.673	0.0131035
727.751	0.0135332
727.829	0.0138103
727.907	0.0142497
727.985	0.0145995
728.063	0.0148979
728.141	0.0153120
728.219	0.0155453
728.298	0.0160037
728.376	0.0161133
728.454	0.0163364
728.532	0.0167160
728.610	0.0170411
728.688	0.0170741
728.766	0.0172031
728.844	0.0174175
728.923	0.0174260
729.001	0.0174081
729.079	0.0175498
729.157	0.0174690
729.235	0.0172570
729.313	0.0173325
729.391	0.0171931
729.469	0.0170314
729.548	0.0169289
729.626	0.0168617
729.704	0.0167188
729.782	0.0164635
729.860	0.0163503
729.938	0.0160610
730.016	0.0157100
730.094	0.0155128
730.173	0.0152061
730.251	0.0147181
730.329	0.0143164
730.407	0.0140671
730.485	0.0137748
730.563	0.0136084
730.641	0.0132912
730.719	0.0132220
730.798	0.0129476
730.876	0.0127557
730.954	0.0125529
731.032	0.0125898
731.110	0.0124702
731.188	0.0124560
731.266	0.0123127
731.344	0.0122832
731.423	0.0123264
731.501	0.0121261
731.579	0.0120189
731.657	0.0118929
731.735	0.0118625
731.813	0.0117793
731.891	0.0116656
731.969	0.0117141
732.048	0.0116434
732.126	0.0117215
732.204	0.0115911
732.282	0.0116467
732.360	0.0116109
732.438	0.0115961
732.516	0.0116429
732.594	0.0115862
732.673	0.0115221
732.751	0.0115657
732.829	0.0114458
732.907	0.0114601
732.985	0.0116104
733.063	0.0116219
733.141	0.0115836
733.219	0.0118118
733.298	0.0119691
733.376	0.0122649
733.454	0.0124292
733.532	0.0127860
733.610	0.0131467
733.688	0.0136675
733.766	0.0138884
733.844	0.0142903
733.923	0.0149102
734.001	0.0153409
734.079	0.0157617
734.157	0.0160624
734.235	0.0164984
734.313	0.0168459
734.391	0.0169750
734.469	0.0170428
734.548	0.0173236
734.626	0.0172105
734.704	0.0171404
734.782	0.0170027
734.860	0.0167968
734.938	0.0167337
735.016	0.0165254
735.094	0.0162086
735.173	0.0158473
735.251	0.0155453
735.329	0.0152264
735.407	0.0149975
735.485	0.0146181
735.563	0.0143940
735.641	0.0139689
735.719	0.0138390
735.798	0.0137719
735.876	0.0137271
735.954	0.0135445
736.032	0.0134183
736.110	0.0133839
736.188	0.0135889
736.266	0.0136281
736.344	0.0136695
736.423	0.0135739
736.501	0.0138114
736.579	0.0138528
736.657	0.0138181
736.735	0.0140300
736.813	0.0138723
736.891	0.0140132
736.969	0.0141309
737.048	0.0140448
737.126	0.0138047
737.204	0.0138145
737.282	0.0138976
737.360	0.0138076
737.438	0.0137927
737.516	0.0138173
737.594	0.0139846
737.673	0.0139053
737.751	0.0137988
737.829	0.0137337
737.907	0.0135664
737.985	0.0135536
738.063	0.0133251
738.141	0.0131445
738.219	0.0131079
738.298	0.0129396
738.376	0.0127319
738.454	0.0125127
738.532	0.0125907
738.610	0.0124102
738.688	0.0123290
738.766	0.0122735
738.844	0.0121663
738.923	0.0122243
739.001	0.0122635
739.079	0.0124019
739.157	0.0124315
739.235	0.0125492
739.313	0.0126696
739.391	0.0126823
739.469	0.0129723
739.548	0.0131854
739.626	0.0131733
739.704	0.0133180
739.782	0.0135639
739.860	0.0135281
739.938	0.0136281
740.016	0.0137990
740.094	0.0138805
740.173	0.0140633
740.251	0.0140828
740.329	0.0139793
740.407	0.0140421
740.485	0.0140999
740.563	0.0142754
740.641	0.0143204
740.719	0.0144557
740.798	0.0145403
740.876	0.0145484
740.954	0.0146497
741.032	0.0147160
741.110	0.0146935
741.188	0.0147335
741.266	0.0147781
741.344	0.0146326
741.423	0.0146780
741.501	0.0147478
741.579	0.0146505
741.657	0.0146761
741.735	0.0148287
741.813	0.0148373
741.891	0.0146748
741.969	0.0149281
742.048	0.0150671
742.126	0.0150175
742.204	0.0151186
742.282	0.0150623
742.360	0.0151937
742.438	0.0152708
742.516	0.0153592
742.594	0.0153958
742.673	0.0154420
742.751	0.0154420
742.829	0.0154287
742.907	0.0152422
742.985	0.0152512
743.063	0.0151328
743.141	0.0148552
743.219	0.0148627
743.298	0.0146684
743.376	0.0144691
743.454	0.0142397
743.532	0.0139217
743.610	0.0137096
743.688	0.0134779
743.766	0.0131724
743.844	0.0129339
743.923	0.0126942
744.001	0.0126385
744.079	0.0127081
744.157	0.0124332
744.235	0.0123750
744.313	0.0123268
744.391	0.0124703
744.469	0.0126258
744.548	0.0127735
744.626	0.0128171
744.704	0.0129628
744.782	0.0129038
744.860	0.0130499
744.938	0.0132012
745.016	0.0132058
745.094	0.0132200
745.173	0.0131523
745.251	0.0131139
745.329	0.0130798
745.407	0.0130328
745.485	0.0129157
745.563	0.0127850
745.641	0.0128001
745.719	0.0123827
745.798	0.0124423
745.876	0.0124334
745.954	0.0125245
746.032	0.0124565
746.110	0.0124495
746.188	0.0127154
746.266	0.0127575
746.344	0.0128786
746.423	0.0130973
746.501	0.0132292
746.579	0.0133324
746.657	0.0136329
746.735	0.0138261
746.813	0.0140140
746.891	0.0142186
746.969	0.0144021
747.048	0.0145082
747.126	0.0144527
747.204	0.0146149
747.282	0.0146822
747.360	0.0148042
747.438	0.0150737
747.516	0.0149191
747.594	0.0149696
747.673	0.0149126
747.751	0.0150630
747.829	0.0150333
747.907	0.0151550
747.985	0.0151644
748.063	0.0150676
748.141	0.0151131
748.219	0.0151553
748.298	0.0152614
748.376	0.0152431
748.454	0.0151492
748.532	0.0151573
748.610	0.0152647
748.688	0.0150324
748.766	0.0150349
748.844	0.0150082
748.923	0.0146589
749.001	0.0146066
749.079	0.0144742
749.157	0.0144456
749.235	0.0144239
749.313	0.0142833
749.391	0.0140635
749.469	0.0141869
749.548	0.0139548
749.626	0.0139353
749.704	0.0141172
749.782	0.0138735
749.860	0.0139191
749.938	0.0139440
750.016	0.0138894
750.094	0.0139909
750.173	0.0139314
750.251	0.0136784
750.329	0.0136609
750.407	0.0137170
750.485	0.0134767
750.563	0.0134834
750.641	0.0131985
750.719	0.0130405
750.798	0.0129082
750.876	0.0128228
750.954	0.0127518
751.032	0.0126131
751.110	0.0123936
751.188	0.0123493
751.266	0.0122916
751.344	0.0124104
751.423	0.0124158
751.501	0.0124009
751.579	0.0123936
751.657	0.0123946
751.735	0.0127323
751.813	0.0127335
751.891	0.0126867
751.969	0.0129233
752.048	0.0129426
752.126	0.0131593
752.204	0.0132190
752.282	0.0131853
752.360	0.0133890
752.438	0.0135078
752.516	0.0135724
752.594	0.0134978
752.673	0.0137003
752.751	0.0138059
752.829	0.0137647
752.907	0.0138873
752.985	0.0138135
753.063	0.0139040
753.141	0.0139116
753.219	0.0140353
753.298	0.0138897
753.376	0.0140577
753.454	0.0140446
753.532	0.0141003
753.610	0.0141766
753.688	0.0141530
753.766	0.0143667
753.844	0.0142997
753.923	0.0144428
754.001	0.0144235
754.079	0.0143080
754.157	0.0146712
754.235	0.0144301
754.313	0.0145246
754.391	0.0144923
754.469	0.0145653
754.548	0.0145090
754.626	0.0146101
754.704	0.0144135
754.782	0.0144066
754.860	0.0143002
754.938	0.0144035
755.016	0.0143737
755.094	0.0144608
755.173	0.0142567
755.251	0.0145496
755.329	0.0144838
755.407	0.0143964
755.485	0.0145361
755.563	0.0145478
755.641	0.0144942
755.719	0.0145116
755.798	0.0144551
755.876	0.0143890
755.954	0.0143429
756.032	0.0144026
756.110	0.0142520
756.188	0.0140836
756.266	0.0141676
756.344	0.0139809
756.423	0.0139358
756.501	0.0138679
756.579	0.0137575
756.657	0.0135513
756.735	0.0134305
756.813	0.0135253
756.891	0.0133408
756.969	0.0134229
757.048	0.0132285
757.126	0.0132162
757.204	0.0133463
757.282	0.0134731
757.360	0.0131778
757.438	0.0132331
757.516	0.0134137
757.594	0.0133231
757.673	0.0133285
757.751	0.0133230
757.829	0.0132703
757.907	0.0132899
757.985	0.0134235
758.063	0.0132467
758.141	0.0132294
758.219	0.0132410
758.298	0.0134105
758.376	0.0132868
758.454	0.0132899
758.532	0.0132989
758.610	0.0130874
758.688	0.0131017
758.766	0.0130956
758.844	0.0130940
758.923	0.0131775
759.001	0.0131841
759.079	0.0133049
759.157	0.0133428
759.235	0.0133611
759.313	0.0133099
759.391	0.0134708
759.469	0.0133691
759.548	0.0135731
759.626	0.0135797
759.704	0.0136269
759.782	0.0136594
759.860	0.0137476
759.938	0.0138523
760.016	0.0138918
760.094	0.0138836
760.173	0.0138635
760.251	0.0138815
760.329	0.0141011
760.407	0.0140617
760.485	0.0142357
760.563	0.0143076
760.641	0.0142435
760.719	0.0142808
760.798	0.0143428
760.876	0.0143814
760.954	0.0145221
761.032	0.0144776
761.110	0.0144613
761.188	0.0145718
761.266	0.0146815
761.344	0.0147697
761.423	0.0144770
761.501	0.0145763
761.579	0.0145531
761.657	0.0145377
761.735	0.0144861
761.813	0.0144541
761.891	0.0144734
761.969	0.0145210
762.048	0.0145053
762.126	0.0144330
762.204	0.0144250
762.282	0.0143240
762.360	0.0144764
762.438	0.0144280
762.516	0.0144175
762.594	0.0144791
762.673	0.0144805
762.751	0.0144368
762.829	0.0144588
762.907	0.0143880
762.985	0.0142703
763.063	0.0143798
763.141	0.0142667
763.219	0.0142525
763.298	0.0143078
763.376	0.0139768
763.454	0.0137907
763.532	0.0138201
763.610	0.0137598
763.688	0.0136134
763.766	0.0134441
763.844	0.0134138
763.923	0.0133993
764.001	0.0132030
764.079	0.0132327
764.157	0.0133185
764.235	0.0130457
764.313	0.0130505
764.391	0.0132014
764.469	0.0133026
764.548	0.0130622
764.626	0.0132242
764.704	0.0131985
764.782	0.0132983
764.860	0.0133550
764.938	0.0132828
765.016	0.0133034
765.094	0.0134257
765.173	0.0133845
765.251	0.0134245
765.329	0.0134391
765.407	0.0135177
765.485	0.0134927
765.563	0.0136214
765.641	0.0135197
765.719	0.0133976
765.798	0.0135104
765.876	0.0136237
765.954	0.0137476
766.032	0.0136938
766.110	0.0136930
766.188	0.0136170
766.266	0.0136230
766.344	0.0137203
766.423	0.0137846
766.501	0.0137996
766.579	0.0137118
766.657	0.0139466
766.735	0.0137903
766.813	0.0139777
766.891	0.0139160
766.969	0.0140047
767.048	0.0140115
767.126	0.0140469
767.204	0.0140453
767.282	0.0139954
767.360	0.0141459
767.438	0.0140981
767.516	0.0141817
767.594	0.0141578
767.673	0.0141796
767.751	0.0142407
767.829	0.0142316
767.907	0.0143916
767.985	0.0146516
768.063	0.0144682
768.141	0.0145771
768.219	0.0146003
768.298	0.0145489
768.376	0.0145229
768.454	0.0146885
768.532	0.0145827
768.610	0.0147639
768.688	0.0146332
768.766	0.0146261
768.844	0.0145399
768.923	0.0144252
769.001	0.0144071
769.079	0.0142321
769.157	0.0142606
769.235	0.0140130
769.313	0.0138229
769.391	0.0140937
769.469	0.0138474
769.548	0.0138633
769.626	0.0139280
769.704	0.0138836
769.782	0.0139702
769.860	0.0137785
769.938	0.0136943
770.016	0.0137771
770.094	0.0138465
770.173	0.0138874
770.251	0.0138825
770.329	0.0138687
770.407	0.0138518
770.485	0.0138220
770.563	0.0138405
770.641	0.0136452
770.719	0.0137542
770.798	0.0135684
770.876	0.0135628
770.954	0.0136345
771.032	0.0134409
771.110	0.0133790
771.188	0.0133884
771.266	0.0134359
771.344	0.0134377
771.423	0.0134532
771.501	0.0133689
771.579	0.0134122
771.657	0.0132921
771.735	0.0134766
771.813	0.0132992
771.891	0.0134216
771.969	0.0132030
772.048	0.0132484
772.126	0.0132333
772.204	0.0132856
772.282	0.0132861
772.360	0.0133553
772.438	0.0135009
772.516	0.0134318
772.594	0.0133765
772.673	0.0133456
772.751	0.0136024
772.829	0.0136105
772.907	0.0135950
772.985	0.0135026
773.063	0.0136707
773.141	0.0137641
773.219	0.0136907
773.298	0.0137083
773.376	0.0139713
773.454	0.0141251
773.532	0.0139888
773.610	0.0140051
773.688	0.0142776
773.766	0.0143089
773.844	0.0143354
773.923	0.0142773
774.001	0.0143899
774.079	0.0145226
774.157	0.0143752
774.235	0.0144147
774.313	0.0144406
774.391	0.0142228
774.469	0.0142537
774.548	0.0141537
774.626	0.0139807
774.704	0.0139708
774.782	0.0139792
774.860	0.0138748
774.938	0.0139512
775.016	0.0138964
775.094	0.0138005
775.173	0.0139669
775.251	0.0138358
775.329	0.0139173
775.407	0.0139864
775.485	0.0140318
775.563	0.0140205
775.641	0.0140628
775.719	0.0141864
775.798	0.0139929
775.876	0.0140379
775.954	0.0141498
776.032	0.0140674
776.110	0.0142106
776.188	0.0141583
776.266	0.0140567
776.344	0.0142033
776.423	0.0141580
776.501	0.0141390
776.579	0.0141862
776.657	0.0142066
776.735	0.0140257
776.813	0.0139972
776.891	0.0140048
776.969	0.0138546
777.048	0.0136070
777.126	0.0136919
777.204	0.0135504
777.282	0.0135925
777.360	0.0135783
777.438	0.0133990
777.516	0.0134136
777.594	0.0134336
777.673	0.0134352
777.751	0.0132567
777.829	0.0132095
777.907	0.0133751
777.985	0.0132174
778.063	0.0133197
778.141	0.0134306
778.219	0.0133929
778.298	0.0136224
778.376	0.0135652
778.454	0.0135623
778.532	0.0135995
778.610	0.0136409
778.688	0.0137008
778.766	0.0137000
778.844	0.0136477
778.923	0.0135994
779.001	0.0137971
779.079	0.0136514
779.157	0.0137489
779.235	0.0136909
779.313	0.0138271
779.391	0.0136121
779.469	0.0136091
779.548	0.0135182
779.626	0.0135791
779.704	0.0135805
779.782	0.0135033
779.860	0.0135558
779.938	0.0134122
780.016	0.0135171
780.094	0.0134808
780.173	0.0134942
780.251	0.0135305
780.329	0.0135727
780.407	0.0135548
780.485	0.0136770
780.563	0.0138515
780.641	0.0138724
780.719	0.0139428
780.798	0.0139805
780.876	0.0141103
780.954	0.0142575
781.032	0.0141235
781.110	0.0142411
781.188	0.0143871
781.266	0.0144746
781.344	0.0144930
781.423	0.0144907
781.501	0.0146641
781.579	0.0145215
781.657	0.0144156
781.735	0.0144252
781.813	0.0145002
781.891	0.0144855
781.969	0.0144820
782.048	0.0143766
782.126	0.0144508
782.204	0.0145060
782.282	0.0142705
782.360	0.0142081
782.438	0.0142073
782.516	0.0141143
782.594	0.0140640
782.673	0.0140125
782.751	0.0138873
782.829	0.0137463
782.907	0.0136169
782.985	0.0136591
783.063	0.0134047
783.141	0.0133173
783.219	0.0132496
783.298	0.0132723
783.376	0.0132040
783.454	0.0131264
783.532	0.0130630
783.610	0.0131374
783.688	0.0130659
783.766	0.0132056
783.844	0.0132354
783.923	0.0132773
784.001	0.0133347
784.079	0.0134072
784.157	0.0134193
784.235	0.0136684
784.313	0.0136288
784.391	0.0137469
784.469	0.0138868
784.548	0.0138447
784.626	0.0139982
784.704	0.0140754
784.782	0.0140344
784.860	0.0140722
784.938	0.0141381
785.016	0.0142210
785.094	0.0141565
785.173	0.0142009
785.251	0.0140941
785.329	0.0140904
785.407	0.0140123
785.485	0.0141166
785.563	0.0139681
785.641	0.0138999
785.719	0.0138331
785.798	0.0138587
785.876	0.0137752
785.954	0.0137466
786.032	0.0139130
786.110	0.0138240
786.188	0.0136756
786.266	0.0138249
786.344	0.0138210
786.423	0.0138966
786.501	0.0138583
786.579	0.0138713
786.657	0.0136811
786.735	0.0138879
786.813	0.0138663
786.891	0.0137276
786.969	0.0137765
787.048	0.0137486
787.126	0.0137965
787.204	0.0136456
787.282	0.0136288
787.360	0.0137471
787.438	0.0135580
787.516	0.0135332
787.594	0.0136343
787.673	0.0137059
787.751	0.0138004
787.829	0.0136537
787.907	0.0135838
787.985	0.0136889
788.063	0.0138416
788.141	0.0138457
788.219	0.0136427
788.298	0.0137511
788.376	0.0137763
788.454	0.0138046
788.532	0.0137959
788.610	0.0137801
788.688	0.0139487
788.766	0.0138431
788.844	0.0139899
788.923	0.0140342
789.001	0.0140290
789.079	0.0140422
789.157	0.0140056
789.235	0.0141286
789.313	0.0141566
789.391	0.0141899
789.469	0.0142563
789.548	0.0141636
789.626	0.0141582
789.704	0.0143356
789.782	0.0143156
789.860	0.0142036
789.938	0.0143204
790.016	0.0143472
790.094	0.0142611
790.173	0.0143607
790.251	0.0142072
790.329	0.0140993
790.407	0.0140663
790.485	0.0141077
790.563	0.0141264
790.641	0.0139470
790.719	0.0140331
790.798	0.0139172
790.876	0.0138967
790.954	0.0138949
791.032	0.0138573
791.110	0.0136749
791.188	0.0139180
791.266	0.0138517
791.344	0.0138789
791.423	0.0138883
791.501	0.0137988
791.579	0.0138486
791.657	0.0139173
791.735	0.0139424
791.813	0.0138490
791.891	0.0137373
791.969	0.0138094
792.048	0.0139295
792.126	0.0138259
792.204	0.0137562
792.282	0.0135557
792.360	0.0135704
792.438	0.0135794
792.516	0.0136745
792.594	0.0135883
792.673	0.0135168
792.751	0.0135485
792.829	0.0135146
792.907	0.0135265
792.985	0.0136662
793.063	0.0137206
793.141	0.0136925
793.219	0.0137186
793.298	0.0138090
793.376	0.0137103
793.454	0.0139120
793.532	0.0137550
793.610	0.0139989
793.688	0.0140385
793.766	0.0140357
793.844	0.0141154
793.923	0.0142346
794.001	0.0142399
794.079	0.0140856
794.157	0.0141245
794.235	0.0142343
794.313	0.0141010
794.391	0.0140407
794.469	0.0140847
794.548	0.0141296
794.626	0.0141043
794.704	0.0141147
794.782	0.0139884
794.860	0.0141038
794.938	0.0141133
795.016	0.0140693
795.094	0.0140919
795.173	0.0140237
795.251	0.0139725
795.329	0.0138144
795.407	0.0137862
795.485	0.0138536
795.563	0.0136593
795.641	0.0135754
795.719	0.0136051
795.798	0.0135010
795.876	0.0135043
795.954	0.0134273
796.032	0.0133483
796.110	0.0132474
796.188	0.0133448
796.266	0.0133855
796.344	0.0132099
796.423	0.0131989
796.501	0.0132883
796.579	0.0131687
796.657	0.0133266
796.735	0.0133591
796.813	0.0133583
796.891	0.0134695
796.969	0.0134982
797.048	0.0136229
797.126	0.0134918
797.204	0.0137304
797.282	0.0137931
797.360	0.0138673
797.438	0.0140015
797.516	0.0141792
797.594	0.0140164
797.673	0.0140521
797.751	0.0144263
797.829	0.0144299
797.907	0.0143993
797.985	0.0146075
798.063	0.0145522
798.141	0.0143943
798.219	0.0146421
798.298	0.0146094
798.376	0.0146237
798.454	0.0147112
798.532	0.0147063
798.610	0.0144710
798.688	0.0146080
798.766	0.0146772
798.844	0.0145628
798.923	0.0145093
799.001	0.0144288
799.079	0.0143089
799.157	0.0143505
799.235	0.0142686
799.313	0.0141478
799.391	0.0141576
799.469	0.0140323
799.548	0.0139142
799.626	0.0137228
799.704	0.0136657
799.782	0.0137142
799.860	0.0134716
799.938	0.0133632
800.016	0.0133208
800.094	0.0133499
800.173	0.0133017
800.251	0.0132349
800.329	0.0130513
800.407	0.0130076
800.485	0.0129883
800.563	0.0129544
800.641	0.0129675
800.719	0.0130645
800.798	0.0130494
800.876	0.0129428
800.954	0.0129057
801.032	0.0128809
801.110	0.0129489
801.188	0.0129900
801.266	0.0130135
801.344	0.0130935
801.423	0.0131790
801.501	0.0130308
801.579	0.0131336
801.657	0.0133023
801.735	0.0133261
801.813	0.0134770
801.891	0.0135784
801.969	0.0137089
802.048	0.0136541
802.126	0.0138290
802.204	0.0139409
802.282	0.0140120
802.360	0.0139877
802.438	0.0142509
802.516	0.0143291
802.594	0.0142039
802.673	0.0143310
802.751	0.0142623
802.829	0.0143681
802.907	0.0143243
802.985	0.0143307
803.063	0.0144281
803.141	0.0143747
803.219	0.0145078
803.298	0.0144144
803.376	0.0144736
803.454	0.0145740
803.532	0.0145084
803.610	0.0146643
803.688	0.0147945
803.766	0.0146712
803.844	0.0147134
803.923	0.0144984
804.001	0.0145650
804.079	0.0147381
804.157	0.0145675
804.235	0.0144637
804.313	0.0144266
804.391	0.0144717
804.469	0.0144394
804.548	0.0144316
804.626	0.0142160
804.704	0.0141009
804.782	0.0139912
804.860	0.0138905
804.938	0.0137507
805.016	0.0135818
805.094	0.0134582
805.173	0.0133584
805.251	0.0135229
805.329	0.0131817
805.407	0.0130074
805.485	0.0130614
805.563	0.0130869
805.641	0.0128237
805.719	0.0128707
805.798	0.0129603
805.876	0.0128684
805.954	0.0128273
806.032	0.0129239
806.110	0.0130579
806.188	0.0131789
806.266	0.0131055
806.344	0.0131169
806.423	0.0132167
806.501	0.0132077
806.579	0.0133881
806.657	0.0133826
806.735	0.0135372
806.813	0.0135268
806.891	0.0136655
806.969	0.0136449
807.048	0.0136040
807.126	0.0136904
807.204	0.0136821
807.282	0.0138789
807.360	0.0137833
807.438	0.0138649
807.516	0.0139313
807.594	0.0138675
807.673	0.0139270
807.751	0.0139980
807.829	0.0140532
807.907	0.0138846
807.985	0.0138528
808.063	0.0139427
808.141	0.0140076
808.219	0.0138895
808.298	0.0140121
808.376	0.0139785
808.454	0.0140543
808.532	0.0141080
808.610	0.0141692
808.688	0.0140941
808.766	0.0143088
808.844	0.0143075
808.923	0.0143776
809.001	0.0145110
809.079	0.0145848
809.157	0.0145548
809.235	0.0147108
809.313	0.0148261
809.391	0.0147371
809.469	0.0148304
809.548	0.0146691
809.626	0.0147628
809.704	0.0148235
809.782	0.0146948
809.860	0.0147261
809.938	0.0146967
810.016	0.0146507
810.094	0.0145695
810.173	0.0145773
810.251	0.0143297
810.329	0.0144397
810.407	0.0142603
810.485	0.0140460
810.563	0.0139124
810.641	0.0137662
810.719	0.0136692
810.798	0.0134444
810.876	0.0133857
810.954	0.0133163
811.032	0.0131317
811.110	0.0132201
811.188	0.0132439
811.266	0.0131027
811.344	0.0129879
811.423	0.0130194
811.501	0.0129585
811.579	0.0129276
811.657	0.0130080
811.735	0.0128883
811.813	0.0129732
811.891	0.0131190
811.969	0.0130765
812.048	0.0130065
812.126	0.0130600
812.204	0.0131844
812.282	0.0133302
812.360	0.0133516
812.438	0.0133698
812.516	0.0134180
812.594	0.0134901
812.673	0.0136224
812.751	0.0136291
812.829	0.0136602
812.907	0.0137571
812.985	0.0137944
813.063	0.0137926
813.141	0.0137766
813.219	0.0139018
813.298	0.0138812
813.376	0.0140282
813.454	0.0141058
813.532	0.0141649
813.610	0.0143098
813.688	0.0140631
813.766	0.0142362
813.844	0.0142119
813.923	0.0143517
814.001	0.0145007
814.079	0.0145055
814.157	0.0146357
814.235	0.0143890
814.313	0.0144672
814.391	0.0146334
814.469	0.0146443
814.548	0.0147372
814.626	0.0145402
814.704	0.0146720
814.782	0.0147124
814.860	0.0147549
814.938	0.0146675
815.016	0.0146921
815.094	0.0147495
815.173	0.0147363
815.251	0.0147717
815.329	0.0148597
815.407	0.0146751
815.485	0.0145429
815.563	0.0144716
815.641	0.0144704
815.719	0.0143001
815.798	0.0142009
815.876	0.0139854
815.954	0.0140862
816.032	0.0139494
816.110	0.0136808
816.188	0.0136237
816.266	0.0136227
816.344	0.0133241
816.423	0.0131660
816.501	0.0132076
816.579	0.0131274
816.657	0.0131225
816.735	0.0128851
816.813	0.0127367
816.891	0.0126012
816.969	0.0127129
817.048	0.0127196
817.126	0.0126296
817.204	0.0126279
817.282	0.0127851
817.360	0.0127802
817.438	0.0126515
817.516	0.0128691
817.594	0.0129918
817.673	0.0130865
817.751	0.0132923
817.829	0.0132135
817.907	0.0133123
817.985	0.0134634
818.063	0.0134406
818.141	0.0134851
818.219	0.0136642
818.298	0.0135403
818.376	0.0138230
818.454	0.0139673
818.532	0.0139380
818.610	0.0140669
818.688	0.0140028
818.766	0.0142159
818.844	0.0141933
818.923	0.0142745
819.001	0.0141879
819.079	0.0142783
819.157	0.0143340
819.235	0.0145059
819.313	0.0145578
819.391	0.0143567
819.469	0.0144444
819.548	0.0146232
819.626	0.0147263
819.704	0.0146048
819.782	0.0146103
819.860	0.0147483
819.938	0.0146747
820.016	0.0147013
820.094	0.0146571
820.173	0.0147924
820.251	0.0147157
820.329	0.0148677
820.407	0.0148649
820.485	0.0146628
820.563	0.0147128
820.641	0.0147836
820.719	0.0146619
820.798	0.0145615
820.876	0.0146169
820.954	0.0144117
821.032	0.0143659
821.110	0.0142722
821.188	0.0142206
821.266	0.0141679
821.344	0.0140906
821.423	0.0140834
821.501	0.0137880
821.579	0.0136501
821.657	0.0135696
821.735	0.0136053
821.813	0.0135771
821.891	0.0133636
821.969	0.0132196
822.048	0.0131763
822.126	0.0131064
822.204	0.0130061
822.282	0.0128865
822.360	0.0130293
822.438	0.0128288
822.516	0.0127367
822.594	0.0126875
822.673	0.0128229
822.751	0.0127123
822.829	0.0124916
822.907	0.0125974
822.985	0.0126278
823.063	0.0126840
823.141	0.0127642
823.219	0.0127148
823.298	0.0126895
823.376	0.0129499
823.454	0.0129509
823.532	0.0130718
823.610	0.0131982
823.688	0.0133648
823.766	0.0135256
823.844	0.0134469
823.923	0.0136079
824.001	0.0138336
824.079	0.0138297
824.157	0.0140036
824.235	0.0141679
824.313	0.0142184
824.391	0.0142823
824.469	0.0144319
824.548	0.0144966
824.626	0.0145992
824.704	0.0147183
824.782	0.0148041
824.860	0.0147359
824.938	0.0148084
825.016	0.0147562
825.094	0.0149207
825.173	0.0149090
825.251	0.0148116
825.329	0.0147806
825.407	0.0146777
825.485	0.0148586
825.563	0.0148663
825.641	0.0147701
825.719	0.0148005
825.798	0.0146568
825.876	0.0146112
825.954	0.0144771
826.032	0.0144694
826.110	0.0144387
826.188	0.0142628
826.266	0.0142950
826.344	0.0141711
826.423	0.0142553
826.501	0.0141094
826.579	0.0140968
826.657	0.0141979
826.735	0.0140855
826.813	0.0138169
826.891	0.0139135
826.969	0.0138420
827.048	0.0137772
827.126	0.0137630
827.204	0.0137442
827.282	0.0136629
827.360	0.0136272
827.438	0.0135049
827.516	0.0135285
827.594	0.0134250
827.673	0.0132544
827.751	0.0133580
827.829	0.0133441
827.907	0.0132606
827.985	0.0133128
828.063	0.0133914
828.141	0.0133189
828.219	0.0133225
828.298	0.0133327
828.376	0.0133765
828.454	0.0134373
828.532	0.0134906
828.610	0.0135255
828.688	0.0133633
828.766	0.0136631
828.844	0.0136626
828.923	0.0135598
829.001	0.0136407
829.079	0.0136097
829.157	0.0134972
829.235	0.0135375
829.313	0.0135648
829.391	0.0134845
829.469	0.0137234
829.548	0.0136362
829.626	0.0135593
829.704	0.0135808
829.782	0.0136565
829.860	0.0134892
829.938	0.0136347
830.016	0.0135659
830.094	0.0135949
830.173	0.0135826
830.251	0.0137709
830.329	0.0138360
830.407	0.0137232
830.485	0.0137748
830.563	0.0138274
830.641	0.0138958
830.719	0.0140318
830.798	0.0140479
830.876	0.0140733
830.954	0.0141705
831.032	0.0142171
831.110	0.0143198
831.188	0.0144547
831.266	0.0144759
831.344	0.0145711
831.423	0.0144384
831.501	0.0145010
831.579	0.0145148
831.657	0.0144814
831.735	0.0145650
831.813	0.0145210
831.891	0.0144071
831.969	0.0144804
832.048	0.0144897
832.126	0.0143867
832.204	0.0144852
832.282	0.0144534
832.360	0.0142540
832.438	0.0142729
832.516	0.0143076
832.594	0.0141850
832.673	0.0142197
832.751	0.0142745
832.829	0.0140234
832.907	0.0140260
832.985	0.0138981
833.063	0.0138844
833.141	0.0139291
833.219	0.0138460
833.298	0.0137247
833.376	0.0137428
833.454	0.0137484
833.532	0.0137939
833.610	0.0136108
833.688	0.0136091
833.766	0.0136673
833.844	0.0136610
833.923	0.0135587
834.001	0.0136883
834.079	0.0136330
834.157	0.0135583
834.235	0.0137310
834.313	0.0135887
834.391	0.0136904
834.469	0.0137134
834.548	0.0137183
834.626	0.0137081
834.704	0.0137489
834.782	0.0135777
834.860	0.0135960
834.938	0.0136995
835.016	0.0137547
835.094	0.0136695
835.173	0.0137157
835.251	0.0136266
835.329	0.0135339
835.407	0.0136343
835.485	0.0137783
835.563	0.0136763
835.641	0.0136513
835.719	0.0135734
835.798	0.0136158
835.876	0.0137186
835.954	0.0137146
836.032	0.0136063
836.110	0.0138866
836.188	0.0137402
836.266	0.0136538
836.344	0.0136889
836.423	0.0138558
836.501	0.0138056
836.579	0.0138095
836.657	0.0138481
836.735	0.0137519
836.813	0.0139405
836.891	0.0138961
836.969	0.0138920
837.048	0.0139301
837.126	0.0139457
837.204	0.0137798
837.282	0.0139687
837.360	0.0139101
837.438	0.0139643
837.516	0.0136849
837.594	0.0138657
837.673	0.0138734
837.751	0.0137835
837.829	0.0137324
837.907	0.0138711
837.985	0.0138821
838.063	0.0140875
838.141	0.0140431
838.219	0.0139290
838.298	0.0139347
838.376	0.0139388
838.454	0.0139856
838.532	0.0141819
838.610	0.0142058
838.688	0.0140350
838.766	0.0141729
838.844	0.0143089
838.923	0.0142392
839.001	0.0143066
839.079	0.0142669
839.157	0.0142654
839.235	0.0140990
839.313	0.0143008
839.391	0.0143066
839.469	0.0141019
839.548	0.0142862
839.626	0.0143448
839.704	0.0142504
839.782	0.0140115
839.860	0.0141840
839.938	0.0139999
840.016	0.0141056
840.094	0.0141494
840.173	0.0140429
840.251	0.0140711
840.329	0.0139276
840.407	0.0139545
840.485	0.0139272
840.563	0.0139827
840.641	0.0140442
840.719	0.0139773
840.798	0.0138086
840.876	0.0138475
840.954	0.0138787
841.032	0.0138132
841.110	0.0137372
841.188	0.0137317
841.266	0.0137486
841.344	0.0136143
841.423	0.0135148
841.501	0.0134559
841.579	0.0136320
841.657	0.0134082
841.735	0.0132291
841.813	0.0134559
841.891	0.0133849
841.969	0.0132709
842.048	0.0133289
842.126	0.0132028
842.204	0.0133344
842.282	0.0131612
842.360	0.0131492
842.438	0.0132478
842.516	0.0130956
842.594	0.0132056
842.673	0.0133875
842.751	0.0133215
842.829	0.0134628
842.907	0.0134553
842.985	0.0134888
843.063	0.0134867
843.141	0.0134887
843.219	0.0135382
843.298	0.0137561
843.376	0.0137305
843.454	0.0138451
843.532	0.0138770
843.610	0.0139394
843.688	0.0138945
843.766	0.0140997
843.844	0.0141983
843.923	0.0140802
844.001	0.0141177
844.079	0.0140929
844.157	0.0141441
844.235	0.0143317
844.313	0.0141116
844.391	0.0142589
844.469	0.0143306
844.548	0.0141828
844.626	0.0142562
844.704	0.0144610
844.782	0.0143067
844.860	0.0143272
844.938	0.0143803
845.016	0.0144083
845.094	0.0142501
845.173	0.0142217
845.251	0.0143742
845.329	0.0143111
845.407	0.0141817
845.485	0.0144100
845.563	0.0144287
845.641	0.0144902
845.719	0.0143969
845.798	0.0145028
845.876	0.0142703
845.954	0.0143645
846.032	0.0143653
846.110	0.0142716
846.188	0.0141752
846.266	0.0141190
846.344	0.0140798
846.423	0.0139883
846.501	0.0139539
846.579	0.0140109
846.657	0.0138281
846.735	0.0137558
846.813	0.0136781
846.891	0.0135915
846.969	0.0136192
847.048	0.0135693
847.126	0.0133822
847.204	0.0133312
847.282	0.0133255
847.360	0.0134496
847.438	0.0132328
847.516	0.0133102
847.594	0.0132819
847.673	0.0132530
847.751	0.0131807
847.829	0.0132135
847.907	0.0132365
847.985	0.0131522
848.063	0.0134443
848.141	0.0133359
848.219	0.0134634
848.298	0.0132831
848.376	0.0134413
848.454	0.0133689
848.532	0.0135196
848.610	0.0135735
848.688	0.0135389
848.766	0.0135561
848.844	0.0136565
848.923	0.0136226
849.001	0.0138319
849.079	0.0138000
849.157	0.0138323
849.235	0.0139606
849.313	0.0138074
849.391	0.0140417
849.469	0.0139433
849.548	0.0140681
849.626	0.0139474
849.704	0.0139964
849.782	0.0141129
849.860	0.0140781
849.938	0.0141240
850.016	0.0141647
850.094	0.0140748
850.173	0.0141299
850.251	0.0140751
850.329	0.0142256
850.407	0.0143177
850.485	0.0143114
850.563	0.0142834
850.641	0.0140590
850.719	0.0142278
850.798	0.0142506
850.876	0.0142445
850.954	0.0143043
851.032	0.0143085
851.110	0.0143735
851.188	0.0143652
851.266	0.0142864
851.344	0.0143581
851.423	0.0141959
851.501	0.0142847
851.579	0.0142353
851.657	0.0141841
851.735	0.0141961
851.813	0.0141087
851.891	0.0141380
851.969	0.0139862
852.048	0.0141225
852.126	0.0140957
852.204	0.0138976
852.282	0.0139014
852.360	0.0139449
852.438	0.0139019
852.516	0.0139082
852.594	0.0139391
852.673	0.0136906
852.751	0.0137366
852.829	0.0138925
852.907	0.0137805
852.985	0.0136663
853.063	0.0138392
853.141	0.0137152
853.219	0.0136456
853.298	0.0138690
853.376	0.0137963
853.454	0.0137204
853.532	0.0137038
853.610	0.0137008
853.688	0.0138267
853.766	0.0137009
853.844	0.0135961
853.923	0.0135531
854.001	0.0134486
854.079	0.0134470
854.157	0.0133955
854.235	0.0134828
854.313	0.0134495
854.391	0.0134349
854.469	0.0134144
854.548	0.0136338
854.626	0.0134402
854.704	0.0135229
854.782	0.0135958
854.860	0.0136656
854.938	0.0135464
855.016	0.0135694
855.094	0.0137669
855.173	0.0139165
855.251	0.0138311
855.329	0.0138350
855.407	0.0140033
855.485	0.0140202
855.563	0.0139269
855.641	0.0140957
855.719	0.0142043
855.798	0.0142004
855.876	0.0141382
855.954	0.0141994
856.032	0.0142958
856.110	0.0141817
856.188	0.0141531
856.266	0.0143161
856.344	0.0141090
856.423	0.0142245
856.501	0.0144094
856.579	0.0142732
856.657	0.0142412
856.735	0.0140784
856.813	0.0142209
856.891	0.0142250
856.969	0.0141975
857.048	0.0143617
857.126	0.0142573
857.204	0.0140966
857.282	0.0140222
857.360	0.0140329
857.438	0.0141261
857.516	0.0140572
857.594	0.0139875
857.673	0.0138194
857.751	0.0140485
857.829	0.0138132
857.907	0.0138512
857.985	0.0138376
858.063	0.0138407
858.141	0.0136942
858.219	0.0137448
858.298	0.0137933
858.376	0.0137374
858.454	0.0137382
858.532	0.0137473
858.610	0.0136678
858.688	0.0136752
858.766	0.0134528
858.844	0.0134708
858.923	0.0134676
859.001	0.0135953
859.079	0.0135188
859.157	0.0135858
859.235	0.0134630
859.313	0.0133322
859.391	0.0134627
859.469	0.0136960
859.548	0.0135179
859.626	0.0134547
859.704	0.0134965
859.782	0.0137286
859.860	0.0136123
859.938	0.0136191
860.016	0.0136548
860.094	0.0135431
860.173	0.0137389
860.251	0.0137743
860.329	0.0138779
860.407	0.0138341
860.485	0.0140331
860.563	0.0141657
860.641	0.0143194
860.719	0.0141198
860.798	0.0141988
860.876	0.0142344
860.954	0.0141419
861.032	0.0142279
861.110	0.0144536
861.188	0.0142577
861.266	0.0142984
861.344	0.0142007
861.423	0.0141373
861.501	0.0141895
861.579	0.0141460
861.657	0.0140834
861.735	0.0140354
861.813	0.0140409
861.891	0.0140587
861.969	0.0139142
862.048	0.0138639
862.126	0.0136270
862.204	0.0137511
862.282	0.0138719
862.360	0.0138000
862.438	0.0137746
862.516	0.0137432
862.594	0.0137762
862.673	0.0136626
862.751	0.0136258
862.829	0.0136798
862.907	0.0137587
862.985	0.0137945
863.063	0.0136591
863.141	0.0137177
863.219	0.0137900
863.298	0.0137982
863.376	0.0137376
863.454	0.0139014
863.532	0.0138758
863.610	0.0139156
863.688	0.0139086
863.766	0.0139751
863.844	0.0141675
863.923	0.0140613
864.001	0.0139556
864.079	0.0141315
864.157	0.0141278
864.235	0.0140624
864.313	0.0139969
864.391	0.0141390
864.469	0.0140617
864.548	0.0138575
864.626	0.0140342
864.704	0.0140485
864.782	0.0139066
864.860	0.0139886
864.938	0.0140081
865.016	0.0137658
865.094	0.0137288
865.173	0.0138509
865.251	0.0138207
865.329	0.0136926
865.407	0.0135636
865.485	0.0135397
865.563	0.0135649
865.641	0.0136803
865.719	0.0136385
865.798	0.0136800
865.876	0.0135266
865.954	0.0134187
866.032	0.0134789
866.110	0.0135600
866.188	0.0136642
866.266	0.0134515
866.344	0.0134300
866.423	0.0136004
866.501	0.0135319
866.579	0.0136295
866.657	0.0137595
866.735	0.0137923
866.813	0.0137668
866.891	0.0137720
866.969	0.0136787
867.048	0.0138143
867.126	0.0137778
867.204	0.0138371
867.282	0.0139678
867.360	0.0139925
867.438	0.0140316
867.516	0.0140523
867.594	0.0140298
867.673	0.0141330
867.751	0.0141489
867.829	0.0141100
867.907	0.0142316
867.985	0.0143619
868.063	0.0143169
868.141	0.0142664
868.219	0.0142204
868.298	0.0142039
868.376	0.0142400
868.454	0.0142608
868.532	0.0140849
868.610	0.0141055
868.688	0.0139630
868.766	0.0140087
868.844	0.0139080
868.923	0.0137696
869.001	0.0136771
869.079	0.0137798
869.157	0.0137496
869.235	0.0135661
869.313	0.0135391
869.391	0.0136543
869.469	0.0136057
869.548	0.0136726
869.626	0.0136015
869.704	0.0136488
869.782	0.0135765
869.860	0.0136996
869.938	0.0137174
870.016	0.0135657
870.094	0.0136071
870.173	0.0136356
870.251	0.0134939
870.329	0.0136004
870.407	0.0135620
870.485	0.0135986
870.563	0.0136636
870.641	0.0137334
870.719	0.0137984
870.798	0.0137534
870.876	0.0137637
870.954	0.0138654
871.032	0.0138190
871.110	0.0137180
871.188	0.0136912
871.266	0.0137589
871.344	0.0138772
871.423	0.0139433
871.501	0.0140736
871.579	0.0139919
871.657	0.0139712
871.735	0.0139931
871.813	0.0138653
871.891	0.0138067
871.969	0.0139289
872.048	0.0139281
872.126	0.0138925
872.204	0.0139855
872.282	0.0139911
872.360	0.0139310
872.438	0.0139314
872.516	0.0138065
872.594	0.0139284
872.673	0.0139598
872.751	0.0139561
872.829	0.0140614
872.907	0.0139236
872.985	0.0140376
873.063	0.0139197
873.141	0.0140498
873.219	0.0140163
873.298	0.0140961
873.376	0.0140706
873.454	0.0140145
873.532	0.0142136
873.610	0.0140041
873.688	0.0138750
873.766	0.0139226
873.844	0.0138266
873.923	0.0139858
874.001	0.0138632
874.079	0.0138435
874.157	0.0138672
874.235	0.0137533
874.313	0.0137935
874.391	0.0138184
874.469	0.0137486
874.548	0.0137699
874.626	0.0137166
874.704	0.0137601
874.782	0.0137996
874.860	0.0139101
874.938	0.0137783
875.016	0.0137821
875.094	0.0138095
875.173	0.0138149
875.251	0.0137498
875.329	0.0138095
875.407	0.0137916
875.485	0.0138486
875.563	0.0137419
875.641	0.0136842
875.719	0.0138915
875.798	0.0137424
875.876	0.0137609
875.954	0.0135809
876.032	0.0136559
876.110	0.0136965
876.188	0.0136363
876.266	0.0136366
876.344	0.0135528
876.423	0.0135296
876.501	0.0135495
876.579	0.0135126
876.657	0.0137295
876.735	0.0137685
876.813	0.0137312
876.891	0.0139312
876.969	0.0138902
877.048	0.0138493
877.126	0.0138674
877.204	0.0138264
877.282	0.0138165
877.360	0.0138752
877.438	0.0137441
877.516	0.0137353
877.594	0.0137186
877.673	0.0137895
877.751	0.0138636
877.829	0.0139690
877.907	0.0141016
877.985	0.0140208
878.063	0.0141194
878.141	0.0141612
878.219	0.0141915
878.298	0.0142252
878.376	0.0144016
878.454	0.0142111
878.532	0.0142828
878.610	0.0142207
878.688	0.0142052
878.766	0.0141058
878.844	0.0140180
878.923	0.0139983
879.001	0.0139572
879.079	0.0139582
879.157	0.0139139
879.235	0.0139909
879.313	0.0139662
879.391	0.0139651
879.469	0.0140298
879.548	0.0139472
879.626	0.0140276
879.704	0.0139713
879.782	0.0139963
879.860	0.0139502
879.938	0.0138190
880.016	0.0138901
880.094	0.0137187
880.173	0.0138274
880.251	0.0137748
880.329	0.0137095
880.407	0.0134998
880.485	0.0135110
880.563	0.0136023
880.641	0.0137509
880.719	0.0133783
880.798	0.0136301
880.876	0.0135840
880.954	0.0136104
881.032	0.0136142
881.110	0.0136121
881.188	0.0136356
881.266	0.0135244
881.344	0.0135652
881.423	0.0136629
881.501	0.0135804
881.579	0.0137920
881.657	0.0137376
881.735	0.0138458
881.813	0.0137543
881.891	0.0138292
881.969	0.0139516
882.048	0.0138505
882.126	0.0138988
882.204	0.0138906
882.282	0.0139425
882.360	0.0140081
882.438	0.0139394
882.516	0.0140493
882.594	0.0140611
882.673	0.0140141
882.751	0.0139465
882.829	0.0143101
882.907	0.0141228
882.985	0.0140935
883.063	0.0139463
883.141	0.0140141
883.219	0.0140100
883.298	0.0138536
883.376	0.0139227
883.454	0.0139081
883.532	0.0137932
883.610	0.0139223
883.688	0.0138102
883.766	0.0135646
883.844	0.0135694
883.923	0.0136490
884.001	0.0135149
884.079	0.0136324
884.157	0.0136016
884.235	0.0135868
884.313	0.0138000
884.391	0.0138251
884.469	0.0138129
884.548	0.0138562
884.626	0.0140117
884.704	0.0139606
884.782	0.0139106
884.860	0.0138773
884.938	0.0139938
885.016	0.0140901
885.094	0.0139096
885.173	0.0140903
885.251	0.0142261
885.329	0.0140488
885.407	0.0141725
885.485	0.0141743
885.563	0.0140469
885.641	0.0140282
885.719	0.0140260
885.798	0.0142592
885.876	0.0139940
885.954	0.0139506
886.032	0.0139082
886.110	0.0138327
886.188	0.0137755
886.266	0.0138718
886.344	0.0138673
886.423	0.0139485
886.501	0.0138972
886.579	0.0137728
886.657	0.0138081
886.735	0.0137910
886.813	0.0136587
886.891	0.0137976
886.969	0.0135684
887.048	0.0136015
887.126	0.0134648
887.204	0.0134567
887.282	0.0133888
887.360	0.0132963
887.438	0.0134868
887.516	0.0133694
887.594	0.0135152
887.673	0.0135014
887.751	0.0135338
887.829	0.0136703
887.907	0.0135892
887.985	0.0136652
888.063	0.0139130
888.141	0.0138857
888.219	0.0138569
888.298	0.0139220
888.376	0.0140194
888.454	0.0139890
888.532	0.0140511
888.610	0.0140894
888.688	0.0142111
888.766	0.0142294
888.844	0.0142907
888.923	0.0143157
889.001	0.0145017
889.079	0.0142877
889.157	0.0142776
889.235	0.0143311
889.313	0.0144672
889.391	0.0143209
889.469	0.0142299
889.548	0.0142378
889.626	0.0142328
889.704	0.0141591
889.782	0.0140683
889.860	0.0140454
889.938	0.0139562
890.016	0.0138783
890.094	0.0138119
890.173	0.0138216
890.251	0.0137890
890.329	0.0137527
890.407	0.0137539
890.485	0.0137453
890.563	0.0137014
890.641	0.0137944
890.719	0.0136243
890.798	0.0136282
890.876	0.0136299
890.954	0.0136826
891.032	0.0135374
891.110	0.0136035
891.188	0.0136819
891.266	0.0135288
891.344	0.0136322
891.423	0.0136309
891.501	0.0137337
891.579	0.0135722
891.657	0.0135639
891.735	0.0137470
891.813	0.0136971
891.891	0.0137817
891.969	0.0137103
892.048	0.0136668
892.126	0.0136622
892.204	0.0137087
892.282	0.0138024
892.360	0.0139529
892.438	0.0138544
892.516	0.0137173
892.594	0.0137775
892.673	0.0137518
892.751	0.0138994
892.829	0.0139864
892.907	0.0137576
892.985	0.0140182
893.063	0.0139338
893.141	0.0140776
893.219	0.0141142
893.298	0.0142754
893.376	0.0142380
893.454	0.0143728
893.532	0.0142712
893.610	0.0142735
893.688	0.0143622
893.766	0.0143903
893.844	0.0144951
893.923	0.0143274
894.001	0.0143887
894.079	0.0144163
894.157	0.0143500
894.235	0.0143185
894.313	0.0141704
894.391	0.0142064
894.469	0.0140678
894.548	0.0140276
894.626	0.0140450
894.704	0.0138226
894.782	0.0136713
894.860	0.0136811
894.938	0.0135275
895.016	0.0136447
895.094	0.0133356
895.173	0.0132452
895.251	0.0133232
895.329	0.0133447
895.407	0.0132669
895.485	0.0132913
895.563	0.0132239
895.641	0.0132418
895.719	0.0132372
895.798	0.0131194
895.876	0.0131767
895.954	0.0132688
896.032	0.0134201
896.110	0.0133390
896.188	0.0134035
896.266	0.0134869
896.344	0.0135765
896.423	0.0135266
896.501	0.0137305
896.579	0.0138698
896.657	0.0138439
896.735	0.0137640
896.813	0.0138832
896.891	0.0139458
896.969	0.0139798
897.048	0.0140446
897.126	0.0140455
897.204	0.0141283
897.282	0.0140157
897.360	0.0140405
897.438	0.0140051
897.516	0.0139574
897.594	0.0140084
897.673	0.0140177
897.751	0.0138579
897.829	0.0138867
897.907	0.0138425
897.985	0.0138340
898.063	0.0136622
898.141	0.0137892
898.219	0.0138640
898.298	0.0136792
898.376	0.0137216
898.454	0.0137029
898.532	0.0137401
898.610	0.0138415
898.688	0.0138648
898.766	0.0138190
898.844	0.0139571
898.923	0.0138447
899.001	0.0140267
899.079	0.0139613
899.157	0.0140942
899.235	0.0142229
899.313	0.0141687
899.391	0.0141125
899.469	0.0141360
899.548	0.0143748
899.626	0.0141494
899.704	0.0142089
899.782	0.0141349
899.860	0.0142738
899.938	0.0141418
900.016	0.0140932
900.094	0.0138783
900.173	0.0138272
900.251	0.0137680
900.329	0.0135183
900.407	0.0135233
900.485	0.0135310
900.563	0.0134230
900.641	0.0133449
900.719	0.0134177
900.798	0.0134270
900.876	0.0135217
900.954	0.0135907
901.032	0.0134827
901.110	0.0134943
901.188	0.0137081
901.266	0.0137691
901.344	0.0138102
901.423	0.0140647
901.501	0.0140500
901.579	0.0140800
901.657	0.0139428
901.735	0.0141009
901.813	0.0140504
901.891	0.0139713
901.969	0.0139244
902.048	0.0140174
902.126	0.0139940
902.204	0.0139610
902.282	0.0139570
902.360	0.0137220
902.438	0.0137277
902.516	0.0136167
902.594	0.0134169
902.673	0.0134717
902.751	0.0134492
902.829	0.0131905
902.907	0.0132870
902.985	0.0131998
903.063	0.0132208
903.141	0.0131569
903.219	0.0130440
903.298	0.0131432
903.376	0.0133412
903.454	0.0133762
903.532	0.0134551
903.610	0.0134743
903.688	0.0135721
903.766	0.0136977
903.844	0.0139381
903.923	0.0138402
904.001	0.0139849
904.079	0.0141208
904.157	0.0142583
904.235	0.0142207
904.313	0.0143778
904.391	0.0144318
904.469	0.0146630
904.548	0.0147321
904.626	0.0146533
904.704	0.0146604
904.782	0.0147443
904.860	0.0147878
904.938	0.0147136
905.016	0.0145430
905.094	0.0146016
905.173	0.0146010
905.251	0.0145589
905.329	0.0145560
905.407	0.0144585
905.485	0.0141865
905.563	0.0140863
905.641	0.0139452
905.719	0.0138915
905.798	0.0138866
905.876	0.0137981
905.954	0.0137357
906.032	0.0135423
906.110	0.0135699
906.188	0.0135662
906.266	0.0135530
906.344	0.0134525
906.423	0.0135182
906.501	0.0136248
906.579	0.0137399
906.657	0.0136562
906.735	0.0138027
906.813	0.0138399
906.891	0.0139296
906.969	0.0136976
907.048	0.0138115
907.126	0.0140045
907.204	0.0139354
907.282	0.0138473
907.360	0.0140554
907.438	0.0138967
907.516	0.0140197
907.594	0.0137968
907.673	0.0138077
907.751	0.0138185
907.829	0.0136084
907.907	0.0135172
907.985	0.0137134
908.063	0.0135676
908.141	0.0134164
908.219	0.0134776
908.298	0.0132784
908.376	0.0132297
908.454	0.0132934
908.532	0.0134760
908.610	0.0132420
908.688	0.0132383
908.766	0.0133489
908.844	0.0134363
908.923	0.0134570
909.001	0.0136147
909.079	0.0136019
909.157	0.0138845
909.235	0.0139362
909.313	0.0138483
909.391	0.0140938
909.469	0.0141910
909.548	0.0142596
909.626	0.0143914
909.704	0.0143062
909.782	0.0143664
909.860	0.0144922
909.938	0.0145397
910.016	0.0144621
910.094	0.0144003
910.173	0.0146273
910.251	0.0145876
910.329	0.0145932
910.407	0.0144373
910.485	0.0144099
910.563	0.0143994
910.641	0.0143440
910.719	0.0142252
910.798	0.0141946
910.876	0.0141498
910.954	0.0138930
911.032	0.0138076
911.110	0.0137138
911.188	0.0136719
911.266	0.0135359
911.344	0.0135973
911.423	0.0134402
911.501	0.0135161
911.579	0.0134075
911.657	0.0133884
911.735	0.0132139
911.813	0.0133094
911.891	0.0134129
911.969	0.0134565
912.048	0.0135851
912.126	0.0135414
912.204	0.0137536
912.282	0.0137227
912.360	0.0138533
912.438	0.0139666
912.516	0.0139979
912.594	0.0139973
912.673	0.0141075
912.751	0.0141441
912.829	0.0142643
912.907	0.0141982
912.985	0.0142703
913.063	0.0141785
913.141	0.0140981
913.219	0.0141567
913.298	0.0141033
913.376	0.0139928
913.454	0.0138038
913.532	0.0138239
913.610	0.0139088
913.688	0.0137872
913.766	0.0139161
913.844	0.0137939
913.923	0.0137363
914.001	0.0137050
914.079	0.0138336
914.157	0.0136844
914.235	0.0138335
914.313	0.0138660
914.391	0.0138355
914.469	0.0138948
914.548	0.0139739
914.626	0.0138531
914.704	0.0140025
914.782	0.0141500
914.860	0.0140002
914.938	0.0141399
915.016	0.0141628
915.094	0.0140134
915.173	0.0140626
915.251	0.0138831
915.329	0.0140697
915.407	0.0141225
915.485	0.0139330
915.563	0.0139481
915.641	0.0140063
915.719	0.0138377
915.798	0.0136790
915.876	0.0137135
915.954	0.0138844
916.032	0.0137498
916.110	0.0136803
916.188	0.0138016
916.266	0.0136077
916.344	0.0134999
916.423	0.0134862
916.501	0.0134650
916.579	0.0134566
916.657	0.0135233
916.735	0.0134105
916.813	0.0131321
916.891	0.0133084
916.969	0.0134647
917.048	0.0134101
917.126	0.0133615
917.204	0.0134969
917.282	0.0135485
917.360	0.0136153
917.438	0.0136366
917.516	0.0139298
917.594	0.0138588
917.673	0.0140457
917.751	0.0141877
917.829	0.0140968
917.907	0.0142345
917.985	0.0141621
918.063	0.0142561
918.141	0.0143002
918.219	0.0143327
918.298	0.0143339
918.376	0.0144147
918.454	0.0141560
918.532	0.0142537
918.610	0.0142303
918.688	0.0141850
918.766	0.0141182
918.844	0.0140714
918.923	0.0140552
919.001	0.0139944
919.079	0.0140651
919.157	0.0139261
919.235	0.0139713
919.313	0.0140405
919.391	0.0137421
919.469	0.0138887
919.548	0.0137055
919.626	0.0137894
919.704	0.0136768
919.782	0.0136842
919.860	0.0136603
919.938	0.0137140
920.016	0.0137726
920.094	0.0137194
920.173	0.0137083
920.251	0.0136542
920.329	0.0136716
920.407	0.0137204
920.485	0.0137053
920.563	0.0137666
920.641	0.0136950
920.719	0.0137492
920.798	0.0138631
920.876	0.0138126
920.954	0.0136705
921.032	0.0137982
921.110	0.0138052
921.188	0.0138115
921.266	0.0137770
921.344	0.0138087
921.423	0.0137965
921.501	0.0138310
921.579	0.0137620
921.657	0.0138345
921.735	0.0138672
921.813	0.0138013
921.891	0.0137553
921.969	0.0138643
922.048	0.0139141
922.126	0.0137979
922.204	0.0138387
922.282	0.0135620
922.360	0.0137697
922.438	0.0137211
922.516	0.0138311
922.594	0.0136997
922.673	0.0137098
922.751	0.0138546
922.829	0.0139414
922.907	0.0139056
922.985	0.0139024
923.063	0.0138169
923.141	0.0139700
923.219	0.0139632
923.298	0.0140238
923.376	0.0140046
923.454	0.0139275
923.532	0.0140146
923.610	0.0138984
923.688	0.0138518
923.766	0.0138628
923.844	0.0139462
923.923	0.0139452
924.001	0.0139042
924.079	0.0137945
924.157	0.0137633
924.235	0.0137067
924.313	0.0135993
924.391	0.0136553
924.469	0.0136630
924.548	0.0135316
924.626	0.0135620
924.704	0.0135111
924.782	0.0134869
924.860	0.0136161
924.938	0.0135652
925.016	0.0136572
925.094	0.0136196
925.173	0.0136927
925.251	0.0138216
925.329	0.0138873
925.407	0.0138312
925.485	0.0139405
925.563	0.0139883
925.641	0.0140376
925.719	0.0140178
925.798	0.0141930
925.876	0.0141740
925.954	0.0141957
926.032	0.0142213
926.110	0.0142357
926.188	0.0141672
926.266	0.0142229
926.344	0.0141885
926.423	0.0140899
926.501	0.0141773
926.579	0.0141067
926.657	0.0140171
926.735	0.0140295
926.813	0.0141204
926.891	0.0140646
926.969	0.0139504
927.048	0.0137790
927.126	0.0138249
927.204	0.0136672
927.282	0.0136553
927.360	0.0137790
927.438	0.0136526
927.516	0.0136411
927.594	0.0136292
927.673	0.0137816
927.751	0.0137521
927.829	0.0138406
927.907	0.0139428
927.985	0.0139967
928.063	0.0139508
928.141	0.0140749
928.219	0.0140234
928.298	0.0140420
928.376	0.0142288
928.454	0.0142259
928.532	0.0140834
928.610	0.0141040
928.688	0.0142020
928.766	0.0140289
928.844	0.0140439
928.923	0.0139697
929.001	0.0140749
929.079	0.0139381
929.157	0.0138467
929.235	0.0139437
929.313	0.0138109
929.391	0.0138345
929.469	0.0136555
929.548	0.0137119
929.626	0.0136870
929.704	0.0136787
929.782	0.0134823
929.860	0.0134064
929.938	0.0133780
930.016	0.0135681
930.094	0.0134306
930.173	0.0134023
930.251	0.0135269
930.329	0.0134931
930.407	0.0135676
930.485	0.0137519
930.563	0.0136454
930.641	0.0135735
930.719	0.0136579
930.798	0.0139034
930.876	0.0140216
930.954	0.0141087
931.032	0.0140596
931.110	0.0141674
931.188	0.0141656
931.266	0.0141051
931.344	0.0142992
931.423	0.0142322
931.501	0.0140252
931.579	0.0140256
931.657	0.0141740
931.735	0.0141138
931.813	0.0141139
931.891	0.0142442
931.969	0.0140466
932.048	0.0140808
932.126	0.0140934
932.204	0.0140675
932.282	0.0140746
932.360	0.0140337
932.438	0.0138030
932.516	0.0138880
932.594	0.0140704
932.673	0.0140594
932.751	0.0137617
932.829	0.0138632
932.907	0.0139993
932.985	0.0138589
933.063	0.0138781
933.141	0.0137964
933.219	0.0138448
933.298	0.0138289
933.376	0.0139564
933.454	0.0138811
933.532	0.0138728
933.610	0.0139488
933.688	0.0138804
933.766	0.0139494
933.844	0.0138297
933.923	0.0139228
934.001	0.0139222
934.079	0.0139082
934.157	0.0139477
934.235	0.0140102
934.313	0.0139764
934.391	0.0137879
934.469	0.0138787
934.548	0.0138108
934.626	0.0138387
934.704	0.0137408
934.782	0.0137810
934.860	0.0136890
934.938	0.0138045
935.016	0.0137753
935.094	0.0136821
935.173	0.0136815
935.251	0.0135903
935.329	0.0136279
935.407	0.0136572
935.485	0.0137586
935.563	0.0137725
935.641	0.0137548
935.719	0.0137808
935.798	0.0137773
935.876	0.0138123
935.954	0.0137682
936.032	0.0138630
936.110	0.0140112
936.188	0.0139180
936.266	0.0139096
936.344	0.0141360
936.423	0.0140443
936.501	0.0141505
936.579	0.0140714
936.657	0.0139938
936.735	0.0140871
936.813	0.0142605
936.891	0.0141895
936.969	0.0141836
937.048	0.0140706
937.126	0.0142279
937.204	0.0140414
937.282	0.0140499
937.360	0.0139616
937.438	0.0138819
937.516	0.0137268
937.594	0.0138831
937.673	0.0138123
937.751	0.0137670
937.829	0.0138823
937.907	0.0138340
937.985	0.0136461
938.063	0.0137977
938.141	0.0138898
938.219	0.0138319
938.298	0.0138391
938.376	0.0138098
938.454	0.0138478
938.532	0.0136773
938.610	0.0136946
938.688	0.0137570
938.766	0.0138725
938.844	0.0137843
938.923	0.0139339
939.001	0.0138612
939.079	0.0136860
939.157	0.0138196
939.235	0.0137125
939.313	0.0138151
939.391	0.0136594
939.469	0.0138560
939.548	0.0137732
939.626	0.0138560
939.704	0.0137375
939.782	0.0135157
939.860	0.0135378
939.938	0.0137422
940.016	0.0136647
940.094	0.0137392
940.173	0.0136302
940.251	0.0135206
940.329	0.0137401
940.407	0.0135884
940.485	0.0135194
940.563	0.0136502
940.641	0.0136946
940.719	0.0137334
940.798	0.0137076
940.876	0.0137943
940.954	0.0137471
941.032	0.0138741
941.110	0.0138709
941.188	0.0138536
941.266	0.0139711
941.344	0.0140002
941.423	0.0140292
941.501	0.0141012
941.579	0.0142500
941.657	0.0141775
941.735	0.0141673
941.813	0.0141708
941.891	0.0142741
941.969	0.0143628
942.048	0.0142348
942.126	0.0141814
942.204	0.0141145
942.282	0.0141263
942.360	0.0140544
942.438	0.0138510
942.516	0.0139226
942.594	0.0139212
942.673	0.0138175
942.751	0.0137606
942.829	0.0136505
942.907	0.0137526
942.985	0.0136681
943.063	0.0136671
943.141	0.0137872
943.219	0.0137325
943.298	0.0137734
943.376	0.0137437
943.454	0.0136977
943.532	0.0137621
943.610	0.0136410
943.688	0.0137149
943.766	0.0138148
943.844	0.0137361
943.923	0.0136607
944.001	0.0138406
944.079	0.0137389
944.157	0.0138221
944.235	0.0138896
944.313	0.0138104
944.391	0.0138629
944.469	0.0140139
944.548	0.0139622
944.626	0.0136928
944.704	0.0136451
944.782	0.0137477
944.860	0.0137208
944.938	0.0135519
945.016	0.0137624
945.094	0.0136662
945.173	0.0135954
945.251	0.0135712
945.329	0.0135747
945.407	0.0135781
945.485	0.0133660
945.563	0.0134130
945.641	0.0134538
945.719	0.0134750
945.798	0.0135400
945.876	0.0135012
945.954	0.0133511
946.032	0.0134335
946.110	0.0135728
946.188	0.0136872
946.266	0.0135870
946.344	0.0137306
946.423	0.0137721
946.501	0.0136921
946.579	0.0138390
946.657	0.0139778
946.735	0.0139436
946.813	0.0139845
946.891	0.0141033
946.969	0.0140189
947.048	0.0141118
947.126	0.0141008
947.204	0.0143234
947.282	0.0142118
947.360	0.0143120
947.438	0.0142744
947.516	0.0141978
947.594	0.0141447
947.673	0.0143483
947.751	0.0140818
947.829	0.0140482
947.907	0.0140164
947.985	0.0138932
948.063	0.0137982
948.141	0.0140508
948.219	0.0139210
948.298	0.0137714
948.376	0.0138147
948.454	0.0138292
948.532	0.0136015
948.610	0.0137295
948.688	0.0139109
948.766	0.0138563
948.844	0.0138127
948.923	0.0138908
949.001	0.0137878
949.079	0.0138188
949.157	0.0139951
949.235	0.0138385
949.313	0.0139963
949.391	0.0139319
949.469	0.0138783
949.548	0.0137894
949.626	0.0140517
949.704	0.0138438
949.782	0.0140089
949.860	0.0137807
949.938	0.0138433
950.016	0.0139014
950.094	0.0138538
950.173	0.0138593
950.251	0.0137459
950.329	0.0136737
950.407	0.0136825
950.485	0.0136474
950.563	0.0136172
950.641	0.0135737
950.719	0.0136264
950.798	0.0137000
950.876	0.0136887
950.954	0.0136421
951.032	0.0137690
951.110	0.0138288
951.188	0.0136840
951.266	0.0138486
951.344	0.0139127
951.423	0.0137649
951.501	0.0137634
951.579	0.0138659
951.657	0.0139789
951.735	0.0139001
951.813	0.0138787
951.891	0.0139925
951.969	0.0139677
952.048	0.0139557
952.126	0.0142137
952.204	0.0140540
952.282	0.0139901
952.360	0.0141108
952.438	0.0142419
952.516	0.0140270
952.594	0.0139075
952.673	0.0140006
952.751	0.0139147
952.829	0.0139278
952.907	0.0140193
952.985	0.0139170
953.063	0.0138206
953.141	0.0138311
953.219	0.0137966
953.298	0.0138311
953.376	0.0137709
953.454	0.0138165
953.532	0.0138503
953.610	0.0139477
953.688	0.0138284
953.766	0.0137138
953.844	0.0136858
953.923	0.0137205
954.001	0.0137542
954.079	0.0138226
954.157	0.0137162
954.235	0.0137772
954.313	0.0138221
954.391	0.0139721
954.469	0.0138771
954.548	0.0138269
954.626	0.0139368
954.704	0.0140276
954.782	0.0141413
954.860	0.0141477
954.938	0.0139418
955.016	0.0140256
955.094	0.0137845
955.173	0.0138378
955.251	0.0139462
955.329	0.0138773
955.407	0.0139258
955.485	0.0139806
955.563	0.0137491
955.641	0.0138810
955.719	0.0138438
955.798	0.0136896
955.876	0.0138811
955.954	0.0138267
956.032	0.0138000
956.110	0.0137919
956.188	0.0137175
956.266	0.0136494
956.344	0.0136324
956.423	0.0137209
956.501	0.0137600
956.579	0.0139207
956.657	0.0138391
956.735	0.0138961
956.813	0.0140115
956.891	0.0138857
956.969	0.0139975
957.048	0.0139699
957.126	0.0141633
957.204	0.0141084
957.282	0.0141222
957.360	0.0140910
957.438	0.0141869
957.516	0.0140778
957.594	0.0141089
957.673	0.0143011
957.751	0.0139928
957.829	0.0140524
957.907	0.0140345
957.985	0.0140627
958.063	0.0141244
958.141	0.0140440
958.219	0.0139633
958.298	0.0140026
958.376	0.0139504
958.454	0.0137794
958.532	0.0137995
958.610	0.0139014
958.688	0.0137811
958.766	0.0136053
958.844	0.0137279
958.923	0.0136778
959.001	0.0135991
959.079	0.0136404
959.157	0.0135332
959.235	0.0134524
959.313	0.0134235
959.391	0.0133105
959.469	0.0134208
959.548	0.0136309
959.626	0.0135819
959.704	0.0136063
959.782	0.0135535
959.860	0.0137042
959.938	0.0136325
960.016	0.0136968
960.094	0.0138681
960.173	0.0138255
960.251	0.0138577
960.329	0.0139440
960.407	0.0139034
960.485	0.0138880
960.563	0.0138976
960.641	0.0138170
960.719	0.0140397
960.798	0.0139327
960.876	0.0138136
960.954	0.0138302
961.032	0.0137712
961.110	0.0138065
961.188	0.0137176
961.266	0.0136104
961.344	0.0136713
961.423	0.0136935
961.501	0.0136654
961.579	0.0137666
961.657	0.0137097
961.735	0.0136554
961.813	0.0138062
961.891	0.0138874
961.969	0.0138815
962.048	0.0138794
962.126	0.0139575
962.204	0.0139742
962.282	0.0141064
962.360	0.0139983
962.438	0.0140116
962.516	0.0139191
962.594	0.0141325
962.673	0.0141475
962.751	0.0141804
962.829	0.0141200
962.907	0.0141346
962.985	0.0142174
963.063	0.0141688
963.141	0.0141949
963.219	0.0141120
963.298	0.0140359
963.376	0.0139824
963.454	0.0141464
963.532	0.0140475
963.610	0.0141210
963.688	0.0139760
963.766	0.0137752
963.844	0.0139601
963.923	0.0138367
964.001	0.0137330
964.079	0.0138204
964.157	0.0138927
964.235	0.0137501
964.313	0.0136555
964.391	0.0137989
964.469	0.0137854
964.548	0.0136637
964.626	0.0138446
964.704	0.0136819
964.782	0.0137372
964.860	0.0136764
964.938	0.0135808
965.016	0.0136115
965.094	0.0138213
965.173	0.0138609
965.251	0.0138873
965.329	0.0137968
965.407	0.0136800
965.485	0.0137448
965.563	0.0137477
965.641	0.0137278
965.719	0.0137593
965.798	0.0135945
965.876	0.0136737
965.954	0.0137901
966.032	0.0137086
966.110	0.0136388
966.188	0.0135920
966.266	0.0134389
966.344	0.0135394
966.423	0.0134496
966.501	0.0135178
966.579	0.0134534
966.657	0.0135605
966.735	0.0135234
966.813	0.0135926
966.891	0.0135708
966.969	0.0135329
967.048	0.0135574
967.126	0.0137055
967.204	0.0137022
967.282	0.0136816
967.360	0.0138115
967.438	0.0138198
967.516	0.0140187
967.594	0.0140285
967.673	0.0140086
967.751	0.0141067
967.829	0.0140716
967.907	0.0141463
967.985	0.0140919
968.063	0.0141927
968.141	0.0142061
968.219	0.0141369
968.298	0.0141285
968.376	0.0141318
968.454	0.0140822
968.532	0.0141344
968.610	0.0140343
968.688	0.0141521
968.766	0.0142224
968.844	0.0141547
968.923	0.0141029
969.001	0.0141119
969.079	0.0141171
969.157	0.0140252
969.235	0.0139880
969.313	0.0139204
969.391	0.0138967
969.469	0.0140023
969.548	0.0139436
969.626	0.0140130
969.704	0.0139831
969.782	0.0138605
969.860	0.0139841
969.938	0.0139934
