05/14/2022	19:21:55	Ver.	4.1	UNKNOWN
Optical Delay	650.016352	Delta X		0.078125	Sweeps	1	Scan Rate	0/0
Coordinates	Axis 1	NaN	Axis 2	NaN	Axis 3	NaN	Axis 4	NaN	Axis 5	NaN	Axis 6	0.000000
TX Power	0.000000	RX Power	0.000000

650.016	0.0138628
650.094	0.0138635
650.173	0.0139745
650.251	0.0138851
650.329	0.0138893
650.407	0.0138017
650.485	0.0139278
650.563	0.0139188
650.641	0.0138797
650.719	0.0138618
650.798	0.0139582
650.876	0.0139573
650.954	0.0139648
651.032	0.0139245
651.110	0.0138377
651.188	0.0138145
651.266	0.0140112
651.344	0.0139604
651.423	0.0139268
651.501	0.0139786
651.579	0.0140069
651.657	0.0139529
651.735	0.0139804
651.813	0.0139537
651.891	0.0139678
651.969	0.0140054
652.048	0.0138850
652.126	0.0138810
652.204	0.0139585
652.282	0.0140366
652.360	0.0140304
652.438	0.0139567
652.516	0.0139465
652.594	0.0140536
652.673	0.0139496
652.751	0.0139838
652.829	0.0139321
652.907	0.0139621
652.985	0.0139306
653.063	0.0139346
653.141	0.0139902
653.219	0.0139833
653.298	0.0140019
653.376	0.0139929
653.454	0.0138733
653.532	0.0139788
653.610	0.0139783
653.688	0.0140365
653.766	0.0140155
653.844	0.0139957
653.923	0.0139724
654.001	0.0138951
654.079	0.0138972
654.157	0.0139610
654.235	0.0138531
654.313	0.0138908
654.391	0.0140430
654.469	0.0138773
654.548	0.0138048
654.626	0.0139088
654.704	0.0140067
654.782	0.0139607
654.860	0.0138643
654.938	0.0140448
655.016	0.0140773
655.094	0.0138412
655.173	0.0138293
655.251	0.0138740
655.329	0.0139520
655.407	0.0138097
655.485	0.0139223
655.563	0.0140568
655.641	0.0137870
655.719	0.0138551
655.798	0.0138998
655.876	0.0138808
655.954	0.0139384
656.032	0.0139244
656.110	0.0138896
656.188	0.0138898
656.266	0.0139098
656.344	0.0137905
656.423	0.0137931
656.501	0.0137115
656.579	0.0138628
656.657	0.0137981
656.735	0.0138521
656.813	0.0139058
656.891	0.0138825
656.969	0.0138178
657.048	0.0139323
657.126	0.0139265
657.204	0.0138599
657.282	0.0138065
657.360	0.0138786
657.438	0.0138152
657.516	0.0138461
657.594	0.0138263
657.673	0.0138615
657.751	0.0136987
657.829	0.0138681
657.907	0.0138979
657.985	0.0138664
658.063	0.0138592
658.141	0.0137691
658.219	0.0138479
658.298	0.0138541
658.376	0.0137950
658.454	0.0137186
658.532	0.0138010
658.610	0.0137275
658.688	0.0137006
658.766	0.0138647
658.844	0.0137458
658.923	0.0139034
659.001	0.0138152
659.079	0.0139608
659.157	0.0138133
659.235	0.0138515
659.313	0.0138650
659.391	0.0138689
659.469	0.0138923
659.548	0.0139355
659.626	0.0138804
659.704	0.0139292
659.782	0.0138849
659.860	0.0137950
659.938	0.0137398
660.016	0.0137727
660.094	0.0138134
660.173	0.0139674
660.251	0.0137479
660.329	0.0137263
660.407	0.0138354
660.485	0.0138356
660.563	0.0137583
660.641	0.0139003
660.719	0.0138866
660.798	0.0138819
660.876	0.0137326
660.954	0.0138547
661.032	0.0138488
661.110	0.0137016
661.188	0.0138266
661.266	0.0137293
661.344	0.0137907
661.423	0.0137537
661.501	0.0137923
661.579	0.0137990
661.657	0.0137402
661.735	0.0137994
661.813	0.0139301
661.891	0.0136143
661.969	0.0137791
662.048	0.0137721
662.126	0.0137087
662.204	0.0138454
662.282	0.0138072
662.360	0.0137370
662.438	0.0137452
662.516	0.0137704
662.594	0.0137074
662.673	0.0136867
662.751	0.0137321
662.829	0.0138114
662.907	0.0137193
662.985	0.0137544
663.063	0.0138306
663.141	0.0137708
663.219	0.0138722
663.298	0.0136941
663.376	0.0137331
663.454	0.0138276
663.532	0.0138791
663.610	0.0139127
663.688	0.0137555
663.766	0.0138368
663.844	0.0137921
663.923	0.0138052
664.001	0.0136487
664.079	0.0139128
664.157	0.0138604
664.235	0.0137877
664.313	0.0137675
664.391	0.0138346
664.469	0.0138797
664.548	0.0138820
664.626	0.0137285
664.704	0.0136870
664.782	0.0136852
664.860	0.0137684
664.938	0.0138158
665.016	0.0137026
665.094	0.0138103
665.173	0.0137531
665.251	0.0138634
665.329	0.0138362
665.407	0.0139150
665.485	0.0138776
665.563	0.0138067
665.641	0.0137791
665.719	0.0136960
665.798	0.0137485
665.876	0.0138485
665.954	0.0137887
666.032	0.0138618
666.110	0.0137965
666.188	0.0138046
666.266	0.0138266
666.344	0.0137089
666.423	0.0136863
666.501	0.0138287
666.579	0.0136937
666.657	0.0137283
666.735	0.0138393
666.813	0.0139429
666.891	0.0139719
666.969	0.0138931
667.048	0.0138287
667.126	0.0139340
667.204	0.0139820
667.282	0.0138589
667.360	0.0138668
667.438	0.0137671
667.516	0.0138273
667.594	0.0139125
667.673	0.0138789
667.751	0.0138889
667.829	0.0137820
667.907	0.0139428
667.985	0.0138107
668.063	0.0136747
668.141	0.0137582
668.219	0.0136012
668.298	0.0137371
668.376	0.0137899
668.454	0.0136418
668.532	0.0136795
668.610	0.0138053
668.688	0.0137563
668.766	0.0137227
668.844	0.0137988
668.923	0.0137328
669.001	0.0137840
669.079	0.0137431
669.157	0.0138000
669.235	0.0138405
669.313	0.0138464
669.391	0.0137225
669.469	0.0137407
669.548	0.0137159
669.626	0.0137786
669.704	0.0137721
669.782	0.0137141
669.860	0.0137937
669.938	0.0137143
670.016	0.0138393
670.094	0.0137184
670.173	0.0136900
670.251	0.0137207
670.329	0.0137128
670.407	0.0137813
670.485	0.0138930
670.563	0.0136718
670.641	0.0136822
670.719	0.0137942
670.798	0.0137228
670.876	0.0137370
670.954	0.0138744
671.032	0.0137885
671.110	0.0137727
671.188	0.0137679
671.266	0.0137283
671.344	0.0138281
671.423	0.0137666
671.501	0.0138386
671.579	0.0137638
671.657	0.0137945
671.735	0.0136166
671.813	0.0137302
671.891	0.0137114
671.969	0.0137772
672.048	0.0137717
672.126	0.0136999
672.204	0.0137231
672.282	0.0136949
672.360	0.0137351
672.438	0.0137199
672.516	0.0138221
672.594	0.0136682
672.673	0.0139148
672.751	0.0138676
672.829	0.0137776
672.907	0.0137674
672.985	0.0137459
673.063	0.0137607
673.141	0.0138116
673.219	0.0138672
673.298	0.0138638
673.376	0.0137088
673.454	0.0138323
673.532	0.0138420
673.610	0.0137115
673.688	0.0138194
673.766	0.0137456
673.844	0.0137130
673.923	0.0137277
674.001	0.0138071
674.079	0.0138423
674.157	0.0139150
674.235	0.0138236
674.313	0.0138898
674.391	0.0139756
674.469	0.0138541
674.548	0.0138432
674.626	0.0140037
674.704	0.0138306
674.782	0.0137334
674.860	0.0136809
674.938	0.0134835
675.016	0.0134295
675.094	0.0134066
675.173	0.0132446
675.251	0.0131854
675.329	0.0133179
675.407	0.0135456
675.485	0.0135068
675.563	0.0138747
675.641	0.0139762
675.719	0.0140631
675.798	0.0142751
675.876	0.0145701
675.954	0.0146918
676.032	0.0147372
676.110	0.0145844
676.188	0.0144650
676.266	0.0144308
676.344	0.0142072
676.423	0.0139703
676.501	0.0137805
676.579	0.0135831
676.657	0.0134103
676.735	0.0132276
676.813	0.0131248
676.891	0.0130606
676.969	0.0129830
677.048	0.0130878
677.126	0.0131242
677.204	0.0131929
677.282	0.0132806
677.360	0.0133536
677.438	0.0134487
677.516	0.0134857
677.594	0.0135658
677.673	0.0135630
677.751	0.0135236
677.829	0.0138409
677.907	0.0139017
677.985	0.0139504
678.063	0.0142300
678.141	0.0144556
678.219	0.0145381
678.298	0.0147222
678.376	0.0149130
678.454	0.0149731
678.532	0.0149327
678.610	0.0150824
678.688	0.0148906
678.766	0.0148772
678.844	0.0147875
678.923	0.0147878
679.001	0.0147765
679.079	0.0144530
679.157	0.0144058
679.235	0.0141593
679.313	0.0139268
679.391	0.0137492
679.469	0.0136113
679.548	0.0132352
679.626	0.0129644
679.704	0.0128043
679.782	0.0126627
679.860	0.0123555
679.938	0.0120624
680.016	0.0120898
680.094	0.0119017
680.173	0.0120483
680.251	0.0120471
680.329	0.0123524
680.407	0.0126444
680.485	0.0128025
680.563	0.0131425
680.641	0.0134652
680.719	0.0139413
680.798	0.0143645
680.876	0.0147346
680.954	0.0152067
681.032	0.0155746
681.110	0.0157270
681.188	0.0159937
681.266	0.0160558
681.344	0.0160020
681.423	0.0160171
681.501	0.0160073
681.579	0.0159759
681.657	0.0157904
681.735	0.0155733
681.813	0.0152733
681.891	0.0151261
681.969	0.0149413
682.048	0.0146765
682.126	0.0143318
682.204	0.0141310
682.282	0.0139783
682.360	0.0136514
682.438	0.0133379
682.516	0.0129535
682.594	0.0125616
682.673	0.0122604
682.751	0.0117840
682.829	0.0116235
682.907	0.0113683
682.985	0.0111286
683.063	0.0110239
683.141	0.0108746
683.219	0.0109304
683.298	0.0111654
683.376	0.0116496
683.454	0.0121236
683.532	0.0124966
683.610	0.0130796
683.688	0.0135981
683.766	0.0140833
683.844	0.0146534
683.923	0.0149847
684.001	0.0152370
684.079	0.0154398
684.157	0.0156577
684.235	0.0157166
684.313	0.0156715
684.391	0.0157775
684.469	0.0158005
684.548	0.0158971
684.626	0.0157819
684.704	0.0156519
684.782	0.0156220
684.860	0.0155815
684.938	0.0155771
685.016	0.0155041
685.094	0.0154221
685.173	0.0152334
685.251	0.0150185
685.329	0.0148647
685.407	0.0145032
685.485	0.0141894
685.563	0.0136181
685.641	0.0133660
685.719	0.0129211
685.798	0.0125267
685.876	0.0123233
685.954	0.0118777
686.032	0.0117077
686.110	0.0114877
686.188	0.0113334
686.266	0.0113603
686.344	0.0114602
686.423	0.0115462
686.501	0.0117464
686.579	0.0120136
686.657	0.0123502
686.735	0.0126881
686.813	0.0134069
686.891	0.0138219
686.969	0.0143484
687.048	0.0147295
687.126	0.0150918
687.204	0.0152124
687.282	0.0152807
687.360	0.0155115
687.438	0.0153773
687.516	0.0153046
687.594	0.0148528
687.673	0.0145824
687.751	0.0142262
687.829	0.0138206
687.907	0.0134207
687.985	0.0132026
688.063	0.0130843
688.141	0.0128841
688.219	0.0127222
688.298	0.0127826
688.376	0.0128245
688.454	0.0130273
688.532	0.0132230
688.610	0.0134787
688.688	0.0134995
688.766	0.0138653
688.844	0.0139484
688.923	0.0141417
689.001	0.0144514
689.079	0.0146626
689.157	0.0146310
689.235	0.0148036
689.313	0.0150068
689.391	0.0149801
689.469	0.0148586
689.548	0.0148843
689.626	0.0150360
689.704	0.0150047
689.782	0.0150026
689.860	0.0149318
689.938	0.0148102
690.016	0.0148772
690.094	0.0147636
690.173	0.0146032
690.251	0.0144849
690.329	0.0141778
690.407	0.0139291
690.485	0.0138435
690.563	0.0135295
690.641	0.0131593
690.719	0.0129081
690.798	0.0127915
690.876	0.0124860
690.954	0.0123669
691.032	0.0120692
691.110	0.0120778
691.188	0.0119371
691.266	0.0119720
691.344	0.0118618
691.423	0.0120085
691.501	0.0121025
691.579	0.0122691
691.657	0.0123234
691.735	0.0123826
691.813	0.0124609
691.891	0.0125108
691.969	0.0127160
692.048	0.0129564
692.126	0.0132552
692.204	0.0134427
692.282	0.0137016
692.360	0.0138840
692.438	0.0143592
692.516	0.0144778
692.594	0.0146028
692.673	0.0146968
692.751	0.0146902
692.829	0.0146690
692.907	0.0148068
692.985	0.0147201
693.063	0.0148034
693.141	0.0148787
693.219	0.0147385
693.298	0.0148122
693.376	0.0149782
693.454	0.0149425
693.532	0.0150466
693.610	0.0150845
693.688	0.0152984
693.766	0.0153920
693.844	0.0155785
693.923	0.0156277
694.001	0.0155890
694.079	0.0154572
694.157	0.0154955
694.235	0.0152106
694.313	0.0150666
694.391	0.0149176
694.469	0.0145403
694.548	0.0143296
694.626	0.0138786
694.704	0.0135895
694.782	0.0132782
694.860	0.0129283
694.938	0.0127220
695.016	0.0125529
695.094	0.0123652
695.173	0.0124315
695.251	0.0125004
695.329	0.0124924
695.407	0.0124981
695.485	0.0125733
695.563	0.0126013
695.641	0.0127324
695.719	0.0128269
695.798	0.0127513
695.876	0.0127888
695.954	0.0126864
696.032	0.0126206
696.110	0.0125381
696.188	0.0124168
696.266	0.0124409
696.344	0.0125185
696.423	0.0123824
696.501	0.0125117
696.579	0.0124352
696.657	0.0125426
696.735	0.0126314
696.813	0.0128038
696.891	0.0129462
696.969	0.0129633
697.048	0.0130637
697.126	0.0134459
697.204	0.0133919
697.282	0.0136869
697.360	0.0138940
697.438	0.0141065
697.516	0.0143626
697.594	0.0145554
697.673	0.0149081
697.751	0.0152182
697.829	0.0155931
697.907	0.0158813
697.985	0.0162640
698.063	0.0164577
698.141	0.0165926
698.219	0.0167180
698.298	0.0166233
698.376	0.0163863
698.454	0.0164587
698.532	0.0162884
698.610	0.0157816
698.688	0.0153836
698.766	0.0151185
698.844	0.0147616
698.923	0.0143449
699.001	0.0139025
699.079	0.0134653
699.157	0.0133336
699.235	0.0129858
699.313	0.0127849
699.391	0.0126832
699.469	0.0124275
699.548	0.0122806
699.626	0.0123763
699.704	0.0124356
699.782	0.0125371
699.860	0.0126443
699.938	0.0129126
700.016	0.0130612
700.094	0.0131187
700.173	0.0134052
700.251	0.0135811
700.329	0.0138052
700.407	0.0137347
700.485	0.0138837
700.563	0.0139823
700.641	0.0140948
700.719	0.0140616
700.798	0.0140955
700.876	0.0139351
700.954	0.0138840
701.032	0.0138461
701.110	0.0136745
701.188	0.0133683
701.266	0.0131349
701.344	0.0131667
701.423	0.0127893
701.501	0.0126733
701.579	0.0124964
701.657	0.0125967
701.735	0.0123741
701.813	0.0122495
701.891	0.0122584
701.969	0.0123151
702.048	0.0125424
702.126	0.0125244
702.204	0.0125903
702.282	0.0124747
702.360	0.0125858
702.438	0.0126569
702.516	0.0126407
702.594	0.0128300
702.673	0.0126601
702.751	0.0129375
702.829	0.0129290
702.907	0.0132173
702.985	0.0136037
703.063	0.0139604
703.141	0.0142424
703.219	0.0146058
703.298	0.0150780
703.376	0.0152799
703.454	0.0156349
703.532	0.0159722
703.610	0.0160563
703.688	0.0161922
703.766	0.0163132
703.844	0.0164939
703.923	0.0165891
704.001	0.0164918
704.079	0.0164291
704.157	0.0164697
704.235	0.0164263
704.313	0.0163259
704.391	0.0162030
704.469	0.0161813
704.548	0.0159850
704.626	0.0158214
704.704	0.0156224
704.782	0.0152783
704.860	0.0151460
704.938	0.0146269
705.016	0.0141478
705.094	0.0139104
705.173	0.0135491
705.251	0.0132686
705.329	0.0127834
705.407	0.0124917
705.485	0.0123154
705.563	0.0121432
705.641	0.0119232
705.719	0.0118531
705.798	0.0117934
705.876	0.0116560
705.954	0.0118208
706.032	0.0118510
706.110	0.0120432
706.188	0.0120714
706.266	0.0120509
706.344	0.0122139
706.423	0.0123875
706.501	0.0124364
706.579	0.0126059
706.657	0.0126935
706.735	0.0126501
706.813	0.0126678
706.891	0.0125748
706.969	0.0125948
707.048	0.0126096
707.126	0.0125701
707.204	0.0125741
707.282	0.0123461
707.360	0.0123217
707.438	0.0124343
707.516	0.0123467
707.594	0.0123486
707.673	0.0124884
707.751	0.0125195
707.829	0.0125455
707.907	0.0127728
707.985	0.0129154
708.063	0.0130765
708.141	0.0135485
708.219	0.0138572
708.298	0.0139697
708.376	0.0142146
708.454	0.0146770
708.532	0.0150175
708.610	0.0152161
708.688	0.0154004
708.766	0.0158086
708.844	0.0158952
708.923	0.0162752
709.001	0.0164021
709.079	0.0166217
709.157	0.0166458
709.235	0.0170174
709.313	0.0171021
709.391	0.0172729
709.469	0.0173032
709.548	0.0172792
709.626	0.0173371
709.704	0.0172787
709.782	0.0171999
709.860	0.0171527
709.938	0.0168848
710.016	0.0167557
710.094	0.0165382
710.173	0.0161649
710.251	0.0160549
710.329	0.0156196
710.407	0.0152634
710.485	0.0150172
710.563	0.0148242
710.641	0.0143468
710.719	0.0139804
710.798	0.0134507
710.876	0.0132428
710.954	0.0126517
711.032	0.0120315
711.110	0.0117551
711.188	0.0113111
711.266	0.0108109
711.344	0.0104064
711.423	0.0101132
711.501	0.00967682
711.579	0.00941795
711.657	0.00901573
711.735	0.00916512
711.813	0.00896645
711.891	0.00911850
711.969	0.00917313
712.048	0.00959602
712.126	0.00976669
712.204	0.0100983
712.282	0.0108069
712.360	0.0113999
712.438	0.0119357
712.516	0.0124995
712.594	0.0129726
712.673	0.0135991
712.751	0.0139473
712.829	0.0144150
712.907	0.0146493
712.985	0.0149373
713.063	0.0151881
713.141	0.0151231
713.219	0.0151305
713.298	0.0153191
713.376	0.0151664
713.454	0.0151009
713.532	0.0150045
713.610	0.0148759
713.688	0.0147603
713.766	0.0148627
713.844	0.0150021
713.923	0.0147421
714.001	0.0146900
714.079	0.0146861
714.157	0.0147792
714.235	0.0147923
714.313	0.0149873
714.391	0.0150474
714.469	0.0151654
714.548	0.0154278
714.626	0.0156857
714.704	0.0159102
714.782	0.0161744
714.860	0.0163313
714.938	0.0164397
715.016	0.0165209
715.094	0.0166882
715.173	0.0166742
715.251	0.0166357
715.329	0.0164352
715.407	0.0162209
715.485	0.0157842
715.563	0.0156200
715.641	0.0153065
715.719	0.0150986
715.798	0.0147880
715.876	0.0145406
715.954	0.0145846
716.032	0.0143793
716.110	0.0142844
716.188	0.0143475
716.266	0.0143584
716.344	0.0142552
716.423	0.0141117
716.501	0.0138387
716.579	0.0136519
716.657	0.0132910
716.735	0.0128191
716.813	0.0123203
716.891	0.0117587
716.969	0.0111460
717.048	0.0106882
717.126	0.0101912
717.204	0.00974411
717.282	0.00947075
717.360	0.00906227
717.438	0.00907028
717.516	0.00911522
717.594	0.00925835
717.673	0.00955490
717.751	0.00981079
717.829	0.0102599
717.907	0.0110334
717.985	0.0115465
718.063	0.0122351
718.141	0.0129218
718.219	0.0136054
718.298	0.0140785
718.376	0.0146583
718.454	0.0151270
718.532	0.0155914
718.610	0.0159267
718.688	0.0161556
718.766	0.0161751
718.844	0.0163064
718.923	0.0160523
719.001	0.0157652
719.079	0.0154926
719.157	0.0151737
719.235	0.0148929
719.313	0.0144727
719.391	0.0141325
719.469	0.0140081
719.548	0.0138040
719.626	0.0136771
719.704	0.0135873
719.782	0.0136330
719.860	0.0137222
719.938	0.0138930
720.016	0.0139198
720.094	0.0141323
720.173	0.0142979
720.251	0.0144290
720.329	0.0143991
720.407	0.0145885
720.485	0.0147389
720.563	0.0147994
720.641	0.0147958
720.719	0.0150714
720.798	0.0149437
720.876	0.0148746
720.954	0.0149670
721.032	0.0149817
721.110	0.0151489
721.188	0.0150816
721.266	0.0151472
721.344	0.0149637
721.423	0.0151145
721.501	0.0149664
721.579	0.0149495
721.657	0.0149647
721.735	0.0151342
721.813	0.0151060
721.891	0.0151122
721.969	0.0151979
722.048	0.0152410
722.126	0.0153394
722.204	0.0154637
722.282	0.0153194
722.360	0.0151841
722.438	0.0149038
722.516	0.0147225
722.594	0.0143327
722.673	0.0140016
722.751	0.0135883
722.829	0.0131412
722.907	0.0126139
722.985	0.0120081
723.063	0.0114516
723.141	0.0111195
723.219	0.0105717
723.298	0.0102016
723.376	0.0100939
723.454	0.0100035
723.532	0.0100034
723.610	0.00992661
723.688	0.0101731
723.766	0.0105443
723.844	0.0109093
723.923	0.0112453
724.001	0.0117239
724.079	0.0122257
724.157	0.0126834
724.235	0.0131528
724.313	0.0135403
724.391	0.0137193
724.469	0.0141174
724.548	0.0143015
724.626	0.0144952
724.704	0.0144159
724.782	0.0144615
724.860	0.0143860
724.938	0.0141165
725.016	0.0139149
725.094	0.0137072
725.173	0.0136017
725.251	0.0133909
725.329	0.0131911
725.407	0.0130920
725.485	0.0130850
725.563	0.0130925
725.641	0.0129079
725.719	0.0132369
725.798	0.0134931
725.876	0.0137946
725.954	0.0141301
726.032	0.0142245
726.110	0.0144720
726.188	0.0146360
726.266	0.0148623
726.344	0.0150824
726.423	0.0152255
726.501	0.0153180
726.579	0.0154567
726.657	0.0155054
726.735	0.0155016
726.813	0.0155022
726.891	0.0157385
726.969	0.0157527
727.048	0.0159151
727.126	0.0159116
727.204	0.0160558
727.282	0.0159336
727.360	0.0159842
727.438	0.0159071
727.516	0.0159035
727.594	0.0158967
727.673	0.0157563
727.751	0.0159461
727.829	0.0160106
727.907	0.0159346
727.985	0.0157199
728.063	0.0156706
728.141	0.0157906
728.219	0.0155578
728.298	0.0156355
728.376	0.0155834
728.454	0.0154591
728.532	0.0149562
728.610	0.0147328
728.688	0.0144590
728.766	0.0139683
728.844	0.0135389
728.923	0.0131643
729.001	0.0126328
729.079	0.0124040
729.157	0.0117815
729.235	0.0114204
729.313	0.0110331
729.391	0.0108000
729.469	0.0105359
729.548	0.0105750
729.626	0.0103699
729.704	0.0102345
729.782	0.0103087
729.860	0.0103223
729.938	0.0104584
730.016	0.0107377
730.094	0.0109113
730.173	0.0110388
730.251	0.0113037
730.329	0.0115210
730.407	0.0116560
730.485	0.0119011
730.563	0.0121662
730.641	0.0125579
730.719	0.0125677
730.798	0.0127991
730.876	0.0131874
730.954	0.0133157
731.032	0.0132428
731.110	0.0135384
731.188	0.0134770
731.266	0.0135767
731.344	0.0136995
731.423	0.0137926
731.501	0.0141258
731.579	0.0140616
731.657	0.0141000
731.735	0.0142994
731.813	0.0145009
731.891	0.0147702
731.969	0.0150352
732.048	0.0151385
732.126	0.0153912
732.204	0.0155478
732.282	0.0157767
732.360	0.0159698
732.438	0.0161693
732.516	0.0163810
732.594	0.0165001
732.673	0.0164993
732.751	0.0166067
732.829	0.0168045
732.907	0.0167850
732.985	0.0167712
733.063	0.0166180
733.141	0.0166917
733.219	0.0166825
733.298	0.0165873
733.376	0.0164914
733.454	0.0163285
733.532	0.0160403
733.610	0.0160107
733.688	0.0159958
733.766	0.0159090
733.844	0.0155841
733.923	0.0154239
734.001	0.0153646
734.079	0.0151680
734.157	0.0151405
734.235	0.0149052
734.313	0.0148176
734.391	0.0146447
734.469	0.0144621
734.548	0.0142488
734.626	0.0139738
734.704	0.0136729
734.782	0.0132401
734.860	0.0129247
734.938	0.0125792
735.016	0.0121441
735.094	0.0116499
735.173	0.0114869
735.251	0.0109815
735.329	0.0107707
735.407	0.0104796
735.485	0.0103156
735.563	0.0102899
735.641	0.0103687
735.719	0.0103997
735.798	0.0104280
735.876	0.0105350
735.954	0.0106860
736.032	0.0107724
736.110	0.0110026
736.188	0.0111426
736.266	0.0113581
736.344	0.0116066
736.423	0.0117984
736.501	0.0119978
736.579	0.0123679
736.657	0.0124445
736.735	0.0126779
736.813	0.0130327
736.891	0.0132527
736.969	0.0134830
737.048	0.0137782
737.126	0.0139679
737.204	0.0141969
737.282	0.0142303
737.360	0.0144579
737.438	0.0146941
737.516	0.0147621
737.594	0.0149745
737.673	0.0148653
737.751	0.0148266
737.829	0.0149856
737.907	0.0151427
737.985	0.0152348
738.063	0.0152317
738.141	0.0151974
738.219	0.0153181
738.298	0.0153910
738.376	0.0154734
738.454	0.0154443
738.532	0.0155814
738.610	0.0156664
738.688	0.0157883
738.766	0.0157768
738.844	0.0158102
738.923	0.0157863
739.001	0.0158073
739.079	0.0157643
739.157	0.0158962
739.235	0.0159012
739.313	0.0157915
739.391	0.0157441
739.469	0.0154689
739.548	0.0154382
739.626	0.0153223
739.704	0.0152847
739.782	0.0151421
739.860	0.0152107
739.938	0.0150187
740.016	0.0150414
740.094	0.0148164
740.173	0.0146800
740.251	0.0145244
740.329	0.0143446
740.407	0.0144045
740.485	0.0143297
740.563	0.0140556
740.641	0.0138911
740.719	0.0136895
740.798	0.0135378
740.876	0.0133443
740.954	0.0131288
741.032	0.0128223
741.110	0.0125007
741.188	0.0123854
741.266	0.0119779
741.344	0.0118197
741.423	0.0117689
741.501	0.0116074
741.579	0.0113957
741.657	0.0114463
741.735	0.0111932
741.813	0.0112209
741.891	0.0113253
741.969	0.0113191
742.048	0.0112462
742.126	0.0112070
742.204	0.0113180
742.282	0.0114149
742.360	0.0115610
742.438	0.0114906
742.516	0.0117568
742.594	0.0118512
742.673	0.0119930
742.751	0.0122909
742.829	0.0122777
742.907	0.0124290
742.985	0.0126530
743.063	0.0128594
743.141	0.0131005
743.219	0.0132114
743.298	0.0133292
743.376	0.0134708
743.454	0.0137887
743.532	0.0140697
743.610	0.0143425
743.688	0.0143653
743.766	0.0145287
743.844	0.0148163
743.923	0.0147265
744.001	0.0148785
744.079	0.0151517
744.157	0.0151715
744.235	0.0151749
744.313	0.0151488
744.391	0.0152393
744.469	0.0153001
744.548	0.0153269
744.626	0.0153500
744.704	0.0154108
744.782	0.0154882
744.860	0.0153082
744.938	0.0154083
745.016	0.0152867
745.094	0.0151973
745.173	0.0152208
745.251	0.0151768
745.329	0.0152419
745.407	0.0150479
745.485	0.0149486
745.563	0.0150604
745.641	0.0147845
745.719	0.0149175
745.798	0.0147827
745.876	0.0147009
745.954	0.0148122
746.032	0.0148011
746.110	0.0147257
746.188	0.0146534
746.266	0.0147330
746.344	0.0145949
746.423	0.0144947
746.501	0.0146214
746.579	0.0144581
746.657	0.0142671
746.735	0.0139746
746.813	0.0139240
746.891	0.0138552
746.969	0.0135392
747.048	0.0134383
747.126	0.0131697
747.204	0.0128984
747.282	0.0128167
747.360	0.0126701
747.438	0.0126434
747.516	0.0125303
747.594	0.0124097
747.673	0.0125730
747.751	0.0125671
747.829	0.0126033
747.907	0.0126530
747.985	0.0125587
748.063	0.0125864
748.141	0.0126511
748.219	0.0125786
748.298	0.0125233
748.376	0.0124730
748.454	0.0123501
748.532	0.0124348
748.610	0.0122730
748.688	0.0123600
748.766	0.0122005
748.844	0.0121996
748.923	0.0122085
749.001	0.0122339
749.079	0.0120911
749.157	0.0123165
749.235	0.0125390
749.313	0.0126342
749.391	0.0127241
749.469	0.0128271
749.548	0.0130528
749.626	0.0133266
749.704	0.0134148
749.782	0.0135505
749.860	0.0136600
749.938	0.0140364
750.016	0.0140685
750.094	0.0143469
750.173	0.0144218
750.251	0.0145576
750.329	0.0147151
750.407	0.0146555
750.485	0.0147935
750.563	0.0148390
750.641	0.0148726
750.719	0.0149164
750.798	0.0150740
750.876	0.0151234
750.954	0.0151894
751.032	0.0149698
751.110	0.0149618
751.188	0.0150452
751.266	0.0150438
751.344	0.0147827
751.423	0.0149072
751.501	0.0147318
751.579	0.0147886
751.657	0.0146034
751.735	0.0146299
751.813	0.0146794
751.891	0.0144753
751.969	0.0146188
752.048	0.0144563
752.126	0.0143506
752.204	0.0144306
752.282	0.0144557
752.360	0.0144669
752.438	0.0145022
752.516	0.0143920
752.594	0.0142595
752.673	0.0144466
752.751	0.0144182
752.829	0.0143331
752.907	0.0141848
752.985	0.0139908
753.063	0.0138747
753.141	0.0138754
753.219	0.0137503
753.298	0.0137030
753.376	0.0135504
753.454	0.0132542
753.532	0.0132722
753.610	0.0133804
753.688	0.0133567
753.766	0.0132558
753.844	0.0133142
753.923	0.0131559
754.001	0.0130930
754.079	0.0132043
754.157	0.0132583
754.235	0.0132784
754.313	0.0131567
754.391	0.0130856
754.469	0.0131824
754.548	0.0131527
754.626	0.0131478
754.704	0.0133459
754.782	0.0131766
754.860	0.0131052
754.938	0.0130576
755.016	0.0131060
755.094	0.0130767
755.173	0.0129836
755.251	0.0129259
755.329	0.0130580
755.407	0.0132493
755.485	0.0131274
755.563	0.0132000
755.641	0.0132515
755.719	0.0130971
755.798	0.0131995
755.876	0.0135670
755.954	0.0133717
756.032	0.0133224
756.110	0.0133160
756.188	0.0135426
756.266	0.0134834
756.344	0.0134579
756.423	0.0135335
756.501	0.0136211
756.579	0.0135217
756.657	0.0136324
756.735	0.0136394
756.813	0.0137856
756.891	0.0138614
756.969	0.0139631
757.048	0.0141077
757.126	0.0141070
757.204	0.0141354
757.282	0.0144234
757.360	0.0144253
757.438	0.0144682
757.516	0.0145406
757.594	0.0145654
757.673	0.0145650
757.751	0.0147402
757.829	0.0147608
757.907	0.0146185
757.985	0.0146539
758.063	0.0147263
758.141	0.0146562
758.219	0.0146909
758.298	0.0146677
758.376	0.0146693
758.454	0.0146422
758.532	0.0145679
758.610	0.0146101
758.688	0.0144528
758.766	0.0145499
758.844	0.0143359
758.923	0.0143365
759.001	0.0141920
759.079	0.0142524
759.157	0.0142179
759.235	0.0140726
759.313	0.0141929
759.391	0.0141500
759.469	0.0140884
759.548	0.0142216
759.626	0.0142534
759.704	0.0142589
759.782	0.0142099
759.860	0.0142451
759.938	0.0143209
760.016	0.0143035
760.094	0.0141285
760.173	0.0140470
760.251	0.0140185
760.329	0.0140318
760.407	0.0141099
760.485	0.0139066
760.563	0.0138100
760.641	0.0137864
760.719	0.0137173
760.798	0.0135471
760.876	0.0134766
760.954	0.0133963
761.032	0.0132148
761.110	0.0132457
761.188	0.0133566
761.266	0.0132787
761.344	0.0129716
761.423	0.0131037
761.501	0.0132083
761.579	0.0131044
761.657	0.0130067
761.735	0.0131932
761.813	0.0131956
761.891	0.0130061
761.969	0.0131891
762.048	0.0131486
762.126	0.0131473
762.204	0.0131451
762.282	0.0132816
762.360	0.0133476
762.438	0.0132430
762.516	0.0131875
762.594	0.0132476
762.673	0.0131098
762.751	0.0133846
762.829	0.0132395
762.907	0.0131339
762.985	0.0130202
763.063	0.0132001
763.141	0.0131416
763.219	0.0131823
763.298	0.0131759
763.376	0.0132203
763.454	0.0133804
763.532	0.0132844
763.610	0.0134212
763.688	0.0135151
763.766	0.0136083
763.844	0.0138017
763.923	0.0138544
764.001	0.0138753
764.079	0.0141403
764.157	0.0141067
764.235	0.0143598
764.313	0.0143897
764.391	0.0144421
764.469	0.0143882
764.548	0.0145282
764.626	0.0145042
764.704	0.0145319
764.782	0.0146466
764.860	0.0144917
764.938	0.0144358
765.016	0.0144257
765.094	0.0144631
765.173	0.0143420
765.251	0.0143067
765.329	0.0141163
765.407	0.0143140
765.485	0.0142172
765.563	0.0142681
765.641	0.0140422
765.719	0.0141982
765.798	0.0140489
765.876	0.0140995
765.954	0.0141886
766.032	0.0142148
766.110	0.0142801
766.188	0.0144083
766.266	0.0142804
766.344	0.0142854
766.423	0.0142458
766.501	0.0142857
766.579	0.0141284
766.657	0.0142096
766.735	0.0140800
766.813	0.0139486
766.891	0.0139455
766.969	0.0138443
767.048	0.0137002
767.126	0.0136755
767.204	0.0136697
767.282	0.0137479
767.360	0.0136222
767.438	0.0133424
767.516	0.0135094
767.594	0.0133765
767.673	0.0133587
767.751	0.0132096
767.829	0.0132693
767.907	0.0132566
767.985	0.0131895
768.063	0.0131834
768.141	0.0130137
768.219	0.0131040
768.298	0.0131068
768.376	0.0131517
768.454	0.0131380
768.532	0.0130922
768.610	0.0130775
768.688	0.0131133
768.766	0.0131051
768.844	0.0131668
768.923	0.0132155
769.001	0.0131439
769.079	0.0129725
769.157	0.0130296
769.235	0.0129565
769.313	0.0131487
769.391	0.0131313
769.469	0.0130782
769.548	0.0130971
769.626	0.0129385
769.704	0.0130872
769.782	0.0131017
769.860	0.0131550
769.938	0.0133022
770.016	0.0133841
770.094	0.0133627
770.173	0.0133817
770.251	0.0135181
770.329	0.0136432
770.407	0.0137771
770.485	0.0137980
770.563	0.0138693
770.641	0.0140009
770.719	0.0140130
770.798	0.0140907
770.876	0.0141792
770.954	0.0142583
771.032	0.0142490
771.110	0.0142876
771.188	0.0142925
771.266	0.0143071
771.344	0.0142478
771.423	0.0142760
771.501	0.0141450
771.579	0.0143910
771.657	0.0143321
771.735	0.0142390
771.813	0.0142377
771.891	0.0143365
771.969	0.0141905
772.048	0.0144331
772.126	0.0143804
772.204	0.0143702
772.282	0.0142751
772.360	0.0143246
772.438	0.0143938
772.516	0.0142764
772.594	0.0144183
772.673	0.0143871
772.751	0.0144662
772.829	0.0144910
772.907	0.0143668
772.985	0.0143804
773.063	0.0143536
773.141	0.0142533
773.219	0.0141770
773.298	0.0142306
773.376	0.0141547
773.454	0.0139770
773.532	0.0140582
773.610	0.0139411
773.688	0.0138873
773.766	0.0138541
773.844	0.0137634
773.923	0.0136266
774.001	0.0135409
774.079	0.0136127
774.157	0.0134866
774.235	0.0135682
774.313	0.0134735
774.391	0.0134408
774.469	0.0132903
774.548	0.0133559
774.626	0.0134202
774.704	0.0135007
774.782	0.0134492
774.860	0.0135419
774.938	0.0134821
775.016	0.0134209
775.094	0.0137073
775.173	0.0136268
775.251	0.0135043
775.329	0.0135588
775.407	0.0136635
775.485	0.0134724
775.563	0.0134483
775.641	0.0134697
775.719	0.0133594
775.798	0.0133964
775.876	0.0134466
775.954	0.0133150
776.032	0.0133733
776.110	0.0133778
776.188	0.0132681
776.266	0.0130770
776.344	0.0130370
776.423	0.0130801
776.501	0.0132871
776.579	0.0133065
776.657	0.0132497
776.735	0.0133509
776.813	0.0134731
776.891	0.0136166
776.969	0.0135918
777.048	0.0136987
777.126	0.0138456
777.204	0.0138807
777.282	0.0138746
777.360	0.0140893
777.438	0.0140681
777.516	0.0141506
777.594	0.0140888
777.673	0.0141616
777.751	0.0142965
777.829	0.0142986
777.907	0.0143865
777.985	0.0144374
778.063	0.0145165
778.141	0.0144827
778.219	0.0145156
778.298	0.0144906
778.376	0.0144727
778.454	0.0144364
778.532	0.0143817
778.610	0.0144065
778.688	0.0143825
778.766	0.0142939
778.844	0.0143790
778.923	0.0142500
779.001	0.0142090
779.079	0.0141122
779.157	0.0139333
779.235	0.0139790
779.313	0.0138396
779.391	0.0137508
779.469	0.0139650
779.548	0.0138954
779.626	0.0137254
779.704	0.0138131
779.782	0.0138870
779.860	0.0139388
779.938	0.0137150
780.016	0.0139501
780.094	0.0139770
780.173	0.0139027
780.251	0.0139799
780.329	0.0139825
780.407	0.0141141
780.485	0.0140170
780.563	0.0139488
780.641	0.0140595
780.719	0.0141621
780.798	0.0140586
780.876	0.0142399
780.954	0.0143604
781.032	0.0140993
781.110	0.0139391
781.188	0.0137768
781.266	0.0138601
781.344	0.0139284
781.423	0.0138495
781.501	0.0138155
781.579	0.0137360
781.657	0.0135788
781.735	0.0133826
781.813	0.0134457
781.891	0.0132379
781.969	0.0132737
782.048	0.0131045
782.126	0.0131225
782.204	0.0130574
782.282	0.0132519
782.360	0.0130870
782.438	0.0132607
782.516	0.0132984
782.594	0.0132417
782.673	0.0133143
782.751	0.0131828
782.829	0.0134535
782.907	0.0134271
782.985	0.0135316
783.063	0.0136164
783.141	0.0135699
783.219	0.0136318
783.298	0.0137103
783.376	0.0136017
783.454	0.0137707
783.532	0.0137601
783.610	0.0137438
783.688	0.0140195
783.766	0.0139285
783.844	0.0138548
783.923	0.0140076
784.001	0.0140243
784.079	0.0138454
784.157	0.0138537
784.235	0.0140364
784.313	0.0139763
784.391	0.0141130
784.469	0.0140051
784.548	0.0140253
784.626	0.0140176
784.704	0.0140739
784.782	0.0140726
784.860	0.0139597
784.938	0.0141600
785.016	0.0140278
785.094	0.0140063
785.173	0.0140017
785.251	0.0139674
785.329	0.0139816
785.407	0.0139746
785.485	0.0141286
785.563	0.0138325
785.641	0.0138587
785.719	0.0138564
785.798	0.0139236
785.876	0.0139312
785.954	0.0138873
786.032	0.0138739
786.110	0.0138577
786.188	0.0137849
786.266	0.0138223
786.344	0.0136866
786.423	0.0137968
786.501	0.0136626
786.579	0.0138953
786.657	0.0137381
786.735	0.0138191
786.813	0.0137691
786.891	0.0138078
786.969	0.0139385
787.048	0.0139123
787.126	0.0138779
787.204	0.0138119
787.282	0.0138097
787.360	0.0139484
787.438	0.0140773
787.516	0.0140685
787.594	0.0139623
787.673	0.0138835
787.751	0.0139067
787.829	0.0137408
787.907	0.0138161
787.985	0.0137127
788.063	0.0136588
788.141	0.0136994
788.219	0.0137017
788.298	0.0136213
788.376	0.0135411
788.454	0.0135792
788.532	0.0135248
788.610	0.0134715
788.688	0.0135581
788.766	0.0135304
788.844	0.0134975
788.923	0.0135624
789.001	0.0134655
789.079	0.0134545
789.157	0.0136872
789.235	0.0136929
789.313	0.0136131
789.391	0.0136186
789.469	0.0136864
789.548	0.0137460
789.626	0.0136429
789.704	0.0137463
789.782	0.0136874
789.860	0.0138077
789.938	0.0138191
790.016	0.0137171
790.094	0.0137199
790.173	0.0136021
790.251	0.0136472
790.329	0.0137244
790.407	0.0137325
790.485	0.0136651
790.563	0.0135609
790.641	0.0136421
790.719	0.0136036
790.798	0.0135506
790.876	0.0135491
790.954	0.0134949
791.032	0.0135765
791.110	0.0136094
791.188	0.0134505
791.266	0.0135990
791.344	0.0135141
791.423	0.0137084
791.501	0.0135564
791.579	0.0136745
791.657	0.0138412
791.735	0.0138139
791.813	0.0138982
791.891	0.0138350
791.969	0.0139260
792.048	0.0139484
792.126	0.0138559
792.204	0.0139864
792.282	0.0140601
792.360	0.0140012
792.438	0.0139665
792.516	0.0139444
792.594	0.0139803
792.673	0.0140302
792.751	0.0140386
792.829	0.0139735
792.907	0.0140009
792.985	0.0139822
793.063	0.0138619
793.141	0.0139702
793.219	0.0139595
793.298	0.0138268
793.376	0.0137911
793.454	0.0137849
793.532	0.0136482
793.610	0.0136971
793.688	0.0137772
793.766	0.0139274
793.844	0.0137100
793.923	0.0135886
794.001	0.0137935
794.079	0.0138476
794.157	0.0138908
794.235	0.0139462
794.313	0.0141474
794.391	0.0140657
794.469	0.0141173
794.548	0.0140445
794.626	0.0141524
794.704	0.0141155
794.782	0.0142773
794.860	0.0143555
794.938	0.0143599
795.016	0.0142436
795.094	0.0143307
795.173	0.0144192
795.251	0.0142480
795.329	0.0142260
795.407	0.0141555
795.485	0.0141271
795.563	0.0141750
795.641	0.0141486
795.719	0.0141124
795.798	0.0139396
795.876	0.0140199
795.954	0.0139874
796.032	0.0138509
796.110	0.0137237
796.188	0.0137263
796.266	0.0137045
796.344	0.0135493
796.423	0.0135035
796.501	0.0134804
796.579	0.0133210
796.657	0.0134532
796.735	0.0133981
796.813	0.0134186
796.891	0.0133926
796.969	0.0133153
797.048	0.0132262
797.126	0.0133297
797.204	0.0132619
797.282	0.0133234
797.360	0.0131973
797.438	0.0134389
797.516	0.0132834
797.594	0.0133755
797.673	0.0135755
797.751	0.0135763
797.829	0.0137569
797.907	0.0138681
797.985	0.0137679
798.063	0.0138298
798.141	0.0139258
798.219	0.0140533
798.298	0.0140802
798.376	0.0140618
798.454	0.0142407
798.532	0.0141006
798.610	0.0139768
798.688	0.0140626
798.766	0.0140781
798.844	0.0140668
798.923	0.0139924
799.001	0.0139057
799.079	0.0139716
799.157	0.0138657
799.235	0.0137846
799.313	0.0138394
799.391	0.0138345
799.469	0.0138713
799.548	0.0137125
799.626	0.0138426
799.704	0.0139474
799.782	0.0139401
799.860	0.0140020
799.938	0.0141579
800.016	0.0141451
800.094	0.0140427
800.173	0.0140509
800.251	0.0141241
800.329	0.0141968
800.407	0.0142918
800.485	0.0142537
800.563	0.0142056
800.641	0.0144627
800.719	0.0143652
800.798	0.0143657
800.876	0.0144593
800.954	0.0144368
801.032	0.0144198
801.110	0.0143497
801.188	0.0143365
801.266	0.0141552
801.344	0.0144274
801.423	0.0142974
801.501	0.0142417
801.579	0.0140553
801.657	0.0139721
801.735	0.0138955
801.813	0.0139062
801.891	0.0137734
801.969	0.0137158
802.048	0.0138383
802.126	0.0138438
802.204	0.0136684
802.282	0.0137359
802.360	0.0135753
802.438	0.0135702
802.516	0.0137312
802.594	0.0135223
802.673	0.0136943
802.751	0.0137816
802.829	0.0136639
802.907	0.0135796
802.985	0.0134192
803.063	0.0134618
803.141	0.0135595
803.219	0.0133778
803.298	0.0133765
803.376	0.0133897
803.454	0.0133457
803.532	0.0134182
803.610	0.0131237
803.688	0.0131481
803.766	0.0133832
803.844	0.0132529
803.923	0.0132186
804.001	0.0131896
804.079	0.0131549
804.157	0.0130820
804.235	0.0132669
804.313	0.0132055
804.391	0.0130804
804.469	0.0132706
804.548	0.0133324
804.626	0.0132914
804.704	0.0133752
804.782	0.0134803
804.860	0.0136536
804.938	0.0137880
805.016	0.0137347
805.094	0.0137975
805.173	0.0139925
805.251	0.0140258
805.329	0.0140775
805.407	0.0141143
805.485	0.0142816
805.563	0.0141405
805.641	0.0142833
805.719	0.0143571
805.798	0.0143646
805.876	0.0143797
805.954	0.0144122
806.032	0.0143694
806.110	0.0144083
806.188	0.0143578
806.266	0.0142109
806.344	0.0142506
806.423	0.0142008
806.501	0.0141795
806.579	0.0142658
806.657	0.0141912
806.735	0.0142548
806.813	0.0141459
806.891	0.0142718
806.969	0.0141434
807.048	0.0141904
807.126	0.0141245
807.204	0.0140290
807.282	0.0140985
807.360	0.0138123
807.438	0.0139021
807.516	0.0138503
807.594	0.0137452
807.673	0.0138327
807.751	0.0138261
807.829	0.0137228
807.907	0.0135207
807.985	0.0135505
808.063	0.0135751
808.141	0.0134480
808.219	0.0134679
808.298	0.0134351
808.376	0.0132996
808.454	0.0135406
808.532	0.0134919
808.610	0.0134961
808.688	0.0134959
808.766	0.0133765
808.844	0.0136385
808.923	0.0135003
809.001	0.0134380
809.079	0.0134087
809.157	0.0135873
809.235	0.0134923
809.313	0.0134692
809.391	0.0135454
809.469	0.0135130
809.548	0.0135694
809.626	0.0137370
809.704	0.0136407
809.782	0.0135263
809.860	0.0136428
809.938	0.0138225
810.016	0.0138857
810.094	0.0137852
810.173	0.0137971
810.251	0.0139533
810.329	0.0141293
810.407	0.0140021
810.485	0.0140903
810.563	0.0139859
810.641	0.0141425
810.719	0.0139995
810.798	0.0140153
810.876	0.0138981
810.954	0.0140737
811.032	0.0141187
811.110	0.0138788
811.188	0.0138850
811.266	0.0139877
811.344	0.0137302
811.423	0.0137780
811.501	0.0139257
811.579	0.0138744
811.657	0.0137652
811.735	0.0139433
811.813	0.0139887
811.891	0.0141846
811.969	0.0140376
812.048	0.0140614
812.126	0.0141068
812.204	0.0141084
812.282	0.0142690
812.360	0.0142829
812.438	0.0144102
812.516	0.0144141
812.594	0.0142258
812.673	0.0143289
812.751	0.0142707
812.829	0.0142202
812.907	0.0142992
812.985	0.0142180
813.063	0.0139182
813.141	0.0138328
813.219	0.0139814
813.298	0.0139087
813.376	0.0135757
813.454	0.0135307
813.532	0.0135762
813.610	0.0134122
813.688	0.0133761
813.766	0.0134441
813.844	0.0133699
813.923	0.0131650
814.001	0.0132496
814.079	0.0133018
814.157	0.0132122
814.235	0.0130473
814.313	0.0132800
814.391	0.0132733
814.469	0.0133487
814.548	0.0133779
814.626	0.0133747
814.704	0.0135180
814.782	0.0134205
814.860	0.0137688
814.938	0.0136494
815.016	0.0137742
815.094	0.0141139
815.173	0.0140465
815.251	0.0141119
815.329	0.0139841
815.407	0.0141636
815.485	0.0142001
815.563	0.0143618
815.641	0.0142520
815.719	0.0141794
815.798	0.0142468
815.876	0.0141479
815.954	0.0140105
816.032	0.0141081
816.110	0.0139719
816.188	0.0139282
816.266	0.0140117
816.344	0.0140138
816.423	0.0139859
816.501	0.0138116
816.579	0.0138283
816.657	0.0138277
816.735	0.0137870
816.813	0.0137556
816.891	0.0139106
816.969	0.0138041
817.048	0.0138043
817.126	0.0139787
817.204	0.0139877
817.282	0.0139169
817.360	0.0139238
817.438	0.0142216
817.516	0.0142798
817.594	0.0142924
817.673	0.0143372
817.751	0.0144537
817.829	0.0144373
817.907	0.0144339
817.985	0.0144150
818.063	0.0145282
818.141	0.0145119
818.219	0.0144855
818.298	0.0143845
818.376	0.0142313
818.454	0.0143672
818.532	0.0141900
818.610	0.0140031
818.688	0.0138386
818.766	0.0138383
818.844	0.0135662
818.923	0.0137949
819.001	0.0136685
819.079	0.0135369
819.157	0.0134354
819.235	0.0133615
819.313	0.0134775
819.391	0.0134023
819.469	0.0132948
819.548	0.0131805
819.626	0.0131612
819.704	0.0133823
819.782	0.0133297
819.860	0.0132970
819.938	0.0133391
820.016	0.0135266
820.094	0.0135117
820.173	0.0135078
820.251	0.0135631
820.329	0.0137343
820.407	0.0136765
820.485	0.0137186
820.563	0.0138197
820.641	0.0136553
820.719	0.0136954
820.798	0.0137039
820.876	0.0138740
820.954	0.0138249
821.032	0.0137479
821.110	0.0138683
821.188	0.0138191
821.266	0.0137390
821.344	0.0138716
821.423	0.0138239
821.501	0.0139097
821.579	0.0138556
821.657	0.0138010
821.735	0.0138754
821.813	0.0139005
821.891	0.0138760
821.969	0.0138553
822.048	0.0140238
822.126	0.0139786
822.204	0.0140272
822.282	0.0140840
822.360	0.0140728
822.438	0.0140102
822.516	0.0141067
822.594	0.0140578
822.673	0.0140320
822.751	0.0140676
822.829	0.0141055
822.907	0.0140223
822.985	0.0140369
823.063	0.0139790
823.141	0.0141173
823.219	0.0139748
823.298	0.0140086
823.376	0.0141557
823.454	0.0140625
823.532	0.0139285
823.610	0.0139075
823.688	0.0141079
823.766	0.0140402
823.844	0.0140726
823.923	0.0140274
824.001	0.0141523
824.079	0.0140993
824.157	0.0139600
824.235	0.0141640
824.313	0.0142712
824.391	0.0141782
824.469	0.0141869
824.548	0.0140873
824.626	0.0142825
824.704	0.0142036
824.782	0.0143315
824.860	0.0142710
824.938	0.0142609
825.016	0.0143842
825.094	0.0143069
825.173	0.0142617
825.251	0.0142178
825.329	0.0140697
825.407	0.0140674
825.485	0.0139529
825.563	0.0139652
825.641	0.0138548
825.719	0.0136559
825.798	0.0136511
825.876	0.0135276
825.954	0.0133331
826.032	0.0132932
826.110	0.0130724
826.188	0.0128435
826.266	0.0129848
826.344	0.0127943
826.423	0.0128019
826.501	0.0127972
826.579	0.0126924
826.657	0.0127439
826.735	0.0127923
826.813	0.0127996
826.891	0.0126622
826.969	0.0130277
827.048	0.0130773
827.126	0.0132433
827.204	0.0133868
827.282	0.0134048
827.360	0.0136745
827.438	0.0136237
827.516	0.0137401
827.594	0.0138213
827.673	0.0138814
827.751	0.0139471
827.829	0.0140484
827.907	0.0140666
827.985	0.0141383
828.063	0.0142312
828.141	0.0141725
828.219	0.0140935
828.298	0.0141601
828.376	0.0140356
828.454	0.0141354
828.532	0.0141081
828.610	0.0141090
828.688	0.0141602
828.766	0.0143172
828.844	0.0141904
828.923	0.0140779
829.001	0.0140210
829.079	0.0139671
829.157	0.0140810
829.235	0.0141094
829.313	0.0141189
829.391	0.0142616
829.469	0.0143871
829.548	0.0141975
829.626	0.0142576
829.704	0.0144050
829.782	0.0143137
829.860	0.0142487
829.938	0.0144178
830.016	0.0145492
830.094	0.0143977
830.173	0.0144176
830.251	0.0143051
830.329	0.0143658
830.407	0.0143320
830.485	0.0142278
830.563	0.0142921
830.641	0.0141465
830.719	0.0141071
830.798	0.0141808
830.876	0.0140372
830.954	0.0138380
831.032	0.0139274
831.110	0.0138813
831.188	0.0137963
831.266	0.0137580
831.344	0.0136842
831.423	0.0135513
831.501	0.0134026
831.579	0.0133173
831.657	0.0131678
831.735	0.0132026
831.813	0.0131773
831.891	0.0130017
831.969	0.0130122
832.048	0.0129940
832.126	0.0130167
832.204	0.0130029
832.282	0.0130606
832.360	0.0129565
832.438	0.0129779
832.516	0.0130804
832.594	0.0131817
832.673	0.0133427
832.751	0.0133601
832.829	0.0133871
832.907	0.0134989
832.985	0.0134550
833.063	0.0135219
833.141	0.0137508
833.219	0.0136845
833.298	0.0136847
833.376	0.0137322
833.454	0.0137451
833.532	0.0138364
833.610	0.0137795
833.688	0.0139498
833.766	0.0138827
833.844	0.0137992
833.923	0.0137417
834.001	0.0138709
834.079	0.0138197
834.157	0.0136311
834.235	0.0136037
834.313	0.0135203
834.391	0.0136509
834.469	0.0136916
834.548	0.0137027
834.626	0.0138596
834.704	0.0138383
834.782	0.0138506
834.860	0.0138734
834.938	0.0139227
835.016	0.0141500
835.094	0.0141817
835.173	0.0142297
835.251	0.0142690
835.329	0.0144756
835.407	0.0143183
835.485	0.0144082
835.563	0.0145356
835.641	0.0144296
835.719	0.0144695
835.798	0.0144435
835.876	0.0143948
835.954	0.0143578
836.032	0.0144730
836.110	0.0143645
836.188	0.0144244
836.266	0.0143213
836.344	0.0142963
836.423	0.0142572
836.501	0.0142579
836.579	0.0142075
836.657	0.0141386
836.735	0.0140116
836.813	0.0141856
836.891	0.0140263
836.969	0.0138786
837.048	0.0139613
837.126	0.0140367
837.204	0.0139505
837.282	0.0138036
837.360	0.0138586
837.438	0.0138463
837.516	0.0136697
837.594	0.0137411
837.673	0.0136572
837.751	0.0134780
837.829	0.0134470
837.907	0.0134685
837.985	0.0134494
838.063	0.0133141
838.141	0.0131992
838.219	0.0133500
838.298	0.0131081
838.376	0.0131678
838.454	0.0131850
838.532	0.0132232
838.610	0.0132133
838.688	0.0133197
838.766	0.0133456
838.844	0.0133915
838.923	0.0133817
839.001	0.0132706
839.079	0.0133907
839.157	0.0134469
839.235	0.0135230
839.313	0.0136423
839.391	0.0135617
839.469	0.0135901
839.548	0.0137260
839.626	0.0136313
839.704	0.0136975
839.782	0.0137531
839.860	0.0137971
839.938	0.0140019
840.016	0.0140424
840.094	0.0139514
840.173	0.0139998
840.251	0.0142362
840.329	0.0141467
840.407	0.0141352
840.485	0.0143285
840.563	0.0143780
840.641	0.0143087
840.719	0.0143371
840.798	0.0143594
840.876	0.0142922
840.954	0.0142895
841.032	0.0143217
841.110	0.0142915
841.188	0.0142255
841.266	0.0142204
841.344	0.0140900
841.423	0.0140541
841.501	0.0140845
841.579	0.0140147
841.657	0.0139890
841.735	0.0137938
841.813	0.0137737
841.891	0.0137657
841.969	0.0138371
842.048	0.0138549
842.126	0.0136993
842.204	0.0137807
842.282	0.0137675
842.360	0.0137632
842.438	0.0137334
842.516	0.0136182
842.594	0.0137029
842.673	0.0137626
842.751	0.0139828
842.829	0.0140238
842.907	0.0139815
842.985	0.0138872
843.063	0.0138542
843.141	0.0139530
843.219	0.0139579
843.298	0.0138830
843.376	0.0139962
843.454	0.0139955
843.532	0.0140323
843.610	0.0139690
843.688	0.0137855
843.766	0.0137697
843.844	0.0138879
843.923	0.0138319
844.001	0.0137723
844.079	0.0136651
844.157	0.0136310
844.235	0.0137395
844.313	0.0134587
844.391	0.0135579
844.469	0.0135107
844.548	0.0133463
844.626	0.0134087
844.704	0.0135738
844.782	0.0131644
844.860	0.0132968
844.938	0.0132601
845.016	0.0133479
845.094	0.0134615
845.173	0.0134783
845.251	0.0134998
845.329	0.0133540
845.407	0.0135050
845.485	0.0133770
845.563	0.0132957
845.641	0.0134907
845.719	0.0134835
845.798	0.0133797
845.876	0.0134164
845.954	0.0134595
846.032	0.0133821
846.110	0.0135483
846.188	0.0134840
846.266	0.0133495
846.344	0.0134889
846.423	0.0137338
846.501	0.0138096
846.579	0.0137707
846.657	0.0138416
846.735	0.0138969
846.813	0.0141160
846.891	0.0140920
846.969	0.0141231
847.048	0.0142188
847.126	0.0144182
847.204	0.0146120
847.282	0.0145688
847.360	0.0145988
847.438	0.0146048
847.516	0.0145274
847.594	0.0143622
847.673	0.0145515
847.751	0.0146091
847.829	0.0144601
847.907	0.0145438
847.985	0.0144658
848.063	0.0143089
848.141	0.0141687
848.219	0.0140892
848.298	0.0141132
848.376	0.0141607
848.454	0.0140604
848.532	0.0138350
848.610	0.0137661
848.688	0.0136382
848.766	0.0137217
848.844	0.0136842
848.923	0.0136157
849.001	0.0136275
849.079	0.0135850
849.157	0.0135270
849.235	0.0135350
849.313	0.0133485
849.391	0.0133248
849.469	0.0132848
849.548	0.0132912
849.626	0.0133982
849.704	0.0133851
849.782	0.0133037
849.860	0.0132303
849.938	0.0131910
850.016	0.0134632
850.094	0.0133952
850.173	0.0133722
850.251	0.0132899
850.329	0.0133590
850.407	0.0133041
850.485	0.0133795
850.563	0.0134213
850.641	0.0133716
850.719	0.0134859
850.798	0.0133776
850.876	0.0134467
850.954	0.0135443
851.032	0.0136810
851.110	0.0135977
851.188	0.0137807
851.266	0.0136672
851.344	0.0136287
851.423	0.0137238
851.501	0.0138164
851.579	0.0138192
851.657	0.0138499
851.735	0.0140026
851.813	0.0140292
851.891	0.0139343
851.969	0.0140256
852.048	0.0140449
852.126	0.0139615
852.204	0.0140491
852.282	0.0140260
852.360	0.0140384
852.438	0.0140182
852.516	0.0140813
852.594	0.0142360
852.673	0.0141565
852.751	0.0141409
852.829	0.0140672
852.907	0.0142702
852.985	0.0140393
853.063	0.0141713
853.141	0.0140352
853.219	0.0139355
853.298	0.0140193
853.376	0.0139938
853.454	0.0139259
853.532	0.0139085
853.610	0.0139423
853.688	0.0140646
853.766	0.0138705
853.844	0.0140378
853.923	0.0139622
854.001	0.0141522
854.079	0.0141900
854.157	0.0140100
854.235	0.0140185
854.313	0.0140179
854.391	0.0140818
854.469	0.0141232
854.548	0.0141364
854.626	0.0141010
854.704	0.0141164
854.782	0.0142060
854.860	0.0141004
854.938	0.0140910
855.016	0.0140588
855.094	0.0142601
855.173	0.0140128
855.251	0.0140192
855.329	0.0141144
855.407	0.0139382
855.485	0.0139556
855.563	0.0139294
855.641	0.0136931
855.719	0.0135564
855.798	0.0134743
855.876	0.0136006
855.954	0.0133533
856.032	0.0133343
856.110	0.0133945
856.188	0.0132690
856.266	0.0131518
856.344	0.0130982
856.423	0.0132134
856.501	0.0132083
856.579	0.0131883
856.657	0.0132069
856.735	0.0134210
856.813	0.0134605
856.891	0.0133137
856.969	0.0134969
857.048	0.0135954
857.126	0.0135458
857.204	0.0137202
857.282	0.0137047
857.360	0.0138837
857.438	0.0137872
857.516	0.0138708
857.594	0.0139118
857.673	0.0140105
857.751	0.0139957
857.829	0.0140482
857.907	0.0140659
857.985	0.0140452
858.063	0.0140041
858.141	0.0138873
858.219	0.0139609
858.298	0.0140633
858.376	0.0139890
858.454	0.0139404
858.532	0.0140128
858.610	0.0138396
858.688	0.0138113
858.766	0.0136928
858.844	0.0139037
858.923	0.0138817
859.001	0.0139262
859.079	0.0139754
859.157	0.0138716
859.235	0.0137541
859.313	0.0139163
859.391	0.0140637
859.469	0.0138588
859.548	0.0140887
859.626	0.0140888
859.704	0.0141338
859.782	0.0141168
859.860	0.0142715
859.938	0.0141152
860.016	0.0141360
860.094	0.0141624
860.173	0.0142474
860.251	0.0142953
860.329	0.0142374
860.407	0.0142422
860.485	0.0143763
860.563	0.0142990
860.641	0.0142596
860.719	0.0143346
860.798	0.0142610
860.876	0.0142933
860.954	0.0143991
861.032	0.0143081
861.110	0.0142841
861.188	0.0141331
861.266	0.0140837
861.344	0.0141025
861.423	0.0139268
861.501	0.0137833
861.579	0.0138747
861.657	0.0137984
861.735	0.0137623
861.813	0.0136779
861.891	0.0137263
861.969	0.0134173
862.048	0.0134161
862.126	0.0134761
862.204	0.0133578
862.282	0.0133153
862.360	0.0133597
862.438	0.0133430
862.516	0.0133855
862.594	0.0133452
862.673	0.0133821
862.751	0.0132868
862.829	0.0132298
862.907	0.0132342
862.985	0.0132840
863.063	0.0131770
863.141	0.0131891
863.219	0.0132184
863.298	0.0133561
863.376	0.0132918
863.454	0.0132307
863.532	0.0134437
863.610	0.0134241
863.688	0.0133314
863.766	0.0134959
863.844	0.0133375
863.923	0.0134356
864.001	0.0136208
864.079	0.0135121
864.157	0.0136621
864.235	0.0135686
864.313	0.0137720
864.391	0.0136803
864.469	0.0137821
864.548	0.0138580
864.626	0.0138554
864.704	0.0138640
864.782	0.0139426
864.860	0.0140000
864.938	0.0138776
865.016	0.0140488
865.094	0.0140884
865.173	0.0140633
865.251	0.0140250
865.329	0.0140515
865.407	0.0141595
865.485	0.0140863
865.563	0.0141026
865.641	0.0140561
865.719	0.0141257
865.798	0.0138828
865.876	0.0140955
865.954	0.0139751
866.032	0.0139416
866.110	0.0139603
866.188	0.0140604
866.266	0.0141072
866.344	0.0138955
866.423	0.0138968
866.501	0.0139676
866.579	0.0138618
866.657	0.0138813
866.735	0.0138409
866.813	0.0138911
866.891	0.0138010
866.969	0.0137093
867.048	0.0138354
867.126	0.0137877
867.204	0.0137004
867.282	0.0137386
867.360	0.0137686
867.438	0.0137008
867.516	0.0137069
867.594	0.0138293
867.673	0.0138113
867.751	0.0137708
867.829	0.0137934
867.907	0.0138157
867.985	0.0136276
868.063	0.0135679
868.141	0.0135708
868.219	0.0135705
868.298	0.0136964
868.376	0.0135683
868.454	0.0135609
868.532	0.0136627
868.610	0.0136307
868.688	0.0137160
868.766	0.0136864
868.844	0.0136662
868.923	0.0138120
869.001	0.0137309
869.079	0.0137899
869.157	0.0138358
869.235	0.0136850
869.313	0.0136243
869.391	0.0137469
869.469	0.0137544
869.548	0.0137391
869.626	0.0136696
869.704	0.0135761
869.782	0.0136308
869.860	0.0136549
869.938	0.0136220
870.016	0.0135454
870.094	0.0136220
870.173	0.0136715
870.251	0.0136624
870.329	0.0137421
870.407	0.0136811
870.485	0.0137444
870.563	0.0136948
870.641	0.0137730
870.719	0.0138073
870.798	0.0137605
870.876	0.0137417
870.954	0.0138221
871.032	0.0138118
871.110	0.0139407
871.188	0.0138705
871.266	0.0139104
871.344	0.0140739
871.423	0.0139447
871.501	0.0140466
871.579	0.0141085
871.657	0.0140025
871.735	0.0139448
871.813	0.0139529
871.891	0.0140197
871.969	0.0139159
872.048	0.0137943
872.126	0.0139990
872.204	0.0140629
872.282	0.0141686
872.360	0.0139201
872.438	0.0141132
872.516	0.0141593
872.594	0.0140392
872.673	0.0142017
872.751	0.0140659
872.829	0.0140369
872.907	0.0139971
872.985	0.0140545
873.063	0.0140426
873.141	0.0138663
873.219	0.0141187
873.298	0.0139904
873.376	0.0139675
873.454	0.0138408
873.532	0.0139183
873.610	0.0138444
873.688	0.0138629
873.766	0.0138850
873.844	0.0138174
873.923	0.0139690
874.001	0.0137627
874.079	0.0138165
874.157	0.0138873
874.235	0.0137849
874.313	0.0137337
874.391	0.0136802
874.469	0.0136771
874.548	0.0136693
874.626	0.0137843
874.704	0.0137277
874.782	0.0136986
874.860	0.0135348
874.938	0.0135607
875.016	0.0135712
875.094	0.0138085
875.173	0.0137883
875.251	0.0137397
875.329	0.0137866
875.407	0.0140263
875.485	0.0139455
875.563	0.0140518
875.641	0.0141166
875.719	0.0140707
875.798	0.0142190
875.876	0.0141630
875.954	0.0143085
876.032	0.0140764
876.110	0.0142225
876.188	0.0141550
876.266	0.0140948
876.344	0.0139706
876.423	0.0140670
876.501	0.0138666
876.579	0.0139619
876.657	0.0139828
876.735	0.0140093
876.813	0.0138228
876.891	0.0140441
876.969	0.0138710
877.048	0.0137643
877.126	0.0138090
877.204	0.0137654
877.282	0.0136620
877.360	0.0135380
877.438	0.0137029
877.516	0.0135914
877.594	0.0136668
877.673	0.0134205
877.751	0.0136397
877.829	0.0136074
877.907	0.0135859
877.985	0.0136134
878.063	0.0137134
878.141	0.0137721
878.219	0.0139152
878.298	0.0138541
878.376	0.0137901
878.454	0.0139848
878.532	0.0138866
878.610	0.0140071
878.688	0.0141061
878.766	0.0139816
878.844	0.0140843
878.923	0.0140177
879.001	0.0140853
879.079	0.0141700
879.157	0.0140569
879.235	0.0140238
879.313	0.0138628
879.391	0.0139263
879.469	0.0138659
879.548	0.0138573
879.626	0.0137206
879.704	0.0135596
879.782	0.0136487
879.860	0.0135493
879.938	0.0135157
880.016	0.0136250
880.094	0.0135900
880.173	0.0137051
880.251	0.0135902
880.329	0.0137253
880.407	0.0137437
880.485	0.0138010
880.563	0.0138735
880.641	0.0138098
880.719	0.0139388
880.798	0.0139857
880.876	0.0140470
880.954	0.0141226
881.032	0.0140653
881.110	0.0141980
881.188	0.0142631
881.266	0.0141714
881.344	0.0141272
881.423	0.0141735
881.501	0.0140695
881.579	0.0140398
881.657	0.0139245
881.735	0.0140270
881.813	0.0139743
881.891	0.0140792
881.969	0.0139928
882.048	0.0139171
882.126	0.0139793
882.204	0.0139115
882.282	0.0138515
882.360	0.0137556
882.438	0.0139426
882.516	0.0137527
882.594	0.0138314
882.673	0.0137411
882.751	0.0137431
882.829	0.0137633
882.907	0.0136629
882.985	0.0137650
883.063	0.0139651
883.141	0.0137847
883.219	0.0137867
883.298	0.0140324
883.376	0.0139632
883.454	0.0138058
883.532	0.0138686
883.610	0.0139287
883.688	0.0139882
883.766	0.0139666
883.844	0.0140363
883.923	0.0140200
884.001	0.0140089
884.079	0.0139590
884.157	0.0138686
884.235	0.0137658
884.313	0.0139036
884.391	0.0138274
884.469	0.0137897
884.548	0.0137761
884.626	0.0137075
884.704	0.0136460
884.782	0.0135787
884.860	0.0136143
884.938	0.0135090
885.016	0.0137287
885.094	0.0136889
885.173	0.0136433
885.251	0.0136897
885.329	0.0138230
885.407	0.0137093
885.485	0.0136168
885.563	0.0138058
885.641	0.0137443
885.719	0.0138335
885.798	0.0138543
885.876	0.0137513
885.954	0.0137519
886.032	0.0136765
886.110	0.0134990
886.188	0.0136292
886.266	0.0134959
886.344	0.0135058
886.423	0.0134727
886.501	0.0135120
886.579	0.0134902
886.657	0.0136332
886.735	0.0134721
886.813	0.0137096
886.891	0.0136449
886.969	0.0138094
887.048	0.0139014
887.126	0.0137304
887.204	0.0137534
887.282	0.0139091
887.360	0.0139269
887.438	0.0138333
887.516	0.0139015
887.594	0.0138382
887.673	0.0138258
887.751	0.0137102
887.829	0.0138478
887.907	0.0139684
887.985	0.0139246
888.063	0.0137743
888.141	0.0140295
888.219	0.0138953
888.298	0.0139323
888.376	0.0140495
888.454	0.0138599
888.532	0.0138565
888.610	0.0140841
888.688	0.0138739
888.766	0.0137706
888.844	0.0138407
888.923	0.0138129
889.001	0.0138499
889.079	0.0138189
889.157	0.0138803
889.235	0.0137129
889.313	0.0136713
889.391	0.0137853
889.469	0.0139381
889.548	0.0138844
889.626	0.0137521
889.704	0.0137598
889.782	0.0136490
889.860	0.0136596
889.938	0.0138107
890.016	0.0136408
890.094	0.0136700
890.173	0.0136151
890.251	0.0136527
890.329	0.0135971
890.407	0.0137206
890.485	0.0136369
890.563	0.0135522
890.641	0.0137609
890.719	0.0137424
890.798	0.0136275
890.876	0.0137125
890.954	0.0136936
891.032	0.0137182
891.110	0.0138636
891.188	0.0138234
891.266	0.0139159
891.344	0.0138351
891.423	0.0139305
891.501	0.0138224
891.579	0.0138797
891.657	0.0139365
891.735	0.0138960
891.813	0.0140968
891.891	0.0140697
891.969	0.0139008
892.048	0.0139269
892.126	0.0139947
892.204	0.0139191
892.282	0.0139140
892.360	0.0138033
892.438	0.0137669
892.516	0.0137954
892.594	0.0136996
892.673	0.0135493
892.751	0.0135575
892.829	0.0136286
892.907	0.0136995
892.985	0.0135655
893.063	0.0137012
893.141	0.0135071
893.219	0.0135150
893.298	0.0136415
893.376	0.0135679
893.454	0.0136586
893.532	0.0137139
893.610	0.0137004
893.688	0.0136546
893.766	0.0137938
893.844	0.0138133
893.923	0.0138262
894.001	0.0138433
894.079	0.0138417
894.157	0.0139398
894.235	0.0139693
894.313	0.0140730
894.391	0.0140153
894.469	0.0139846
894.548	0.0140350
894.626	0.0140462
894.704	0.0141016
894.782	0.0142041
894.860	0.0141126
894.938	0.0141438
895.016	0.0141702
895.094	0.0142632
895.173	0.0141676
895.251	0.0140524
895.329	0.0142226
895.407	0.0140726
895.485	0.0141143
895.563	0.0141187
895.641	0.0141285
895.719	0.0141599
895.798	0.0141016
895.876	0.0138740
895.954	0.0139383
896.032	0.0139376
896.110	0.0139453
896.188	0.0139057
896.266	0.0138799
896.344	0.0140218
896.423	0.0140250
896.501	0.0138617
896.579	0.0138901
896.657	0.0140982
896.735	0.0140125
896.813	0.0139668
896.891	0.0139048
896.969	0.0139504
897.048	0.0140029
897.126	0.0139928
897.204	0.0139028
897.282	0.0139383
897.360	0.0139587
897.438	0.0139621
897.516	0.0140022
897.594	0.0139553
897.673	0.0139996
897.751	0.0138858
897.829	0.0140415
897.907	0.0139857
897.985	0.0138702
898.063	0.0138639
898.141	0.0139394
898.219	0.0140409
898.298	0.0139180
898.376	0.0137937
898.454	0.0138084
898.532	0.0138542
898.610	0.0138807
898.688	0.0137814
898.766	0.0137639
898.844	0.0137668
898.923	0.0137202
899.001	0.0136988
899.079	0.0137054
899.157	0.0136299
899.235	0.0137991
899.313	0.0138385
899.391	0.0136903
899.469	0.0136160
899.548	0.0136703
899.626	0.0137473
899.704	0.0138327
899.782	0.0138065
899.860	0.0138277
899.938	0.0136764
900.016	0.0137960
900.094	0.0136579
900.173	0.0137541
900.251	0.0138760
900.329	0.0137784
900.407	0.0138847
900.485	0.0137837
900.563	0.0137238
900.641	0.0138747
900.719	0.0138508
900.798	0.0137468
900.876	0.0137773
900.954	0.0138095
901.032	0.0138129
901.110	0.0137997
901.188	0.0139580
901.266	0.0139819
901.344	0.0138628
901.423	0.0137871
901.501	0.0139649
901.579	0.0139271
901.657	0.0139898
901.735	0.0138606
901.813	0.0140524
901.891	0.0139758
901.969	0.0139580
902.048	0.0139175
902.126	0.0139809
902.204	0.0139906
902.282	0.0138550
902.360	0.0139187
902.438	0.0139001
902.516	0.0138882
902.594	0.0138528
902.673	0.0136542
902.751	0.0136917
902.829	0.0138294
902.907	0.0138718
902.985	0.0137090
903.063	0.0137057
903.141	0.0137511
903.219	0.0138422
903.298	0.0138575
903.376	0.0138262
903.454	0.0137254
903.532	0.0138523
903.610	0.0138603
903.688	0.0139498
903.766	0.0140326
903.844	0.0140970
903.923	0.0141218
904.001	0.0139907
904.079	0.0140501
904.157	0.0141056
904.235	0.0140504
904.313	0.0140037
904.391	0.0141170
904.469	0.0139326
904.548	0.0139069
904.626	0.0137788
904.704	0.0138130
904.782	0.0137773
904.860	0.0137172
904.938	0.0136890
905.016	0.0137307
905.094	0.0136528
905.173	0.0136165
905.251	0.0134237
905.329	0.0134245
905.407	0.0134150
905.485	0.0134919
905.563	0.0135017
905.641	0.0134402
905.719	0.0135078
905.798	0.0133545
905.876	0.0135102
905.954	0.0136005
906.032	0.0135145
906.110	0.0135561
906.188	0.0136623
906.266	0.0136407
906.344	0.0137119
906.423	0.0137921
906.501	0.0139777
906.579	0.0138174
906.657	0.0139191
906.735	0.0140736
906.813	0.0139941
906.891	0.0139245
906.969	0.0139554
907.048	0.0141932
907.126	0.0139521
907.204	0.0139839
907.282	0.0139989
907.360	0.0138630
907.438	0.0139722
907.516	0.0137565
907.594	0.0137909
907.673	0.0138681
907.751	0.0138148
907.829	0.0136636
907.907	0.0135480
907.985	0.0137544
908.063	0.0136622
908.141	0.0136139
908.219	0.0135689
908.298	0.0136279
908.376	0.0136815
908.454	0.0136367
908.532	0.0136099
908.610	0.0135134
908.688	0.0134737
908.766	0.0135204
908.844	0.0134311
908.923	0.0134895
909.001	0.0135645
909.079	0.0134470
909.157	0.0136346
909.235	0.0136739
909.313	0.0135767
909.391	0.0137444
909.469	0.0137947
909.548	0.0138348
909.626	0.0138400
909.704	0.0140122
909.782	0.0138699
909.860	0.0138177
909.938	0.0140955
910.016	0.0141241
910.094	0.0140144
910.173	0.0140849
910.251	0.0139307
910.329	0.0139395
910.407	0.0139545
910.485	0.0138713
910.563	0.0138855
910.641	0.0139777
910.719	0.0139334
910.798	0.0137427
910.876	0.0137084
910.954	0.0136310
911.032	0.0137399
911.110	0.0136493
911.188	0.0136184
911.266	0.0135161
911.344	0.0134979
911.423	0.0136481
911.501	0.0136954
911.579	0.0136452
911.657	0.0137430
911.735	0.0136891
911.813	0.0138440
911.891	0.0139043
911.969	0.0137819
912.048	0.0137392
912.126	0.0137522
912.204	0.0139505
912.282	0.0139768
912.360	0.0138924
912.438	0.0139496
912.516	0.0139793
912.594	0.0139987
912.673	0.0140219
912.751	0.0140000
912.829	0.0138886
912.907	0.0140101
912.985	0.0139943
913.063	0.0139427
913.141	0.0139046
913.219	0.0138314
913.298	0.0137838
913.376	0.0138146
913.454	0.0138638
913.532	0.0137662
913.610	0.0136437
913.688	0.0136440
913.766	0.0137490
913.844	0.0136740
913.923	0.0136270
914.001	0.0136864
914.079	0.0137242
914.157	0.0138523
914.235	0.0136240
914.313	0.0135780
914.391	0.0138310
914.469	0.0135936
914.548	0.0136031
914.626	0.0137124
914.704	0.0136917
914.782	0.0136858
914.860	0.0138194
914.938	0.0138200
915.016	0.0137828
915.094	0.0138870
915.173	0.0137141
915.251	0.0138249
915.329	0.0140662
915.407	0.0138555
915.485	0.0139194
915.563	0.0141261
915.641	0.0141453
915.719	0.0141552
915.798	0.0141855
915.876	0.0139906
915.954	0.0141199
916.032	0.0142229
916.110	0.0140280
916.188	0.0140520
916.266	0.0140683
916.344	0.0141354
916.423	0.0140593
916.501	0.0138554
916.579	0.0138671
916.657	0.0138532
916.735	0.0138439
916.813	0.0138172
916.891	0.0138437
916.969	0.0138644
917.048	0.0137948
917.126	0.0137218
917.204	0.0137014
917.282	0.0137108
917.360	0.0137015
917.438	0.0136759
917.516	0.0137685
917.594	0.0138357
917.673	0.0138127
917.751	0.0137473
917.829	0.0137920
917.907	0.0139427
917.985	0.0139088
918.063	0.0139120
918.141	0.0138428
918.219	0.0139116
918.298	0.0138504
918.376	0.0140627
918.454	0.0138614
918.532	0.0139193
918.610	0.0140871
918.688	0.0139693
918.766	0.0139482
918.844	0.0139426
918.923	0.0140395
919.001	0.0139938
919.079	0.0138914
919.157	0.0137807
919.235	0.0138457
919.313	0.0140338
919.391	0.0139085
919.469	0.0139828
919.548	0.0139233
919.626	0.0137256
919.704	0.0139516
919.782	0.0139405
919.860	0.0139147
919.938	0.0138670
920.016	0.0140118
920.094	0.0139487
920.173	0.0137787
920.251	0.0138870
920.329	0.0138126
920.407	0.0137979
920.485	0.0139526
920.563	0.0139003
920.641	0.0137091
920.719	0.0136349
920.798	0.0138020
920.876	0.0135961
920.954	0.0138456
921.032	0.0138701
921.110	0.0137770
921.188	0.0137814
921.266	0.0137958
921.344	0.0138592
921.423	0.0139333
921.501	0.0139272
921.579	0.0139156
921.657	0.0140586
921.735	0.0140744
921.813	0.0141315
921.891	0.0140538
921.969	0.0141100
922.048	0.0140015
922.126	0.0141690
922.204	0.0139964
922.282	0.0140456
922.360	0.0140179
922.438	0.0140872
922.516	0.0138218
922.594	0.0140404
922.673	0.0140955
922.751	0.0140147
922.829	0.0138808
922.907	0.0139652
922.985	0.0138638
923.063	0.0137469
923.141	0.0138019
923.219	0.0137038
923.298	0.0136546
923.376	0.0137359
923.454	0.0136943
923.532	0.0135976
923.610	0.0135308
923.688	0.0136190
923.766	0.0136262
923.844	0.0136991
923.923	0.0135088
924.001	0.0135575
924.079	0.0136218
924.157	0.0136285
924.235	0.0134949
924.313	0.0136469
924.391	0.0135677
924.469	0.0137357
924.548	0.0137965
924.626	0.0136548
924.704	0.0137337
924.782	0.0137421
924.860	0.0137334
924.938	0.0138808
925.016	0.0138582
925.094	0.0137320
925.173	0.0137498
925.251	0.0137054
925.329	0.0138257
925.407	0.0138818
925.485	0.0138416
925.563	0.0139394
925.641	0.0139927
925.719	0.0138886
925.798	0.0138396
925.876	0.0138857
925.954	0.0139217
926.032	0.0138443
926.110	0.0139281
926.188	0.0139859
926.266	0.0140365
926.344	0.0140129
926.423	0.0141034
926.501	0.0139033
926.579	0.0139310
926.657	0.0138364
926.735	0.0139086
926.813	0.0138134
926.891	0.0137612
926.969	0.0137899
927.048	0.0136449
927.126	0.0136724
927.204	0.0137658
927.282	0.0138143
927.360	0.0136520
927.438	0.0137656
927.516	0.0138142
927.594	0.0138567
927.673	0.0137256
927.751	0.0137624
927.829	0.0139349
927.907	0.0139638
927.985	0.0139825
928.063	0.0139667
928.141	0.0139594
928.219	0.0139518
928.298	0.0139166
928.376	0.0138744
928.454	0.0139693
928.532	0.0138715
928.610	0.0139249
928.688	0.0139465
928.766	0.0139510
928.844	0.0137904
928.923	0.0138723
929.001	0.0137481
929.079	0.0137751
929.157	0.0137207
929.235	0.0134634
929.313	0.0135134
929.391	0.0135255
929.469	0.0134821
929.548	0.0135182
929.626	0.0133753
929.704	0.0133998
929.782	0.0134491
929.860	0.0133696
929.938	0.0133166
930.016	0.0133907
930.094	0.0134257
930.173	0.0134059
930.251	0.0134061
930.329	0.0135594
930.407	0.0135141
930.485	0.0134698
930.563	0.0134344
930.641	0.0135351
930.719	0.0136957
930.798	0.0135163
930.876	0.0136061
930.954	0.0136259
931.032	0.0135952
931.110	0.0136570
931.188	0.0137537
931.266	0.0136510
931.344	0.0136991
931.423	0.0138979
931.501	0.0136041
931.579	0.0137973
931.657	0.0139394
931.735	0.0138017
931.813	0.0137603
931.891	0.0139390
931.969	0.0140051
932.048	0.0140201
932.126	0.0140547
932.204	0.0137341
932.282	0.0137733
932.360	0.0137386
932.438	0.0137394
932.516	0.0137863
932.594	0.0138601
932.673	0.0138276
932.751	0.0136960
932.829	0.0137344
932.907	0.0137855
932.985	0.0136733
933.063	0.0137254
933.141	0.0137411
933.219	0.0137995
933.298	0.0139352
933.376	0.0137972
933.454	0.0137127
933.532	0.0137408
933.610	0.0139721
933.688	0.0138300
933.766	0.0139671
933.844	0.0139242
933.923	0.0140584
934.001	0.0140533
934.079	0.0139397
934.157	0.0139608
934.235	0.0140508
934.313	0.0140226
934.391	0.0139929
934.469	0.0139539
934.548	0.0139429
934.626	0.0138669
934.704	0.0138811
934.782	0.0139813
934.860	0.0139875
934.938	0.0138802
935.016	0.0138222
935.094	0.0139136
935.173	0.0138882
935.251	0.0138306
935.329	0.0139101
935.407	0.0137716
935.485	0.0136487
935.563	0.0138303
935.641	0.0138604
935.719	0.0136275
935.798	0.0136525
935.876	0.0137965
935.954	0.0136327
936.032	0.0136202
936.110	0.0136469
936.188	0.0136964
936.266	0.0136703
936.344	0.0135925
936.423	0.0136241
936.501	0.0137769
936.579	0.0138912
936.657	0.0137825
936.735	0.0137038
936.813	0.0138219
936.891	0.0138968
936.969	0.0137188
937.048	0.0138643
937.126	0.0138232
937.204	0.0137281
937.282	0.0139769
937.360	0.0138005
937.438	0.0139123
937.516	0.0138324
937.594	0.0138245
937.673	0.0139104
937.751	0.0138081
937.829	0.0138614
937.907	0.0138535
937.985	0.0138177
938.063	0.0136902
938.141	0.0137915
938.219	0.0139994
938.298	0.0137368
938.376	0.0138573
938.454	0.0138470
938.532	0.0139574
938.610	0.0140143
938.688	0.0140039
938.766	0.0139367
938.844	0.0138120
938.923	0.0137679
939.001	0.0139854
939.079	0.0139247
939.157	0.0138799
939.235	0.0139509
939.313	0.0138999
939.391	0.0138306
939.469	0.0138587
939.548	0.0139234
939.626	0.0138747
939.704	0.0138995
939.782	0.0139053
939.860	0.0140182
939.938	0.0139573
940.016	0.0137968
940.094	0.0138928
940.173	0.0137320
940.251	0.0139711
940.329	0.0138498
940.407	0.0138074
940.485	0.0137894
940.563	0.0138615
940.641	0.0139067
940.719	0.0137089
940.798	0.0137268
940.876	0.0137070
940.954	0.0138042
941.032	0.0137480
941.110	0.0137811
941.188	0.0137701
941.266	0.0138036
941.344	0.0137926
941.423	0.0138258
941.501	0.0139626
941.579	0.0138779
941.657	0.0139460
941.735	0.0138669
941.813	0.0137794
941.891	0.0138260
941.969	0.0138760
942.048	0.0139251
942.126	0.0137405
942.204	0.0138754
942.282	0.0137922
942.360	0.0137550
942.438	0.0137379
942.516	0.0138759
942.594	0.0137759
942.673	0.0136524
942.751	0.0137629
942.829	0.0136461
942.907	0.0136356
942.985	0.0136134
943.063	0.0138113
943.141	0.0136108
943.219	0.0136484
943.298	0.0137148
943.376	0.0136604
943.454	0.0137597
943.532	0.0137386
943.610	0.0138147
943.688	0.0139394
943.766	0.0139220
943.844	0.0139164
943.923	0.0139213
944.001	0.0140363
944.079	0.0140360
944.157	0.0139746
944.235	0.0138055
944.313	0.0140092
944.391	0.0140714
944.469	0.0139466
944.548	0.0140000
944.626	0.0139927
944.704	0.0139197
944.782	0.0139410
944.860	0.0138280
944.938	0.0138764
945.016	0.0137961
945.094	0.0138461
945.173	0.0136651
945.251	0.0136573
945.329	0.0137328
945.407	0.0136555
945.485	0.0138090
945.563	0.0134785
945.641	0.0135023
945.719	0.0134614
945.798	0.0136145
945.876	0.0135207
945.954	0.0134659
946.032	0.0135574
946.110	0.0135029
946.188	0.0134533
946.266	0.0134440
946.344	0.0137251
946.423	0.0136060
946.501	0.0136708
946.579	0.0136613
946.657	0.0137388
946.735	0.0138250
946.813	0.0136398
946.891	0.0137088
946.969	0.0138353
947.048	0.0139598
947.126	0.0138354
947.204	0.0138458
947.282	0.0139566
947.360	0.0139920
947.438	0.0141116
947.516	0.0140034
947.594	0.0140019
947.673	0.0140504
947.751	0.0141208
947.829	0.0139770
947.907	0.0140446
947.985	0.0142677
948.063	0.0142201
948.141	0.0141378
948.219	0.0141571
948.298	0.0140760
948.376	0.0140701
948.454	0.0140514
948.532	0.0140101
948.610	0.0139714
948.688	0.0139195
948.766	0.0139513
948.844	0.0139822
948.923	0.0139075
949.001	0.0139417
949.079	0.0139117
949.157	0.0137828
949.235	0.0137919
949.313	0.0136871
949.391	0.0137312
949.469	0.0138915
949.548	0.0136550
949.626	0.0136789
949.704	0.0135895
949.782	0.0137243
949.860	0.0137260
949.938	0.0135812
950.016	0.0135947
950.094	0.0136375
950.173	0.0136172
950.251	0.0135278
950.329	0.0137363
950.407	0.0136604
950.485	0.0134617
950.563	0.0136227
950.641	0.0135688
950.719	0.0137499
950.798	0.0137849
950.876	0.0138190
950.954	0.0137971
951.032	0.0138235
951.110	0.0138750
951.188	0.0137935
951.266	0.0138572
951.344	0.0138951
951.423	0.0137936
951.501	0.0139035
951.579	0.0139741
951.657	0.0140008
951.735	0.0137920
951.813	0.0138423
951.891	0.0139651
951.969	0.0139469
952.048	0.0137134
952.126	0.0138741
952.204	0.0138724
952.282	0.0137177
952.360	0.0138116
952.438	0.0137566
952.516	0.0138000
952.594	0.0137486
952.673	0.0138962
952.751	0.0137763
952.829	0.0139384
952.907	0.0138657
952.985	0.0138361
953.063	0.0138554
953.141	0.0139649
953.219	0.0141147
953.298	0.0139110
953.376	0.0139239
953.454	0.0140619
953.532	0.0140517
953.610	0.0140289
953.688	0.0140658
953.766	0.0140664
953.844	0.0140774
953.923	0.0140548
954.001	0.0140860
954.079	0.0141719
954.157	0.0139791
954.235	0.0138493
954.313	0.0141247
954.391	0.0140958
954.469	0.0139714
954.548	0.0139341
954.626	0.0138927
954.704	0.0138791
954.782	0.0139536
954.860	0.0138387
954.938	0.0138395
955.016	0.0138297
955.094	0.0138177
955.173	0.0138821
955.251	0.0137904
955.329	0.0137222
955.407	0.0137029
955.485	0.0138615
955.563	0.0137588
955.641	0.0136679
955.719	0.0138931
955.798	0.0136947
955.876	0.0136357
955.954	0.0136812
956.032	0.0137332
956.110	0.0136785
956.188	0.0138105
956.266	0.0136552
956.344	0.0135909
956.423	0.0137046
956.501	0.0135063
956.579	0.0136938
956.657	0.0137421
956.735	0.0136330
956.813	0.0139390
956.891	0.0137574
956.969	0.0135677
957.048	0.0136903
957.126	0.0137279
957.204	0.0137260
957.282	0.0138040
957.360	0.0137212
957.438	0.0137565
957.516	0.0138532
957.594	0.0138438
957.673	0.0137923
957.751	0.0138846
957.829	0.0139030
957.907	0.0138964
957.985	0.0139760
958.063	0.0138773
958.141	0.0138727
958.219	0.0138062
958.298	0.0138683
958.376	0.0138374
958.454	0.0139237
958.532	0.0138851
958.610	0.0138885
958.688	0.0138860
958.766	0.0138391
958.844	0.0138567
958.923	0.0139690
959.001	0.0139194
959.079	0.0137965
959.157	0.0139003
959.235	0.0137640
959.313	0.0138135
959.391	0.0137759
959.469	0.0137538
959.548	0.0138497
959.626	0.0138203
959.704	0.0138481
959.782	0.0137283
959.860	0.0136514
959.938	0.0138371
960.016	0.0139240
960.094	0.0138094
960.173	0.0139168
960.251	0.0138622
960.329	0.0139314
960.407	0.0138811
960.485	0.0139653
960.563	0.0138988
960.641	0.0140240
960.719	0.0139011
960.798	0.0139950
960.876	0.0138137
960.954	0.0138986
961.032	0.0139648
961.110	0.0139447
961.188	0.0138516
961.266	0.0139516
961.344	0.0139427
961.423	0.0137523
961.501	0.0137966
961.579	0.0138024
961.657	0.0138062
961.735	0.0137466
961.813	0.0137885
961.891	0.0137981
961.969	0.0138050
962.048	0.0137763
962.126	0.0137016
962.204	0.0137898
962.282	0.0137274
962.360	0.0137133
962.438	0.0136996
962.516	0.0139171
962.594	0.0137897
962.673	0.0139284
962.751	0.0137882
962.829	0.0137342
962.907	0.0137793
962.985	0.0137978
963.063	0.0137453
963.141	0.0137947
963.219	0.0137300
963.298	0.0137316
963.376	0.0138194
963.454	0.0139162
963.532	0.0138921
963.610	0.0137167
963.688	0.0135194
963.766	0.0136445
963.844	0.0135742
963.923	0.0137377
964.001	0.0138308
964.079	0.0136899
964.157	0.0136655
964.235	0.0136743
964.313	0.0136205
964.391	0.0136279
964.469	0.0137085
964.548	0.0137257
964.626	0.0137229
964.704	0.0137525
964.782	0.0136864
964.860	0.0137096
964.938	0.0138103
965.016	0.0136479
965.094	0.0137612
965.173	0.0137261
965.251	0.0137206
965.329	0.0137602
965.407	0.0136909
965.485	0.0136852
965.563	0.0137916
965.641	0.0137177
965.719	0.0138575
965.798	0.0138258
965.876	0.0139220
965.954	0.0138703
966.032	0.0139806
966.110	0.0138892
966.188	0.0138126
966.266	0.0138141
966.344	0.0139314
966.423	0.0139643
966.501	0.0139026
966.579	0.0138926
966.657	0.0139664
966.735	0.0138013
966.813	0.0139606
966.891	0.0139604
966.969	0.0137952
967.048	0.0137913
967.126	0.0137630
967.204	0.0138388
967.282	0.0136948
967.360	0.0137453
967.438	0.0138471
967.516	0.0137371
967.594	0.0138560
967.673	0.0138241
967.751	0.0138677
967.829	0.0139359
967.907	0.0139344
967.985	0.0139583
968.063	0.0140783
968.141	0.0138250
968.219	0.0138358
968.298	0.0139122
968.376	0.0137954
968.454	0.0139517
968.532	0.0140920
968.610	0.0140545
968.688	0.0140021
968.766	0.0141232
968.844	0.0139469
968.923	0.0139585
969.001	0.0139637
969.079	0.0139176
969.157	0.0139915
969.235	0.0138696
969.313	0.0139744
969.391	0.0138686
969.469	0.0138979
969.548	0.0138412
969.626	0.0137928
969.704	0.0137325
969.782	0.0137055
969.860	0.0138386
969.938	0.0138706
