05/14/2022	19:06:39	Ver.	4.1	UNKNOWN
Optical Delay	650.016352	Delta X		0.078125	Sweeps	1	Scan Rate	0/0
Coordinates	Axis 1	NaN	Axis 2	NaN	Axis 3	NaN	Axis 4	NaN	Axis 5	NaN	Axis 6	0.000000
TX Power	0.000000	RX Power	0.000000

650.016	0.0151581
650.094	0.0151872
650.173	0.0151612
650.251	0.0150573
650.329	0.0151992
650.407	0.0151971
650.485	0.0151276
650.563	0.0151291
650.641	0.0152365
650.719	0.0151244
650.798	0.0150967
650.876	0.0151146
650.954	0.0151376
651.032	0.0151930
651.110	0.0151276
651.188	0.0150555
651.266	0.0151930
651.344	0.0151446
651.423	0.0151162
651.501	0.0151762
651.579	0.0151341
651.657	0.0151708
651.735	0.0150402
651.813	0.0151033
651.891	0.0151675
651.969	0.0151936
652.048	0.0150632
652.126	0.0151437
652.204	0.0150599
652.282	0.0151438
652.360	0.0151082
652.438	0.0150716
652.516	0.0150249
652.594	0.0152346
652.673	0.0151450
652.751	0.0150821
652.829	0.0151216
652.907	0.0151250
652.985	0.0152267
653.063	0.0151082
653.141	0.0151849
653.219	0.0150741
653.298	0.0150790
653.376	0.0150803
653.454	0.0152051
653.532	0.0150608
653.610	0.0150416
653.688	0.0153334
653.766	0.0150336
653.844	0.0152016
653.923	0.0151086
654.001	0.0151881
654.079	0.0150780
654.157	0.0152196
654.235	0.0152199
654.313	0.0151482
654.391	0.0152809
654.469	0.0151678
654.548	0.0151377
654.626	0.0151617
654.704	0.0151690
654.782	0.0152444
654.860	0.0150594
654.938	0.0150842
655.016	0.0150468
655.094	0.0151107
655.173	0.0152037
655.251	0.0151678
655.329	0.0151740
655.407	0.0151658
655.485	0.0151997
655.563	0.0150095
655.641	0.0151307
655.719	0.0152961
655.798	0.0150797
655.876	0.0151048
655.954	0.0152027
656.032	0.0152080
656.110	0.0151258
656.188	0.0151905
656.266	0.0150953
656.344	0.0149961
656.423	0.0151382
656.501	0.0152445
656.579	0.0150900
656.657	0.0152329
656.735	0.0150764
656.813	0.0150053
656.891	0.0151707
656.969	0.0151510
657.048	0.0151201
657.126	0.0151443
657.204	0.0151707
657.282	0.0150404
657.360	0.0150838
657.438	0.0152072
657.516	0.0152095
657.594	0.0151665
657.673	0.0150862
657.751	0.0151907
657.829	0.0150930
657.907	0.0151336
657.985	0.0152498
658.063	0.0152326
658.141	0.0151164
658.219	0.0151203
658.298	0.0152631
658.376	0.0151211
658.454	0.0151817
658.532	0.0151188
658.610	0.0152357
658.688	0.0149387
658.766	0.0151208
658.844	0.0151309
658.923	0.0151984
659.001	0.0152972
659.079	0.0151659
659.157	0.0152692
659.235	0.0151711
659.313	0.0151989
659.391	0.0151849
659.469	0.0152042
659.548	0.0152204
659.626	0.0150854
659.704	0.0151378
659.782	0.0151693
659.860	0.0151907
659.938	0.0151469
660.016	0.0151262
660.094	0.0151850
660.173	0.0153031
660.251	0.0151282
660.329	0.0151111
660.407	0.0150423
660.485	0.0152386
660.563	0.0152099
660.641	0.0151211
660.719	0.0151557
660.798	0.0151295
660.876	0.0151479
660.954	0.0152086
661.032	0.0152766
661.110	0.0152444
661.188	0.0151851
661.266	0.0150938
661.344	0.0151609
661.423	0.0152242
661.501	0.0151637
661.579	0.0152074
661.657	0.0151660
661.735	0.0152060
661.813	0.0152845
661.891	0.0153229
661.969	0.0151855
662.048	0.0150661
662.126	0.0151895
662.204	0.0151882
662.282	0.0151694
662.360	0.0152500
662.438	0.0152149
662.516	0.0151402
662.594	0.0150761
662.673	0.0151650
662.751	0.0151787
662.829	0.0151717
662.907	0.0152289
662.985	0.0151791
663.063	0.0150771
663.141	0.0153073
663.219	0.0150938
663.298	0.0150121
663.376	0.0150755
663.454	0.0152136
663.532	0.0152540
663.610	0.0152538
663.688	0.0152020
663.766	0.0150573
663.844	0.0151264
663.923	0.0151243
664.001	0.0151884
664.079	0.0151405
664.157	0.0151501
664.235	0.0150817
664.313	0.0152628
664.391	0.0151800
664.469	0.0151616
664.548	0.0152147
664.626	0.0152102
664.704	0.0150769
664.782	0.0150723
664.860	0.0152222
664.938	0.0150727
665.016	0.0151502
665.094	0.0151099
665.173	0.0151756
665.251	0.0151746
665.329	0.0152231
665.407	0.0150410
665.485	0.0150655
665.563	0.0151357
665.641	0.0151668
665.719	0.0151125
665.798	0.0152471
665.876	0.0153088
665.954	0.0150816
666.032	0.0152646
666.110	0.0152970
666.188	0.0152425
666.266	0.0153060
666.344	0.0151152
666.423	0.0151572
666.501	0.0151185
666.579	0.0152096
666.657	0.0151539
666.735	0.0150993
666.813	0.0151958
666.891	0.0151590
666.969	0.0152627
667.048	0.0152409
667.126	0.0151210
667.204	0.0153175
667.282	0.0150887
667.360	0.0152872
667.438	0.0152195
667.516	0.0151293
667.594	0.0151334
667.673	0.0152486
667.751	0.0151686
667.829	0.0151616
667.907	0.0151970
667.985	0.0153294
668.063	0.0152571
668.141	0.0151565
668.219	0.0151956
668.298	0.0151514
668.376	0.0151487
668.454	0.0151387
668.532	0.0152299
668.610	0.0151218
668.688	0.0151849
668.766	0.0153503
668.844	0.0152282
668.923	0.0152468
669.001	0.0151207
669.079	0.0152432
669.157	0.0152179
669.235	0.0150473
669.313	0.0151872
669.391	0.0151610
669.469	0.0152165
669.548	0.0152341
669.626	0.0152275
669.704	0.0152053
669.782	0.0150431
669.860	0.0151475
669.938	0.0151948
670.016	0.0151567
670.094	0.0151521
670.173	0.0151254
670.251	0.0151765
670.329	0.0152654
670.407	0.0152691
670.485	0.0151558
670.563	0.0151395
670.641	0.0152169
670.719	0.0152433
670.798	0.0151600
670.876	0.0151949
670.954	0.0151392
671.032	0.0151750
671.110	0.0152005
671.188	0.0151482
671.266	0.0151284
671.344	0.0149863
671.423	0.0150296
671.501	0.0151471
671.579	0.0151035
671.657	0.0151856
671.735	0.0152391
671.813	0.0150860
671.891	0.0150568
671.969	0.0150469
672.048	0.0150498
672.126	0.0150780
672.204	0.0151598
672.282	0.0151579
672.360	0.0150852
672.438	0.0150480
672.516	0.0150980
672.594	0.0150089
672.673	0.0149913
672.751	0.0149460
672.829	0.0150214
672.907	0.0151144
672.985	0.0150512
673.063	0.0149541
673.141	0.0150777
673.219	0.0151055
673.298	0.0149129
673.376	0.0150605
673.454	0.0149650
673.532	0.0149801
673.610	0.0150989
673.688	0.0150531
673.766	0.0150580
673.844	0.0150521
673.923	0.0150137
674.001	0.0149931
674.079	0.0152150
674.157	0.0151148
674.235	0.0149780
674.313	0.0151148
674.391	0.0151055
674.469	0.0151224
674.548	0.0151157
674.626	0.0149758
674.704	0.0149775
674.782	0.0150719
674.860	0.0150646
674.938	0.0149639
675.016	0.0150706
675.094	0.0151253
675.173	0.0149689
675.251	0.0151153
675.329	0.0150973
675.407	0.0149851
675.485	0.0152180
675.563	0.0150745
675.641	0.0151273
675.719	0.0151924
675.798	0.0150340
675.876	0.0151189
675.954	0.0151009
676.032	0.0150792
676.110	0.0151505
676.188	0.0150681
676.266	0.0152052
676.344	0.0151276
676.423	0.0151899
676.501	0.0152281
676.579	0.0151862
676.657	0.0151976
676.735	0.0150687
676.813	0.0151021
676.891	0.0152092
676.969	0.0153077
677.048	0.0151704
677.126	0.0150572
677.204	0.0150824
677.282	0.0150584
677.360	0.0151675
677.438	0.0152701
677.516	0.0153027
677.594	0.0151386
677.673	0.0151384
677.751	0.0151431
677.829	0.0151804
677.907	0.0152023
677.985	0.0152683
678.063	0.0152386
678.141	0.0152361
678.219	0.0151350
678.298	0.0153351
678.376	0.0153339
678.454	0.0152263
678.532	0.0151860
678.610	0.0153099
678.688	0.0153389
678.766	0.0152699
678.844	0.0153449
678.923	0.0153343
679.001	0.0153600
679.079	0.0152240
679.157	0.0152595
679.235	0.0153360
679.313	0.0152406
679.391	0.0152399
679.469	0.0152377
679.548	0.0154166
679.626	0.0152576
679.704	0.0152377
679.782	0.0152086
679.860	0.0153065
679.938	0.0151812
680.016	0.0153577
680.094	0.0152387
680.173	0.0152695
680.251	0.0152476
680.329	0.0153092
680.407	0.0153008
680.485	0.0153104
680.563	0.0153780
680.641	0.0153854
680.719	0.0152394
680.798	0.0152365
680.876	0.0152266
680.954	0.0151999
681.032	0.0151897
681.110	0.0152978
681.188	0.0151286
681.266	0.0152856
681.344	0.0154260
681.423	0.0152474
681.501	0.0152274
681.579	0.0153578
681.657	0.0152276
681.735	0.0152366
681.813	0.0152969
681.891	0.0153350
681.969	0.0152800
682.048	0.0153294
682.126	0.0151997
682.204	0.0152177
682.282	0.0152108
682.360	0.0152075
682.438	0.0152593
682.516	0.0151434
682.594	0.0152156
682.673	0.0150092
682.751	0.0152360
682.829	0.0152467
682.907	0.0151230
682.985	0.0150977
683.063	0.0151506
683.141	0.0152806
683.219	0.0151151
683.298	0.0151498
683.376	0.0151928
683.454	0.0150163
683.532	0.0150701
683.610	0.0151600
683.688	0.0151513
683.766	0.0151493
683.844	0.0151689
683.923	0.0152027
684.001	0.0151181
684.079	0.0150738
684.157	0.0151728
684.235	0.0149982
684.313	0.0150699
684.391	0.0150771
684.469	0.0150631
684.548	0.0150420
684.626	0.0150031
684.704	0.0150538
684.782	0.0150469
684.860	0.0150551
684.938	0.0149943
685.016	0.0151311
685.094	0.0150794
685.173	0.0151964
685.251	0.0151418
685.329	0.0150374
685.407	0.0150870
685.485	0.0150485
685.563	0.0151506
685.641	0.0151537
685.719	0.0151119
685.798	0.0149586
685.876	0.0150690
685.954	0.0151255
686.032	0.0150620
686.110	0.0151149
686.188	0.0151430
686.266	0.0150693
686.344	0.0150757
686.423	0.0150098
686.501	0.0151302
686.579	0.0151056
686.657	0.0151067
686.735	0.0150132
686.813	0.0150251
686.891	0.0150809
686.969	0.0152323
687.048	0.0149492
687.126	0.0151296
687.204	0.0151637
687.282	0.0150465
687.360	0.0152005
687.438	0.0152122
687.516	0.0151029
687.594	0.0151708
687.673	0.0152166
687.751	0.0152172
687.829	0.0150431
687.907	0.0151650
687.985	0.0150935
688.063	0.0151700
688.141	0.0150727
688.219	0.0151998
688.298	0.0151466
688.376	0.0151617
688.454	0.0152245
688.532	0.0153129
688.610	0.0151818
688.688	0.0150806
688.766	0.0152258
688.844	0.0150370
688.923	0.0151875
689.001	0.0151808
689.079	0.0152624
689.157	0.0152372
689.235	0.0152660
689.313	0.0151939
689.391	0.0151424
689.469	0.0151755
689.548	0.0152416
689.626	0.0151659
689.704	0.0150061
689.782	0.0149872
689.860	0.0150738
689.938	0.0150324
690.016	0.0152023
690.094	0.0154147
690.173	0.0155692
690.251	0.0157039
690.329	0.0156406
690.407	0.0157376
690.485	0.0157397
690.563	0.0157239
690.641	0.0154969
690.719	0.0152578
690.798	0.0149255
690.876	0.0148012
690.954	0.0145316
691.032	0.0141126
691.110	0.0139937
691.188	0.0140743
691.266	0.0142224
691.344	0.0145629
691.423	0.0148125
691.501	0.0151260
691.579	0.0155401
691.657	0.0160272
691.735	0.0163052
691.813	0.0166629
691.891	0.0167265
691.969	0.0166921
692.048	0.0165024
692.126	0.0162481
692.204	0.0160860
692.282	0.0155701
692.360	0.0149064
692.438	0.0147014
692.516	0.0143652
692.594	0.0139009
692.673	0.0135813
692.751	0.0134583
692.829	0.0133842
692.907	0.0135256
692.985	0.0135899
693.063	0.0137744
693.141	0.0141640
693.219	0.0144417
693.298	0.0150726
693.376	0.0153763
693.454	0.0156222
693.532	0.0160463
693.610	0.0163579
693.688	0.0164804
693.766	0.0165662
693.844	0.0168224
693.923	0.0167067
694.001	0.0166227
694.079	0.0167606
694.157	0.0165685
694.235	0.0163686
694.313	0.0161717
694.391	0.0158904
694.469	0.0156516
694.548	0.0154391
694.626	0.0151095
694.704	0.0148888
694.782	0.0145734
694.860	0.0142625
694.938	0.0139853
695.016	0.0139148
695.094	0.0137026
695.173	0.0136565
695.251	0.0135334
695.329	0.0133633
695.407	0.0134466
695.485	0.0132996
695.563	0.0135307
695.641	0.0136163
695.719	0.0138688
695.798	0.0140982
695.876	0.0145200
695.954	0.0148104
696.032	0.0150284
696.110	0.0154807
696.188	0.0159250
696.266	0.0160384
696.344	0.0164306
696.423	0.0165997
696.501	0.0170831
696.579	0.0171419
696.657	0.0173590
696.735	0.0174137
696.813	0.0173934
696.891	0.0173792
696.969	0.0172089
697.048	0.0169139
697.126	0.0167957
697.204	0.0163351
697.282	0.0159183
697.360	0.0155100
697.438	0.0150390
697.516	0.0146062
697.594	0.0143139
697.673	0.0137634
697.751	0.0135741
697.829	0.0133759
697.907	0.0130096
697.985	0.0130679
698.063	0.0129411
698.141	0.0129993
698.219	0.0130855
698.298	0.0131165
698.376	0.0133120
698.454	0.0134293
698.532	0.0136863
698.610	0.0137897
698.688	0.0142059
698.766	0.0147301
698.844	0.0146932
698.923	0.0150108
699.001	0.0153590
699.079	0.0156135
699.157	0.0159222
699.235	0.0161024
699.313	0.0161156
699.391	0.0161970
699.469	0.0164390
699.548	0.0165065
699.626	0.0165945
699.704	0.0165950
699.782	0.0165680
699.860	0.0166929
699.938	0.0164925
700.016	0.0165977
700.094	0.0165254
700.173	0.0164330
700.251	0.0163057
700.329	0.0162327
700.407	0.0161178
700.485	0.0160175
700.563	0.0156891
700.641	0.0154741
700.719	0.0154353
700.798	0.0151424
700.876	0.0148619
700.954	0.0146684
701.032	0.0145824
701.110	0.0144182
701.188	0.0141167
701.266	0.0140456
701.344	0.0138152
701.423	0.0137352
701.501	0.0136792
701.579	0.0134830
701.657	0.0135403
701.735	0.0134636
701.813	0.0134755
701.891	0.0135474
701.969	0.0135906
702.048	0.0136210
702.126	0.0137659
702.204	0.0139478
702.282	0.0141889
702.360	0.0142492
702.438	0.0145800
702.516	0.0149662
702.594	0.0150954
702.673	0.0153838
702.751	0.0156136
702.829	0.0158718
702.907	0.0160252
702.985	0.0164189
703.063	0.0163496
703.141	0.0164723
703.219	0.0166678
703.298	0.0165940
703.376	0.0165823
703.454	0.0167411
703.532	0.0165734
703.610	0.0166026
703.688	0.0164949
703.766	0.0162379
703.844	0.0163476
703.923	0.0163171
704.001	0.0160455
704.079	0.0160254
704.157	0.0159677
704.235	0.0158332
704.313	0.0157586
704.391	0.0155264
704.469	0.0155241
704.548	0.0153148
704.626	0.0151837
704.704	0.0150693
704.782	0.0150550
704.860	0.0147823
704.938	0.0145820
705.016	0.0146214
705.094	0.0144218
705.173	0.0142942
705.251	0.0142239
705.329	0.0142581
705.407	0.0142498
705.485	0.0142159
705.563	0.0141662
705.641	0.0141875
705.719	0.0141647
705.798	0.0141521
705.876	0.0140816
705.954	0.0138968
706.032	0.0140961
706.110	0.0141751
706.188	0.0141679
706.266	0.0141405
706.344	0.0143674
706.423	0.0144604
706.501	0.0146519
706.579	0.0147290
706.657	0.0150076
706.735	0.0152893
706.813	0.0154694
706.891	0.0158209
706.969	0.0160043
707.048	0.0160265
707.126	0.0163824
707.204	0.0163597
707.282	0.0165064
707.360	0.0166312
707.438	0.0164565
707.516	0.0164510
707.594	0.0164540
707.673	0.0163620
707.751	0.0162909
707.829	0.0160561
707.907	0.0158427
707.985	0.0158070
708.063	0.0156621
708.141	0.0154810
708.219	0.0153185
708.298	0.0151720
708.376	0.0151087
708.454	0.0151511
708.532	0.0150609
708.610	0.0150254
708.688	0.0150603
708.766	0.0151049
708.844	0.0149979
708.923	0.0148692
709.001	0.0147968
709.079	0.0147930
709.157	0.0147274
709.235	0.0147679
709.313	0.0147424
709.391	0.0147201
709.469	0.0146542
709.548	0.0146481
709.626	0.0146756
709.704	0.0146503
709.782	0.0146592
709.860	0.0147558
709.938	0.0146789
710.016	0.0145943
710.094	0.0146299
710.173	0.0145587
710.251	0.0147452
710.329	0.0146126
710.407	0.0146826
710.485	0.0146661
710.563	0.0147404
710.641	0.0146458
710.719	0.0146822
710.798	0.0147762
710.876	0.0147575
710.954	0.0149374
711.032	0.0148893
711.110	0.0149126
711.188	0.0150908
711.266	0.0151765
711.344	0.0150703
711.423	0.0150814
711.501	0.0152168
711.579	0.0153010
711.657	0.0152406
711.735	0.0154519
711.813	0.0154380
711.891	0.0153989
711.969	0.0155491
712.048	0.0155241
712.126	0.0156144
712.204	0.0155190
712.282	0.0155592
712.360	0.0156857
712.438	0.0156927
712.516	0.0156234
712.594	0.0156989
712.673	0.0156911
712.751	0.0157310
712.829	0.0155154
712.907	0.0156646
712.985	0.0155827
713.063	0.0154786
713.141	0.0152560
713.219	0.0152420
713.298	0.0153009
713.376	0.0153039
713.454	0.0152295
713.532	0.0152846
713.610	0.0152042
713.688	0.0152332
713.766	0.0151048
713.844	0.0151035
713.923	0.0151515
714.001	0.0150647
714.079	0.0150381
714.157	0.0152102
714.235	0.0149989
714.313	0.0149289
714.391	0.0149712
714.469	0.0149210
714.548	0.0147607
714.626	0.0148004
714.704	0.0146220
714.782	0.0146447
714.860	0.0145715
714.938	0.0145691
715.016	0.0147028
715.094	0.0145851
715.173	0.0144838
715.251	0.0145697
715.329	0.0146475
715.407	0.0148263
715.485	0.0149210
715.563	0.0149576
715.641	0.0149532
715.719	0.0149680
715.798	0.0150368
715.876	0.0151398
715.954	0.0150774
716.032	0.0151578
716.110	0.0152071
716.188	0.0154514
716.266	0.0154916
716.344	0.0155085
716.423	0.0154397
716.501	0.0155355
716.579	0.0158135
716.657	0.0156362
716.735	0.0154698
716.813	0.0154924
716.891	0.0156973
716.969	0.0156590
717.048	0.0156725
717.126	0.0155218
717.204	0.0155885
717.282	0.0156232
717.360	0.0155777
717.438	0.0156106
717.516	0.0156702
717.594	0.0156274
717.673	0.0156311
717.751	0.0155182
717.829	0.0153998
717.907	0.0156080
717.985	0.0155650
718.063	0.0153981
718.141	0.0153056
718.219	0.0152603
718.298	0.0150430
718.376	0.0151232
718.454	0.0150227
718.532	0.0149446
718.610	0.0148449
718.688	0.0148089
718.766	0.0147967
718.844	0.0147860
718.923	0.0148068
719.001	0.0147353
719.079	0.0147144
719.157	0.0146573
719.235	0.0148624
719.313	0.0150240
719.391	0.0147172
719.469	0.0149430
719.548	0.0148848
719.626	0.0149471
719.704	0.0149753
719.782	0.0149811
719.860	0.0150025
719.938	0.0149493
720.016	0.0148930
720.094	0.0150130
720.173	0.0150046
720.251	0.0150889
720.329	0.0150474
720.407	0.0150284
720.485	0.0150950
720.563	0.0151801
720.641	0.0152199
720.719	0.0152438
720.798	0.0151394
720.876	0.0153040
720.954	0.0153591
721.032	0.0152355
721.110	0.0153725
721.188	0.0152785
721.266	0.0151258
721.344	0.0153262
721.423	0.0153063
721.501	0.0153068
721.579	0.0151821
721.657	0.0152387
721.735	0.0151418
721.813	0.0152818
721.891	0.0151213
721.969	0.0150698
722.048	0.0151435
722.126	0.0151508
722.204	0.0151485
722.282	0.0151548
722.360	0.0151656
722.438	0.0150631
722.516	0.0151983
722.594	0.0151670
722.673	0.0150649
722.751	0.0151407
722.829	0.0151682
722.907	0.0150922
722.985	0.0153347
723.063	0.0152020
723.141	0.0151499
723.219	0.0152425
723.298	0.0152288
723.376	0.0152649
723.454	0.0152139
723.532	0.0152709
723.610	0.0151320
723.688	0.0150688
723.766	0.0151353
723.844	0.0150159
723.923	0.0151099
724.001	0.0151259
724.079	0.0148983
724.157	0.0149339
724.235	0.0149988
724.313	0.0149676
724.391	0.0148958
724.469	0.0149234
724.548	0.0149220
724.626	0.0148987
724.704	0.0148866
724.782	0.0148120
724.860	0.0147845
724.938	0.0147975
725.016	0.0148440
725.094	0.0149231
725.173	0.0148997
725.251	0.0148722
725.329	0.0149216
725.407	0.0148736
725.485	0.0148540
725.563	0.0148032
725.641	0.0150063
725.719	0.0149831
725.798	0.0148557
725.876	0.0147849
725.954	0.0150567
726.032	0.0150755
726.110	0.0149463
726.188	0.0149283
726.266	0.0150250
726.344	0.0150724
726.423	0.0152584
726.501	0.0152744
726.579	0.0152638
726.657	0.0152930
726.735	0.0153050
726.813	0.0154563
726.891	0.0153799
726.969	0.0154424
727.048	0.0152806
727.126	0.0154021
727.204	0.0154334
727.282	0.0152822
727.360	0.0151672
727.438	0.0152471
727.516	0.0152879
727.594	0.0150479
727.673	0.0149851
727.751	0.0149764
727.829	0.0149139
727.907	0.0149201
727.985	0.0150398
728.063	0.0150837
728.141	0.0148690
728.219	0.0148414
728.298	0.0149459
728.376	0.0152150
728.454	0.0150836
728.532	0.0151399
728.610	0.0152163
728.688	0.0153401
728.766	0.0154340
728.844	0.0154538
728.923	0.0154684
729.001	0.0153012
729.079	0.0153662
729.157	0.0155120
729.235	0.0153912
729.313	0.0154699
729.391	0.0153557
729.469	0.0152878
729.548	0.0154240
729.626	0.0152778
729.704	0.0151944
729.782	0.0152643
729.860	0.0151306
729.938	0.0151963
730.016	0.0150306
730.094	0.0149906
730.173	0.0151927
730.251	0.0151305
730.329	0.0150930
730.407	0.0151199
730.485	0.0151678
730.563	0.0150723
730.641	0.0149880
730.719	0.0151253
730.798	0.0150265
730.876	0.0150492
730.954	0.0151787
731.032	0.0150024
731.110	0.0151177
731.188	0.0151091
731.266	0.0151048
731.344	0.0150830
731.423	0.0151389
731.501	0.0151268
731.579	0.0151592
731.657	0.0151530
731.735	0.0149871
731.813	0.0150932
731.891	0.0151070
731.969	0.0152122
732.048	0.0150893
732.126	0.0152122
732.204	0.0151330
732.282	0.0151064
732.360	0.0153174
732.438	0.0151061
732.516	0.0151724
732.594	0.0150206
732.673	0.0150983
732.751	0.0151991
732.829	0.0150078
732.907	0.0151576
732.985	0.0152450
733.063	0.0151102
733.141	0.0150732
733.219	0.0152052
733.298	0.0150337
733.376	0.0150396
733.454	0.0149670
733.532	0.0151417
733.610	0.0149976
733.688	0.0150108
733.766	0.0151359
733.844	0.0151420
733.923	0.0151595
734.001	0.0151292
734.079	0.0150947
734.157	0.0150909
734.235	0.0151349
734.313	0.0151716
734.391	0.0152224
734.469	0.0150901
734.548	0.0150896
734.626	0.0151573
734.704	0.0152413
734.782	0.0152976
734.860	0.0153144
734.938	0.0153448
735.016	0.0152847
735.094	0.0153094
735.173	0.0153481
735.251	0.0152838
735.329	0.0152319
735.407	0.0150863
735.485	0.0151059
735.563	0.0150829
735.641	0.0152882
735.719	0.0151551
735.798	0.0150608
735.876	0.0150175
735.954	0.0149017
736.032	0.0148375
736.110	0.0150412
736.188	0.0150114
736.266	0.0148588
736.344	0.0149224
736.423	0.0148347
736.501	0.0147937
736.579	0.0147621
736.657	0.0148627
736.735	0.0148917
736.813	0.0148179
736.891	0.0148267
736.969	0.0149007
737.048	0.0150259
737.126	0.0149922
737.204	0.0150074
737.282	0.0150190
737.360	0.0152141
737.438	0.0150729
737.516	0.0152902
737.594	0.0154290
737.673	0.0153935
737.751	0.0153466
737.829	0.0154325
737.907	0.0155530
737.985	0.0155402
738.063	0.0154752
738.141	0.0154281
738.219	0.0154396
738.298	0.0155102
738.376	0.0154105
738.454	0.0154337
738.532	0.0153634
738.610	0.0154166
738.688	0.0153504
738.766	0.0153014
738.844	0.0154179
738.923	0.0151959
739.001	0.0151012
739.079	0.0151675
739.157	0.0150278
739.235	0.0150439
739.313	0.0149796
739.391	0.0149970
739.469	0.0148392
739.548	0.0149269
739.626	0.0148336
739.704	0.0148604
739.782	0.0149639
739.860	0.0148991
739.938	0.0149421
740.016	0.0150568
740.094	0.0149476
740.173	0.0150203
740.251	0.0149971
740.329	0.0153336
740.407	0.0151858
740.485	0.0152036
740.563	0.0153947
740.641	0.0152662
740.719	0.0153031
740.798	0.0153776
740.876	0.0155247
740.954	0.0154632
741.032	0.0154486
741.110	0.0153734
741.188	0.0153011
741.266	0.0151360
741.344	0.0151546
741.423	0.0152271
741.501	0.0149430
741.579	0.0150053
741.657	0.0149604
741.735	0.0148197
741.813	0.0146548
741.891	0.0147144
741.969	0.0147803
742.048	0.0146142
742.126	0.0147926
742.204	0.0148757
742.282	0.0147397
742.360	0.0148199
742.438	0.0148241
742.516	0.0150600
742.594	0.0151483
742.673	0.0151620
742.751	0.0152908
742.829	0.0154906
742.907	0.0155648
742.985	0.0155909
743.063	0.0158707
743.141	0.0156963
743.219	0.0154723
743.298	0.0156741
743.376	0.0156792
743.454	0.0155764
743.532	0.0156611
743.610	0.0158257
743.688	0.0155043
743.766	0.0152625
743.844	0.0153008
743.923	0.0153040
744.001	0.0152635
744.079	0.0151394
744.157	0.0150952
744.235	0.0150642
744.313	0.0149963
744.391	0.0149818
744.469	0.0147810
744.548	0.0148479
744.626	0.0148876
744.704	0.0150278
744.782	0.0149033
744.860	0.0150713
744.938	0.0148640
745.016	0.0150669
745.094	0.0149987
745.173	0.0150413
745.251	0.0149983
745.329	0.0150620
745.407	0.0149855
745.485	0.0150580
745.563	0.0150903
745.641	0.0150332
745.719	0.0149216
745.798	0.0150510
745.876	0.0151948
745.954	0.0152809
746.032	0.0151703
746.110	0.0152143
746.188	0.0153310
746.266	0.0151933
746.344	0.0153403
746.423	0.0154659
746.501	0.0154467
746.579	0.0153397
746.657	0.0152415
746.735	0.0155091
746.813	0.0153622
746.891	0.0152699
746.969	0.0153712
747.048	0.0153643
747.126	0.0152339
747.204	0.0152034
747.282	0.0152380
747.360	0.0151629
747.438	0.0150867
747.516	0.0149902
747.594	0.0150177
747.673	0.0149502
747.751	0.0149222
747.829	0.0149164
747.907	0.0149472
747.985	0.0148338
748.063	0.0147552
748.141	0.0148880
748.219	0.0148729
748.298	0.0148148
748.376	0.0148767
748.454	0.0148951
748.532	0.0150061
748.610	0.0149989
748.688	0.0150671
748.766	0.0152341
748.844	0.0152068
748.923	0.0152985
749.001	0.0152183
749.079	0.0153452
749.157	0.0154450
749.235	0.0152862
749.313	0.0153975
749.391	0.0155180
749.469	0.0154300
749.548	0.0154682
749.626	0.0153819
749.704	0.0154707
749.782	0.0155403
749.860	0.0154459
749.938	0.0153420
750.016	0.0152873
750.094	0.0154123
750.173	0.0150995
750.251	0.0151437
750.329	0.0152029
750.407	0.0149986
750.485	0.0150013
750.563	0.0149918
750.641	0.0148918
750.719	0.0148777
750.798	0.0148305
750.876	0.0148320
750.954	0.0148826
751.032	0.0149155
751.110	0.0149456
751.188	0.0148993
751.266	0.0148653
751.344	0.0150819
751.423	0.0150591
751.501	0.0150092
751.579	0.0150701
751.657	0.0150739
751.735	0.0151453
751.813	0.0152298
751.891	0.0151662
751.969	0.0153088
752.048	0.0151308
752.126	0.0151867
752.204	0.0151342
752.282	0.0152358
752.360	0.0150794
752.438	0.0148344
752.516	0.0152090
752.594	0.0149709
752.673	0.0149856
752.751	0.0149815
752.829	0.0150056
752.907	0.0149466
752.985	0.0148042
753.063	0.0148540
753.141	0.0149385
753.219	0.0148656
753.298	0.0147733
753.376	0.0149911
753.454	0.0150481
753.532	0.0149918
753.610	0.0150209
753.688	0.0151725
753.766	0.0150787
753.844	0.0151970
753.923	0.0153362
754.001	0.0152373
754.079	0.0152295
754.157	0.0153326
754.235	0.0154247
754.313	0.0154501
754.391	0.0154987
754.469	0.0154612
754.548	0.0155826
754.626	0.0155615
754.704	0.0154839
754.782	0.0155131
754.860	0.0155848
754.938	0.0156566
755.016	0.0155914
755.094	0.0155045
755.173	0.0154523
755.251	0.0154299
755.329	0.0153722
755.407	0.0154823
755.485	0.0153136
755.563	0.0152479
755.641	0.0154561
755.719	0.0153611
755.798	0.0152620
755.876	0.0152922
755.954	0.0152656
756.032	0.0152677
756.110	0.0150246
756.188	0.0151235
756.266	0.0150428
756.344	0.0149324
756.423	0.0150494
756.501	0.0150042
756.579	0.0150565
756.657	0.0149756
756.735	0.0148357
756.813	0.0150168
756.891	0.0150524
756.969	0.0150034
757.048	0.0149128
757.126	0.0149430
757.204	0.0149289
757.282	0.0150335
757.360	0.0150750
757.438	0.0150868
757.516	0.0150772
757.594	0.0149020
757.673	0.0149010
757.751	0.0150024
757.829	0.0150737
757.907	0.0150403
757.985	0.0150570
758.063	0.0148495
758.141	0.0148980
758.219	0.0149277
758.298	0.0149154
758.376	0.0148975
758.454	0.0148452
758.532	0.0147483
758.610	0.0149048
758.688	0.0149914
758.766	0.0146778
758.844	0.0148153
758.923	0.0149077
759.001	0.0149136
759.079	0.0149831
759.157	0.0150883
759.235	0.0149372
759.313	0.0150563
759.391	0.0152007
759.469	0.0151723
759.548	0.0153043
759.626	0.0153054
759.704	0.0153362
759.782	0.0153128
759.860	0.0153640
759.938	0.0155489
760.016	0.0154883
760.094	0.0156166
760.173	0.0155315
760.251	0.0156631
760.329	0.0156348
760.407	0.0154726
760.485	0.0154665
760.563	0.0155689
760.641	0.0155182
760.719	0.0155112
760.798	0.0153461
760.876	0.0152658
760.954	0.0151302
761.032	0.0152553
761.110	0.0152052
761.188	0.0150549
761.266	0.0150517
761.344	0.0149126
761.423	0.0148278
761.501	0.0147929
761.579	0.0147043
761.657	0.0145802
761.735	0.0147197
761.813	0.0144976
761.891	0.0146794
761.969	0.0148264
762.048	0.0146704
762.126	0.0145813
762.204	0.0146867
762.282	0.0147722
762.360	0.0149273
762.438	0.0150195
762.516	0.0148868
762.594	0.0150605
762.673	0.0152826
762.751	0.0152662
762.829	0.0153120
762.907	0.0153168
762.985	0.0154073
763.063	0.0155276
763.141	0.0154673
763.219	0.0153898
763.298	0.0155684
763.376	0.0155049
763.454	0.0153909
763.532	0.0153198
763.610	0.0154496
763.688	0.0152487
763.766	0.0152009
763.844	0.0149540
763.923	0.0151165
764.001	0.0149926
764.079	0.0149253
764.157	0.0148823
764.235	0.0149490
764.313	0.0149478
764.391	0.0148277
764.469	0.0146719
764.548	0.0147852
764.626	0.0150027
764.704	0.0149369
764.782	0.0148665
764.860	0.0149471
764.938	0.0149718
765.016	0.0149459
765.094	0.0151015
765.173	0.0151504
765.251	0.0153460
765.329	0.0152745
765.407	0.0152795
765.485	0.0154659
765.563	0.0154580
765.641	0.0155334
765.719	0.0156900
765.798	0.0155807
765.876	0.0157196
765.954	0.0158189
766.032	0.0154916
766.110	0.0156818
766.188	0.0155699
766.266	0.0156615
766.344	0.0155022
766.423	0.0154925
766.501	0.0156503
766.579	0.0154611
766.657	0.0154167
766.735	0.0151273
766.813	0.0151248
766.891	0.0151245
766.969	0.0149546
767.048	0.0149123
767.126	0.0148340
767.204	0.0149411
767.282	0.0147958
767.360	0.0146386
767.438	0.0145836
767.516	0.0145473
767.594	0.0146352
767.673	0.0146526
767.751	0.0147334
767.829	0.0146383
767.907	0.0147527
767.985	0.0146420
768.063	0.0147559
768.141	0.0148425
768.219	0.0148386
768.298	0.0149964
768.376	0.0149918
768.454	0.0150441
768.532	0.0149447
768.610	0.0151666
768.688	0.0152094
768.766	0.0152961
768.844	0.0152285
768.923	0.0152929
769.001	0.0154130
769.079	0.0155076
769.157	0.0154436
769.235	0.0155042
769.313	0.0154137
769.391	0.0154878
769.469	0.0155843
769.548	0.0157117
769.626	0.0156432
769.704	0.0157044
769.782	0.0156332
769.860	0.0154875
769.938	0.0154654
770.016	0.0156211
770.094	0.0154507
770.173	0.0153924
770.251	0.0153675
770.329	0.0154665
770.407	0.0154458
770.485	0.0153290
770.563	0.0154402
770.641	0.0152382
770.719	0.0152312
770.798	0.0152705
770.876	0.0152928
770.954	0.0151286
771.032	0.0151089
771.110	0.0149478
771.188	0.0149234
771.266	0.0149783
771.344	0.0148620
771.423	0.0148487
771.501	0.0147064
771.579	0.0147375
771.657	0.0146745
771.735	0.0146629
771.813	0.0145326
771.891	0.0145909
771.969	0.0144954
772.048	0.0145728
772.126	0.0146342
772.204	0.0147241
772.282	0.0147420
772.360	0.0146861
772.438	0.0146365
772.516	0.0148449
772.594	0.0148573
772.673	0.0149955
772.751	0.0151035
772.829	0.0149345
772.907	0.0150069
772.985	0.0151432
773.063	0.0151972
773.141	0.0151927
773.219	0.0153018
773.298	0.0152999
773.376	0.0152960
773.454	0.0153687
773.532	0.0154152
773.610	0.0154374
773.688	0.0154387
773.766	0.0153754
773.844	0.0154482
773.923	0.0155073
774.001	0.0155034
774.079	0.0153488
774.157	0.0155327
774.235	0.0153669
774.313	0.0152993
774.391	0.0152454
774.469	0.0152911
774.548	0.0152670
774.626	0.0151801
774.704	0.0153313
774.782	0.0151943
774.860	0.0153266
774.938	0.0152808
775.016	0.0152172
775.094	0.0152081
775.173	0.0151164
775.251	0.0153029
775.329	0.0152605
775.407	0.0151837
775.485	0.0153019
775.563	0.0151939
775.641	0.0153434
775.719	0.0153031
775.798	0.0151661
775.876	0.0152073
775.954	0.0153559
776.032	0.0152560
776.110	0.0152944
776.188	0.0152115
776.266	0.0151601
776.344	0.0151847
776.423	0.0152610
776.501	0.0152390
776.579	0.0150494
776.657	0.0150111
776.735	0.0149971
776.813	0.0149262
776.891	0.0149906
776.969	0.0148785
777.048	0.0149396
777.126	0.0148003
777.204	0.0147625
777.282	0.0147890
777.360	0.0148289
777.438	0.0149014
777.516	0.0146515
777.594	0.0148410
777.673	0.0147584
777.751	0.0148662
777.829	0.0149197
777.907	0.0148647
777.985	0.0150792
778.063	0.0151195
778.141	0.0150292
778.219	0.0150556
778.298	0.0150116
778.376	0.0152312
778.454	0.0153822
778.532	0.0152877
778.610	0.0153255
778.688	0.0152261
778.766	0.0151591
778.844	0.0152026
778.923	0.0153085
779.001	0.0152959
779.079	0.0153087
779.157	0.0153114
779.235	0.0152135
779.313	0.0152894
779.391	0.0151591
779.469	0.0152779
779.548	0.0152915
779.626	0.0151647
779.704	0.0151098
779.782	0.0151982
779.860	0.0151989
779.938	0.0152103
780.016	0.0151241
780.094	0.0152460
780.173	0.0151842
780.251	0.0154068
780.329	0.0152300
780.407	0.0150550
780.485	0.0152386
780.563	0.0153054
780.641	0.0152309
780.719	0.0154034
780.798	0.0151418
780.876	0.0150567
780.954	0.0152463
781.032	0.0150462
781.110	0.0151957
781.188	0.0150691
781.266	0.0150003
781.344	0.0150488
781.423	0.0149579
781.501	0.0149386
781.579	0.0149039
781.657	0.0150598
781.735	0.0149862
781.813	0.0150339
781.891	0.0149975
781.969	0.0151251
782.048	0.0149954
782.126	0.0151804
782.204	0.0151112
782.282	0.0151038
782.360	0.0152238
782.438	0.0152821
782.516	0.0152842
782.594	0.0153335
782.673	0.0152592
782.751	0.0152821
782.829	0.0152547
782.907	0.0152937
782.985	0.0152330
783.063	0.0153369
783.141	0.0152174
783.219	0.0152481
783.298	0.0151388
783.376	0.0151696
783.454	0.0151676
783.532	0.0152203
783.610	0.0152487
783.688	0.0151640
783.766	0.0150074
783.844	0.0151735
783.923	0.0150115
784.001	0.0149151
784.079	0.0150672
784.157	0.0149786
784.235	0.0149912
784.313	0.0149961
784.391	0.0149443
784.469	0.0149142
784.548	0.0149387
784.626	0.0148831
784.704	0.0148833
784.782	0.0150145
784.860	0.0149387
784.938	0.0149606
785.016	0.0150415
785.094	0.0148892
785.173	0.0149238
785.251	0.0149918
785.329	0.0150130
785.407	0.0149421
785.485	0.0150036
785.563	0.0150659
785.641	0.0149479
785.719	0.0151321
785.798	0.0150182
785.876	0.0151676
785.954	0.0151234
786.032	0.0151381
786.110	0.0151091
786.188	0.0150859
786.266	0.0153000
786.344	0.0153304
786.423	0.0153848
786.501	0.0154485
786.579	0.0152531
786.657	0.0154243
786.735	0.0155396
786.813	0.0153683
786.891	0.0154642
786.969	0.0153883
787.048	0.0153648
787.126	0.0154309
787.204	0.0152326
787.282	0.0153550
787.360	0.0151885
787.438	0.0152363
787.516	0.0151390
787.594	0.0152545
787.673	0.0152404
787.751	0.0150099
787.829	0.0152105
787.907	0.0152209
787.985	0.0151408
788.063	0.0150427
788.141	0.0151218
788.219	0.0151584
788.298	0.0150604
788.376	0.0150269
788.454	0.0151181
788.532	0.0150346
788.610	0.0150462
788.688	0.0150883
788.766	0.0150314
788.844	0.0150117
788.923	0.0149980
789.001	0.0150423
789.079	0.0150523
789.157	0.0149405
789.235	0.0149754
789.313	0.0149824
789.391	0.0151312
789.469	0.0150711
789.548	0.0149851
789.626	0.0149039
789.704	0.0150103
789.782	0.0149822
789.860	0.0149836
789.938	0.0150756
790.016	0.0149765
790.094	0.0152098
790.173	0.0152094
790.251	0.0152100
790.329	0.0152763
790.407	0.0152390
790.485	0.0154578
790.563	0.0154574
790.641	0.0153805
790.719	0.0153361
790.798	0.0153831
790.876	0.0153016
790.954	0.0152290
791.032	0.0152917
791.110	0.0152757
791.188	0.0149372
791.266	0.0150708
791.344	0.0150938
791.423	0.0149708
791.501	0.0150699
791.579	0.0148586
791.657	0.0147308
791.735	0.0148933
791.813	0.0149355
791.891	0.0147706
791.969	0.0147466
792.048	0.0146413
792.126	0.0147892
792.204	0.0147974
792.282	0.0148331
792.360	0.0149265
792.438	0.0149590
792.516	0.0149511
792.594	0.0149512
792.673	0.0150640
792.751	0.0151910
792.829	0.0152668
792.907	0.0153620
792.985	0.0152888
793.063	0.0155518
793.141	0.0154739
793.219	0.0153749
793.298	0.0154729
793.376	0.0155125
793.454	0.0154935
793.532	0.0154053
793.610	0.0155096
793.688	0.0154289
793.766	0.0152495
793.844	0.0152686
793.923	0.0152102
794.001	0.0150491
794.079	0.0149218
794.157	0.0149337
794.235	0.0148340
794.313	0.0149638
794.391	0.0150399
794.469	0.0148949
794.548	0.0149086
794.626	0.0147987
794.704	0.0148759
794.782	0.0148226
794.860	0.0148521
794.938	0.0149170
795.016	0.0149583
795.094	0.0150797
795.173	0.0149764
795.251	0.0150333
795.329	0.0149697
795.407	0.0149096
795.485	0.0151070
795.563	0.0150303
795.641	0.0150774
795.719	0.0151007
795.798	0.0151570
795.876	0.0152213
795.954	0.0151809
796.032	0.0153832
796.110	0.0152533
796.188	0.0153022
796.266	0.0153071
796.344	0.0151434
796.423	0.0153027
796.501	0.0152473
796.579	0.0153312
796.657	0.0153160
796.735	0.0152209
796.813	0.0153356
796.891	0.0153429
796.969	0.0152492
797.048	0.0152439
797.126	0.0151922
797.204	0.0152603
797.282	0.0151851
797.360	0.0151890
797.438	0.0150825
797.516	0.0151871
797.594	0.0150557
797.673	0.0150661
797.751	0.0148305
797.829	0.0147672
797.907	0.0148090
797.985	0.0146171
798.063	0.0146979
798.141	0.0146914
798.219	0.0144013
798.298	0.0145989
798.376	0.0145535
798.454	0.0145412
798.532	0.0146890
798.610	0.0145541
798.688	0.0146189
798.766	0.0146646
798.844	0.0147506
798.923	0.0150050
799.001	0.0149394
799.079	0.0149808
799.157	0.0149482
799.235	0.0151045
799.313	0.0155002
799.391	0.0153720
799.469	0.0153679
799.548	0.0155458
799.626	0.0155341
799.704	0.0155032
799.782	0.0156375
799.860	0.0156726
799.938	0.0156354
800.016	0.0157411
800.094	0.0157898
800.173	0.0157095
800.251	0.0157673
800.329	0.0157069
800.407	0.0156218
800.485	0.0156287
800.563	0.0155247
800.641	0.0154895
800.719	0.0153913
800.798	0.0154444
800.876	0.0152428
800.954	0.0152781
801.032	0.0152004
801.110	0.0150909
801.188	0.0151809
801.266	0.0150324
801.344	0.0150843
801.423	0.0151869
801.501	0.0150488
801.579	0.0148788
801.657	0.0148766
801.735	0.0150554
801.813	0.0149250
801.891	0.0149527
801.969	0.0150327
802.048	0.0149095
802.126	0.0151421
802.204	0.0150632
802.282	0.0150098
802.360	0.0149873
802.438	0.0150668
802.516	0.0150972
802.594	0.0150960
802.673	0.0149532
802.751	0.0150421
802.829	0.0151720
802.907	0.0150278
802.985	0.0150387
803.063	0.0149842
803.141	0.0150616
803.219	0.0150291
803.298	0.0150143
803.376	0.0150443
803.454	0.0149677
803.532	0.0150375
803.610	0.0149696
803.688	0.0149841
803.766	0.0149755
803.844	0.0150338
803.923	0.0149619
804.001	0.0152068
804.079	0.0151382
804.157	0.0152059
804.235	0.0150860
804.313	0.0152379
804.391	0.0152723
804.469	0.0152510
804.548	0.0151568
804.626	0.0153648
804.704	0.0153095
804.782	0.0152720
804.860	0.0152674
804.938	0.0153574
805.016	0.0153015
805.094	0.0152418
805.173	0.0151695
805.251	0.0151676
805.329	0.0152289
805.407	0.0151484
805.485	0.0151646
805.563	0.0151261
805.641	0.0150523
805.719	0.0150406
805.798	0.0150916
805.876	0.0148933
805.954	0.0150343
806.032	0.0150789
806.110	0.0150344
806.188	0.0149706
806.266	0.0150093
806.344	0.0149654
806.423	0.0150031
806.501	0.0149663
806.579	0.0150129
806.657	0.0150628
806.735	0.0152391
806.813	0.0152740
806.891	0.0150605
806.969	0.0152552
807.048	0.0154047
807.126	0.0153368
807.204	0.0152676
807.282	0.0152444
807.360	0.0153133
807.438	0.0152037
807.516	0.0152882
807.594	0.0153291
807.673	0.0151797
807.751	0.0153239
807.829	0.0154008
807.907	0.0153185
807.985	0.0152291
808.063	0.0150661
808.141	0.0149295
808.219	0.0150784
808.298	0.0151865
808.376	0.0150842
808.454	0.0147929
808.532	0.0149475
808.610	0.0149947
808.688	0.0148998
808.766	0.0147982
808.844	0.0149226
808.923	0.0150443
809.001	0.0147677
809.079	0.0148179
809.157	0.0148426
809.235	0.0149464
809.313	0.0150278
809.391	0.0150735
809.469	0.0149507
809.548	0.0150956
809.626	0.0150323
809.704	0.0149115
809.782	0.0151559
809.860	0.0152853
809.938	0.0151167
810.016	0.0153007
810.094	0.0151596
810.173	0.0151913
810.251	0.0152418
810.329	0.0153540
810.407	0.0155119
810.485	0.0153152
810.563	0.0154153
810.641	0.0154893
810.719	0.0154565
810.798	0.0153624
810.876	0.0153622
810.954	0.0153445
811.032	0.0152351
811.110	0.0153452
811.188	0.0151370
811.266	0.0152110
811.344	0.0150053
811.423	0.0150791
811.501	0.0149506
811.579	0.0150134
811.657	0.0149204
811.735	0.0148293
811.813	0.0149883
811.891	0.0149582
811.969	0.0150101
812.048	0.0149287
812.126	0.0150050
812.204	0.0149359
812.282	0.0149371
812.360	0.0149216
812.438	0.0150230
812.516	0.0151626
812.594	0.0150489
812.673	0.0151500
812.751	0.0151282
812.829	0.0151755
812.907	0.0153585
812.985	0.0152336
813.063	0.0151334
813.141	0.0152914
813.219	0.0153180
813.298	0.0154027
813.376	0.0153440
813.454	0.0153094
813.532	0.0152969
813.610	0.0152788
813.688	0.0152270
813.766	0.0152586
813.844	0.0152611
813.923	0.0151151
814.001	0.0150552
814.079	0.0151141
814.157	0.0150834
814.235	0.0149661
814.313	0.0151772
814.391	0.0151185
814.469	0.0152054
814.548	0.0151491
814.626	0.0151059
814.704	0.0150970
814.782	0.0152555
814.860	0.0152019
814.938	0.0151949
815.016	0.0151855
815.094	0.0154073
815.173	0.0152080
815.251	0.0153986
815.329	0.0153992
815.407	0.0152003
815.485	0.0151270
815.563	0.0152378
815.641	0.0152160
815.719	0.0152007
815.798	0.0151882
815.876	0.0152238
815.954	0.0150872
816.032	0.0150599
816.110	0.0151042
816.188	0.0150674
816.266	0.0151607
816.344	0.0150962
816.423	0.0150500
816.501	0.0149828
816.579	0.0150708
816.657	0.0148891
816.735	0.0150612
816.813	0.0150319
816.891	0.0150250
816.969	0.0150430
817.048	0.0149587
817.126	0.0149984
817.204	0.0150196
817.282	0.0149522
817.360	0.0149463
817.438	0.0149413
817.516	0.0148759
817.594	0.0148594
817.673	0.0150157
817.751	0.0148418
817.829	0.0149593
817.907	0.0148542
817.985	0.0149973
818.063	0.0147758
818.141	0.0148517
818.219	0.0149108
818.298	0.0149557
818.376	0.0151167
818.454	0.0149596
818.532	0.0150187
818.610	0.0150067
818.688	0.0150651
818.766	0.0152539
818.844	0.0153265
818.923	0.0152380
819.001	0.0151654
819.079	0.0152896
819.157	0.0150599
819.235	0.0150919
819.313	0.0152650
819.391	0.0151923
819.469	0.0152612
819.548	0.0152636
819.626	0.0153922
819.704	0.0153117
819.782	0.0155056
819.860	0.0153859
819.938	0.0152843
820.016	0.0154201
820.094	0.0153764
820.173	0.0153756
820.251	0.0155562
820.329	0.0155004
820.407	0.0155122
820.485	0.0153487
820.563	0.0153655
820.641	0.0154945
820.719	0.0153147
820.798	0.0153374
820.876	0.0152752
820.954	0.0151943
821.032	0.0151643
821.110	0.0150816
821.188	0.0151315
821.266	0.0149944
821.344	0.0149519
821.423	0.0148263
821.501	0.0148502
821.579	0.0148325
821.657	0.0148941
821.735	0.0146249
821.813	0.0146241
821.891	0.0146456
821.969	0.0146261
822.048	0.0146491
822.126	0.0146198
822.204	0.0146360
822.282	0.0147295
822.360	0.0145738
822.438	0.0146203
822.516	0.0146352
822.594	0.0146480
822.673	0.0146478
822.751	0.0147313
822.829	0.0147550
822.907	0.0148605
822.985	0.0148063
823.063	0.0148763
823.141	0.0149555
823.219	0.0151087
823.298	0.0151459
823.376	0.0151403
823.454	0.0153053
823.532	0.0153060
823.610	0.0153667
823.688	0.0154704
823.766	0.0155791
823.844	0.0155078
823.923	0.0154855
824.001	0.0156165
824.079	0.0154647
824.157	0.0154293
824.235	0.0154531
824.313	0.0154741
824.391	0.0155255
824.469	0.0155811
824.548	0.0155260
824.626	0.0154172
824.704	0.0155399
824.782	0.0153672
824.860	0.0152065
824.938	0.0153038
825.016	0.0152901
825.094	0.0152191
825.173	0.0153404
825.251	0.0151276
825.329	0.0150875
825.407	0.0152007
825.485	0.0151366
825.563	0.0150711
825.641	0.0151915
825.719	0.0151226
825.798	0.0151069
825.876	0.0151220
825.954	0.0151849
826.032	0.0150894
826.110	0.0150396
826.188	0.0151135
826.266	0.0151987
826.344	0.0152444
826.423	0.0151994
826.501	0.0152455
826.579	0.0151778
826.657	0.0151894
826.735	0.0151777
826.813	0.0150397
826.891	0.0149949
826.969	0.0151886
827.048	0.0150116
827.126	0.0149580
827.204	0.0148460
827.282	0.0147524
827.360	0.0147498
827.438	0.0146880
827.516	0.0147343
827.594	0.0146534
827.673	0.0144961
827.751	0.0146011
827.829	0.0145977
827.907	0.0145655
827.985	0.0146420
828.063	0.0146042
828.141	0.0144546
828.219	0.0146352
828.298	0.0145782
828.376	0.0144273
828.454	0.0147253
828.532	0.0147620
828.610	0.0147731
828.688	0.0147686
828.766	0.0148643
828.844	0.0148948
828.923	0.0151891
829.001	0.0152151
829.079	0.0151790
829.157	0.0153400
829.235	0.0154074
829.313	0.0155687
829.391	0.0156174
829.469	0.0157197
829.548	0.0158219
829.626	0.0158164
829.704	0.0158240
829.782	0.0158775
829.860	0.0160056
829.938	0.0160505
830.016	0.0159818
830.094	0.0159087
830.173	0.0158759
830.251	0.0158688
830.329	0.0159108
830.407	0.0158931
830.485	0.0158936
830.563	0.0157536
830.641	0.0157208
830.719	0.0157494
830.798	0.0155558
830.876	0.0154143
830.954	0.0152290
831.032	0.0153252
831.110	0.0152583
831.188	0.0150864
831.266	0.0150269
831.344	0.0149611
831.423	0.0148367
831.501	0.0148756
831.579	0.0146818
831.657	0.0147216
831.735	0.0145514
831.813	0.0146400
831.891	0.0145588
831.969	0.0146060
832.048	0.0143684
832.126	0.0145301
832.204	0.0143653
832.282	0.0143605
832.360	0.0144320
832.438	0.0145789
832.516	0.0143916
832.594	0.0144279
832.673	0.0143676
832.751	0.0143821
832.829	0.0145343
832.907	0.0146492
832.985	0.0145612
833.063	0.0144354
833.141	0.0146288
833.219	0.0149065
833.298	0.0149106
833.376	0.0149570
833.454	0.0151134
833.532	0.0152371
833.610	0.0152216
833.688	0.0153242
833.766	0.0154067
833.844	0.0154288
833.923	0.0155591
834.001	0.0155639
834.079	0.0156136
834.157	0.0156187
834.235	0.0157100
834.313	0.0156876
834.391	0.0155829
834.469	0.0157320
834.548	0.0157594
834.626	0.0156513
834.704	0.0157270
834.782	0.0157979
834.860	0.0155705
834.938	0.0156296
835.016	0.0155757
835.094	0.0156083
835.173	0.0155891
835.251	0.0156010
835.329	0.0154680
835.407	0.0154289
835.485	0.0153424
835.563	0.0152913
835.641	0.0152493
835.719	0.0153618
835.798	0.0152728
835.876	0.0153609
835.954	0.0151617
836.032	0.0150233
836.110	0.0151197
836.188	0.0150347
836.266	0.0149966
836.344	0.0148624
836.423	0.0148935
836.501	0.0148973
836.579	0.0149342
836.657	0.0148987
836.735	0.0146888
836.813	0.0148089
836.891	0.0149314
836.969	0.0148135
837.048	0.0149059
837.126	0.0148242
837.204	0.0147797
837.282	0.0149545
837.360	0.0148949
837.438	0.0148141
837.516	0.0148541
837.594	0.0148685
837.673	0.0149216
837.751	0.0149765
837.829	0.0149617
837.907	0.0149169
837.985	0.0149818
838.063	0.0148918
838.141	0.0149438
838.219	0.0151177
838.298	0.0149405
838.376	0.0149059
838.454	0.0149648
838.532	0.0149876
838.610	0.0149908
838.688	0.0150266
838.766	0.0151667
838.844	0.0149514
838.923	0.0150386
839.001	0.0151563
839.079	0.0151054
839.157	0.0151342
839.235	0.0152149
839.313	0.0152168
839.391	0.0152306
839.469	0.0153262
839.548	0.0151505
839.626	0.0152819
839.704	0.0152888
839.782	0.0152991
839.860	0.0155704
839.938	0.0155529
840.016	0.0154572
840.094	0.0153770
840.173	0.0153607
840.251	0.0153936
840.329	0.0153148
840.407	0.0153676
840.485	0.0153202
840.563	0.0154611
840.641	0.0154018
840.719	0.0155565
840.798	0.0154412
840.876	0.0154345
840.954	0.0153961
841.032	0.0152991
841.110	0.0151997
841.188	0.0153918
841.266	0.0153486
841.344	0.0153674
841.423	0.0153404
841.501	0.0151172
841.579	0.0153191
841.657	0.0153494
841.735	0.0152818
841.813	0.0152649
841.891	0.0151736
841.969	0.0152111
842.048	0.0151434
842.126	0.0152702
842.204	0.0153162
842.282	0.0151351
842.360	0.0151339
842.438	0.0150558
842.516	0.0150912
842.594	0.0150206
842.673	0.0150935
842.751	0.0150417
842.829	0.0149438
842.907	0.0149927
842.985	0.0150064
843.063	0.0148975
843.141	0.0150423
843.219	0.0151054
843.298	0.0150338
843.376	0.0149181
843.454	0.0149003
843.532	0.0150032
843.610	0.0147437
843.688	0.0148765
843.766	0.0149599
843.844	0.0149088
843.923	0.0148904
844.001	0.0149587
844.079	0.0148615
844.157	0.0148392
844.235	0.0148287
844.313	0.0148926
844.391	0.0146748
844.469	0.0148571
844.548	0.0148359
844.626	0.0148537
844.704	0.0148110
844.782	0.0147481
844.860	0.0148560
844.938	0.0149331
845.016	0.0147941
845.094	0.0149196
845.173	0.0148395
845.251	0.0149265
845.329	0.0150299
845.407	0.0150819
845.485	0.0151469
845.563	0.0150681
845.641	0.0150987
845.719	0.0152547
845.798	0.0154072
845.876	0.0153850
845.954	0.0153186
846.032	0.0153323
846.110	0.0154391
846.188	0.0155075
846.266	0.0155502
846.344	0.0155760
846.423	0.0155354
846.501	0.0154784
846.579	0.0154648
846.657	0.0155396
846.735	0.0154877
846.813	0.0155650
846.891	0.0154491
846.969	0.0155514
847.048	0.0155580
847.126	0.0154328
847.204	0.0153294
847.282	0.0154155
847.360	0.0153506
847.438	0.0153187
847.516	0.0153516
847.594	0.0151779
847.673	0.0152399
847.751	0.0151557
847.829	0.0150642
847.907	0.0149584
847.985	0.0149755
848.063	0.0149650
848.141	0.0150197
848.219	0.0150216
848.298	0.0149388
848.376	0.0150225
848.454	0.0146957
848.532	0.0147639
848.610	0.0148916
848.688	0.0148164
848.766	0.0148364
848.844	0.0147513
848.923	0.0148911
849.001	0.0148222
849.079	0.0147839
849.157	0.0147890
849.235	0.0149176
849.313	0.0149609
849.391	0.0148507
849.469	0.0149839
849.548	0.0150491
849.626	0.0149818
849.704	0.0150661
849.782	0.0151626
849.860	0.0151496
849.938	0.0151717
850.016	0.0151984
850.094	0.0152125
850.173	0.0152737
850.251	0.0152798
850.329	0.0153308
850.407	0.0152657
850.485	0.0151969
850.563	0.0152689
850.641	0.0152105
850.719	0.0152830
850.798	0.0153237
850.876	0.0150154
850.954	0.0151198
851.032	0.0151440
851.110	0.0150820
851.188	0.0149620
851.266	0.0151437
851.344	0.0150021
851.423	0.0151359
851.501	0.0150972
851.579	0.0149276
851.657	0.0150164
851.735	0.0150136
851.813	0.0150259
851.891	0.0148788
851.969	0.0148679
852.048	0.0149759
852.126	0.0150550
852.204	0.0150558
852.282	0.0148880
852.360	0.0150332
852.438	0.0150157
852.516	0.0150974
852.594	0.0150835
852.673	0.0150862
852.751	0.0151126
852.829	0.0151666
852.907	0.0150884
852.985	0.0152632
853.063	0.0151731
853.141	0.0152670
853.219	0.0153078
853.298	0.0152715
853.376	0.0152629
853.454	0.0152591
853.532	0.0153686
853.610	0.0154475
853.688	0.0154078
853.766	0.0153048
853.844	0.0153635
853.923	0.0153909
854.001	0.0154131
854.079	0.0154111
854.157	0.0152683
854.235	0.0154249
854.313	0.0153697
854.391	0.0153797
854.469	0.0155585
854.548	0.0154179
854.626	0.0153922
854.704	0.0152776
854.782	0.0153463
854.860	0.0152619
854.938	0.0152058
855.016	0.0151933
855.094	0.0152473
855.173	0.0151115
855.251	0.0151065
855.329	0.0150171
855.407	0.0150770
855.485	0.0149729
855.563	0.0150419
855.641	0.0151762
855.719	0.0151089
855.798	0.0149804
855.876	0.0150451
855.954	0.0150923
856.032	0.0152050
856.110	0.0150679
856.188	0.0150446
856.266	0.0152024
856.344	0.0149848
856.423	0.0150819
856.501	0.0150932
856.579	0.0151623
856.657	0.0150349
856.735	0.0149547
856.813	0.0150120
856.891	0.0150315
856.969	0.0149493
857.048	0.0149503
857.126	0.0151012
857.204	0.0150011
857.282	0.0149673
857.360	0.0148825
857.438	0.0150023
857.516	0.0148688
857.594	0.0149351
857.673	0.0149646
857.751	0.0150676
857.829	0.0148756
857.907	0.0149697
857.985	0.0150435
858.063	0.0148618
858.141	0.0149605
858.219	0.0149895
858.298	0.0149550
858.376	0.0150952
858.454	0.0149960
858.532	0.0150927
858.610	0.0150140
858.688	0.0151399
858.766	0.0151081
858.844	0.0152223
858.923	0.0151595
859.001	0.0151535
859.079	0.0151737
859.157	0.0151923
859.235	0.0153362
859.313	0.0153922
859.391	0.0153963
859.469	0.0154943
859.548	0.0155131
859.626	0.0154369
859.704	0.0156267
859.782	0.0156628
859.860	0.0155448
859.938	0.0155409
860.016	0.0154213
860.094	0.0156376
860.173	0.0155815
860.251	0.0154487
860.329	0.0155755
860.407	0.0155042
860.485	0.0155554
860.563	0.0155473
860.641	0.0155135
860.719	0.0155016
860.798	0.0155347
860.876	0.0153831
860.954	0.0152747
861.032	0.0153506
861.110	0.0152535
861.188	0.0151627
861.266	0.0152767
861.344	0.0150983
861.423	0.0150653
861.501	0.0149006
861.579	0.0149876
861.657	0.0150462
861.735	0.0147868
861.813	0.0148901
861.891	0.0149141
861.969	0.0149401
862.048	0.0148885
862.126	0.0148392
862.204	0.0148515
862.282	0.0147768
862.360	0.0148438
862.438	0.0149365
862.516	0.0148961
862.594	0.0148179
862.673	0.0148173
862.751	0.0148727
862.829	0.0148157
862.907	0.0147463
862.985	0.0148534
863.063	0.0149186
863.141	0.0148406
863.219	0.0148166
863.298	0.0147192
863.376	0.0148879
863.454	0.0148066
863.532	0.0146971
863.610	0.0148047
863.688	0.0149409
863.766	0.0150269
863.844	0.0150336
863.923	0.0150918
864.001	0.0150949
864.079	0.0151527
864.157	0.0153012
864.235	0.0152585
864.313	0.0152032
864.391	0.0152856
864.469	0.0155060
864.548	0.0153310
864.626	0.0153603
864.704	0.0154981
864.782	0.0154034
864.860	0.0153915
864.938	0.0155734
865.016	0.0155225
865.094	0.0154996
865.173	0.0155564
865.251	0.0154926
865.329	0.0156134
865.407	0.0155324
865.485	0.0154698
865.563	0.0155696
865.641	0.0157133
865.719	0.0156207
865.798	0.0154768
865.876	0.0155185
865.954	0.0154755
866.032	0.0154134
866.110	0.0155134
866.188	0.0155550
866.266	0.0155881
866.344	0.0155933
866.423	0.0154703
866.501	0.0155872
866.579	0.0154602
866.657	0.0155093
866.735	0.0154571
866.813	0.0153676
866.891	0.0154136
866.969	0.0153741
867.048	0.0154601
867.126	0.0153487
867.204	0.0153156
867.282	0.0153283
867.360	0.0152475
867.438	0.0152780
867.516	0.0152085
867.594	0.0150945
867.673	0.0150303
867.751	0.0148753
867.829	0.0149419
867.907	0.0148341
867.985	0.0147810
868.063	0.0147305
868.141	0.0148247
868.219	0.0147691
868.298	0.0147832
868.376	0.0148167
868.454	0.0146941
868.532	0.0146727
868.610	0.0145600
868.688	0.0147132
868.766	0.0148797
868.844	0.0148614
868.923	0.0147290
869.001	0.0146649
869.079	0.0148350
869.157	0.0148759
869.235	0.0147760
869.313	0.0148926
869.391	0.0148560
869.469	0.0149232
869.548	0.0148592
869.626	0.0149890
869.704	0.0150687
869.782	0.0151003
869.860	0.0148568
869.938	0.0152084
870.016	0.0151248
870.094	0.0151554
870.173	0.0151907
870.251	0.0152071
870.329	0.0151790
870.407	0.0151849
870.485	0.0152505
870.563	0.0152238
870.641	0.0153454
870.719	0.0152294
870.798	0.0152625
870.876	0.0153744
870.954	0.0153436
871.032	0.0154185
871.110	0.0153970
871.188	0.0154280
871.266	0.0153443
871.344	0.0153871
871.423	0.0154559
871.501	0.0153976
871.579	0.0153552
871.657	0.0155409
871.735	0.0155556
871.813	0.0153432
871.891	0.0154450
871.969	0.0153796
872.048	0.0155036
872.126	0.0152668
872.204	0.0153040
872.282	0.0153629
872.360	0.0155316
872.438	0.0153782
872.516	0.0152033
872.594	0.0154497
872.673	0.0153362
872.751	0.0152055
872.829	0.0152946
872.907	0.0151894
872.985	0.0151736
873.063	0.0151787
873.141	0.0152370
873.219	0.0151978
873.298	0.0151799
873.376	0.0151704
873.454	0.0151434
873.532	0.0151171
873.610	0.0151110
873.688	0.0150797
873.766	0.0152298
873.844	0.0150282
873.923	0.0150010
874.001	0.0149709
874.079	0.0150115
874.157	0.0149817
874.235	0.0150310
874.313	0.0148429
874.391	0.0149117
874.469	0.0150361
874.548	0.0148391
874.626	0.0149285
874.704	0.0149213
874.782	0.0149062
874.860	0.0148211
874.938	0.0149232
875.016	0.0150606
875.094	0.0149969
875.173	0.0149303
875.251	0.0149827
875.329	0.0148982
875.407	0.0149121
875.485	0.0148849
875.563	0.0150452
875.641	0.0148668
875.719	0.0149139
875.798	0.0149406
875.876	0.0149618
875.954	0.0149662
876.032	0.0149879
876.110	0.0149163
876.188	0.0149227
876.266	0.0150340
876.344	0.0150262
876.423	0.0150537
876.501	0.0151361
876.579	0.0151260
876.657	0.0151731
876.735	0.0153002
876.813	0.0153041
876.891	0.0151915
876.969	0.0152564
877.048	0.0151724
877.126	0.0152822
877.204	0.0153139
877.282	0.0152893
877.360	0.0154095
877.438	0.0154481
877.516	0.0154579
877.594	0.0153190
877.673	0.0153492
877.751	0.0155058
877.829	0.0154401
877.907	0.0153386
877.985	0.0154317
878.063	0.0153413
878.141	0.0156177
878.219	0.0154833
878.298	0.0154668
878.376	0.0154559
878.454	0.0155707
878.532	0.0154224
878.610	0.0154502
878.688	0.0154697
878.766	0.0155132
878.844	0.0155049
878.923	0.0155467
879.001	0.0155244
879.079	0.0155691
879.157	0.0154789
879.235	0.0154533
879.313	0.0155835
879.391	0.0154094
879.469	0.0153536
879.548	0.0153172
879.626	0.0152341
879.704	0.0153001
879.782	0.0153063
879.860	0.0150816
879.938	0.0150741
880.016	0.0151504
880.094	0.0150488
880.173	0.0149258
880.251	0.0148773
880.329	0.0147939
880.407	0.0147874
880.485	0.0147234
880.563	0.0147745
880.641	0.0146918
880.719	0.0148051
880.798	0.0147472
880.876	0.0145894
880.954	0.0146537
881.032	0.0147499
881.110	0.0147662
881.188	0.0146062
881.266	0.0147443
881.344	0.0146930
881.423	0.0146341
881.501	0.0147419
881.579	0.0146115
881.657	0.0146775
881.735	0.0148387
881.813	0.0147326
881.891	0.0149133
881.969	0.0148772
882.048	0.0148470
882.126	0.0149155
882.204	0.0150155
882.282	0.0149747
882.360	0.0149889
882.438	0.0149899
882.516	0.0150462
882.594	0.0148394
882.673	0.0151281
882.751	0.0150216
882.829	0.0151517
882.907	0.0151771
882.985	0.0151711
883.063	0.0152196
883.141	0.0154535
883.219	0.0153396
883.298	0.0154842
883.376	0.0156778
883.454	0.0155992
883.532	0.0156088
883.610	0.0157160
883.688	0.0158217
883.766	0.0157652
883.844	0.0155930
883.923	0.0156261
884.001	0.0156709
884.079	0.0154297
884.157	0.0155318
884.235	0.0154491
884.313	0.0151881
884.391	0.0152064
884.469	0.0152083
884.548	0.0150272
884.626	0.0152342
884.704	0.0151195
884.782	0.0152643
884.860	0.0153162
884.938	0.0151477
885.016	0.0151447
885.094	0.0152297
885.173	0.0151847
885.251	0.0151549
885.329	0.0153191
885.407	0.0151315
885.485	0.0151368
885.563	0.0152747
885.641	0.0152448
885.719	0.0151472
885.798	0.0150678
885.876	0.0150430
885.954	0.0151376
886.032	0.0151583
886.110	0.0150383
886.188	0.0150558
886.266	0.0151743
886.344	0.0150578
886.423	0.0149141
886.501	0.0149896
886.579	0.0149415
886.657	0.0149735
886.735	0.0150586
886.813	0.0149968
886.891	0.0150414
886.969	0.0149987
887.048	0.0149845
887.126	0.0150711
887.204	0.0148875
887.282	0.0149851
887.360	0.0149319
887.438	0.0150407
887.516	0.0150410
887.594	0.0149236
887.673	0.0151028
887.751	0.0151494
887.829	0.0150066
887.907	0.0151147
887.985	0.0152288
888.063	0.0152314
888.141	0.0151017
888.219	0.0151663
888.298	0.0151535
888.376	0.0150068
888.454	0.0152029
888.532	0.0152798
888.610	0.0152039
888.688	0.0151344
888.766	0.0150904
888.844	0.0150823
888.923	0.0151505
889.001	0.0150355
889.079	0.0151408
889.157	0.0149860
889.235	0.0151835
889.313	0.0150683
889.391	0.0149718
889.469	0.0150519
889.548	0.0149681
889.626	0.0151000
889.704	0.0151547
889.782	0.0150469
889.860	0.0149815
889.938	0.0151260
890.016	0.0152417
890.094	0.0153707
890.173	0.0153201
890.251	0.0153223
890.329	0.0154624
890.407	0.0154817
890.485	0.0153742
890.563	0.0154833
890.641	0.0154467
890.719	0.0155675
890.798	0.0155616
890.876	0.0154884
890.954	0.0156599
891.032	0.0155932
891.110	0.0156437
891.188	0.0153869
891.266	0.0154275
891.344	0.0154355
891.423	0.0153419
891.501	0.0152680
891.579	0.0152317
891.657	0.0151133
891.735	0.0151410
891.813	0.0151055
891.891	0.0151124
891.969	0.0150089
892.048	0.0149741
892.126	0.0149141
892.204	0.0147859
892.282	0.0148722
892.360	0.0148833
892.438	0.0148366
892.516	0.0148729
892.594	0.0148711
892.673	0.0149308
892.751	0.0147871
892.829	0.0147405
892.907	0.0149287
892.985	0.0148012
893.063	0.0149615
893.141	0.0149284
893.219	0.0149800
893.298	0.0150094
893.376	0.0151216
893.454	0.0149567
893.532	0.0149599
893.610	0.0151038
893.688	0.0149725
893.766	0.0152136
893.844	0.0153039
893.923	0.0151594
894.001	0.0151311
894.079	0.0153851
894.157	0.0153458
894.235	0.0152478
894.313	0.0152907
894.391	0.0154466
894.469	0.0152814
894.548	0.0153120
894.626	0.0152917
894.704	0.0154224
894.782	0.0153519
894.860	0.0152831
894.938	0.0151778
895.016	0.0153229
895.094	0.0152396
895.173	0.0151422
895.251	0.0150141
895.329	0.0149875
895.407	0.0148604
895.485	0.0150341
895.563	0.0151006
895.641	0.0149624
895.719	0.0148916
895.798	0.0149257
895.876	0.0148656
895.954	0.0149512
896.032	0.0147353
896.110	0.0148708
896.188	0.0147440
896.266	0.0148040
896.344	0.0149573
896.423	0.0148878
896.501	0.0147978
896.579	0.0149163
896.657	0.0150080
896.735	0.0150185
896.813	0.0148676
896.891	0.0150962
896.969	0.0150809
897.048	0.0149654
897.126	0.0149267
897.204	0.0150002
897.282	0.0151060
897.360	0.0151976
897.438	0.0150834
897.516	0.0152038
897.594	0.0152174
897.673	0.0151820
897.751	0.0153828
897.829	0.0151694
897.907	0.0151727
897.985	0.0151614
898.063	0.0152753
898.141	0.0152483
898.219	0.0152321
898.298	0.0153306
898.376	0.0153390
898.454	0.0153613
898.532	0.0154050
898.610	0.0153374
898.688	0.0151914
898.766	0.0153972
898.844	0.0154163
898.923	0.0153710
899.001	0.0153416
899.079	0.0152912
899.157	0.0152541
899.235	0.0152344
899.313	0.0150398
899.391	0.0150945
899.469	0.0151275
899.548	0.0150710
899.626	0.0149583
899.704	0.0149554
899.782	0.0149756
899.860	0.0151099
899.938	0.0149851
900.016	0.0150050
900.094	0.0148318
900.173	0.0149908
900.251	0.0149342
900.329	0.0149886
900.407	0.0148741
900.485	0.0150549
900.563	0.0149738
900.641	0.0150494
900.719	0.0149979
900.798	0.0149860
900.876	0.0150722
900.954	0.0152711
901.032	0.0150966
901.110	0.0150729
901.188	0.0152480
901.266	0.0150402
901.344	0.0150705
901.423	0.0149874
901.501	0.0150060
901.579	0.0149030
901.657	0.0148888
901.735	0.0149834
901.813	0.0150468
901.891	0.0148816
901.969	0.0149065
902.048	0.0148456
902.126	0.0149254
902.204	0.0149603
902.282	0.0149662
902.360	0.0151125
902.438	0.0152103
902.516	0.0150063
902.594	0.0152142
902.673	0.0151561
902.751	0.0152183
902.829	0.0152203
902.907	0.0151237
902.985	0.0151803
903.063	0.0151079
903.141	0.0150210
903.219	0.0151601
903.298	0.0151720
903.376	0.0150357
903.454	0.0150390
903.532	0.0150416
903.610	0.0150478
903.688	0.0150454
903.766	0.0153523
903.844	0.0152048
903.923	0.0153520
904.001	0.0153793
904.079	0.0152961
904.157	0.0153143
904.235	0.0153252
904.313	0.0153361
904.391	0.0154369
904.469	0.0153309
904.548	0.0151396
904.626	0.0152437
904.704	0.0151589
904.782	0.0151659
904.860	0.0152140
904.938	0.0150503
905.016	0.0151099
905.094	0.0150742
905.173	0.0150150
905.251	0.0148949
905.329	0.0148635
905.407	0.0148912
905.485	0.0149560
905.563	0.0150330
905.641	0.0149868
905.719	0.0149416
905.798	0.0150582
905.876	0.0151491
905.954	0.0152081
906.032	0.0152504
906.110	0.0152206
906.188	0.0152151
906.266	0.0153123
906.344	0.0152536
906.423	0.0150826
906.501	0.0152852
906.579	0.0150281
906.657	0.0150942
906.735	0.0150789
906.813	0.0148661
906.891	0.0150558
906.969	0.0150352
907.048	0.0149634
907.126	0.0149602
907.204	0.0149047
907.282	0.0150583
907.360	0.0150723
907.438	0.0148504
907.516	0.0150521
907.594	0.0152337
907.673	0.0151122
907.751	0.0153117
907.829	0.0152242
907.907	0.0151595
907.985	0.0151240
908.063	0.0154359
908.141	0.0152328
908.219	0.0152169
908.298	0.0152967
908.376	0.0151891
908.454	0.0152869
908.532	0.0152081
908.610	0.0151674
908.688	0.0150659
908.766	0.0149908
908.844	0.0150304
908.923	0.0150279
909.001	0.0148878
909.079	0.0149084
909.157	0.0146758
909.235	0.0147500
909.313	0.0146961
909.391	0.0148404
909.469	0.0149014
909.548	0.0149738
909.626	0.0148389
909.704	0.0150997
909.782	0.0149464
909.860	0.0151784
909.938	0.0151669
910.016	0.0152139
910.094	0.0153769
910.173	0.0154839
910.251	0.0154634
910.329	0.0155052
910.407	0.0155324
910.485	0.0154948
910.563	0.0154256
910.641	0.0153815
910.719	0.0155991
910.798	0.0155092
910.876	0.0153063
910.954	0.0154629
911.032	0.0152007
911.110	0.0152376
911.188	0.0152412
911.266	0.0150234
911.344	0.0150871
911.423	0.0150501
911.501	0.0149372
911.579	0.0149524
911.657	0.0149876
911.735	0.0148396
911.813	0.0149149
911.891	0.0148959
911.969	0.0149251
912.048	0.0148349
912.126	0.0150802
912.204	0.0150619
912.282	0.0150498
912.360	0.0152100
912.438	0.0151849
912.516	0.0153219
912.594	0.0153314
912.673	0.0153188
912.751	0.0154308
912.829	0.0153463
912.907	0.0152244
912.985	0.0152980
913.063	0.0153632
913.141	0.0151761
913.219	0.0152148
913.298	0.0151450
913.376	0.0151684
913.454	0.0151399
913.532	0.0149999
913.610	0.0149615
913.688	0.0148952
913.766	0.0148837
913.844	0.0149107
913.923	0.0148714
914.001	0.0149078
914.079	0.0148135
914.157	0.0148043
914.235	0.0148933
914.313	0.0148752
914.391	0.0150468
914.469	0.0150858
914.548	0.0149576
914.626	0.0151156
914.704	0.0152263
914.782	0.0153117
914.860	0.0151819
914.938	0.0153035
915.016	0.0152653
915.094	0.0153535
915.173	0.0152311
915.251	0.0153581
915.329	0.0152907
915.407	0.0152726
915.485	0.0153015
915.563	0.0153179
915.641	0.0153473
915.719	0.0152453
915.798	0.0152393
915.876	0.0152271
915.954	0.0152370
916.032	0.0151260
916.110	0.0151295
916.188	0.0152219
916.266	0.0150761
916.344	0.0150965
916.423	0.0151257
916.501	0.0149938
916.579	0.0150234
916.657	0.0151235
916.735	0.0152160
916.813	0.0151596
916.891	0.0150140
916.969	0.0150770
917.048	0.0150994
917.126	0.0150365
917.204	0.0151691
917.282	0.0149931
917.360	0.0150000
917.438	0.0151507
917.516	0.0151685
917.594	0.0152245
917.673	0.0151186
917.751	0.0150654
917.829	0.0153097
917.907	0.0150911
917.985	0.0153146
918.063	0.0151476
918.141	0.0152049
918.219	0.0150898
918.298	0.0151823
918.376	0.0150508
918.454	0.0151879
918.532	0.0151938
918.610	0.0151258
918.688	0.0150920
918.766	0.0151514
918.844	0.0150328
918.923	0.0151096
919.001	0.0151640
919.079	0.0151463
919.157	0.0150773
919.235	0.0150990
919.313	0.0150485
919.391	0.0150618
919.469	0.0150512
919.548	0.0150635
919.626	0.0150118
919.704	0.0150160
919.782	0.0151124
919.860	0.0151050
919.938	0.0151823
920.016	0.0151115
920.094	0.0151019
920.173	0.0150702
920.251	0.0151431
920.329	0.0151833
920.407	0.0151827
920.485	0.0153210
920.563	0.0152467
920.641	0.0152419
920.719	0.0150829
920.798	0.0151903
920.876	0.0152689
920.954	0.0152532
921.032	0.0153242
921.110	0.0153096
921.188	0.0152901
921.266	0.0152983
921.344	0.0152534
921.423	0.0150979
921.501	0.0153255
921.579	0.0151897
921.657	0.0152110
921.735	0.0149855
921.813	0.0151178
921.891	0.0150216
921.969	0.0151616
922.048	0.0149400
922.126	0.0149413
922.204	0.0148658
922.282	0.0149837
922.360	0.0148703
922.438	0.0148391
922.516	0.0150047
922.594	0.0148704
922.673	0.0149094
922.751	0.0149197
922.829	0.0151134
922.907	0.0150992
922.985	0.0152095
923.063	0.0152291
923.141	0.0151179
923.219	0.0150877
923.298	0.0153217
923.376	0.0152928
923.454	0.0151942
923.532	0.0151534
923.610	0.0153259
923.688	0.0152831
923.766	0.0153957
923.844	0.0153201
923.923	0.0153013
924.001	0.0153054
924.079	0.0152288
924.157	0.0151968
924.235	0.0152192
924.313	0.0151504
924.391	0.0152712
924.469	0.0151629
924.548	0.0150993
924.626	0.0150755
924.704	0.0152174
924.782	0.0151086
924.860	0.0151124
924.938	0.0150063
925.016	0.0150073
925.094	0.0151460
925.173	0.0151134
925.251	0.0150387
925.329	0.0151890
925.407	0.0149823
925.485	0.0152577
925.563	0.0151044
925.641	0.0151073
925.719	0.0151314
925.798	0.0150957
925.876	0.0152459
925.954	0.0151874
926.032	0.0151465
926.110	0.0152273
926.188	0.0150620
926.266	0.0149631
926.344	0.0150866
926.423	0.0151620
926.501	0.0152310
926.579	0.0151051
926.657	0.0152196
926.735	0.0151951
926.813	0.0151902
926.891	0.0152448
926.969	0.0150679
927.048	0.0150080
927.126	0.0150671
927.204	0.0151602
927.282	0.0151968
927.360	0.0150609
927.438	0.0150358
927.516	0.0151006
927.594	0.0151875
927.673	0.0151009
927.751	0.0152097
927.829	0.0152520
927.907	0.0152809
927.985	0.0153933
928.063	0.0151019
928.141	0.0153618
928.219	0.0153509
928.298	0.0151797
928.376	0.0152907
928.454	0.0151606
928.532	0.0151794
928.610	0.0151063
928.688	0.0152379
928.766	0.0151405
928.844	0.0151554
928.923	0.0151804
929.001	0.0149720
929.079	0.0151508
929.157	0.0151941
929.235	0.0151640
929.313	0.0151410
929.391	0.0150755
929.469	0.0150202
929.548	0.0151860
929.626	0.0151360
929.704	0.0150895
929.782	0.0150947
929.860	0.0152281
929.938	0.0151103
930.016	0.0150595
930.094	0.0151424
930.173	0.0151464
930.251	0.0149898
930.329	0.0150760
930.407	0.0152652
930.485	0.0151202
930.563	0.0150394
930.641	0.0150734
930.719	0.0151186
930.798	0.0152126
930.876	0.0150008
930.954	0.0150250
931.032	0.0151080
931.110	0.0149976
931.188	0.0150000
931.266	0.0150938
931.344	0.0151640
931.423	0.0151344
931.501	0.0152923
931.579	0.0151766
931.657	0.0151559
931.735	0.0151993
931.813	0.0152538
931.891	0.0151523
931.969	0.0152252
932.048	0.0153577
932.126	0.0152827
932.204	0.0152683
932.282	0.0153333
932.360	0.0151569
932.438	0.0152683
932.516	0.0153593
932.594	0.0153842
932.673	0.0152640
932.751	0.0152804
932.829	0.0153009
932.907	0.0152538
932.985	0.0152499
933.063	0.0152241
933.141	0.0152673
933.219	0.0152192
933.298	0.0151698
933.376	0.0152207
933.454	0.0150695
933.532	0.0151385
933.610	0.0151001
933.688	0.0150922
933.766	0.0151869
933.844	0.0151028
933.923	0.0151694
934.001	0.0149593
934.079	0.0150625
934.157	0.0150641
934.235	0.0152192
934.313	0.0152194
934.391	0.0152119
934.469	0.0150924
934.548	0.0151806
934.626	0.0152712
934.704	0.0152200
934.782	0.0151731
934.860	0.0151902
934.938	0.0150513
935.016	0.0152106
935.094	0.0152732
935.173	0.0151022
935.251	0.0151137
935.329	0.0152811
935.407	0.0154008
935.485	0.0151752
935.563	0.0153397
935.641	0.0152125
935.719	0.0151513
935.798	0.0151643
935.876	0.0151019
935.954	0.0151524
936.032	0.0151995
936.110	0.0152624
936.188	0.0151844
936.266	0.0151888
936.344	0.0151868
936.423	0.0151733
936.501	0.0151497
936.579	0.0150359
936.657	0.0151709
936.735	0.0152197
936.813	0.0151590
936.891	0.0151021
936.969	0.0151851
937.048	0.0151350
937.126	0.0151138
937.204	0.0152472
937.282	0.0152699
937.360	0.0150735
937.438	0.0151460
937.516	0.0152389
937.594	0.0153286
937.673	0.0152351
937.751	0.0151892
937.829	0.0152601
937.907	0.0151942
937.985	0.0152322
938.063	0.0152961
938.141	0.0152537
938.219	0.0152981
938.298	0.0153314
938.376	0.0153400
938.454	0.0152027
938.532	0.0152792
938.610	0.0153313
938.688	0.0152669
938.766	0.0151899
938.844	0.0153370
938.923	0.0152145
939.001	0.0151785
939.079	0.0152286
939.157	0.0151784
939.235	0.0151015
939.313	0.0151369
939.391	0.0151430
939.469	0.0151613
939.548	0.0150594
939.626	0.0151077
939.704	0.0150843
939.782	0.0150878
939.860	0.0151195
939.938	0.0151568
940.016	0.0149036
940.094	0.0151005
940.173	0.0151545
940.251	0.0148869
940.329	0.0151548
940.407	0.0151214
940.485	0.0150679
940.563	0.0151066
940.641	0.0152498
940.719	0.0152303
940.798	0.0151460
940.876	0.0151758
940.954	0.0151740
941.032	0.0151906
941.110	0.0152339
941.188	0.0151601
941.266	0.0153082
941.344	0.0152497
941.423	0.0152570
941.501	0.0151460
941.579	0.0152780
941.657	0.0153090
941.735	0.0152262
941.813	0.0152577
941.891	0.0150735
941.969	0.0152518
942.048	0.0151532
942.126	0.0151202
942.204	0.0151048
942.282	0.0152770
942.360	0.0151738
942.438	0.0150736
942.516	0.0150871
942.594	0.0151438
942.673	0.0152786
942.751	0.0151647
942.829	0.0150764
942.907	0.0152032
942.985	0.0151714
943.063	0.0152193
943.141	0.0151086
943.219	0.0152000
943.298	0.0153297
943.376	0.0152551
943.454	0.0151347
943.532	0.0151922
943.610	0.0153138
943.688	0.0151022
943.766	0.0151003
943.844	0.0151374
943.923	0.0151672
944.001	0.0150471
944.079	0.0149955
944.157	0.0149812
944.235	0.0151263
944.313	0.0150520
944.391	0.0151067
944.469	0.0149029
944.548	0.0151496
944.626	0.0150751
944.704	0.0149770
944.782	0.0150217
944.860	0.0150247
944.938	0.0150055
945.016	0.0149889
945.094	0.0151454
945.173	0.0150590
945.251	0.0150013
945.329	0.0151617
945.407	0.0150685
945.485	0.0150158
945.563	0.0150768
945.641	0.0151546
945.719	0.0151837
945.798	0.0151847
945.876	0.0150862
945.954	0.0149847
946.032	0.0151162
946.110	0.0152412
946.188	0.0152581
946.266	0.0152928
946.344	0.0152184
946.423	0.0151765
946.501	0.0151885
946.579	0.0152919
946.657	0.0152825
946.735	0.0152318
946.813	0.0153018
946.891	0.0153130
946.969	0.0153281
947.048	0.0151671
947.126	0.0151894
947.204	0.0152658
947.282	0.0152276
947.360	0.0152391
947.438	0.0151259
947.516	0.0151621
947.594	0.0151703
947.673	0.0152666
947.751	0.0152841
947.829	0.0151772
947.907	0.0151892
947.985	0.0151330
948.063	0.0150342
948.141	0.0150952
948.219	0.0151649
948.298	0.0151707
948.376	0.0149828
948.454	0.0151243
948.532	0.0151333
948.610	0.0151521
948.688	0.0151460
948.766	0.0151144
948.844	0.0149824
948.923	0.0151546
949.001	0.0151263
949.079	0.0150223
949.157	0.0151069
949.235	0.0151653
949.313	0.0149815
949.391	0.0151735
949.469	0.0151188
949.548	0.0151060
949.626	0.0152427
949.704	0.0151053
949.782	0.0150745
949.860	0.0151221
949.938	0.0152398
950.016	0.0153011
950.094	0.0152180
950.173	0.0153024
950.251	0.0152240
950.329	0.0152661
950.407	0.0152522
950.485	0.0152478
950.563	0.0153329
950.641	0.0153265
950.719	0.0152267
950.798	0.0151463
950.876	0.0151914
950.954	0.0153362
951.032	0.0152819
951.110	0.0153556
951.188	0.0151292
951.266	0.0152393
951.344	0.0152699
951.423	0.0152634
951.501	0.0153210
951.579	0.0152718
951.657	0.0152578
951.735	0.0152402
951.813	0.0152899
951.891	0.0151706
951.969	0.0152019
952.048	0.0151714
952.126	0.0151329
952.204	0.0150227
952.282	0.0149899
952.360	0.0150553
952.438	0.0150134
952.516	0.0150212
952.594	0.0150226
952.673	0.0150388
952.751	0.0151439
952.829	0.0150857
952.907	0.0150620
952.985	0.0150590
953.063	0.0148473
953.141	0.0149677
953.219	0.0151697
953.298	0.0152572
953.376	0.0150229
953.454	0.0151849
953.532	0.0150950
953.610	0.0151976
953.688	0.0151100
953.766	0.0151719
953.844	0.0152441
953.923	0.0151274
954.001	0.0152303
954.079	0.0153156
954.157	0.0152014
954.235	0.0151482
954.313	0.0151130
954.391	0.0151727
954.469	0.0152313
954.548	0.0152648
954.626	0.0151526
954.704	0.0151266
954.782	0.0150848
954.860	0.0152912
954.938	0.0151228
955.016	0.0150285
955.094	0.0151312
955.173	0.0151085
955.251	0.0152101
955.329	0.0151797
955.407	0.0151534
955.485	0.0150391
955.563	0.0152057
955.641	0.0151256
955.719	0.0150841
955.798	0.0151953
955.876	0.0150389
955.954	0.0150830
956.032	0.0152266
956.110	0.0151782
956.188	0.0151525
956.266	0.0152180
956.344	0.0151567
956.423	0.0151207
956.501	0.0152253
956.579	0.0152515
956.657	0.0152301
956.735	0.0151163
956.813	0.0151627
956.891	0.0152422
956.969	0.0151656
957.048	0.0152435
957.126	0.0152068
957.204	0.0151975
957.282	0.0153811
957.360	0.0152656
957.438	0.0151679
957.516	0.0151713
957.594	0.0152324
957.673	0.0152744
957.751	0.0151663
957.829	0.0151714
957.907	0.0152268
957.985	0.0151195
958.063	0.0152311
958.141	0.0152370
958.219	0.0152393
958.298	0.0152071
958.376	0.0149599
958.454	0.0150690
958.532	0.0150890
958.610	0.0150937
958.688	0.0150954
958.766	0.0151101
958.844	0.0151449
958.923	0.0151282
959.001	0.0151174
959.079	0.0151462
959.157	0.0152101
959.235	0.0150063
959.313	0.0151597
959.391	0.0151739
959.469	0.0151218
959.548	0.0151146
959.626	0.0150550
959.704	0.0150795
959.782	0.0150789
959.860	0.0151000
959.938	0.0151025
960.016	0.0152275
960.094	0.0151547
960.173	0.0150054
960.251	0.0150694
960.329	0.0152651
960.407	0.0151202
960.485	0.0151283
960.563	0.0150775
960.641	0.0151990
960.719	0.0152657
960.798	0.0153776
960.876	0.0151999
960.954	0.0151834
961.032	0.0152723
961.110	0.0151418
961.188	0.0152885
961.266	0.0153040
961.344	0.0152770
961.423	0.0152073
961.501	0.0150728
961.579	0.0151037
961.657	0.0151714
961.735	0.0150098
961.813	0.0150830
961.891	0.0151291
961.969	0.0150705
962.048	0.0152789
962.126	0.0152475
962.204	0.0151059
962.282	0.0152119
962.360	0.0151586
962.438	0.0151434
962.516	0.0152354
962.594	0.0153273
962.673	0.0151827
962.751	0.0151748
962.829	0.0152541
962.907	0.0151027
962.985	0.0151477
963.063	0.0152971
963.141	0.0151150
963.219	0.0151176
963.298	0.0151975
963.376	0.0151527
963.454	0.0152130
963.532	0.0152262
963.610	0.0151927
963.688	0.0152666
963.766	0.0151890
963.844	0.0151299
963.923	0.0151514
964.001	0.0149841
964.079	0.0151017
964.157	0.0150756
964.235	0.0151310
964.313	0.0150533
964.391	0.0151595
964.469	0.0151470
964.548	0.0152394
964.626	0.0153049
964.704	0.0153725
964.782	0.0153014
964.860	0.0153302
964.938	0.0153123
965.016	0.0150694
965.094	0.0151108
965.173	0.0150957
965.251	0.0150471
965.329	0.0149667
965.407	0.0150214
965.485	0.0150664
965.563	0.0149757
965.641	0.0149182
965.719	0.0150067
965.798	0.0148807
965.876	0.0149142
965.954	0.0150434
966.032	0.0149549
966.110	0.0149612
966.188	0.0151758
966.266	0.0152225
966.344	0.0152449
966.423	0.0153690
966.501	0.0153262
966.579	0.0155049
966.657	0.0154163
966.735	0.0154598
966.813	0.0153036
966.891	0.0153760
966.969	0.0152571
967.048	0.0150713
967.126	0.0150994
967.204	0.0151299
967.282	0.0149235
967.360	0.0149592
967.438	0.0150079
967.516	0.0149545
967.594	0.0148897
967.673	0.0149341
967.751	0.0150487
967.829	0.0152079
967.907	0.0151769
967.985	0.0153682
968.063	0.0153491
968.141	0.0152582
968.219	0.0153693
968.298	0.0155079
968.376	0.0154760
968.454	0.0154630
968.532	0.0154239
968.610	0.0153665
968.688	0.0154962
968.766	0.0153252
968.844	0.0153387
968.923	0.0152240
969.001	0.0152051
969.079	0.0152842
969.157	0.0149498
969.235	0.0151980
969.313	0.0152184
969.391	0.0150615
969.469	0.0151112
969.548	0.0151045
969.626	0.0149517
969.704	0.0150267
969.782	0.0150804
969.860	0.0152360
969.938	0.0149232
