06/13/2022	14:30:37	Ver.	4.1	UNKNOWN
Optical Delay	599.968395	Delta X		0.078125	Sweeps	1	Scan Rate	0/0
Coordinates	Axis 1	NaN	Axis 2	NaN	Axis 3	NaN	Axis 4	NaN	Axis 5	NaN	Axis 6	0.000000
TX Power	0.000000	RX Power	0.000000

599.968	0.0161813
600.047	0.0160785
600.125	0.0161368
600.203	0.0162429
600.281	0.0161102
600.359	0.0160899
600.437	0.0162743
600.515	0.0161724
600.593	0.0160965
600.672	0.0162262
600.750	0.0162004
600.828	0.0161115
600.906	0.0161411
600.984	0.0162478
601.062	0.0161543
601.140	0.0161433
601.218	0.0161246
601.297	0.0161085
601.375	0.0161540
601.453	0.0162015
601.531	0.0161018
601.609	0.0161528
601.687	0.0161856
601.765	0.0162834
601.843	0.0161703
601.922	0.0161298
602.000	0.0161845
602.078	0.0162402
602.156	0.0162964
602.234	0.0160276
602.312	0.0161359
602.390	0.0161407
602.468	0.0163337
602.547	0.0161710
602.625	0.0162304
602.703	0.0160773
602.781	0.0160889
602.859	0.0162270
602.937	0.0160487
603.015	0.0162185
603.093	0.0163230
603.172	0.0163253
603.250	0.0162677
603.328	0.0161176
603.406	0.0161735
603.484	0.0162436
603.562	0.0161777
603.640	0.0162106
603.718	0.0161241
603.797	0.0162093
603.875	0.0162165
603.953	0.0161637
604.031	0.0163633
604.109	0.0162277
604.187	0.0161390
604.265	0.0162423
604.343	0.0161414
604.422	0.0162053
604.500	0.0162620
604.578	0.0161618
604.656	0.0160612
604.734	0.0162275
604.812	0.0161722
604.890	0.0161835
604.968	0.0162720
605.047	0.0161034
605.125	0.0161125
605.203	0.0163045
605.281	0.0162008
605.359	0.0163136
605.437	0.0161693
605.515	0.0161575
605.593	0.0161023
605.672	0.0162088
605.750	0.0161993
605.828	0.0163731
605.906	0.0161260
605.984	0.0161189
606.062	0.0161743
606.140	0.0161305
606.218	0.0161607
606.297	0.0161635
606.375	0.0162288
606.453	0.0162230
606.531	0.0160469
606.609	0.0161562
606.687	0.0162115
606.765	0.0162543
606.843	0.0162830
606.922	0.0161578
607.000	0.0162741
607.078	0.0161969
607.156	0.0162162
607.234	0.0161501
607.312	0.0162036
607.390	0.0161748
607.468	0.0161702
607.547	0.0160657
607.625	0.0161840
607.703	0.0163469
607.781	0.0163115
607.859	0.0161965
607.937	0.0161101
608.015	0.0162821
608.093	0.0161932
608.172	0.0161436
608.250	0.0162621
608.328	0.0163254
608.406	0.0161676
608.484	0.0161014
608.562	0.0162225
608.640	0.0161979
608.718	0.0162233
608.797	0.0161858
608.875	0.0161340
608.953	0.0161958
609.031	0.0161405
609.109	0.0162424
609.187	0.0162698
609.265	0.0160685
609.343	0.0162277
609.422	0.0162710
609.500	0.0161711
609.578	0.0161055
609.656	0.0161465
609.734	0.0161844
609.812	0.0161375
609.890	0.0161283
609.968	0.0162135
610.047	0.0162247
610.125	0.0162871
610.203	0.0162470
610.281	0.0161803
610.359	0.0162324
610.437	0.0161403
610.515	0.0162233
610.593	0.0162364
610.672	0.0163023
610.750	0.0162502
610.828	0.0161506
610.906	0.0162564
610.984	0.0162360
611.062	0.0161983
611.140	0.0161516
611.218	0.0162811
611.297	0.0161884
611.375	0.0161207
611.453	0.0162375
611.531	0.0162326
611.609	0.0161833
611.687	0.0161719
611.765	0.0161471
611.843	0.0162917
611.922	0.0162652
612.000	0.0161871
612.078	0.0162505
612.156	0.0161360
612.234	0.0161250
612.312	0.0161587
612.390	0.0161878
612.468	0.0162125
612.547	0.0163073
612.625	0.0162456
612.703	0.0162321
612.781	0.0161650
612.859	0.0163138
612.937	0.0161954
613.015	0.0162163
613.093	0.0162122
613.172	0.0162192
613.250	0.0162731
613.328	0.0162199
613.406	0.0161799
613.484	0.0161526
613.562	0.0162197
613.640	0.0161825
613.718	0.0162149
613.797	0.0162115
613.875	0.0162187
613.953	0.0161712
614.031	0.0162627
614.109	0.0162769
614.187	0.0163219
614.265	0.0162132
614.343	0.0160825
614.422	0.0162125
614.500	0.0162023
614.578	0.0162392
614.656	0.0161932
614.734	0.0161418
614.812	0.0162941
614.890	0.0162545
614.968	0.0162805
615.047	0.0162293
615.125	0.0162687
615.203	0.0161823
615.281	0.0161477
615.359	0.0162017
615.437	0.0161607
615.515	0.0162909
615.593	0.0162411
615.672	0.0162166
615.750	0.0162079
615.828	0.0162250
615.906	0.0161457
615.984	0.0162630
616.062	0.0162062
616.140	0.0163199
616.218	0.0162414
616.297	0.0162322
616.375	0.0162229
616.453	0.0161697
616.531	0.0161517
616.609	0.0161893
616.687	0.0163853
616.765	0.0162285
616.843	0.0161440
616.922	0.0162427
617.000	0.0162260
617.078	0.0162757
617.156	0.0163223
617.234	0.0162234
617.312	0.0163033
617.390	0.0163639
617.468	0.0161878
617.547	0.0162350
617.625	0.0162713
617.703	0.0163781
617.781	0.0161753
617.859	0.0161710
617.937	0.0161691
618.015	0.0161827
618.093	0.0163039
618.172	0.0161984
618.250	0.0162854
618.328	0.0161880
618.406	0.0162811
618.484	0.0161393
618.562	0.0162106
618.640	0.0162544
618.718	0.0162413
618.797	0.0161333
618.875	0.0162633
618.953	0.0162874
619.031	0.0161824
619.109	0.0161277
619.187	0.0162129
619.265	0.0161102
619.343	0.0161991
619.422	0.0163675
619.500	0.0163788
619.578	0.0161491
619.656	0.0162564
619.734	0.0162337
619.812	0.0162566
619.890	0.0162334
619.968	0.0161229
620.047	0.0162216
620.125	0.0162644
620.203	0.0162383
620.281	0.0161555
620.359	0.0161874
620.437	0.0163084
620.515	0.0162161
620.593	0.0162188
620.672	0.0163048
620.750	0.0161459
620.828	0.0161554
620.906	0.0160557
620.984	0.0162122
621.062	0.0161887
621.140	0.0162972
621.218	0.0162184
621.297	0.0161509
621.375	0.0162125
621.453	0.0163583
621.531	0.0163276
621.609	0.0160081
621.687	0.0162059
621.765	0.0162592
621.843	0.0161591
621.922	0.0160316
622.000	0.0162368
622.078	0.0162172
622.156	0.0161108
622.234	0.0161290
622.312	0.0161998
622.390	0.0161915
622.468	0.0161964
622.547	0.0161880
622.625	0.0162839
622.703	0.0162163
622.781	0.0161543
622.859	0.0161881
622.937	0.0163215
623.015	0.0162231
623.093	0.0161721
623.172	0.0161411
623.250	0.0162637
623.328	0.0160823
623.406	0.0161812
623.484	0.0163237
623.562	0.0163986
623.640	0.0162281
623.718	0.0162090
623.797	0.0162286
623.875	0.0162993
623.953	0.0162242
624.031	0.0161530
624.109	0.0163116
624.187	0.0163817
624.265	0.0161976
624.343	0.0161646
624.422	0.0163355
624.500	0.0162060
624.578	0.0162881
624.656	0.0162209
624.734	0.0162673
624.812	0.0161887
624.890	0.0161455
624.968	0.0161993
625.047	0.0162022
625.125	0.0163298
625.203	0.0161827
625.281	0.0161923
625.359	0.0162785
625.437	0.0162910
625.515	0.0161433
625.593	0.0161704
625.672	0.0162395
625.750	0.0161160
625.828	0.0163499
625.906	0.0162517
625.984	0.0161623
626.062	0.0161657
626.140	0.0161929
626.218	0.0163275
626.297	0.0162278
626.375	0.0161639
626.453	0.0161530
626.531	0.0161167
626.609	0.0162782
626.687	0.0161655
626.765	0.0163908
626.843	0.0161705
626.922	0.0162710
627.000	0.0162646
627.078	0.0163584
627.156	0.0162074
627.234	0.0161256
627.312	0.0162215
627.390	0.0162373
627.468	0.0162287
627.547	0.0161549
627.625	0.0162196
627.703	0.0162680
627.781	0.0161610
627.859	0.0161948
627.937	0.0163158
628.015	0.0161871
628.093	0.0163061
628.172	0.0163668
628.250	0.0163496
628.328	0.0161964
628.406	0.0161342
628.484	0.0162014
628.562	0.0161422
628.640	0.0163259
628.718	0.0161793
628.797	0.0161435
628.875	0.0162669
628.953	0.0162611
629.031	0.0163023
629.109	0.0161790
629.187	0.0161508
629.265	0.0162174
629.343	0.0162432
629.422	0.0162644
629.500	0.0162824
629.578	0.0162018
629.656	0.0162772
629.734	0.0162745
629.812	0.0164135
629.890	0.0163187
629.968	0.0162342
630.047	0.0161505
630.125	0.0163390
630.203	0.0163671
630.281	0.0161878
630.359	0.0162462
630.437	0.0161600
630.515	0.0161420
630.593	0.0163898
630.672	0.0162289
630.750	0.0162299
630.828	0.0162232
630.906	0.0162539
630.984	0.0161578
631.062	0.0163148
631.140	0.0161807
631.218	0.0162709
631.297	0.0162502
631.375	0.0161224
631.453	0.0161612
631.531	0.0161449
631.609	0.0162451
631.687	0.0163219
631.765	0.0162528
631.843	0.0161319
631.922	0.0163617
632.000	0.0162633
632.078	0.0163586
632.156	0.0161642
632.234	0.0161575
632.312	0.0161683
632.390	0.0161603
632.468	0.0162151
632.547	0.0161178
632.625	0.0162137
632.703	0.0160938
632.781	0.0161994
632.859	0.0162990
632.937	0.0162110
633.015	0.0161489
633.093	0.0161824
633.172	0.0161917
633.250	0.0163300
633.328	0.0162322
633.406	0.0162482
633.484	0.0162380
633.562	0.0161330
633.640	0.0163086
633.718	0.0161806
633.797	0.0163047
633.875	0.0161266
633.953	0.0162094
634.031	0.0162439
634.109	0.0162834
634.187	0.0162834
634.265	0.0162247
634.343	0.0162296
634.422	0.0162889
634.500	0.0163305
634.578	0.0162402
634.656	0.0163228
634.734	0.0163367
634.812	0.0161179
634.890	0.0162695
634.968	0.0163043
635.047	0.0162779
635.125	0.0161369
635.203	0.0161746
635.281	0.0162595
635.359	0.0163580
635.437	0.0163242
635.515	0.0161452
635.593	0.0162548
635.672	0.0163748
635.750	0.0162560
635.828	0.0161826
635.906	0.0162983
635.984	0.0162709
636.062	0.0161919
636.140	0.0161482
636.218	0.0162061
636.297	0.0162460
636.375	0.0162536
636.453	0.0162392
636.531	0.0162676
636.609	0.0162781
636.687	0.0162019
636.765	0.0162009
636.843	0.0162315
636.922	0.0162849
637.000	0.0162811
637.078	0.0162104
637.156	0.0161916
637.234	0.0162601
637.312	0.0162355
637.390	0.0162621
637.468	0.0163652
637.547	0.0162137
637.625	0.0162377
637.703	0.0162393
637.781	0.0162337
637.859	0.0162514
637.937	0.0161530
638.015	0.0161906
638.093	0.0162188
638.172	0.0161997
638.250	0.0162785
638.328	0.0162923
638.406	0.0161765
638.484	0.0162134
638.562	0.0163799
638.640	0.0162121
638.718	0.0161460
638.797	0.0162924
638.875	0.0162864
638.953	0.0162147
639.031	0.0161341
639.109	0.0161308
639.187	0.0161805
639.265	0.0163444
639.343	0.0162704
639.422	0.0161456
639.500	0.0161767
639.578	0.0163192
639.656	0.0161669
639.734	0.0162297
639.812	0.0163498
639.890	0.0162894
639.968	0.0161930
640.047	0.0162212
640.125	0.0162553
640.203	0.0161446
640.281	0.0162848
640.359	0.0162929
640.437	0.0162942
640.515	0.0162918
640.593	0.0161922
640.672	0.0162355
640.750	0.0161737
640.828	0.0163075
640.906	0.0161296
640.984	0.0161931
641.062	0.0163416
641.140	0.0163017
641.218	0.0162444
641.297	0.0163261
641.375	0.0163094
641.453	0.0161793
641.531	0.0162202
641.609	0.0162054
641.687	0.0161418
641.765	0.0162163
641.843	0.0161088
641.922	0.0162640
642.000	0.0161267
642.078	0.0161868
642.156	0.0162257
642.234	0.0161909
642.312	0.0161634
642.390	0.0162679
642.468	0.0162406
642.547	0.0162539
642.625	0.0161564
642.703	0.0160297
642.781	0.0162000
642.859	0.0162763
642.937	0.0162698
643.015	0.0162780
643.093	0.0162189
643.172	0.0162922
643.250	0.0161009
643.328	0.0162263
643.406	0.0163784
643.484	0.0160573
643.562	0.0162080
643.640	0.0163161
643.718	0.0161830
643.797	0.0162928
643.875	0.0163050
643.953	0.0160919
644.031	0.0161155
644.109	0.0161292
644.187	0.0161691
644.265	0.0163299
644.343	0.0162723
644.422	0.0161229
644.500	0.0162463
644.578	0.0161497
644.656	0.0162350
644.734	0.0162360
644.812	0.0161886
644.890	0.0162639
644.968	0.0162579
645.047	0.0163470
645.125	0.0161873
645.203	0.0161971
645.281	0.0161737
645.359	0.0161913
645.437	0.0161210
645.515	0.0162170
645.593	0.0162983
645.672	0.0162270
645.750	0.0162989
645.828	0.0163242
645.906	0.0160836
645.984	0.0162788
646.062	0.0163560
646.140	0.0162290
646.218	0.0162534
646.297	0.0162669
646.375	0.0163030
646.453	0.0162376
646.531	0.0161938
646.609	0.0162125
646.687	0.0161195
646.765	0.0163106
646.843	0.0162860
646.922	0.0162637
647.000	0.0162366
647.078	0.0162737
647.156	0.0162611
647.234	0.0161406
647.312	0.0162894
647.390	0.0162193
647.468	0.0162402
647.547	0.0163335
647.625	0.0162080
647.703	0.0162120
647.781	0.0163177
647.859	0.0161986
647.937	0.0163120
648.015	0.0161579
648.093	0.0161401
648.172	0.0162729
648.250	0.0162484
648.328	0.0162644
648.406	0.0162769
648.484	0.0159939
648.562	0.0161585
648.640	0.0162707
648.718	0.0161819
648.797	0.0161228
648.875	0.0161021
648.953	0.0162813
649.031	0.0162261
649.109	0.0161900
649.187	0.0161544
649.265	0.0161663
649.343	0.0162257
649.422	0.0161769
649.500	0.0162244
649.578	0.0162609
649.656	0.0161755
649.734	0.0161930
649.812	0.0161736
649.890	0.0161111
649.968	0.0161999
650.047	0.0162177
650.125	0.0162736
650.203	0.0162430
650.281	0.0162770
650.359	0.0163143
650.437	0.0160880
650.515	0.0161417
650.593	0.0163351
650.672	0.0161295
650.750	0.0160806
650.828	0.0162141
650.906	0.0161196
650.984	0.0160626
651.062	0.0161502
651.140	0.0162688
651.218	0.0161200
651.297	0.0162004
651.375	0.0161357
651.453	0.0161900
651.531	0.0160971
651.609	0.0161360
651.687	0.0162529
651.765	0.0161732
651.843	0.0161218
651.922	0.0162025
652.000	0.0161271
652.078	0.0160705
652.156	0.0161595
652.234	0.0162572
652.312	0.0162444
652.390	0.0161740
652.468	0.0162035
652.547	0.0161770
652.625	0.0163541
652.703	0.0162469
652.781	0.0161655
652.859	0.0162174
652.937	0.0162000
653.015	0.0162733
653.093	0.0162119
653.172	0.0162706
653.250	0.0160827
653.328	0.0160706
653.406	0.0162399
653.484	0.0162128
653.562	0.0161933
653.640	0.0161519
653.718	0.0163226
653.797	0.0162584
653.875	0.0163127
653.953	0.0161514
654.031	0.0163173
654.109	0.0162078
654.187	0.0162492
654.265	0.0161971
654.343	0.0161610
654.422	0.0162086
654.500	0.0162295
654.578	0.0162252
654.656	0.0161662
654.734	0.0161630
654.812	0.0163989
654.890	0.0162222
654.968	0.0161582
655.047	0.0162096
655.125	0.0161697
655.203	0.0163127
655.281	0.0163071
655.359	0.0162932
655.437	0.0162107
655.515	0.0163020
655.593	0.0163185
655.672	0.0162067
655.750	0.0163542
655.828	0.0162160
655.906	0.0161533
655.984	0.0162012
656.062	0.0162657
656.140	0.0162365
656.218	0.0162488
656.297	0.0160533
656.375	0.0162347
656.453	0.0162497
656.531	0.0162924
656.609	0.0162100
656.687	0.0163362
656.765	0.0161069
656.843	0.0162325
656.922	0.0162141
657.000	0.0161454
657.078	0.0162137
657.156	0.0160934
657.234	0.0162616
657.312	0.0163934
657.390	0.0161913
657.468	0.0161491
657.547	0.0160646
657.625	0.0161704
657.703	0.0163432
657.781	0.0161082
657.859	0.0161572
657.937	0.0162416
658.015	0.0162106
658.093	0.0160985
658.172	0.0163243
658.250	0.0163379
658.328	0.0161587
658.406	0.0162263
658.484	0.0162376
658.562	0.0163936
658.640	0.0162600
658.718	0.0162315
658.797	0.0163297
658.875	0.0161255
658.953	0.0162661
659.031	0.0162907
659.109	0.0162785
659.187	0.0161845
659.265	0.0161794
659.343	0.0162453
659.422	0.0162409
659.500	0.0163161
659.578	0.0163446
659.656	0.0162916
659.734	0.0161724
659.812	0.0161420
659.890	0.0161454
659.968	0.0162333
660.047	0.0161937
660.125	0.0161737
660.203	0.0162841
660.281	0.0163415
660.359	0.0161829
660.437	0.0161658
660.515	0.0162135
660.593	0.0161656
660.672	0.0161827
660.750	0.0162514
660.828	0.0162511
660.906	0.0162508
660.984	0.0162618
661.062	0.0161346
661.140	0.0163969
661.218	0.0162510
661.297	0.0161635
661.375	0.0162743
661.453	0.0162288
661.531	0.0162466
661.609	0.0163419
661.687	0.0161841
661.765	0.0161634
661.843	0.0161951
661.922	0.0162415
662.000	0.0163504
662.078	0.0160788
662.156	0.0162243
662.234	0.0162440
662.312	0.0161844
662.390	0.0162582
662.468	0.0161741
662.547	0.0161469
662.625	0.0163103
662.703	0.0162376
662.781	0.0161727
662.859	0.0160899
662.937	0.0162271
663.015	0.0162478
663.093	0.0161188
663.172	0.0162276
663.250	0.0163125
663.328	0.0161652
663.406	0.0161274
663.484	0.0160856
663.562	0.0160793
663.640	0.0161227
663.718	0.0160419
663.797	0.0162345
663.875	0.0162320
663.953	0.0162788
664.031	0.0162847
664.109	0.0162391
664.187	0.0161763
664.265	0.0162737
664.343	0.0161502
664.422	0.0162000
664.500	0.0162509
664.578	0.0161530
664.656	0.0161546
664.734	0.0162309
664.812	0.0161937
664.890	0.0161256
664.968	0.0161942
665.047	0.0161509
665.125	0.0160557
665.203	0.0163576
665.281	0.0161018
665.359	0.0161322
665.437	0.0163210
665.515	0.0160915
665.593	0.0162363
665.672	0.0161121
665.750	0.0161670
665.828	0.0161855
665.906	0.0162190
665.984	0.0161259
666.062	0.0161947
666.140	0.0161933
666.218	0.0162070
666.297	0.0161222
666.375	0.0160896
666.453	0.0162290
666.531	0.0162324
666.609	0.0162108
666.687	0.0161660
666.765	0.0161626
666.843	0.0161939
666.922	0.0162138
667.000	0.0162344
667.078	0.0162465
667.156	0.0162099
667.234	0.0160942
667.312	0.0162310
667.390	0.0161144
667.468	0.0162784
667.547	0.0161283
667.625	0.0161674
667.703	0.0162420
667.781	0.0162361
667.859	0.0161997
667.937	0.0163843
668.015	0.0162913
668.093	0.0162022
668.172	0.0161893
668.250	0.0161815
668.328	0.0162907
668.406	0.0162244
668.484	0.0161410
668.562	0.0161879
668.640	0.0161436
668.718	0.0160766
668.797	0.0161726
668.875	0.0161509
668.953	0.0162577
669.031	0.0163123
669.109	0.0160745
669.187	0.0161566
669.265	0.0162289
669.343	0.0161865
669.422	0.0161613
669.500	0.0161981
669.578	0.0160854
669.656	0.0160013
669.734	0.0162134
669.812	0.0163119
669.890	0.0162698
669.968	0.0161689
670.047	0.0162706
670.125	0.0162110
670.203	0.0161296
670.281	0.0161948
670.359	0.0162175
670.437	0.0162340
670.515	0.0160748
670.593	0.0161778
670.672	0.0161559
670.750	0.0162966
670.828	0.0163092
670.906	0.0161119
670.984	0.0161761
671.062	0.0162407
671.140	0.0161319
671.218	0.0162336
671.297	0.0162702
671.375	0.0163270
671.453	0.0162583
671.531	0.0161903
671.609	0.0162483
671.687	0.0162511
671.765	0.0160616
671.843	0.0161734
671.922	0.0162469
672.000	0.0162366
672.078	0.0162366
672.156	0.0160724
672.234	0.0162003
672.312	0.0162119
672.390	0.0163503
672.468	0.0163126
672.547	0.0161912
672.625	0.0161148
672.703	0.0162748
672.781	0.0162282
672.859	0.0162639
672.937	0.0161852
673.015	0.0161634
673.093	0.0161561
673.172	0.0162163
673.250	0.0162536
673.328	0.0161389
673.406	0.0161021
673.484	0.0162143
673.562	0.0162602
673.640	0.0162036
673.718	0.0161417
673.797	0.0162938
673.875	0.0162821
673.953	0.0162070
674.031	0.0162108
674.109	0.0162229
674.187	0.0161586
674.265	0.0161392
674.343	0.0161229
674.422	0.0162701
674.500	0.0161210
674.578	0.0161012
674.656	0.0161805
674.734	0.0161801
674.812	0.0161524
674.890	0.0161990
674.968	0.0161900
675.047	0.0161648
675.125	0.0161027
675.203	0.0162928
675.281	0.0162556
675.359	0.0161128
675.437	0.0162209
675.515	0.0162543
675.593	0.0162309
675.672	0.0162362
675.750	0.0162383
675.828	0.0161829
675.906	0.0161609
675.984	0.0161227
676.062	0.0162082
676.140	0.0162051
676.218	0.0163744
676.297	0.0161255
676.375	0.0162386
676.453	0.0162406
676.531	0.0163861
676.609	0.0162852
676.687	0.0161147
676.765	0.0161941
676.843	0.0162939
676.922	0.0161761
677.000	0.0162437
677.078	0.0162034
677.156	0.0161197
677.234	0.0161817
677.312	0.0163136
677.390	0.0162528
677.468	0.0160127
677.547	0.0161308
677.625	0.0161011
677.703	0.0162427
677.781	0.0161035
677.859	0.0160891
677.937	0.0161524
678.015	0.0161983
678.093	0.0161214
678.172	0.0160831
678.250	0.0161666
678.328	0.0161373
678.406	0.0161694
678.484	0.0161500
678.562	0.0161634
678.640	0.0161559
678.718	0.0162085
678.797	0.0161880
678.875	0.0161349
678.953	0.0162070
679.031	0.0160596
679.109	0.0162470
679.187	0.0160710
679.265	0.0161786
679.343	0.0162917
679.422	0.0162822
679.500	0.0162576
679.578	0.0161534
679.656	0.0161700
679.734	0.0161645
679.812	0.0162246
679.890	0.0161794
679.968	0.0161620
680.047	0.0162134
680.125	0.0163104
680.203	0.0162270
680.281	0.0160602
680.359	0.0161998
680.437	0.0162618
680.515	0.0162664
680.593	0.0160896
680.672	0.0161420
680.750	0.0162189
680.828	0.0161598
680.906	0.0162338
680.984	0.0163630
681.062	0.0162987
681.140	0.0161377
681.218	0.0160887
681.297	0.0162633
681.375	0.0160372
681.453	0.0163552
681.531	0.0162318
681.609	0.0161732
681.687	0.0161964
681.765	0.0163454
681.843	0.0163351
681.922	0.0161595
682.000	0.0161620
682.078	0.0161269
682.156	0.0161578
682.234	0.0163750
682.312	0.0162582
682.390	0.0163004
682.468	0.0163190
682.547	0.0162283
682.625	0.0161154
682.703	0.0161433
682.781	0.0161655
682.859	0.0161096
682.937	0.0163061
683.015	0.0163204
683.093	0.0161691
683.172	0.0161217
683.250	0.0161621
683.328	0.0162834
683.406	0.0161893
683.484	0.0162123
683.562	0.0161597
683.640	0.0161371
683.718	0.0162180
683.797	0.0161028
683.875	0.0162273
683.953	0.0161674
684.031	0.0161493
684.109	0.0162601
684.187	0.0161444
684.265	0.0162164
684.343	0.0160912
684.422	0.0161749
684.500	0.0160828
684.578	0.0162424
684.656	0.0160935
684.734	0.0161314
684.812	0.0163541
684.890	0.0163454
684.968	0.0161777
685.047	0.0161999
685.125	0.0161272
685.203	0.0162293
685.281	0.0162421
685.359	0.0162447
685.437	0.0162624
685.515	0.0162513
685.593	0.0161825
685.672	0.0163152
685.750	0.0163615
685.828	0.0162718
685.906	0.0163700
685.984	0.0161308
686.062	0.0160732
686.140	0.0160793
686.218	0.0161141
686.297	0.0161855
686.375	0.0162460
686.453	0.0160912
686.531	0.0161270
686.609	0.0163310
686.687	0.0161400
686.765	0.0161484
686.843	0.0161520
686.922	0.0162283
687.000	0.0162193
687.078	0.0161748
687.156	0.0162241
687.234	0.0161271
687.312	0.0162547
687.390	0.0163019
687.468	0.0161628
687.547	0.0162299
687.625	0.0163407
687.703	0.0162154
687.781	0.0161422
687.859	0.0162125
687.937	0.0161980
688.015	0.0162388
688.093	0.0162332
688.172	0.0162794
688.250	0.0162395
688.328	0.0162449
688.406	0.0161243
688.484	0.0162111
688.562	0.0162820
688.640	0.0163752
688.718	0.0162159
688.797	0.0159816
688.875	0.0161454
688.953	0.0162399
689.031	0.0161737
689.109	0.0162125
689.187	0.0161676
689.265	0.0162356
689.343	0.0162350
689.422	0.0161695
689.500	0.0161900
689.578	0.0162225
689.656	0.0161488
689.734	0.0162174
689.812	0.0162920
689.890	0.0162408
689.968	0.0161688
690.047	0.0161976
690.125	0.0162077
690.203	0.0163421
690.281	0.0161541
690.359	0.0161868
690.437	0.0162997
690.515	0.0162012
690.593	0.0162071
690.672	0.0161259
690.750	0.0162206
690.828	0.0162756
690.906	0.0162742
690.984	0.0163512
691.062	0.0161798
691.140	0.0162155
691.218	0.0162782
691.297	0.0161667
691.375	0.0162919
691.453	0.0161975
691.531	0.0162196
691.609	0.0161798
691.687	0.0161028
691.765	0.0162446
691.843	0.0162231
691.922	0.0162265
692.000	0.0161935
692.078	0.0163225
692.156	0.0161690
692.234	0.0162047
692.312	0.0162165
692.390	0.0161681
692.468	0.0161834
692.547	0.0161677
692.625	0.0161932
692.703	0.0163245
692.781	0.0161388
692.859	0.0162825
692.937	0.0161410
693.015	0.0160703
693.093	0.0162064
693.172	0.0161993
693.250	0.0162000
693.328	0.0162006
693.406	0.0162253
693.484	0.0162334
693.562	0.0162433
693.640	0.0161563
693.718	0.0161059
693.797	0.0163480
693.875	0.0162416
693.953	0.0162242
694.031	0.0162417
694.109	0.0162312
694.187	0.0161483
694.265	0.0161674
694.343	0.0162123
694.422	0.0161227
694.500	0.0162824
694.578	0.0161566
694.656	0.0163420
694.734	0.0164125
694.812	0.0161090
694.890	0.0161320
694.968	0.0162231
695.047	0.0162511
695.125	0.0163347
695.203	0.0162152
695.281	0.0161469
695.359	0.0161340
695.437	0.0161322
695.515	0.0162064
695.593	0.0162360
695.672	0.0162447
695.750	0.0162260
695.828	0.0161414
695.906	0.0161604
695.984	0.0161738
696.062	0.0161539
696.140	0.0161217
696.218	0.0161850
696.297	0.0161205
696.375	0.0161242
696.453	0.0162659
696.531	0.0162437
696.609	0.0160744
696.687	0.0161603
696.765	0.0162431
696.843	0.0162192
696.922	0.0162706
697.000	0.0161116
697.078	0.0161514
697.156	0.0163272
697.234	0.0160852
697.312	0.0160938
697.390	0.0163284
697.468	0.0162038
697.547	0.0162067
697.625	0.0161350
697.703	0.0161225
697.781	0.0161661
697.859	0.0162447
697.937	0.0160806
698.015	0.0161581
698.093	0.0163429
698.172	0.0162849
698.250	0.0161443
698.328	0.0161438
698.406	0.0162539
698.484	0.0160951
698.562	0.0162788
698.640	0.0161867
698.718	0.0161311
698.797	0.0161665
698.875	0.0162251
698.953	0.0161733
699.031	0.0162289
699.109	0.0163458
699.187	0.0162099
699.265	0.0161429
699.343	0.0162485
699.422	0.0163089
699.500	0.0161815
699.578	0.0162823
699.656	0.0161203
699.734	0.0161839
699.812	0.0161384
699.890	0.0162523
699.968	0.0163148
700.047	0.0161816
700.125	0.0161617
700.203	0.0162010
700.281	0.0163686
700.359	0.0162119
700.437	0.0162592
700.515	0.0161721
700.593	0.0160645
700.672	0.0162721
700.750	0.0162354
700.828	0.0162396
700.906	0.0161795
700.984	0.0162064
701.062	0.0160947
701.140	0.0162370
701.218	0.0162299
701.297	0.0161280
701.375	0.0161597
701.453	0.0161140
701.531	0.0162324
701.609	0.0162476
701.687	0.0161465
701.765	0.0161160
701.843	0.0161713
701.922	0.0161919
702.000	0.0161549
702.078	0.0163246
702.156	0.0162015
702.234	0.0162143
702.312	0.0161736
702.390	0.0162785
702.468	0.0163264
702.547	0.0162737
702.625	0.0162704
702.703	0.0162615
702.781	0.0161865
702.859	0.0161864
702.937	0.0163322
703.015	0.0161819
703.093	0.0161876
703.172	0.0161675
703.250	0.0160465
703.328	0.0161256
703.406	0.0162048
703.484	0.0161736
703.562	0.0162542
703.640	0.0161586
703.718	0.0161990
703.797	0.0162144
703.875	0.0161430
703.953	0.0161745
704.031	0.0160741
704.109	0.0161690
704.187	0.0163184
704.265	0.0161824
704.343	0.0161407
704.422	0.0161343
704.500	0.0162103
704.578	0.0162274
704.656	0.0162072
704.734	0.0161047
704.812	0.0161864
704.890	0.0162971
704.968	0.0163171
705.047	0.0161441
705.125	0.0161934
705.203	0.0163333
705.281	0.0162093
705.359	0.0163960
705.437	0.0161785
705.515	0.0162252
705.593	0.0161792
705.672	0.0162035
705.750	0.0161658
705.828	0.0161636
705.906	0.0161046
705.984	0.0160906
706.062	0.0161312
706.140	0.0162088
706.218	0.0161736
706.297	0.0161456
706.375	0.0161827
706.453	0.0162645
706.531	0.0160835
706.609	0.0160909
706.687	0.0161049
706.765	0.0161467
706.843	0.0163218
706.922	0.0161435
707.000	0.0160841
707.078	0.0161510
707.156	0.0161262
707.234	0.0162202
707.312	0.0161824
707.390	0.0162843
707.468	0.0161336
707.547	0.0162431
707.625	0.0161610
707.703	0.0160883
707.781	0.0162311
707.859	0.0162961
707.937	0.0162049
708.015	0.0162244
708.093	0.0161941
708.172	0.0159751
708.250	0.0163033
708.328	0.0161990
708.406	0.0162595
708.484	0.0162812
708.562	0.0161179
708.640	0.0160286
708.718	0.0162538
708.797	0.0162685
708.875	0.0161511
708.953	0.0162875
709.031	0.0162373
709.109	0.0160822
709.187	0.0162707
709.265	0.0162605
709.343	0.0161810
709.422	0.0160710
709.500	0.0162288
709.578	0.0163030
709.656	0.0163067
709.734	0.0161826
709.812	0.0162470
709.890	0.0161481
709.968	0.0160767
710.047	0.0161773
710.125	0.0162566
710.203	0.0161775
710.281	0.0162041
710.359	0.0161954
710.437	0.0160903
710.515	0.0161808
710.593	0.0161756
710.672	0.0161829
710.750	0.0163550
710.828	0.0161346
710.906	0.0161929
710.984	0.0161620
711.062	0.0161571
711.140	0.0163133
711.218	0.0161304
711.297	0.0161956
711.375	0.0163239
711.453	0.0162199
711.531	0.0163211
711.609	0.0160281
711.687	0.0161927
711.765	0.0163367
711.843	0.0162525
711.922	0.0162305
712.000	0.0161819
712.078	0.0162554
712.156	0.0162115
712.234	0.0162782
712.312	0.0161594
712.390	0.0162081
712.468	0.0162050
712.547	0.0161968
712.625	0.0162577
712.703	0.0161621
712.781	0.0161278
712.859	0.0162032
712.937	0.0163105
713.015	0.0162363
713.093	0.0162145
713.172	0.0162635
713.250	0.0161570
713.328	0.0162155
713.406	0.0161237
713.484	0.0161520
713.562	0.0162202
713.640	0.0163660
713.718	0.0163077
713.797	0.0163366
713.875	0.0161983
713.953	0.0161915
714.031	0.0162872
714.109	0.0161730
714.187	0.0162039
714.265	0.0161796
714.343	0.0161507
714.422	0.0162796
714.500	0.0160758
714.578	0.0160843
714.656	0.0162615
714.734	0.0161842
714.812	0.0160825
714.890	0.0161897
714.968	0.0162896
715.047	0.0162980
715.125	0.0163017
715.203	0.0161999
715.281	0.0161101
715.359	0.0161202
715.437	0.0161682
715.515	0.0162113
715.593	0.0160976
715.672	0.0162523
715.750	0.0163330
715.828	0.0162999
715.906	0.0162107
715.984	0.0161875
716.062	0.0161423
716.140	0.0161259
716.218	0.0161102
716.297	0.0162319
716.375	0.0162121
716.453	0.0161093
716.531	0.0163690
716.609	0.0162615
716.687	0.0161440
716.765	0.0162068
716.843	0.0162689
716.922	0.0162801
717.000	0.0161157
717.078	0.0160945
717.156	0.0162365
717.234	0.0161773
717.312	0.0162271
717.390	0.0160941
717.468	0.0161945
717.547	0.0161829
717.625	0.0161066
717.703	0.0161484
717.781	0.0162478
717.859	0.0161168
717.937	0.0162958
718.015	0.0160736
718.093	0.0160490
718.172	0.0162540
718.250	0.0161378
718.328	0.0161122
718.406	0.0161378
718.484	0.0162269
718.562	0.0161694
718.640	0.0161545
718.718	0.0162413
718.797	0.0161922
718.875	0.0161000
718.953	0.0161330
719.031	0.0162106
719.109	0.0161677
719.187	0.0160136
719.265	0.0161047
719.343	0.0162139
719.422	0.0160742
719.500	0.0160828
719.578	0.0162401
719.656	0.0161403
719.734	0.0162186
719.812	0.0161404
719.890	0.0160207
719.968	0.0162060
720.047	0.0162315
720.125	0.0161689
720.203	0.0160742
720.281	0.0161540
720.359	0.0161671
720.437	0.0161682
720.515	0.0161669
720.593	0.0160863
720.672	0.0160799
720.750	0.0162265
720.828	0.0161989
720.906	0.0161096
720.984	0.0162763
721.062	0.0162751
721.140	0.0162009
721.218	0.0161604
721.297	0.0162010
721.375	0.0162090
721.453	0.0161697
721.531	0.0162528
721.609	0.0161505
721.687	0.0162468
721.765	0.0162011
721.843	0.0163094
721.922	0.0161385
722.000	0.0161192
722.078	0.0162224
722.156	0.0161545
722.234	0.0162362
722.312	0.0162446
722.390	0.0162912
722.468	0.0162774
722.547	0.0161959
722.625	0.0161916
722.703	0.0163152
722.781	0.0162714
722.859	0.0162293
722.937	0.0162034
723.015	0.0161921
723.093	0.0162082
723.172	0.0163518
723.250	0.0162177
723.328	0.0162677
723.406	0.0161176
723.484	0.0162338
723.562	0.0162626
723.640	0.0162484
723.718	0.0162895
723.797	0.0163030
723.875	0.0161755
723.953	0.0163409
724.031	0.0162876
724.109	0.0162299
724.187	0.0162828
724.265	0.0162320
724.343	0.0163815
724.422	0.0163702
724.500	0.0162002
724.578	0.0161937
724.656	0.0162978
724.734	0.0163512
724.812	0.0163123
724.890	0.0163885
724.968	0.0160982
725.047	0.0163045
725.125	0.0162759
725.203	0.0162132
725.281	0.0162543
725.359	0.0163061
725.437	0.0161967
725.515	0.0161418
725.593	0.0161984
725.672	0.0163902
725.750	0.0162481
725.828	0.0161270
725.906	0.0161763
725.984	0.0162989
726.062	0.0162382
726.140	0.0162091
726.218	0.0162327
726.297	0.0161990
726.375	0.0162625
726.453	0.0163425
726.531	0.0163145
726.609	0.0162479
726.687	0.0161446
726.765	0.0163853
726.843	0.0162175
726.922	0.0162560
727.000	0.0162112
727.078	0.0162131
727.156	0.0162521
727.234	0.0162051
727.312	0.0161269
727.390	0.0162015
727.468	0.0162654
727.547	0.0163385
727.625	0.0162247
727.703	0.0162888
727.781	0.0161752
727.859	0.0161742
727.937	0.0163316
728.015	0.0162169
728.093	0.0162887
728.172	0.0162718
728.250	0.0161723
728.328	0.0162395
728.406	0.0162734
728.484	0.0161588
728.562	0.0161739
728.640	0.0162209
728.718	0.0161304
728.797	0.0161308
728.875	0.0162093
728.953	0.0161035
729.031	0.0162602
729.109	0.0161481
729.187	0.0160686
729.265	0.0160619
729.343	0.0163775
729.422	0.0161887
729.500	0.0161182
729.578	0.0161863
729.656	0.0161944
729.734	0.0161701
729.812	0.0161034
729.890	0.0161076
729.968	0.0161596
730.047	0.0159694
730.125	0.0161050
730.203	0.0162669
730.281	0.0161429
730.359	0.0159367
730.437	0.0160533
730.515	0.0161314
730.593	0.0160826
730.672	0.0161828
730.750	0.0162589
730.828	0.0161153
730.906	0.0161313
730.984	0.0161095
731.062	0.0161390
731.140	0.0160691
731.218	0.0161464
731.297	0.0161214
731.375	0.0161361
731.453	0.0161844
731.531	0.0160519
731.609	0.0161823
731.687	0.0160260
731.765	0.0161462
731.843	0.0160602
731.922	0.0162167
732.000	0.0162180
732.078	0.0161705
732.156	0.0161021
732.234	0.0161156
732.312	0.0162622
732.390	0.0162266
732.468	0.0161316
732.547	0.0162616
732.625	0.0162661
732.703	0.0162890
732.781	0.0163033
732.859	0.0161414
732.937	0.0161969
733.015	0.0161818
733.093	0.0162952
733.172	0.0161786
733.250	0.0161755
733.328	0.0161534
733.406	0.0161747
733.484	0.0162395
733.562	0.0161249
733.640	0.0161264
733.718	0.0161592
733.797	0.0162191
733.875	0.0162437
733.953	0.0162201
734.031	0.0161876
734.109	0.0160586
734.187	0.0162136
734.265	0.0163071
734.343	0.0160814
734.422	0.0161087
734.500	0.0160756
734.578	0.0161841
734.656	0.0162719
734.734	0.0160976
734.812	0.0162727
734.890	0.0161372
734.968	0.0162257
735.047	0.0160489
735.125	0.0162983
735.203	0.0162443
735.281	0.0162144
735.359	0.0161680
735.437	0.0161963
735.515	0.0161598
735.593	0.0162428
735.672	0.0161644
735.750	0.0161697
735.828	0.0161404
735.906	0.0162206
735.984	0.0163456
736.062	0.0162019
736.140	0.0161958
736.218	0.0164237
736.297	0.0164980
736.375	0.0164352
736.453	0.0164919
736.531	0.0165100
736.609	0.0166229
736.687	0.0164882
736.765	0.0162511
736.843	0.0162154
736.922	0.0161326
737.000	0.0158498
737.078	0.0156687
737.156	0.0154690
737.234	0.0155567
737.312	0.0155684
737.390	0.0157492
737.468	0.0160322
737.547	0.0161279
737.625	0.0165188
737.703	0.0168007
737.781	0.0170142
737.859	0.0172215
737.937	0.0172357
738.015	0.0170795
738.093	0.0168405
738.172	0.0167210
738.250	0.0165494
738.328	0.0161014
738.406	0.0160305
738.484	0.0158514
738.562	0.0157149
738.640	0.0157629
738.718	0.0156822
738.797	0.0156766
738.875	0.0158138
738.953	0.0159005
739.031	0.0159799
739.109	0.0158777
739.187	0.0160059
739.265	0.0159568
739.343	0.0161272
739.422	0.0162199
739.500	0.0162563
739.578	0.0163668
739.656	0.0160934
739.734	0.0163143
739.812	0.0163518
739.890	0.0164536
739.968	0.0163568
740.047	0.0163273
740.125	0.0164162
740.203	0.0162780
740.281	0.0159645
740.359	0.0159129
740.437	0.0159483
740.515	0.0158842
740.593	0.0157701
740.672	0.0158019
740.750	0.0159801
740.828	0.0161386
740.906	0.0163055
740.984	0.0166389
741.062	0.0168546
741.140	0.0170550
741.218	0.0171976
741.297	0.0172534
741.375	0.0171525
741.453	0.0170848
741.531	0.0167259
741.609	0.0165711
741.687	0.0164129
741.765	0.0159839
741.843	0.0158202
741.922	0.0155155
742.000	0.0152049
742.078	0.0150711
742.156	0.0147604
742.234	0.0146823
742.312	0.0148463
742.390	0.0147089
742.468	0.0146741
742.547	0.0150159
742.625	0.0152100
742.703	0.0153391
742.781	0.0154963
742.859	0.0157614
742.937	0.0159380
743.015	0.0161464
743.093	0.0162872
743.172	0.0165413
743.250	0.0168478
743.328	0.0169698
743.406	0.0171320
743.484	0.0172301
743.562	0.0174042
743.640	0.0174053
743.718	0.0176177
743.797	0.0175128
743.875	0.0173778
743.953	0.0173927
744.031	0.0174575
744.109	0.0172544
744.187	0.0171389
744.265	0.0169299
744.343	0.0168211
744.422	0.0165765
744.500	0.0162825
744.578	0.0161381
744.656	0.0161401
744.734	0.0157462
744.812	0.0157105
744.890	0.0155970
744.968	0.0155210
745.047	0.0154459
745.125	0.0154143
745.203	0.0153346
745.281	0.0152183
745.359	0.0151114
745.437	0.0149806
745.515	0.0151178
745.593	0.0151759
745.672	0.0151949
745.750	0.0150791
745.828	0.0151540
745.906	0.0154366
745.984	0.0154677
746.062	0.0157642
746.140	0.0158529
746.218	0.0160138
746.297	0.0162888
746.375	0.0165089
746.453	0.0165540
746.531	0.0166490
746.609	0.0168678
746.687	0.0169261
746.765	0.0169259
746.843	0.0171519
746.922	0.0174673
747.000	0.0174242
747.078	0.0174096
747.156	0.0174957
747.234	0.0175163
747.312	0.0174279
747.390	0.0173456
747.468	0.0171223
747.547	0.0170271
747.625	0.0169079
747.703	0.0163950
747.781	0.0163623
747.859	0.0161781
747.937	0.0158904
748.015	0.0156767
748.093	0.0154291
748.172	0.0154079
748.250	0.0152303
748.328	0.0152782
748.406	0.0151919
748.484	0.0151177
748.562	0.0152137
748.640	0.0152211
748.718	0.0152752
748.797	0.0154010
748.875	0.0154837
748.953	0.0156940
749.031	0.0156237
749.109	0.0158280
749.187	0.0159184
749.265	0.0161118
749.343	0.0161861
749.422	0.0163221
749.500	0.0163523
749.578	0.0162463
749.656	0.0164624
749.734	0.0163482
749.812	0.0162126
749.890	0.0162466
749.968	0.0162047
750.047	0.0162257
750.125	0.0161150
750.203	0.0161266
750.281	0.0159859
750.359	0.0159703
750.437	0.0159497
750.515	0.0160312
750.593	0.0161206
750.672	0.0160749
750.750	0.0162144
750.828	0.0163831
750.906	0.0165931
750.984	0.0165067
751.062	0.0167648
751.140	0.0167594
751.218	0.0168897
751.297	0.0169083
751.375	0.0168997
751.453	0.0169010
751.531	0.0168887
751.609	0.0169755
751.687	0.0166389
751.765	0.0166360
751.843	0.0166969
751.922	0.0166360
752.000	0.0164140
752.078	0.0163348
752.156	0.0162756
752.234	0.0161573
752.312	0.0162052
752.390	0.0160289
752.468	0.0162057
752.547	0.0162044
752.625	0.0162104
752.703	0.0163119
752.781	0.0162947
752.859	0.0163567
752.937	0.0163201
753.015	0.0161211
753.093	0.0163670
753.172	0.0162016
753.250	0.0161031
753.328	0.0160686
753.406	0.0157646
753.484	0.0158501
753.562	0.0156815
753.640	0.0155801
753.718	0.0153185
753.797	0.0154285
753.875	0.0153532
753.953	0.0153800
754.031	0.0154907
754.109	0.0154415
754.187	0.0155849
754.265	0.0156535
754.343	0.0159215
754.422	0.0160494
754.500	0.0161312
754.578	0.0162356
754.656	0.0165375
754.734	0.0164146
754.812	0.0165547
754.890	0.0165878
754.968	0.0166782
755.047	0.0166161
755.125	0.0165964
755.203	0.0165331
755.281	0.0166693
755.359	0.0166286
755.437	0.0166135
755.515	0.0167038
755.593	0.0166753
755.672	0.0165505
755.750	0.0165640
755.828	0.0166319
755.906	0.0165935
755.984	0.0165478
756.062	0.0165672
756.140	0.0165304
756.218	0.0164313
756.297	0.0165333
756.375	0.0165055
756.453	0.0164497
756.531	0.0164925
756.609	0.0162788
756.687	0.0162817
756.765	0.0162707
756.843	0.0163132
756.922	0.0162720
757.000	0.0162858
757.078	0.0161147
757.156	0.0160049
757.234	0.0159335
757.312	0.0157896
757.390	0.0156470
757.468	0.0154993
757.547	0.0157236
757.625	0.0157566
757.703	0.0156104
757.781	0.0156933
757.859	0.0160015
757.937	0.0160672
758.015	0.0160317
758.093	0.0161175
758.172	0.0163894
758.250	0.0163385
758.328	0.0162956
758.406	0.0162868
758.484	0.0163937
758.562	0.0163231
758.640	0.0163516
758.718	0.0162488
758.797	0.0161663
758.875	0.0161161
758.953	0.0161265
759.031	0.0159618
759.109	0.0157975
759.187	0.0157408
759.265	0.0155408
759.343	0.0156087
759.422	0.0154927
759.500	0.0153880
759.578	0.0154011
759.656	0.0153141
759.734	0.0153759
759.812	0.0153606
759.890	0.0155428
759.968	0.0156042
760.047	0.0156651
760.125	0.0160046
760.203	0.0161378
760.281	0.0161743
760.359	0.0165713
760.437	0.0167383
760.515	0.0168452
760.593	0.0170078
760.672	0.0170048
760.750	0.0169109
760.828	0.0170568
760.906	0.0171529
760.984	0.0169934
761.062	0.0169781
761.140	0.0169674
761.218	0.0169896
761.297	0.0168778
761.375	0.0168603
761.453	0.0168304
761.531	0.0167351
761.609	0.0167558
761.687	0.0168002
761.765	0.0165514
761.843	0.0163988
761.922	0.0163226
762.000	0.0163454
762.078	0.0163222
762.156	0.0161649
762.234	0.0160622
762.312	0.0162025
762.390	0.0161826
762.468	0.0157607
762.547	0.0158205
762.625	0.0157567
762.703	0.0157147
762.781	0.0153976
762.859	0.0155309
762.937	0.0155709
763.015	0.0152989
763.093	0.0154260
763.172	0.0154626
763.250	0.0157087
763.328	0.0157269
763.406	0.0158028
763.484	0.0161565
763.562	0.0162341
763.640	0.0162586
763.718	0.0165641
763.797	0.0164942
763.875	0.0164786
763.953	0.0165623
764.031	0.0166040
764.109	0.0164699
764.187	0.0163745
764.265	0.0164225
764.343	0.0163717
764.422	0.0162022
764.500	0.0160886
764.578	0.0161478
764.656	0.0159618
764.734	0.0158406
764.812	0.0158216
764.890	0.0157521
764.968	0.0158231
765.047	0.0157504
765.125	0.0158183
765.203	0.0159386
765.281	0.0159834
765.359	0.0159624
765.437	0.0161981
765.515	0.0162908
765.593	0.0164575
765.672	0.0165365
765.750	0.0165611
765.828	0.0165034
765.906	0.0166557
765.984	0.0167099
766.062	0.0169040
766.140	0.0167982
766.218	0.0167696
766.297	0.0167935
766.375	0.0167289
766.453	0.0167334
766.531	0.0165963
766.609	0.0165306
766.687	0.0166724
766.765	0.0165056
766.843	0.0163478
766.922	0.0159969
767.000	0.0159718
767.078	0.0158953
767.156	0.0157864
767.234	0.0156892
767.312	0.0155929
767.390	0.0154967
767.468	0.0155040
767.547	0.0154154
767.625	0.0154305
767.703	0.0154949
767.781	0.0156141
767.859	0.0154977
767.937	0.0156148
768.015	0.0157932
768.093	0.0159370
768.172	0.0161371
768.250	0.0161107
768.328	0.0160608
768.406	0.0164139
768.484	0.0163143
768.562	0.0163336
768.640	0.0163930
768.718	0.0163108
768.797	0.0162807
768.875	0.0162866
768.953	0.0162990
769.031	0.0161405
769.109	0.0160478
769.187	0.0158807
769.265	0.0159607
769.343	0.0158707
769.422	0.0156843
769.500	0.0157487
769.578	0.0158004
769.656	0.0158752
769.734	0.0159929
769.812	0.0159335
769.890	0.0160227
769.968	0.0162106
770.047	0.0162938
770.125	0.0165511
770.203	0.0165648
770.281	0.0165777
770.359	0.0166820
770.437	0.0168382
770.515	0.0169965
770.593	0.0169399
770.672	0.0168301
770.750	0.0167851
770.828	0.0168855
770.906	0.0167528
770.984	0.0165518
771.062	0.0166290
771.140	0.0164710
771.218	0.0164424
771.297	0.0164857
771.375	0.0162691
771.453	0.0162167
771.531	0.0160535
771.609	0.0162026
771.687	0.0160828
771.765	0.0159852
771.843	0.0161080
771.922	0.0160833
772.000	0.0159943
772.078	0.0159973
772.156	0.0159901
772.234	0.0159774
772.312	0.0159926
772.390	0.0161000
772.468	0.0159251
772.547	0.0161200
772.625	0.0161682
772.703	0.0161051
772.781	0.0161847
772.859	0.0162316
772.937	0.0162190
773.015	0.0161734
773.093	0.0163644
773.172	0.0163435
773.250	0.0164594
773.328	0.0163139
773.406	0.0162536
773.484	0.0163132
773.562	0.0164629
773.640	0.0164661
773.718	0.0164954
773.797	0.0164484
773.875	0.0164066
773.953	0.0163323
774.031	0.0162862
774.109	0.0164255
774.187	0.0163908
774.265	0.0162405
774.343	0.0161556
774.422	0.0161254
774.500	0.0160049
774.578	0.0161978
774.656	0.0159508
774.734	0.0159901
774.812	0.0159933
774.890	0.0158308
774.968	0.0157501
775.047	0.0157895
775.125	0.0156892
775.203	0.0158337
775.281	0.0158456
775.359	0.0160220
775.437	0.0161143
775.515	0.0159432
775.593	0.0161342
775.672	0.0161823
775.750	0.0161916
775.828	0.0162287
775.906	0.0161759
775.984	0.0163222
776.062	0.0163354
776.140	0.0162264
776.218	0.0163309
776.297	0.0163375
776.375	0.0163330
776.453	0.0164821
776.531	0.0163255
776.609	0.0161211
776.687	0.0162978
776.765	0.0163281
776.843	0.0161994
776.922	0.0160608
777.000	0.0161704
777.078	0.0161749
777.156	0.0159857
777.234	0.0159090
777.312	0.0161726
777.390	0.0160508
777.468	0.0160145
777.547	0.0160806
777.625	0.0160094
777.703	0.0160943
777.781	0.0162522
777.859	0.0163497
777.937	0.0164333
778.015	0.0162579
778.093	0.0164395
778.172	0.0166468
778.250	0.0166975
778.328	0.0165762
778.406	0.0166661
778.484	0.0167124
778.562	0.0166879
778.640	0.0166868
778.718	0.0166208
778.797	0.0165723
778.875	0.0166621
778.953	0.0165484
779.031	0.0164129
779.109	0.0164240
779.187	0.0162943
779.265	0.0161460
779.343	0.0160733
779.422	0.0160481
779.500	0.0160693
779.578	0.0158228
779.656	0.0157644
779.734	0.0159354
779.812	0.0157187
779.890	0.0159290
779.968	0.0158363
780.047	0.0158276
780.125	0.0158918
780.203	0.0157883
780.281	0.0159222
780.359	0.0158608
780.437	0.0160237
780.515	0.0160064
780.593	0.0160086
780.672	0.0161075
780.750	0.0162374
780.828	0.0160238
780.906	0.0161467
780.984	0.0161842
781.062	0.0162553
781.140	0.0163380
781.218	0.0161993
781.297	0.0162578
781.375	0.0163011
781.453	0.0164554
781.531	0.0164315
781.609	0.0162980
781.687	0.0163127
781.765	0.0163926
781.843	0.0164072
781.922	0.0162009
782.000	0.0161932
782.078	0.0162341
782.156	0.0161119
782.234	0.0160165
782.312	0.0160825
782.390	0.0160970
782.468	0.0160300
782.547	0.0159792
782.625	0.0160034
782.703	0.0160772
782.781	0.0160329
782.859	0.0160845
782.937	0.0160548
783.015	0.0162156
783.093	0.0162632
783.172	0.0163503
783.250	0.0163506
783.328	0.0165152
783.406	0.0165237
783.484	0.0166186
783.562	0.0165894
783.640	0.0166664
783.718	0.0165424
783.797	0.0165472
783.875	0.0165432
783.953	0.0165701
784.031	0.0166377
784.109	0.0165134
784.187	0.0162064
784.265	0.0161228
784.343	0.0162597
784.422	0.0162001
784.500	0.0162131
784.578	0.0161143
784.656	0.0159807
784.734	0.0159978
784.812	0.0158362
784.890	0.0158096
784.968	0.0157294
785.047	0.0156297
785.125	0.0157128
785.203	0.0157941
785.281	0.0158483
785.359	0.0159370
785.437	0.0158701
785.515	0.0160331
785.593	0.0158588
785.672	0.0159164
785.750	0.0160033
785.828	0.0160180
785.906	0.0160825
785.984	0.0162054
786.062	0.0163332
786.140	0.0162340
786.218	0.0162508
786.297	0.0161933
786.375	0.0162788
786.453	0.0163136
786.531	0.0162012
786.609	0.0162482
786.687	0.0162396
786.765	0.0163728
786.843	0.0162662
786.922	0.0162225
787.000	0.0163033
787.078	0.0163248
787.156	0.0163760
787.234	0.0162309
787.312	0.0163703
787.390	0.0162572
787.468	0.0162826
787.547	0.0161836
787.625	0.0162087
787.703	0.0162332
787.781	0.0161349
787.859	0.0162514
787.937	0.0162465
788.015	0.0161089
788.093	0.0162250
788.172	0.0161620
788.250	0.0161083
788.328	0.0163313
788.406	0.0161834
788.484	0.0161432
788.562	0.0163712
788.640	0.0163516
788.718	0.0161802
788.797	0.0162328
788.875	0.0161872
788.953	0.0163710
789.031	0.0162167
789.109	0.0162324
789.187	0.0161621
789.265	0.0163612
789.343	0.0162148
789.422	0.0162973
789.500	0.0162157
789.578	0.0163925
789.656	0.0161949
789.734	0.0162119
789.812	0.0162761
789.890	0.0161475
789.968	0.0162291
790.047	0.0161310
790.125	0.0160981
790.203	0.0159398
790.281	0.0160423
790.359	0.0159608
790.437	0.0160170
790.515	0.0160645
790.593	0.0160525
790.672	0.0161063
790.750	0.0160307
790.828	0.0159966
790.906	0.0160745
790.984	0.0160378
791.062	0.0160435
791.140	0.0160892
791.218	0.0161914
791.297	0.0160909
791.375	0.0160763
791.453	0.0161626
791.531	0.0160826
791.609	0.0160947
791.687	0.0161624
791.765	0.0163234
791.843	0.0161487
791.922	0.0162750
792.000	0.0163355
792.078	0.0162745
792.156	0.0162991
792.234	0.0162879
792.312	0.0163421
792.390	0.0163677
792.468	0.0162668
792.547	0.0163201
792.625	0.0163136
792.703	0.0162806
792.781	0.0162540
792.859	0.0163690
792.937	0.0162360
793.015	0.0162404
793.093	0.0162147
793.172	0.0161598
793.250	0.0162443
793.328	0.0160894
793.406	0.0161330
793.484	0.0162137
793.562	0.0162480
793.640	0.0161552
793.718	0.0161286
793.797	0.0162629
793.875	0.0161999
793.953	0.0161685
794.031	0.0163084
794.109	0.0163175
794.187	0.0160949
794.265	0.0162822
794.343	0.0163385
794.422	0.0163887
794.500	0.0163500
794.578	0.0162154
794.656	0.0162940
794.734	0.0163564
794.812	0.0161436
794.890	0.0162205
794.968	0.0162632
795.047	0.0162140
795.125	0.0162709
795.203	0.0163153
795.281	0.0162632
795.359	0.0161150
795.437	0.0162928
795.515	0.0163494
795.593	0.0162068
795.672	0.0160617
795.750	0.0161784
795.828	0.0163028
795.906	0.0164035
795.984	0.0162772
796.062	0.0160742
796.140	0.0160932
796.218	0.0160738
796.297	0.0160503
796.375	0.0160837
796.453	0.0158954
796.531	0.0159686
796.609	0.0159521
796.687	0.0161029
796.765	0.0160912
796.843	0.0158804
796.922	0.0159679
797.000	0.0159462
797.078	0.0159455
797.156	0.0160741
797.234	0.0162467
797.312	0.0161818
797.390	0.0161572
797.468	0.0162906
797.547	0.0163042
797.625	0.0162643
797.703	0.0164288
797.781	0.0163708
797.859	0.0163335
797.937	0.0162514
798.015	0.0162305
798.093	0.0163281
798.172	0.0163953
798.250	0.0163311
798.328	0.0162964
798.406	0.0162600
798.484	0.0161781
798.562	0.0161062
798.640	0.0159763
798.718	0.0161034
798.797	0.0163002
798.875	0.0162495
798.953	0.0162518
799.031	0.0161970
799.109	0.0161719
799.187	0.0160415
799.265	0.0162524
799.343	0.0163515
799.422	0.0162624
799.500	0.0162650
799.578	0.0162244
799.656	0.0163398
799.734	0.0162966
799.812	0.0162491
799.890	0.0163302
799.968	0.0164648
800.047	0.0164348
800.125	0.0163634
800.203	0.0163598
800.281	0.0163151
800.359	0.0164263
800.437	0.0163556
800.515	0.0164355
800.593	0.0163776
800.672	0.0163667
800.750	0.0162787
800.828	0.0162114
800.906	0.0162035
800.984	0.0163182
801.062	0.0161862
801.140	0.0162946
801.218	0.0162919
801.297	0.0161863
801.375	0.0161591
801.453	0.0160487
801.531	0.0161965
801.609	0.0161888
801.687	0.0161335
801.765	0.0160745
801.843	0.0161654
801.922	0.0161704
802.000	0.0160593
802.078	0.0160965
802.156	0.0161766
802.234	0.0161515
802.312	0.0162534
802.390	0.0161659
802.468	0.0160925
802.547	0.0160897
802.625	0.0160211
802.703	0.0162650
802.781	0.0161241
802.859	0.0160984
802.937	0.0162292
803.015	0.0162563
803.093	0.0160825
803.172	0.0162473
803.250	0.0163560
803.328	0.0161292
803.406	0.0162376
803.484	0.0162703
803.562	0.0164021
803.640	0.0164000
803.718	0.0163720
803.797	0.0165030
803.875	0.0165285
803.953	0.0164845
804.031	0.0165958
804.109	0.0163503
804.187	0.0164837
804.265	0.0164458
804.343	0.0164014
804.422	0.0162537
804.500	0.0163054
804.578	0.0162160
804.656	0.0161312
804.734	0.0160371
804.812	0.0161584
804.890	0.0160243
804.968	0.0160541
805.047	0.0160272
805.125	0.0160358
805.203	0.0159046
805.281	0.0160311
805.359	0.0160569
805.437	0.0160601
805.515	0.0161125
805.593	0.0160345
805.672	0.0159634
805.750	0.0159102
805.828	0.0161706
805.906	0.0160557
805.984	0.0160678
806.062	0.0161836
806.140	0.0162720
806.218	0.0161284
806.297	0.0160556
806.375	0.0162418
806.453	0.0161118
806.531	0.0160162
806.609	0.0161581
806.687	0.0161692
806.765	0.0161857
806.843	0.0161440
806.922	0.0162725
807.000	0.0160970
807.078	0.0161265
807.156	0.0161127
807.234	0.0161931
807.312	0.0161625
807.390	0.0161947
807.468	0.0162146
807.547	0.0161832
807.625	0.0163283
807.703	0.0161037
807.781	0.0161317
807.859	0.0161976
807.937	0.0162898
808.015	0.0160971
808.093	0.0161477
808.172	0.0160874
808.250	0.0161940
808.328	0.0161720
808.406	0.0161865
808.484	0.0162956
808.562	0.0162295
808.640	0.0163139
808.718	0.0163863
808.797	0.0163924
808.875	0.0163737
808.953	0.0164029
809.031	0.0162270
809.109	0.0164024
809.187	0.0163928
809.265	0.0163664
809.343	0.0163445
809.422	0.0163619
809.500	0.0162786
809.578	0.0164234
809.656	0.0161826
809.734	0.0162981
809.812	0.0164127
809.890	0.0162912
809.968	0.0162733
810.047	0.0163602
810.125	0.0162802
810.203	0.0163880
810.281	0.0163092
810.359	0.0161425
810.437	0.0162205
810.515	0.0162972
810.593	0.0161758
810.672	0.0161922
810.750	0.0162279
810.828	0.0162214
810.906	0.0161686
810.984	0.0161886
811.062	0.0161590
811.140	0.0161478
811.218	0.0162090
811.297	0.0162251
811.375	0.0162119
811.453	0.0162505
811.531	0.0162150
811.609	0.0160545
811.687	0.0161746
811.765	0.0161346
811.843	0.0160823
811.922	0.0160679
812.000	0.0160481
812.078	0.0160690
812.156	0.0160397
812.234	0.0160448
812.312	0.0159589
812.390	0.0160533
812.468	0.0160329
812.547	0.0160991
812.625	0.0160169
812.703	0.0161447
812.781	0.0161183
812.859	0.0162284
812.937	0.0161073
813.015	0.0160238
813.093	0.0160250
813.172	0.0161182
813.250	0.0161810
813.328	0.0161625
813.406	0.0160499
813.484	0.0162736
813.562	0.0162170
813.640	0.0161360
813.718	0.0160911
813.797	0.0162587
813.875	0.0162438
813.953	0.0162027
814.031	0.0163168
814.109	0.0162348
814.187	0.0161805
814.265	0.0163260
814.343	0.0163447
814.422	0.0161586
814.500	0.0163229
814.578	0.0162765
814.656	0.0162777
814.734	0.0163710
814.812	0.0162875
814.890	0.0161788
814.968	0.0162727
815.047	0.0163129
815.125	0.0162592
815.203	0.0162967
815.281	0.0162762
815.359	0.0163626
815.437	0.0162960
815.515	0.0162022
815.593	0.0164613
815.672	0.0163801
815.750	0.0163353
815.828	0.0161845
815.906	0.0162218
815.984	0.0162508
816.062	0.0161680
816.140	0.0160992
816.218	0.0161106
816.297	0.0161028
816.375	0.0162500
816.453	0.0161555
816.531	0.0160167
816.609	0.0159592
816.687	0.0159917
816.765	0.0159219
816.843	0.0158096
816.922	0.0158414
817.000	0.0159280
817.078	0.0161488
817.156	0.0159430
817.234	0.0160422
817.312	0.0160953
817.390	0.0159882
817.468	0.0160133
817.547	0.0161311
817.625	0.0160641
817.703	0.0161404
817.781	0.0161938
817.859	0.0162328
817.937	0.0162360
818.015	0.0162384
818.093	0.0161617
818.172	0.0162086
818.250	0.0162556
818.328	0.0160811
818.406	0.0162845
818.484	0.0161765
818.562	0.0161647
818.640	0.0163872
818.718	0.0161509
818.797	0.0162572
818.875	0.0163321
818.953	0.0163001
819.031	0.0162074
819.109	0.0163228
819.187	0.0164761
819.265	0.0163247
819.343	0.0163081
819.422	0.0163687
819.500	0.0162897
819.578	0.0164204
819.656	0.0162955
819.734	0.0163501
819.812	0.0163492
819.890	0.0162454
819.968	0.0164754
820.047	0.0162975
820.125	0.0162112
820.203	0.0161792
820.281	0.0161869
820.359	0.0162035
820.437	0.0161481
820.515	0.0161800
820.593	0.0160953
820.672	0.0159382
820.750	0.0160088
820.828	0.0159883
820.906	0.0161108
820.984	0.0159290
821.062	0.0158945
821.140	0.0160854
821.218	0.0160753
821.297	0.0160966
821.375	0.0161093
821.453	0.0160849
821.531	0.0161456
821.609	0.0161374
821.687	0.0161637
821.765	0.0161758
821.843	0.0161896
821.922	0.0161500
822.000	0.0162528
822.078	0.0162258
822.156	0.0161785
822.234	0.0161158
822.312	0.0161587
822.390	0.0162053
822.468	0.0162526
822.547	0.0162508
822.625	0.0163464
822.703	0.0163530
822.781	0.0160640
822.859	0.0163273
822.937	0.0163040
823.015	0.0162552
823.093	0.0162261
823.172	0.0163179
823.250	0.0162670
823.328	0.0161970
823.406	0.0163486
823.484	0.0163639
823.562	0.0163827
823.640	0.0163636
823.718	0.0163013
823.797	0.0162054
823.875	0.0162768
823.953	0.0162716
824.031	0.0162429
824.109	0.0162265
824.187	0.0161198
824.265	0.0161768
824.343	0.0161249
824.422	0.0161288
824.500	0.0160966
824.578	0.0161498
824.656	0.0159791
824.734	0.0160396
824.812	0.0160695
824.890	0.0159627
824.968	0.0161564
825.047	0.0159654
825.125	0.0160661
825.203	0.0161027
825.281	0.0162027
825.359	0.0161459
825.437	0.0160921
825.515	0.0162251
825.593	0.0161059
825.672	0.0162206
825.750	0.0163727
825.828	0.0162990
825.906	0.0163335
825.984	0.0162536
826.062	0.0162355
826.140	0.0163386
826.218	0.0163831
826.297	0.0162243
826.375	0.0160974
826.453	0.0162725
826.531	0.0162260
826.609	0.0162270
826.687	0.0161201
826.765	0.0162127
826.843	0.0161772
826.922	0.0163039
827.000	0.0162132
827.078	0.0162785
827.156	0.0163530
827.234	0.0161543
827.312	0.0161785
827.390	0.0161946
827.468	0.0161708
827.547	0.0161710
827.625	0.0162864
827.703	0.0162719
827.781	0.0160575
827.859	0.0161253
827.937	0.0161656
828.015	0.0161285
828.093	0.0161182
828.172	0.0160461
828.250	0.0161729
828.328	0.0160401
828.406	0.0161043
828.484	0.0160182
828.562	0.0161526
828.640	0.0161193
828.718	0.0160999
828.797	0.0162488
828.875	0.0161565
828.953	0.0162885
829.031	0.0161705
829.109	0.0161944
829.187	0.0159979
829.265	0.0162500
829.343	0.0162389
829.422	0.0161660
829.500	0.0162573
829.578	0.0161895
829.656	0.0161250
829.734	0.0163570
829.812	0.0162360
829.890	0.0163377
829.968	0.0162260
830.047	0.0162248
830.125	0.0162645
830.203	0.0162430
830.281	0.0163692
830.359	0.0163531
830.437	0.0162550
830.515	0.0162721
830.593	0.0162780
830.672	0.0162728
830.750	0.0162827
830.828	0.0162804
830.906	0.0161892
830.984	0.0163209
831.062	0.0163586
831.140	0.0162435
831.218	0.0161855
831.297	0.0163097
831.375	0.0162785
831.453	0.0160957
831.531	0.0162803
831.609	0.0161288
831.687	0.0160104
831.765	0.0161391
831.843	0.0159731
831.922	0.0161260
832.000	0.0160914
832.078	0.0161619
832.156	0.0160562
832.234	0.0161320
832.312	0.0159136
832.390	0.0160101
832.468	0.0160779
832.547	0.0159229
832.625	0.0160351
832.703	0.0159234
832.781	0.0159882
832.859	0.0160451
832.937	0.0162600
833.015	0.0161369
833.093	0.0161987
833.172	0.0162424
833.250	0.0161580
833.328	0.0161640
833.406	0.0160526
833.484	0.0162303
833.562	0.0162231
833.640	0.0161475
833.718	0.0160876
833.797	0.0161140
833.875	0.0162363
833.953	0.0160651
834.031	0.0161021
834.109	0.0160848
834.187	0.0162386
834.265	0.0161469
834.343	0.0161843
834.422	0.0163338
834.500	0.0161560
834.578	0.0162611
834.656	0.0163982
834.734	0.0164209
834.812	0.0163667
834.890	0.0164043
834.968	0.0162224
835.047	0.0162774
835.125	0.0162271
835.203	0.0162053
835.281	0.0161297
835.359	0.0162572
835.437	0.0160107
835.515	0.0161777
835.593	0.0162728
835.672	0.0163396
835.750	0.0161610
835.828	0.0162246
835.906	0.0162095
835.984	0.0162704
836.062	0.0162297
836.140	0.0163882
836.218	0.0164360
836.297	0.0163861
836.375	0.0161685
836.453	0.0162532
836.531	0.0160175
836.609	0.0161693
836.687	0.0161373
836.765	0.0159309
836.843	0.0159502
836.922	0.0159537
837.000	0.0160241
837.078	0.0161394
837.156	0.0161386
837.234	0.0161802
837.312	0.0161819
837.390	0.0161805
837.468	0.0162693
837.547	0.0162038
837.625	0.0162380
837.703	0.0164596
837.781	0.0163883
837.859	0.0162000
837.937	0.0162094
838.015	0.0162216
838.093	0.0161992
838.172	0.0162412
838.250	0.0163055
838.328	0.0161322
838.406	0.0161403
838.484	0.0160931
838.562	0.0160316
838.640	0.0160127
838.718	0.0160088
838.797	0.0160313
838.875	0.0160302
838.953	0.0158794
839.031	0.0159004
839.109	0.0160410
839.187	0.0160751
839.265	0.0159554
839.343	0.0160726
839.422	0.0160485
839.500	0.0160913
839.578	0.0162212
839.656	0.0162239
839.734	0.0161910
839.812	0.0161917
839.890	0.0162781
839.968	0.0164099
840.047	0.0163515
840.125	0.0162332
840.203	0.0162038
840.281	0.0162983
840.359	0.0161019
840.437	0.0162048
840.515	0.0162865
840.593	0.0162612
840.672	0.0163852
840.750	0.0163848
840.828	0.0161661
840.906	0.0164945
840.984	0.0163627
841.062	0.0162222
841.140	0.0164453
841.218	0.0162945
841.297	0.0162691
841.375	0.0161717
841.453	0.0161873
841.531	0.0163539
841.609	0.0162294
841.687	0.0161540
841.765	0.0160879
841.843	0.0160531
841.922	0.0162175
842.000	0.0160281
842.078	0.0159917
842.156	0.0160497
842.234	0.0160327
842.312	0.0158645
842.390	0.0160416
842.468	0.0160309
842.547	0.0159599
842.625	0.0159231
842.703	0.0159546
842.781	0.0160172
842.859	0.0159771
842.937	0.0160738
843.015	0.0161726
843.093	0.0161134
843.172	0.0162615
843.250	0.0163081
843.328	0.0163267
843.406	0.0162044
843.484	0.0162995
843.562	0.0164553
843.640	0.0164983
843.718	0.0163947
843.797	0.0163352
843.875	0.0163999
843.953	0.0163005
844.031	0.0163751
844.109	0.0162762
844.187	0.0161978
844.265	0.0163241
844.343	0.0162362
844.422	0.0162395
844.500	0.0160947
844.578	0.0160354
844.656	0.0161635
844.734	0.0161010
844.812	0.0160874
844.890	0.0159908
844.968	0.0161051
845.047	0.0161539
845.125	0.0160110
845.203	0.0160229
845.281	0.0161333
845.359	0.0160364
845.437	0.0162177
845.515	0.0160432
845.593	0.0161153
845.672	0.0162317
845.750	0.0161836
845.828	0.0161543
845.906	0.0161311
845.984	0.0162745
846.062	0.0162355
846.140	0.0161060
846.218	0.0161729
846.297	0.0161152
846.375	0.0161340
846.453	0.0162696
846.531	0.0161327
846.609	0.0160403
846.687	0.0162321
846.765	0.0161327
846.843	0.0161173
846.922	0.0161866
847.000	0.0162788
847.078	0.0161283
847.156	0.0161038
847.234	0.0161748
847.312	0.0162243
847.390	0.0161024
847.468	0.0160501
847.547	0.0161951
847.625	0.0162177
847.703	0.0161529
847.781	0.0162602
847.859	0.0163106
847.937	0.0162012
848.015	0.0163071
848.093	0.0162055
848.172	0.0161837
848.250	0.0162243
848.328	0.0162659
848.406	0.0161611
848.484	0.0161184
848.562	0.0160191
848.640	0.0161101
848.718	0.0161060
848.797	0.0160957
848.875	0.0160406
848.953	0.0161671
849.031	0.0160856
849.109	0.0161868
849.187	0.0161212
849.265	0.0160902
849.343	0.0160063
849.422	0.0161423
849.500	0.0161521
849.578	0.0162295
849.656	0.0161856
849.734	0.0161480
849.812	0.0161429
849.890	0.0160344
849.968	0.0161953
850.047	0.0160758
850.125	0.0161842
850.203	0.0161358
850.281	0.0160561
850.359	0.0162147
850.437	0.0161600
850.515	0.0160040
850.593	0.0159937
850.672	0.0160485
850.750	0.0161515
850.828	0.0161384
850.906	0.0161258
850.984	0.0162526
851.062	0.0162227
851.140	0.0163074
851.218	0.0162122
851.297	0.0162468
851.375	0.0162399
851.453	0.0162907
851.531	0.0162044
851.609	0.0162974
851.687	0.0163853
851.765	0.0163158
851.843	0.0162402
851.922	0.0161752
852.000	0.0162122
852.078	0.0162035
852.156	0.0163464
852.234	0.0162471
852.312	0.0160960
852.390	0.0162601
852.468	0.0162441
852.547	0.0162521
852.625	0.0162198
852.703	0.0163871
852.781	0.0162444
852.859	0.0162466
852.937	0.0161560
853.015	0.0161878
853.093	0.0163442
853.172	0.0162295
853.250	0.0162860
853.328	0.0162748
853.406	0.0162388
853.484	0.0160724
853.562	0.0160869
853.640	0.0161586
853.718	0.0161559
853.797	0.0161359
853.875	0.0160834
853.953	0.0160747
854.031	0.0160738
854.109	0.0160184
854.187	0.0160930
854.265	0.0158972
854.343	0.0160578
854.422	0.0159155
854.500	0.0160240
854.578	0.0161591
854.656	0.0159432
854.734	0.0159675
854.812	0.0159814
854.890	0.0160219
854.968	0.0161620
855.047	0.0161160
855.125	0.0162718
855.203	0.0160949
855.281	0.0161234
855.359	0.0161479
855.437	0.0160165
855.515	0.0162035
855.593	0.0161445
855.672	0.0162294
855.750	0.0161562
855.828	0.0161796
855.906	0.0161777
855.984	0.0161385
856.062	0.0161201
856.140	0.0161142
856.218	0.0160963
856.297	0.0161372
856.375	0.0162061
856.453	0.0161639
856.531	0.0160915
856.609	0.0162124
856.687	0.0162026
856.765	0.0162464
856.843	0.0160493
856.922	0.0161213
857.000	0.0162668
857.078	0.0164143
857.156	0.0163231
857.234	0.0163554
857.312	0.0163406
857.390	0.0163311
857.468	0.0163258
857.547	0.0163681
857.625	0.0161983
857.703	0.0162150
857.781	0.0161819
857.859	0.0163174
857.937	0.0163082
858.015	0.0162681
858.093	0.0162718
858.172	0.0162713
858.250	0.0161964
858.328	0.0163085
858.406	0.0163118
858.484	0.0162022
858.562	0.0161308
858.640	0.0162939
858.718	0.0161838
858.797	0.0161665
858.875	0.0162042
858.953	0.0161698
859.031	0.0160999
859.109	0.0160581
859.187	0.0160928
859.265	0.0162413
859.343	0.0161353
859.422	0.0160214
859.500	0.0159951
859.578	0.0160895
859.656	0.0161097
859.734	0.0160268
859.812	0.0160134
859.890	0.0160792
859.968	0.0160970
860.047	0.0160618
860.125	0.0160152
860.203	0.0159344
860.281	0.0159974
860.359	0.0160934
860.437	0.0159898
860.515	0.0161706
860.593	0.0160838
860.672	0.0160564
860.750	0.0161588
860.828	0.0161728
860.906	0.0161903
860.984	0.0160629
861.062	0.0161015
861.140	0.0162780
861.218	0.0161829
861.297	0.0162053
861.375	0.0162906
861.453	0.0162412
861.531	0.0162374
861.609	0.0163180
861.687	0.0162771
861.765	0.0163020
861.843	0.0162530
861.922	0.0161162
862.000	0.0162436
862.078	0.0162015
862.156	0.0162771
862.234	0.0163252
862.312	0.0163640
862.390	0.0162805
862.468	0.0162814
862.547	0.0162586
862.625	0.0162775
862.703	0.0162640
862.781	0.0164001
862.859	0.0164111
862.937	0.0164319
863.015	0.0165017
863.093	0.0164495
863.172	0.0163132
863.250	0.0162432
863.328	0.0163448
863.406	0.0162137
863.484	0.0162199
863.562	0.0163017
863.640	0.0162405
863.718	0.0162361
863.797	0.0160891
863.875	0.0160548
863.953	0.0159909
864.031	0.0159512
864.109	0.0158286
864.187	0.0159331
864.265	0.0159294
864.343	0.0158473
864.422	0.0159614
864.500	0.0158607
864.578	0.0158068
864.656	0.0159253
864.734	0.0159526
864.812	0.0159552
864.890	0.0160737
864.968	0.0161343
865.047	0.0160224
865.125	0.0161035
865.203	0.0161641
865.281	0.0163031
865.359	0.0161550
865.437	0.0162930
865.515	0.0161833
865.593	0.0162517
865.672	0.0163188
865.750	0.0162897
865.828	0.0164198
865.906	0.0162292
865.984	0.0162521
866.062	0.0163749
866.140	0.0163271
866.218	0.0164270
866.297	0.0164167
866.375	0.0162353
866.453	0.0162217
866.531	0.0162924
866.609	0.0163000
866.687	0.0163576
866.765	0.0163530
866.843	0.0161855
866.922	0.0163321
867.000	0.0163464
867.078	0.0163163
867.156	0.0163196
867.234	0.0163059
867.312	0.0162715
867.390	0.0163063
867.468	0.0162106
867.547	0.0162912
867.625	0.0164621
867.703	0.0160323
867.781	0.0162438
867.859	0.0162586
867.937	0.0161096
868.015	0.0161230
868.093	0.0161554
868.172	0.0162858
868.250	0.0162383
868.328	0.0161873
868.406	0.0160271
868.484	0.0162877
868.562	0.0161880
868.640	0.0161443
868.718	0.0161790
868.797	0.0161473
868.875	0.0162267
868.953	0.0162878
869.031	0.0162500
869.109	0.0162275
869.187	0.0160536
869.265	0.0161360
869.343	0.0162205
869.422	0.0161614
869.500	0.0160525
869.578	0.0162029
869.656	0.0161428
869.734	0.0161310
869.812	0.0160696
869.890	0.0159743
869.968	0.0160302
870.047	0.0159708
870.125	0.0160711
870.203	0.0160648
870.281	0.0159685
870.359	0.0161692
870.437	0.0161591
870.515	0.0160920
870.593	0.0161150
870.672	0.0160391
870.750	0.0162858
870.828	0.0161630
870.906	0.0161736
870.984	0.0163659
871.062	0.0163622
871.140	0.0162390
871.218	0.0162650
871.297	0.0162364
871.375	0.0163235
871.453	0.0162283
871.531	0.0163326
871.609	0.0161116
871.687	0.0162321
871.765	0.0162437
871.843	0.0163332
871.922	0.0161138
872.000	0.0161918
872.078	0.0162685
872.156	0.0161816
872.234	0.0161037
872.312	0.0160077
872.390	0.0161430
872.468	0.0160455
872.547	0.0161524
872.625	0.0161743
872.703	0.0162484
872.781	0.0162817
872.859	0.0161967
872.937	0.0161597
873.015	0.0162191
873.093	0.0162730
873.172	0.0162471
873.250	0.0162402
873.328	0.0160748
873.406	0.0160966
873.484	0.0161888
873.562	0.0162959
873.640	0.0161526
873.718	0.0162753
873.797	0.0162848
873.875	0.0161767
873.953	0.0160700
874.031	0.0161938
874.109	0.0160481
874.187	0.0162322
874.265	0.0161880
874.343	0.0161752
874.422	0.0162303
874.500	0.0162395
874.578	0.0161902
874.656	0.0163758
874.734	0.0162976
874.812	0.0162260
874.890	0.0160829
874.968	0.0162220
875.047	0.0161649
875.125	0.0161578
875.203	0.0162572
875.281	0.0162440
875.359	0.0162794
875.437	0.0162301
875.515	0.0162012
875.593	0.0162923
875.672	0.0161642
875.750	0.0161921
875.828	0.0163026
875.906	0.0163146
875.984	0.0161904
876.062	0.0161128
876.140	0.0161066
876.218	0.0162021
876.297	0.0161462
876.375	0.0160437
876.453	0.0160751
876.531	0.0161279
876.609	0.0162042
876.687	0.0160757
876.765	0.0160825
876.843	0.0160559
876.922	0.0161781
877.000	0.0160960
877.078	0.0161021
877.156	0.0162648
877.234	0.0161104
877.312	0.0161367
877.390	0.0161290
877.468	0.0160814
877.547	0.0161075
877.625	0.0162591
877.703	0.0162949
877.781	0.0161433
877.859	0.0161984
877.937	0.0162858
878.015	0.0162445
878.093	0.0163070
878.172	0.0163209
878.250	0.0162125
878.328	0.0163354
878.406	0.0163331
878.484	0.0162064
878.562	0.0162794
878.640	0.0161382
878.718	0.0161583
878.797	0.0161815
878.875	0.0161962
878.953	0.0163437
879.031	0.0162301
879.109	0.0160933
879.187	0.0162367
879.265	0.0162113
879.343	0.0161868
879.422	0.0162402
879.500	0.0160640
879.578	0.0160504
879.656	0.0160628
879.734	0.0160335
879.812	0.0161621
879.890	0.0159914
879.968	0.0160941
880.047	0.0160639
880.125	0.0161572
880.203	0.0162503
880.281	0.0160548
880.359	0.0161389
880.437	0.0161958
880.515	0.0160935
880.593	0.0161654
880.672	0.0161398
880.750	0.0161945
880.828	0.0161716
880.906	0.0160937
880.984	0.0162174
881.062	0.0163061
881.140	0.0161534
881.218	0.0162955
881.297	0.0162730
881.375	0.0162254
881.453	0.0161700
881.531	0.0162615
881.609	0.0162312
881.687	0.0161555
881.765	0.0162164
881.843	0.0163009
881.922	0.0162384
882.000	0.0161959
882.078	0.0162305
882.156	0.0162418
882.234	0.0161695
882.312	0.0162216
882.390	0.0162487
882.468	0.0161734
882.547	0.0161806
882.625	0.0161803
882.703	0.0162965
882.781	0.0162171
882.859	0.0162236
882.937	0.0162259
883.015	0.0162339
883.093	0.0161972
883.172	0.0161684
883.250	0.0163059
883.328	0.0162576
883.406	0.0162584
883.484	0.0161995
883.562	0.0163380
883.640	0.0164861
883.718	0.0161667
883.797	0.0160558
883.875	0.0163252
883.953	0.0162120
884.031	0.0162115
884.109	0.0162237
884.187	0.0161892
884.265	0.0161910
884.343	0.0162406
884.422	0.0162086
884.500	0.0161618
884.578	0.0162051
884.656	0.0162512
884.734	0.0161880
884.812	0.0160968
884.890	0.0160908
884.968	0.0161682
885.047	0.0160936
885.125	0.0161148
885.203	0.0161574
885.281	0.0161682
885.359	0.0161970
885.437	0.0161194
885.515	0.0162482
885.593	0.0163125
885.672	0.0162109
885.750	0.0163198
885.828	0.0162968
885.906	0.0163908
885.984	0.0162865
886.062	0.0162670
886.140	0.0163358
886.218	0.0163087
886.297	0.0162549
886.375	0.0163538
886.453	0.0160531
886.531	0.0163641
886.609	0.0161831
886.687	0.0162156
886.765	0.0163358
886.843	0.0162337
886.922	0.0161284
887.000	0.0160139
887.078	0.0161607
887.156	0.0161603
887.234	0.0161594
887.312	0.0161353
887.390	0.0162618
887.468	0.0161017
887.547	0.0159874
887.625	0.0160925
887.703	0.0161530
887.781	0.0160749
887.859	0.0161556
887.937	0.0162603
888.015	0.0162428
888.093	0.0161935
888.172	0.0163074
888.250	0.0162652
888.328	0.0162933
888.406	0.0163263
888.484	0.0162595
888.562	0.0163538
888.640	0.0163567
888.718	0.0162543
888.797	0.0161598
888.875	0.0161695
888.953	0.0163715
889.031	0.0162428
889.109	0.0163286
889.187	0.0163570
889.265	0.0163344
889.343	0.0162916
889.422	0.0162141
889.500	0.0160886
889.578	0.0160619
889.656	0.0161819
889.734	0.0161591
889.812	0.0161089
889.890	0.0161846
889.968	0.0161654
890.047	0.0161918
890.125	0.0162340
890.203	0.0160641
890.281	0.0161376
890.359	0.0162283
890.437	0.0162393
890.515	0.0160829
890.593	0.0161478
890.672	0.0160954
890.750	0.0162510
890.828	0.0160752
890.906	0.0160670
890.984	0.0161291
891.062	0.0161968
891.140	0.0161246
891.218	0.0161990
891.297	0.0160403
891.375	0.0160096
891.453	0.0160729
891.531	0.0160915
891.609	0.0160156
891.687	0.0159959
891.765	0.0162093
891.843	0.0160764
891.922	0.0162287
892.000	0.0161505
892.078	0.0161316
892.156	0.0160133
892.234	0.0160358
892.312	0.0160791
892.390	0.0160363
892.468	0.0160445
892.547	0.0161842
892.625	0.0162162
892.703	0.0161573
892.781	0.0162415
892.859	0.0162974
892.937	0.0162539
893.015	0.0162273
893.093	0.0162828
893.172	0.0162054
893.250	0.0161461
893.328	0.0163078
893.406	0.0162901
893.484	0.0161644
893.562	0.0162949
893.640	0.0163184
893.718	0.0163300
893.797	0.0160725
893.875	0.0162407
893.953	0.0162551
894.031	0.0163441
894.109	0.0162602
894.187	0.0161924
894.265	0.0161160
894.343	0.0160494
894.422	0.0162525
894.500	0.0161062
894.578	0.0161346
894.656	0.0161571
894.734	0.0162250
894.812	0.0161192
894.890	0.0161136
894.968	0.0160711
895.047	0.0160643
895.125	0.0160467
895.203	0.0161148
895.281	0.0160439
895.359	0.0162608
895.437	0.0159848
895.515	0.0160590
895.593	0.0161759
895.672	0.0160994
895.750	0.0160122
895.828	0.0162312
895.906	0.0162632
895.984	0.0161359
896.062	0.0162201
896.140	0.0162240
896.218	0.0161651
896.297	0.0162316
896.375	0.0162876
896.453	0.0162579
896.531	0.0163173
896.609	0.0163097
896.687	0.0162774
896.765	0.0163521
896.843	0.0161965
896.922	0.0162846
897.000	0.0163573
897.078	0.0163567
897.156	0.0162431
897.234	0.0164088
897.312	0.0162863
897.390	0.0162177
897.468	0.0163123
897.547	0.0163143
897.625	0.0163320
897.703	0.0162527
897.781	0.0161874
897.859	0.0161662
897.937	0.0162628
898.015	0.0162018
898.093	0.0161958
898.172	0.0162888
898.250	0.0161877
898.328	0.0161247
898.406	0.0162640
898.484	0.0162727
898.562	0.0160443
898.640	0.0161067
898.718	0.0161498
898.797	0.0162245
898.875	0.0161917
898.953	0.0162789
899.031	0.0162647
899.109	0.0162324
899.187	0.0162772
899.265	0.0164228
899.343	0.0162453
899.422	0.0161530
899.500	0.0162160
899.578	0.0161026
899.656	0.0161096
899.734	0.0160670
899.812	0.0162526
899.890	0.0162499
899.968	0.0159826
900.047	0.0162625
900.125	0.0160317
900.203	0.0160796
900.281	0.0162649
900.359	0.0162267
900.437	0.0161173
900.515	0.0160269
900.593	0.0160713
900.672	0.0161966
900.750	0.0162126
900.828	0.0160691
900.906	0.0161717
900.984	0.0161608
901.062	0.0160509
901.140	0.0160463
901.218	0.0161313
901.297	0.0161488
901.375	0.0161181
901.453	0.0160921
901.531	0.0160400
901.609	0.0162222
901.687	0.0161619
901.765	0.0160301
901.843	0.0162154
901.922	0.0161658
902.000	0.0160749
902.078	0.0161066
902.156	0.0161425
902.234	0.0160604
902.312	0.0160983
902.390	0.0160816
902.468	0.0161835
902.547	0.0160689
902.625	0.0159915
902.703	0.0162646
902.781	0.0161167
902.859	0.0159889
902.937	0.0160259
903.015	0.0160710
903.093	0.0162583
903.172	0.0160562
903.250	0.0161062
903.328	0.0161446
903.406	0.0161147
903.484	0.0161069
903.562	0.0161248
903.640	0.0162212
903.718	0.0162537
903.797	0.0163115
903.875	0.0161861
903.953	0.0161385
904.031	0.0161834
904.109	0.0162460
904.187	0.0162027
904.265	0.0162839
904.343	0.0161952
904.422	0.0162426
904.500	0.0161224
904.578	0.0161458
904.656	0.0161964
904.734	0.0161388
904.812	0.0162755
904.890	0.0161037
904.968	0.0161684
905.047	0.0161436
905.125	0.0161558
905.203	0.0162012
905.281	0.0161746
905.359	0.0162383
905.437	0.0160698
905.515	0.0160014
905.593	0.0161416
905.672	0.0161812
905.750	0.0161633
905.828	0.0161385
905.906	0.0161040
905.984	0.0160587
906.062	0.0159887
906.140	0.0161009
906.218	0.0162263
906.297	0.0160560
906.375	0.0161734
906.453	0.0161108
906.531	0.0160637
906.609	0.0160695
906.687	0.0160792
906.765	0.0160143
906.843	0.0160481
906.922	0.0162216
907.000	0.0162930
907.078	0.0162338
907.156	0.0162674
907.234	0.0163619
907.312	0.0163625
907.390	0.0162795
907.468	0.0163044
907.547	0.0161533
907.625	0.0164122
907.703	0.0162720
907.781	0.0163284
907.859	0.0162927
907.937	0.0162446
908.015	0.0162034
908.093	0.0162244
908.172	0.0161353
908.250	0.0163078
908.328	0.0162885
908.406	0.0161352
908.484	0.0162327
908.562	0.0162492
908.640	0.0162132
908.718	0.0162499
908.797	0.0162231
908.875	0.0161895
908.953	0.0161044
909.031	0.0160737
909.109	0.0161634
909.187	0.0161225
909.265	0.0162329
909.343	0.0160747
909.422	0.0160815
909.500	0.0162418
909.578	0.0160432
909.656	0.0160480
909.734	0.0160374
909.812	0.0162086
909.890	0.0161313
909.968	0.0160654
910.047	0.0159800
910.125	0.0162537
910.203	0.0162225
910.281	0.0159729
910.359	0.0161044
910.437	0.0162325
910.515	0.0160831
910.593	0.0160994
910.672	0.0162186
910.750	0.0161475
910.828	0.0161709
910.906	0.0160620
910.984	0.0161429
911.062	0.0162695
911.140	0.0160921
911.218	0.0161438
911.297	0.0161835
911.375	0.0161994
911.453	0.0161871
911.531	0.0162196
911.609	0.0162713
911.687	0.0162116
911.765	0.0163196
911.843	0.0162686
911.922	0.0160714
912.000	0.0162759
912.078	0.0163827
912.156	0.0162813
912.234	0.0162088
912.312	0.0162899
912.390	0.0163419
912.468	0.0162863
912.547	0.0163992
912.625	0.0161832
912.703	0.0161417
912.781	0.0161680
912.859	0.0162392
912.937	0.0160841
913.015	0.0162499
913.093	0.0160588
913.172	0.0162257
913.250	0.0162083
913.328	0.0161395
913.406	0.0161621
913.484	0.0161256
913.562	0.0163291
913.640	0.0162431
913.718	0.0163183
913.797	0.0164259
913.875	0.0162646
913.953	0.0161036
914.031	0.0163002
914.109	0.0163422
914.187	0.0162682
914.265	0.0162029
914.343	0.0161118
914.422	0.0161670
914.500	0.0161703
914.578	0.0162389
914.656	0.0161206
914.734	0.0161778
914.812	0.0162029
914.890	0.0162446
914.968	0.0160996
915.047	0.0162464
915.125	0.0161726
915.203	0.0162285
915.281	0.0161878
915.359	0.0162047
915.437	0.0161716
915.515	0.0161328
915.593	0.0161448
915.672	0.0159863
915.750	0.0160267
915.828	0.0160756
915.906	0.0160791
915.984	0.0160364
916.062	0.0161314
916.140	0.0160542
916.218	0.0161703
916.297	0.0161046
916.375	0.0160973
916.453	0.0160619
916.531	0.0160816
916.609	0.0161903
916.687	0.0162213
916.765	0.0161901
916.843	0.0163098
916.922	0.0162943
917.000	0.0161462
917.078	0.0161729
917.156	0.0161335
917.234	0.0160938
917.312	0.0161461
917.390	0.0161992
917.468	0.0162514
917.547	0.0162057
917.625	0.0160152
917.703	0.0163469
917.781	0.0162695
917.859	0.0161916
917.937	0.0161457
918.015	0.0161871
918.093	0.0162054
918.172	0.0161518
918.250	0.0162592
918.328	0.0161304
918.406	0.0161671
918.484	0.0162992
918.562	0.0161609
918.640	0.0162456
918.718	0.0160618
918.797	0.0162528
918.875	0.0161834
918.953	0.0161961
919.031	0.0160733
919.109	0.0161556
919.187	0.0161864
919.265	0.0163187
919.343	0.0162154
919.422	0.0161055
919.500	0.0162679
919.578	0.0161525
919.656	0.0161952
919.734	0.0161312
919.812	0.0160339
919.890	0.0161908
