06/13/2022	15:09:54	Ver.	4.1	UNKNOWN
Optical Delay	599.961724	Delta X		0.078125	Sweeps	1	Scan Rate	0/0
Coordinates	Axis 1	NaN	Axis 2	NaN	Axis 3	NaN	Axis 4	NaN	Axis 5	NaN	Axis 6	0.000000
TX Power	0.000000	RX Power	0.000000

599.962	0.0152206
600.040	0.0151529
600.118	0.0153806
600.196	0.0153550
600.274	0.0152627
600.352	0.0152146
600.430	0.0153572
600.509	0.0152855
600.587	0.0152193
600.665	0.0152277
600.743	0.0153371
600.821	0.0152126
600.899	0.0152737
600.977	0.0152036
601.055	0.0153082
601.134	0.0153101
601.212	0.0153140
601.290	0.0152464
601.368	0.0152464
601.446	0.0153208
601.524	0.0151682
601.602	0.0151360
601.680	0.0154224
601.759	0.0153309
601.837	0.0153217
601.915	0.0152531
601.993	0.0152769
602.071	0.0153300
602.149	0.0153032
602.227	0.0152621
602.305	0.0152449
602.384	0.0153220
602.462	0.0153084
602.540	0.0151789
602.618	0.0152777
602.696	0.0153014
602.774	0.0152215
602.852	0.0153022
602.930	0.0153152
603.009	0.0152335
603.087	0.0154165
603.165	0.0152937
603.243	0.0153476
603.321	0.0152502
603.399	0.0152732
603.477	0.0152960
603.555	0.0153375
603.634	0.0151999
603.712	0.0153123
603.790	0.0152811
603.868	0.0153654
603.946	0.0153430
604.024	0.0153816
604.102	0.0152818
604.180	0.0153495
604.259	0.0152840
604.337	0.0153585
604.415	0.0153474
604.493	0.0153118
604.571	0.0152214
604.649	0.0152455
604.727	0.0154008
604.805	0.0153115
604.884	0.0153529
604.962	0.0152650
605.040	0.0152469
605.118	0.0152903
605.196	0.0152037
605.274	0.0153234
605.352	0.0152811
605.430	0.0152409
605.509	0.0151665
605.587	0.0152432
605.665	0.0154152
605.743	0.0152537
605.821	0.0153032
605.899	0.0153436
605.977	0.0152145
606.055	0.0153091
606.134	0.0151967
606.212	0.0153307
606.290	0.0151784
606.368	0.0151387
606.446	0.0152380
606.524	0.0153026
606.602	0.0152699
606.680	0.0153232
606.759	0.0152010
606.837	0.0152325
606.915	0.0153316
606.993	0.0152619
607.071	0.0153397
607.149	0.0152792
607.227	0.0152291
607.305	0.0152987
607.384	0.0151523
607.462	0.0152352
607.540	0.0151225
607.618	0.0151415
607.696	0.0152505
607.774	0.0152342
607.852	0.0152787
607.930	0.0153270
608.009	0.0152876
608.087	0.0152441
608.165	0.0152725
608.243	0.0151800
608.321	0.0152202
608.399	0.0152107
608.477	0.0152496
608.555	0.0152415
608.634	0.0151702
608.712	0.0153657
608.790	0.0152908
608.868	0.0152302
608.946	0.0153265
609.024	0.0151830
609.102	0.0152908
609.180	0.0151606
609.259	0.0152705
609.337	0.0152328
609.415	0.0152069
609.493	0.0152925
609.571	0.0151425
609.649	0.0150419
609.727	0.0151604
609.805	0.0150974
609.884	0.0151340
609.962	0.0151360
610.040	0.0153307
610.118	0.0152837
610.196	0.0152187
610.274	0.0152936
610.352	0.0152767
610.430	0.0152885
610.509	0.0151329
610.587	0.0150141
610.665	0.0152249
610.743	0.0151264
610.821	0.0152428
610.899	0.0152464
610.977	0.0151840
611.055	0.0152728
611.134	0.0151331
611.212	0.0150802
611.290	0.0151494
611.368	0.0151374
611.446	0.0152446
611.524	0.0151805
611.602	0.0151074
611.680	0.0151596
611.759	0.0150588
611.837	0.0152577
611.915	0.0151151
611.993	0.0152530
612.071	0.0152720
612.149	0.0152576
612.227	0.0152541
612.305	0.0151704
612.384	0.0151189
612.462	0.0152499
612.540	0.0152693
612.618	0.0151893
612.696	0.0152195
612.774	0.0154004
612.852	0.0151725
612.930	0.0151855
613.009	0.0152069
613.087	0.0152142
613.165	0.0151160
613.243	0.0151317
613.321	0.0152417
613.399	0.0151830
613.477	0.0151986
613.555	0.0152625
613.634	0.0154328
613.712	0.0152022
613.790	0.0151461
613.868	0.0151225
613.946	0.0153304
614.024	0.0152351
614.102	0.0152616
614.180	0.0152673
614.259	0.0151642
614.337	0.0152811
614.415	0.0151736
614.493	0.0152455
614.571	0.0153023
614.649	0.0153056
614.727	0.0153033
614.805	0.0151452
614.884	0.0152660
614.962	0.0152615
615.040	0.0152870
615.118	0.0151890
615.196	0.0151770
615.274	0.0152385
615.352	0.0152409
615.430	0.0152175
615.509	0.0152391
615.587	0.0152151
615.665	0.0151373
615.743	0.0150668
615.821	0.0151734
615.899	0.0152087
615.977	0.0151879
616.055	0.0152019
616.134	0.0152037
616.212	0.0153743
616.290	0.0151971
616.368	0.0152127
616.446	0.0152926
616.524	0.0152151
616.602	0.0153205
616.680	0.0150791
616.759	0.0152630
616.837	0.0152952
616.915	0.0151333
616.993	0.0152940
617.071	0.0151003
617.149	0.0152688
617.227	0.0151910
617.305	0.0153004
617.384	0.0152629
617.462	0.0152512
617.540	0.0151108
617.618	0.0151659
617.696	0.0151109
617.774	0.0152233
617.852	0.0152128
617.930	0.0153758
618.009	0.0152888
618.087	0.0152161
618.165	0.0152126
618.243	0.0152312
618.321	0.0153002
618.399	0.0153223
618.477	0.0151842
618.555	0.0153038
618.634	0.0152939
618.712	0.0152448
618.790	0.0151920
618.868	0.0151895
618.946	0.0153210
619.024	0.0153910
619.102	0.0154447
619.180	0.0153526
619.259	0.0152794
619.337	0.0151802
619.415	0.0151859
619.493	0.0152524
619.571	0.0152466
619.649	0.0153061
619.727	0.0152156
619.805	0.0152000
619.884	0.0153347
619.962	0.0153033
620.040	0.0153036
620.118	0.0152925
620.196	0.0152789
620.274	0.0152473
620.352	0.0152151
620.430	0.0152663
620.509	0.0154337
620.587	0.0153465
620.665	0.0151797
620.743	0.0152056
620.821	0.0153239
620.899	0.0154524
620.977	0.0153657
621.055	0.0153845
621.134	0.0153021
621.212	0.0153835
621.290	0.0152866
621.368	0.0153169
621.446	0.0153397
621.524	0.0153938
621.602	0.0152150
621.680	0.0152057
621.759	0.0153782
621.837	0.0153672
621.915	0.0152486
621.993	0.0153237
622.071	0.0152785
622.149	0.0152917
622.227	0.0151868
622.305	0.0152812
622.384	0.0152361
622.462	0.0153556
622.540	0.0153587
622.618	0.0153618
622.696	0.0153763
622.774	0.0152839
622.852	0.0152177
622.930	0.0153942
623.009	0.0152328
623.087	0.0153707
623.165	0.0153074
623.243	0.0152668
623.321	0.0152692
623.399	0.0152895
623.477	0.0153389
623.555	0.0152997
623.634	0.0153060
623.712	0.0153721
623.790	0.0153342
623.868	0.0152889
623.946	0.0154421
624.024	0.0153523
624.102	0.0152825
624.180	0.0153332
624.259	0.0152702
624.337	0.0152634
624.415	0.0153778
624.493	0.0153015
624.571	0.0153460
624.649	0.0152007
624.727	0.0152985
624.805	0.0153178
624.884	0.0152416
624.962	0.0152273
625.040	0.0151891
625.118	0.0154460
625.196	0.0154329
625.274	0.0154479
625.352	0.0152574
625.430	0.0152150
625.509	0.0153388
625.587	0.0152811
625.665	0.0153346
625.743	0.0152345
625.821	0.0152116
625.899	0.0153481
625.977	0.0154179
626.055	0.0154282
626.134	0.0151863
626.212	0.0152703
626.290	0.0153603
626.368	0.0153100
626.446	0.0154134
626.524	0.0152776
626.602	0.0152120
626.680	0.0153234
626.759	0.0152322
626.837	0.0152854
626.915	0.0153839
626.993	0.0153567
627.071	0.0153866
627.149	0.0153836
627.227	0.0151852
627.305	0.0152007
627.384	0.0153015
627.462	0.0152948
627.540	0.0152430
627.618	0.0153159
627.696	0.0153630
627.774	0.0153100
627.852	0.0152572
627.930	0.0152310
628.009	0.0153944
628.087	0.0153611
628.165	0.0152341
628.243	0.0152707
628.321	0.0152650
628.399	0.0153841
628.477	0.0153153
628.555	0.0153792
628.634	0.0153481
628.712	0.0152812
628.790	0.0152535
628.868	0.0152782
628.946	0.0153117
629.024	0.0153031
629.102	0.0152544
629.180	0.0152969
629.259	0.0152070
629.337	0.0153260
629.415	0.0152815
629.493	0.0153383
629.571	0.0152734
629.649	0.0153552
629.727	0.0155005
629.805	0.0152009
629.884	0.0152603
629.962	0.0153442
630.040	0.0152079
630.118	0.0152768
630.196	0.0155044
630.274	0.0152393
630.352	0.0152293
630.430	0.0154017
630.509	0.0153040
630.587	0.0153187
630.665	0.0153138
630.743	0.0153145
630.821	0.0153363
630.899	0.0152808
630.977	0.0153205
631.055	0.0154475
631.134	0.0153461
631.212	0.0152752
631.290	0.0153962
631.368	0.0151411
631.446	0.0153378
631.524	0.0153609
631.602	0.0153661
631.680	0.0151969
631.759	0.0152451
631.837	0.0154198
631.915	0.0152328
631.993	0.0152979
632.071	0.0155125
632.149	0.0152805
632.227	0.0152916
632.305	0.0153910
632.384	0.0152209
632.462	0.0154091
632.540	0.0153416
632.618	0.0153136
632.696	0.0152106
632.774	0.0152381
632.852	0.0152119
632.930	0.0152073
633.009	0.0153580
633.087	0.0151541
633.165	0.0151649
633.243	0.0154564
633.321	0.0153607
633.399	0.0151794
633.477	0.0153202
633.555	0.0152516
633.634	0.0153990
633.712	0.0152427
633.790	0.0152634
633.868	0.0153267
633.946	0.0152575
634.024	0.0152618
634.102	0.0152675
634.180	0.0152282
634.259	0.0152141
634.337	0.0153483
634.415	0.0153311
634.493	0.0152761
634.571	0.0152930
634.649	0.0152237
634.727	0.0152566
634.805	0.0153835
634.884	0.0152652
634.962	0.0152597
635.040	0.0152595
635.118	0.0152038
635.196	0.0151580
635.274	0.0152240
635.352	0.0153827
635.430	0.0153141
635.509	0.0153373
635.587	0.0152515
635.665	0.0152168
635.743	0.0153043
635.821	0.0152424
635.899	0.0153045
635.977	0.0152680
636.055	0.0152401
636.134	0.0152341
636.212	0.0153045
636.290	0.0151730
636.368	0.0151960
636.446	0.0154057
636.524	0.0152030
636.602	0.0152499
636.680	0.0151331
636.759	0.0152727
636.837	0.0153186
636.915	0.0152318
636.993	0.0151752
637.071	0.0152026
637.149	0.0152505
637.227	0.0151532
637.305	0.0152498
637.384	0.0151974
637.462	0.0152110
637.540	0.0151308
637.618	0.0152939
637.696	0.0152389
637.774	0.0151600
637.852	0.0151408
637.930	0.0151210
638.009	0.0150930
638.087	0.0151261
638.165	0.0149590
638.243	0.0150870
638.321	0.0151095
638.399	0.0149951
638.477	0.0150758
638.555	0.0151177
638.634	0.0149683
638.712	0.0150902
638.790	0.0150581
638.868	0.0152171
638.946	0.0152250
639.024	0.0151824
639.102	0.0151910
639.180	0.0151786
639.259	0.0152431
639.337	0.0153133
639.415	0.0152283
639.493	0.0152708
639.571	0.0151434
639.649	0.0152621
639.727	0.0152224
639.805	0.0152695
639.884	0.0150792
639.962	0.0151347
640.040	0.0152377
640.118	0.0152404
640.196	0.0150621
640.274	0.0150847
640.352	0.0152245
640.430	0.0151849
640.509	0.0151608
640.587	0.0151659
640.665	0.0151814
640.743	0.0151911
640.821	0.0150864
640.899	0.0152408
640.977	0.0151485
641.055	0.0152023
641.134	0.0152376
641.212	0.0151799
641.290	0.0151887
641.368	0.0151352
641.446	0.0151462
641.524	0.0151288
641.602	0.0151888
641.680	0.0151361
641.759	0.0150285
641.837	0.0151141
641.915	0.0152737
641.993	0.0152188
642.071	0.0152551
642.149	0.0153283
642.227	0.0152128
642.305	0.0151313
642.384	0.0151796
642.462	0.0151353
642.540	0.0150974
642.618	0.0152379
642.696	0.0152240
642.774	0.0151188
642.852	0.0152388
642.930	0.0153226
643.009	0.0152284
643.087	0.0152299
643.165	0.0152519
643.243	0.0151529
643.321	0.0152940
643.399	0.0151620
643.477	0.0151921
643.555	0.0152152
643.634	0.0151524
643.712	0.0151073
643.790	0.0151691
643.868	0.0152859
643.946	0.0153274
644.024	0.0153502
644.102	0.0154122
644.180	0.0154479
644.259	0.0153596
644.337	0.0152814
644.415	0.0153078
644.493	0.0154384
644.571	0.0153210
644.649	0.0152902
644.727	0.0153088
644.805	0.0152128
644.884	0.0153738
644.962	0.0153995
645.040	0.0153691
645.118	0.0153429
645.196	0.0153846
645.274	0.0153506
645.352	0.0153878
645.430	0.0154497
645.509	0.0154116
645.587	0.0153073
645.665	0.0152537
645.743	0.0153652
645.821	0.0153413
645.899	0.0154053
645.977	0.0152470
646.055	0.0152116
646.134	0.0153786
646.212	0.0153572
646.290	0.0152473
646.368	0.0154202
646.446	0.0153896
646.524	0.0153536
646.602	0.0153327
646.680	0.0153149
646.759	0.0153181
646.837	0.0153217
646.915	0.0152114
646.993	0.0153066
647.071	0.0153934
647.149	0.0153262
647.227	0.0153146
647.305	0.0153863
647.384	0.0154176
647.462	0.0153374
647.540	0.0153197
647.618	0.0153573
647.696	0.0153802
647.774	0.0152627
647.852	0.0154803
647.930	0.0153831
648.009	0.0153922
648.087	0.0153732
648.165	0.0153603
648.243	0.0153654
648.321	0.0152656
648.399	0.0153995
648.477	0.0153008
648.555	0.0153334
648.634	0.0152342
648.712	0.0152441
648.790	0.0152250
648.868	0.0152757
648.946	0.0153462
649.024	0.0154284
649.102	0.0152937
649.180	0.0152736
649.259	0.0153085
649.337	0.0154178
649.415	0.0154539
649.493	0.0154305
649.571	0.0154025
649.649	0.0153801
649.727	0.0152947
649.805	0.0153280
649.884	0.0154811
649.962	0.0152970
650.040	0.0153388
650.118	0.0154338
650.196	0.0152753
650.274	0.0153047
650.352	0.0153603
650.430	0.0154012
650.509	0.0153123
650.587	0.0152509
650.665	0.0152939
650.743	0.0153252
650.821	0.0152470
650.899	0.0152615
650.977	0.0154017
651.055	0.0154160
651.134	0.0153445
651.212	0.0153266
651.290	0.0152847
651.368	0.0154576
651.446	0.0152414
651.524	0.0152637
651.602	0.0153756
651.680	0.0152493
651.759	0.0152803
651.837	0.0153597
651.915	0.0152841
651.993	0.0152792
652.071	0.0153641
652.149	0.0152357
652.227	0.0152798
652.305	0.0152047
652.384	0.0153075
652.462	0.0152596
652.540	0.0153419
652.618	0.0152364
652.696	0.0153021
652.774	0.0154196
652.852	0.0153162
652.930	0.0152934
653.009	0.0153236
653.087	0.0152978
653.165	0.0153230
653.243	0.0153371
653.321	0.0152743
653.399	0.0152958
653.477	0.0152797
653.555	0.0152898
653.634	0.0152586
653.712	0.0152032
653.790	0.0151417
653.868	0.0152317
653.946	0.0151231
654.024	0.0152800
654.102	0.0153602
654.180	0.0151833
654.259	0.0153236
654.337	0.0152289
654.415	0.0152873
654.493	0.0153661
654.571	0.0153373
654.649	0.0151877
654.727	0.0152254
654.805	0.0153773
654.884	0.0152016
654.962	0.0152244
655.040	0.0151475
655.118	0.0152559
655.196	0.0154333
655.274	0.0154191
655.352	0.0151938
655.430	0.0150998
655.509	0.0153048
655.587	0.0152844
655.665	0.0152614
655.743	0.0152185
655.821	0.0153835
655.899	0.0152867
655.977	0.0152029
656.055	0.0153651
656.134	0.0153980
656.212	0.0154146
656.290	0.0152270
656.368	0.0152782
656.446	0.0152964
656.524	0.0153146
656.602	0.0152597
656.680	0.0152422
656.759	0.0152526
656.837	0.0153571
656.915	0.0152899
656.993	0.0152760
657.071	0.0152798
657.149	0.0152121
657.227	0.0152729
657.305	0.0153100
657.384	0.0153277
657.462	0.0151559
657.540	0.0152637
657.618	0.0152278
657.696	0.0152875
657.774	0.0153088
657.852	0.0153888
657.930	0.0151727
658.009	0.0151674
658.087	0.0153777
658.165	0.0152576
658.243	0.0153674
658.321	0.0152357
658.399	0.0153168
658.477	0.0151895
658.555	0.0153487
658.634	0.0153234
658.712	0.0151588
658.790	0.0152055
658.868	0.0153429
658.946	0.0153397
659.024	0.0153681
659.102	0.0152387
659.180	0.0152340
659.259	0.0152330
659.337	0.0154368
659.415	0.0152895
659.493	0.0152172
659.571	0.0151711
659.649	0.0153773
659.727	0.0153358
659.805	0.0152033
659.884	0.0152816
659.962	0.0151570
660.040	0.0153114
660.118	0.0151008
660.196	0.0152127
660.274	0.0151852
660.352	0.0152919
660.430	0.0151283
660.509	0.0151775
660.587	0.0150624
660.665	0.0150774
660.743	0.0150908
660.821	0.0151696
660.899	0.0151731
660.977	0.0152349
661.055	0.0151721
661.134	0.0150632
661.212	0.0151222
661.290	0.0150932
661.368	0.0150938
661.446	0.0153003
661.524	0.0151807
661.602	0.0150075
661.680	0.0151084
661.759	0.0152548
661.837	0.0151362
661.915	0.0150770
661.993	0.0150875
662.071	0.0152551
662.149	0.0152670
662.227	0.0151217
662.305	0.0150638
662.384	0.0151653
662.462	0.0151668
662.540	0.0150903
662.618	0.0151884
662.696	0.0151716
662.774	0.0150348
662.852	0.0151289
662.930	0.0151459
663.009	0.0151762
663.087	0.0149929
663.165	0.0149929
663.243	0.0150142
663.321	0.0150773
663.399	0.0150354
663.477	0.0150975
663.555	0.0150891
663.634	0.0149691
663.712	0.0150542
663.790	0.0150695
663.868	0.0149931
663.946	0.0150435
664.024	0.0151082
664.102	0.0150028
664.180	0.0150900
664.259	0.0150314
664.337	0.0149708
664.415	0.0150248
664.493	0.0151562
664.571	0.0150959
664.649	0.0151533
664.727	0.0150411
664.805	0.0150911
664.884	0.0151851
664.962	0.0150871
665.040	0.0150552
665.118	0.0151602
665.196	0.0150836
665.274	0.0150672
665.352	0.0150728
665.430	0.0150965
665.509	0.0151883
665.587	0.0151070
665.665	0.0151070
665.743	0.0150333
665.821	0.0150658
665.899	0.0151383
665.977	0.0150822
666.055	0.0149266
666.134	0.0151327
666.212	0.0152413
666.290	0.0151145
666.368	0.0149874
666.446	0.0151550
666.524	0.0150285
666.602	0.0151616
666.680	0.0150558
666.759	0.0150813
666.837	0.0152953
666.915	0.0151612
666.993	0.0151022
667.071	0.0151863
667.149	0.0150796
667.227	0.0151045
667.305	0.0151702
667.384	0.0150855
667.462	0.0152148
667.540	0.0152386
667.618	0.0152239
667.696	0.0151233
667.774	0.0150489
667.852	0.0150912
667.930	0.0152550
668.009	0.0152329
668.087	0.0151761
668.165	0.0152587
668.243	0.0151232
668.321	0.0152227
668.399	0.0152917
668.477	0.0153224
668.555	0.0150284
668.634	0.0152341
668.712	0.0153211
668.790	0.0151965
668.868	0.0153336
668.946	0.0152833
669.024	0.0153662
669.102	0.0152937
669.180	0.0152963
669.259	0.0154657
669.337	0.0151994
669.415	0.0153039
669.493	0.0153371
669.571	0.0154126
669.649	0.0153419
669.727	0.0152459
669.805	0.0152672
669.884	0.0152608
669.962	0.0152392
670.040	0.0153206
670.118	0.0152431
670.196	0.0153076
670.274	0.0152901
670.352	0.0152591
670.430	0.0151711
670.509	0.0153050
670.587	0.0153408
670.665	0.0153127
670.743	0.0152258
670.821	0.0152658
670.899	0.0153443
670.977	0.0154375
671.055	0.0153107
671.134	0.0152261
671.212	0.0153754
671.290	0.0153838
671.368	0.0152621
671.446	0.0152113
671.524	0.0153011
671.602	0.0154039
671.680	0.0153333
671.759	0.0152584
671.837	0.0154830
671.915	0.0154913
671.993	0.0154035
672.071	0.0153255
672.149	0.0154176
672.227	0.0154859
672.305	0.0153290
672.384	0.0152884
672.462	0.0154074
672.540	0.0153099
672.618	0.0152644
672.696	0.0154819
672.774	0.0153690
672.852	0.0153592
672.930	0.0153754
673.009	0.0154962
673.087	0.0154568
673.165	0.0153397
673.243	0.0153487
673.321	0.0153827
673.399	0.0152474
673.477	0.0154676
673.555	0.0152251
673.634	0.0153221
673.712	0.0153848
673.790	0.0154405
673.868	0.0152889
673.946	0.0153853
674.024	0.0153796
674.102	0.0152903
674.180	0.0153493
674.259	0.0152132
674.337	0.0153426
674.415	0.0153366
674.493	0.0153145
674.571	0.0154475
674.649	0.0152582
674.727	0.0153268
674.805	0.0154025
674.884	0.0153255
674.962	0.0153621
675.040	0.0152549
675.118	0.0152477
675.196	0.0152564
675.274	0.0153712
675.352	0.0152522
675.430	0.0153292
675.509	0.0153056
675.587	0.0153704
675.665	0.0152953
675.743	0.0152224
675.821	0.0154356
675.899	0.0153741
675.977	0.0153967
676.055	0.0153967
676.134	0.0153301
676.212	0.0152599
676.290	0.0151428
676.368	0.0152463
676.446	0.0153046
676.524	0.0152581
676.602	0.0152969
676.680	0.0153377
676.759	0.0152650
676.837	0.0152827
676.915	0.0151396
676.993	0.0152615
677.071	0.0152930
677.149	0.0152247
677.227	0.0152642
677.305	0.0154027
677.384	0.0153082
677.462	0.0151566
677.540	0.0151599
677.618	0.0153275
677.696	0.0152946
677.774	0.0153006
677.852	0.0152666
677.930	0.0153722
678.009	0.0152378
678.087	0.0152433
678.165	0.0153145
678.243	0.0153291
678.321	0.0153380
678.399	0.0152007
678.477	0.0154059
678.555	0.0153609
678.634	0.0152062
678.712	0.0153010
678.790	0.0152978
678.868	0.0152825
678.946	0.0152205
679.024	0.0153294
679.102	0.0153130
679.180	0.0153629
679.259	0.0152371
679.337	0.0150475
679.415	0.0151801
679.493	0.0152888
679.571	0.0153772
679.649	0.0153174
679.727	0.0153160
679.805	0.0152515
679.884	0.0152195
679.962	0.0153103
680.040	0.0153230
680.118	0.0152958
680.196	0.0151862
680.274	0.0152769
680.352	0.0153545
680.430	0.0152293
680.509	0.0152003
680.587	0.0152525
680.665	0.0151785
680.743	0.0153592
680.821	0.0152977
680.899	0.0151382
680.977	0.0151515
681.055	0.0154000
681.134	0.0152373
681.212	0.0153098
681.290	0.0152020
681.368	0.0151111
681.446	0.0152408
681.524	0.0153690
681.602	0.0153127
681.680	0.0151285
681.759	0.0151283
681.837	0.0152782
681.915	0.0151934
681.993	0.0151363
682.071	0.0151883
682.149	0.0152381
682.227	0.0152406
682.305	0.0151564
682.384	0.0152006
682.462	0.0151929
682.540	0.0152293
682.618	0.0153563
682.696	0.0152261
682.774	0.0151641
682.852	0.0153069
682.930	0.0151552
683.009	0.0152930
683.087	0.0153314
683.165	0.0151736
683.243	0.0152624
683.321	0.0152688
683.399	0.0152030
683.477	0.0151852
683.555	0.0151867
683.634	0.0152548
683.712	0.0152116
683.790	0.0152710
683.868	0.0151752
683.946	0.0152140
684.024	0.0152094
684.102	0.0152654
684.180	0.0151934
684.259	0.0152166
684.337	0.0153027
684.415	0.0152122
684.493	0.0152422
684.571	0.0151585
684.649	0.0151957
684.727	0.0151556
684.805	0.0151028
684.884	0.0150865
684.962	0.0150689
685.040	0.0151250
685.118	0.0150378
685.196	0.0151564
685.274	0.0151943
685.352	0.0151799
685.430	0.0151528
685.509	0.0151713
685.587	0.0151117
685.665	0.0150892
685.743	0.0152089
685.821	0.0150995
685.899	0.0149693
685.977	0.0152046
686.055	0.0151480
686.134	0.0150507
686.212	0.0149916
686.290	0.0151020
686.368	0.0152333
686.446	0.0151598
686.524	0.0149928
686.602	0.0151175
686.680	0.0149698
686.759	0.0151833
686.837	0.0150624
686.915	0.0150453
686.993	0.0151347
687.071	0.0152856
687.149	0.0150208
687.227	0.0151053
687.305	0.0151219
687.384	0.0152676
687.462	0.0150439
687.540	0.0151722
687.618	0.0150590
687.696	0.0150478
687.774	0.0151745
687.852	0.0152390
687.930	0.0152113
688.009	0.0150018
688.087	0.0150406
688.165	0.0152857
688.243	0.0152226
688.321	0.0150107
688.399	0.0151755
688.477	0.0152367
688.555	0.0151347
688.634	0.0150047
688.712	0.0152802
688.790	0.0151398
688.868	0.0151280
688.946	0.0151842
689.024	0.0151463
689.102	0.0151782
689.180	0.0151209
689.259	0.0150701
689.337	0.0152199
689.415	0.0151571
689.493	0.0151181
689.571	0.0151452
689.649	0.0152097
689.727	0.0152412
689.805	0.0150471
689.884	0.0152096
689.962	0.0153286
690.040	0.0151292
690.118	0.0152518
690.196	0.0151891
690.274	0.0150008
690.352	0.0151147
690.430	0.0151775
690.509	0.0151996
690.587	0.0150134
690.665	0.0153151
690.743	0.0153184
690.821	0.0152686
690.899	0.0152016
690.977	0.0150307
691.055	0.0152030
691.134	0.0150974
691.212	0.0153008
691.290	0.0152686
691.368	0.0151888
691.446	0.0151814
691.524	0.0152411
691.602	0.0151001
691.680	0.0152142
691.759	0.0152094
691.837	0.0152460
691.915	0.0153214
691.993	0.0152770
692.071	0.0151881
692.149	0.0152637
692.227	0.0152793
692.305	0.0152136
692.384	0.0152674
692.462	0.0151797
692.540	0.0152558
692.618	0.0152452
692.696	0.0152477
692.774	0.0153252
692.852	0.0153147
692.930	0.0152463
693.009	0.0153166
693.087	0.0153212
693.165	0.0153011
693.243	0.0153212
693.321	0.0151152
693.399	0.0151290
693.477	0.0152980
693.555	0.0153061
693.634	0.0152311
693.712	0.0152570
693.790	0.0151936
693.868	0.0151213
693.946	0.0150098
694.024	0.0152794
694.102	0.0153264
694.180	0.0153767
694.259	0.0152607
694.337	0.0152859
694.415	0.0152513
694.493	0.0152288
694.571	0.0152455
694.649	0.0151400
694.727	0.0151797
694.805	0.0151489
694.884	0.0152416
694.962	0.0152097
695.040	0.0152428
695.118	0.0151561
695.196	0.0152924
695.274	0.0153468
695.352	0.0151845
695.430	0.0152019
695.509	0.0152323
695.587	0.0152952
695.665	0.0153903
695.743	0.0153809
695.821	0.0152227
695.899	0.0153619
695.977	0.0152691
696.055	0.0153457
696.134	0.0152510
696.212	0.0152902
696.290	0.0152714
696.368	0.0153362
696.446	0.0152351
696.524	0.0151572
696.602	0.0153582
696.680	0.0153150
696.759	0.0152633
696.837	0.0153036
696.915	0.0152496
696.993	0.0152339
697.071	0.0152338
697.149	0.0152102
697.227	0.0151874
697.305	0.0153106
697.384	0.0152348
697.462	0.0152992
697.540	0.0152270
697.618	0.0153666
697.696	0.0154040
697.774	0.0153381
697.852	0.0153658
697.930	0.0152385
698.009	0.0153002
698.087	0.0152916
698.165	0.0153389
698.243	0.0152865
698.321	0.0152644
698.399	0.0153211
698.477	0.0153040
698.555	0.0153581
698.634	0.0154111
698.712	0.0151987
698.790	0.0153803
698.868	0.0152138
698.946	0.0154804
699.024	0.0152219
699.102	0.0152596
699.180	0.0152546
699.259	0.0152966
699.337	0.0154114
699.415	0.0153615
699.493	0.0153376
699.571	0.0153225
699.649	0.0154162
699.727	0.0154044
699.805	0.0153040
699.884	0.0155698
699.962	0.0153720
700.040	0.0152986
700.118	0.0154676
700.196	0.0153896
700.274	0.0152644
700.352	0.0153597
700.430	0.0153996
700.509	0.0154109
700.587	0.0154057
700.665	0.0153858
700.743	0.0153464
700.821	0.0152282
700.899	0.0153331
700.977	0.0154349
701.055	0.0153323
701.134	0.0153781
701.212	0.0153800
701.290	0.0152290
701.368	0.0153755
701.446	0.0153326
701.524	0.0152879
701.602	0.0152992
701.680	0.0153458
701.759	0.0152920
701.837	0.0153262
701.915	0.0152405
701.993	0.0151999
702.071	0.0153432
702.149	0.0154221
702.227	0.0153676
702.305	0.0153253
702.384	0.0153650
702.462	0.0153283
702.540	0.0153688
702.618	0.0155721
702.696	0.0155074
702.774	0.0152356
702.852	0.0153677
702.930	0.0153246
703.009	0.0153419
703.087	0.0154653
703.165	0.0153277
703.243	0.0154427
703.321	0.0154089
703.399	0.0152999
703.477	0.0153677
703.555	0.0153527
703.634	0.0153920
703.712	0.0153759
703.790	0.0153709
703.868	0.0153542
703.946	0.0153460
704.024	0.0152644
704.102	0.0152747
704.180	0.0153974
704.259	0.0151757
704.337	0.0152846
704.415	0.0152813
704.493	0.0153904
704.571	0.0153886
704.649	0.0152689
704.727	0.0154430
704.805	0.0154229
704.884	0.0153358
704.962	0.0153688
705.040	0.0153864
705.118	0.0153484
705.196	0.0152864
705.274	0.0153638
705.352	0.0153400
705.430	0.0154424
705.509	0.0153883
705.587	0.0153115
705.665	0.0154812
705.743	0.0153056
705.821	0.0152095
705.899	0.0153085
705.977	0.0153435
706.055	0.0153469
706.134	0.0151398
706.212	0.0152550
706.290	0.0153337
706.368	0.0153777
706.446	0.0153233
706.524	0.0153329
706.602	0.0152737
706.680	0.0151905
706.759	0.0152623
706.837	0.0151830
706.915	0.0152930
706.993	0.0153346
707.071	0.0153328
707.149	0.0152468
707.227	0.0153203
707.305	0.0152519
707.384	0.0152711
707.462	0.0152197
707.540	0.0152065
707.618	0.0152238
707.696	0.0153238
707.774	0.0153007
707.852	0.0152817
707.930	0.0152308
708.009	0.0151645
708.087	0.0153381
708.165	0.0152970
708.243	0.0153435
708.321	0.0153071
708.399	0.0151012
708.477	0.0151998
708.555	0.0153967
708.634	0.0153264
708.712	0.0152187
708.790	0.0152874
708.868	0.0152393
708.946	0.0154682
709.024	0.0152585
709.102	0.0153416
709.180	0.0152530
709.259	0.0152444
709.337	0.0153033
709.415	0.0152390
709.493	0.0152287
709.571	0.0152620
709.649	0.0153146
709.727	0.0152394
709.805	0.0151588
709.884	0.0152245
709.962	0.0151328
710.040	0.0152089
710.118	0.0151328
710.196	0.0152067
710.274	0.0151637
710.352	0.0151239
710.430	0.0152267
710.509	0.0153198
710.587	0.0152364
710.665	0.0151637
710.743	0.0151897
710.821	0.0151921
710.899	0.0151508
710.977	0.0150777
711.055	0.0150706
711.134	0.0152750
711.212	0.0150718
711.290	0.0151273
711.368	0.0150924
711.446	0.0151541
711.524	0.0152413
711.602	0.0151842
711.680	0.0151456
711.759	0.0152033
711.837	0.0151170
711.915	0.0153077
711.993	0.0150934
712.071	0.0150887
712.149	0.0151234
712.227	0.0150349
712.305	0.0151830
712.384	0.0151333
712.462	0.0151324
712.540	0.0151928
712.618	0.0151282
712.696	0.0151899
712.774	0.0150909
712.852	0.0152796
712.930	0.0151402
713.009	0.0150766
713.087	0.0152097
713.165	0.0152847
713.243	0.0150894
713.321	0.0152261
713.399	0.0152247
713.477	0.0151385
713.555	0.0151374
713.634	0.0151897
713.712	0.0150263
713.790	0.0152121
713.868	0.0151432
713.946	0.0152139
714.024	0.0152452
714.102	0.0151512
714.180	0.0152082
714.259	0.0150506
714.337	0.0151490
714.415	0.0152472
714.493	0.0151548
714.571	0.0151538
714.649	0.0152687
714.727	0.0152691
714.805	0.0150645
714.884	0.0151875
714.962	0.0152480
715.040	0.0151275
715.118	0.0151961
715.196	0.0152626
715.274	0.0151675
715.352	0.0152051
715.430	0.0151418
715.509	0.0152770
715.587	0.0152966
715.665	0.0152521
715.743	0.0151672
715.821	0.0151309
715.899	0.0152166
715.977	0.0152637
716.055	0.0152480
716.134	0.0152345
716.212	0.0152728
716.290	0.0152285
716.368	0.0152229
716.446	0.0153461
716.524	0.0152940
716.602	0.0153955
716.680	0.0153270
716.759	0.0152558
716.837	0.0152287
716.915	0.0151662
716.993	0.0153162
717.071	0.0153257
717.149	0.0153566
717.227	0.0152560
717.305	0.0151577
717.384	0.0153197
717.462	0.0152264
717.540	0.0153648
717.618	0.0153764
717.696	0.0152359
717.774	0.0152414
717.852	0.0152840
717.930	0.0153594
718.009	0.0152559
718.087	0.0153500
718.165	0.0153691
718.243	0.0153120
718.321	0.0151945
718.399	0.0151949
718.477	0.0152361
718.555	0.0153590
718.634	0.0155070
718.712	0.0152877
718.790	0.0152642
718.868	0.0153728
718.946	0.0153119
719.024	0.0151881
719.102	0.0152824
719.180	0.0152274
719.259	0.0152835
719.337	0.0153056
719.415	0.0153313
719.493	0.0153138
719.571	0.0153313
719.649	0.0151807
719.727	0.0152296
719.805	0.0154678
719.884	0.0153015
719.962	0.0152294
720.040	0.0154591
720.118	0.0153092
720.196	0.0152990
720.274	0.0153010
720.352	0.0153365
720.430	0.0153135
720.509	0.0154107
720.587	0.0154446
720.665	0.0154229
720.743	0.0152652
720.821	0.0153439
720.899	0.0155139
720.977	0.0152981
721.055	0.0154060
721.134	0.0153715
721.212	0.0151651
721.290	0.0153145
721.368	0.0153787
721.446	0.0154025
721.524	0.0154708
721.602	0.0153034
721.680	0.0153116
721.759	0.0153548
721.837	0.0152149
721.915	0.0153032
721.993	0.0153967
722.071	0.0153712
722.149	0.0152265
722.227	0.0154029
722.305	0.0153967
722.384	0.0151644
722.462	0.0153027
722.540	0.0153981
722.618	0.0151862
722.696	0.0152520
722.774	0.0154087
722.852	0.0154392
722.930	0.0151372
723.009	0.0152193
723.087	0.0153035
723.165	0.0153736
723.243	0.0153384
723.321	0.0154366
723.399	0.0153220
723.477	0.0151239
723.555	0.0153305
723.634	0.0153490
723.712	0.0152650
723.790	0.0151913
723.868	0.0153096
723.946	0.0152654
724.024	0.0153124
724.102	0.0153560
724.180	0.0153696
724.259	0.0153274
724.337	0.0154042
724.415	0.0153136
724.493	0.0152638
724.571	0.0153001
724.649	0.0153977
724.727	0.0152818
724.805	0.0153915
724.884	0.0154366
724.962	0.0153275
725.040	0.0153440
725.118	0.0151377
725.196	0.0152829
725.274	0.0151746
725.352	0.0153567
725.430	0.0153605
725.509	0.0152335
725.587	0.0152664
725.665	0.0152081
725.743	0.0153979
725.821	0.0152545
725.899	0.0153046
725.977	0.0151608
726.055	0.0152303
726.134	0.0153144
726.212	0.0155364
726.290	0.0153599
726.368	0.0152549
726.446	0.0153461
726.524	0.0154055
726.602	0.0153574
726.680	0.0154505
726.759	0.0153126
726.837	0.0154446
726.915	0.0153233
726.993	0.0152753
727.071	0.0151491
727.149	0.0152010
727.227	0.0153246
727.305	0.0152563
727.384	0.0152118
727.462	0.0152512
727.540	0.0152686
727.618	0.0152872
727.696	0.0153218
727.774	0.0151257
727.852	0.0151257
727.930	0.0152911
728.009	0.0153025
728.087	0.0153053
728.165	0.0152860
728.243	0.0152364
728.321	0.0152391
728.399	0.0152390
728.477	0.0151431
728.555	0.0151807
728.634	0.0153630
728.712	0.0154107
728.790	0.0153175
728.868	0.0152342
728.946	0.0152885
729.024	0.0153896
729.102	0.0153791
729.180	0.0152193
729.259	0.0152639
729.337	0.0153094
729.415	0.0154142
729.493	0.0152724
729.571	0.0151915
729.649	0.0153319
729.727	0.0152908
729.805	0.0153069
729.884	0.0152089
729.962	0.0153157
730.040	0.0153108
730.118	0.0152671
730.196	0.0151946
730.274	0.0152419
730.352	0.0153826
730.430	0.0152881
730.509	0.0153355
730.587	0.0154001
730.665	0.0152454
730.743	0.0153068
730.821	0.0152187
730.899	0.0153275
730.977	0.0153188
731.055	0.0152139
731.134	0.0153770
731.212	0.0152954
731.290	0.0151727
731.368	0.0152784
731.446	0.0153075
731.524	0.0153142
731.602	0.0151305
731.680	0.0151994
731.759	0.0152049
731.837	0.0153429
731.915	0.0153229
731.993	0.0153370
732.071	0.0151516
732.149	0.0151401
732.227	0.0152139
732.305	0.0151873
732.384	0.0152568
732.462	0.0151314
732.540	0.0152244
732.618	0.0151427
732.696	0.0151359
732.774	0.0153197
732.852	0.0153156
732.930	0.0152763
733.009	0.0152146
733.087	0.0152526
733.165	0.0153024
733.243	0.0151711
733.321	0.0153185
733.399	0.0151675
733.477	0.0151450
733.555	0.0152081
733.634	0.0152721
733.712	0.0152466
733.790	0.0153383
733.868	0.0152002
733.946	0.0151405
734.024	0.0152306
734.102	0.0153450
734.180	0.0151608
734.259	0.0151469
734.337	0.0151096
734.415	0.0152814
734.493	0.0151506
734.571	0.0151242
734.649	0.0153477
734.727	0.0151328
734.805	0.0151527
734.884	0.0152937
734.962	0.0152860
735.040	0.0151820
735.118	0.0151696
735.196	0.0151501
735.274	0.0152905
735.352	0.0151379
735.430	0.0151236
735.509	0.0151434
735.587	0.0153001
735.665	0.0152473
735.743	0.0150552
735.821	0.0151359
735.899	0.0150761
735.977	0.0151224
736.055	0.0152373
736.134	0.0152790
736.212	0.0153105
736.290	0.0152089
736.368	0.0151662
736.446	0.0152295
736.524	0.0151569
736.602	0.0152059
736.680	0.0151311
736.759	0.0153059
736.837	0.0151351
736.915	0.0152348
736.993	0.0153056
737.071	0.0151978
737.149	0.0152488
737.227	0.0151514
737.305	0.0151006
737.384	0.0152098
737.462	0.0152294
737.540	0.0151879
737.618	0.0152187
737.696	0.0151859
737.774	0.0151819
737.852	0.0151987
737.930	0.0152016
738.009	0.0151635
738.087	0.0151851
738.165	0.0150894
738.243	0.0151499
738.321	0.0153551
738.399	0.0151543
738.477	0.0151997
738.555	0.0151458
738.634	0.0150559
738.712	0.0151270
738.790	0.0151800
738.868	0.0151444
738.946	0.0152538
739.024	0.0152248
739.102	0.0149271
739.180	0.0151312
739.259	0.0152045
739.337	0.0150958
739.415	0.0151545
739.493	0.0151061
739.571	0.0152042
739.649	0.0151347
739.727	0.0151486
739.805	0.0150693
739.884	0.0150243
739.962	0.0151569
740.040	0.0151299
740.118	0.0152531
740.196	0.0151362
740.274	0.0150928
740.352	0.0150893
740.430	0.0150508
740.509	0.0151654
740.587	0.0152761
740.665	0.0154059
740.743	0.0151982
740.821	0.0150922
740.899	0.0151899
740.977	0.0151714
741.055	0.0152097
741.134	0.0152431
741.212	0.0151558
741.290	0.0153904
741.368	0.0151827
741.446	0.0151852
741.524	0.0152849
741.602	0.0153068
741.680	0.0152509
741.759	0.0152668
741.837	0.0152119
741.915	0.0152370
741.993	0.0151906
742.071	0.0150931
742.149	0.0150938
742.227	0.0151894
742.305	0.0152259
742.384	0.0152421
742.462	0.0151244
742.540	0.0150922
742.618	0.0151557
742.696	0.0149918
742.774	0.0151653
742.852	0.0150170
742.930	0.0150762
743.009	0.0151262
743.087	0.0150831
743.165	0.0148971
743.243	0.0150793
743.321	0.0150809
743.399	0.0150266
743.477	0.0151968
743.555	0.0151734
743.634	0.0150661
743.712	0.0150909
743.790	0.0149817
743.868	0.0152223
743.946	0.0152731
744.024	0.0151437
744.102	0.0152374
744.180	0.0152066
744.259	0.0152448
744.337	0.0152039
744.415	0.0152198
744.493	0.0153210
744.571	0.0153111
744.649	0.0152131
744.727	0.0151337
744.805	0.0153356
744.884	0.0152193
744.962	0.0151985
745.040	0.0152885
745.118	0.0151498
745.196	0.0152153
745.274	0.0152014
745.352	0.0151936
745.430	0.0151982
745.509	0.0153559
745.587	0.0154026
745.665	0.0153767
745.743	0.0153371
745.821	0.0153448
745.899	0.0153893
745.977	0.0153915
746.055	0.0153428
746.134	0.0152087
746.212	0.0154501
746.290	0.0153981
746.368	0.0152902
746.446	0.0154262
746.524	0.0153067
746.602	0.0153764
746.680	0.0153737
746.759	0.0153009
746.837	0.0153372
746.915	0.0153719
746.993	0.0153176
747.071	0.0153764
747.149	0.0153385
747.227	0.0154677
747.305	0.0153857
747.384	0.0154411
747.462	0.0151437
747.540	0.0153799
747.618	0.0154093
747.696	0.0155421
747.774	0.0153168
747.852	0.0152703
747.930	0.0153042
748.009	0.0152705
748.087	0.0150793
748.165	0.0152201
748.243	0.0152866
748.321	0.0153105
748.399	0.0152419
748.477	0.0152837
748.555	0.0153972
748.634	0.0152908
748.712	0.0152610
748.790	0.0152661
748.868	0.0152457
748.946	0.0153764
749.024	0.0155305
749.102	0.0153112
749.180	0.0153377
749.259	0.0153426
749.337	0.0153197
749.415	0.0153893
749.493	0.0154462
749.571	0.0152998
749.649	0.0152406
749.727	0.0154233
749.805	0.0153509
749.884	0.0153433
749.962	0.0154699
750.040	0.0154362
750.118	0.0154175
750.196	0.0153286
750.274	0.0153575
750.352	0.0154033
750.430	0.0152987
750.509	0.0152614
750.587	0.0152854
750.665	0.0153163
750.743	0.0152682
750.821	0.0152986
750.899	0.0152338
750.977	0.0152871
751.055	0.0153398
751.134	0.0152670
751.212	0.0152989
751.290	0.0153630
751.368	0.0153170
751.446	0.0154483
751.524	0.0152585
751.602	0.0152911
751.680	0.0153251
751.759	0.0154192
751.837	0.0154741
751.915	0.0153318
751.993	0.0154078
752.071	0.0153609
752.149	0.0153781
752.227	0.0154634
752.305	0.0154394
752.384	0.0155030
752.462	0.0154263
752.540	0.0155403
752.618	0.0154470
752.696	0.0153695
752.774	0.0153933
752.852	0.0152608
752.930	0.0151813
753.009	0.0152753
753.087	0.0151488
753.165	0.0152850
753.243	0.0151798
753.321	0.0152287
753.399	0.0152206
753.477	0.0151091
753.555	0.0151881
753.634	0.0153445
753.712	0.0152682
753.790	0.0153153
753.868	0.0153124
753.946	0.0153017
754.024	0.0151948
754.102	0.0151839
754.180	0.0151846
754.259	0.0152157
754.337	0.0152419
754.415	0.0152209
754.493	0.0151865
754.571	0.0152297
754.649	0.0153312
754.727	0.0152728
754.805	0.0153414
754.884	0.0152351
754.962	0.0152579
755.040	0.0152537
755.118	0.0153278
755.196	0.0152692
755.274	0.0152426
755.352	0.0153446
755.430	0.0152593
755.509	0.0152898
755.587	0.0152897
755.665	0.0152156
755.743	0.0151049
755.821	0.0152467
755.899	0.0152982
755.977	0.0152095
756.055	0.0152233
756.134	0.0152877
756.212	0.0152731
756.290	0.0152445
756.368	0.0152336
756.446	0.0153249
756.524	0.0152825
756.602	0.0152972
756.680	0.0153342
756.759	0.0153278
756.837	0.0153212
756.915	0.0153316
756.993	0.0153209
757.071	0.0153377
757.149	0.0152622
757.227	0.0153319
757.305	0.0153818
757.384	0.0152601
757.462	0.0151854
757.540	0.0153348
757.618	0.0151157
757.696	0.0152530
757.774	0.0152265
757.852	0.0151502
757.930	0.0152152
758.009	0.0152032
758.087	0.0150995
758.165	0.0151713
758.243	0.0150394
758.321	0.0152428
758.399	0.0152232
758.477	0.0152834
758.555	0.0152290
758.634	0.0152369
758.712	0.0151755
758.790	0.0152532
758.868	0.0151556
758.946	0.0152454
759.024	0.0152058
759.102	0.0151429
759.180	0.0153168
759.259	0.0152264
759.337	0.0152107
759.415	0.0152075
759.493	0.0153181
759.571	0.0152596
759.649	0.0152088
759.727	0.0153364
759.805	0.0152145
759.884	0.0152145
759.962	0.0151205
760.040	0.0150760
760.118	0.0150899
760.196	0.0151422
760.274	0.0151056
760.352	0.0150833
760.430	0.0150312
760.509	0.0151027
760.587	0.0152385
760.665	0.0150797
760.743	0.0149365
760.821	0.0151013
760.899	0.0152002
760.977	0.0151041
761.055	0.0150359
761.134	0.0150693
761.212	0.0152960
761.290	0.0152177
761.368	0.0152773
761.446	0.0153253
761.524	0.0151080
761.602	0.0151470
761.680	0.0153922
761.759	0.0151758
761.837	0.0152122
761.915	0.0153172
761.993	0.0153259
762.071	0.0151879
762.149	0.0152811
762.227	0.0150979
762.305	0.0151674
762.384	0.0151695
762.462	0.0151601
762.540	0.0152644
762.618	0.0153180
762.696	0.0151353
762.774	0.0151773
762.852	0.0151270
762.930	0.0151678
763.009	0.0153214
763.087	0.0151366
763.165	0.0151577
763.243	0.0153044
763.321	0.0151705
763.399	0.0151955
763.477	0.0151947
763.555	0.0151369
763.634	0.0151455
763.712	0.0151118
763.790	0.0150385
763.868	0.0151041
763.946	0.0152100
764.024	0.0150172
764.102	0.0150012
764.180	0.0151171
764.259	0.0149910
764.337	0.0150562
764.415	0.0150359
764.493	0.0150919
764.571	0.0150917
764.649	0.0150215
764.727	0.0150356
764.805	0.0150912
764.884	0.0150914
764.962	0.0151420
765.040	0.0150463
765.118	0.0151417
765.196	0.0151096
765.274	0.0151228
765.352	0.0150379
765.430	0.0151241
765.509	0.0152979
765.587	0.0151194
765.665	0.0151329
765.743	0.0151893
765.821	0.0152877
765.899	0.0150885
765.977	0.0151709
766.055	0.0152478
766.134	0.0152078
766.212	0.0152475
766.290	0.0151531
766.368	0.0151898
766.446	0.0152092
766.524	0.0152429
766.602	0.0151529
766.680	0.0152370
766.759	0.0153454
766.837	0.0153385
766.915	0.0152856
766.993	0.0151683
767.071	0.0152744
767.149	0.0152998
767.227	0.0152489
767.305	0.0152110
767.384	0.0153287
767.462	0.0151951
767.540	0.0151366
767.618	0.0152517
767.696	0.0153281
767.774	0.0152228
767.852	0.0153493
767.930	0.0152394
768.009	0.0152211
768.087	0.0150718
768.165	0.0150531
768.243	0.0150574
768.321	0.0150681
768.399	0.0150632
768.477	0.0150336
768.555	0.0152161
768.634	0.0151582
768.712	0.0150346
768.790	0.0150522
768.868	0.0152251
768.946	0.0152237
769.024	0.0151838
769.102	0.0152123
769.180	0.0152736
769.259	0.0152178
769.337	0.0151257
769.415	0.0151867
769.493	0.0151415
769.571	0.0149922
769.649	0.0149778
769.727	0.0151096
769.805	0.0150452
769.884	0.0151266
769.962	0.0150471
770.040	0.0150533
770.118	0.0150178
770.196	0.0151711
770.274	0.0151218
770.352	0.0150813
770.430	0.0150371
770.509	0.0151760
770.587	0.0152725
770.665	0.0150816
770.743	0.0150451
770.821	0.0152109
770.899	0.0152370
770.977	0.0153675
771.055	0.0153481
771.134	0.0152627
771.212	0.0152840
771.290	0.0152619
771.368	0.0152937
771.446	0.0152659
771.524	0.0151490
771.602	0.0152390
771.680	0.0153867
771.759	0.0153561
771.837	0.0154434
771.915	0.0152763
771.993	0.0154485
772.071	0.0151435
772.149	0.0151322
772.227	0.0152555
772.305	0.0152316
772.384	0.0152450
772.462	0.0152247
772.540	0.0153201
772.618	0.0153046
772.696	0.0152730
772.774	0.0152541
772.852	0.0152175
772.930	0.0153265
773.009	0.0154091
773.087	0.0153166
773.165	0.0150937
773.243	0.0153396
773.321	0.0153301
773.399	0.0151759
773.477	0.0152611
773.555	0.0153546
773.634	0.0152677
773.712	0.0152312
773.790	0.0152283
773.868	0.0153396
773.946	0.0152834
774.024	0.0150967
774.102	0.0151362
774.180	0.0151756
774.259	0.0152224
774.337	0.0153162
774.415	0.0152351
774.493	0.0152393
774.571	0.0154598
774.649	0.0152164
774.727	0.0153088
774.805	0.0154102
774.884	0.0154377
774.962	0.0153764
775.040	0.0154490
775.118	0.0152738
775.196	0.0151878
775.274	0.0152675
775.352	0.0154695
775.430	0.0153683
775.509	0.0153475
775.587	0.0153499
775.665	0.0153814
775.743	0.0153848
775.821	0.0153454
775.899	0.0153751
775.977	0.0154372
776.055	0.0153986
776.134	0.0155055
776.212	0.0154316
776.290	0.0154508
776.368	0.0155746
776.446	0.0155087
776.524	0.0153866
776.602	0.0152782
776.680	0.0153026
776.759	0.0153059
776.837	0.0153520
776.915	0.0153844
776.993	0.0152123
777.071	0.0153905
777.149	0.0152416
777.227	0.0154049
777.305	0.0152128
777.384	0.0152013
777.462	0.0152361
777.540	0.0152074
777.618	0.0152107
777.696	0.0153014
777.774	0.0153527
777.852	0.0153174
777.930	0.0153619
778.009	0.0152173
778.087	0.0153414
778.165	0.0152206
778.243	0.0153257
778.321	0.0153838
778.399	0.0154101
778.477	0.0152158
778.555	0.0154186
778.634	0.0153822
778.712	0.0153182
778.790	0.0153101
778.868	0.0153435
778.946	0.0152660
779.024	0.0152731
779.102	0.0152288
779.180	0.0152168
779.259	0.0152940
779.337	0.0150924
779.415	0.0151945
779.493	0.0152523
779.571	0.0151572
779.649	0.0152991
779.727	0.0153658
779.805	0.0152241
779.884	0.0152789
779.962	0.0152910
780.040	0.0152148
780.118	0.0152080
780.196	0.0152366
780.274	0.0153232
780.352	0.0154012
780.430	0.0153113
780.509	0.0154251
780.587	0.0152475
780.665	0.0153899
780.743	0.0155398
780.821	0.0155508
780.899	0.0153532
780.977	0.0153195
781.055	0.0153063
781.134	0.0153641
781.212	0.0155022
781.290	0.0154280
781.368	0.0154103
781.446	0.0153354
781.524	0.0154418
781.602	0.0153498
781.680	0.0152415
781.759	0.0154236
781.837	0.0152804
781.915	0.0152455
781.993	0.0152303
782.071	0.0152184
782.149	0.0150192
782.227	0.0150794
782.305	0.0151612
782.384	0.0151382
782.462	0.0151447
782.540	0.0150907
782.618	0.0150744
782.696	0.0149911
782.774	0.0149682
782.852	0.0150050
782.930	0.0150539
783.009	0.0150326
783.087	0.0151136
783.165	0.0149493
783.243	0.0151367
783.321	0.0151444
783.399	0.0152123
783.477	0.0151412
783.555	0.0152935
783.634	0.0153944
783.712	0.0155834
783.790	0.0153898
783.868	0.0154074
783.946	0.0155078
784.024	0.0153896
784.102	0.0154668
784.180	0.0154840
784.259	0.0155718
784.337	0.0154167
784.415	0.0156223
784.493	0.0155723
784.571	0.0155482
784.649	0.0154575
784.727	0.0155295
784.805	0.0153637
784.884	0.0153922
784.962	0.0154936
785.040	0.0153282
785.118	0.0153347
785.196	0.0152673
785.274	0.0152388
785.352	0.0150983
785.430	0.0151421
785.509	0.0151623
785.587	0.0151480
785.665	0.0150184
785.743	0.0150794
785.821	0.0151144
785.899	0.0149570
785.977	0.0150253
786.055	0.0150974
786.134	0.0150564
786.212	0.0150753
786.290	0.0151359
786.368	0.0152079
786.446	0.0152256
786.524	0.0152530
786.602	0.0151416
786.680	0.0152496
786.759	0.0151478
786.837	0.0151050
786.915	0.0151225
786.993	0.0150851
787.071	0.0151908
787.149	0.0153143
787.227	0.0151201
787.305	0.0150204
787.384	0.0150250
787.462	0.0150524
787.540	0.0152045
787.618	0.0151624
787.696	0.0150351
787.774	0.0150896
787.852	0.0151992
787.930	0.0151105
788.009	0.0151218
788.087	0.0151981
788.165	0.0152223
788.243	0.0151958
788.321	0.0152595
788.399	0.0153693
788.477	0.0151598
788.555	0.0153168
788.634	0.0152770
788.712	0.0154002
788.790	0.0152063
788.868	0.0152782
788.946	0.0152308
789.024	0.0152884
789.102	0.0151833
789.180	0.0153004
789.259	0.0152333
789.337	0.0153480
789.415	0.0154121
789.493	0.0151683
789.571	0.0152285
789.649	0.0155248
789.727	0.0151776
789.805	0.0152071
789.884	0.0152333
789.962	0.0152518
790.040	0.0152771
790.118	0.0151068
790.196	0.0152229
790.274	0.0151859
790.352	0.0151285
790.430	0.0151048
790.509	0.0151509
790.587	0.0150592
790.665	0.0152232
790.743	0.0150366
790.821	0.0148074
790.899	0.0150157
790.977	0.0152087
791.055	0.0150954
791.134	0.0150334
791.212	0.0151616
791.290	0.0149677
791.368	0.0151031
791.446	0.0152092
791.524	0.0150011
791.602	0.0150664
791.680	0.0150320
791.759	0.0151093
791.837	0.0151765
791.915	0.0151984
791.993	0.0151347
792.071	0.0152010
792.149	0.0151521
792.227	0.0151067
792.305	0.0151573
792.384	0.0151411
792.462	0.0152382
792.540	0.0152296
792.618	0.0152722
792.696	0.0150927
792.774	0.0152888
792.852	0.0153703
792.930	0.0152901
793.009	0.0152602
793.087	0.0152791
793.165	0.0154269
793.243	0.0153561
793.321	0.0152155
793.399	0.0153030
793.477	0.0152676
793.555	0.0153190
793.634	0.0152557
793.712	0.0153537
793.790	0.0151833
793.868	0.0152074
793.946	0.0151920
794.024	0.0152449
794.102	0.0152254
794.180	0.0153143
794.259	0.0151340
794.337	0.0150668
794.415	0.0151608
794.493	0.0151850
794.571	0.0152310
794.649	0.0151600
794.727	0.0152502
794.805	0.0151704
794.884	0.0152088
794.962	0.0151192
795.040	0.0152201
795.118	0.0152897
795.196	0.0153044
795.274	0.0152048
795.352	0.0152048
795.430	0.0152554
795.509	0.0151891
795.587	0.0149714
795.665	0.0150203
795.743	0.0150982
795.821	0.0150562
795.899	0.0151624
795.977	0.0151462
796.055	0.0149317
796.134	0.0150005
796.212	0.0150867
796.290	0.0151388
796.368	0.0152809
796.446	0.0152079
796.524	0.0153101
796.602	0.0152303
796.680	0.0153664
796.759	0.0153571
796.837	0.0154052
796.915	0.0154456
796.993	0.0154760
797.071	0.0154865
797.149	0.0152838
797.227	0.0154723
797.305	0.0156494
797.384	0.0155479
797.462	0.0155860
797.540	0.0153819
797.618	0.0155980
797.696	0.0154396
797.774	0.0155560
797.852	0.0154887
797.930	0.0154414
798.009	0.0153238
798.087	0.0152388
798.165	0.0153685
798.243	0.0153262
798.321	0.0152959
798.399	0.0153485
798.477	0.0152386
798.555	0.0153546
798.634	0.0153018
798.712	0.0151553
798.790	0.0150433
798.868	0.0152445
798.946	0.0152881
799.024	0.0151821
799.102	0.0150661
799.180	0.0151090
799.259	0.0151901
799.337	0.0151504
799.415	0.0152053
799.493	0.0152165
799.571	0.0151279
799.649	0.0152798
799.727	0.0151632
799.805	0.0152131
799.884	0.0152264
799.962	0.0152356
800.040	0.0151769
800.118	0.0153827
800.196	0.0151549
800.274	0.0150529
800.352	0.0151264
800.430	0.0152121
800.509	0.0152172
800.587	0.0153516
800.665	0.0151582
800.743	0.0151900
800.821	0.0153616
800.899	0.0152677
800.977	0.0153396
801.055	0.0154027
801.134	0.0154688
801.212	0.0154733
801.290	0.0154498
801.368	0.0153351
801.446	0.0154645
801.524	0.0154619
801.602	0.0153783
801.680	0.0155314
801.759	0.0155392
801.837	0.0154432
801.915	0.0153587
801.993	0.0154527
802.071	0.0154212
802.149	0.0153709
802.227	0.0153400
802.305	0.0152666
802.384	0.0152155
802.462	0.0152956
802.540	0.0153551
802.618	0.0152248
802.696	0.0151192
802.774	0.0150445
802.852	0.0150806
802.930	0.0152168
803.009	0.0150573
803.087	0.0153131
803.165	0.0150394
803.243	0.0150376
803.321	0.0152026
803.399	0.0150558
803.477	0.0151168
803.555	0.0152242
803.634	0.0151337
803.712	0.0149710
803.790	0.0153809
803.868	0.0151550
803.946	0.0151186
804.024	0.0152270
804.102	0.0151453
804.180	0.0151360
804.259	0.0151662
804.337	0.0152489
804.415	0.0152926
804.493	0.0152004
804.571	0.0153107
804.649	0.0154250
804.727	0.0152984
804.805	0.0152399
804.884	0.0154150
804.962	0.0153870
805.040	0.0153419
805.118	0.0155357
805.196	0.0155114
805.274	0.0154218
805.352	0.0154613
805.430	0.0154480
805.509	0.0154946
805.587	0.0155007
805.665	0.0154282
805.743	0.0154214
805.821	0.0153352
805.899	0.0154081
805.977	0.0153801
806.055	0.0153448
806.134	0.0153588
806.212	0.0152697
806.290	0.0152402
806.368	0.0152972
806.446	0.0152711
806.524	0.0152132
806.602	0.0152912
806.680	0.0151737
806.759	0.0152419
806.837	0.0151212
806.915	0.0150652
806.993	0.0151328
807.071	0.0152719
807.149	0.0151010
807.227	0.0150371
807.305	0.0151208
807.384	0.0150771
807.462	0.0150584
807.540	0.0150670
807.618	0.0151870
807.696	0.0151916
807.774	0.0151811
807.852	0.0153082
807.930	0.0150968
808.009	0.0152675
808.087	0.0152271
808.165	0.0152173
808.243	0.0152827
808.321	0.0152913
808.399	0.0153861
808.477	0.0153109
808.555	0.0153433
808.634	0.0153487
808.712	0.0154234
808.790	0.0155442
808.868	0.0155284
808.946	0.0154405
809.024	0.0152528
809.102	0.0153754
809.180	0.0155804
809.259	0.0155424
809.337	0.0154063
809.415	0.0153526
809.493	0.0154523
809.571	0.0153334
809.649	0.0153352
809.727	0.0154674
809.805	0.0152613
809.884	0.0152763
809.962	0.0152661
810.040	0.0152596
810.118	0.0151205
810.196	0.0151606
810.274	0.0152964
810.352	0.0152243
810.430	0.0151496
810.509	0.0151042
810.587	0.0150275
810.665	0.0150385
810.743	0.0152102
810.821	0.0150523
810.899	0.0149789
810.977	0.0150762
811.055	0.0150529
811.134	0.0150710
811.212	0.0150930
811.290	0.0150242
811.368	0.0150119
811.446	0.0151266
811.524	0.0151292
811.602	0.0151140
811.680	0.0150006
811.759	0.0150611
811.837	0.0150149
811.915	0.0152538
811.993	0.0152697
812.071	0.0150729
812.149	0.0152302
812.227	0.0152077
812.305	0.0152567
812.384	0.0152963
812.462	0.0152975
812.540	0.0152350
812.618	0.0152331
812.696	0.0151389
812.774	0.0152080
812.852	0.0152635
812.930	0.0152551
813.009	0.0152773
813.087	0.0153461
813.165	0.0152121
813.243	0.0152004
813.321	0.0152861
813.399	0.0152697
813.477	0.0152274
813.555	0.0152267
813.634	0.0151142
813.712	0.0152840
813.790	0.0154049
813.868	0.0153458
813.946	0.0152901
814.024	0.0152899
814.102	0.0152951
814.180	0.0153121
814.259	0.0152897
814.337	0.0153783
814.415	0.0152870
814.493	0.0152496
814.571	0.0153510
814.649	0.0153981
814.727	0.0152479
814.805	0.0151677
814.884	0.0151927
814.962	0.0152551
815.040	0.0151649
815.118	0.0151291
815.196	0.0151315
815.274	0.0151467
815.352	0.0150779
815.430	0.0150424
815.509	0.0150161
815.587	0.0149948
815.665	0.0149822
815.743	0.0150050
815.821	0.0150298
815.899	0.0148663
815.977	0.0149256
816.055	0.0149426
816.134	0.0149513
816.212	0.0150496
816.290	0.0151440
816.368	0.0152654
816.446	0.0150223
816.524	0.0152663
816.602	0.0152876
816.680	0.0152372
816.759	0.0153426
816.837	0.0153205
816.915	0.0153416
816.993	0.0155711
817.071	0.0155217
817.149	0.0156320
817.227	0.0153922
817.305	0.0153177
817.384	0.0153602
817.462	0.0153439
817.540	0.0153830
817.618	0.0153764
817.696	0.0152079
817.774	0.0153088
817.852	0.0152610
817.930	0.0153305
818.009	0.0153870
818.087	0.0151179
818.165	0.0152171
818.243	0.0153532
818.321	0.0152590
818.399	0.0151849
818.477	0.0151475
818.555	0.0151147
818.634	0.0150259
818.712	0.0149816
818.790	0.0151816
818.868	0.0151589
818.946	0.0149903
819.024	0.0150114
819.102	0.0150351
819.180	0.0150017
819.259	0.0150300
819.337	0.0149455
819.415	0.0150861
819.493	0.0150943
819.571	0.0150156
819.649	0.0151293
819.727	0.0151396
819.805	0.0150251
819.884	0.0151559
819.962	0.0151071
820.040	0.0151598
820.118	0.0152099
820.196	0.0152225
820.274	0.0152454
820.352	0.0151511
820.430	0.0153180
820.509	0.0153810
820.587	0.0153821
820.665	0.0152936
820.743	0.0154309
820.821	0.0155275
820.899	0.0153999
820.977	0.0153848
821.055	0.0155072
821.134	0.0156872
821.212	0.0154469
821.290	0.0153496
821.368	0.0153056
821.446	0.0155286
821.524	0.0154483
821.602	0.0155013
821.680	0.0154181
821.759	0.0154227
821.837	0.0153308
821.915	0.0152816
821.993	0.0152328
822.071	0.0152014
822.149	0.0151305
822.227	0.0148584
822.305	0.0150078
822.384	0.0151213
822.462	0.0150976
822.540	0.0151369
822.618	0.0150200
822.696	0.0150024
822.774	0.0149957
822.852	0.0151283
822.930	0.0151003
823.009	0.0149428
823.087	0.0150713
823.165	0.0152007
823.243	0.0152480
823.321	0.0152314
823.399	0.0153906
823.477	0.0153873
823.555	0.0152802
823.634	0.0155079
823.712	0.0153725
823.790	0.0152425
823.868	0.0155360
823.946	0.0154810
824.024	0.0155431
824.102	0.0155765
824.180	0.0156039
824.259	0.0155042
824.337	0.0154006
824.415	0.0154292
824.493	0.0154880
824.571	0.0153988
824.649	0.0153113
824.727	0.0154139
824.805	0.0152950
824.884	0.0151102
824.962	0.0151804
825.040	0.0151806
825.118	0.0151362
825.196	0.0151504
825.274	0.0149853
825.352	0.0150553
825.430	0.0150822
825.509	0.0149718
825.587	0.0150388
825.665	0.0151633
825.743	0.0150735
825.821	0.0148963
825.899	0.0149347
825.977	0.0151203
826.055	0.0151255
826.134	0.0152052
826.212	0.0152308
826.290	0.0151056
826.368	0.0152100
826.446	0.0153120
826.524	0.0152700
826.602	0.0153952
826.680	0.0153714
826.759	0.0153337
826.837	0.0153925
826.915	0.0154249
826.993	0.0154769
827.071	0.0155868
827.149	0.0152776
827.227	0.0153162
827.305	0.0153389
827.384	0.0155196
827.462	0.0155145
827.540	0.0154467
827.618	0.0152516
827.696	0.0152956
827.774	0.0152328
827.852	0.0152121
827.930	0.0151257
828.009	0.0150291
828.087	0.0149945
828.165	0.0151157
828.243	0.0151142
828.321	0.0149555
828.399	0.0149940
828.477	0.0150585
828.555	0.0150145
828.634	0.0149225
828.712	0.0150816
828.790	0.0150617
828.868	0.0151943
828.946	0.0151449
829.024	0.0151546
829.102	0.0151068
829.180	0.0151954
829.259	0.0152985
829.337	0.0152346
829.415	0.0152498
829.493	0.0153851
829.571	0.0152966
829.649	0.0153555
829.727	0.0153414
829.805	0.0152435
829.884	0.0153371
829.962	0.0151609
830.040	0.0152532
830.118	0.0151841
830.196	0.0151328
830.274	0.0152039
830.352	0.0153045
830.430	0.0150108
830.509	0.0150486
830.587	0.0150185
830.665	0.0150533
830.743	0.0152009
830.821	0.0151998
830.899	0.0152219
830.977	0.0152443
831.055	0.0152064
831.134	0.0150299
831.212	0.0151294
831.290	0.0151002
831.368	0.0152561
831.446	0.0152790
831.524	0.0151546
831.602	0.0151705
831.680	0.0152602
831.759	0.0153326
831.837	0.0151337
831.915	0.0152486
831.993	0.0152239
832.071	0.0152708
832.149	0.0150555
832.227	0.0150343
832.305	0.0151978
832.384	0.0151347
832.462	0.0152253
832.540	0.0153294
832.618	0.0151644
832.696	0.0151676
832.774	0.0152180
832.852	0.0153372
832.930	0.0152362
833.009	0.0150809
833.087	0.0153507
833.165	0.0153731
833.243	0.0152553
833.321	0.0152017
833.399	0.0151647
833.477	0.0152335
833.555	0.0152020
833.634	0.0152452
833.712	0.0152867
833.790	0.0152152
833.868	0.0153081
833.946	0.0153894
834.024	0.0152615
834.102	0.0153558
834.180	0.0151689
834.259	0.0152859
834.337	0.0152906
834.415	0.0151521
834.493	0.0152861
834.571	0.0151826
834.649	0.0152419
834.727	0.0151609
834.805	0.0152530
834.884	0.0151256
834.962	0.0152339
835.040	0.0151074
835.118	0.0151636
835.196	0.0151418
835.274	0.0151939
835.352	0.0151296
835.430	0.0149274
835.509	0.0150513
835.587	0.0149554
835.665	0.0149934
835.743	0.0150035
835.821	0.0149608
835.899	0.0149323
835.977	0.0150944
836.055	0.0149789
836.134	0.0148702
836.212	0.0149409
836.290	0.0150108
836.368	0.0150221
836.446	0.0151001
836.524	0.0150627
836.602	0.0150851
836.680	0.0150890
836.759	0.0151460
836.837	0.0151210
836.915	0.0152336
836.993	0.0152373
837.071	0.0152345
837.149	0.0152507
837.227	0.0153580
837.305	0.0154847
837.384	0.0154066
837.462	0.0154385
837.540	0.0155488
837.618	0.0154994
837.696	0.0157014
837.774	0.0155251
837.852	0.0156933
837.930	0.0154871
838.009	0.0155359
838.087	0.0155753
838.165	0.0155610
838.243	0.0155258
838.321	0.0153916
838.399	0.0154790
838.477	0.0152959
838.555	0.0153722
838.634	0.0153770
838.712	0.0152678
838.790	0.0153563
838.868	0.0151811
838.946	0.0151379
839.024	0.0151089
839.102	0.0150050
839.180	0.0150461
839.259	0.0151089
839.337	0.0149714
839.415	0.0149421
839.493	0.0149295
839.571	0.0150101
839.649	0.0150153
839.727	0.0149966
839.805	0.0148400
839.884	0.0150043
839.962	0.0149405
840.040	0.0149536
840.118	0.0148961
840.196	0.0149332
840.274	0.0152130
840.352	0.0151521
840.430	0.0151886
840.509	0.0151935
840.587	0.0154458
840.665	0.0153510
840.743	0.0154388
840.821	0.0155219
840.899	0.0154945
840.977	0.0155116
841.055	0.0156516
841.134	0.0155910
841.212	0.0155430
841.290	0.0156208
841.368	0.0152180
841.446	0.0153642
841.524	0.0155397
841.602	0.0154458
841.680	0.0154439
841.759	0.0152132
841.837	0.0154733
841.915	0.0153680
841.993	0.0152689
842.071	0.0154346
842.149	0.0151997
842.227	0.0152158
842.305	0.0151550
842.384	0.0151402
842.462	0.0152203
842.540	0.0151887
842.618	0.0151440
842.696	0.0151326
842.774	0.0151111
842.852	0.0152131
842.930	0.0150572
843.009	0.0151442
843.087	0.0150691
843.165	0.0151250
843.243	0.0150228
843.321	0.0149512
843.399	0.0151923
843.477	0.0151064
843.555	0.0148569
843.634	0.0151618
843.712	0.0151386
843.790	0.0151051
843.868	0.0151063
843.946	0.0151512
844.024	0.0152749
844.102	0.0154076
844.180	0.0154176
844.259	0.0153079
844.337	0.0152972
844.415	0.0155680
844.493	0.0154803
844.571	0.0155158
844.649	0.0156112
844.727	0.0156665
844.805	0.0155676
844.884	0.0156004
844.962	0.0155351
845.040	0.0154810
845.118	0.0154313
845.196	0.0154183
845.274	0.0154323
845.352	0.0153484
845.430	0.0153383
845.509	0.0153211
845.587	0.0153718
845.665	0.0153492
845.743	0.0153320
845.821	0.0151801
845.899	0.0153066
845.977	0.0153730
846.055	0.0153878
846.134	0.0150958
846.212	0.0152709
846.290	0.0153010
846.368	0.0152667
846.446	0.0152237
846.524	0.0152502
846.602	0.0152993
846.680	0.0153184
846.759	0.0152751
846.837	0.0153970
846.915	0.0151874
846.993	0.0152933
847.071	0.0153100
847.149	0.0152467
847.227	0.0153770
847.305	0.0154246
847.384	0.0153603
847.462	0.0153042
847.540	0.0153157
847.618	0.0152848
847.696	0.0153189
847.774	0.0153370
847.852	0.0153175
847.930	0.0154183
848.009	0.0152939
848.087	0.0152886
848.165	0.0152777
848.243	0.0153197
848.321	0.0151891
848.399	0.0152325
848.477	0.0152659
848.555	0.0150800
848.634	0.0153264
848.712	0.0152072
848.790	0.0150902
848.868	0.0152980
848.946	0.0153069
849.024	0.0152234
849.102	0.0152795
849.180	0.0152043
849.259	0.0152837
849.337	0.0152963
849.415	0.0152516
849.493	0.0154672
849.571	0.0154227
849.649	0.0153888
849.727	0.0153980
849.805	0.0154611
849.884	0.0153484
849.962	0.0153195
850.040	0.0154089
850.118	0.0152804
850.196	0.0153830
850.274	0.0153823
850.352	0.0153839
850.430	0.0152028
850.509	0.0152558
850.587	0.0151765
850.665	0.0153042
850.743	0.0152157
850.821	0.0151936
850.899	0.0152361
850.977	0.0151171
851.055	0.0152198
851.134	0.0152216
851.212	0.0152588
851.290	0.0152776
851.368	0.0151851
851.446	0.0153564
851.524	0.0152972
851.602	0.0152433
851.680	0.0151218
851.759	0.0152100
851.837	0.0151902
851.915	0.0151287
851.993	0.0151681
852.071	0.0151518
852.149	0.0149940
852.227	0.0150667
852.305	0.0151637
852.384	0.0149694
852.462	0.0149686
852.540	0.0150114
852.618	0.0150444
852.696	0.0150661
852.774	0.0151231
852.852	0.0150883
852.930	0.0150371
853.009	0.0151962
853.087	0.0151350
853.165	0.0149404
853.243	0.0151281
853.321	0.0152438
853.399	0.0152039
853.477	0.0152360
853.555	0.0152817
853.634	0.0152837
853.712	0.0152104
853.790	0.0152232
853.868	0.0152440
853.946	0.0153232
854.024	0.0153856
854.102	0.0153879
854.180	0.0153506
854.259	0.0153354
854.337	0.0153294
854.415	0.0152309
854.493	0.0152952
854.571	0.0154117
854.649	0.0153722
854.727	0.0152036
854.805	0.0153257
854.884	0.0154165
854.962	0.0153183
855.040	0.0151427
855.118	0.0152763
855.196	0.0153631
855.274	0.0152167
855.352	0.0153783
855.430	0.0154414
855.509	0.0153896
855.587	0.0153574
855.665	0.0153437
855.743	0.0153143
855.821	0.0153413
855.899	0.0153443
855.977	0.0152390
856.055	0.0151752
856.134	0.0150903
856.212	0.0150446
856.290	0.0151089
856.368	0.0150594
856.446	0.0150903
856.524	0.0152035
856.602	0.0151171
856.680	0.0150348
856.759	0.0151165
856.837	0.0151180
856.915	0.0150899
856.993	0.0149498
857.071	0.0151347
857.149	0.0151260
857.227	0.0153086
857.305	0.0153649
857.384	0.0152154
857.462	0.0153225
857.540	0.0152237
857.618	0.0153808
857.696	0.0153347
857.774	0.0152824
857.852	0.0153738
857.930	0.0153966
858.009	0.0152831
858.087	0.0153927
858.165	0.0154290
858.243	0.0152143
858.321	0.0153464
858.399	0.0154398
858.477	0.0152659
858.555	0.0154222
858.634	0.0154853
858.712	0.0154382
858.790	0.0154076
858.868	0.0152722
858.946	0.0152362
859.024	0.0153825
859.102	0.0152812
859.180	0.0153456
859.259	0.0153666
859.337	0.0154076
859.415	0.0152585
859.493	0.0152598
859.571	0.0154134
859.649	0.0152576
859.727	0.0153091
859.805	0.0152325
859.884	0.0152613
859.962	0.0154124
860.040	0.0153329
860.118	0.0153487
860.196	0.0153333
860.274	0.0151301
860.352	0.0151823
860.430	0.0151665
860.509	0.0153294
860.587	0.0151759
860.665	0.0151617
860.743	0.0152032
860.821	0.0151011
860.899	0.0151229
860.977	0.0150919
861.055	0.0151551
861.134	0.0151149
861.212	0.0150124
861.290	0.0152272
861.368	0.0152429
861.446	0.0151647
861.524	0.0152299
861.602	0.0151136
861.680	0.0153082
861.759	0.0152168
861.837	0.0153136
861.915	0.0153452
861.993	0.0153735
862.071	0.0154352
862.149	0.0152156
862.227	0.0152801
862.305	0.0153927
862.384	0.0154012
862.462	0.0153338
862.540	0.0151757
862.618	0.0152767
862.696	0.0152321
862.774	0.0153526
862.852	0.0152808
862.930	0.0152769
863.009	0.0152394
863.087	0.0153476
863.165	0.0153167
863.243	0.0151219
863.321	0.0153009
863.399	0.0153332
863.477	0.0153078
863.555	0.0152006
863.634	0.0152566
863.712	0.0154152
863.790	0.0154172
863.868	0.0152554
863.946	0.0151933
864.024	0.0152058
864.102	0.0153094
864.180	0.0152504
864.259	0.0151295
864.337	0.0151078
864.415	0.0150259
864.493	0.0150956
864.571	0.0150716
864.649	0.0149912
864.727	0.0150288
864.805	0.0150318
864.884	0.0149991
864.962	0.0148870
865.040	0.0150486
865.118	0.0151363
865.196	0.0152135
865.274	0.0151083
865.352	0.0152349
865.430	0.0151849
865.509	0.0152668
865.587	0.0151704
865.665	0.0153609
865.743	0.0152064
865.821	0.0152749
865.899	0.0151376
865.977	0.0153297
866.055	0.0153460
866.134	0.0153125
866.212	0.0152814
866.290	0.0153339
866.368	0.0152969
866.446	0.0151896
866.524	0.0152225
866.602	0.0151911
866.680	0.0152469
866.759	0.0153218
866.837	0.0152493
866.915	0.0152917
866.993	0.0152053
867.071	0.0152031
867.149	0.0152213
867.227	0.0151929
867.305	0.0151413
867.384	0.0150308
867.462	0.0151231
867.540	0.0150845
867.618	0.0151054
867.696	0.0151195
867.774	0.0151143
867.852	0.0152177
867.930	0.0152317
868.009	0.0151973
868.087	0.0152471
868.165	0.0153413
868.243	0.0152171
868.321	0.0152095
868.399	0.0151824
868.477	0.0152554
868.555	0.0154299
868.634	0.0152262
868.712	0.0152144
868.790	0.0152994
868.868	0.0151955
868.946	0.0151209
869.024	0.0151680
869.102	0.0152650
869.180	0.0152027
869.259	0.0150444
869.337	0.0152179
869.415	0.0151617
869.493	0.0152371
869.571	0.0152625
869.649	0.0152047
869.727	0.0152608
869.805	0.0153189
869.884	0.0151914
869.962	0.0152807
870.040	0.0152784
870.118	0.0152448
870.196	0.0153110
870.274	0.0152701
870.352	0.0153310
870.430	0.0154056
870.509	0.0151737
870.587	0.0152356
870.665	0.0153082
870.743	0.0153059
870.821	0.0154142
870.899	0.0151440
870.977	0.0151464
871.055	0.0152155
871.134	0.0151821
871.212	0.0152263
871.290	0.0152259
871.368	0.0152156
871.446	0.0152484
871.524	0.0153656
871.602	0.0152419
871.680	0.0153760
871.759	0.0154053
871.837	0.0153694
871.915	0.0153114
871.993	0.0152838
872.071	0.0153246
872.149	0.0153091
872.227	0.0153964
872.305	0.0152662
872.384	0.0152548
872.462	0.0150613
872.540	0.0152084
872.618	0.0153754
872.696	0.0152000
872.774	0.0151397
872.852	0.0150940
872.930	0.0149811
873.009	0.0151067
873.087	0.0150575
873.165	0.0151250
873.243	0.0151357
873.321	0.0150459
873.399	0.0151809
873.477	0.0151717
873.555	0.0149794
873.634	0.0151671
873.712	0.0153119
873.790	0.0151479
873.868	0.0152097
873.946	0.0152981
874.024	0.0151589
874.102	0.0152192
874.180	0.0153313
874.259	0.0153467
874.337	0.0153098
874.415	0.0153041
874.493	0.0152544
874.571	0.0154098
874.649	0.0153373
874.727	0.0152979
874.805	0.0152557
874.884	0.0153262
874.962	0.0152054
875.040	0.0152180
875.118	0.0153488
875.196	0.0151612
875.274	0.0150051
875.352	0.0151161
875.430	0.0151184
875.509	0.0150091
875.587	0.0150879
875.665	0.0150163
875.743	0.0149286
875.821	0.0150135
875.899	0.0149969
875.977	0.0150024
876.055	0.0149181
876.134	0.0150325
876.212	0.0151139
876.290	0.0151776
876.368	0.0151080
876.446	0.0152636
876.524	0.0151576
876.602	0.0152108
876.680	0.0152206
876.759	0.0154068
876.837	0.0152399
876.915	0.0153435
876.993	0.0153009
877.071	0.0152744
877.149	0.0154107
877.227	0.0153599
877.305	0.0154070
877.384	0.0153474
877.462	0.0152587
877.540	0.0152884
877.618	0.0153386
877.696	0.0154010
877.774	0.0153625
877.852	0.0153978
877.930	0.0153063
878.009	0.0154321
878.087	0.0153348
878.165	0.0153501
878.243	0.0153650
878.321	0.0153426
878.399	0.0153125
878.477	0.0153602
878.555	0.0153111
878.634	0.0153515
878.712	0.0152148
878.790	0.0153062
878.868	0.0153973
878.946	0.0154343
879.024	0.0152283
879.102	0.0152081
879.180	0.0151767
879.259	0.0152578
879.337	0.0151344
879.415	0.0152162
879.493	0.0153651
879.571	0.0150989
879.649	0.0151669
879.727	0.0151713
879.805	0.0151248
879.884	0.0151752
879.962	0.0152179
880.040	0.0151196
880.118	0.0150214
880.196	0.0153437
880.274	0.0151664
880.352	0.0152387
880.430	0.0151899
880.509	0.0152216
880.587	0.0152123
880.665	0.0152920
880.743	0.0152034
880.821	0.0152910
880.899	0.0152579
880.977	0.0151640
881.055	0.0152706
881.134	0.0153796
881.212	0.0152086
881.290	0.0152630
881.368	0.0150692
881.446	0.0152891
881.524	0.0151997
881.602	0.0151692
881.680	0.0151141
881.759	0.0153452
881.837	0.0152966
881.915	0.0152142
881.993	0.0152261
882.071	0.0153181
882.149	0.0153767
882.227	0.0151454
882.305	0.0152562
882.384	0.0153728
882.462	0.0153225
882.540	0.0152419
882.618	0.0154327
882.696	0.0153750
882.774	0.0153287
882.852	0.0152296
882.930	0.0153740
883.009	0.0153480
883.087	0.0153249
883.165	0.0154130
883.243	0.0153779
883.321	0.0154164
883.399	0.0152818
883.477	0.0154981
883.555	0.0154599
883.634	0.0153866
883.712	0.0153138
883.790	0.0151934
883.868	0.0154323
883.946	0.0153430
884.024	0.0153245
884.102	0.0154542
884.180	0.0152346
884.259	0.0153460
884.337	0.0152240
884.415	0.0151396
884.493	0.0152860
884.571	0.0153031
884.649	0.0152522
884.727	0.0153343
884.805	0.0153558
884.884	0.0152956
884.962	0.0151730
885.040	0.0153123
885.118	0.0154844
885.196	0.0153049
885.274	0.0153094
885.352	0.0154195
885.430	0.0153382
885.509	0.0153654
885.587	0.0154057
885.665	0.0152397
885.743	0.0152788
885.821	0.0153091
885.899	0.0153420
885.977	0.0153905
886.055	0.0154271
886.134	0.0154356
886.212	0.0153973
886.290	0.0153692
886.368	0.0152905
886.446	0.0153722
886.524	0.0153433
886.602	0.0154672
886.680	0.0152969
886.759	0.0153781
886.837	0.0152329
886.915	0.0155907
886.993	0.0155064
887.071	0.0153796
887.149	0.0155191
887.227	0.0153655
887.305	0.0153582
887.384	0.0154037
887.462	0.0154163
887.540	0.0152742
887.618	0.0152369
887.696	0.0153957
887.774	0.0153570
887.852	0.0151752
887.930	0.0153180
888.009	0.0152094
888.087	0.0151827
888.165	0.0151354
888.243	0.0151469
888.321	0.0150708
888.399	0.0151543
888.477	0.0151524
888.555	0.0150826
888.634	0.0151981
888.712	0.0151670
888.790	0.0152763
888.868	0.0150813
888.946	0.0152699
889.024	0.0152015
889.102	0.0153518
889.180	0.0153846
889.259	0.0151973
889.337	0.0152963
889.415	0.0152639
889.493	0.0151989
889.571	0.0152402
889.649	0.0152451
889.727	0.0152708
889.805	0.0151894
889.884	0.0152593
889.962	0.0153219
890.040	0.0152262
890.118	0.0151735
890.196	0.0152509
890.274	0.0151861
890.352	0.0150477
890.430	0.0150871
890.509	0.0151862
890.587	0.0151830
890.665	0.0151894
890.743	0.0151550
890.821	0.0151640
890.899	0.0152451
890.977	0.0151259
891.055	0.0152349
891.134	0.0152850
891.212	0.0151992
891.290	0.0152644
891.368	0.0152910
891.446	0.0151900
891.524	0.0151801
891.602	0.0152126
891.680	0.0151463
891.759	0.0149992
891.837	0.0152097
891.915	0.0151611
891.993	0.0152161
892.071	0.0151905
892.149	0.0151469
892.227	0.0152012
892.305	0.0150270
892.384	0.0151794
892.462	0.0150213
892.540	0.0151422
892.618	0.0150917
892.696	0.0151684
892.774	0.0150336
892.852	0.0150391
892.930	0.0149725
893.009	0.0150642
893.087	0.0150307
893.165	0.0150578
893.243	0.0151664
893.321	0.0150406
893.399	0.0152097
893.477	0.0151842
893.555	0.0150237
893.634	0.0152418
893.712	0.0152726
893.790	0.0151901
893.868	0.0152177
893.946	0.0152815
894.024	0.0151833
894.102	0.0153078
894.180	0.0151966
894.259	0.0153426
894.337	0.0152995
894.415	0.0153912
894.493	0.0154044
894.571	0.0153474
894.649	0.0154009
894.727	0.0152004
894.805	0.0153076
894.884	0.0154782
894.962	0.0153294
895.040	0.0153814
895.118	0.0152594
895.196	0.0152541
895.274	0.0153883
895.352	0.0152955
895.430	0.0151705
895.509	0.0152277
895.587	0.0150686
895.665	0.0151977
895.743	0.0150772
895.821	0.0152486
895.899	0.0151625
895.977	0.0151408
896.055	0.0151064
896.134	0.0151772
896.212	0.0151503
896.290	0.0152077
896.368	0.0150629
896.446	0.0152299
896.524	0.0152406
896.602	0.0151406
896.680	0.0152734
896.759	0.0152618
896.837	0.0152526
896.915	0.0152330
896.993	0.0152107
897.071	0.0152952
897.149	0.0152132
897.227	0.0151845
897.305	0.0151891
897.384	0.0152878
897.462	0.0152263
897.540	0.0152347
897.618	0.0152974
897.696	0.0152436
897.774	0.0151680
897.852	0.0153165
897.930	0.0152117
898.009	0.0152324
898.087	0.0152566
898.165	0.0152573
898.243	0.0151687
898.321	0.0150152
898.399	0.0152457
898.477	0.0152982
898.555	0.0152112
898.634	0.0152422
898.712	0.0152415
898.790	0.0150641
898.868	0.0150468
898.946	0.0151817
899.024	0.0151469
899.102	0.0152736
899.180	0.0151746
899.259	0.0151069
899.337	0.0152270
899.415	0.0151592
899.493	0.0151617
899.571	0.0151270
899.649	0.0150935
899.727	0.0152106
899.805	0.0152706
899.884	0.0152018
899.962	0.0151470
900.040	0.0151067
900.118	0.0151794
900.196	0.0151315
900.274	0.0151593
900.352	0.0151160
900.430	0.0151412
900.509	0.0150912
900.587	0.0150106
900.665	0.0151621
900.743	0.0151960
900.821	0.0150465
900.899	0.0151782
900.977	0.0152551
901.055	0.0152505
901.134	0.0151539
901.212	0.0150666
901.290	0.0151364
901.368	0.0151643
901.446	0.0152128
901.524	0.0152575
901.602	0.0152211
901.680	0.0152607
901.759	0.0151462
901.837	0.0149975
901.915	0.0150391
901.993	0.0150844
902.071	0.0152361
902.149	0.0151732
902.227	0.0152473
902.305	0.0152171
902.384	0.0151283
902.462	0.0151121
902.540	0.0151588
902.618	0.0152970
902.696	0.0153193
902.774	0.0152659
902.852	0.0151867
902.930	0.0151839
903.009	0.0153006
903.087	0.0150841
903.165	0.0152742
903.243	0.0152680
903.321	0.0151758
903.399	0.0152612
903.477	0.0153253
903.555	0.0152642
903.634	0.0153460
903.712	0.0151037
903.790	0.0151508
903.868	0.0152463
903.946	0.0153426
904.024	0.0152135
904.102	0.0151556
904.180	0.0152642
904.259	0.0153759
904.337	0.0152377
904.415	0.0152393
904.493	0.0151181
904.571	0.0152432
904.649	0.0151431
904.727	0.0152515
904.805	0.0152065
904.884	0.0153065
904.962	0.0152043
905.040	0.0152451
905.118	0.0152725
905.196	0.0151491
905.274	0.0152094
905.352	0.0153312
905.430	0.0150467
905.509	0.0152000
905.587	0.0152236
905.665	0.0152865
905.743	0.0152231
905.821	0.0153105
905.899	0.0154132
905.977	0.0152358
906.055	0.0151749
906.134	0.0152553
906.212	0.0152183
906.290	0.0152081
906.368	0.0153559
906.446	0.0153811
906.524	0.0151304
906.602	0.0153320
906.680	0.0152866
906.759	0.0154121
906.837	0.0152919
906.915	0.0153478
906.993	0.0152003
907.071	0.0153625
907.149	0.0152937
907.227	0.0152643
907.305	0.0151394
907.384	0.0152472
907.462	0.0152361
907.540	0.0151975
907.618	0.0151219
907.696	0.0151468
907.774	0.0151949
907.852	0.0152305
907.930	0.0151202
908.009	0.0151209
908.087	0.0152095
908.165	0.0151421
908.243	0.0151615
908.321	0.0152554
908.399	0.0152872
908.477	0.0153433
908.555	0.0152991
908.634	0.0151515
908.712	0.0151383
908.790	0.0153225
908.868	0.0154063
908.946	0.0153803
909.024	0.0154194
909.102	0.0154044
909.180	0.0152836
909.259	0.0152961
909.337	0.0152620
909.415	0.0152922
909.493	0.0153425
909.571	0.0154088
909.649	0.0154353
909.727	0.0153313
909.805	0.0152827
909.884	0.0153450
909.962	0.0153345
910.040	0.0154211
910.118	0.0152437
910.196	0.0152512
910.274	0.0151823
910.352	0.0153250
910.430	0.0151414
910.509	0.0152483
910.587	0.0153220
910.665	0.0153373
910.743	0.0153596
910.821	0.0153246
910.899	0.0153176
910.977	0.0152334
911.055	0.0149908
911.134	0.0152893
911.212	0.0152696
911.290	0.0153436
911.368	0.0154387
911.446	0.0152959
911.524	0.0152712
911.602	0.0153761
911.680	0.0153617
911.759	0.0154092
911.837	0.0153744
911.915	0.0153515
911.993	0.0152976
912.071	0.0154641
912.149	0.0153186
912.227	0.0152679
912.305	0.0153218
912.384	0.0152540
912.462	0.0153757
912.540	0.0153419
912.618	0.0153275
912.696	0.0153373
912.774	0.0152907
912.852	0.0153644
912.930	0.0152936
913.009	0.0152863
913.087	0.0153091
913.165	0.0152503
913.243	0.0151229
913.321	0.0152686
913.399	0.0152120
913.477	0.0153080
913.555	0.0151920
913.634	0.0152518
913.712	0.0152851
913.790	0.0152599
913.868	0.0153040
913.946	0.0151757
914.024	0.0153548
914.102	0.0154121
914.180	0.0151995
914.259	0.0151756
914.337	0.0151955
914.415	0.0152577
914.493	0.0152071
914.571	0.0152686
914.649	0.0152354
914.727	0.0150963
914.805	0.0151447
914.884	0.0152327
914.962	0.0151902
915.040	0.0152225
915.118	0.0152127
915.196	0.0150793
915.274	0.0152049
915.352	0.0152000
915.430	0.0151422
915.509	0.0153111
915.587	0.0151422
915.665	0.0150974
915.743	0.0152197
915.821	0.0152992
915.899	0.0151601
915.977	0.0152570
916.055	0.0151038
916.134	0.0150887
916.212	0.0151543
916.290	0.0151247
916.368	0.0151059
916.446	0.0150183
916.524	0.0151566
916.602	0.0150875
916.680	0.0151675
916.759	0.0151312
916.837	0.0151192
916.915	0.0150822
916.993	0.0151848
917.071	0.0152069
917.149	0.0151863
917.227	0.0152340
917.305	0.0151376
917.384	0.0151509
917.462	0.0153352
917.540	0.0151337
917.618	0.0151631
917.696	0.0149981
917.774	0.0151226
917.852	0.0151698
917.930	0.0151869
918.009	0.0152026
918.087	0.0151606
918.165	0.0152112
918.243	0.0151410
918.321	0.0151772
918.399	0.0153880
918.477	0.0152664
918.555	0.0152972
918.634	0.0152699
918.712	0.0152332
918.790	0.0152110
918.868	0.0151048
918.946	0.0152100
919.024	0.0152158
919.102	0.0152520
919.180	0.0151927
919.259	0.0152779
919.337	0.0151686
919.415	0.0152597
919.493	0.0152794
919.571	0.0152032
919.649	0.0151349
919.727	0.0152927
919.805	0.0151962
919.884	0.0151875
