06/13/2022	14:31:42	Ver.	4.1	UNKNOWN
Optical Delay	599.968395	Delta X		0.078125	Sweeps	1	Scan Rate	0/0
Coordinates	Axis 1	NaN	Axis 2	NaN	Axis 3	NaN	Axis 4	NaN	Axis 5	NaN	Axis 6	0.000000
TX Power	0.000000	RX Power	0.000000

599.968	0.0160899
600.047	0.0160071
600.125	0.0160165
600.203	0.0161275
600.281	0.0160648
600.359	0.0161834
600.437	0.0160691
600.515	0.0160963
600.593	0.0160493
600.672	0.0159924
600.750	0.0161725
600.828	0.0162250
600.906	0.0160295
600.984	0.0161647
601.062	0.0161516
601.140	0.0160711
601.218	0.0160562
601.297	0.0160192
601.375	0.0160951
601.453	0.0161115
601.531	0.0160327
601.609	0.0160695
601.687	0.0160655
601.765	0.0159755
601.843	0.0160960
601.922	0.0161401
602.000	0.0158682
602.078	0.0160778
602.156	0.0161588
602.234	0.0161076
602.312	0.0160435
602.390	0.0160794
602.468	0.0161992
602.547	0.0161501
602.625	0.0159937
602.703	0.0161686
602.781	0.0161156
602.859	0.0160533
602.937	0.0159910
603.015	0.0162098
603.093	0.0160138
603.172	0.0159395
603.250	0.0160798
603.328	0.0160175
603.406	0.0161712
603.484	0.0161781
603.562	0.0160465
603.640	0.0160803
603.718	0.0161201
603.797	0.0161079
603.875	0.0161602
603.953	0.0160928
604.031	0.0161613
604.109	0.0160168
604.187	0.0160907
604.265	0.0161892
604.343	0.0161146
604.422	0.0161901
604.500	0.0160613
604.578	0.0160805
604.656	0.0159322
604.734	0.0160341
604.812	0.0160960
604.890	0.0160664
604.968	0.0160661
605.047	0.0160733
605.125	0.0160118
605.203	0.0161964
605.281	0.0161720
605.359	0.0161092
605.437	0.0160934
605.515	0.0160392
605.593	0.0160968
605.672	0.0161322
605.750	0.0160381
605.828	0.0162238
605.906	0.0160744
605.984	0.0160886
606.062	0.0159899
606.140	0.0160991
606.218	0.0161420
606.297	0.0160570
606.375	0.0160134
606.453	0.0160841
606.531	0.0161763
606.609	0.0161986
606.687	0.0160821
606.765	0.0161275
606.843	0.0160876
606.922	0.0160551
607.000	0.0160497
607.078	0.0160093
607.156	0.0161035
607.234	0.0159773
607.312	0.0161129
607.390	0.0161903
607.468	0.0161572
607.547	0.0161574
607.625	0.0161603
607.703	0.0160513
607.781	0.0159654
607.859	0.0161670
607.937	0.0160278
608.015	0.0159917
608.093	0.0160504
608.172	0.0159751
608.250	0.0159686
608.328	0.0161700
608.406	0.0161040
608.484	0.0161189
608.562	0.0160962
608.640	0.0162141
608.718	0.0160181
608.797	0.0160108
608.875	0.0160831
608.953	0.0160746
609.031	0.0161462
609.109	0.0161275
609.187	0.0160538
609.265	0.0160992
609.343	0.0160572
609.422	0.0160881
609.500	0.0161435
609.578	0.0162817
609.656	0.0160950
609.734	0.0160976
609.812	0.0160760
609.890	0.0160075
609.968	0.0160927
610.047	0.0162209
610.125	0.0160181
610.203	0.0159935
610.281	0.0160590
610.359	0.0161365
610.437	0.0159407
610.515	0.0161738
610.593	0.0161059
610.672	0.0160394
610.750	0.0160476
610.828	0.0160320
610.906	0.0160352
610.984	0.0160473
611.062	0.0159818
611.140	0.0160445
611.218	0.0162310
611.297	0.0161742
611.375	0.0160633
611.453	0.0160776
611.531	0.0160326
611.609	0.0160547
611.687	0.0161283
611.765	0.0160564
611.843	0.0161018
611.922	0.0161081
612.000	0.0160088
612.078	0.0160286
612.156	0.0160172
612.234	0.0161037
612.312	0.0161930
612.390	0.0160389
612.468	0.0161073
612.547	0.0160817
612.625	0.0161514
612.703	0.0159972
612.781	0.0160577
612.859	0.0161122
612.937	0.0161601
613.015	0.0159676
613.093	0.0160926
613.172	0.0161337
613.250	0.0161553
613.328	0.0159900
613.406	0.0160192
613.484	0.0161176
613.562	0.0160313
613.640	0.0161066
613.718	0.0161579
613.797	0.0160936
613.875	0.0159966
613.953	0.0159794
614.031	0.0161382
614.109	0.0161001
614.187	0.0160107
614.265	0.0161348
614.343	0.0160439
614.422	0.0160804
614.500	0.0160259
614.578	0.0159889
614.656	0.0161285
614.734	0.0160817
614.812	0.0160236
614.890	0.0161025
614.968	0.0161124
615.047	0.0160173
615.125	0.0159814
615.203	0.0161550
615.281	0.0160107
615.359	0.0161031
615.437	0.0160906
615.515	0.0162025
615.593	0.0159532
615.672	0.0160130
615.750	0.0160473
615.828	0.0161784
615.906	0.0162886
615.984	0.0158961
616.062	0.0159921
616.140	0.0161483
616.218	0.0161668
616.297	0.0160224
616.375	0.0160832
616.453	0.0161501
616.531	0.0161345
616.609	0.0160795
616.687	0.0161582
616.765	0.0161517
616.843	0.0160625
616.922	0.0160612
617.000	0.0161642
617.078	0.0161423
617.156	0.0161549
617.234	0.0160698
617.312	0.0161840
617.390	0.0162121
617.468	0.0162353
617.547	0.0159200
617.625	0.0159564
617.703	0.0161604
617.781	0.0161820
617.859	0.0161047
617.937	0.0160734
618.015	0.0163000
618.093	0.0161669
618.172	0.0160172
618.250	0.0160331
618.328	0.0161335
618.406	0.0160273
618.484	0.0159945
618.562	0.0160629
618.640	0.0160709
618.718	0.0161401
618.797	0.0161574
618.875	0.0161099
618.953	0.0161067
619.031	0.0161484
619.109	0.0160616
619.187	0.0159982
619.265	0.0161355
619.343	0.0160582
619.422	0.0162193
619.500	0.0161285
619.578	0.0161674
619.656	0.0160498
619.734	0.0160645
619.812	0.0160470
619.890	0.0161006
619.968	0.0161342
620.047	0.0160397
620.125	0.0160629
620.203	0.0161535
620.281	0.0160960
620.359	0.0161357
620.437	0.0159367
620.515	0.0160116
620.593	0.0161207
620.672	0.0161580
620.750	0.0161109
620.828	0.0160473
620.906	0.0159450
620.984	0.0160918
621.062	0.0161504
621.140	0.0161712
621.218	0.0160458
621.297	0.0160442
621.375	0.0161302
621.453	0.0160857
621.531	0.0160833
621.609	0.0160403
621.687	0.0161446
621.765	0.0160114
621.843	0.0161107
621.922	0.0161218
622.000	0.0161806
622.078	0.0161230
622.156	0.0160913
622.234	0.0161342
622.312	0.0161138
622.390	0.0160581
622.468	0.0160818
622.547	0.0160769
622.625	0.0162112
622.703	0.0160728
622.781	0.0161274
622.859	0.0160902
622.937	0.0160558
623.015	0.0161887
623.093	0.0160784
623.172	0.0160274
623.250	0.0161138
623.328	0.0161755
623.406	0.0161018
623.484	0.0160857
623.562	0.0158908
623.640	0.0160377
623.718	0.0161807
623.797	0.0161092
623.875	0.0160145
623.953	0.0159924
624.031	0.0161407
624.109	0.0159706
624.187	0.0159638
624.265	0.0160184
624.343	0.0161617
624.422	0.0160297
624.500	0.0161032
624.578	0.0161333
624.656	0.0160884
624.734	0.0160762
624.812	0.0160809
624.890	0.0160232
624.968	0.0160104
625.047	0.0160817
625.125	0.0161342
625.203	0.0160700
625.281	0.0159816
625.359	0.0161065
625.437	0.0159934
625.515	0.0159525
625.593	0.0161676
625.672	0.0159096
625.750	0.0161475
625.828	0.0162244
625.906	0.0161058
625.984	0.0160267
626.062	0.0161714
626.140	0.0160603
626.218	0.0161134
626.297	0.0160728
626.375	0.0160436
626.453	0.0161230
626.531	0.0161132
626.609	0.0160923
626.687	0.0161742
626.765	0.0161929
626.843	0.0161113
626.922	0.0161460
627.000	0.0160131
627.078	0.0161161
627.156	0.0160691
627.234	0.0161701
627.312	0.0161346
627.390	0.0162981
627.468	0.0161196
627.547	0.0160880
627.625	0.0161191
627.703	0.0161969
627.781	0.0160732
627.859	0.0161378
627.937	0.0161975
628.015	0.0161440
628.093	0.0161827
628.172	0.0162880
628.250	0.0161053
628.328	0.0162843
628.406	0.0160451
628.484	0.0160059
628.562	0.0160504
628.640	0.0160902
628.718	0.0161601
628.797	0.0161812
628.875	0.0161649
628.953	0.0160752
629.031	0.0161020
629.109	0.0162068
629.187	0.0160598
629.265	0.0160943
629.343	0.0160940
629.422	0.0161638
629.500	0.0160970
629.578	0.0159939
629.656	0.0160831
629.734	0.0160749
629.812	0.0160711
629.890	0.0160519
629.968	0.0161087
630.047	0.0159639
630.125	0.0159822
630.203	0.0161006
630.281	0.0161600
630.359	0.0160966
630.437	0.0162247
630.515	0.0160490
630.593	0.0160243
630.672	0.0162131
630.750	0.0161501
630.828	0.0162319
630.906	0.0160564
630.984	0.0161229
631.062	0.0161491
631.140	0.0161275
631.218	0.0160712
631.297	0.0160503
631.375	0.0161820
631.453	0.0162579
631.531	0.0162518
631.609	0.0160584
631.687	0.0161289
631.765	0.0161086
631.843	0.0160220
631.922	0.0161581
632.000	0.0161474
632.078	0.0160052
632.156	0.0160721
632.234	0.0160696
632.312	0.0160672
632.390	0.0161537
632.468	0.0160522
632.547	0.0160333
632.625	0.0161857
632.703	0.0161066
632.781	0.0160380
632.859	0.0161396
632.937	0.0161376
633.015	0.0159315
633.093	0.0160631
633.172	0.0161009
633.250	0.0161829
633.328	0.0161236
633.406	0.0159883
633.484	0.0161103
633.562	0.0161269
633.640	0.0160740
633.718	0.0161007
633.797	0.0161045
633.875	0.0161432
633.953	0.0161114
634.031	0.0161906
634.109	0.0162148
634.187	0.0161954
634.265	0.0159478
634.343	0.0162173
634.422	0.0161784
634.500	0.0161759
634.578	0.0161071
634.656	0.0160707
634.734	0.0161147
634.812	0.0160826
634.890	0.0162050
634.968	0.0161414
635.047	0.0161180
635.125	0.0161870
635.203	0.0160837
635.281	0.0162180
635.359	0.0161098
635.437	0.0161082
635.515	0.0161545
635.593	0.0160966
635.672	0.0161550
635.750	0.0161205
635.828	0.0162231
635.906	0.0160473
635.984	0.0161695
636.062	0.0161073
636.140	0.0160284
636.218	0.0160647
636.297	0.0162264
636.375	0.0162231
636.453	0.0159993
636.531	0.0161988
636.609	0.0160610
636.687	0.0160469
636.765	0.0162045
636.843	0.0160565
636.922	0.0160806
637.000	0.0160711
637.078	0.0161839
637.156	0.0162849
637.234	0.0161101
637.312	0.0160844
637.390	0.0161818
637.468	0.0162633
637.547	0.0162356
637.625	0.0161195
637.703	0.0161497
637.781	0.0162661
637.859	0.0160133
637.937	0.0161447
638.015	0.0161074
638.093	0.0161171
638.172	0.0160464
638.250	0.0161458
638.328	0.0160808
638.406	0.0161959
638.484	0.0161311
638.562	0.0160737
638.640	0.0160614
638.718	0.0160384
638.797	0.0161249
638.875	0.0160899
638.953	0.0163280
639.031	0.0160600
639.109	0.0161124
639.187	0.0160995
639.265	0.0162051
639.343	0.0161350
639.422	0.0162811
639.500	0.0159998
639.578	0.0161061
639.656	0.0162409
639.734	0.0161356
639.812	0.0162300
639.890	0.0161583
639.968	0.0161496
640.047	0.0161143
640.125	0.0162999
640.203	0.0162453
640.281	0.0162280
640.359	0.0162771
640.437	0.0160848
640.515	0.0160485
640.593	0.0160662
640.672	0.0161810
640.750	0.0160658
640.828	0.0160558
640.906	0.0162408
640.984	0.0161414
641.062	0.0161468
641.140	0.0161537
641.218	0.0161497
641.297	0.0162164
641.375	0.0162202
641.453	0.0162261
641.531	0.0160382
641.609	0.0159704
641.687	0.0162170
641.765	0.0160994
641.843	0.0161219
641.922	0.0160351
642.000	0.0161655
642.078	0.0161514
642.156	0.0161776
642.234	0.0160902
642.312	0.0160841
642.390	0.0160841
642.468	0.0161666
642.547	0.0161795
642.625	0.0160952
642.703	0.0162475
642.781	0.0162180
642.859	0.0162348
642.937	0.0161695
643.015	0.0161969
643.093	0.0160995
643.172	0.0162463
643.250	0.0162372
643.328	0.0161931
643.406	0.0160616
643.484	0.0160950
643.562	0.0159875
643.640	0.0161483
643.718	0.0162722
643.797	0.0161878
643.875	0.0159879
643.953	0.0161208
644.031	0.0161083
644.109	0.0160541
644.187	0.0161385
644.265	0.0161263
644.343	0.0161462
644.422	0.0161962
644.500	0.0160780
644.578	0.0161889
644.656	0.0161031
644.734	0.0160879
644.812	0.0160632
644.890	0.0161166
644.968	0.0162296
645.047	0.0162341
645.125	0.0161073
645.203	0.0160756
645.281	0.0161482
645.359	0.0161311
645.437	0.0161401
645.515	0.0161819
645.593	0.0160799
645.672	0.0161680
645.750	0.0162108
645.828	0.0160824
645.906	0.0161746
645.984	0.0161057
646.062	0.0159985
646.140	0.0160143
646.218	0.0159733
646.297	0.0160658
646.375	0.0162000
646.453	0.0161327
646.531	0.0161752
646.609	0.0160434
646.687	0.0159924
646.765	0.0161400
646.843	0.0161021
646.922	0.0160787
647.000	0.0160580
647.078	0.0161183
647.156	0.0161343
647.234	0.0160205
647.312	0.0159954
647.390	0.0160519
647.468	0.0162228
647.547	0.0160966
647.625	0.0162083
647.703	0.0163048
647.781	0.0160763
647.859	0.0160448
647.937	0.0161257
648.015	0.0161538
648.093	0.0161629
648.172	0.0160501
648.250	0.0160133
648.328	0.0161503
648.406	0.0161102
648.484	0.0160478
648.562	0.0161098
648.640	0.0161307
648.718	0.0161739
648.797	0.0161495
648.875	0.0162263
648.953	0.0161670
649.031	0.0161577
649.109	0.0162356
649.187	0.0161446
649.265	0.0160942
649.343	0.0162077
649.422	0.0160398
649.500	0.0161720
649.578	0.0161421
649.656	0.0159635
649.734	0.0162434
649.812	0.0161046
649.890	0.0161470
649.968	0.0160110
650.047	0.0162680
650.125	0.0160783
650.203	0.0160781
650.281	0.0160429
650.359	0.0161327
650.437	0.0161269
650.515	0.0161572
650.593	0.0160004
650.672	0.0159923
650.750	0.0160971
650.828	0.0161604
650.906	0.0161211
650.984	0.0161028
651.062	0.0161159
651.140	0.0160522
651.218	0.0161037
651.297	0.0161642
651.375	0.0161535
651.453	0.0160130
651.531	0.0160191
651.609	0.0161196
651.687	0.0161121
651.765	0.0161337
651.843	0.0161806
651.922	0.0160827
652.000	0.0161627
652.078	0.0161325
652.156	0.0161182
652.234	0.0162707
652.312	0.0161703
652.390	0.0161271
652.468	0.0160689
652.547	0.0161942
652.625	0.0162888
652.703	0.0160399
652.781	0.0161202
652.859	0.0161408
652.937	0.0160823
653.015	0.0161226
653.093	0.0161993
653.172	0.0161518
653.250	0.0159377
653.328	0.0160219
653.406	0.0161001
653.484	0.0162265
653.562	0.0162303
653.640	0.0160790
653.718	0.0161520
653.797	0.0160281
653.875	0.0161565
653.953	0.0160561
654.031	0.0161451
654.109	0.0160428
654.187	0.0161631
654.265	0.0161846
654.343	0.0161431
654.422	0.0161674
654.500	0.0161229
654.578	0.0160126
654.656	0.0160345
654.734	0.0160439
654.812	0.0162331
654.890	0.0161297
654.968	0.0161678
655.047	0.0160528
655.125	0.0163378
655.203	0.0161411
655.281	0.0159527
655.359	0.0160838
655.437	0.0162612
655.515	0.0160802
655.593	0.0161047
655.672	0.0161932
655.750	0.0160013
655.828	0.0162138
655.906	0.0160866
655.984	0.0161269
656.062	0.0160786
656.140	0.0162264
656.218	0.0162300
656.297	0.0160593
656.375	0.0163088
656.453	0.0160939
656.531	0.0161303
656.609	0.0161452
656.687	0.0162132
656.765	0.0161610
656.843	0.0162032
656.922	0.0161288
657.000	0.0161837
657.078	0.0160907
657.156	0.0161815
657.234	0.0162448
657.312	0.0161411
657.390	0.0160026
657.468	0.0161189
657.547	0.0160551
657.625	0.0162038
657.703	0.0160470
657.781	0.0161257
657.859	0.0161098
657.937	0.0160197
658.015	0.0160931
658.093	0.0160725
658.172	0.0160406
658.250	0.0161511
658.328	0.0161671
658.406	0.0160567
658.484	0.0161887
658.562	0.0160857
658.640	0.0160806
658.718	0.0159718
658.797	0.0160889
658.875	0.0161205
658.953	0.0161633
659.031	0.0161444
659.109	0.0161130
659.187	0.0159983
659.265	0.0160845
659.343	0.0160467
659.422	0.0160802
659.500	0.0161534
659.578	0.0161398
659.656	0.0160612
659.734	0.0160788
659.812	0.0162056
659.890	0.0161492
659.968	0.0161486
660.047	0.0160712
660.125	0.0162041
660.203	0.0160793
660.281	0.0161393
660.359	0.0160506
660.437	0.0161157
660.515	0.0161795
660.593	0.0161020
660.672	0.0160802
660.750	0.0159564
660.828	0.0161142
660.906	0.0160970
660.984	0.0160931
661.062	0.0161781
661.140	0.0160979
661.218	0.0160270
661.297	0.0160593
661.375	0.0160624
661.453	0.0161238
661.531	0.0162186
661.609	0.0161679
661.687	0.0161407
661.765	0.0160925
661.843	0.0160581
661.922	0.0161471
662.000	0.0160843
662.078	0.0160643
662.156	0.0161626
662.234	0.0160897
662.312	0.0160638
662.390	0.0159790
662.468	0.0160973
662.547	0.0162294
662.625	0.0162189
662.703	0.0161407
662.781	0.0158348
662.859	0.0160767
662.937	0.0161793
663.015	0.0162131
663.093	0.0160986
663.172	0.0161781
663.250	0.0161322
663.328	0.0161231
663.406	0.0160792
663.484	0.0161543
663.562	0.0159451
663.640	0.0162009
663.718	0.0161321
663.797	0.0160632
663.875	0.0160601
663.953	0.0162310
664.031	0.0162341
664.109	0.0160564
664.187	0.0160777
664.265	0.0161403
664.343	0.0161334
664.422	0.0160806
664.500	0.0160973
664.578	0.0160204
664.656	0.0161768
664.734	0.0161497
664.812	0.0161919
664.890	0.0161507
664.968	0.0161325
665.047	0.0160750
665.125	0.0160973
665.203	0.0160848
665.281	0.0160976
665.359	0.0162620
665.437	0.0161494
665.515	0.0162181
665.593	0.0161259
665.672	0.0161355
665.750	0.0161749
665.828	0.0160320
665.906	0.0160148
665.984	0.0162502
666.062	0.0160101
666.140	0.0160915
666.218	0.0161332
666.297	0.0161457
666.375	0.0160648
666.453	0.0160813
666.531	0.0161217
666.609	0.0161205
666.687	0.0160991
666.765	0.0161678
666.843	0.0161591
666.922	0.0161535
667.000	0.0161802
667.078	0.0160261
667.156	0.0160715
667.234	0.0160469
667.312	0.0161144
667.390	0.0161044
667.468	0.0161684
667.547	0.0160258
667.625	0.0160224
667.703	0.0161870
667.781	0.0162347
667.859	0.0161407
667.937	0.0161391
668.015	0.0161198
668.093	0.0161337
668.172	0.0161657
668.250	0.0161683
668.328	0.0162013
668.406	0.0163004
668.484	0.0160496
668.562	0.0162445
668.640	0.0161528
668.718	0.0161066
668.797	0.0161404
668.875	0.0161309
668.953	0.0160752
669.031	0.0162150
669.109	0.0162300
669.187	0.0160100
669.265	0.0161901
669.343	0.0161964
669.422	0.0161288
669.500	0.0162073
669.578	0.0162494
669.656	0.0160808
669.734	0.0161923
669.812	0.0161357
669.890	0.0160876
669.968	0.0161208
670.047	0.0161780
670.125	0.0161381
670.203	0.0160869
670.281	0.0161750
670.359	0.0161587
670.437	0.0160769
670.515	0.0160798
670.593	0.0160940
670.672	0.0161528
670.750	0.0160296
670.828	0.0161019
670.906	0.0161713
670.984	0.0161161
671.062	0.0160547
671.140	0.0161502
671.218	0.0161267
671.297	0.0160407
671.375	0.0161145
671.453	0.0161370
671.531	0.0161002
671.609	0.0163472
671.687	0.0162173
671.765	0.0162289
671.843	0.0162134
671.922	0.0161483
672.000	0.0161054
672.078	0.0160975
672.156	0.0161887
672.234	0.0161272
672.312	0.0160637
672.390	0.0161447
672.468	0.0161079
672.547	0.0160841
672.625	0.0161724
672.703	0.0161859
672.781	0.0161302
672.859	0.0162670
672.937	0.0162056
673.015	0.0161024
673.093	0.0160885
673.172	0.0160751
673.250	0.0161655
673.328	0.0162706
673.406	0.0162048
673.484	0.0161208
673.562	0.0162725
673.640	0.0161641
673.718	0.0161801
673.797	0.0161359
673.875	0.0161500
673.953	0.0161725
674.031	0.0161707
674.109	0.0160313
674.187	0.0161889
674.265	0.0161391
674.343	0.0162112
674.422	0.0161776
674.500	0.0161974
674.578	0.0161189
674.656	0.0162489
674.734	0.0161769
674.812	0.0162180
674.890	0.0161228
674.968	0.0161726
675.047	0.0161237
675.125	0.0162346
675.203	0.0161372
675.281	0.0161028
675.359	0.0160426
675.437	0.0161703
675.515	0.0161792
675.593	0.0160915
675.672	0.0162213
675.750	0.0160895
675.828	0.0159293
675.906	0.0160799
675.984	0.0161227
676.062	0.0160110
676.140	0.0162792
676.218	0.0160152
676.297	0.0161926
676.375	0.0160961
676.453	0.0160445
676.531	0.0159904
676.609	0.0161996
676.687	0.0161058
676.765	0.0161395
676.843	0.0160948
676.922	0.0162311
677.000	0.0161802
677.078	0.0161442
677.156	0.0161363
677.234	0.0162338
677.312	0.0161857
677.390	0.0161004
677.468	0.0161060
677.547	0.0161997
677.625	0.0161035
677.703	0.0162061
677.781	0.0161633
677.859	0.0161519
677.937	0.0161732
678.015	0.0162046
678.093	0.0160820
678.172	0.0162089
678.250	0.0161206
678.328	0.0161161
678.406	0.0161267
678.484	0.0161662
678.562	0.0162316
678.640	0.0161067
678.718	0.0160891
678.797	0.0161078
678.875	0.0160896
678.953	0.0160938
679.031	0.0160662
679.109	0.0161361
679.187	0.0161351
679.265	0.0161430
679.343	0.0160418
679.422	0.0160375
679.500	0.0161385
679.578	0.0163372
679.656	0.0159860
679.734	0.0160540
679.812	0.0160830
679.890	0.0162238
679.968	0.0160335
680.047	0.0160157
680.125	0.0160728
680.203	0.0159850
680.281	0.0160738
680.359	0.0160795
680.437	0.0161242
680.515	0.0161050
680.593	0.0161120
680.672	0.0162006
680.750	0.0161953
680.828	0.0159467
680.906	0.0161845
680.984	0.0161919
681.062	0.0162067
681.140	0.0160846
681.218	0.0160851
681.297	0.0161443
681.375	0.0160906
681.453	0.0161560
681.531	0.0161749
681.609	0.0161755
681.687	0.0161396
681.765	0.0162204
681.843	0.0160942
681.922	0.0161063
682.000	0.0161970
682.078	0.0160905
682.156	0.0161949
682.234	0.0161020
682.312	0.0162680
682.390	0.0161489
682.468	0.0160578
682.547	0.0162393
682.625	0.0161427
682.703	0.0159287
682.781	0.0161240
682.859	0.0160793
682.937	0.0160569
683.015	0.0162315
683.093	0.0161392
683.172	0.0160767
683.250	0.0160813
683.328	0.0160536
683.406	0.0162182
683.484	0.0162871
683.562	0.0161181
683.640	0.0161250
683.718	0.0160739
683.797	0.0162349
683.875	0.0162582
683.953	0.0160507
684.031	0.0161382
684.109	0.0160832
684.187	0.0160732
684.265	0.0162273
684.343	0.0161682
684.422	0.0161315
684.500	0.0160116
684.578	0.0161937
684.656	0.0161792
684.734	0.0161671
684.812	0.0161883
684.890	0.0160338
684.968	0.0161794
685.047	0.0161904
685.125	0.0160892
685.203	0.0161625
685.281	0.0161857
685.359	0.0162202
685.437	0.0161858
685.515	0.0160442
685.593	0.0160384
685.672	0.0161886
685.750	0.0162684
685.828	0.0160918
685.906	0.0161208
685.984	0.0162004
686.062	0.0161690
686.140	0.0161147
686.218	0.0160975
686.297	0.0160997
686.375	0.0163062
686.453	0.0161774
686.531	0.0162122
686.609	0.0159867
686.687	0.0160222
686.765	0.0160961
686.843	0.0161745
686.922	0.0159913
687.000	0.0160712
687.078	0.0161064
687.156	0.0159598
687.234	0.0162067
687.312	0.0160747
687.390	0.0161249
687.468	0.0160541
687.547	0.0163560
687.625	0.0161337
687.703	0.0160512
687.781	0.0161143
687.859	0.0161213
687.937	0.0161699
688.015	0.0161224
688.093	0.0160467
688.172	0.0162370
688.250	0.0161578
688.328	0.0160413
688.406	0.0160509
688.484	0.0161579
688.562	0.0161066
688.640	0.0161445
688.718	0.0160750
688.797	0.0161053
688.875	0.0161549
688.953	0.0161684
689.031	0.0161930
689.109	0.0161873
689.187	0.0160566
689.265	0.0162484
689.343	0.0161220
689.422	0.0161713
689.500	0.0161703
689.578	0.0160934
689.656	0.0160625
689.734	0.0161262
689.812	0.0160149
689.890	0.0160382
689.968	0.0160330
690.047	0.0161240
690.125	0.0160522
690.203	0.0161605
690.281	0.0161145
690.359	0.0162021
690.437	0.0161490
690.515	0.0161700
690.593	0.0160617
690.672	0.0161012
690.750	0.0160926
690.828	0.0160834
690.906	0.0162385
690.984	0.0160646
691.062	0.0161306
691.140	0.0160110
691.218	0.0161332
691.297	0.0161905
691.375	0.0160342
691.453	0.0161632
691.531	0.0160139
691.609	0.0160892
691.687	0.0161709
691.765	0.0161003
691.843	0.0161121
691.922	0.0160490
692.000	0.0160750
692.078	0.0162138
692.156	0.0161501
692.234	0.0161275
692.312	0.0160034
692.390	0.0161384
692.468	0.0160576
692.547	0.0159019
692.625	0.0159856
692.703	0.0161706
692.781	0.0162228
692.859	0.0161136
692.937	0.0161205
693.015	0.0160704
693.093	0.0160316
693.172	0.0162351
693.250	0.0162106
693.328	0.0160815
693.406	0.0161304
693.484	0.0160339
693.562	0.0161568
693.640	0.0162398
693.718	0.0160228
693.797	0.0161230
693.875	0.0162737
693.953	0.0160738
694.031	0.0159919
694.109	0.0160897
694.187	0.0161803
694.265	0.0159924
694.343	0.0159949
694.422	0.0161808
694.500	0.0160799
694.578	0.0161122
694.656	0.0161657
694.734	0.0161335
694.812	0.0160305
694.890	0.0160766
694.968	0.0160556
695.047	0.0160563
695.125	0.0162628
695.203	0.0161961
695.281	0.0160455
695.359	0.0160232
695.437	0.0161626
695.515	0.0160683
695.593	0.0160579
695.672	0.0160824
695.750	0.0162074
695.828	0.0161242
695.906	0.0162080
695.984	0.0160201
696.062	0.0161608
696.140	0.0161171
696.218	0.0160244
696.297	0.0160627
696.375	0.0161411
696.453	0.0160178
696.531	0.0161595
696.609	0.0160674
696.687	0.0160165
696.765	0.0161383
696.843	0.0160224
696.922	0.0161519
697.000	0.0161669
697.078	0.0160947
697.156	0.0161227
697.234	0.0161078
697.312	0.0161112
697.390	0.0161355
697.468	0.0161044
697.547	0.0161221
697.625	0.0160626
697.703	0.0161651
697.781	0.0161118
697.859	0.0160980
697.937	0.0160393
698.015	0.0162438
698.093	0.0162360
698.172	0.0160986
698.250	0.0161755
698.328	0.0161713
698.406	0.0161884
698.484	0.0160408
698.562	0.0160228
698.640	0.0161354
698.718	0.0159872
698.797	0.0161713
698.875	0.0160714
698.953	0.0161578
699.031	0.0161407
699.109	0.0162260
699.187	0.0160823
699.265	0.0160979
699.343	0.0161351
699.422	0.0161320
699.500	0.0160768
699.578	0.0161394
699.656	0.0161621
699.734	0.0161589
699.812	0.0162139
699.890	0.0161119
699.968	0.0161858
700.047	0.0160811
700.125	0.0160962
700.203	0.0161766
700.281	0.0162611
700.359	0.0161194
700.437	0.0160864
700.515	0.0163249
700.593	0.0159766
700.672	0.0163317
700.750	0.0161461
700.828	0.0160741
700.906	0.0162383
700.984	0.0160596
701.062	0.0160896
701.140	0.0161387
701.218	0.0160884
701.297	0.0161823
701.375	0.0162502
701.453	0.0161495
701.531	0.0160923
701.609	0.0161400
701.687	0.0159914
701.765	0.0161452
701.843	0.0161266
701.922	0.0161944
702.000	0.0160779
702.078	0.0161458
702.156	0.0162141
702.234	0.0161695
702.312	0.0160923
702.390	0.0161293
702.468	0.0161343
702.547	0.0161530
702.625	0.0161148
702.703	0.0162071
702.781	0.0160850
702.859	0.0161941
702.937	0.0161556
703.015	0.0160831
703.093	0.0160696
703.172	0.0161404
703.250	0.0162606
703.328	0.0160417
703.406	0.0161829
703.484	0.0160916
703.562	0.0161680
703.640	0.0161852
703.718	0.0161629
703.797	0.0161641
703.875	0.0161836
703.953	0.0160514
704.031	0.0162627
704.109	0.0161581
704.187	0.0160870
704.265	0.0161775
704.343	0.0160632
704.422	0.0160697
704.500	0.0161880
704.578	0.0161687
704.656	0.0160388
704.734	0.0161711
704.812	0.0160004
704.890	0.0159281
704.968	0.0160623
705.047	0.0161650
705.125	0.0160793
705.203	0.0160857
705.281	0.0162395
705.359	0.0161284
705.437	0.0161743
705.515	0.0162757
705.593	0.0160038
705.672	0.0160467
705.750	0.0160914
705.828	0.0161937
705.906	0.0161253
705.984	0.0161040
706.062	0.0161154
706.140	0.0161741
706.218	0.0161893
706.297	0.0161918
706.375	0.0160849
706.453	0.0161444
706.531	0.0160545
706.609	0.0161925
706.687	0.0161736
706.765	0.0161198
706.843	0.0161777
706.922	0.0162552
707.000	0.0160867
707.078	0.0160929
707.156	0.0161154
707.234	0.0160680
707.312	0.0161289
707.390	0.0161962
707.468	0.0160928
707.547	0.0161398
707.625	0.0161765
707.703	0.0160172
707.781	0.0161275
707.859	0.0160455
707.937	0.0159705
708.015	0.0161520
708.093	0.0160758
708.172	0.0161886
708.250	0.0161404
708.328	0.0159834
708.406	0.0162391
708.484	0.0160852
708.562	0.0161762
708.640	0.0160899
708.718	0.0162397
708.797	0.0162161
708.875	0.0161624
708.953	0.0160743
709.031	0.0160371
709.109	0.0162794
709.187	0.0162353
709.265	0.0160632
709.343	0.0160332
709.422	0.0160884
709.500	0.0160211
709.578	0.0161108
709.656	0.0160605
709.734	0.0161926
709.812	0.0161395
709.890	0.0161376
709.968	0.0161792
710.047	0.0161523
710.125	0.0161083
710.203	0.0162239
710.281	0.0161208
710.359	0.0161758
710.437	0.0161465
710.515	0.0161656
710.593	0.0162537
710.672	0.0161092
710.750	0.0161448
710.828	0.0160566
710.906	0.0161462
710.984	0.0161336
711.062	0.0161566
711.140	0.0162571
711.218	0.0160393
711.297	0.0161346
711.375	0.0161082
711.453	0.0161484
711.531	0.0160428
711.609	0.0160462
711.687	0.0161594
711.765	0.0161300
711.843	0.0160854
711.922	0.0161461
712.000	0.0161903
712.078	0.0161058
712.156	0.0160902
712.234	0.0160664
712.312	0.0160924
712.390	0.0159566
712.468	0.0161534
712.547	0.0161736
712.625	0.0160057
712.703	0.0160006
712.781	0.0161530
712.859	0.0162972
712.937	0.0162728
713.015	0.0160636
713.093	0.0161866
713.172	0.0160427
713.250	0.0161805
713.328	0.0162311
713.406	0.0163093
713.484	0.0163109
713.562	0.0161031
713.640	0.0161639
713.718	0.0162418
713.797	0.0162653
713.875	0.0161523
713.953	0.0161256
714.031	0.0161075
714.109	0.0163281
714.187	0.0161607
714.265	0.0161064
714.343	0.0161281
714.422	0.0160424
714.500	0.0161653
714.578	0.0161661
714.656	0.0162897
714.734	0.0160662
714.812	0.0161565
714.890	0.0161078
714.968	0.0161940
715.047	0.0161011
715.125	0.0161330
715.203	0.0161552
715.281	0.0160736
715.359	0.0159887
715.437	0.0161832
715.515	0.0160214
715.593	0.0159384
715.672	0.0160519
715.750	0.0162283
715.828	0.0161434
715.906	0.0161849
715.984	0.0160735
716.062	0.0161317
716.140	0.0160450
716.218	0.0161423
716.297	0.0161317
716.375	0.0161478
716.453	0.0161124
716.531	0.0160057
716.609	0.0161635
716.687	0.0161429
716.765	0.0162396
716.843	0.0161077
716.922	0.0160011
717.000	0.0162415
717.078	0.0161062
717.156	0.0160348
717.234	0.0161016
717.312	0.0160181
717.390	0.0161291
717.468	0.0160996
717.547	0.0161111
717.625	0.0161689
717.703	0.0161427
717.781	0.0160630
717.859	0.0161313
717.937	0.0160955
718.015	0.0162342
718.093	0.0162022
718.172	0.0161750
718.250	0.0160923
718.328	0.0161378
718.406	0.0159566
718.484	0.0160962
718.562	0.0161018
718.640	0.0160091
718.718	0.0161117
718.797	0.0161053
718.875	0.0160149
718.953	0.0160435
719.031	0.0159987
719.109	0.0161585
719.187	0.0160935
719.265	0.0161588
719.343	0.0160600
719.422	0.0160074
719.500	0.0162204
719.578	0.0161594
719.656	0.0160524
719.734	0.0160036
719.812	0.0161842
719.890	0.0160798
719.968	0.0161425
720.047	0.0160857
720.125	0.0160803
720.203	0.0160085
720.281	0.0161550
720.359	0.0161561
720.437	0.0161843
720.515	0.0160503
720.593	0.0160565
720.672	0.0162073
720.750	0.0159801
720.828	0.0159700
720.906	0.0161903
720.984	0.0161810
721.062	0.0161207
721.140	0.0161543
721.218	0.0160827
721.297	0.0161102
721.375	0.0161337
721.453	0.0160770
721.531	0.0160988
721.609	0.0161145
721.687	0.0160072
721.765	0.0160586
721.843	0.0161148
721.922	0.0159857
722.000	0.0160918
722.078	0.0161730
722.156	0.0160820
722.234	0.0161732
722.312	0.0161554
722.390	0.0161116
722.468	0.0160327
722.547	0.0161057
722.625	0.0160932
722.703	0.0161358
722.781	0.0161612
722.859	0.0162917
722.937	0.0160736
723.015	0.0159621
723.093	0.0161102
723.172	0.0162199
723.250	0.0160774
723.328	0.0161147
723.406	0.0161303
723.484	0.0161760
723.562	0.0160542
723.640	0.0161922
723.718	0.0161391
723.797	0.0161885
723.875	0.0161483
723.953	0.0162761
724.031	0.0162508
724.109	0.0162572
724.187	0.0161142
724.265	0.0161939
724.343	0.0161361
724.422	0.0160487
724.500	0.0162633
724.578	0.0162424
724.656	0.0161030
724.734	0.0161270
724.812	0.0162678
724.890	0.0162389
724.968	0.0161864
725.047	0.0161520
725.125	0.0162264
725.203	0.0162497
725.281	0.0161942
725.359	0.0163413
725.437	0.0162223
725.515	0.0161126
725.593	0.0161949
725.672	0.0162402
725.750	0.0161702
725.828	0.0161989
725.906	0.0161633
725.984	0.0160999
726.062	0.0162097
726.140	0.0162916
726.218	0.0162154
726.297	0.0161249
726.375	0.0161827
726.453	0.0161728
726.531	0.0161169
726.609	0.0162173
726.687	0.0160769
726.765	0.0162019
726.843	0.0160672
726.922	0.0160793
727.000	0.0160910
727.078	0.0161961
727.156	0.0161734
727.234	0.0161884
727.312	0.0161899
727.390	0.0160727
727.468	0.0161185
727.547	0.0161128
727.625	0.0160722
727.703	0.0161547
727.781	0.0161832
727.859	0.0162359
727.937	0.0161214
728.015	0.0161778
728.093	0.0161288
728.172	0.0160658
728.250	0.0162044
728.328	0.0161665
728.406	0.0161283
728.484	0.0160505
728.562	0.0161581
728.640	0.0161640
728.718	0.0160835
728.797	0.0160049
728.875	0.0162263
728.953	0.0162084
729.031	0.0161658
729.109	0.0160819
729.187	0.0161588
729.265	0.0161991
729.343	0.0160108
729.422	0.0159167
729.500	0.0160394
729.578	0.0161082
729.656	0.0160299
729.734	0.0161632
729.812	0.0160428
729.890	0.0160606
729.968	0.0161008
730.047	0.0159901
730.125	0.0159767
730.203	0.0161490
730.281	0.0160850
730.359	0.0160485
730.437	0.0159653
730.515	0.0160556
730.593	0.0161749
730.672	0.0160895
730.750	0.0159979
730.828	0.0160806
730.906	0.0160822
730.984	0.0160349
731.062	0.0161765
731.140	0.0160254
731.218	0.0160725
731.297	0.0160379
731.375	0.0161329
731.453	0.0160069
731.531	0.0161122
731.609	0.0160560
731.687	0.0160099
731.765	0.0160323
731.843	0.0159655
731.922	0.0160616
732.000	0.0159505
732.078	0.0159848
732.156	0.0160171
732.234	0.0160735
732.312	0.0160938
732.390	0.0160493
732.468	0.0160210
732.547	0.0159536
732.625	0.0160267
732.703	0.0159651
732.781	0.0159804
732.859	0.0161097
732.937	0.0160195
733.015	0.0161476
733.093	0.0161385
733.172	0.0160272
733.250	0.0160555
733.328	0.0160544
733.406	0.0159486
733.484	0.0161860
733.562	0.0161514
733.640	0.0160658
733.718	0.0161293
733.797	0.0160875
733.875	0.0159512
733.953	0.0159904
734.031	0.0160423
734.109	0.0159962
734.187	0.0161662
734.265	0.0161599
734.343	0.0160140
734.422	0.0161105
734.500	0.0161513
734.578	0.0160927
734.656	0.0161418
734.734	0.0161713
734.812	0.0160069
734.890	0.0160796
734.968	0.0160690
735.047	0.0161621
735.125	0.0161367
735.203	0.0161428
735.281	0.0161134
735.359	0.0161456
735.437	0.0162319
735.515	0.0160300
735.593	0.0161056
735.672	0.0162341
735.750	0.0160933
735.828	0.0159914
735.906	0.0160419
735.984	0.0161031
736.062	0.0161198
736.140	0.0162632
736.218	0.0161320
736.297	0.0161661
736.375	0.0160377
736.453	0.0160378
736.531	0.0161531
736.609	0.0160007
736.687	0.0160311
736.765	0.0160606
736.843	0.0160683
736.922	0.0160722
737.000	0.0161794
737.078	0.0162009
737.156	0.0161340
737.234	0.0161038
737.312	0.0162818
737.390	0.0164055
737.468	0.0162558
737.547	0.0161642
737.625	0.0163618
737.703	0.0163885
737.781	0.0164249
737.859	0.0164377
737.937	0.0163403
738.015	0.0161099
738.093	0.0160191
738.172	0.0159111
738.250	0.0157346
738.328	0.0156949
738.406	0.0156593
738.484	0.0152937
738.562	0.0153062
738.640	0.0153928
738.718	0.0154713
738.797	0.0156146
738.875	0.0158908
738.953	0.0162686
739.031	0.0165813
739.109	0.0167590
739.187	0.0172816
739.265	0.0174820
739.343	0.0177106
739.422	0.0178187
739.500	0.0177844
739.578	0.0176746
739.656	0.0174203
739.734	0.0170205
739.812	0.0162313
739.890	0.0159341
739.968	0.0151878
740.047	0.0146049
740.125	0.0141431
740.203	0.0138777
740.281	0.0137935
740.359	0.0140926
740.437	0.0141423
740.515	0.0144168
740.593	0.0149644
740.672	0.0153750
740.750	0.0159005
740.828	0.0164176
740.906	0.0169427
740.984	0.0174828
741.062	0.0179485
741.140	0.0181442
741.218	0.0184321
741.297	0.0184101
741.375	0.0182029
741.453	0.0181272
741.531	0.0174712
741.609	0.0168933
741.687	0.0162125
741.765	0.0155128
741.843	0.0147849
741.922	0.0143494
742.000	0.0137786
742.078	0.0135545
742.156	0.0135844
742.234	0.0139494
742.312	0.0143595
742.390	0.0150231
742.468	0.0155908
742.547	0.0162012
742.625	0.0168723
742.703	0.0175801
742.781	0.0181443
742.859	0.0183022
742.937	0.0185169
743.015	0.0187036
743.093	0.0183583
743.172	0.0180199
743.250	0.0174859
743.328	0.0167455
743.406	0.0159768
743.484	0.0151287
743.562	0.0144586
743.640	0.0138515
743.718	0.0133019
743.797	0.0131458
743.875	0.0131716
743.953	0.0132645
744.031	0.0134437
744.109	0.0137837
744.187	0.0143455
744.265	0.0149071
744.343	0.0154457
744.422	0.0159590
744.500	0.0164754
744.578	0.0169827
744.656	0.0174081
744.734	0.0179288
744.812	0.0181577
744.890	0.0183649
744.968	0.0186599
745.047	0.0189194
745.125	0.0189734
745.203	0.0188118
745.281	0.0187463
745.359	0.0183904
745.437	0.0179699
745.515	0.0174235
745.593	0.0167832
745.672	0.0162601
745.750	0.0159171
745.828	0.0153056
745.906	0.0150346
745.984	0.0148250
746.062	0.0143880
746.140	0.0143709
746.218	0.0141840
746.297	0.0141513
746.375	0.0142365
746.453	0.0144677
746.531	0.0142345
746.609	0.0145139
746.687	0.0147318
746.765	0.0147533
746.843	0.0150928
746.922	0.0153056
747.000	0.0156105
747.078	0.0157140
747.156	0.0160001
747.234	0.0161874
747.312	0.0165155
747.390	0.0166212
747.468	0.0165686
747.547	0.0167019
747.625	0.0167062
747.703	0.0167839
747.781	0.0167609
747.859	0.0170267
747.937	0.0170325
748.015	0.0169761
748.093	0.0169590
748.172	0.0169984
748.250	0.0170910
748.328	0.0171359
748.406	0.0171609
748.484	0.0171389
748.562	0.0169220
748.640	0.0171120
748.718	0.0171971
748.797	0.0171316
748.875	0.0170446
748.953	0.0169770
749.031	0.0168478
749.109	0.0165562
749.187	0.0162263
749.265	0.0159812
749.343	0.0156914
749.422	0.0154097
749.500	0.0150253
749.578	0.0148396
749.656	0.0145135
749.734	0.0143807
749.812	0.0142700
749.890	0.0140994
749.968	0.0141496
750.047	0.0144247
750.125	0.0145454
750.203	0.0146315
750.281	0.0147771
750.359	0.0151524
750.437	0.0154514
750.515	0.0157237
750.593	0.0162418
750.672	0.0166052
750.750	0.0170506
750.828	0.0172936
750.906	0.0175661
750.984	0.0175368
751.062	0.0178416
751.140	0.0177769
751.218	0.0174776
751.297	0.0174039
751.375	0.0172073
751.453	0.0169057
751.531	0.0165693
751.609	0.0161863
751.687	0.0158623
751.765	0.0156931
751.843	0.0153136
751.922	0.0150652
752.000	0.0151563
752.078	0.0149720
752.156	0.0150035
752.234	0.0151450
752.312	0.0151574
752.390	0.0154623
752.468	0.0156216
752.547	0.0160140
752.625	0.0165343
752.703	0.0168407
752.781	0.0171387
752.859	0.0175208
752.937	0.0175446
753.015	0.0174747
753.093	0.0175655
753.172	0.0174216
753.250	0.0174640
753.328	0.0172791
753.406	0.0169563
753.484	0.0167840
753.562	0.0166562
753.640	0.0163393
753.718	0.0161739
753.797	0.0159894
753.875	0.0158704
753.953	0.0156987
754.031	0.0155721
754.109	0.0155358
754.187	0.0153758
754.265	0.0153668
754.343	0.0154211
754.422	0.0154368
754.500	0.0155209
754.578	0.0157088
754.656	0.0158154
754.734	0.0157327
754.812	0.0155463
754.890	0.0156214
754.968	0.0154671
755.047	0.0153364
755.125	0.0152563
755.203	0.0150805
755.281	0.0151279
755.359	0.0151892
755.437	0.0153716
755.515	0.0154695
755.593	0.0156946
755.672	0.0158873
755.750	0.0159901
755.828	0.0161605
755.906	0.0162082
755.984	0.0161051
756.062	0.0163203
756.140	0.0164304
756.218	0.0165355
756.297	0.0166022
756.375	0.0167523
756.453	0.0167747
756.531	0.0168400
756.609	0.0167949
756.687	0.0167394
756.765	0.0166701
756.843	0.0164053
756.922	0.0164957
757.000	0.0162660
757.078	0.0160322
757.156	0.0159962
757.234	0.0161279
757.312	0.0161395
757.390	0.0162618
757.468	0.0163363
757.547	0.0163971
757.625	0.0165862
757.703	0.0165736
757.781	0.0165749
757.859	0.0166908
757.937	0.0167881
758.015	0.0168135
758.093	0.0169600
758.172	0.0168419
758.250	0.0169003
758.328	0.0166898
758.406	0.0165637
758.484	0.0164719
758.562	0.0159843
758.640	0.0160675
758.718	0.0158338
758.797	0.0156046
758.875	0.0153669
758.953	0.0152723
759.031	0.0153386
759.109	0.0150886
759.187	0.0150603
759.265	0.0151260
759.343	0.0149207
759.422	0.0150484
759.500	0.0150548
759.578	0.0150947
759.656	0.0153616
759.734	0.0155819
759.812	0.0155902
759.890	0.0157459
759.968	0.0159025
760.047	0.0160365
760.125	0.0161425
760.203	0.0161578
760.281	0.0161942
760.359	0.0162234
760.437	0.0161699
760.515	0.0162814
760.593	0.0163121
760.672	0.0161232
760.750	0.0160408
760.828	0.0161217
760.906	0.0161124
760.984	0.0160983
761.062	0.0161022
761.140	0.0161436
761.218	0.0159088
761.297	0.0158726
761.375	0.0158780
761.453	0.0159922
761.531	0.0160304
761.609	0.0161810
761.687	0.0161519
761.765	0.0163036
761.843	0.0162370
761.922	0.0164552
762.000	0.0165532
762.078	0.0164479
762.156	0.0164272
762.234	0.0163980
762.312	0.0164980
762.390	0.0164164
762.468	0.0162424
762.547	0.0163624
762.625	0.0162722
762.703	0.0164210
762.781	0.0164607
762.859	0.0163270
762.937	0.0165836
763.015	0.0166499
763.093	0.0166813
763.172	0.0167673
763.250	0.0168084
763.328	0.0168539
763.406	0.0170351
763.484	0.0167965
763.562	0.0167706
763.640	0.0167546
763.718	0.0166043
763.797	0.0162912
763.875	0.0161568
763.953	0.0160915
764.031	0.0157699
764.109	0.0156588
764.187	0.0155582
764.265	0.0155044
764.343	0.0153717
764.422	0.0152724
764.500	0.0152601
764.578	0.0153400
764.656	0.0152861
764.734	0.0152695
764.812	0.0153898
764.890	0.0155263
764.968	0.0155613
765.047	0.0156430
765.125	0.0157774
765.203	0.0158090
765.281	0.0157711
765.359	0.0158452
765.437	0.0157625
765.515	0.0158952
765.593	0.0158292
765.672	0.0160090
765.750	0.0158945
765.828	0.0159470
765.906	0.0160509
765.984	0.0160094
766.062	0.0159451
766.140	0.0160513
766.218	0.0160823
766.297	0.0161681
766.375	0.0162808
766.453	0.0162362
766.531	0.0163373
766.609	0.0164733
766.687	0.0165725
766.765	0.0165891
766.843	0.0167890
766.922	0.0167223
767.000	0.0167090
767.078	0.0168427
767.156	0.0168611
767.234	0.0166881
767.312	0.0167301
767.390	0.0164940
767.468	0.0165323
767.547	0.0164566
767.625	0.0165830
767.703	0.0164123
767.781	0.0162886
767.859	0.0162925
767.937	0.0163012
768.015	0.0163101
768.093	0.0160628
768.172	0.0160726
768.250	0.0159347
768.328	0.0159792
768.406	0.0160075
768.484	0.0158942
768.562	0.0157721
768.640	0.0157128
768.718	0.0155489
768.797	0.0154871
768.875	0.0155483
768.953	0.0155912
769.031	0.0154581
769.109	0.0154936
769.187	0.0154391
769.265	0.0152507
769.343	0.0154414
769.422	0.0155347
769.500	0.0155508
769.578	0.0156007
769.656	0.0157392
769.734	0.0158322
769.812	0.0158654
769.890	0.0160441
769.968	0.0158411
770.047	0.0160174
770.125	0.0160863
770.203	0.0161322
770.281	0.0162323
770.359	0.0160619
770.437	0.0161802
770.515	0.0161029
770.593	0.0160224
770.672	0.0159367
770.750	0.0158460
770.828	0.0158921
770.906	0.0159100
770.984	0.0159717
771.062	0.0158662
771.140	0.0159966
771.218	0.0161947
771.297	0.0163253
771.375	0.0162814
771.453	0.0163091
771.531	0.0163564
771.609	0.0163804
771.687	0.0165804
771.765	0.0167557
771.843	0.0169008
771.922	0.0169643
772.000	0.0169506
772.078	0.0171493
772.156	0.0170971
772.234	0.0170599
772.312	0.0170844
772.390	0.0171525
772.468	0.0171159
772.547	0.0169727
772.625	0.0170277
772.703	0.0168525
772.781	0.0166062
772.859	0.0164437
772.937	0.0165244
773.015	0.0163733
773.093	0.0161624
773.172	0.0159418
773.250	0.0157278
773.328	0.0156307
773.406	0.0154786
773.484	0.0152560
773.562	0.0151517
773.640	0.0151192
773.718	0.0152277
773.797	0.0151466
773.875	0.0152416
773.953	0.0154131
774.031	0.0154754
774.109	0.0154550
774.187	0.0155251
774.265	0.0158327
774.343	0.0158270
774.422	0.0161069
774.500	0.0160515
774.578	0.0162366
774.656	0.0162255
774.734	0.0163301
774.812	0.0164640
774.890	0.0166711
774.968	0.0167400
775.047	0.0166861
775.125	0.0165338
775.203	0.0166170
775.281	0.0164825
775.359	0.0163171
775.437	0.0163717
775.515	0.0161816
775.593	0.0161217
775.672	0.0160745
775.750	0.0159800
775.828	0.0159005
775.906	0.0159543
775.984	0.0158929
776.062	0.0160371
776.140	0.0159848
776.218	0.0160718
776.297	0.0159586
776.375	0.0159442
776.453	0.0160477
776.531	0.0160805
776.609	0.0162875
776.687	0.0160047
776.765	0.0160630
776.843	0.0159907
776.922	0.0160705
777.000	0.0159705
777.078	0.0159723
777.156	0.0159854
777.234	0.0157880
777.312	0.0159126
777.390	0.0159832
777.468	0.0158775
777.547	0.0159139
777.625	0.0160499
777.703	0.0161080
777.781	0.0160461
777.859	0.0162444
777.937	0.0162558
778.015	0.0161758
778.093	0.0162489
778.172	0.0162417
778.250	0.0162436
778.328	0.0162417
778.406	0.0162360
778.484	0.0161450
778.562	0.0161087
778.640	0.0160207
778.718	0.0159830
778.797	0.0159891
778.875	0.0159920
778.953	0.0158558
779.031	0.0159148
779.109	0.0158864
779.187	0.0160072
779.265	0.0160823
779.343	0.0160863
779.422	0.0160554
779.500	0.0162148
779.578	0.0164833
779.656	0.0164510
779.734	0.0164966
779.812	0.0165086
779.890	0.0166335
779.968	0.0167452
780.047	0.0167900
780.125	0.0168073
780.203	0.0167741
780.281	0.0166604
780.359	0.0166958
780.437	0.0167542
780.515	0.0166129
780.593	0.0165040
780.672	0.0162730
780.750	0.0161493
780.828	0.0162291
780.906	0.0161109
780.984	0.0157816
781.062	0.0158220
781.140	0.0157550
781.218	0.0156593
781.297	0.0156655
781.375	0.0157267
781.453	0.0157829
781.531	0.0156762
781.609	0.0157211
781.687	0.0156681
781.765	0.0156515
781.843	0.0156876
781.922	0.0158506
782.000	0.0160015
782.078	0.0159163
782.156	0.0160923
782.234	0.0161036
782.312	0.0161001
782.390	0.0161763
782.468	0.0162983
782.547	0.0163934
782.625	0.0161657
782.703	0.0162309
782.781	0.0161448
782.859	0.0162529
782.937	0.0162775
783.015	0.0163342
783.093	0.0163097
783.172	0.0162507
783.250	0.0161728
783.328	0.0161713
783.406	0.0161221
783.484	0.0162321
783.562	0.0159372
783.640	0.0160119
783.718	0.0159319
783.797	0.0157615
783.875	0.0159315
783.953	0.0158005
784.031	0.0158627
784.109	0.0157841
784.187	0.0157993
784.265	0.0159010
784.343	0.0159866
784.422	0.0161166
784.500	0.0161407
784.578	0.0161703
784.656	0.0162343
784.734	0.0163804
784.812	0.0165852
784.890	0.0166610
784.968	0.0165590
785.047	0.0167750
785.125	0.0166763
785.203	0.0166027
785.281	0.0167231
785.359	0.0166846
785.437	0.0165636
785.515	0.0165884
785.593	0.0164111
785.672	0.0163543
785.750	0.0162554
785.828	0.0160109
785.906	0.0159151
785.984	0.0156796
786.062	0.0158450
786.140	0.0156594
786.218	0.0155737
786.297	0.0154871
786.375	0.0155782
786.453	0.0155093
786.531	0.0153161
786.609	0.0154642
786.687	0.0155615
786.765	0.0156767
786.843	0.0156275
786.922	0.0157881
787.000	0.0158047
787.078	0.0157887
787.156	0.0160774
787.234	0.0160471
787.312	0.0159708
787.390	0.0160780
787.468	0.0161281
787.547	0.0161926
787.625	0.0161916
787.703	0.0162334
787.781	0.0160651
787.859	0.0161141
787.937	0.0161754
788.015	0.0161694
788.093	0.0163040
788.172	0.0162167
788.250	0.0163508
788.328	0.0163754
788.406	0.0161819
788.484	0.0161533
788.562	0.0162349
788.640	0.0162969
788.718	0.0162103
788.797	0.0162434
788.875	0.0161475
788.953	0.0161200
789.031	0.0159960
789.109	0.0160484
789.187	0.0161513
789.265	0.0160766
789.343	0.0159200
789.422	0.0159671
789.500	0.0160024
789.578	0.0159013
789.656	0.0159809
789.734	0.0159587
789.812	0.0161200
789.890	0.0160226
789.968	0.0160936
790.047	0.0162011
790.125	0.0162663
790.203	0.0163220
790.281	0.0162717
790.359	0.0164133
790.437	0.0163979
790.515	0.0165225
790.593	0.0165045
790.672	0.0163377
790.750	0.0163497
790.828	0.0162765
790.906	0.0161668
790.984	0.0161760
791.062	0.0161870
791.140	0.0161919
791.218	0.0160452
791.297	0.0159933
791.375	0.0158936
791.453	0.0158126
791.531	0.0158479
791.609	0.0158445
791.687	0.0158626
791.765	0.0158393
791.843	0.0156992
791.922	0.0157720
792.000	0.0158865
792.078	0.0157961
792.156	0.0159267
792.234	0.0161063
792.312	0.0161544
792.390	0.0161214
792.468	0.0161005
792.547	0.0161080
792.625	0.0161443
792.703	0.0160727
792.781	0.0160467
792.859	0.0159903
792.937	0.0161400
793.015	0.0161018
793.093	0.0160305
793.172	0.0160535
793.250	0.0160466
793.328	0.0160728
793.406	0.0160022
793.484	0.0160152
793.562	0.0160033
793.640	0.0159658
793.718	0.0162492
793.797	0.0160736
793.875	0.0160899
793.953	0.0161407
794.031	0.0161748
794.109	0.0161454
794.187	0.0163587
794.265	0.0162270
794.343	0.0162251
794.422	0.0162301
794.500	0.0161201
794.578	0.0160292
794.656	0.0160597
794.734	0.0162371
794.812	0.0161333
794.890	0.0161037
794.968	0.0162197
795.047	0.0161117
795.125	0.0161781
795.203	0.0161578
795.281	0.0162280
795.359	0.0163100
795.437	0.0163107
795.515	0.0162105
795.593	0.0163081
795.672	0.0162323
795.750	0.0162987
795.828	0.0164507
795.906	0.0163280
795.984	0.0163035
796.062	0.0164163
796.140	0.0163053
796.218	0.0163246
796.297	0.0162410
796.375	0.0161549
796.453	0.0163031
796.531	0.0164079
796.609	0.0162436
796.687	0.0161991
796.765	0.0160738
796.843	0.0160172
796.922	0.0162189
797.000	0.0161080
797.078	0.0159833
797.156	0.0158617
797.234	0.0159360
797.312	0.0159327
797.390	0.0158082
797.468	0.0159563
797.547	0.0159076
797.625	0.0159560
797.703	0.0158704
797.781	0.0157906
797.859	0.0159579
797.937	0.0159054
798.015	0.0159480
798.093	0.0159364
798.172	0.0159570
798.250	0.0160878
798.328	0.0161819
798.406	0.0159735
798.484	0.0160382
798.562	0.0160190
798.640	0.0160446
798.718	0.0161198
798.797	0.0160368
798.875	0.0161263
798.953	0.0161453
799.031	0.0160919
799.109	0.0161076
799.187	0.0162276
799.265	0.0162091
799.343	0.0161295
799.422	0.0162260
799.500	0.0161775
799.578	0.0162651
799.656	0.0161847
799.734	0.0161741
799.812	0.0162263
799.890	0.0163190
799.968	0.0162248
800.047	0.0161732
800.125	0.0161211
800.203	0.0161934
800.281	0.0162492
800.359	0.0161517
800.437	0.0163201
800.515	0.0163498
800.593	0.0161671
800.672	0.0160977
800.750	0.0161585
800.828	0.0162855
800.906	0.0163008
800.984	0.0161472
801.062	0.0162979
801.140	0.0161832
801.218	0.0162003
801.297	0.0163243
801.375	0.0162288
801.453	0.0163210
801.531	0.0161176
801.609	0.0161968
801.687	0.0163931
801.765	0.0162355
801.843	0.0162021
801.922	0.0161131
802.000	0.0161969
802.078	0.0161411
802.156	0.0161912
802.234	0.0160129
802.312	0.0160632
802.390	0.0161050
802.468	0.0161163
802.547	0.0161598
802.625	0.0161327
802.703	0.0161211
802.781	0.0161913
802.859	0.0161875
802.937	0.0161308
803.015	0.0161391
803.093	0.0161566
803.172	0.0161508
803.250	0.0162387
803.328	0.0162489
803.406	0.0160270
803.484	0.0159091
803.562	0.0161036
803.640	0.0160539
803.718	0.0160505
803.797	0.0160857
803.875	0.0160275
803.953	0.0160268
804.031	0.0161723
804.109	0.0160638
804.187	0.0160722
804.265	0.0162019
804.343	0.0161088
804.422	0.0162212
804.500	0.0161176
804.578	0.0162880
804.656	0.0162855
804.734	0.0163234
804.812	0.0163499
804.890	0.0162884
804.968	0.0163580
805.047	0.0165121
805.125	0.0162338
805.203	0.0163859
805.281	0.0161849
805.359	0.0163196
805.437	0.0162528
805.515	0.0162398
805.593	0.0161182
805.672	0.0160775
805.750	0.0159129
805.828	0.0159140
805.906	0.0159846
805.984	0.0157800
806.062	0.0158566
806.140	0.0158566
806.218	0.0158093
806.297	0.0158906
806.375	0.0159800
806.453	0.0158684
806.531	0.0158634
806.609	0.0159689
806.687	0.0159241
806.765	0.0160451
806.843	0.0160991
806.922	0.0161325
807.000	0.0161556
807.078	0.0159750
807.156	0.0160886
807.234	0.0161397
807.312	0.0160607
807.390	0.0160318
807.468	0.0161127
807.547	0.0160950
807.625	0.0158997
807.703	0.0159089
807.781	0.0158713
807.859	0.0161105
807.937	0.0159295
808.015	0.0160042
808.093	0.0160088
808.172	0.0160548
808.250	0.0159367
808.328	0.0160062
808.406	0.0159657
808.484	0.0160202
808.562	0.0161426
808.640	0.0160262
808.718	0.0160699
808.797	0.0160976
808.875	0.0162247
808.953	0.0160264
809.031	0.0161989
809.109	0.0162376
809.187	0.0160900
809.265	0.0163027
809.343	0.0161531
809.422	0.0161157
809.500	0.0161444
809.578	0.0161404
809.656	0.0161845
809.734	0.0161001
809.812	0.0160881
809.890	0.0161144
809.968	0.0161534
810.047	0.0161452
810.125	0.0161294
810.203	0.0161253
810.281	0.0162284
810.359	0.0161568
810.437	0.0160851
810.515	0.0160675
810.593	0.0163181
810.672	0.0162138
810.750	0.0161867
810.828	0.0162231
810.906	0.0163129
810.984	0.0161895
811.062	0.0160551
811.140	0.0160941
811.218	0.0160938
811.297	0.0160762
811.375	0.0161880
811.453	0.0161550
811.531	0.0162430
811.609	0.0161813
811.687	0.0161743
811.765	0.0161659
811.843	0.0161036
811.922	0.0163049
812.000	0.0163292
812.078	0.0161664
812.156	0.0162941
812.234	0.0161993
812.312	0.0161406
812.390	0.0162625
812.468	0.0162309
812.547	0.0162849
812.625	0.0161424
812.703	0.0162199
812.781	0.0162068
812.859	0.0161759
812.937	0.0161394
813.015	0.0160650
813.093	0.0161422
813.172	0.0161282
813.250	0.0161323
813.328	0.0160223
813.406	0.0158801
813.484	0.0159315
813.562	0.0160178
813.640	0.0160629
813.718	0.0160949
813.797	0.0160767
813.875	0.0160240
813.953	0.0160007
814.031	0.0160546
814.109	0.0160390
814.187	0.0160067
814.265	0.0161011
814.343	0.0160392
814.422	0.0160301
814.500	0.0160205
814.578	0.0160103
814.656	0.0160069
814.734	0.0160767
814.812	0.0159589
814.890	0.0159406
814.968	0.0159766
815.047	0.0160859
815.125	0.0161082
815.203	0.0160786
815.281	0.0161452
815.359	0.0162561
815.437	0.0161809
815.515	0.0162659
815.593	0.0162644
815.672	0.0164344
815.750	0.0163684
815.828	0.0162912
815.906	0.0163703
815.984	0.0164083
816.062	0.0162078
816.140	0.0162965
816.218	0.0163741
816.297	0.0162447
816.375	0.0162413
816.453	0.0162800
816.531	0.0162132
816.609	0.0161204
816.687	0.0161880
816.765	0.0161056
816.843	0.0161889
816.922	0.0161566
817.000	0.0161569
817.078	0.0159467
817.156	0.0161152
817.234	0.0160808
817.312	0.0160857
817.390	0.0161277
817.468	0.0160889
817.547	0.0159923
817.625	0.0160600
817.703	0.0161102
817.781	0.0161165
817.859	0.0160536
817.937	0.0160597
818.015	0.0160791
818.093	0.0160857
818.172	0.0160568
818.250	0.0160190
818.328	0.0159770
818.406	0.0162141
818.484	0.0160819
818.562	0.0160471
818.640	0.0161131
818.718	0.0161517
818.797	0.0159825
818.875	0.0160945
818.953	0.0160260
819.031	0.0160038
819.109	0.0160798
819.187	0.0159201
819.265	0.0160775
819.343	0.0161875
819.422	0.0161242
819.500	0.0162654
819.578	0.0160658
819.656	0.0162115
819.734	0.0161533
819.812	0.0162221
819.890	0.0163293
819.968	0.0162865
820.047	0.0161958
820.125	0.0162840
820.203	0.0160916
820.281	0.0162187
820.359	0.0162419
820.437	0.0162677
820.515	0.0162817
820.593	0.0161706
820.672	0.0162894
820.750	0.0162959
820.828	0.0160417
820.906	0.0163488
820.984	0.0162457
821.062	0.0160908
821.140	0.0161661
821.218	0.0162294
821.297	0.0162399
821.375	0.0162527
821.453	0.0162132
821.531	0.0161820
821.609	0.0162584
821.687	0.0163626
821.765	0.0162955
821.843	0.0162435
821.922	0.0161935
822.000	0.0161667
822.078	0.0161436
822.156	0.0162062
822.234	0.0161698
822.312	0.0160710
822.390	0.0160491
822.468	0.0160174
822.547	0.0159319
822.625	0.0159994
822.703	0.0160944
822.781	0.0160846
822.859	0.0158919
822.937	0.0159523
823.015	0.0159977
823.093	0.0160172
823.172	0.0159847
823.250	0.0159738
823.328	0.0160001
823.406	0.0162975
823.484	0.0160099
823.562	0.0161000
823.640	0.0160802
823.718	0.0160503
823.797	0.0161044
823.875	0.0161478
823.953	0.0161858
824.031	0.0161116
824.109	0.0162324
824.187	0.0161853
824.265	0.0161825
824.343	0.0161515
824.422	0.0162319
824.500	0.0162168
824.578	0.0163086
824.656	0.0162674
824.734	0.0162399
824.812	0.0161288
824.890	0.0162460
824.968	0.0161717
825.047	0.0161835
825.125	0.0161852
825.203	0.0161277
825.281	0.0160739
825.359	0.0161342
825.437	0.0161880
825.515	0.0162469
825.593	0.0161683
825.672	0.0160754
825.750	0.0163220
825.828	0.0161230
825.906	0.0160843
825.984	0.0160286
826.062	0.0160833
826.140	0.0162407
826.218	0.0160764
826.297	0.0161900
826.375	0.0161375
826.453	0.0162770
826.531	0.0162394
826.609	0.0162361
826.687	0.0160213
826.765	0.0161967
826.843	0.0162215
826.922	0.0160530
827.000	0.0161916
827.078	0.0161446
827.156	0.0163071
827.234	0.0160769
827.312	0.0162819
827.390	0.0162460
827.468	0.0163662
827.547	0.0161073
827.625	0.0161391
827.703	0.0162901
827.781	0.0161434
827.859	0.0161259
827.937	0.0161308
828.015	0.0163599
828.093	0.0162866
828.172	0.0161306
828.250	0.0162593
828.328	0.0162557
828.406	0.0161289
828.484	0.0160855
828.562	0.0161361
828.640	0.0160260
828.718	0.0159988
828.797	0.0160016
828.875	0.0159968
828.953	0.0160011
829.031	0.0159443
829.109	0.0160103
829.187	0.0160906
829.265	0.0159554
829.343	0.0160387
829.422	0.0160262
829.500	0.0160735
829.578	0.0161945
829.656	0.0161600
829.734	0.0161095
829.812	0.0160875
829.890	0.0162168
829.968	0.0161765
830.047	0.0162331
830.125	0.0163440
830.203	0.0162567
830.281	0.0161977
830.359	0.0162047
830.437	0.0161240
830.515	0.0161353
830.593	0.0161869
830.672	0.0162370
830.750	0.0162929
830.828	0.0161893
830.906	0.0161635
830.984	0.0161007
831.062	0.0161275
831.140	0.0161575
831.218	0.0161553
831.297	0.0161987
831.375	0.0161459
831.453	0.0161945
831.531	0.0162690
831.609	0.0161934
831.687	0.0162588
831.765	0.0161939
831.843	0.0162900
831.922	0.0162459
832.000	0.0162942
832.078	0.0162299
832.156	0.0162197
832.234	0.0161481
832.312	0.0161245
832.390	0.0160739
832.468	0.0160804
832.547	0.0160938
832.625	0.0159666
832.703	0.0159023
832.781	0.0161945
832.859	0.0160785
832.937	0.0159986
833.015	0.0160556
833.093	0.0160030
833.172	0.0160545
833.250	0.0159803
833.328	0.0159726
833.406	0.0160318
833.484	0.0160522
833.562	0.0161311
833.640	0.0161346
833.718	0.0162045
833.797	0.0159779
833.875	0.0160346
833.953	0.0161279
834.031	0.0161660
834.109	0.0160284
834.187	0.0161583
834.265	0.0160633
834.343	0.0161008
834.422	0.0160674
834.500	0.0160926
834.578	0.0161616
834.656	0.0161508
834.734	0.0160706
834.812	0.0161658
834.890	0.0162727
834.968	0.0159943
835.047	0.0161302
835.125	0.0160065
835.203	0.0161419
835.281	0.0160767
835.359	0.0161802
835.437	0.0160218
835.515	0.0160910
835.593	0.0160073
835.672	0.0161614
835.750	0.0162248
835.828	0.0162068
835.906	0.0162501
835.984	0.0162019
836.062	0.0164220
836.140	0.0163387
836.218	0.0164099
836.297	0.0164838
836.375	0.0163630
836.453	0.0161537
836.531	0.0161991
836.609	0.0162375
836.687	0.0160693
836.765	0.0160603
836.843	0.0161137
836.922	0.0159664
837.000	0.0160480
837.078	0.0160384
837.156	0.0159420
837.234	0.0160501
837.312	0.0158392
837.390	0.0161543
837.468	0.0160659
837.547	0.0161974
837.625	0.0161546
837.703	0.0161164
837.781	0.0162257
837.859	0.0162387
837.937	0.0162011
838.015	0.0161110
838.093	0.0160109
838.172	0.0161931
838.250	0.0161588
838.328	0.0160464
838.406	0.0160936
838.484	0.0159647
838.562	0.0160224
838.640	0.0161130
838.718	0.0159383
838.797	0.0161683
838.875	0.0162106
838.953	0.0162170
839.031	0.0160738
839.109	0.0161287
839.187	0.0162527
839.265	0.0161959
839.343	0.0162117
839.422	0.0161086
839.500	0.0161945
839.578	0.0161640
839.656	0.0162087
839.734	0.0162431
839.812	0.0160886
839.890	0.0161169
839.968	0.0160205
840.047	0.0161469
840.125	0.0160040
840.203	0.0162244
840.281	0.0160344
840.359	0.0160266
840.437	0.0160574
840.515	0.0160800
840.593	0.0159111
840.672	0.0159728
840.750	0.0159470
840.828	0.0159361
840.906	0.0160720
840.984	0.0159906
841.062	0.0160637
841.140	0.0163113
841.218	0.0163447
841.297	0.0163593
841.375	0.0161666
841.453	0.0163448
841.531	0.0164212
841.609	0.0163448
841.687	0.0163790
841.765	0.0162979
841.843	0.0163831
841.922	0.0163422
842.000	0.0162610
842.078	0.0162551
842.156	0.0162723
842.234	0.0163728
842.312	0.0161063
842.390	0.0160221
842.468	0.0162009
842.547	0.0160825
842.625	0.0161858
842.703	0.0161636
842.781	0.0160015
842.859	0.0161384
842.937	0.0161255
843.015	0.0161116
843.093	0.0162165
843.172	0.0161292
843.250	0.0160984
843.328	0.0160231
843.406	0.0162974
843.484	0.0162872
843.562	0.0162020
843.640	0.0159836
843.718	0.0161402
843.797	0.0161838
843.875	0.0161091
843.953	0.0161756
844.031	0.0162138
844.109	0.0161224
844.187	0.0161858
844.265	0.0161227
844.343	0.0161262
844.422	0.0160907
844.500	0.0161485
844.578	0.0161545
844.656	0.0160738
844.734	0.0163217
844.812	0.0161814
844.890	0.0163553
844.968	0.0162463
845.047	0.0163406
845.125	0.0162785
845.203	0.0164324
845.281	0.0163155
845.359	0.0163120
845.437	0.0163116
845.515	0.0162847
845.593	0.0162278
845.672	0.0162106
845.750	0.0163374
845.828	0.0162852
845.906	0.0161080
845.984	0.0161291
846.062	0.0162687
846.140	0.0160786
846.218	0.0159044
846.297	0.0160021
846.375	0.0160712
846.453	0.0159314
846.531	0.0160783
846.609	0.0161323
846.687	0.0160223
846.765	0.0160643
846.843	0.0160416
846.922	0.0160903
847.000	0.0161732
847.078	0.0160209
847.156	0.0159927
847.234	0.0161228
847.312	0.0161946
847.390	0.0162358
847.468	0.0162256
847.547	0.0161968
847.625	0.0162207
847.703	0.0162280
847.781	0.0163135
847.859	0.0162831
847.937	0.0162467
848.015	0.0161755
848.093	0.0162896
848.172	0.0163457
848.250	0.0163342
848.328	0.0163420
848.406	0.0163914
848.484	0.0163003
848.562	0.0162409
848.640	0.0162399
848.718	0.0162826
848.797	0.0161209
848.875	0.0163033
848.953	0.0161141
849.031	0.0162091
849.109	0.0162736
849.187	0.0162096
849.265	0.0162203
849.343	0.0162299
849.422	0.0161057
849.500	0.0160442
849.578	0.0162614
849.656	0.0161029
849.734	0.0160136
849.812	0.0161654
849.890	0.0160178
849.968	0.0160330
850.047	0.0160479
850.125	0.0161048
850.203	0.0160646
850.281	0.0160565
850.359	0.0160498
850.437	0.0160784
850.515	0.0161428
850.593	0.0161430
850.672	0.0160859
850.750	0.0162628
850.828	0.0162054
850.906	0.0160899
850.984	0.0160866
851.062	0.0162407
851.140	0.0163626
851.218	0.0162147
851.297	0.0161439
851.375	0.0162336
851.453	0.0161383
851.531	0.0161406
851.609	0.0160809
851.687	0.0160378
851.765	0.0161288
851.843	0.0160310
851.922	0.0160931
852.000	0.0161466
852.078	0.0159494
852.156	0.0157751
852.234	0.0159776
852.312	0.0160854
852.390	0.0160879
852.468	0.0162036
852.547	0.0160406
852.625	0.0160419
852.703	0.0160893
852.781	0.0162585
852.859	0.0162465
852.937	0.0163686
853.015	0.0162366
853.093	0.0162238
853.172	0.0162267
853.250	0.0161263
853.328	0.0162842
853.406	0.0162434
853.484	0.0162814
853.562	0.0162955
853.640	0.0164081
853.718	0.0163507
853.797	0.0163057
853.875	0.0163631
853.953	0.0161949
854.031	0.0162230
854.109	0.0163126
854.187	0.0162019
854.265	0.0162277
854.343	0.0161494
854.422	0.0161783
854.500	0.0161449
854.578	0.0163032
854.656	0.0161835
854.734	0.0161581
854.812	0.0161697
854.890	0.0161436
854.968	0.0161683
855.047	0.0160491
855.125	0.0161086
855.203	0.0160039
855.281	0.0158914
855.359	0.0159952
855.437	0.0160053
855.515	0.0160534
855.593	0.0160049
855.672	0.0160085
855.750	0.0159599
855.828	0.0159595
855.906	0.0158219
855.984	0.0157970
856.062	0.0158972
856.140	0.0158643
856.218	0.0158453
856.297	0.0160013
856.375	0.0159725
856.453	0.0160355
856.531	0.0161269
856.609	0.0162323
856.687	0.0162158
856.765	0.0161239
856.843	0.0161116
856.922	0.0161936
857.000	0.0162659
857.078	0.0164031
857.156	0.0163251
857.234	0.0163062
857.312	0.0163007
857.390	0.0163181
857.468	0.0162807
857.547	0.0160946
857.625	0.0161363
857.703	0.0162718
857.781	0.0161278
857.859	0.0162285
857.937	0.0161826
858.015	0.0162477
858.093	0.0161823
858.172	0.0161021
858.250	0.0160795
858.328	0.0161997
858.406	0.0161405
858.484	0.0161624
858.562	0.0161607
858.640	0.0161234
858.718	0.0162096
858.797	0.0162862
858.875	0.0161983
858.953	0.0161111
859.031	0.0161798
859.109	0.0162099
859.187	0.0161050
859.265	0.0161702
859.343	0.0160881
859.422	0.0162486
859.500	0.0160551
859.578	0.0160705
859.656	0.0161987
859.734	0.0161659
859.812	0.0160686
859.890	0.0161765
859.968	0.0161449
860.047	0.0160591
860.125	0.0161074
860.203	0.0161262
860.281	0.0162241
860.359	0.0161687
860.437	0.0161788
860.515	0.0160525
860.593	0.0161837
860.672	0.0161279
860.750	0.0160494
860.828	0.0161436
860.906	0.0162269
860.984	0.0160484
861.062	0.0162300
861.140	0.0161560
861.218	0.0161601
861.297	0.0160719
861.375	0.0162066
861.453	0.0161748
861.531	0.0162549
861.609	0.0159560
861.687	0.0161301
861.765	0.0160792
861.843	0.0160484
861.922	0.0161366
862.000	0.0160761
862.078	0.0159676
862.156	0.0160001
862.234	0.0160073
862.312	0.0160223
862.390	0.0161120
862.468	0.0159917
862.547	0.0160297
862.625	0.0161840
862.703	0.0161069
862.781	0.0161723
862.859	0.0162720
862.937	0.0163000
863.015	0.0161425
863.093	0.0163772
863.172	0.0162915
863.250	0.0163715
863.328	0.0164038
863.406	0.0163264
863.484	0.0161781
863.562	0.0163273
863.640	0.0164030
863.718	0.0162034
863.797	0.0162247
863.875	0.0163965
863.953	0.0161320
864.031	0.0161983
864.109	0.0162498
864.187	0.0162809
864.265	0.0162253
864.343	0.0163029
864.422	0.0162902
864.500	0.0163347
864.578	0.0163412
864.656	0.0162195
864.734	0.0164260
864.812	0.0162582
864.890	0.0161031
864.968	0.0160657
865.047	0.0160676
865.125	0.0160435
865.203	0.0160881
865.281	0.0159880
865.359	0.0158597
865.437	0.0159992
865.515	0.0159702
865.593	0.0158056
865.672	0.0158408
865.750	0.0159306
865.828	0.0159764
865.906	0.0158456
865.984	0.0159319
866.062	0.0158837
866.140	0.0159094
866.218	0.0159885
866.297	0.0158435
866.375	0.0160844
866.453	0.0161186
866.531	0.0160647
866.609	0.0160291
866.687	0.0160561
866.765	0.0161182
866.843	0.0162119
866.922	0.0161221
867.000	0.0161256
867.078	0.0160581
867.156	0.0161883
867.234	0.0162009
867.312	0.0162931
867.390	0.0162332
867.468	0.0161354
867.547	0.0161005
867.625	0.0160998
867.703	0.0162048
867.781	0.0162978
867.859	0.0162319
867.937	0.0162656
868.015	0.0163365
868.093	0.0163068
868.172	0.0163470
868.250	0.0163861
868.328	0.0161900
868.406	0.0162742
868.484	0.0163039
868.562	0.0162446
868.640	0.0163256
868.718	0.0163531
868.797	0.0163178
868.875	0.0163353
868.953	0.0162241
869.031	0.0162475
869.109	0.0162535
869.187	0.0162128
869.265	0.0162052
869.343	0.0162392
869.422	0.0162516
869.500	0.0161993
869.578	0.0160575
869.656	0.0161605
869.734	0.0161478
869.812	0.0160741
869.890	0.0160294
869.968	0.0161686
870.047	0.0159733
870.125	0.0159197
870.203	0.0159559
870.281	0.0160873
870.359	0.0160638
870.437	0.0160757
870.515	0.0160292
870.593	0.0160913
870.672	0.0160942
870.750	0.0159679
870.828	0.0159938
870.906	0.0159757
870.984	0.0159846
871.062	0.0161479
871.140	0.0160256
871.218	0.0160455
871.297	0.0160352
871.375	0.0160622
871.453	0.0160268
871.531	0.0161207
871.609	0.0159702
871.687	0.0158247
871.765	0.0158737
871.843	0.0160085
871.922	0.0159852
872.000	0.0160361
872.078	0.0161525
872.156	0.0160322
872.234	0.0162395
872.312	0.0161583
872.390	0.0161209
872.468	0.0160558
872.547	0.0162213
872.625	0.0162833
872.703	0.0163550
872.781	0.0163318
872.859	0.0162535
872.937	0.0161784
873.015	0.0161760
873.093	0.0162629
873.172	0.0163515
873.250	0.0163197
873.328	0.0162595
873.406	0.0162051
873.484	0.0161469
873.562	0.0162897
873.640	0.0164129
873.718	0.0162029
873.797	0.0161258
873.875	0.0161504
873.953	0.0160754
874.031	0.0160222
874.109	0.0161238
874.187	0.0160285
874.265	0.0160524
874.343	0.0161142
874.422	0.0161053
874.500	0.0161535
874.578	0.0160191
874.656	0.0159364
874.734	0.0160808
874.812	0.0160209
874.890	0.0161421
874.968	0.0161047
875.047	0.0160079
875.125	0.0160520
875.203	0.0160566
875.281	0.0159643
875.359	0.0159430
875.437	0.0161297
875.515	0.0160014
875.593	0.0160645
875.672	0.0161021
875.750	0.0161583
875.828	0.0161042
875.906	0.0162414
875.984	0.0163067
876.062	0.0161910
876.140	0.0162125
876.218	0.0163169
876.297	0.0163601
876.375	0.0160953
876.453	0.0163171
876.531	0.0162135
876.609	0.0161141
876.687	0.0162456
876.765	0.0162589
876.843	0.0161675
876.922	0.0161885
877.000	0.0161408
877.078	0.0161035
877.156	0.0161656
877.234	0.0162132
877.312	0.0161791
877.390	0.0161150
877.468	0.0160995
877.547	0.0161558
877.625	0.0160766
877.703	0.0160527
877.781	0.0159909
877.859	0.0159575
877.937	0.0160028
878.015	0.0160392
878.093	0.0161047
878.172	0.0160288
878.250	0.0160345
878.328	0.0160053
878.406	0.0159866
878.484	0.0161098
878.562	0.0159550
878.640	0.0160385
878.718	0.0160751
878.797	0.0160310
878.875	0.0161375
878.953	0.0160566
879.031	0.0162732
879.109	0.0161160
879.187	0.0161425
879.265	0.0160258
879.343	0.0161673
879.422	0.0162979
879.500	0.0162283
879.578	0.0161540
879.656	0.0161697
879.734	0.0161068
879.812	0.0161383
879.890	0.0162363
879.968	0.0161108
880.047	0.0162048
880.125	0.0161655
880.203	0.0161890
880.281	0.0160320
880.359	0.0161326
880.437	0.0160707
880.515	0.0161465
880.593	0.0162089
880.672	0.0161520
880.750	0.0161748
880.828	0.0160336
880.906	0.0162426
880.984	0.0162563
881.062	0.0162158
881.140	0.0161143
881.218	0.0160750
881.297	0.0162039
881.375	0.0161053
881.453	0.0162327
881.531	0.0161846
881.609	0.0161050
881.687	0.0161386
881.765	0.0162091
881.843	0.0161108
881.922	0.0161794
882.000	0.0161166
882.078	0.0162113
882.156	0.0162933
882.234	0.0161789
882.312	0.0162337
882.390	0.0161881
882.468	0.0161547
882.547	0.0159727
882.625	0.0161622
882.703	0.0162041
882.781	0.0159664
882.859	0.0160621
882.937	0.0161631
883.015	0.0160613
883.093	0.0161268
883.172	0.0159898
883.250	0.0159383
883.328	0.0161256
883.406	0.0161584
883.484	0.0162345
883.562	0.0160485
883.640	0.0160736
883.718	0.0161536
883.797	0.0162036
883.875	0.0161648
883.953	0.0162421
884.031	0.0160353
884.109	0.0161951
884.187	0.0162334
884.265	0.0163434
884.343	0.0162465
884.422	0.0160790
884.500	0.0162417
884.578	0.0162507
884.656	0.0162106
884.734	0.0162095
884.812	0.0164229
884.890	0.0160791
884.968	0.0161746
885.047	0.0162764
885.125	0.0164595
885.203	0.0162298
885.281	0.0161952
885.359	0.0162981
885.437	0.0162051
885.515	0.0163029
885.593	0.0163136
885.672	0.0163113
885.750	0.0162016
885.828	0.0162224
885.906	0.0163480
885.984	0.0163461
886.062	0.0161830
886.140	0.0162897
886.218	0.0161443
886.297	0.0162167
886.375	0.0162614
886.453	0.0160811
886.531	0.0160567
886.609	0.0161419
886.687	0.0162287
886.765	0.0162604
886.843	0.0160866
886.922	0.0161218
887.000	0.0160345
887.078	0.0160993
887.156	0.0162584
887.234	0.0162187
887.312	0.0161678
887.390	0.0163542
887.468	0.0162898
887.547	0.0160935
887.625	0.0161383
887.703	0.0162086
887.781	0.0163033
887.859	0.0161865
887.937	0.0161872
888.015	0.0162671
888.093	0.0162440
888.172	0.0163474
888.250	0.0162407
888.328	0.0161758
888.406	0.0161905
888.484	0.0164007
888.562	0.0163004
888.640	0.0161495
888.718	0.0160876
888.797	0.0162463
888.875	0.0163196
888.953	0.0161102
889.031	0.0160447
889.109	0.0160231
889.187	0.0160970
889.265	0.0160699
889.343	0.0161218
889.422	0.0161183
889.500	0.0159812
889.578	0.0160065
889.656	0.0161639
889.734	0.0160117
889.812	0.0159299
889.890	0.0159631
889.968	0.0160023
890.047	0.0160254
890.125	0.0160758
890.203	0.0159773
890.281	0.0160037
890.359	0.0160044
890.437	0.0160556
890.515	0.0160692
890.593	0.0160565
890.672	0.0160976
890.750	0.0160372
890.828	0.0160139
890.906	0.0160117
890.984	0.0161938
891.062	0.0163195
891.140	0.0161283
891.218	0.0161308
891.297	0.0161641
891.375	0.0163171
891.453	0.0162444
891.531	0.0161349
891.609	0.0161473
891.687	0.0162845
891.765	0.0162669
891.843	0.0162066
891.922	0.0162959
892.000	0.0161381
892.078	0.0162115
892.156	0.0162145
892.234	0.0162029
892.312	0.0162698
892.390	0.0161097
892.468	0.0161679
892.547	0.0162133
892.625	0.0162759
892.703	0.0162350
892.781	0.0161564
892.859	0.0161555
892.937	0.0161824
893.015	0.0160374
893.093	0.0161835
893.172	0.0162373
893.250	0.0161146
893.328	0.0161827
893.406	0.0161069
893.484	0.0160763
893.562	0.0160638
893.640	0.0161827
893.718	0.0162610
893.797	0.0162121
893.875	0.0161487
893.953	0.0161655
894.031	0.0160506
894.109	0.0160879
894.187	0.0160324
894.265	0.0160487
894.343	0.0161270
894.422	0.0162447
894.500	0.0160703
894.578	0.0160521
894.656	0.0160695
894.734	0.0160384
894.812	0.0159915
894.890	0.0161552
894.968	0.0160494
895.047	0.0159961
895.125	0.0161549
895.203	0.0160962
895.281	0.0159064
895.359	0.0161242
895.437	0.0160686
895.515	0.0162483
895.593	0.0162975
895.672	0.0162072
895.750	0.0162917
895.828	0.0162191
895.906	0.0161656
895.984	0.0162636
896.062	0.0164102
896.140	0.0162102
896.218	0.0162351
896.297	0.0160985
896.375	0.0160918
896.453	0.0162704
896.531	0.0161433
896.609	0.0162324
896.687	0.0162044
896.765	0.0162654
896.843	0.0161395
896.922	0.0160436
897.000	0.0161652
897.078	0.0161198
897.156	0.0160645
897.234	0.0160831
897.312	0.0160738
897.390	0.0160240
897.468	0.0161713
897.547	0.0161183
897.625	0.0160528
897.703	0.0160141
897.781	0.0161874
897.859	0.0161310
897.937	0.0161381
898.015	0.0160953
898.093	0.0163261
898.172	0.0160522
898.250	0.0162003
898.328	0.0163556
898.406	0.0164188
898.484	0.0161745
898.562	0.0160579
898.640	0.0163074
898.718	0.0163933
898.797	0.0163817
898.875	0.0162517
898.953	0.0162950
899.031	0.0162792
899.109	0.0162093
899.187	0.0163660
899.265	0.0162511
899.343	0.0162399
899.422	0.0162531
899.500	0.0162117
899.578	0.0162217
899.656	0.0162575
899.734	0.0163277
899.812	0.0159593
899.890	0.0160661
899.968	0.0161741
900.047	0.0161063
900.125	0.0160535
900.203	0.0160661
900.281	0.0161775
900.359	0.0159809
900.437	0.0160969
900.515	0.0161236
900.593	0.0162132
900.672	0.0160704
900.750	0.0161842
900.828	0.0162361
900.906	0.0160722
900.984	0.0161294
901.062	0.0160005
901.140	0.0161369
901.218	0.0162663
901.297	0.0160167
901.375	0.0160554
901.453	0.0160932
901.531	0.0160778
901.609	0.0161669
901.687	0.0160259
901.765	0.0160101
901.843	0.0159547
901.922	0.0160442
902.000	0.0160778
902.078	0.0161137
902.156	0.0160232
902.234	0.0162399
902.312	0.0161169
902.390	0.0160307
902.468	0.0161905
902.547	0.0161201
902.625	0.0161006
902.703	0.0160340
902.781	0.0161687
902.859	0.0160895
902.937	0.0162825
903.015	0.0162230
903.093	0.0162180
903.172	0.0162206
903.250	0.0161540
903.328	0.0161967
903.406	0.0160886
903.484	0.0162226
903.562	0.0161676
903.640	0.0161745
903.718	0.0160330
903.797	0.0162038
903.875	0.0162632
903.953	0.0162366
904.031	0.0161452
904.109	0.0161620
904.187	0.0161378
904.265	0.0162069
904.343	0.0162105
904.422	0.0160456
904.500	0.0160569
904.578	0.0162144
904.656	0.0162397
904.734	0.0161817
904.812	0.0161292
904.890	0.0161256
904.968	0.0161349
905.047	0.0161273
905.125	0.0160815
905.203	0.0161575
905.281	0.0161110
905.359	0.0161153
905.437	0.0162618
905.515	0.0161572
905.593	0.0159881
905.672	0.0161612
905.750	0.0162984
905.828	0.0161468
905.906	0.0162701
905.984	0.0161800
906.062	0.0162493
906.140	0.0163080
906.218	0.0162708
906.297	0.0161221
906.375	0.0161265
906.453	0.0162189
906.531	0.0162860
906.609	0.0161378
906.687	0.0161916
906.765	0.0162096
906.843	0.0160963
906.922	0.0162546
907.000	0.0161823
907.078	0.0161675
907.156	0.0162376
907.234	0.0161118
907.312	0.0161185
907.390	0.0162447
907.468	0.0161907
907.547	0.0161017
907.625	0.0162338
907.703	0.0162003
907.781	0.0160991
907.859	0.0161845
907.937	0.0160899
908.015	0.0160139
908.093	0.0160796
908.172	0.0161621
908.250	0.0161823
908.328	0.0161130
908.406	0.0162061
908.484	0.0160706
908.562	0.0160587
908.640	0.0162153
908.718	0.0164058
908.797	0.0163148
908.875	0.0163181
908.953	0.0161213
909.031	0.0162500
909.109	0.0162289
909.187	0.0163320
909.265	0.0161182
909.343	0.0161276
909.422	0.0162533
909.500	0.0162584
909.578	0.0160961
909.656	0.0161280
909.734	0.0162074
909.812	0.0159671
909.890	0.0162051
909.968	0.0161488
910.047	0.0160859
910.125	0.0160780
910.203	0.0160406
910.281	0.0160487
910.359	0.0161636
910.437	0.0161802
910.515	0.0161015
910.593	0.0160827
910.672	0.0160190
910.750	0.0160855
910.828	0.0161202
910.906	0.0161644
910.984	0.0160683
911.062	0.0160412
911.140	0.0161037
911.218	0.0161414
911.297	0.0161272
911.375	0.0161556
911.453	0.0161370
911.531	0.0162016
911.609	0.0161009
911.687	0.0160023
911.765	0.0161526
911.843	0.0162378
911.922	0.0160939
912.000	0.0161579
912.078	0.0162704
912.156	0.0161613
912.234	0.0160137
912.312	0.0161838
912.390	0.0162076
912.468	0.0161957
912.547	0.0161385
912.625	0.0162636
912.703	0.0162744
912.781	0.0162470
912.859	0.0161623
912.937	0.0161125
913.015	0.0161238
913.093	0.0160953
913.172	0.0162508
913.250	0.0162549
913.328	0.0161147
913.406	0.0162836
913.484	0.0161909
913.562	0.0162304
913.640	0.0163416
913.718	0.0162720
913.797	0.0162997
913.875	0.0161972
913.953	0.0162595
914.031	0.0162068
914.109	0.0161165
914.187	0.0161459
914.265	0.0160902
914.343	0.0161752
914.422	0.0160947
914.500	0.0161634
914.578	0.0161430
914.656	0.0160855
914.734	0.0160256
914.812	0.0160576
914.890	0.0162268
914.968	0.0160962
915.047	0.0160731
915.125	0.0160089
915.203	0.0162263
915.281	0.0162258
915.359	0.0159650
915.437	0.0161613
915.515	0.0160690
915.593	0.0160343
915.672	0.0161803
915.750	0.0162267
915.828	0.0160087
915.906	0.0162125
915.984	0.0160962
916.062	0.0160227
916.140	0.0162242
916.218	0.0161343
916.297	0.0160540
916.375	0.0159561
916.453	0.0160941
916.531	0.0162132
916.609	0.0159969
916.687	0.0159964
916.765	0.0160770
916.843	0.0160831
916.922	0.0161090
917.000	0.0160326
917.078	0.0160606
917.156	0.0160196
917.234	0.0159850
917.312	0.0161264
917.390	0.0161699
917.468	0.0161951
917.547	0.0161651
917.625	0.0161329
917.703	0.0162078
917.781	0.0160619
917.859	0.0160799
917.937	0.0161593
918.015	0.0160710
918.093	0.0160629
918.172	0.0160134
918.250	0.0159814
918.328	0.0160083
918.406	0.0160595
918.484	0.0160391
918.562	0.0160611
918.640	0.0161349
918.718	0.0161162
918.797	0.0162061
918.875	0.0160996
918.953	0.0161208
919.031	0.0161298
919.109	0.0161456
919.187	0.0160887
919.265	0.0161873
919.343	0.0162248
919.422	0.0161668
919.500	0.0159544
919.578	0.0160267
919.656	0.0162240
919.734	0.0162419
919.812	0.0161610
919.890	0.0161812
