06/13/2022	15:15:30	Ver.	4.1	UNKNOWN
Optical Delay	599.961724	Delta X		0.078125	Sweeps	1	Scan Rate	0/0
Coordinates	Axis 1	NaN	Axis 2	NaN	Axis 3	NaN	Axis 4	NaN	Axis 5	NaN	Axis 6	0.000000
TX Power	0.000000	RX Power	0.000000

599.962	0.0158984
600.040	0.0159154
600.118	0.0158916
600.196	0.0158028
600.274	0.0158260
600.352	0.0158545
600.430	0.0158809
600.509	0.0159015
600.587	0.0159138
600.665	0.0158621
600.743	0.0157892
600.821	0.0159006
600.899	0.0158406
600.977	0.0159460
601.055	0.0158653
601.134	0.0159185
601.212	0.0159982
601.290	0.0159784
601.368	0.0157196
601.446	0.0159478
601.524	0.0160322
601.602	0.0158444
601.680	0.0160081
601.759	0.0160120
601.837	0.0159752
601.915	0.0159396
601.993	0.0159789
602.071	0.0160473
602.149	0.0161440
602.227	0.0160757
602.305	0.0159557
602.384	0.0161263
602.462	0.0159793
602.540	0.0161470
602.618	0.0161449
602.696	0.0159782
602.774	0.0161011
602.852	0.0162022
602.930	0.0160478
603.009	0.0161314
603.087	0.0160976
603.165	0.0161758
603.243	0.0161050
603.321	0.0161842
603.399	0.0160785
603.477	0.0161124
603.555	0.0159867
603.634	0.0159971
603.712	0.0160632
603.790	0.0159597
603.868	0.0159358
603.946	0.0159747
604.024	0.0159885
604.102	0.0160408
604.180	0.0158385
604.259	0.0160590
604.337	0.0159894
604.415	0.0160405
604.493	0.0160486
604.571	0.0162056
604.649	0.0161362
604.727	0.0162001
604.805	0.0161151
604.884	0.0162865
604.962	0.0162924
605.040	0.0162417
605.118	0.0162882
605.196	0.0163042
605.274	0.0163758
605.352	0.0162392
605.430	0.0163118
605.509	0.0162020
605.587	0.0161572
605.665	0.0162205
605.743	0.0161395
605.821	0.0161695
605.899	0.0161619
605.977	0.0162998
606.055	0.0159839
606.134	0.0161454
606.212	0.0161971
606.290	0.0161440
606.368	0.0161352
606.446	0.0162128
606.524	0.0163066
606.602	0.0161343
606.680	0.0160683
606.759	0.0161997
606.837	0.0160583
606.915	0.0161266
606.993	0.0161370
607.071	0.0161333
607.149	0.0161459
607.227	0.0161903
607.305	0.0162066
607.384	0.0161989
607.462	0.0161800
607.540	0.0161721
607.618	0.0161052
607.696	0.0161053
607.774	0.0162913
607.852	0.0162195
607.930	0.0162121
608.009	0.0162428
608.087	0.0162538
608.165	0.0162109
608.243	0.0161523
608.321	0.0162479
608.399	0.0161809
608.477	0.0163184
608.555	0.0161495
608.634	0.0162873
608.712	0.0163327
608.790	0.0161771
608.868	0.0162571
608.946	0.0162710
609.024	0.0162512
609.102	0.0162601
609.180	0.0162616
609.259	0.0163580
609.337	0.0162828
609.415	0.0161749
609.493	0.0162571
609.571	0.0162945
609.649	0.0163617
609.727	0.0162599
609.805	0.0162623
609.884	0.0163233
609.962	0.0162486
610.040	0.0162836
610.118	0.0163231
610.196	0.0162212
610.274	0.0164734
610.352	0.0163045
610.430	0.0162499
610.509	0.0162182
610.587	0.0163153
610.665	0.0163236
610.743	0.0161688
610.821	0.0161350
610.899	0.0162814
610.977	0.0162731
611.055	0.0162464
611.134	0.0162044
611.212	0.0162259
611.290	0.0163024
611.368	0.0161105
611.446	0.0161683
611.524	0.0160943
611.602	0.0162542
611.680	0.0162499
611.759	0.0162083
611.837	0.0161493
611.915	0.0162178
611.993	0.0162595
612.071	0.0163052
612.149	0.0161913
612.227	0.0163110
612.305	0.0161764
612.384	0.0161801
612.462	0.0162092
612.540	0.0161977
612.618	0.0162615
612.696	0.0162473
612.774	0.0162663
612.852	0.0162064
612.930	0.0162899
613.009	0.0163013
613.087	0.0162845
613.165	0.0163579
613.243	0.0163258
613.321	0.0162766
613.399	0.0163787
613.477	0.0163176
613.555	0.0164169
613.634	0.0164647
613.712	0.0162860
613.790	0.0163765
613.868	0.0164833
613.946	0.0165208
614.024	0.0164847
614.102	0.0162802
614.180	0.0163682
614.259	0.0165114
614.337	0.0164251
614.415	0.0165603
614.493	0.0164826
614.571	0.0163076
614.649	0.0162774
614.727	0.0164234
614.805	0.0164220
614.884	0.0162247
614.962	0.0162635
615.040	0.0162800
615.118	0.0162868
615.196	0.0163822
615.274	0.0162307
615.352	0.0162369
615.430	0.0161637
615.509	0.0162883
615.587	0.0162763
615.665	0.0162194
615.743	0.0160979
615.821	0.0161082
615.899	0.0160169
615.977	0.0160797
616.055	0.0163684
616.134	0.0161628
616.212	0.0162064
616.290	0.0161634
616.368	0.0160051
616.446	0.0161589
616.524	0.0161971
616.602	0.0163667
616.680	0.0161582
616.759	0.0161018
616.837	0.0160023
616.915	0.0162147
616.993	0.0161460
617.071	0.0161613
617.149	0.0161488
617.227	0.0160755
617.305	0.0161432
617.384	0.0161231
617.462	0.0161410
617.540	0.0162488
617.618	0.0162208
617.696	0.0162440
617.774	0.0161406
617.852	0.0162222
617.930	0.0161134
618.009	0.0161501
618.087	0.0161728
618.165	0.0161529
618.243	0.0161386
618.321	0.0161093
618.399	0.0161765
618.477	0.0162224
618.555	0.0161454
618.634	0.0162218
618.712	0.0162217
618.790	0.0161467
618.868	0.0161992
618.946	0.0162383
619.024	0.0162730
619.102	0.0161103
619.180	0.0161278
619.259	0.0161054
619.337	0.0162183
619.415	0.0160767
619.493	0.0161311
619.571	0.0161369
619.649	0.0161414
619.727	0.0160507
619.805	0.0160876
619.884	0.0162474
619.962	0.0160995
620.040	0.0159076
620.118	0.0159962
620.196	0.0159694
620.274	0.0160595
620.352	0.0160838
620.430	0.0160284
620.509	0.0162010
620.587	0.0160426
620.665	0.0160133
620.743	0.0160741
620.821	0.0160426
620.899	0.0159258
620.977	0.0161175
621.055	0.0160287
621.134	0.0161354
621.212	0.0161764
621.290	0.0161533
621.368	0.0160279
621.446	0.0159184
621.524	0.0161087
621.602	0.0160674
621.680	0.0159846
621.759	0.0159972
621.837	0.0160164
621.915	0.0159903
621.993	0.0159959
622.071	0.0160634
622.149	0.0159253
622.227	0.0160665
622.305	0.0160326
622.384	0.0158453
622.462	0.0159864
622.540	0.0160207
622.618	0.0159792
622.696	0.0160619
622.774	0.0158776
622.852	0.0159321
622.930	0.0159559
623.009	0.0159478
623.087	0.0159256
623.165	0.0158655
623.243	0.0158232
623.321	0.0156956
623.399	0.0157105
623.477	0.0157231
623.555	0.0156968
623.634	0.0157699
623.712	0.0158189
623.790	0.0157584
623.868	0.0156720
623.946	0.0155392
624.024	0.0157168
624.102	0.0157624
624.180	0.0156303
624.259	0.0156640
624.337	0.0155718
624.415	0.0156987
624.493	0.0156289
624.571	0.0157183
624.649	0.0155770
624.727	0.0156714
624.805	0.0156605
624.884	0.0156629
624.962	0.0156949
625.040	0.0157022
625.118	0.0157540
625.196	0.0156282
625.274	0.0159377
625.352	0.0157726
625.430	0.0158173
625.509	0.0157187
625.587	0.0158276
625.665	0.0157458
625.743	0.0157839
625.821	0.0158559
625.899	0.0158916
625.977	0.0158556
626.055	0.0159417
626.134	0.0159077
626.212	0.0159134
626.290	0.0159588
626.368	0.0160417
626.446	0.0159708
626.524	0.0158677
626.602	0.0160213
626.680	0.0160056
626.759	0.0161021
626.837	0.0159732
626.915	0.0159707
626.993	0.0159953
627.071	0.0159749
627.149	0.0158178
627.227	0.0160994
627.305	0.0159664
627.384	0.0160839
627.462	0.0160307
627.540	0.0159354
627.618	0.0159846
627.696	0.0159765
627.774	0.0159850
627.852	0.0160419
627.930	0.0159361
628.009	0.0160975
628.087	0.0160162
628.165	0.0160622
628.243	0.0161031
628.321	0.0159583
628.399	0.0159576
628.477	0.0161757
628.555	0.0159309
628.634	0.0161019
628.712	0.0161375
628.790	0.0161787
628.868	0.0161443
628.946	0.0162125
629.024	0.0162057
629.102	0.0162078
629.180	0.0161057
629.259	0.0161657
629.337	0.0162000
629.415	0.0161642
629.493	0.0162086
629.571	0.0162711
629.649	0.0162479
629.727	0.0162164
629.805	0.0161116
629.884	0.0161174
629.962	0.0161182
630.040	0.0160942
630.118	0.0162277
630.196	0.0162247
630.274	0.0162746
630.352	0.0162721
630.430	0.0162229
630.509	0.0161320
630.587	0.0162104
630.665	0.0161761
630.743	0.0163083
630.821	0.0162541
630.899	0.0162928
630.977	0.0163656
631.055	0.0163557
631.134	0.0162489
631.212	0.0163486
631.290	0.0162522
631.368	0.0161724
631.446	0.0162472
631.524	0.0161607
631.602	0.0162812
631.680	0.0163021
631.759	0.0162734
631.837	0.0163680
631.915	0.0163357
631.993	0.0163192
632.071	0.0162868
632.149	0.0163298
632.227	0.0161572
632.305	0.0162637
632.384	0.0163487
632.462	0.0163721
632.540	0.0163938
632.618	0.0164040
632.696	0.0163480
632.774	0.0165313
632.852	0.0164240
632.930	0.0164875
633.009	0.0163544
633.087	0.0163010
633.165	0.0163699
633.243	0.0164114
633.321	0.0163800
633.399	0.0162985
633.477	0.0163831
633.555	0.0164029
633.634	0.0163779
633.712	0.0163618
633.790	0.0162711
633.868	0.0162669
633.946	0.0161462
634.024	0.0162482
634.102	0.0162875
634.180	0.0161971
634.259	0.0162007
634.337	0.0162080
634.415	0.0162134
634.493	0.0161739
634.571	0.0163200
634.649	0.0161844
634.727	0.0161053
634.805	0.0162604
634.884	0.0161395
634.962	0.0161855
635.040	0.0163075
635.118	0.0161674
635.196	0.0160903
635.274	0.0162914
635.352	0.0161169
635.430	0.0161548
635.509	0.0162804
635.587	0.0163335
635.665	0.0163068
635.743	0.0161623
635.821	0.0161475
635.899	0.0161839
635.977	0.0161768
636.055	0.0162545
636.134	0.0162073
636.212	0.0162183
636.290	0.0161533
636.368	0.0162693
636.446	0.0162884
636.524	0.0161417
636.602	0.0162075
636.680	0.0161147
636.759	0.0160940
636.837	0.0162763
636.915	0.0161543
636.993	0.0161804
637.071	0.0162579
637.149	0.0162976
637.227	0.0161617
637.305	0.0160892
637.384	0.0159957
637.462	0.0161632
637.540	0.0161375
637.618	0.0160136
637.696	0.0161655
637.774	0.0162617
637.852	0.0161214
637.930	0.0161147
638.009	0.0160400
638.087	0.0161163
638.165	0.0159776
638.243	0.0160737
638.321	0.0162591
638.399	0.0161174
638.477	0.0161308
638.555	0.0161196
638.634	0.0161162
638.712	0.0161090
638.790	0.0160894
638.868	0.0162084
638.946	0.0162111
639.024	0.0160150
639.102	0.0162492
639.180	0.0163120
639.259	0.0162756
639.337	0.0161641
639.415	0.0160737
639.493	0.0160648
639.571	0.0160734
639.649	0.0162347
639.727	0.0162741
639.805	0.0162431
639.884	0.0161312
639.962	0.0160752
640.040	0.0161186
640.118	0.0161843
640.196	0.0162254
640.274	0.0161224
640.352	0.0160874
640.430	0.0161229
640.509	0.0162724
640.587	0.0161534
640.665	0.0160485
640.743	0.0160703
640.821	0.0159591
640.899	0.0161328
640.977	0.0160607
641.055	0.0161212
641.134	0.0160925
641.212	0.0158627
641.290	0.0160229
641.368	0.0160843
641.446	0.0161378
641.524	0.0159642
641.602	0.0160583
641.680	0.0160258
641.759	0.0161003
641.837	0.0160187
641.915	0.0159831
641.993	0.0161225
642.071	0.0161006
642.149	0.0159263
642.227	0.0158038
642.305	0.0158561
642.384	0.0160773
642.462	0.0161355
642.540	0.0160651
642.618	0.0158898
642.696	0.0160825
642.774	0.0159251
642.852	0.0158916
642.930	0.0160898
643.009	0.0160564
643.087	0.0161019
643.165	0.0159821
643.243	0.0160287
643.321	0.0160811
643.399	0.0159281
643.477	0.0159451
643.555	0.0160306
643.634	0.0160941
643.712	0.0159887
643.790	0.0159930
643.868	0.0159086
643.946	0.0160674
644.024	0.0159294
644.102	0.0158666
644.180	0.0160378
644.259	0.0160006
644.337	0.0160263
644.415	0.0160757
644.493	0.0158270
644.571	0.0159566
644.649	0.0160163
644.727	0.0160316
644.805	0.0159680
644.884	0.0159570
644.962	0.0159367
645.040	0.0160110
645.118	0.0160489
645.196	0.0158991
645.274	0.0159385
645.352	0.0160020
645.430	0.0158245
645.509	0.0160227
645.587	0.0160696
645.665	0.0160766
645.743	0.0157978
645.821	0.0159426
645.899	0.0158783
645.977	0.0158781
646.055	0.0159310
646.134	0.0158356
646.212	0.0159294
646.290	0.0158795
646.368	0.0160725
646.446	0.0159377
646.524	0.0159453
646.602	0.0159679
646.680	0.0159351
646.759	0.0159519
646.837	0.0159528
646.915	0.0158287
646.993	0.0158979
647.071	0.0160303
647.149	0.0161414
647.227	0.0159321
647.305	0.0158803
647.384	0.0159988
647.462	0.0161128
647.540	0.0160149
647.618	0.0159529
647.696	0.0161466
647.774	0.0160220
647.852	0.0159930
647.930	0.0159342
648.009	0.0161197
648.087	0.0159408
648.165	0.0159248
648.243	0.0159719
648.321	0.0159100
648.399	0.0160136
648.477	0.0160646
648.555	0.0161674
648.634	0.0161337
648.712	0.0160346
648.790	0.0159674
648.868	0.0161136
648.946	0.0161235
649.024	0.0161538
649.102	0.0160584
649.180	0.0161190
649.259	0.0161375
649.337	0.0162292
649.415	0.0159818
649.493	0.0161644
649.571	0.0161554
649.649	0.0160680
649.727	0.0159496
649.805	0.0161994
649.884	0.0160703
649.962	0.0161832
650.040	0.0161150
650.118	0.0160832
650.196	0.0160609
650.274	0.0159788
650.352	0.0161269
650.430	0.0161874
650.509	0.0161237
650.587	0.0162399
650.665	0.0161615
650.743	0.0159619
650.821	0.0160749
650.899	0.0160383
650.977	0.0161504
651.055	0.0161462
651.134	0.0161096
651.212	0.0161707
651.290	0.0162559
651.368	0.0161913
651.446	0.0160878
651.524	0.0161827
651.602	0.0161076
651.680	0.0160213
651.759	0.0161108
651.837	0.0162292
651.915	0.0162505
651.993	0.0161056
652.071	0.0161171
652.149	0.0162037
652.227	0.0160214
652.305	0.0161806
652.384	0.0159943
652.462	0.0160448
652.540	0.0161974
652.618	0.0161024
652.696	0.0160992
652.774	0.0161446
652.852	0.0161437
652.930	0.0161367
653.009	0.0161156
653.087	0.0161078
653.165	0.0160963
653.243	0.0160902
653.321	0.0162084
653.399	0.0161843
653.477	0.0161395
653.555	0.0162070
653.634	0.0162142
653.712	0.0162344
653.790	0.0161965
653.868	0.0160217
653.946	0.0161870
654.024	0.0161371
654.102	0.0161579
654.180	0.0162423
654.259	0.0161684
654.337	0.0162459
654.415	0.0162780
654.493	0.0161057
654.571	0.0161161
654.649	0.0161231
654.727	0.0162154
654.805	0.0162825
654.884	0.0160218
654.962	0.0160214
655.040	0.0162066
655.118	0.0162219
655.196	0.0161358
655.274	0.0162820
655.352	0.0160883
655.430	0.0161505
655.509	0.0161057
655.587	0.0159240
655.665	0.0161669
655.743	0.0161835
655.821	0.0161315
655.899	0.0161997
655.977	0.0162226
656.055	0.0160667
656.134	0.0160920
656.212	0.0161107
656.290	0.0160822
656.368	0.0161538
656.446	0.0161058
656.524	0.0160194
656.602	0.0160219
656.680	0.0162646
656.759	0.0161778
656.837	0.0161484
656.915	0.0161047
656.993	0.0160648
657.071	0.0161556
657.149	0.0162653
657.227	0.0162438
657.305	0.0161555
657.384	0.0160844
657.462	0.0162731
657.540	0.0161259
657.618	0.0161958
657.696	0.0162112
657.774	0.0161231
657.852	0.0162005
657.930	0.0162792
658.009	0.0161729
658.087	0.0161188
658.165	0.0161137
658.243	0.0162015
658.321	0.0160981
658.399	0.0161437
658.477	0.0162080
658.555	0.0161713
658.634	0.0162492
658.712	0.0160583
658.790	0.0161240
658.868	0.0161469
658.946	0.0162364
659.024	0.0162206
659.102	0.0162366
659.180	0.0162012
659.259	0.0162357
659.337	0.0162536
659.415	0.0163128
659.493	0.0162270
659.571	0.0162203
659.649	0.0163007
659.727	0.0161507
659.805	0.0160203
659.884	0.0162240
659.962	0.0162807
660.040	0.0163353
660.118	0.0162780
660.196	0.0162914
660.274	0.0161848
660.352	0.0163293
660.430	0.0162620
660.509	0.0161909
660.587	0.0161688
660.665	0.0161620
660.743	0.0163669
660.821	0.0162781
660.899	0.0162023
660.977	0.0162359
661.055	0.0163343
661.134	0.0162609
661.212	0.0161772
661.290	0.0162559
661.368	0.0161723
661.446	0.0161434
661.524	0.0162440
661.602	0.0162431
661.680	0.0162009
661.759	0.0163182
661.837	0.0161833
661.915	0.0163582
661.993	0.0162285
662.071	0.0163037
662.149	0.0163441
662.227	0.0161584
662.305	0.0161665
662.384	0.0162822
662.462	0.0162290
662.540	0.0162740
662.618	0.0162587
662.696	0.0161375
662.774	0.0161726
662.852	0.0160980
662.930	0.0160732
663.009	0.0160765
663.087	0.0162919
663.165	0.0161077
663.243	0.0161247
663.321	0.0160819
663.399	0.0160628
663.477	0.0162024
663.555	0.0161927
663.634	0.0161066
663.712	0.0162265
663.790	0.0160928
663.868	0.0159945
663.946	0.0161705
664.024	0.0160246
664.102	0.0160764
664.180	0.0162142
664.259	0.0161443
664.337	0.0161149
664.415	0.0159533
664.493	0.0161316
664.571	0.0161868
664.649	0.0161179
664.727	0.0160310
664.805	0.0160072
664.884	0.0159510
664.962	0.0161690
665.040	0.0161439
665.118	0.0160196
665.196	0.0160325
665.274	0.0162054
665.352	0.0161021
665.430	0.0161538
665.509	0.0161405
665.587	0.0161259
665.665	0.0160959
665.743	0.0160252
665.821	0.0160031
665.899	0.0161157
665.977	0.0160493
666.055	0.0159466
666.134	0.0160909
666.212	0.0161192
666.290	0.0160413
666.368	0.0161142
666.446	0.0160580
666.524	0.0160728
666.602	0.0162144
666.680	0.0160767
666.759	0.0161054
666.837	0.0161913
666.915	0.0160524
666.993	0.0161034
667.071	0.0159984
667.149	0.0159072
667.227	0.0160526
667.305	0.0160938
667.384	0.0161414
667.462	0.0159898
667.540	0.0159515
667.618	0.0160300
667.696	0.0160387
667.774	0.0159176
667.852	0.0158917
667.930	0.0159338
668.009	0.0158713
668.087	0.0159397
668.165	0.0160004
668.243	0.0159649
668.321	0.0158772
668.399	0.0159267
668.477	0.0161378
668.555	0.0158777
668.634	0.0159534
668.712	0.0159655
668.790	0.0159991
668.868	0.0160696
668.946	0.0159889
669.024	0.0160796
669.102	0.0160021
669.180	0.0160982
669.259	0.0159821
669.337	0.0158849
669.415	0.0160022
669.493	0.0161271
669.571	0.0160709
669.649	0.0159769
669.727	0.0160805
669.805	0.0158956
669.884	0.0160324
669.962	0.0160415
670.040	0.0161088
670.118	0.0158136
670.196	0.0158472
670.274	0.0160271
670.352	0.0160003
670.430	0.0159306
670.509	0.0160553
670.587	0.0160773
670.665	0.0159556
670.743	0.0159759
670.821	0.0159933
670.899	0.0159494
670.977	0.0160169
671.055	0.0159589
671.134	0.0159882
671.212	0.0160184
671.290	0.0159385
671.368	0.0159894
671.446	0.0160175
671.524	0.0158824
671.602	0.0160426
671.680	0.0160276
671.759	0.0159586
671.837	0.0160574
671.915	0.0161694
671.993	0.0160180
672.071	0.0160600
672.149	0.0160251
672.227	0.0161121
672.305	0.0160392
672.384	0.0160048
672.462	0.0160020
672.540	0.0160211
672.618	0.0159786
672.696	0.0161298
672.774	0.0160564
672.852	0.0160396
672.930	0.0161079
673.009	0.0160818
673.087	0.0160530
673.165	0.0160958
673.243	0.0160951
673.321	0.0160513
673.399	0.0160849
673.477	0.0161347
673.555	0.0160748
673.634	0.0160553
673.712	0.0160112
673.790	0.0162835
673.868	0.0162246
673.946	0.0161039
674.024	0.0160283
674.102	0.0160786
674.180	0.0160306
674.259	0.0160876
674.337	0.0160800
674.415	0.0161700
674.493	0.0161106
674.571	0.0161141
674.649	0.0160076
674.727	0.0161137
674.805	0.0161687
674.884	0.0160436
674.962	0.0162062
675.040	0.0161523
675.118	0.0161909
675.196	0.0162444
675.274	0.0161504
675.352	0.0162366
675.430	0.0160749
675.509	0.0161478
675.587	0.0161045
675.665	0.0161890
675.743	0.0162226
675.821	0.0161713
675.899	0.0160529
675.977	0.0162814
676.055	0.0160973
676.134	0.0161284
676.212	0.0162370
676.290	0.0163290
676.368	0.0163142
676.446	0.0163113
676.524	0.0162907
676.602	0.0161602
676.680	0.0160991
676.759	0.0162022
676.837	0.0162418
676.915	0.0162738
676.993	0.0161723
677.071	0.0162108
677.149	0.0161842
677.227	0.0161171
677.305	0.0161486
677.384	0.0162975
677.462	0.0161953
677.540	0.0161432
677.618	0.0162518
677.696	0.0162504
677.774	0.0162966
677.852	0.0163913
677.930	0.0162798
678.009	0.0161387
678.087	0.0163412
678.165	0.0164114
678.243	0.0161835
678.321	0.0163557
678.399	0.0162639
678.477	0.0161467
678.555	0.0163129
678.634	0.0162762
678.712	0.0162418
678.790	0.0162060
678.868	0.0161101
678.946	0.0160936
679.024	0.0161014
679.102	0.0162704
679.180	0.0163850
679.259	0.0162917
679.337	0.0162486
679.415	0.0162539
679.493	0.0161942
679.571	0.0162476
679.649	0.0161958
679.727	0.0162689
679.805	0.0163700
679.884	0.0162227
679.962	0.0162820
680.040	0.0161835
680.118	0.0160904
680.196	0.0163273
680.274	0.0161205
680.352	0.0162509
680.430	0.0162019
680.509	0.0163366
680.587	0.0162098
680.665	0.0162186
680.743	0.0162576
680.821	0.0162852
680.899	0.0162826
680.977	0.0163165
681.055	0.0162928
681.134	0.0162610
681.212	0.0162642
681.290	0.0162872
681.368	0.0162483
681.446	0.0162819
681.524	0.0162517
681.602	0.0161609
681.680	0.0164356
681.759	0.0162740
681.837	0.0162136
681.915	0.0162490
681.993	0.0161594
682.071	0.0162486
682.149	0.0162763
682.227	0.0162217
682.305	0.0162109
682.384	0.0162193
682.462	0.0162530
682.540	0.0163737
682.618	0.0162154
682.696	0.0162762
682.774	0.0161835
682.852	0.0163346
682.930	0.0162587
683.009	0.0162468
683.087	0.0161521
683.165	0.0163328
683.243	0.0163038
683.321	0.0162622
683.399	0.0162168
683.477	0.0162675
683.555	0.0161956
683.634	0.0162099
683.712	0.0161588
683.790	0.0162521
683.868	0.0162920
683.946	0.0162220
684.024	0.0161401
684.102	0.0162159
684.180	0.0161568
684.259	0.0161442
684.337	0.0162695
684.415	0.0160669
684.493	0.0162115
684.571	0.0160554
684.649	0.0162589
684.727	0.0160693
684.805	0.0160394
684.884	0.0161848
684.962	0.0159838
685.040	0.0160780
685.118	0.0160912
685.196	0.0160191
685.274	0.0160766
685.352	0.0161514
685.430	0.0161314
685.509	0.0160910
685.587	0.0161234
685.665	0.0161723
685.743	0.0161390
685.821	0.0161223
685.899	0.0160205
685.977	0.0161451
686.055	0.0161182
686.134	0.0161920
686.212	0.0161568
686.290	0.0161811
686.368	0.0160558
686.446	0.0161116
686.524	0.0161868
686.602	0.0160880
686.680	0.0161536
686.759	0.0161292
686.837	0.0162028
686.915	0.0160912
686.993	0.0159562
687.071	0.0162086
687.149	0.0160509
687.227	0.0161226
687.305	0.0162145
687.384	0.0160413
687.462	0.0160696
687.540	0.0160929
687.618	0.0161144
687.696	0.0160416
687.774	0.0161233
687.852	0.0161242
687.930	0.0161250
688.009	0.0161689
688.087	0.0161554
688.165	0.0161123
688.243	0.0161546
688.321	0.0161481
688.399	0.0161333
688.477	0.0160323
688.555	0.0160423
688.634	0.0161304
688.712	0.0161736
688.790	0.0160357
688.868	0.0160727
688.946	0.0160836
689.024	0.0160890
689.102	0.0161594
689.180	0.0161768
689.259	0.0161228
689.337	0.0160760
689.415	0.0160698
689.493	0.0159659
689.571	0.0160456
689.649	0.0161185
689.727	0.0159721
689.805	0.0160374
689.884	0.0161126
689.962	0.0161581
690.040	0.0160110
690.118	0.0161150
690.196	0.0161407
690.274	0.0162248
690.352	0.0161793
690.430	0.0160706
690.509	0.0161476
690.587	0.0163663
690.665	0.0161198
690.743	0.0161565
690.821	0.0160000
690.899	0.0161320
690.977	0.0162019
691.055	0.0161870
691.134	0.0160551
691.212	0.0161265
691.290	0.0160850
691.368	0.0160067
691.446	0.0160399
691.524	0.0160980
691.602	0.0160854
691.680	0.0159947
691.759	0.0161292
691.837	0.0159194
691.915	0.0159592
691.993	0.0160310
692.071	0.0160282
692.149	0.0160911
692.227	0.0160517
692.305	0.0158618
692.384	0.0159810
692.462	0.0159979
692.540	0.0159959
692.618	0.0159648
692.696	0.0159298
692.774	0.0159641
692.852	0.0161768
692.930	0.0158990
693.009	0.0159382
693.087	0.0161195
693.165	0.0160464
693.243	0.0159625
693.321	0.0159676
693.399	0.0160636
693.477	0.0160185
693.555	0.0159055
693.634	0.0159641
693.712	0.0159203
693.790	0.0161185
693.868	0.0162186
693.946	0.0159944
694.024	0.0160400
694.102	0.0160983
694.180	0.0160942
694.259	0.0159087
694.337	0.0159210
694.415	0.0160747
694.493	0.0160978
694.571	0.0160001
694.649	0.0160545
694.727	0.0160020
694.805	0.0159692
694.884	0.0160197
694.962	0.0160554
695.040	0.0161456
695.118	0.0160187
695.196	0.0159488
695.274	0.0159633
695.352	0.0159913
695.430	0.0161512
695.509	0.0161066
695.587	0.0160838
695.665	0.0160266
695.743	0.0160944
695.821	0.0160053
695.899	0.0161182
695.977	0.0160532
696.055	0.0160192
696.134	0.0160050
696.212	0.0159209
696.290	0.0160220
696.368	0.0161111
696.446	0.0159906
696.524	0.0159846
696.602	0.0158614
696.680	0.0161433
696.759	0.0160560
696.837	0.0158317
696.915	0.0160095
696.993	0.0159280
697.071	0.0159010
697.149	0.0161186
697.227	0.0160628
697.305	0.0159596
697.384	0.0160970
697.462	0.0159705
697.540	0.0158694
697.618	0.0160443
697.696	0.0161358
697.774	0.0160712
697.852	0.0159129
697.930	0.0160569
698.009	0.0160329
698.087	0.0160087
698.165	0.0159340
698.243	0.0160595
698.321	0.0161292
698.399	0.0159196
698.477	0.0159021
698.555	0.0161060
698.634	0.0159638
698.712	0.0159304
698.790	0.0159940
698.868	0.0159879
698.946	0.0159172
699.024	0.0158579
699.102	0.0159888
699.180	0.0161492
699.259	0.0159146
699.337	0.0159158
699.415	0.0159447
699.493	0.0158876
699.571	0.0159993
699.649	0.0160042
699.727	0.0159295
699.805	0.0159129
699.884	0.0159326
699.962	0.0159623
700.040	0.0160561
700.118	0.0160988
700.196	0.0159798
700.274	0.0159640
700.352	0.0160189
700.430	0.0159592
700.509	0.0159014
700.587	0.0160701
700.665	0.0159637
700.743	0.0160807
700.821	0.0160639
700.899	0.0160299
700.977	0.0160468
701.055	0.0161511
701.134	0.0159001
701.212	0.0160928
701.290	0.0158575
701.368	0.0159981
701.446	0.0160850
701.524	0.0159798
701.602	0.0160348
701.680	0.0159372
701.759	0.0160664
701.837	0.0161519
701.915	0.0160075
701.993	0.0160603
702.071	0.0160676
702.149	0.0160124
702.227	0.0161146
702.305	0.0161466
702.384	0.0162270
702.462	0.0161359
702.540	0.0161453
702.618	0.0161263
702.696	0.0161002
702.774	0.0160735
702.852	0.0160561
702.930	0.0161177
703.009	0.0161462
703.087	0.0161166
703.165	0.0159441
703.243	0.0161784
703.321	0.0162544
703.399	0.0160989
703.477	0.0161020
703.555	0.0161781
703.634	0.0160828
703.712	0.0160492
703.790	0.0162234
703.868	0.0162481
703.946	0.0161887
704.024	0.0160934
704.102	0.0160772
704.180	0.0161634
704.259	0.0162312
704.337	0.0161383
704.415	0.0160819
704.493	0.0162418
704.571	0.0163168
704.649	0.0161871
704.727	0.0162446
704.805	0.0162555
704.884	0.0162888
704.962	0.0161279
705.040	0.0162288
705.118	0.0162665
705.196	0.0162843
705.274	0.0162439
705.352	0.0163148
705.430	0.0162651
705.509	0.0162360
705.587	0.0162161
705.665	0.0163139
705.743	0.0162048
705.821	0.0163203
705.899	0.0162947
705.977	0.0162807
706.055	0.0161508
706.134	0.0162986
706.212	0.0162398
706.290	0.0162806
706.368	0.0162933
706.446	0.0161658
706.524	0.0162243
706.602	0.0163762
706.680	0.0162181
706.759	0.0163296
706.837	0.0162899
706.915	0.0162680
706.993	0.0161558
707.071	0.0162504
707.149	0.0163751
707.227	0.0162717
707.305	0.0162481
707.384	0.0162620
707.462	0.0162439
707.540	0.0161719
707.618	0.0163248
707.696	0.0162881
707.774	0.0163389
707.852	0.0161780
707.930	0.0162537
708.009	0.0162803
708.087	0.0160941
708.165	0.0162012
708.243	0.0164070
708.321	0.0163345
708.399	0.0162771
708.477	0.0163885
708.555	0.0162228
708.634	0.0162866
708.712	0.0163377
708.790	0.0162462
708.868	0.0161827
708.946	0.0161943
709.024	0.0163120
709.102	0.0162270
709.180	0.0161800
709.259	0.0162022
709.337	0.0163667
709.415	0.0161101
709.493	0.0161945
709.571	0.0161777
709.649	0.0161826
709.727	0.0162961
709.805	0.0162704
709.884	0.0161123
709.962	0.0161836
710.040	0.0162029
710.118	0.0161029
710.196	0.0160889
710.274	0.0162135
710.352	0.0161068
710.430	0.0160291
710.509	0.0160946
710.587	0.0161462
710.665	0.0161839
710.743	0.0160484
710.821	0.0161694
710.899	0.0161307
710.977	0.0161349
711.055	0.0159927
711.134	0.0162212
711.212	0.0160464
711.290	0.0161603
711.368	0.0163406
711.446	0.0162897
711.524	0.0160427
711.602	0.0162847
711.680	0.0162624
711.759	0.0162292
711.837	0.0162964
711.915	0.0161781
711.993	0.0161368
712.071	0.0162579
712.149	0.0162565
712.227	0.0161713
712.305	0.0161355
712.384	0.0162507
712.462	0.0161912
712.540	0.0161503
712.618	0.0161687
712.696	0.0161113
712.774	0.0161461
712.852	0.0161740
712.930	0.0160791
713.009	0.0162513
713.087	0.0160835
713.165	0.0160350
713.243	0.0161428
713.321	0.0161588
713.399	0.0159726
713.477	0.0160056
713.555	0.0161999
713.634	0.0161282
713.712	0.0160693
713.790	0.0161649
713.868	0.0162472
713.946	0.0160831
714.024	0.0160401
714.102	0.0162106
714.180	0.0160359
714.259	0.0161404
714.337	0.0160580
714.415	0.0160402
714.493	0.0161723
714.571	0.0160520
714.649	0.0160906
714.727	0.0160525
714.805	0.0160251
714.884	0.0160269
714.962	0.0160408
715.040	0.0161059
715.118	0.0160925
715.196	0.0161761
715.274	0.0159669
715.352	0.0160976
715.430	0.0160765
715.509	0.0161119
715.587	0.0160995
715.665	0.0159742
715.743	0.0161829
715.821	0.0162801
715.899	0.0162282
715.977	0.0161768
716.055	0.0161868
716.134	0.0160920
716.212	0.0160840
716.290	0.0161343
716.368	0.0161329
716.446	0.0161031
716.524	0.0161188
716.602	0.0161336
716.680	0.0160928
716.759	0.0160521
716.837	0.0161174
716.915	0.0160959
716.993	0.0160459
717.071	0.0161862
717.149	0.0161885
717.227	0.0161607
717.305	0.0159518
717.384	0.0160066
717.462	0.0161354
717.540	0.0161202
717.618	0.0162443
717.696	0.0161407
717.774	0.0158798
717.852	0.0159794
717.930	0.0160737
718.009	0.0160011
718.087	0.0160675
718.165	0.0160782
718.243	0.0159303
718.321	0.0159326
718.399	0.0160706
718.477	0.0159821
718.555	0.0160519
718.634	0.0160406
718.712	0.0160862
718.790	0.0161724
718.868	0.0160570
718.946	0.0160402
719.024	0.0161222
719.102	0.0161401
719.180	0.0160693
719.259	0.0159898
719.337	0.0161072
719.415	0.0160289
719.493	0.0158778
719.571	0.0160555
719.649	0.0159402
719.727	0.0160126
719.805	0.0160618
719.884	0.0160548
719.962	0.0160191
720.040	0.0159777
720.118	0.0161681
720.196	0.0161404
720.274	0.0161053
720.352	0.0160389
720.430	0.0159934
720.509	0.0160941
720.587	0.0160935
720.665	0.0160995
720.743	0.0160172
720.821	0.0160329
720.899	0.0160142
720.977	0.0161265
721.055	0.0160493
721.134	0.0159344
721.212	0.0160485
721.290	0.0160889
721.368	0.0159396
721.446	0.0159974
721.524	0.0159455
721.602	0.0159398
721.680	0.0160039
721.759	0.0159509
721.837	0.0159367
721.915	0.0161288
721.993	0.0159814
722.071	0.0160934
722.149	0.0160732
722.227	0.0159769
722.305	0.0159790
722.384	0.0159265
722.462	0.0160526
722.540	0.0160553
722.618	0.0159258
722.696	0.0159261
722.774	0.0159848
722.852	0.0160056
722.930	0.0159549
723.009	0.0160249
723.087	0.0158841
723.165	0.0160350
723.243	0.0159744
723.321	0.0161113
723.399	0.0161154
723.477	0.0160558
723.555	0.0160479
723.634	0.0160239
723.712	0.0161758
723.790	0.0160791
723.868	0.0161343
723.946	0.0160490
724.024	0.0161198
724.102	0.0160860
724.180	0.0160556
724.259	0.0161306
724.337	0.0160393
724.415	0.0161128
724.493	0.0162330
724.571	0.0161818
724.649	0.0160645
724.727	0.0162027
724.805	0.0160561
724.884	0.0160421
724.962	0.0160030
725.040	0.0162337
725.118	0.0161461
725.196	0.0161327
725.274	0.0162578
725.352	0.0161804
725.430	0.0162179
725.509	0.0161838
725.587	0.0161784
725.665	0.0160950
725.743	0.0160827
725.821	0.0160323
725.899	0.0161587
725.977	0.0161623
726.055	0.0159856
726.134	0.0161588
726.212	0.0162488
726.290	0.0161771
726.368	0.0160461
726.446	0.0161046
726.524	0.0161761
726.602	0.0161742
726.680	0.0161078
726.759	0.0162411
726.837	0.0161773
726.915	0.0162563
726.993	0.0161661
727.071	0.0162157
727.149	0.0161320
727.227	0.0162775
727.305	0.0162502
727.384	0.0160954
727.462	0.0161411
727.540	0.0162923
727.618	0.0163294
727.696	0.0162280
727.774	0.0162055
727.852	0.0164148
727.930	0.0161963
728.009	0.0161767
728.087	0.0162268
728.165	0.0163013
728.243	0.0161108
728.321	0.0161776
728.399	0.0162051
728.477	0.0161305
728.555	0.0161175
728.634	0.0162164
728.712	0.0161095
728.790	0.0161024
728.868	0.0161193
728.946	0.0161230
729.024	0.0162003
729.102	0.0162276
729.180	0.0162417
729.259	0.0162289
729.337	0.0161933
729.415	0.0163348
729.493	0.0162782
729.571	0.0161580
729.649	0.0160098
729.727	0.0161278
729.805	0.0160876
729.884	0.0161475
729.962	0.0161320
730.040	0.0160835
730.118	0.0160632
730.196	0.0161419
730.274	0.0162468
730.352	0.0161908
730.430	0.0161983
730.509	0.0160336
730.587	0.0160443
730.665	0.0162341
730.743	0.0160580
730.821	0.0161028
730.899	0.0162172
730.977	0.0160647
731.055	0.0160863
731.134	0.0160724
731.212	0.0162163
731.290	0.0163314
731.368	0.0161425
731.446	0.0159946
731.524	0.0161697
731.602	0.0160219
731.680	0.0160207
731.759	0.0160467
731.837	0.0161520
731.915	0.0159838
731.993	0.0162473
732.071	0.0159681
732.149	0.0160085
732.227	0.0161774
732.305	0.0161775
732.384	0.0160625
732.462	0.0160597
732.540	0.0160334
732.618	0.0161617
732.696	0.0162234
732.774	0.0161215
732.852	0.0161430
732.930	0.0161657
733.009	0.0161552
733.087	0.0161829
733.165	0.0161263
733.243	0.0161865
733.321	0.0163046
733.399	0.0160964
733.477	0.0162884
733.555	0.0161725
733.634	0.0161770
733.712	0.0161640
733.790	0.0162093
733.868	0.0162748
733.946	0.0163507
734.024	0.0164050
734.102	0.0161715
734.180	0.0162727
734.259	0.0163072
734.337	0.0163599
734.415	0.0162228
734.493	0.0161017
734.571	0.0162897
734.649	0.0162450
734.727	0.0161686
734.805	0.0163148
734.884	0.0162390
734.962	0.0162451
735.040	0.0160983
735.118	0.0161542
735.196	0.0161098
735.274	0.0161407
735.352	0.0163006
735.430	0.0163522
735.509	0.0161763
735.587	0.0161359
735.665	0.0161505
735.743	0.0162881
735.821	0.0162167
735.899	0.0161919
735.977	0.0162727
736.055	0.0163298
736.134	0.0163371
736.212	0.0163626
736.290	0.0163569
736.368	0.0162726
736.446	0.0162891
736.524	0.0162867
736.602	0.0163972
736.680	0.0163395
736.759	0.0163951
736.837	0.0162922
736.915	0.0163454
736.993	0.0163534
737.071	0.0162609
737.149	0.0163230
737.227	0.0163535
737.305	0.0164503
737.384	0.0163648
737.462	0.0163129
737.540	0.0162464
737.618	0.0163082
737.696	0.0163196
737.774	0.0163351
737.852	0.0162066
737.930	0.0162277
738.009	0.0161782
738.087	0.0162630
738.165	0.0163628
738.243	0.0162736
738.321	0.0162155
738.399	0.0163061
738.477	0.0162454
738.555	0.0162571
738.634	0.0163462
738.712	0.0162132
738.790	0.0162272
738.868	0.0161959
738.946	0.0162931
739.024	0.0162714
739.102	0.0161880
739.180	0.0162833
739.259	0.0162832
739.337	0.0162199
739.415	0.0161644
739.493	0.0162106
739.571	0.0162883
739.649	0.0163328
739.727	0.0161890
739.805	0.0162914
739.884	0.0162374
739.962	0.0161525
740.040	0.0162583
740.118	0.0162486
740.196	0.0162917
740.274	0.0161890
740.352	0.0162033
740.430	0.0161221
740.509	0.0161775
740.587	0.0162349
740.665	0.0160577
740.743	0.0161845
740.821	0.0161714
740.899	0.0160342
740.977	0.0161264
741.055	0.0160303
741.134	0.0160359
741.212	0.0160027
741.290	0.0160677
741.368	0.0159956
741.446	0.0161198
741.524	0.0161098
741.602	0.0160054
741.680	0.0160917
741.759	0.0160948
741.837	0.0159768
741.915	0.0160931
741.993	0.0161591
742.071	0.0162292
742.149	0.0161312
742.227	0.0160123
742.305	0.0161240
742.384	0.0160855
742.462	0.0159285
742.540	0.0161474
742.618	0.0160786
742.696	0.0160151
742.774	0.0160555
742.852	0.0159440
742.930	0.0160626
743.009	0.0160344
743.087	0.0159872
743.165	0.0160997
743.243	0.0160442
743.321	0.0159054
743.399	0.0160031
743.477	0.0158653
743.555	0.0160091
743.634	0.0159010
743.712	0.0159772
743.790	0.0160672
743.868	0.0160251
743.946	0.0159797
744.024	0.0161042
744.102	0.0160467
744.180	0.0161207
744.259	0.0161596
744.337	0.0161407
744.415	0.0161510
744.493	0.0160712
744.571	0.0162086
744.649	0.0164432
744.727	0.0161801
744.805	0.0163692
744.884	0.0162884
744.962	0.0162785
745.040	0.0163514
745.118	0.0164065
745.196	0.0164008
745.274	0.0163346
745.352	0.0163024
745.430	0.0164747
745.509	0.0162695
745.587	0.0161513
745.665	0.0164513
745.743	0.0165382
745.821	0.0163771
745.899	0.0164645
745.977	0.0162859
746.055	0.0161754
746.134	0.0163004
746.212	0.0163525
746.290	0.0163909
746.368	0.0162354
746.446	0.0162103
746.524	0.0163152
746.602	0.0162651
746.680	0.0161641
746.759	0.0161390
746.837	0.0161928
746.915	0.0162290
746.993	0.0162638
747.071	0.0161730
747.149	0.0162211
747.227	0.0161863
747.305	0.0163345
747.384	0.0160849
747.462	0.0161283
747.540	0.0163448
747.618	0.0161115
747.696	0.0160738
747.774	0.0160773
747.852	0.0162500
747.930	0.0161359
748.009	0.0161408
748.087	0.0160822
748.165	0.0162513
748.243	0.0161388
748.321	0.0161572
748.399	0.0161668
748.477	0.0162775
748.555	0.0160754
748.634	0.0161873
748.712	0.0161105
748.790	0.0161475
748.868	0.0161417
748.946	0.0159936
749.024	0.0161879
749.102	0.0161353
749.180	0.0161736
749.259	0.0160353
749.337	0.0160035
749.415	0.0160168
749.493	0.0160044
749.571	0.0161248
749.649	0.0162572
749.727	0.0159696
749.805	0.0160196
749.884	0.0161359
749.962	0.0161100
750.040	0.0161258
750.118	0.0161201
750.196	0.0159978
750.274	0.0160770
750.352	0.0160882
750.430	0.0161024
750.509	0.0160305
750.587	0.0160274
750.665	0.0160285
750.743	0.0161372
750.821	0.0161292
750.899	0.0161353
750.977	0.0161972
751.055	0.0160355
751.134	0.0161565
751.212	0.0160533
751.290	0.0160643
751.368	0.0161129
751.446	0.0161098
751.524	0.0161640
751.602	0.0161357
751.680	0.0162449
751.759	0.0162691
751.837	0.0163081
751.915	0.0162465
751.993	0.0162654
752.071	0.0162383
752.149	0.0162102
752.227	0.0162907
752.305	0.0161608
752.384	0.0161612
752.462	0.0161970
752.540	0.0162184
752.618	0.0161061
752.696	0.0163224
752.774	0.0163415
752.852	0.0161028
752.930	0.0161969
753.009	0.0162286
753.087	0.0161522
753.165	0.0161594
753.243	0.0161896
753.321	0.0161245
753.399	0.0160574
753.477	0.0161711
753.555	0.0162588
753.634	0.0161649
753.712	0.0160157
753.790	0.0161720
753.868	0.0162711
753.946	0.0161926
754.024	0.0161868
754.102	0.0161839
754.180	0.0158878
754.259	0.0160336
754.337	0.0161099
754.415	0.0160428
754.493	0.0161031
754.571	0.0161228
754.649	0.0160207
754.727	0.0160761
754.805	0.0161402
754.884	0.0161399
754.962	0.0160361
755.040	0.0159795
755.118	0.0160187
755.196	0.0160139
755.274	0.0160524
755.352	0.0161211
755.430	0.0160023
755.509	0.0160600
755.587	0.0160300
755.665	0.0161532
755.743	0.0159756
755.821	0.0159719
755.899	0.0160664
755.977	0.0160720
756.055	0.0159577
756.134	0.0161832
756.212	0.0160453
756.290	0.0160046
756.368	0.0161575
756.446	0.0161951
756.524	0.0161959
756.602	0.0160985
756.680	0.0161292
756.759	0.0160767
756.837	0.0161256
756.915	0.0160934
756.993	0.0159607
757.071	0.0160620
757.149	0.0160738
757.227	0.0161743
757.305	0.0160175
757.384	0.0159947
757.462	0.0159376
757.540	0.0160116
757.618	0.0159325
757.696	0.0159646
757.774	0.0158440
757.852	0.0161058
757.930	0.0159599
758.009	0.0158089
758.087	0.0158899
758.165	0.0160767
758.243	0.0159631
758.321	0.0158878
758.399	0.0159686
758.477	0.0160194
758.555	0.0159905
758.634	0.0159324
758.712	0.0159969
758.790	0.0160076
758.868	0.0161015
758.946	0.0160226
759.024	0.0161045
759.102	0.0159869
759.180	0.0161224
759.259	0.0161133
759.337	0.0161852
759.415	0.0161419
759.493	0.0162296
759.571	0.0160257
759.649	0.0161038
759.727	0.0161055
759.805	0.0161933
759.884	0.0161755
759.962	0.0162104
760.040	0.0162460
760.118	0.0161663
760.196	0.0161671
760.274	0.0160262
760.352	0.0161815
760.430	0.0162418
760.509	0.0162337
760.587	0.0159941
760.665	0.0160855
760.743	0.0161896
760.821	0.0160733
760.899	0.0160337
760.977	0.0161756
761.055	0.0161353
761.134	0.0160361
761.212	0.0160642
761.290	0.0160562
761.368	0.0161185
761.446	0.0160662
761.524	0.0160615
761.602	0.0160979
761.680	0.0160851
761.759	0.0160477
761.837	0.0160055
761.915	0.0160139
761.993	0.0159801
762.071	0.0160680
762.149	0.0159458
762.227	0.0161220
762.305	0.0160186
762.384	0.0159660
762.462	0.0159061
762.540	0.0159593
762.618	0.0158399
762.696	0.0159575
762.774	0.0159473
762.852	0.0160745
762.930	0.0160971
763.009	0.0159444
763.087	0.0159525
763.165	0.0160654
763.243	0.0160191
763.321	0.0159816
763.399	0.0159608
763.477	0.0161189
763.555	0.0159737
763.634	0.0162088
763.712	0.0161433
763.790	0.0160971
763.868	0.0162307
763.946	0.0160835
764.024	0.0160596
764.102	0.0161092
764.180	0.0161612
764.259	0.0161121
764.337	0.0159846
764.415	0.0160258
764.493	0.0160745
764.571	0.0160969
764.649	0.0159850
764.727	0.0159134
764.805	0.0159871
764.884	0.0160461
764.962	0.0159437
765.040	0.0160524
765.118	0.0159702
765.196	0.0160480
765.274	0.0159946
765.352	0.0160265
765.430	0.0160523
765.509	0.0160007
765.587	0.0160015
765.665	0.0159454
765.743	0.0160099
765.821	0.0161288
765.899	0.0160216
765.977	0.0160777
766.055	0.0160408
766.134	0.0161105
766.212	0.0160931
766.290	0.0161841
766.368	0.0161674
766.446	0.0161389
766.524	0.0161771
766.602	0.0161971
766.680	0.0159859
766.759	0.0159894
766.837	0.0162175
766.915	0.0161008
766.993	0.0161049
767.071	0.0161196
767.149	0.0160532
767.227	0.0161168
767.305	0.0159618
767.384	0.0162469
767.462	0.0160857
767.540	0.0160595
767.618	0.0161843
767.696	0.0162119
767.774	0.0161572
767.852	0.0160523
767.930	0.0161153
768.009	0.0160661
768.087	0.0159612
768.165	0.0159768
768.243	0.0160146
768.321	0.0160815
768.399	0.0161659
768.477	0.0161259
768.555	0.0160540
768.634	0.0159937
768.712	0.0161397
768.790	0.0160538
768.868	0.0160677
768.946	0.0161546
769.024	0.0161913
769.102	0.0160751
769.180	0.0161375
769.259	0.0162639
769.337	0.0161942
769.415	0.0160620
769.493	0.0162457
769.571	0.0162737
769.649	0.0162274
769.727	0.0161663
769.805	0.0162079
769.884	0.0162888
769.962	0.0161801
770.040	0.0161104
770.118	0.0160853
770.196	0.0161801
770.274	0.0161751
770.352	0.0161948
770.430	0.0161049
770.509	0.0161330
770.587	0.0161710
770.665	0.0160683
770.743	0.0161488
770.821	0.0160706
770.899	0.0159910
770.977	0.0161335
771.055	0.0161237
771.134	0.0161352
771.212	0.0160283
771.290	0.0159624
771.368	0.0158629
771.446	0.0159421
771.524	0.0161465
771.602	0.0159585
771.680	0.0159507
771.759	0.0160526
771.837	0.0159786
771.915	0.0159853
771.993	0.0161457
772.071	0.0160099
772.149	0.0159509
772.227	0.0159273
772.305	0.0160491
772.384	0.0158878
772.462	0.0159184
772.540	0.0159775
772.618	0.0158374
772.696	0.0158623
772.774	0.0157624
772.852	0.0157990
772.930	0.0159161
773.009	0.0157766
773.087	0.0158564
773.165	0.0159618
773.243	0.0160248
773.321	0.0160639
773.399	0.0159418
773.477	0.0161333
773.555	0.0160144
773.634	0.0159486
773.712	0.0162125
773.790	0.0161768
773.868	0.0161672
773.946	0.0160076
774.024	0.0161611
774.102	0.0160509
774.180	0.0161191
774.259	0.0161090
774.337	0.0160970
774.415	0.0162784
774.493	0.0160404
774.571	0.0161184
774.649	0.0161877
774.727	0.0160634
774.805	0.0162385
774.884	0.0160482
774.962	0.0160498
775.040	0.0159354
775.118	0.0160087
775.196	0.0160873
775.274	0.0161882
775.352	0.0160809
775.430	0.0159778
775.509	0.0160815
775.587	0.0161269
775.665	0.0161693
775.743	0.0160951
775.821	0.0161757
775.899	0.0160626
775.977	0.0162118
776.055	0.0162078
776.134	0.0161526
776.212	0.0161626
776.290	0.0160403
776.368	0.0161448
776.446	0.0162200
776.524	0.0161169
776.602	0.0161332
776.680	0.0161414
776.759	0.0162361
776.837	0.0161108
776.915	0.0161871
776.993	0.0161890
777.071	0.0161297
777.149	0.0161314
777.227	0.0160627
777.305	0.0161937
777.384	0.0162190
777.462	0.0162044
777.540	0.0162113
777.618	0.0160189
777.696	0.0162200
777.774	0.0162756
777.852	0.0161504
777.930	0.0161897
778.009	0.0161395
778.087	0.0161807
778.165	0.0161040
778.243	0.0161653
778.321	0.0160407
778.399	0.0159733
778.477	0.0160043
778.555	0.0160863
778.634	0.0160316
778.712	0.0160217
778.790	0.0161010
778.868	0.0159987
778.946	0.0161239
779.024	0.0160844
779.102	0.0161080
779.180	0.0159729
779.259	0.0160167
779.337	0.0160397
779.415	0.0161450
779.493	0.0161681
779.571	0.0161996
779.649	0.0160922
779.727	0.0159875
779.805	0.0163248
779.884	0.0162186
779.962	0.0162594
780.040	0.0162561
780.118	0.0162296
780.196	0.0161330
780.274	0.0160559
780.352	0.0161843
780.430	0.0160865
780.509	0.0160789
780.587	0.0161028
780.665	0.0159897
780.743	0.0160082
780.821	0.0160443
780.899	0.0158199
780.977	0.0159959
781.055	0.0159899
781.134	0.0159985
781.212	0.0159074
781.290	0.0159142
781.368	0.0158231
781.446	0.0159408
781.524	0.0160051
781.602	0.0160707
781.680	0.0159635
781.759	0.0158555
781.837	0.0159608
781.915	0.0158514
781.993	0.0160133
782.071	0.0159152
782.149	0.0160653
782.227	0.0159405
782.305	0.0159417
782.384	0.0159364
782.462	0.0159360
782.540	0.0159375
782.618	0.0158795
782.696	0.0160797
782.774	0.0160441
782.852	0.0160844
782.930	0.0158385
783.009	0.0160723
783.087	0.0159754
783.165	0.0159346
783.243	0.0159658
783.321	0.0159101
783.399	0.0159037
783.477	0.0160376
783.555	0.0159323
783.634	0.0159728
783.712	0.0161100
783.790	0.0161448
783.868	0.0159982
783.946	0.0160175
784.024	0.0160883
784.102	0.0161087
784.180	0.0160988
784.259	0.0159480
784.337	0.0160513
784.415	0.0160045
784.493	0.0160168
784.571	0.0159416
784.649	0.0160353
784.727	0.0160535
784.805	0.0161400
784.884	0.0161784
784.962	0.0162343
785.040	0.0160864
785.118	0.0161449
785.196	0.0161489
785.274	0.0160840
785.352	0.0160501
785.430	0.0159280
785.509	0.0161148
785.587	0.0160571
785.665	0.0159840
785.743	0.0160989
785.821	0.0160805
785.899	0.0160965
785.977	0.0161191
786.055	0.0160081
786.134	0.0160113
786.212	0.0159795
786.290	0.0161040
786.368	0.0160162
786.446	0.0161203
786.524	0.0160356
786.602	0.0159573
786.680	0.0159863
786.759	0.0159764
786.837	0.0159828
786.915	0.0159539
786.993	0.0160101
787.071	0.0160284
787.149	0.0160590
787.227	0.0159921
787.305	0.0160424
787.384	0.0161835
787.462	0.0162418
787.540	0.0159193
787.618	0.0159628
787.696	0.0160976
787.774	0.0160764
787.852	0.0161172
787.930	0.0161295
788.009	0.0161501
788.087	0.0161516
788.165	0.0160793
788.243	0.0161314
788.321	0.0162287
788.399	0.0161216
788.477	0.0161628
788.555	0.0162029
788.634	0.0159239
788.712	0.0162497
788.790	0.0162936
788.868	0.0161545
788.946	0.0161205
789.024	0.0160863
789.102	0.0160201
789.180	0.0160158
789.259	0.0161683
789.337	0.0161130
789.415	0.0161372
789.493	0.0161218
789.571	0.0162904
789.649	0.0161889
789.727	0.0161919
789.805	0.0161834
789.884	0.0160994
789.962	0.0161031
790.040	0.0161646
790.118	0.0161473
790.196	0.0161466
790.274	0.0160648
790.352	0.0161590
790.430	0.0161039
790.509	0.0160757
790.587	0.0160116
790.665	0.0160020
790.743	0.0161230
790.821	0.0159121
790.899	0.0160182
790.977	0.0160539
791.055	0.0160441
791.134	0.0159466
791.212	0.0159402
791.290	0.0161079
791.368	0.0160257
791.446	0.0159115
791.524	0.0159888
791.602	0.0159660
791.680	0.0160640
791.759	0.0159786
791.837	0.0159314
791.915	0.0160394
791.993	0.0161341
792.071	0.0160811
792.149	0.0160282
792.227	0.0160178
792.305	0.0160329
792.384	0.0161309
792.462	0.0160587
792.540	0.0161209
792.618	0.0159931
792.696	0.0160502
792.774	0.0161009
792.852	0.0160783
792.930	0.0161324
793.009	0.0162820
793.087	0.0160925
793.165	0.0161649
793.243	0.0161074
793.321	0.0162421
793.399	0.0161951
793.477	0.0162096
793.555	0.0161800
793.634	0.0162485
793.712	0.0161748
793.790	0.0162527
793.868	0.0162505
793.946	0.0162679
794.024	0.0161982
794.102	0.0162022
794.180	0.0163221
794.259	0.0162500
794.337	0.0160802
794.415	0.0162172
794.493	0.0163375
794.571	0.0161217
794.649	0.0161837
794.727	0.0162759
794.805	0.0161945
794.884	0.0161676
794.962	0.0161957
795.040	0.0162406
795.118	0.0161296
795.196	0.0161960
795.274	0.0162337
795.352	0.0162514
795.430	0.0163334
795.509	0.0163324
795.587	0.0161115
795.665	0.0162924
795.743	0.0162326
795.821	0.0163017
795.899	0.0162971
795.977	0.0161608
796.055	0.0162491
796.134	0.0163057
796.212	0.0161334
796.290	0.0161243
796.368	0.0161804
796.446	0.0161093
796.524	0.0161137
796.602	0.0161253
796.680	0.0162405
796.759	0.0160812
796.837	0.0161382
796.915	0.0161195
796.993	0.0161252
797.071	0.0160889
797.149	0.0160487
797.227	0.0162741
797.305	0.0162177
797.384	0.0160722
797.462	0.0161729
797.540	0.0160732
797.618	0.0160898
797.696	0.0162469
797.774	0.0161274
797.852	0.0162424
797.930	0.0163400
798.009	0.0161843
798.087	0.0162423
798.165	0.0162273
798.243	0.0162666
798.321	0.0163348
798.399	0.0163300
798.477	0.0161900
798.555	0.0162148
798.634	0.0161302
798.712	0.0162555
798.790	0.0162803
798.868	0.0162560
798.946	0.0162440
799.024	0.0162518
799.102	0.0162078
799.180	0.0162670
799.259	0.0161102
799.337	0.0162329
799.415	0.0161163
799.493	0.0163376
799.571	0.0162924
799.649	0.0162160
799.727	0.0162637
799.805	0.0162193
799.884	0.0161826
799.962	0.0161520
800.040	0.0162270
800.118	0.0161430
800.196	0.0161226
800.274	0.0161416
800.352	0.0162930
800.430	0.0161958
800.509	0.0161228
800.587	0.0161488
800.665	0.0160576
800.743	0.0162073
800.821	0.0161414
800.899	0.0161114
800.977	0.0160080
801.055	0.0160722
801.134	0.0160736
801.212	0.0160034
801.290	0.0160865
801.368	0.0160993
801.446	0.0160406
801.524	0.0160174
801.602	0.0160162
801.680	0.0161178
801.759	0.0159805
801.837	0.0162664
801.915	0.0160091
801.993	0.0160746
802.071	0.0160071
802.149	0.0161133
802.227	0.0160764
802.305	0.0160625
802.384	0.0161229
802.462	0.0159828
802.540	0.0161415
802.618	0.0162460
802.696	0.0161660
802.774	0.0160464
802.852	0.0159962
802.930	0.0161469
803.009	0.0161845
803.087	0.0161362
803.165	0.0161650
803.243	0.0161272
803.321	0.0162390
803.399	0.0161414
803.477	0.0159821
803.555	0.0161704
803.634	0.0162714
803.712	0.0162334
803.790	0.0162312
803.868	0.0160938
803.946	0.0162035
804.024	0.0162681
804.102	0.0162827
804.180	0.0160925
804.259	0.0161975
804.337	0.0161366
804.415	0.0161441
804.493	0.0161272
804.571	0.0161221
804.649	0.0160957
804.727	0.0161267
804.805	0.0160597
804.884	0.0160825
804.962	0.0160104
805.040	0.0160361
805.118	0.0161448
805.196	0.0160349
805.274	0.0160274
805.352	0.0160947
805.430	0.0161998
805.509	0.0162341
805.587	0.0161278
805.665	0.0162225
805.743	0.0161798
805.821	0.0161242
805.899	0.0162600
805.977	0.0160911
806.055	0.0161367
806.134	0.0160268
806.212	0.0161765
806.290	0.0160607
806.368	0.0160294
806.446	0.0161246
806.524	0.0160603
806.602	0.0160271
806.680	0.0161222
806.759	0.0160596
806.837	0.0159119
806.915	0.0159000
806.993	0.0158969
807.071	0.0160281
807.149	0.0161000
807.227	0.0160573
807.305	0.0160284
807.384	0.0159775
807.462	0.0162528
807.540	0.0162845
807.618	0.0162676
807.696	0.0161935
807.774	0.0160503
807.852	0.0163219
807.930	0.0162125
808.009	0.0162115
808.087	0.0162357
808.165	0.0162447
808.243	0.0162213
808.321	0.0162137
808.399	0.0160578
808.477	0.0163172
808.555	0.0163102
808.634	0.0161633
808.712	0.0162223
808.790	0.0159966
808.868	0.0162171
808.946	0.0163229
809.024	0.0161906
809.102	0.0162348
809.180	0.0160928
809.259	0.0160779
809.337	0.0160671
809.415	0.0163165
809.493	0.0162733
809.571	0.0160632
809.649	0.0163190
809.727	0.0162472
809.805	0.0161735
809.884	0.0160916
809.962	0.0160793
810.040	0.0161075
810.118	0.0158556
810.196	0.0161344
810.274	0.0160969
810.352	0.0160764
810.430	0.0161253
810.509	0.0161109
810.587	0.0161029
810.665	0.0160539
810.743	0.0160349
810.821	0.0160366
810.899	0.0160569
810.977	0.0162971
811.055	0.0161393
811.134	0.0161654
811.212	0.0161366
811.290	0.0161430
811.368	0.0161497
811.446	0.0162469
811.524	0.0162744
811.602	0.0161559
811.680	0.0162037
811.759	0.0161909
811.837	0.0161825
811.915	0.0161926
811.993	0.0162888
812.071	0.0162347
812.149	0.0163039
812.227	0.0162539
812.305	0.0163311
812.384	0.0162890
812.462	0.0161700
812.540	0.0162401
812.618	0.0160659
812.696	0.0161194
812.774	0.0162269
812.852	0.0161036
812.930	0.0161163
813.009	0.0162283
813.087	0.0160013
813.165	0.0160458
813.243	0.0161410
813.321	0.0160674
813.399	0.0160809
813.477	0.0161293
813.555	0.0161047
813.634	0.0159724
813.712	0.0160836
813.790	0.0160294
813.868	0.0162501
813.946	0.0161720
814.024	0.0162025
814.102	0.0162958
814.180	0.0161639
814.259	0.0160429
814.337	0.0161617
814.415	0.0160704
814.493	0.0161552
814.571	0.0160069
814.649	0.0158255
814.727	0.0159872
814.805	0.0161239
814.884	0.0161462
814.962	0.0160989
815.040	0.0159291
815.118	0.0159612
815.196	0.0159393
815.274	0.0160220
815.352	0.0160042
815.430	0.0161939
815.509	0.0160403
815.587	0.0160487
815.665	0.0160527
815.743	0.0159791
815.821	0.0162283
815.899	0.0162222
815.977	0.0160901
816.055	0.0161446
816.134	0.0164474
816.212	0.0162471
816.290	0.0162524
816.368	0.0163745
816.446	0.0161515
816.524	0.0163264
816.602	0.0162105
816.680	0.0163326
816.759	0.0162410
816.837	0.0162068
816.915	0.0163794
816.993	0.0161756
817.071	0.0162132
817.149	0.0163142
817.227	0.0162503
817.305	0.0162528
817.384	0.0162754
817.462	0.0162278
817.540	0.0163305
817.618	0.0162990
817.696	0.0162713
817.774	0.0162293
817.852	0.0161913
817.930	0.0162295
818.009	0.0162753
818.087	0.0161167
818.165	0.0159785
818.243	0.0161201
818.321	0.0160768
818.399	0.0160449
818.477	0.0161929
818.555	0.0162366
818.634	0.0161517
818.712	0.0161292
818.790	0.0162180
818.868	0.0161960
818.946	0.0162191
819.024	0.0162176
819.102	0.0162477
819.180	0.0161333
819.259	0.0162720
819.337	0.0163187
819.415	0.0163818
819.493	0.0163385
819.571	0.0162392
819.649	0.0163051
819.727	0.0163381
819.805	0.0162214
819.884	0.0162438
819.962	0.0162288
820.040	0.0163223
820.118	0.0162364
820.196	0.0162087
820.274	0.0161707
820.352	0.0161208
820.430	0.0160271
820.509	0.0161153
820.587	0.0161917
820.665	0.0160396
820.743	0.0160181
820.821	0.0161790
820.899	0.0161065
820.977	0.0160876
821.055	0.0162440
821.134	0.0163021
821.212	0.0162834
821.290	0.0161589
821.368	0.0162201
821.446	0.0162454
821.524	0.0161868
821.602	0.0160941
821.680	0.0161175
821.759	0.0161876
821.837	0.0161745
821.915	0.0161508
821.993	0.0162331
822.071	0.0161044
822.149	0.0161685
822.227	0.0162077
822.305	0.0162805
822.384	0.0162177
822.462	0.0160989
822.540	0.0162315
822.618	0.0161147
822.696	0.0160455
822.774	0.0161880
822.852	0.0162336
822.930	0.0162307
823.009	0.0160553
823.087	0.0161461
823.165	0.0162082
823.243	0.0161131
823.321	0.0159962
823.399	0.0161198
823.477	0.0160672
823.555	0.0162086
823.634	0.0160749
823.712	0.0162291
823.790	0.0162643
823.868	0.0161268
823.946	0.0160792
824.024	0.0160485
824.102	0.0162565
824.180	0.0161428
824.259	0.0161543
824.337	0.0161250
824.415	0.0163541
824.493	0.0162827
824.571	0.0162048
824.649	0.0163215
824.727	0.0162778
824.805	0.0162140
824.884	0.0162411
824.962	0.0161133
825.040	0.0162283
825.118	0.0160519
825.196	0.0161052
825.274	0.0161136
825.352	0.0162047
825.430	0.0161077
825.509	0.0160666
825.587	0.0160443
825.665	0.0161938
825.743	0.0159017
825.821	0.0160218
825.899	0.0160690
825.977	0.0160879
826.055	0.0160001
826.134	0.0160452
826.212	0.0160191
826.290	0.0160522
826.368	0.0161111
826.446	0.0160480
826.524	0.0160703
826.602	0.0159581
826.680	0.0160136
826.759	0.0159547
826.837	0.0159969
826.915	0.0161446
826.993	0.0159629
827.071	0.0160902
827.149	0.0160384
827.227	0.0160394
827.305	0.0161253
827.384	0.0161327
827.462	0.0160662
827.540	0.0161211
827.618	0.0162228
827.696	0.0161373
827.774	0.0161205
827.852	0.0161337
827.930	0.0161136
828.009	0.0159856
828.087	0.0161126
828.165	0.0161301
828.243	0.0160316
828.321	0.0162181
828.399	0.0160748
828.477	0.0161977
828.555	0.0162275
828.634	0.0162148
828.712	0.0161978
828.790	0.0160522
828.868	0.0162744
828.946	0.0162085
829.024	0.0161027
829.102	0.0162633
829.180	0.0162331
829.259	0.0162240
829.337	0.0163597
829.415	0.0162337
829.493	0.0161032
829.571	0.0161470
829.649	0.0162603
829.727	0.0161432
829.805	0.0159772
829.884	0.0160002
829.962	0.0160037
830.040	0.0160797
830.118	0.0161390
830.196	0.0159580
830.274	0.0159420
830.352	0.0157861
830.430	0.0160045
830.509	0.0159593
830.587	0.0158725
830.665	0.0158917
830.743	0.0160317
830.821	0.0157838
830.899	0.0158360
830.977	0.0158702
831.055	0.0159059
831.134	0.0158035
831.212	0.0157668
831.290	0.0159398
831.368	0.0160083
831.446	0.0160188
831.524	0.0161145
831.602	0.0159850
831.680	0.0158629
831.759	0.0159626
831.837	0.0161268
831.915	0.0160922
831.993	0.0160001
832.071	0.0160753
832.149	0.0160874
832.227	0.0160691
832.305	0.0161302
832.384	0.0161723
832.462	0.0161996
832.540	0.0161975
832.618	0.0162162
832.696	0.0161642
832.774	0.0162023
832.852	0.0161268
832.930	0.0160238
833.009	0.0160722
833.087	0.0161078
833.165	0.0160188
833.243	0.0159431
833.321	0.0160300
833.399	0.0159511
833.477	0.0160698
833.555	0.0159230
833.634	0.0160187
833.712	0.0159180
833.790	0.0158851
833.868	0.0158134
833.946	0.0160558
834.024	0.0159208
834.102	0.0159266
834.180	0.0160037
834.259	0.0158838
834.337	0.0159970
834.415	0.0159162
834.493	0.0161330
834.571	0.0160134
834.649	0.0159424
834.727	0.0161429
834.805	0.0160462
834.884	0.0159547
834.962	0.0161660
835.040	0.0159612
835.118	0.0161568
835.196	0.0162617
835.274	0.0160960
835.352	0.0161286
835.430	0.0162096
835.509	0.0163371
835.587	0.0163012
835.665	0.0163670
835.743	0.0162749
835.821	0.0161266
835.899	0.0162297
835.977	0.0161738
836.055	0.0161985
836.134	0.0161592
836.212	0.0161406
836.290	0.0160596
836.368	0.0160760
836.446	0.0162543
836.524	0.0161250
836.602	0.0159941
836.680	0.0159705
836.759	0.0163341
836.837	0.0162312
836.915	0.0160235
836.993	0.0162263
837.071	0.0161037
837.149	0.0161739
837.227	0.0161412
837.305	0.0162523
837.384	0.0161755
837.462	0.0162502
837.540	0.0162241
837.618	0.0161076
837.696	0.0161186
837.774	0.0160225
837.852	0.0161397
837.930	0.0161783
838.009	0.0161074
838.087	0.0161172
838.165	0.0161386
838.243	0.0161272
838.321	0.0162187
838.399	0.0161973
838.477	0.0161783
838.555	0.0161405
838.634	0.0162678
838.712	0.0161265
838.790	0.0161526
838.868	0.0162638
838.946	0.0162412
839.024	0.0162076
839.102	0.0161532
839.180	0.0161514
839.259	0.0161991
839.337	0.0160075
839.415	0.0160923
839.493	0.0160808
839.571	0.0161159
839.649	0.0159860
839.727	0.0160957
839.805	0.0161913
839.884	0.0161005
839.962	0.0160569
840.040	0.0161356
840.118	0.0162731
840.196	0.0162455
840.274	0.0162756
840.352	0.0161230
840.430	0.0161708
840.509	0.0162600
840.587	0.0163316
840.665	0.0162730
840.743	0.0160729
840.821	0.0161049
840.899	0.0162000
840.977	0.0162372
841.055	0.0163902
841.134	0.0162281
841.212	0.0163654
841.290	0.0163247
841.368	0.0163220
841.446	0.0160925
841.524	0.0161941
841.602	0.0162748
841.680	0.0163544
841.759	0.0161359
841.837	0.0162015
841.915	0.0162424
841.993	0.0161646
842.071	0.0161662
842.149	0.0160958
842.227	0.0161389
842.305	0.0162206
842.384	0.0162413
842.462	0.0160310
842.540	0.0160954
842.618	0.0160427
842.696	0.0160425
842.774	0.0161897
842.852	0.0159380
842.930	0.0159599
843.009	0.0159023
843.087	0.0161208
843.165	0.0160626
843.243	0.0160382
843.321	0.0160686
843.399	0.0162008
843.477	0.0160475
843.555	0.0160827
843.634	0.0161336
843.712	0.0161488
843.790	0.0159993
843.868	0.0161444
843.946	0.0161092
844.024	0.0161191
844.102	0.0160448
844.180	0.0161106
844.259	0.0161655
844.337	0.0161165
844.415	0.0161117
844.493	0.0162523
844.571	0.0161858
844.649	0.0160709
844.727	0.0160189
844.805	0.0160352
844.884	0.0162348
844.962	0.0161652
845.040	0.0162221
845.118	0.0160848
845.196	0.0161951
845.274	0.0163101
845.352	0.0161752
845.430	0.0161538
845.509	0.0161235
845.587	0.0161581
845.665	0.0161570
845.743	0.0162123
845.821	0.0162558
845.899	0.0161798
845.977	0.0160926
846.055	0.0160706
846.134	0.0161301
846.212	0.0161146
846.290	0.0160651
846.368	0.0160628
846.446	0.0160327
846.524	0.0162148
846.602	0.0161123
846.680	0.0161285
846.759	0.0160608
846.837	0.0161263
846.915	0.0161570
846.993	0.0161266
847.071	0.0160999
847.149	0.0161707
847.227	0.0161633
847.305	0.0161041
847.384	0.0161590
847.462	0.0162859
847.540	0.0163079
847.618	0.0162052
847.696	0.0161750
847.774	0.0161174
847.852	0.0160577
847.930	0.0160878
848.009	0.0161315
848.087	0.0161897
848.165	0.0161086
848.243	0.0161143
848.321	0.0161785
848.399	0.0161050
848.477	0.0161179
848.555	0.0161927
848.634	0.0161615
848.712	0.0162634
848.790	0.0161818
848.868	0.0160970
848.946	0.0162492
849.024	0.0161457
849.102	0.0161468
849.180	0.0161179
849.259	0.0160580
849.337	0.0160944
849.415	0.0160935
849.493	0.0159920
849.571	0.0160078
849.649	0.0160564
849.727	0.0161861
849.805	0.0160510
849.884	0.0159207
849.962	0.0160493
850.040	0.0160353
850.118	0.0159792
850.196	0.0160652
850.274	0.0160044
850.352	0.0159393
850.430	0.0158936
850.509	0.0159777
850.587	0.0158672
850.665	0.0158569
850.743	0.0159145
850.821	0.0159283
850.899	0.0159184
850.977	0.0158525
851.055	0.0157837
851.134	0.0157584
851.212	0.0158720
851.290	0.0160175
851.368	0.0159083
851.446	0.0158611
851.524	0.0160542
851.602	0.0160775
851.680	0.0158588
851.759	0.0158914
851.837	0.0159075
851.915	0.0158987
851.993	0.0158468
852.071	0.0160770
852.149	0.0160429
852.227	0.0161021
852.305	0.0161282
852.384	0.0159574
852.462	0.0160133
852.540	0.0160659
852.618	0.0160724
852.696	0.0160056
852.774	0.0160324
852.852	0.0159702
852.930	0.0160345
853.009	0.0160085
853.087	0.0158572
853.165	0.0159844
853.243	0.0160007
853.321	0.0159501
853.399	0.0159509
853.477	0.0159550
853.555	0.0160082
853.634	0.0158588
853.712	0.0159554
853.790	0.0159164
853.868	0.0158633
853.946	0.0158264
854.024	0.0158181
854.102	0.0157603
854.180	0.0159373
854.259	0.0158212
854.337	0.0158881
854.415	0.0159074
854.493	0.0157719
854.571	0.0158362
854.649	0.0158147
854.727	0.0158910
854.805	0.0158784
854.884	0.0160429
854.962	0.0159550
855.040	0.0158746
855.118	0.0158863
855.196	0.0157999
855.274	0.0158675
855.352	0.0159658
855.430	0.0160071
855.509	0.0158193
855.587	0.0159837
855.665	0.0158916
855.743	0.0159743
855.821	0.0159940
855.899	0.0160029
855.977	0.0161543
856.055	0.0161821
856.134	0.0160002
856.212	0.0158807
856.290	0.0159903
856.368	0.0159628
856.446	0.0160320
856.524	0.0160612
856.602	0.0159837
856.680	0.0159114
856.759	0.0160966
856.837	0.0158260
856.915	0.0159481
856.993	0.0159724
857.071	0.0159122
857.149	0.0160369
857.227	0.0160854
857.305	0.0159232
857.384	0.0159400
857.462	0.0159676
857.540	0.0160924
857.618	0.0160718
857.696	0.0160565
857.774	0.0160294
857.852	0.0161006
857.930	0.0160754
858.009	0.0162540
858.087	0.0160928
858.165	0.0161798
858.243	0.0161649
858.321	0.0161163
858.399	0.0163400
858.477	0.0161882
858.555	0.0161272
858.634	0.0161907
858.712	0.0161327
858.790	0.0161366
858.868	0.0160719
858.946	0.0161447
859.024	0.0162247
859.102	0.0162396
859.180	0.0160677
859.259	0.0161540
859.337	0.0162566
859.415	0.0161337
859.493	0.0161143
859.571	0.0160709
859.649	0.0159711
859.727	0.0160929
859.805	0.0161449
859.884	0.0159270
859.962	0.0161670
860.040	0.0161883
860.118	0.0160948
860.196	0.0160787
860.274	0.0159859
860.352	0.0161472
860.430	0.0160744
860.509	0.0160619
860.587	0.0159224
860.665	0.0161404
860.743	0.0161111
860.821	0.0160190
860.899	0.0160825
860.977	0.0161359
861.055	0.0161135
861.134	0.0160943
861.212	0.0159951
861.290	0.0162475
861.368	0.0161128
861.446	0.0161709
861.524	0.0161066
861.602	0.0160374
861.680	0.0161041
861.759	0.0160880
861.837	0.0161355
861.915	0.0160123
861.993	0.0162115
862.071	0.0162062
862.149	0.0160986
862.227	0.0160430
862.305	0.0161674
862.384	0.0161980
862.462	0.0160873
862.540	0.0162755
862.618	0.0162284
862.696	0.0161884
862.774	0.0161852
862.852	0.0162977
862.930	0.0163122
863.009	0.0162868
863.087	0.0162881
863.165	0.0160907
863.243	0.0163000
863.321	0.0163676
863.399	0.0162769
863.477	0.0162717
863.555	0.0163041
863.634	0.0161577
863.712	0.0161370
863.790	0.0163165
863.868	0.0162080
863.946	0.0160864
864.024	0.0161180
864.102	0.0161423
864.180	0.0161880
864.259	0.0161706
864.337	0.0161388
864.415	0.0161540
864.493	0.0161340
864.571	0.0161529
864.649	0.0161460
864.727	0.0161426
864.805	0.0161286
864.884	0.0160685
864.962	0.0161431
865.040	0.0161174
865.118	0.0161294
865.196	0.0161783
865.274	0.0162502
865.352	0.0160518
865.430	0.0160927
865.509	0.0160722
865.587	0.0161105
865.665	0.0160374
865.743	0.0160061
865.821	0.0160042
865.899	0.0159208
865.977	0.0159142
866.055	0.0160172
866.134	0.0159278
866.212	0.0159686
866.290	0.0161005
866.368	0.0160190
866.446	0.0160997
866.524	0.0159720
866.602	0.0160233
866.680	0.0161008
866.759	0.0159966
866.837	0.0161447
866.915	0.0161567
866.993	0.0162110
867.071	0.0161147
867.149	0.0161758
867.227	0.0161050
867.305	0.0161428
867.384	0.0160368
867.462	0.0160979
867.540	0.0161013
867.618	0.0161121
867.696	0.0162000
867.774	0.0162025
867.852	0.0161627
867.930	0.0163225
868.009	0.0161834
868.087	0.0161313
868.165	0.0160949
868.243	0.0161055
868.321	0.0161607
868.399	0.0161235
868.477	0.0161100
868.555	0.0161475
868.634	0.0160086
868.712	0.0162518
868.790	0.0161888
868.868	0.0162582
868.946	0.0161169
869.024	0.0161775
869.102	0.0161794
869.180	0.0161472
869.259	0.0161720
869.337	0.0162299
869.415	0.0162728
869.493	0.0162096
869.571	0.0160954
869.649	0.0161037
869.727	0.0161833
869.805	0.0161874
869.884	0.0162486
869.962	0.0161106
870.040	0.0160609
870.118	0.0162375
870.196	0.0160988
870.274	0.0162154
870.352	0.0161700
870.430	0.0162210
870.509	0.0161739
870.587	0.0160982
870.665	0.0162428
870.743	0.0161626
870.821	0.0162826
870.899	0.0161541
870.977	0.0161125
871.055	0.0163838
871.134	0.0161826
871.212	0.0161829
871.290	0.0162639
871.368	0.0161922
871.446	0.0161318
871.524	0.0161652
871.602	0.0161750
871.680	0.0161717
871.759	0.0161095
871.837	0.0160001
871.915	0.0160786
871.993	0.0161517
872.071	0.0162687
872.149	0.0161082
872.227	0.0162237
872.305	0.0162093
872.384	0.0161711
872.462	0.0162344
872.540	0.0162543
872.618	0.0162428
872.696	0.0161275
872.774	0.0161071
872.852	0.0161864
872.930	0.0162231
873.009	0.0161080
873.087	0.0160674
873.165	0.0161753
873.243	0.0162500
873.321	0.0161630
873.399	0.0162883
873.477	0.0160923
873.555	0.0161781
873.634	0.0162199
873.712	0.0161108
873.790	0.0161060
873.868	0.0161028
873.946	0.0161166
874.024	0.0161630
874.102	0.0160521
874.180	0.0161953
874.259	0.0160370
874.337	0.0160532
874.415	0.0160450
874.493	0.0162184
874.571	0.0159673
874.649	0.0160590
874.727	0.0160124
874.805	0.0160889
874.884	0.0160402
874.962	0.0160576
875.040	0.0160271
875.118	0.0159966
875.196	0.0160965
875.274	0.0161491
875.352	0.0159712
875.430	0.0158475
875.509	0.0160356
875.587	0.0161276
875.665	0.0161517
875.743	0.0161507
875.821	0.0159450
875.899	0.0160480
875.977	0.0161820
876.055	0.0162483
876.134	0.0160120
876.212	0.0160967
876.290	0.0161179
876.368	0.0159963
876.446	0.0162331
876.524	0.0161791
876.602	0.0162254
876.680	0.0160765
876.759	0.0160660
876.837	0.0162088
876.915	0.0161071
876.993	0.0160053
877.071	0.0161057
877.149	0.0160574
877.227	0.0160852
877.305	0.0160098
877.384	0.0160251
877.462	0.0159542
877.540	0.0160077
877.618	0.0160675
877.696	0.0160521
877.774	0.0158730
877.852	0.0160671
877.930	0.0160189
878.009	0.0160316
878.087	0.0158755
878.165	0.0159756
878.243	0.0161514
878.321	0.0159205
878.399	0.0161502
878.477	0.0160775
878.555	0.0160789
878.634	0.0162016
878.712	0.0161424
878.790	0.0161024
878.868	0.0161382
878.946	0.0161161
879.024	0.0160144
879.102	0.0160138
879.180	0.0161171
879.259	0.0160367
879.337	0.0160197
879.415	0.0162006
879.493	0.0161132
879.571	0.0160322
879.649	0.0161988
879.727	0.0160619
879.805	0.0160417
879.884	0.0160770
879.962	0.0160900
880.040	0.0161093
880.118	0.0161073
880.196	0.0161726
880.274	0.0159815
880.352	0.0159884
880.430	0.0162386
880.509	0.0160471
880.587	0.0159633
880.665	0.0160859
880.743	0.0161215
880.821	0.0161392
880.899	0.0161261
880.977	0.0160423
881.055	0.0160457
881.134	0.0160686
881.212	0.0159476
881.290	0.0160730
881.368	0.0162388
881.446	0.0162097
881.524	0.0161410
881.602	0.0161327
881.680	0.0160429
881.759	0.0159601
881.837	0.0160246
881.915	0.0162688
881.993	0.0161789
882.071	0.0161233
882.149	0.0161126
882.227	0.0159256
882.305	0.0159992
882.384	0.0162152
882.462	0.0161835
882.540	0.0160921
882.618	0.0160223
882.696	0.0161170
882.774	0.0161083
882.852	0.0162539
882.930	0.0161031
883.009	0.0160934
883.087	0.0160262
883.165	0.0160509
883.243	0.0161787
883.321	0.0161026
883.399	0.0161697
883.477	0.0159651
883.555	0.0161165
883.634	0.0162048
883.712	0.0161169
883.790	0.0161143
883.868	0.0160530
883.946	0.0161123
884.024	0.0161337
884.102	0.0160398
884.180	0.0162990
884.259	0.0160646
884.337	0.0160918
884.415	0.0160722
884.493	0.0162892
884.571	0.0162275
884.649	0.0161372
884.727	0.0161153
884.805	0.0162132
884.884	0.0162055
884.962	0.0163217
885.040	0.0162048
885.118	0.0162984
885.196	0.0162453
885.274	0.0163046
885.352	0.0162586
885.430	0.0160226
885.509	0.0161584
885.587	0.0161775
885.665	0.0161610
885.743	0.0162167
885.821	0.0160284
885.899	0.0162493
885.977	0.0162210
886.055	0.0162844
886.134	0.0160061
886.212	0.0162395
886.290	0.0163100
886.368	0.0163332
886.446	0.0163705
886.524	0.0162498
886.602	0.0162643
886.680	0.0164832
886.759	0.0163620
886.837	0.0163696
886.915	0.0164162
886.993	0.0162961
887.071	0.0163187
887.149	0.0162192
887.227	0.0161138
887.305	0.0161934
887.384	0.0161411
887.462	0.0161765
887.540	0.0163089
887.618	0.0162711
887.696	0.0161113
887.774	0.0162428
887.852	0.0160607
887.930	0.0162078
888.009	0.0162480
888.087	0.0161420
888.165	0.0163474
888.243	0.0163238
888.321	0.0161715
888.399	0.0160696
888.477	0.0161701
888.555	0.0161472
888.634	0.0162263
888.712	0.0163515
888.790	0.0161759
888.868	0.0162247
888.946	0.0162606
889.024	0.0161639
889.102	0.0160742
889.180	0.0161453
889.259	0.0161904
889.337	0.0162286
889.415	0.0162602
889.493	0.0161693
889.571	0.0161895
889.649	0.0161510
889.727	0.0160422
889.805	0.0160744
889.884	0.0160075
889.962	0.0160479
890.040	0.0161146
890.118	0.0159858
890.196	0.0161410
890.274	0.0161238
890.352	0.0159165
890.430	0.0159042
890.509	0.0159183
890.587	0.0160107
890.665	0.0160526
890.743	0.0160924
890.821	0.0158683
890.899	0.0160392
890.977	0.0160609
891.055	0.0159667
891.134	0.0158084
891.212	0.0160124
891.290	0.0160972
891.368	0.0159765
891.446	0.0160483
891.524	0.0160493
891.602	0.0160576
891.680	0.0160564
891.759	0.0160699
891.837	0.0161787
891.915	0.0160356
891.993	0.0161170
892.071	0.0161138
892.149	0.0162512
892.227	0.0160245
892.305	0.0161518
892.384	0.0160158
892.462	0.0161745
892.540	0.0162093
892.618	0.0161391
892.696	0.0160124
892.774	0.0161131
892.852	0.0161739
892.930	0.0161549
893.009	0.0160860
893.087	0.0162323
893.165	0.0162633
893.243	0.0161597
893.321	0.0162095
893.399	0.0162332
893.477	0.0160235
893.555	0.0161178
893.634	0.0162821
893.712	0.0162074
893.790	0.0161066
893.868	0.0160654
893.946	0.0161125
894.024	0.0161174
894.102	0.0162695
894.180	0.0161993
894.259	0.0160211
894.337	0.0161729
894.415	0.0160940
894.493	0.0161127
894.571	0.0162062
894.649	0.0161301
894.727	0.0160275
894.805	0.0162371
894.884	0.0161458
894.962	0.0160793
895.040	0.0161523
895.118	0.0161888
895.196	0.0161149
895.274	0.0162248
895.352	0.0162366
895.430	0.0162337
895.509	0.0162506
895.587	0.0164125
895.665	0.0162080
895.743	0.0162061
895.821	0.0162550
895.899	0.0162093
895.977	0.0161908
896.055	0.0163074
896.134	0.0163180
896.212	0.0162212
896.290	0.0161506
896.368	0.0161057
896.446	0.0161051
896.524	0.0161568
896.602	0.0160337
896.680	0.0161931
896.759	0.0162205
896.837	0.0161468
896.915	0.0161333
896.993	0.0161506
897.071	0.0161562
897.149	0.0161214
897.227	0.0159736
897.305	0.0159857
897.384	0.0159210
897.462	0.0160352
897.540	0.0159843
897.618	0.0159771
897.696	0.0160643
897.774	0.0161639
897.852	0.0160465
897.930	0.0159673
898.009	0.0160701
898.087	0.0159198
898.165	0.0160172
898.243	0.0160226
898.321	0.0160916
898.399	0.0160146
898.477	0.0159140
898.555	0.0160479
898.634	0.0160947
898.712	0.0160171
898.790	0.0160291
898.868	0.0160048
898.946	0.0160588
899.024	0.0160903
899.102	0.0161974
899.180	0.0160932
899.259	0.0160492
899.337	0.0160976
899.415	0.0159915
899.493	0.0161538
899.571	0.0160174
899.649	0.0160592
899.727	0.0161040
899.805	0.0161432
899.884	0.0161096
899.962	0.0161230
900.040	0.0162003
900.118	0.0162321
900.196	0.0160589
900.274	0.0160246
900.352	0.0160938
900.430	0.0160777
900.509	0.0160258
900.587	0.0160088
900.665	0.0160903
900.743	0.0160107
900.821	0.0160629
900.899	0.0160007
900.977	0.0162121
901.055	0.0160330
901.134	0.0159676
901.212	0.0159346
901.290	0.0159987
901.368	0.0159494
901.446	0.0160452
901.524	0.0162341
901.602	0.0160092
901.680	0.0160665
901.759	0.0161665
901.837	0.0161548
901.915	0.0161436
901.993	0.0161506
902.071	0.0161539
902.149	0.0162408
902.227	0.0161559
902.305	0.0161777
902.384	0.0161242
902.462	0.0161031
902.540	0.0161528
902.618	0.0161176
902.696	0.0161584
902.774	0.0160855
902.852	0.0161636
902.930	0.0162656
903.009	0.0162757
903.087	0.0161040
903.165	0.0162079
903.243	0.0161820
903.321	0.0162677
903.399	0.0162933
903.477	0.0161613
903.555	0.0161774
903.634	0.0161671
903.712	0.0161858
903.790	0.0161604
903.868	0.0162946
903.946	0.0162634
904.024	0.0162836
904.102	0.0160673
904.180	0.0160545
904.259	0.0160439
904.337	0.0160834
904.415	0.0159992
904.493	0.0159931
904.571	0.0161659
904.649	0.0160155
904.727	0.0161063
904.805	0.0161946
904.884	0.0160983
904.962	0.0160661
905.040	0.0161981
905.118	0.0160641
905.196	0.0161541
905.274	0.0160950
905.352	0.0160852
905.430	0.0161721
905.509	0.0161922
905.587	0.0162609
905.665	0.0162595
905.743	0.0162776
905.821	0.0162022
905.899	0.0162197
905.977	0.0161926
906.055	0.0162283
906.134	0.0163228
906.212	0.0162429
906.290	0.0162453
906.368	0.0162434
906.446	0.0162057
906.524	0.0162079
906.602	0.0163145
906.680	0.0162809
906.759	0.0162179
906.837	0.0161136
906.915	0.0160328
906.993	0.0160755
907.071	0.0161680
907.149	0.0161893
907.227	0.0161362
907.305	0.0160560
907.384	0.0162003
907.462	0.0161930
907.540	0.0159777
907.618	0.0161032
907.696	0.0160565
907.774	0.0161753
907.852	0.0161563
907.930	0.0160522
908.009	0.0161225
908.087	0.0160775
908.165	0.0161075
908.243	0.0161012
908.321	0.0161689
908.399	0.0162402
908.477	0.0161128
908.555	0.0161768
908.634	0.0160477
908.712	0.0161108
908.790	0.0160979
908.868	0.0161646
908.946	0.0161453
909.024	0.0162400
909.102	0.0161709
909.180	0.0161145
909.259	0.0161387
909.337	0.0160961
909.415	0.0160125
909.493	0.0161433
909.571	0.0161351
909.649	0.0160654
909.727	0.0161524
909.805	0.0161443
909.884	0.0161847
909.962	0.0161317
910.040	0.0161598
910.118	0.0162282
910.196	0.0160839
910.274	0.0161362
910.352	0.0162950
910.430	0.0161149
910.509	0.0160998
910.587	0.0161976
910.665	0.0161505
910.743	0.0163064
910.821	0.0161137
910.899	0.0160391
910.977	0.0162575
911.055	0.0162767
911.134	0.0161646
911.212	0.0161784
911.290	0.0162481
911.368	0.0162153
911.446	0.0162056
911.524	0.0161909
911.602	0.0163385
911.680	0.0163206
911.759	0.0162865
911.837	0.0162273
911.915	0.0162515
911.993	0.0162929
912.071	0.0162595
912.149	0.0163599
912.227	0.0163962
912.305	0.0163634
912.384	0.0162091
912.462	0.0162427
912.540	0.0160876
912.618	0.0163529
912.696	0.0162270
912.774	0.0161814
912.852	0.0162159
912.930	0.0161588
913.009	0.0162330
913.087	0.0161268
913.165	0.0160489
913.243	0.0160953
913.321	0.0161333
913.399	0.0161313
913.477	0.0161613
913.555	0.0161858
913.634	0.0163562
913.712	0.0160693
913.790	0.0162330
913.868	0.0161064
913.946	0.0162360
914.024	0.0161838
914.102	0.0162434
914.180	0.0161771
914.259	0.0162802
914.337	0.0161140
914.415	0.0162546
914.493	0.0161890
914.571	0.0161814
914.649	0.0161517
914.727	0.0162949
914.805	0.0163137
914.884	0.0161892
914.962	0.0162899
915.040	0.0163039
915.118	0.0162930
915.196	0.0161353
915.274	0.0162505
915.352	0.0161217
915.430	0.0162604
915.509	0.0161280
915.587	0.0162448
915.665	0.0162981
915.743	0.0162603
915.821	0.0162025
915.899	0.0160863
915.977	0.0160957
916.055	0.0161716
916.134	0.0161751
916.212	0.0161372
916.290	0.0161860
916.368	0.0162148
916.446	0.0160152
916.524	0.0161262
916.602	0.0161163
916.680	0.0161703
916.759	0.0161900
916.837	0.0160825
916.915	0.0160793
916.993	0.0161396
917.071	0.0161311
917.149	0.0162177
917.227	0.0161758
917.305	0.0161481
917.384	0.0160195
917.462	0.0162018
917.540	0.0162247
917.618	0.0161227
917.696	0.0161230
917.774	0.0161867
917.852	0.0161495
917.930	0.0162708
918.009	0.0160648
918.087	0.0162463
918.165	0.0162192
918.243	0.0161577
918.321	0.0162784
918.399	0.0161506
918.477	0.0160011
918.555	0.0161516
918.634	0.0162589
918.712	0.0160222
918.790	0.0161623
918.868	0.0163177
918.946	0.0160069
919.024	0.0161092
919.102	0.0159741
919.180	0.0160206
919.259	0.0160178
919.337	0.0160292
919.415	0.0161250
919.493	0.0160260
919.571	0.0159681
919.649	0.0160810
919.727	0.0160459
919.805	0.0160004
919.884	0.0160039
