06/13/2022	15:17:20	Ver.	4.1	UNKNOWN
Optical Delay	599.961724	Delta X		0.078125	Sweeps	1	Scan Rate	0/0
Coordinates	Axis 1	NaN	Axis 2	NaN	Axis 3	NaN	Axis 4	NaN	Axis 5	NaN	Axis 6	0.000000
TX Power	0.000000	RX Power	0.000000

599.962	0.0167889
600.040	0.0163924
600.118	0.0164798
600.196	0.0165936
600.274	0.0167215
600.352	0.0165955
600.430	0.0166617
600.509	0.0166557
600.587	0.0164998
600.665	0.0165681
600.743	0.0166161
600.821	0.0167170
600.899	0.0167860
600.977	0.0166234
601.055	0.0166077
601.134	0.0167036
601.212	0.0168449
601.290	0.0167075
601.368	0.0167784
601.446	0.0168889
601.524	0.0168148
601.602	0.0169432
601.680	0.0168843
601.759	0.0169418
601.837	0.0168632
601.915	0.0168843
601.993	0.0168815
602.071	0.0169974
602.149	0.0169367
602.227	0.0169291
602.305	0.0168688
602.384	0.0168789
602.462	0.0169085
602.540	0.0169804
602.618	0.0169197
602.696	0.0169121
602.774	0.0168430
602.852	0.0168354
602.930	0.0168434
603.009	0.0169041
603.087	0.0168910
603.165	0.0168378
603.243	0.0168966
603.321	0.0168382
603.399	0.0168829
603.477	0.0168290
603.555	0.0168413
603.634	0.0168388
603.712	0.0168483
603.790	0.0168398
603.868	0.0167362
603.946	0.0168250
604.024	0.0168092
604.102	0.0167002
604.180	0.0168855
604.259	0.0168065
604.337	0.0166351
604.415	0.0166830
604.493	0.0167640
604.571	0.0166846
604.649	0.0166338
604.727	0.0167034
604.805	0.0165974
604.884	0.0166798
604.962	0.0166986
605.040	0.0166964
605.118	0.0167174
605.196	0.0167969
605.274	0.0167330
605.352	0.0166885
605.430	0.0167297
605.509	0.0165883
605.587	0.0166288
605.665	0.0167390
605.743	0.0168094
605.821	0.0166644
605.899	0.0165929
605.977	0.0165366
606.055	0.0167231
606.134	0.0166257
606.212	0.0168260
606.290	0.0168864
606.368	0.0167368
606.446	0.0167561
606.524	0.0166997
606.602	0.0168672
606.680	0.0169713
606.759	0.0167612
606.837	0.0169102
606.915	0.0166997
606.993	0.0168324
607.071	0.0167727
607.149	0.0167872
607.227	0.0167849
607.305	0.0166836
607.384	0.0166911
607.462	0.0167826
607.540	0.0167649
607.618	0.0166091
607.696	0.0168222
607.774	0.0167416
607.852	0.0166532
607.930	0.0167317
608.009	0.0166954
608.087	0.0166819
608.165	0.0164613
608.243	0.0165966
608.321	0.0165826
608.399	0.0164979
608.477	0.0164880
608.555	0.0165507
608.634	0.0166097
608.712	0.0165266
608.790	0.0165508
608.868	0.0164503
608.946	0.0166125
609.024	0.0165276
609.102	0.0166639
609.180	0.0164595
609.259	0.0164079
609.337	0.0165813
609.415	0.0164778
609.493	0.0164837
609.571	0.0163934
609.649	0.0164519
609.727	0.0164089
609.805	0.0162896
609.884	0.0162922
609.962	0.0164381
610.040	0.0162594
610.118	0.0163270
610.196	0.0163194
610.274	0.0162912
610.352	0.0163052
610.430	0.0162253
610.509	0.0162865
610.587	0.0162502
610.665	0.0162479
610.743	0.0162053
610.821	0.0159906
610.899	0.0161231
610.977	0.0160641
611.055	0.0161983
611.134	0.0161459
611.212	0.0161024
611.290	0.0158923
611.368	0.0160149
611.446	0.0159760
611.524	0.0159081
611.602	0.0159711
611.680	0.0160476
611.759	0.0160595
611.837	0.0159784
611.915	0.0160388
611.993	0.0161210
612.071	0.0161044
612.149	0.0161903
612.227	0.0161693
612.305	0.0162041
612.384	0.0162489
612.462	0.0163599
612.540	0.0161507
612.618	0.0163915
612.696	0.0162709
612.774	0.0163615
612.852	0.0163868
612.930	0.0164634
613.009	0.0165695
613.087	0.0164973
613.165	0.0163911
613.243	0.0165098
613.321	0.0165333
613.399	0.0166044
613.477	0.0166418
613.555	0.0167176
613.634	0.0167882
613.712	0.0166859
613.790	0.0168078
613.868	0.0168600
613.946	0.0167065
614.024	0.0167715
614.102	0.0167980
614.180	0.0166705
614.259	0.0166054
614.337	0.0165493
614.415	0.0165516
614.493	0.0165722
614.571	0.0165578
614.649	0.0165586
614.727	0.0164856
614.805	0.0164581
614.884	0.0165181
614.962	0.0164236
615.040	0.0166516
615.118	0.0165582
615.196	0.0166980
615.274	0.0165535
615.352	0.0165979
615.430	0.0166176
615.509	0.0166096
615.587	0.0168317
615.665	0.0167747
615.743	0.0168539
615.821	0.0166063
615.899	0.0166830
615.977	0.0169508
616.055	0.0168743
616.134	0.0167976
616.212	0.0168345
616.290	0.0168287
616.368	0.0167766
616.446	0.0168256
616.524	0.0168561
616.602	0.0169102
616.680	0.0169363
616.759	0.0169606
616.837	0.0168984
616.915	0.0170345
616.993	0.0169064
617.071	0.0170784
617.149	0.0170573
617.227	0.0172196
617.305	0.0170478
617.384	0.0171672
617.462	0.0172614
617.540	0.0171460
617.618	0.0171051
617.696	0.0171748
617.774	0.0172250
617.852	0.0171886
617.930	0.0171990
618.009	0.0172178
618.087	0.0172582
618.165	0.0172100
618.243	0.0169842
618.321	0.0171133
618.399	0.0170342
618.477	0.0170277
618.555	0.0170995
618.634	0.0171822
618.712	0.0168655
618.790	0.0168622
618.868	0.0169162
618.946	0.0169242
619.024	0.0168941
619.102	0.0168139
619.180	0.0169398
619.259	0.0169015
619.337	0.0167825
619.415	0.0167257
619.493	0.0168468
619.571	0.0167985
619.649	0.0168046
619.727	0.0168532
619.805	0.0170288
619.884	0.0166618
619.962	0.0167827
620.040	0.0168304
620.118	0.0168306
620.196	0.0168961
620.274	0.0168169
620.352	0.0169440
620.430	0.0169125
620.509	0.0169180
620.587	0.0169150
620.665	0.0168975
620.743	0.0168584
620.821	0.0168653
620.899	0.0168908
620.977	0.0168053
621.055	0.0168684
621.134	0.0168848
621.212	0.0167632
621.290	0.0166758
621.368	0.0168160
621.446	0.0169081
621.524	0.0166901
621.602	0.0166613
621.680	0.0167070
621.759	0.0166973
621.837	0.0168431
621.915	0.0166528
621.993	0.0168490
622.071	0.0168587
622.149	0.0167829
622.227	0.0166051
622.305	0.0167091
622.384	0.0167465
622.462	0.0168148
622.540	0.0167011
622.618	0.0167296
622.696	0.0166006
622.774	0.0166733
622.852	0.0167899
622.930	0.0165653
623.009	0.0166943
623.087	0.0167051
623.165	0.0166293
623.243	0.0166384
623.321	0.0165746
623.399	0.0166464
623.477	0.0166109
623.555	0.0166009
623.634	0.0165912
623.712	0.0166054
623.790	0.0166844
623.868	0.0164697
623.946	0.0166541
624.024	0.0167611
624.102	0.0166521
624.180	0.0167210
624.259	0.0166106
624.337	0.0167191
624.415	0.0167226
624.493	0.0166220
624.571	0.0167788
624.649	0.0166723
624.727	0.0165779
624.805	0.0165014
624.884	0.0165891
624.962	0.0166730
625.040	0.0165948
625.118	0.0166519
625.196	0.0166183
625.274	0.0166125
625.352	0.0165991
625.430	0.0164692
625.509	0.0164950
625.587	0.0167233
625.665	0.0166531
625.743	0.0166400
625.821	0.0165946
625.899	0.0165752
625.977	0.0166452
626.055	0.0165471
626.134	0.0165349
626.212	0.0164767
626.290	0.0165970
626.368	0.0165411
626.446	0.0166312
626.524	0.0165854
626.602	0.0165729
626.680	0.0165473
626.759	0.0165760
626.837	0.0164610
626.915	0.0164746
626.993	0.0165274
627.071	0.0165410
627.149	0.0165609
627.227	0.0166419
627.305	0.0165323
627.384	0.0165847
627.462	0.0165764
627.540	0.0165260
627.618	0.0165968
627.696	0.0165330
627.774	0.0166345
627.852	0.0166128
627.930	0.0166394
628.009	0.0166716
628.087	0.0166312
628.165	0.0166236
628.243	0.0167058
628.321	0.0166080
628.399	0.0165866
628.477	0.0166132
628.555	0.0164811
628.634	0.0166766
628.712	0.0167568
628.790	0.0166352
628.868	0.0166198
628.946	0.0164906
629.024	0.0164619
629.102	0.0164881
629.180	0.0165467
629.259	0.0165942
629.337	0.0165569
629.415	0.0164828
629.493	0.0165416
629.571	0.0165451
629.649	0.0166501
629.727	0.0164253
629.805	0.0164455
629.884	0.0165381
629.962	0.0164560
630.040	0.0164312
630.118	0.0163812
630.196	0.0163404
630.274	0.0164706
630.352	0.0163920
630.430	0.0163618
630.509	0.0163311
630.587	0.0164185
630.665	0.0164751
630.743	0.0165253
630.821	0.0164464
630.899	0.0163477
630.977	0.0164046
631.055	0.0165546
631.134	0.0166143
631.212	0.0165439
631.290	0.0164497
631.368	0.0164677
631.446	0.0164937
631.524	0.0165733
631.602	0.0164536
631.680	0.0165617
631.759	0.0165612
631.837	0.0164926
631.915	0.0164945
631.993	0.0165412
632.071	0.0164812
632.149	0.0166176
632.227	0.0165971
632.305	0.0165092
632.384	0.0165587
632.462	0.0165543
632.540	0.0166843
632.618	0.0166789
632.696	0.0165393
632.774	0.0166415
632.852	0.0166705
632.930	0.0165102
633.009	0.0164963
633.087	0.0165117
633.165	0.0164982
633.243	0.0166804
633.321	0.0165788
633.399	0.0164439
633.477	0.0164959
633.555	0.0165507
633.634	0.0164469
633.712	0.0164867
633.790	0.0164352
633.868	0.0163998
633.946	0.0163622
634.024	0.0164925
634.102	0.0165147
634.180	0.0164420
634.259	0.0164146
634.337	0.0163884
634.415	0.0164753
634.493	0.0165291
634.571	0.0164823
634.649	0.0164137
634.727	0.0164051
634.805	0.0164507
634.884	0.0164432
634.962	0.0164970
635.040	0.0166098
635.118	0.0167606
635.196	0.0166714
635.274	0.0166267
635.352	0.0167009
635.430	0.0166484
635.509	0.0166702
635.587	0.0166788
635.665	0.0165783
635.743	0.0166937
635.821	0.0167604
635.899	0.0168103
635.977	0.0168071
636.055	0.0167659
636.134	0.0168903
636.212	0.0167473
636.290	0.0168237
636.368	0.0167021
636.446	0.0166151
636.524	0.0168825
636.602	0.0167542
636.680	0.0169250
636.759	0.0168761
636.837	0.0168779
636.915	0.0167782
636.993	0.0169007
637.071	0.0169348
637.149	0.0168948
637.227	0.0168993
637.305	0.0168300
637.384	0.0168047
637.462	0.0168293
637.540	0.0167365
637.618	0.0169463
637.696	0.0168885
637.774	0.0169554
637.852	0.0169063
637.930	0.0168063
638.009	0.0169732
638.087	0.0167397
638.165	0.0168515
638.243	0.0168948
638.321	0.0169716
638.399	0.0169011
638.477	0.0169621
638.555	0.0168642
638.634	0.0168635
638.712	0.0168434
638.790	0.0168255
638.868	0.0170698
638.946	0.0168580
639.024	0.0168744
639.102	0.0168328
639.180	0.0168411
639.259	0.0167883
639.337	0.0170399
639.415	0.0168913
639.493	0.0168344
639.571	0.0167986
639.649	0.0166834
639.727	0.0169732
639.805	0.0167999
639.884	0.0167790
639.962	0.0168068
640.040	0.0166692
640.118	0.0166673
640.196	0.0168337
640.274	0.0167705
640.352	0.0165907
640.430	0.0166698
640.509	0.0165708
640.587	0.0166991
640.665	0.0167510
640.743	0.0167111
640.821	0.0166292
640.899	0.0165911
640.977	0.0167114
641.055	0.0167050
641.134	0.0166353
641.212	0.0166459
641.290	0.0166199
641.368	0.0167443
641.446	0.0168032
641.524	0.0166553
641.602	0.0165606
641.680	0.0166573
641.759	0.0166508
641.837	0.0166995
641.915	0.0166315
641.993	0.0167457
642.071	0.0167519
642.149	0.0166992
642.227	0.0166902
642.305	0.0166475
642.384	0.0166695
642.462	0.0166409
642.540	0.0165739
642.618	0.0166978
642.696	0.0166812
642.774	0.0166058
642.852	0.0166564
642.930	0.0166836
643.009	0.0165848
643.087	0.0167691
643.165	0.0165942
643.243	0.0165878
643.321	0.0165149
643.399	0.0164948
643.477	0.0166482
643.555	0.0165758
643.634	0.0166319
643.712	0.0165984
643.790	0.0164945
643.868	0.0165689
643.946	0.0164102
644.024	0.0165382
644.102	0.0164948
644.180	0.0165868
644.259	0.0165817
644.337	0.0165112
644.415	0.0166360
644.493	0.0166651
644.571	0.0166805
644.649	0.0164707
644.727	0.0164344
644.805	0.0165012
644.884	0.0165427
644.962	0.0165993
645.040	0.0166215
645.118	0.0166780
645.196	0.0166615
645.274	0.0167222
645.352	0.0166539
645.430	0.0165296
645.509	0.0166491
645.587	0.0165451
645.665	0.0165575
645.743	0.0167030
645.821	0.0165314
645.899	0.0166052
645.977	0.0166887
646.055	0.0166198
646.134	0.0166085
646.212	0.0166069
646.290	0.0166255
646.368	0.0166571
646.446	0.0165415
646.524	0.0165511
646.602	0.0166397
646.680	0.0167155
646.759	0.0166115
646.837	0.0165926
646.915	0.0167040
646.993	0.0167515
647.071	0.0166850
647.149	0.0166582
647.227	0.0166293
647.305	0.0167305
647.384	0.0168024
647.462	0.0167145
647.540	0.0168245
647.618	0.0167126
647.696	0.0166317
647.774	0.0166409
647.852	0.0166582
647.930	0.0167348
648.009	0.0165794
648.087	0.0166666
648.165	0.0164949
648.243	0.0165245
648.321	0.0165633
648.399	0.0166179
648.477	0.0166970
648.555	0.0166465
648.634	0.0168378
648.712	0.0166679
648.790	0.0166398
648.868	0.0166193
648.946	0.0167599
649.024	0.0165540
649.102	0.0166455
649.180	0.0167042
649.259	0.0166164
649.337	0.0167619
649.415	0.0166192
649.493	0.0166553
649.571	0.0166673
649.649	0.0166281
649.727	0.0167270
649.805	0.0166363
649.884	0.0167770
649.962	0.0165869
650.040	0.0166578
650.118	0.0166520
650.196	0.0165186
650.274	0.0166509
650.352	0.0165353
650.430	0.0165562
650.509	0.0165462
650.587	0.0165005
650.665	0.0166393
650.743	0.0164926
650.821	0.0164655
650.899	0.0165973
650.977	0.0164993
651.055	0.0165018
651.134	0.0166129
651.212	0.0165440
651.290	0.0166640
651.368	0.0164696
651.446	0.0164938
651.524	0.0165591
651.602	0.0166440
651.680	0.0165404
651.759	0.0167500
651.837	0.0167467
651.915	0.0165952
651.993	0.0165130
652.071	0.0166592
652.149	0.0167811
652.227	0.0165160
652.305	0.0165802
652.384	0.0167104
652.462	0.0166745
652.540	0.0166125
652.618	0.0167533
652.696	0.0166955
652.774	0.0165157
652.852	0.0165947
652.930	0.0168083
653.009	0.0167693
653.087	0.0167292
653.165	0.0167348
653.243	0.0167884
653.321	0.0166406
653.399	0.0166785
653.477	0.0166792
653.555	0.0167126
653.634	0.0166341
653.712	0.0166809
653.790	0.0166705
653.868	0.0167258
653.946	0.0167459
654.024	0.0166048
654.102	0.0166451
654.180	0.0164895
654.259	0.0166546
654.337	0.0166862
654.415	0.0166232
654.493	0.0166370
654.571	0.0166241
654.649	0.0166631
654.727	0.0167127
654.805	0.0165525
654.884	0.0165153
654.962	0.0165656
655.040	0.0165370
655.118	0.0166275
655.196	0.0165872
655.274	0.0165406
655.352	0.0164767
655.430	0.0167168
655.509	0.0166003
655.587	0.0163997
655.665	0.0165548
655.743	0.0165453
655.821	0.0166110
655.899	0.0166068
655.977	0.0165263
656.055	0.0166702
656.134	0.0166042
656.212	0.0166534
656.290	0.0165323
656.368	0.0166581
656.446	0.0165986
656.524	0.0165965
656.602	0.0165236
656.680	0.0165749
656.759	0.0166937
656.837	0.0166249
656.915	0.0165918
656.993	0.0166042
657.071	0.0167072
657.149	0.0167376
657.227	0.0166692
657.305	0.0165865
657.384	0.0166972
657.462	0.0168523
657.540	0.0165959
657.618	0.0166460
657.696	0.0166656
657.774	0.0167768
657.852	0.0167632
657.930	0.0167194
658.009	0.0166490
658.087	0.0165839
658.165	0.0166128
658.243	0.0166911
658.321	0.0168124
658.399	0.0167259
658.477	0.0166708
658.555	0.0168180
658.634	0.0166200
658.712	0.0166052
658.790	0.0168069
658.868	0.0165941
658.946	0.0166731
659.024	0.0165977
659.102	0.0168082
659.180	0.0168357
659.259	0.0165746
659.337	0.0166199
659.415	0.0167013
659.493	0.0166629
659.571	0.0166561
659.649	0.0167732
659.727	0.0167229
659.805	0.0165366
659.884	0.0166598
659.962	0.0166539
660.040	0.0165308
660.118	0.0165858
660.196	0.0166062
660.274	0.0166229
660.352	0.0165472
660.430	0.0167126
660.509	0.0166911
660.587	0.0167184
660.665	0.0166648
660.743	0.0165307
660.821	0.0165518
660.899	0.0166801
660.977	0.0166467
661.055	0.0166942
661.134	0.0165993
661.212	0.0167575
661.290	0.0165762
661.368	0.0165469
661.446	0.0166276
661.524	0.0166212
661.602	0.0166473
661.680	0.0166354
661.759	0.0165926
661.837	0.0166948
661.915	0.0167078
661.993	0.0166511
662.071	0.0165730
662.149	0.0167155
662.227	0.0165897
662.305	0.0166290
662.384	0.0166548
662.462	0.0166203
662.540	0.0167705
662.618	0.0167781
662.696	0.0166296
662.774	0.0168607
662.852	0.0166089
662.930	0.0167142
663.009	0.0167060
663.087	0.0167595
663.165	0.0167377
663.243	0.0168164
663.321	0.0166958
663.399	0.0167368
663.477	0.0168515
663.555	0.0167848
663.634	0.0167744
663.712	0.0168248
663.790	0.0166574
663.868	0.0167459
663.946	0.0169346
664.024	0.0168443
664.102	0.0168704
664.180	0.0166821
664.259	0.0167443
664.337	0.0168775
664.415	0.0166927
664.493	0.0167291
664.571	0.0168203
664.649	0.0168040
664.727	0.0167035
664.805	0.0167310
664.884	0.0167374
664.962	0.0168687
665.040	0.0167685
665.118	0.0168303
665.196	0.0167500
665.274	0.0167757
665.352	0.0167207
665.430	0.0168539
665.509	0.0167490
665.587	0.0167684
665.665	0.0168170
665.743	0.0168723
665.821	0.0168247
665.899	0.0167161
665.977	0.0168072
666.055	0.0169286
666.134	0.0168021
666.212	0.0168329
666.290	0.0166495
666.368	0.0168263
666.446	0.0168106
666.524	0.0167105
666.602	0.0167744
666.680	0.0167377
666.759	0.0165835
666.837	0.0167522
666.915	0.0167515
666.993	0.0167307
667.071	0.0166736
667.149	0.0166840
667.227	0.0166637
667.305	0.0168048
667.384	0.0167061
667.462	0.0165779
667.540	0.0167617
667.618	0.0166960
667.696	0.0167655
667.774	0.0166956
667.852	0.0166131
667.930	0.0166747
668.009	0.0165882
668.087	0.0165462
668.165	0.0166024
668.243	0.0165156
668.321	0.0166488
668.399	0.0165914
668.477	0.0164226
668.555	0.0165254
668.634	0.0165758
668.712	0.0165837
668.790	0.0165800
668.868	0.0165355
668.946	0.0165846
669.024	0.0165812
669.102	0.0166121
669.180	0.0166802
669.259	0.0165736
669.337	0.0166371
669.415	0.0165343
669.493	0.0166756
669.571	0.0165508
669.649	0.0166154
669.727	0.0167014
669.805	0.0165337
669.884	0.0165730
669.962	0.0165826
670.040	0.0164191
670.118	0.0165593
670.196	0.0165364
670.274	0.0165429
670.352	0.0167103
670.430	0.0167358
670.509	0.0167459
670.587	0.0166889
670.665	0.0167319
670.743	0.0166959
670.821	0.0167179
670.899	0.0166762
670.977	0.0166293
671.055	0.0167242
671.134	0.0166209
671.212	0.0167978
671.290	0.0165681
671.368	0.0166388
671.446	0.0167010
671.524	0.0166614
671.602	0.0167326
671.680	0.0166054
671.759	0.0166657
671.837	0.0165104
671.915	0.0164885
671.993	0.0166953
672.071	0.0166765
672.149	0.0167302
672.227	0.0166878
672.305	0.0166340
672.384	0.0166202
672.462	0.0166013
672.540	0.0166113
672.618	0.0166946
672.696	0.0165886
672.774	0.0165695
672.852	0.0166354
672.930	0.0166782
673.009	0.0166058
673.087	0.0166329
673.165	0.0166272
673.243	0.0167177
673.321	0.0166440
673.399	0.0166228
673.477	0.0167307
673.555	0.0166808
673.634	0.0166911
673.712	0.0167536
673.790	0.0167092
673.868	0.0166769
673.946	0.0166379
674.024	0.0165530
674.102	0.0166000
674.180	0.0166409
674.259	0.0167019
674.337	0.0167463
674.415	0.0167971
674.493	0.0166613
674.571	0.0167092
674.649	0.0167667
674.727	0.0167120
674.805	0.0168317
674.884	0.0166275
674.962	0.0165939
675.040	0.0168155
675.118	0.0168597
675.196	0.0168805
675.274	0.0168085
675.352	0.0167311
675.430	0.0168669
675.509	0.0168417
675.587	0.0166349
675.665	0.0167085
675.743	0.0168299
675.821	0.0168477
675.899	0.0167640
675.977	0.0168285
676.055	0.0168121
676.134	0.0168902
676.212	0.0167533
676.290	0.0168246
676.368	0.0169521
676.446	0.0169145
676.524	0.0168428
676.602	0.0167208
676.680	0.0168111
676.759	0.0166554
676.837	0.0168858
676.915	0.0167731
676.993	0.0168986
677.071	0.0168970
677.149	0.0167854
677.227	0.0167770
677.305	0.0166953
677.384	0.0168085
677.462	0.0167648
677.540	0.0168014
677.618	0.0167448
677.696	0.0167062
677.774	0.0168204
677.852	0.0168114
677.930	0.0168894
678.009	0.0168363
678.087	0.0168740
678.165	0.0167703
678.243	0.0168259
678.321	0.0166780
678.399	0.0168055
678.477	0.0169055
678.555	0.0167645
678.634	0.0168310
678.712	0.0169580
678.790	0.0168105
678.868	0.0168050
678.946	0.0167232
679.024	0.0167403
679.102	0.0167683
679.180	0.0167141
679.259	0.0167223
679.337	0.0167406
679.415	0.0167112
679.493	0.0166747
679.571	0.0168743
679.649	0.0167256
679.727	0.0166367
679.805	0.0167579
679.884	0.0167410
679.962	0.0166807
680.040	0.0167186
680.118	0.0167461
680.196	0.0166963
680.274	0.0166319
680.352	0.0165427
680.430	0.0166125
680.509	0.0166499
680.587	0.0168073
680.665	0.0166627
680.743	0.0165225
680.821	0.0166029
680.899	0.0167796
680.977	0.0165492
681.055	0.0166891
681.134	0.0165845
681.212	0.0167114
681.290	0.0166642
681.368	0.0165552
681.446	0.0167048
681.524	0.0167049
681.602	0.0164584
681.680	0.0165057
681.759	0.0167052
681.837	0.0166076
681.915	0.0166154
681.993	0.0165868
682.071	0.0166688
682.149	0.0165996
682.227	0.0166032
682.305	0.0165746
682.384	0.0164088
682.462	0.0166275
682.540	0.0165914
682.618	0.0166864
682.696	0.0165215
682.774	0.0165473
682.852	0.0165858
682.930	0.0167858
683.009	0.0165666
683.087	0.0165068
683.165	0.0165842
683.243	0.0165874
683.321	0.0165127
683.399	0.0165984
683.477	0.0166863
683.555	0.0166827
683.634	0.0165412
683.712	0.0166065
683.790	0.0164506
683.868	0.0164999
683.946	0.0165052
684.024	0.0164578
684.102	0.0164947
684.180	0.0165849
684.259	0.0163938
684.337	0.0162970
684.415	0.0164924
684.493	0.0165498
684.571	0.0163625
684.649	0.0164256
684.727	0.0163259
684.805	0.0164752
684.884	0.0165901
684.962	0.0163467
685.040	0.0163065
685.118	0.0163672
685.196	0.0163783
685.274	0.0165228
685.352	0.0163906
685.430	0.0164294
685.509	0.0163166
685.587	0.0162988
685.665	0.0162980
685.743	0.0163039
685.821	0.0163112
685.899	0.0162598
685.977	0.0163193
686.055	0.0163950
686.134	0.0163531
686.212	0.0164025
686.290	0.0164640
686.368	0.0163828
686.446	0.0164439
686.524	0.0162905
686.602	0.0163691
686.680	0.0163930
686.759	0.0164256
686.837	0.0162085
686.915	0.0160618
686.993	0.0164148
687.071	0.0162663
687.149	0.0162793
687.227	0.0164411
687.305	0.0163712
687.384	0.0163308
687.462	0.0164519
687.540	0.0163420
687.618	0.0164307
687.696	0.0164004
687.774	0.0163222
687.852	0.0163583
687.930	0.0164258
688.009	0.0163560
688.087	0.0164187
688.165	0.0163800
688.243	0.0164798
688.321	0.0165598
688.399	0.0165205
688.477	0.0164405
688.555	0.0164772
688.634	0.0164988
688.712	0.0166151
688.790	0.0164662
688.868	0.0166379
688.946	0.0165378
689.024	0.0165669
689.102	0.0166449
689.180	0.0166572
689.259	0.0166800
689.337	0.0165606
689.415	0.0165323
689.493	0.0165882
689.571	0.0165314
689.649	0.0165841
689.727	0.0165694
689.805	0.0166202
689.884	0.0167596
689.962	0.0165509
690.040	0.0166238
690.118	0.0165919
690.196	0.0165386
690.274	0.0166093
690.352	0.0167985
690.430	0.0166241
690.509	0.0166827
690.587	0.0167000
690.665	0.0166520
690.743	0.0167213
690.821	0.0167244
690.899	0.0167745
690.977	0.0167554
691.055	0.0168109
691.134	0.0166875
691.212	0.0167350
691.290	0.0167342
691.368	0.0167574
691.446	0.0166837
691.524	0.0166431
691.602	0.0167523
691.680	0.0165890
691.759	0.0167865
691.837	0.0167480
691.915	0.0167142
691.993	0.0167273
692.071	0.0166959
692.149	0.0167048
692.227	0.0167707
692.305	0.0168234
692.384	0.0166780
692.462	0.0167097
692.540	0.0166935
692.618	0.0167918
692.696	0.0167241
692.774	0.0167764
692.852	0.0167650
692.930	0.0168511
693.009	0.0166543
693.087	0.0167058
693.165	0.0167532
693.243	0.0167725
693.321	0.0167164
693.399	0.0168719
693.477	0.0168532
693.555	0.0168053
693.634	0.0167165
693.712	0.0166984
693.790	0.0168027
693.868	0.0166739
693.946	0.0166921
694.024	0.0167801
694.102	0.0168355
694.180	0.0167091
694.259	0.0166666
694.337	0.0168690
694.415	0.0167949
694.493	0.0166465
694.571	0.0167283
694.649	0.0167239
694.727	0.0168259
694.805	0.0168526
694.884	0.0168622
694.962	0.0167366
695.040	0.0167418
695.118	0.0167693
695.196	0.0169547
695.274	0.0168933
695.352	0.0169337
695.430	0.0168976
695.509	0.0170064
695.587	0.0168266
695.665	0.0168790
695.743	0.0168528
695.821	0.0168080
695.899	0.0168732
695.977	0.0167914
696.055	0.0167834
696.134	0.0169753
696.212	0.0169023
696.290	0.0168960
696.368	0.0168490
696.446	0.0168291
696.524	0.0168169
696.602	0.0168835
696.680	0.0169876
696.759	0.0169254
696.837	0.0168597
696.915	0.0167738
696.993	0.0167956
697.071	0.0168941
697.149	0.0168509
697.227	0.0167909
697.305	0.0169238
697.384	0.0167957
697.462	0.0166984
697.540	0.0168427
697.618	0.0167844
697.696	0.0167471
697.774	0.0167864
697.852	0.0166896
697.930	0.0168056
698.009	0.0167443
698.087	0.0167130
698.165	0.0166695
698.243	0.0167767
698.321	0.0168734
698.399	0.0167187
698.477	0.0168147
698.555	0.0168106
698.634	0.0168268
698.712	0.0168504
698.790	0.0168472
698.868	0.0169643
698.946	0.0167310
699.024	0.0167896
699.102	0.0168521
699.180	0.0169744
699.259	0.0169064
699.337	0.0169994
699.415	0.0169257
699.493	0.0168559
699.571	0.0167654
699.649	0.0169055
699.727	0.0168214
699.805	0.0169755
699.884	0.0168703
699.962	0.0170608
700.040	0.0168846
700.118	0.0169177
700.196	0.0168951
700.274	0.0168794
700.352	0.0168524
700.430	0.0168111
700.509	0.0167333
700.587	0.0169127
700.665	0.0170446
700.743	0.0169596
700.821	0.0167263
700.899	0.0168734
700.977	0.0168836
701.055	0.0168682
701.134	0.0168361
701.212	0.0167440
701.290	0.0168924
701.368	0.0169424
701.446	0.0167900
701.524	0.0168732
701.602	0.0168608
701.680	0.0168483
701.759	0.0169074
701.837	0.0169596
701.915	0.0167845
701.993	0.0167815
702.071	0.0168546
702.149	0.0167643
702.227	0.0166890
702.305	0.0168465
702.384	0.0168163
702.462	0.0168543
702.540	0.0167497
702.618	0.0167406
702.696	0.0167893
702.774	0.0167279
702.852	0.0167420
702.930	0.0166625
703.009	0.0166782
703.087	0.0166821
703.165	0.0166376
703.243	0.0167248
703.321	0.0168106
703.399	0.0166396
703.477	0.0166778
703.555	0.0166979
703.634	0.0167036
703.712	0.0167390
703.790	0.0168203
703.868	0.0167205
703.946	0.0165762
704.024	0.0166905
704.102	0.0166436
704.180	0.0166521
704.259	0.0167014
704.337	0.0167666
704.415	0.0167851
704.493	0.0166756
704.571	0.0165752
704.649	0.0167230
704.727	0.0166734
704.805	0.0165841
704.884	0.0166764
704.962	0.0165413
705.040	0.0164460
705.118	0.0165510
705.196	0.0166010
705.274	0.0166382
705.352	0.0164861
705.430	0.0163831
705.509	0.0162993
705.587	0.0164997
705.665	0.0165359
705.743	0.0164775
705.821	0.0164700
705.899	0.0165745
705.977	0.0164345
706.055	0.0164394
706.134	0.0163585
706.212	0.0164124
706.290	0.0163142
706.368	0.0163638
706.446	0.0163808
706.524	0.0163387
706.602	0.0163683
706.680	0.0164568
706.759	0.0163425
706.837	0.0163457
706.915	0.0164913
706.993	0.0164682
707.071	0.0163002
707.149	0.0163939
707.227	0.0164186
707.305	0.0163103
707.384	0.0163501
707.462	0.0163615
707.540	0.0165420
707.618	0.0164214
707.696	0.0163712
707.774	0.0165639
707.852	0.0164898
707.930	0.0165092
708.009	0.0164655
708.087	0.0164787
708.165	0.0164743
708.243	0.0164933
708.321	0.0165069
708.399	0.0164603
708.477	0.0165649
708.555	0.0165845
708.634	0.0165844
708.712	0.0163821
708.790	0.0164997
708.868	0.0163251
708.946	0.0164791
709.024	0.0165073
709.102	0.0164754
709.180	0.0165819
709.259	0.0164442
709.337	0.0165723
709.415	0.0165438
709.493	0.0166021
709.571	0.0164191
709.649	0.0165345
709.727	0.0166266
709.805	0.0164432
709.884	0.0164870
709.962	0.0165553
710.040	0.0165399
710.118	0.0164565
710.196	0.0166519
710.274	0.0165981
710.352	0.0165922
710.430	0.0165514
710.509	0.0164468
710.587	0.0164497
710.665	0.0165977
710.743	0.0166499
710.821	0.0164874
710.899	0.0164561
710.977	0.0165006
711.055	0.0166035
711.134	0.0166089
711.212	0.0164613
711.290	0.0164738
711.368	0.0166779
711.446	0.0164941
711.524	0.0164939
711.602	0.0165259
711.680	0.0164008
711.759	0.0164684
711.837	0.0166521
711.915	0.0164954
711.993	0.0164977
712.071	0.0165567
712.149	0.0164958
712.227	0.0166754
712.305	0.0164998
712.384	0.0166828
712.462	0.0165780
712.540	0.0165417
712.618	0.0165504
712.696	0.0165163
712.774	0.0166869
712.852	0.0166772
712.930	0.0167322
713.009	0.0165438
713.087	0.0166341
713.165	0.0166879
713.243	0.0167036
713.321	0.0165891
713.399	0.0166573
713.477	0.0166554
713.555	0.0166852
713.634	0.0165773
713.712	0.0167011
713.790	0.0167299
713.868	0.0167654
713.946	0.0166558
714.024	0.0167490
714.102	0.0168317
714.180	0.0165295
714.259	0.0165620
714.337	0.0167287
714.415	0.0166029
714.493	0.0167811
714.571	0.0167670
714.649	0.0166577
714.727	0.0166650
714.805	0.0167476
714.884	0.0166062
714.962	0.0167947
715.040	0.0167634
715.118	0.0167795
715.196	0.0166895
715.274	0.0166346
715.352	0.0168271
715.430	0.0166803
715.509	0.0167655
715.587	0.0167820
715.665	0.0168559
715.743	0.0167503
715.821	0.0168599
715.899	0.0167078
715.977	0.0167043
716.055	0.0167998
716.134	0.0167957
716.212	0.0165833
716.290	0.0167414
716.368	0.0167696
716.446	0.0168834
716.524	0.0168719
716.602	0.0167525
716.680	0.0167975
716.759	0.0169285
716.837	0.0167820
716.915	0.0167905
716.993	0.0166884
717.071	0.0169212
717.149	0.0169095
717.227	0.0168703
717.305	0.0167912
717.384	0.0168307
717.462	0.0168481
717.540	0.0168002
717.618	0.0168044
717.696	0.0167107
717.774	0.0166441
717.852	0.0168620
717.930	0.0170369
718.009	0.0168210
718.087	0.0167073
718.165	0.0169212
718.243	0.0168686
718.321	0.0167435
718.399	0.0169197
718.477	0.0168967
718.555	0.0167786
718.634	0.0168697
718.712	0.0168684
718.790	0.0168238
718.868	0.0167900
718.946	0.0167976
719.024	0.0168030
719.102	0.0169324
719.180	0.0168629
719.259	0.0169363
719.337	0.0167435
719.415	0.0168990
719.493	0.0167104
719.571	0.0168011
719.649	0.0167865
719.727	0.0167184
719.805	0.0169422
719.884	0.0167178
719.962	0.0167587
720.040	0.0166247
720.118	0.0168674
720.196	0.0168159
720.274	0.0168153
720.352	0.0167216
720.430	0.0168217
720.509	0.0169131
720.587	0.0167712
720.665	0.0168781
720.743	0.0167060
720.821	0.0167666
720.899	0.0167831
720.977	0.0169946
721.055	0.0168180
721.134	0.0168351
721.212	0.0168624
721.290	0.0169241
721.368	0.0168771
721.446	0.0169772
721.524	0.0169307
721.602	0.0168513
721.680	0.0167643
721.759	0.0169770
721.837	0.0169327
721.915	0.0167745
721.993	0.0170247
722.071	0.0169125
722.149	0.0169176
722.227	0.0168577
722.305	0.0169285
722.384	0.0167995
722.462	0.0169497
722.540	0.0168167
722.618	0.0169545
722.696	0.0169536
722.774	0.0169003
722.852	0.0168734
722.930	0.0170012
723.009	0.0168758
723.087	0.0168829
723.165	0.0169666
723.243	0.0169488
723.321	0.0169456
723.399	0.0168839
723.477	0.0168557
723.555	0.0168530
723.634	0.0168964
723.712	0.0169472
723.790	0.0169101
723.868	0.0167900
723.946	0.0168684
724.024	0.0168887
724.102	0.0169151
724.180	0.0168080
724.259	0.0168025
724.337	0.0168925
724.415	0.0168459
724.493	0.0168163
724.571	0.0168782
724.649	0.0169421
724.727	0.0169459
724.805	0.0170123
724.884	0.0168591
724.962	0.0168883
725.040	0.0168874
725.118	0.0168402
725.196	0.0169312
725.274	0.0168277
725.352	0.0169975
725.430	0.0168555
725.509	0.0167747
725.587	0.0168987
725.665	0.0168104
725.743	0.0167603
725.821	0.0167423
725.899	0.0168403
725.977	0.0168450
726.055	0.0168433
726.134	0.0168512
726.212	0.0168434
726.290	0.0167970
726.368	0.0168484
726.446	0.0168272
726.524	0.0167795
726.602	0.0167751
726.680	0.0167775
726.759	0.0167595
726.837	0.0167723
726.915	0.0169165
726.993	0.0167211
727.071	0.0167706
727.149	0.0166432
727.227	0.0167410
727.305	0.0167799
727.384	0.0168723
727.462	0.0167118
727.540	0.0166437
727.618	0.0166333
727.696	0.0167519
727.774	0.0167031
727.852	0.0167690
727.930	0.0166019
728.009	0.0166520
728.087	0.0167528
728.165	0.0167113
728.243	0.0165798
728.321	0.0166904
728.399	0.0166260
728.477	0.0165771
728.555	0.0166605
728.634	0.0166352
728.712	0.0166093
728.790	0.0166646
728.868	0.0167405
728.946	0.0168101
729.024	0.0165639
729.102	0.0166376
729.180	0.0165381
729.259	0.0165856
729.337	0.0165791
729.415	0.0167004
729.493	0.0164760
729.571	0.0166699
729.649	0.0166808
729.727	0.0164673
729.805	0.0165510
729.884	0.0165106
729.962	0.0165047
730.040	0.0166853
730.118	0.0166707
730.196	0.0164896
730.274	0.0164440
730.352	0.0165768
730.430	0.0164935
730.509	0.0165639
730.587	0.0166508
730.665	0.0164217
730.743	0.0164613
730.821	0.0165992
730.899	0.0165082
730.977	0.0165118
731.055	0.0165114
731.134	0.0165382
731.212	0.0165122
731.290	0.0164098
731.368	0.0164470
731.446	0.0164449
731.524	0.0165064
731.602	0.0165121
731.680	0.0165186
731.759	0.0165891
731.837	0.0165223
731.915	0.0164265
731.993	0.0164861
732.071	0.0164783
732.149	0.0165916
732.227	0.0165048
732.305	0.0166608
732.384	0.0165981
732.462	0.0165093
732.540	0.0166861
732.618	0.0167301
732.696	0.0167310
732.774	0.0166608
732.852	0.0168941
732.930	0.0167104
733.009	0.0166516
733.087	0.0168474
733.165	0.0168091
733.243	0.0167101
733.321	0.0168301
733.399	0.0168120
733.477	0.0167625
733.555	0.0168364
733.634	0.0167222
733.712	0.0166469
733.790	0.0167232
733.868	0.0168589
733.946	0.0168343
734.024	0.0166864
734.102	0.0167320
734.180	0.0166864
734.259	0.0165508
734.337	0.0166913
734.415	0.0167470
734.493	0.0168411
734.571	0.0168366
734.649	0.0167969
734.727	0.0166362
734.805	0.0166021
734.884	0.0165264
734.962	0.0166554
735.040	0.0167416
735.118	0.0167193
735.196	0.0168013
735.274	0.0168006
735.352	0.0167263
735.430	0.0165192
735.509	0.0165480
735.587	0.0166282
735.665	0.0166157
735.743	0.0166430
735.821	0.0167353
735.899	0.0165911
735.977	0.0165408
736.055	0.0165466
736.134	0.0167808
736.212	0.0167053
736.290	0.0166843
736.368	0.0166909
736.446	0.0166293
736.524	0.0166631
736.602	0.0167396
736.680	0.0165397
736.759	0.0167101
736.837	0.0165928
736.915	0.0166352
736.993	0.0166386
737.071	0.0165969
737.149	0.0167126
737.227	0.0165968
737.305	0.0165993
737.384	0.0167442
737.462	0.0167761
737.540	0.0168120
737.618	0.0166911
737.696	0.0167479
737.774	0.0166455
737.852	0.0165805
737.930	0.0168414
738.009	0.0168836
738.087	0.0166913
738.165	0.0166808
738.243	0.0167574
738.321	0.0167895
738.399	0.0166666
738.477	0.0166411
738.555	0.0166743
738.634	0.0167485
738.712	0.0167091
738.790	0.0167303
738.868	0.0166726
738.946	0.0167207
739.024	0.0167616
739.102	0.0167397
739.180	0.0167596
739.259	0.0167152
739.337	0.0167281
739.415	0.0168263
739.493	0.0168740
739.571	0.0167050
739.649	0.0167826
739.727	0.0167759
739.805	0.0168080
739.884	0.0167905
739.962	0.0168324
740.040	0.0169788
740.118	0.0169083
740.196	0.0169942
740.274	0.0168930
740.352	0.0169495
740.430	0.0169067
740.509	0.0168591
740.587	0.0167828
740.665	0.0167564
740.743	0.0169241
740.821	0.0166991
740.899	0.0167229
740.977	0.0168276
741.055	0.0168165
741.134	0.0166972
741.212	0.0168499
741.290	0.0167627
741.368	0.0167848
741.446	0.0168443
741.524	0.0167537
741.602	0.0165945
741.680	0.0166479
741.759	0.0167503
741.837	0.0166922
741.915	0.0167070
741.993	0.0165587
742.071	0.0167034
742.149	0.0167736
742.227	0.0166599
742.305	0.0165727
742.384	0.0166594
742.462	0.0166144
742.540	0.0166663
742.618	0.0167571
742.696	0.0166290
742.774	0.0166088
742.852	0.0166370
742.930	0.0166138
743.009	0.0167362
743.087	0.0165308
743.165	0.0166463
743.243	0.0166820
743.321	0.0166917
743.399	0.0166013
743.477	0.0166447
743.555	0.0166695
743.634	0.0166350
743.712	0.0166283
743.790	0.0166158
743.868	0.0165923
743.946	0.0167015
744.024	0.0166930
744.102	0.0166141
744.180	0.0167097
744.259	0.0166534
744.337	0.0166342
744.415	0.0167280
744.493	0.0166228
744.571	0.0167249
744.649	0.0166755
744.727	0.0166280
744.805	0.0166312
744.884	0.0166216
744.962	0.0165530
745.040	0.0166360
745.118	0.0166711
745.196	0.0167058
745.274	0.0165598
745.352	0.0165293
745.430	0.0168226
745.509	0.0167124
745.587	0.0166409
745.665	0.0166124
745.743	0.0167467
745.821	0.0166670
745.899	0.0166494
745.977	0.0166467
746.055	0.0167503
746.134	0.0167905
746.212	0.0165511
746.290	0.0166496
746.368	0.0166332
746.446	0.0168487
746.524	0.0167066
746.602	0.0166826
746.680	0.0167725
746.759	0.0167402
746.837	0.0166547
746.915	0.0166837
746.993	0.0166253
747.071	0.0166121
747.149	0.0166671
747.227	0.0166116
747.305	0.0165927
747.384	0.0166374
747.462	0.0165074
747.540	0.0165887
747.618	0.0165684
747.696	0.0166164
747.774	0.0165934
747.852	0.0166017
747.930	0.0164536
748.009	0.0167042
748.087	0.0166247
748.165	0.0166099
748.243	0.0166877
748.321	0.0166917
748.399	0.0166758
748.477	0.0166635
748.555	0.0166360
748.634	0.0166425
748.712	0.0165975
748.790	0.0166739
748.868	0.0166774
748.946	0.0166418
749.024	0.0166962
749.102	0.0165956
749.180	0.0166740
749.259	0.0168407
749.337	0.0165905
749.415	0.0167204
749.493	0.0167725
749.571	0.0167187
749.649	0.0165818
749.727	0.0166924
749.805	0.0167412
749.884	0.0165120
749.962	0.0166753
750.040	0.0168328
750.118	0.0168552
750.196	0.0166722
750.274	0.0167004
750.352	0.0166927
750.430	0.0166225
750.509	0.0167308
750.587	0.0166823
750.665	0.0167427
750.743	0.0166302
750.821	0.0166700
750.899	0.0167513
750.977	0.0165047
751.055	0.0166541
751.134	0.0166299
751.212	0.0166811
751.290	0.0166050
751.368	0.0165324
751.446	0.0168487
751.524	0.0166919
751.602	0.0166116
751.680	0.0167056
751.759	0.0166866
751.837	0.0167452
751.915	0.0165698
751.993	0.0165128
752.071	0.0166521
752.149	0.0165804
752.227	0.0166122
752.305	0.0167573
752.384	0.0165228
752.462	0.0163702
752.540	0.0166460
752.618	0.0165876
752.696	0.0165744
752.774	0.0165118
752.852	0.0164539
752.930	0.0168008
753.009	0.0165536
753.087	0.0165266
753.165	0.0166203
753.243	0.0166237
753.321	0.0164973
753.399	0.0165170
753.477	0.0165395
753.555	0.0165121
753.634	0.0164613
753.712	0.0165356
753.790	0.0166202
753.868	0.0165691
753.946	0.0166726
754.024	0.0166438
754.102	0.0164761
754.180	0.0166374
754.259	0.0166090
754.337	0.0167082
754.415	0.0166776
754.493	0.0167564
754.571	0.0167468
754.649	0.0167652
754.727	0.0168004
754.805	0.0166875
754.884	0.0166814
754.962	0.0167800
755.040	0.0166864
755.118	0.0166572
755.196	0.0168384
755.274	0.0166599
755.352	0.0166118
755.430	0.0166461
755.509	0.0166338
755.587	0.0165604
755.665	0.0166843
755.743	0.0165031
755.821	0.0165546
755.899	0.0166035
755.977	0.0165728
756.055	0.0166423
756.134	0.0165013
756.212	0.0165426
756.290	0.0166109
756.368	0.0166149
756.446	0.0166294
756.524	0.0165724
756.602	0.0165926
756.680	0.0166402
756.759	0.0166217
756.837	0.0165217
756.915	0.0166443
756.993	0.0166785
757.071	0.0167300
757.149	0.0167447
757.227	0.0166569
757.305	0.0165842
757.384	0.0167783
757.462	0.0166378
757.540	0.0166086
757.618	0.0167524
757.696	0.0166345
757.774	0.0167113
757.852	0.0166844
757.930	0.0167692
758.009	0.0164951
758.087	0.0165996
758.165	0.0165482
758.243	0.0167232
758.321	0.0166660
758.399	0.0166901
758.477	0.0167098
758.555	0.0165475
758.634	0.0168095
758.712	0.0168461
758.790	0.0167567
758.868	0.0165914
758.946	0.0166931
759.024	0.0168132
759.102	0.0168442
759.180	0.0166647
759.259	0.0166965
759.337	0.0165479
759.415	0.0165939
759.493	0.0166248
759.571	0.0167763
759.649	0.0167006
759.727	0.0166675
759.805	0.0166578
759.884	0.0166528
759.962	0.0166497
760.040	0.0167297
760.118	0.0165843
760.196	0.0165016
760.274	0.0165278
760.352	0.0166371
760.430	0.0165169
760.509	0.0167286
760.587	0.0165322
760.665	0.0167020
760.743	0.0165707
760.821	0.0165564
760.899	0.0166519
760.977	0.0166193
761.055	0.0167339
761.134	0.0166577
761.212	0.0165450
761.290	0.0164310
761.368	0.0166766
761.446	0.0165289
761.524	0.0165368
761.602	0.0165896
761.680	0.0165004
761.759	0.0166352
761.837	0.0165867
761.915	0.0167249
761.993	0.0165823
762.071	0.0165949
762.149	0.0166068
762.227	0.0166582
762.305	0.0166313
762.384	0.0166213
762.462	0.0166988
762.540	0.0168137
762.618	0.0167515
762.696	0.0165879
762.774	0.0166348
762.852	0.0166704
762.930	0.0166866
763.009	0.0166666
763.087	0.0167079
763.165	0.0166484
763.243	0.0167838
763.321	0.0166875
763.399	0.0167171
763.477	0.0167905
763.555	0.0167261
763.634	0.0167604
763.712	0.0166454
763.790	0.0166575
763.868	0.0166241
763.946	0.0167221
764.024	0.0166009
764.102	0.0166567
764.180	0.0167353
764.259	0.0166042
764.337	0.0167137
764.415	0.0167046
764.493	0.0166970
764.571	0.0166282
764.649	0.0166772
764.727	0.0166752
764.805	0.0166092
764.884	0.0168185
764.962	0.0165790
765.040	0.0166297
765.118	0.0167588
765.196	0.0166817
765.274	0.0166455
765.352	0.0166166
765.430	0.0167593
765.509	0.0165872
765.587	0.0164444
765.665	0.0166368
765.743	0.0166956
765.821	0.0167215
765.899	0.0166095
765.977	0.0166185
766.055	0.0166399
766.134	0.0165482
766.212	0.0165861
766.290	0.0165429
766.368	0.0165422
766.446	0.0164726
766.524	0.0164526
766.602	0.0165851
766.680	0.0164791
766.759	0.0164978
766.837	0.0164820
766.915	0.0165075
766.993	0.0164935
767.071	0.0164260
767.149	0.0165904
767.227	0.0165811
767.305	0.0166113
767.384	0.0166172
767.462	0.0165274
767.540	0.0165007
767.618	0.0165483
767.696	0.0166621
767.774	0.0166850
767.852	0.0165629
767.930	0.0165744
768.009	0.0166628
768.087	0.0164427
768.165	0.0165289
768.243	0.0165779
768.321	0.0165242
768.399	0.0164899
768.477	0.0164604
768.555	0.0165594
768.634	0.0165097
768.712	0.0163892
768.790	0.0165934
768.868	0.0166075
768.946	0.0164630
769.024	0.0164888
769.102	0.0164574
769.180	0.0165029
769.259	0.0164372
769.337	0.0164520
769.415	0.0164471
769.493	0.0163687
769.571	0.0163251
769.649	0.0164240
769.727	0.0164025
769.805	0.0163659
769.884	0.0164934
769.962	0.0163787
770.040	0.0164468
770.118	0.0165532
770.196	0.0165252
770.274	0.0165200
770.352	0.0165106
770.430	0.0164861
770.509	0.0163669
770.587	0.0165248
770.665	0.0166878
770.743	0.0164400
770.821	0.0164878
770.899	0.0164170
770.977	0.0164664
771.055	0.0164871
771.134	0.0164806
771.212	0.0163423
771.290	0.0164159
771.368	0.0163584
771.446	0.0164680
771.524	0.0165398
771.602	0.0163454
771.680	0.0165558
771.759	0.0166851
771.837	0.0165519
771.915	0.0165996
771.993	0.0165440
772.071	0.0168508
772.149	0.0167390
772.227	0.0165896
772.305	0.0167957
772.384	0.0167133
772.462	0.0168221
772.540	0.0167081
772.618	0.0166376
772.696	0.0166159
772.774	0.0166593
772.852	0.0167592
772.930	0.0166154
773.009	0.0166151
773.087	0.0166679
773.165	0.0166146
773.243	0.0165996
773.321	0.0165764
773.399	0.0167422
773.477	0.0167947
773.555	0.0166366
773.634	0.0165218
773.712	0.0166933
773.790	0.0166000
773.868	0.0166415
773.946	0.0167485
774.024	0.0166119
774.102	0.0166364
774.180	0.0167467
774.259	0.0166982
774.337	0.0167762
774.415	0.0167637
774.493	0.0167296
774.571	0.0166651
774.649	0.0167976
774.727	0.0167588
774.805	0.0168616
774.884	0.0168785
774.962	0.0167747
775.040	0.0167114
775.118	0.0166692
775.196	0.0167873
775.274	0.0167212
775.352	0.0168539
775.430	0.0166712
775.509	0.0166899
775.587	0.0167348
775.665	0.0166907
775.743	0.0166993
775.821	0.0166409
775.899	0.0166425
775.977	0.0167187
776.055	0.0167163
776.134	0.0166331
776.212	0.0166708
776.290	0.0166712
776.368	0.0167278
776.446	0.0166581
776.524	0.0166496
776.602	0.0166663
776.680	0.0166301
776.759	0.0166349
776.837	0.0167818
776.915	0.0167327
776.993	0.0166093
777.071	0.0165340
777.149	0.0167505
777.227	0.0166328
777.305	0.0166144
777.384	0.0167386
777.462	0.0168839
777.540	0.0166468
777.618	0.0167286
777.696	0.0167002
777.774	0.0166676
777.852	0.0165908
777.930	0.0169354
778.009	0.0167374
778.087	0.0166144
778.165	0.0168944
778.243	0.0167637
778.321	0.0167627
778.399	0.0166734
778.477	0.0168887
778.555	0.0168757
778.634	0.0167167
778.712	0.0167406
778.790	0.0166058
778.868	0.0166637
778.946	0.0168555
779.024	0.0167960
779.102	0.0167344
779.180	0.0168476
779.259	0.0166694
779.337	0.0166183
779.415	0.0166449
779.493	0.0166259
779.571	0.0164941
779.649	0.0166847
779.727	0.0167155
779.805	0.0167556
779.884	0.0166511
779.962	0.0165632
780.040	0.0167118
780.118	0.0167220
780.196	0.0166307
780.274	0.0167683
780.352	0.0166576
780.430	0.0167012
780.509	0.0167474
780.587	0.0167374
780.665	0.0167953
780.743	0.0166444
780.821	0.0166284
780.899	0.0167815
780.977	0.0167151
781.055	0.0166802
781.134	0.0166555
781.212	0.0168105
781.290	0.0167097
781.368	0.0166279
781.446	0.0167588
781.524	0.0167204
781.602	0.0167197
781.680	0.0168594
781.759	0.0167061
781.837	0.0167723
781.915	0.0167425
781.993	0.0168536
782.071	0.0168298
782.149	0.0167117
782.227	0.0169064
782.305	0.0169019
782.384	0.0168281
782.462	0.0168786
782.540	0.0170343
782.618	0.0167435
782.696	0.0168775
782.774	0.0168733
782.852	0.0167636
782.930	0.0167529
783.009	0.0167439
783.087	0.0167406
783.165	0.0169117
783.243	0.0169462
783.321	0.0166759
783.399	0.0166967
783.477	0.0166920
783.555	0.0167359
783.634	0.0169296
783.712	0.0168742
783.790	0.0166974
783.868	0.0166788
783.946	0.0167773
784.024	0.0167507
784.102	0.0167805
784.180	0.0166893
784.259	0.0167474
784.337	0.0166290
784.415	0.0166981
784.493	0.0167930
784.571	0.0167904
784.649	0.0168155
784.727	0.0166312
784.805	0.0167268
784.884	0.0167975
784.962	0.0167646
785.040	0.0166613
785.118	0.0167123
785.196	0.0168228
785.274	0.0167709
785.352	0.0168064
785.430	0.0167172
785.509	0.0167347
785.587	0.0167594
785.665	0.0166791
785.743	0.0167947
785.821	0.0166109
785.899	0.0166763
785.977	0.0166743
786.055	0.0166263
786.134	0.0167914
786.212	0.0167181
786.290	0.0167555
786.368	0.0167819
786.446	0.0167305
786.524	0.0167281
786.602	0.0167808
786.680	0.0167336
786.759	0.0168825
786.837	0.0166770
786.915	0.0166252
786.993	0.0168085
787.071	0.0167847
787.149	0.0166934
787.227	0.0168034
787.305	0.0166840
787.384	0.0168890
787.462	0.0168214
787.540	0.0167867
787.618	0.0167377
787.696	0.0167431
787.774	0.0167187
787.852	0.0167402
787.930	0.0168130
788.009	0.0167013
788.087	0.0167076
788.165	0.0166775
788.243	0.0167442
788.321	0.0167685
788.399	0.0167188
788.477	0.0167881
788.555	0.0168179
788.634	0.0166730
788.712	0.0167896
788.790	0.0165864
788.868	0.0167753
788.946	0.0166354
789.024	0.0166789
789.102	0.0165822
789.180	0.0166856
789.259	0.0166067
789.337	0.0167579
789.415	0.0164909
789.493	0.0165458
789.571	0.0166656
789.649	0.0166865
789.727	0.0165350
789.805	0.0166592
789.884	0.0167345
789.962	0.0166207
790.040	0.0166251
790.118	0.0166547
790.196	0.0164828
790.274	0.0166496
790.352	0.0165051
790.430	0.0166552
790.509	0.0166000
790.587	0.0166661
790.665	0.0165710
790.743	0.0167914
790.821	0.0167704
790.899	0.0166454
790.977	0.0166502
791.055	0.0166519
791.134	0.0167046
791.212	0.0166060
791.290	0.0166261
791.368	0.0167078
791.446	0.0165688
791.524	0.0167041
791.602	0.0167844
791.680	0.0167802
791.759	0.0167576
791.837	0.0168095
791.915	0.0168684
791.993	0.0166169
792.071	0.0167953
792.149	0.0168256
792.227	0.0168339
792.305	0.0169839
792.384	0.0168486
792.462	0.0168533
792.540	0.0169952
792.618	0.0168715
792.696	0.0168143
792.774	0.0169579
792.852	0.0168657
792.930	0.0168282
793.009	0.0169073
793.087	0.0168391
793.165	0.0168439
793.243	0.0168691
793.321	0.0166513
793.399	0.0167749
793.477	0.0167803
793.555	0.0167107
793.634	0.0166248
793.712	0.0168192
793.790	0.0166730
793.868	0.0166234
793.946	0.0166221
794.024	0.0165519
794.102	0.0166716
794.180	0.0166747
794.259	0.0164455
794.337	0.0165289
794.415	0.0167214
794.493	0.0165273
794.571	0.0166138
794.649	0.0165971
794.727	0.0166315
794.805	0.0165978
794.884	0.0165410
794.962	0.0166850
795.040	0.0167296
795.118	0.0167020
795.196	0.0165494
795.274	0.0165967
795.352	0.0167204
795.430	0.0167149
795.509	0.0166127
795.587	0.0167070
795.665	0.0167936
795.743	0.0166653
795.821	0.0166021
795.899	0.0167109
795.977	0.0167316
796.055	0.0167284
796.134	0.0167600
796.212	0.0168002
796.290	0.0167823
796.368	0.0166722
796.446	0.0167158
796.524	0.0166342
796.602	0.0167839
796.680	0.0167216
796.759	0.0167533
796.837	0.0167163
796.915	0.0167541
796.993	0.0168172
797.071	0.0167406
797.149	0.0167613
797.227	0.0169067
797.305	0.0169271
797.384	0.0168267
797.462	0.0169960
797.540	0.0169714
797.618	0.0168163
797.696	0.0169167
797.774	0.0169299
797.852	0.0169084
797.930	0.0169026
798.009	0.0169944
798.087	0.0168863
798.165	0.0168602
798.243	0.0168335
798.321	0.0168247
798.399	0.0167773
798.477	0.0168667
798.555	0.0168610
798.634	0.0169203
798.712	0.0168478
798.790	0.0167259
798.868	0.0168702
798.946	0.0167784
799.024	0.0167233
799.102	0.0167632
799.180	0.0168559
799.259	0.0167676
799.337	0.0167078
799.415	0.0167802
799.493	0.0167766
799.571	0.0168163
799.649	0.0168712
799.727	0.0167188
799.805	0.0168503
799.884	0.0168316
799.962	0.0168569
800.040	0.0169433
800.118	0.0168609
800.196	0.0168262
800.274	0.0167082
800.352	0.0167329
800.430	0.0167214
800.509	0.0168782
800.587	0.0168462
800.665	0.0168439
800.743	0.0168351
800.821	0.0169244
800.899	0.0168870
800.977	0.0167531
801.055	0.0168446
801.134	0.0167461
801.212	0.0168306
801.290	0.0167988
801.368	0.0167014
801.446	0.0168427
801.524	0.0166504
801.602	0.0167059
801.680	0.0167238
801.759	0.0166981
801.837	0.0168649
801.915	0.0167094
801.993	0.0168665
802.071	0.0167530
802.149	0.0168803
802.227	0.0167791
802.305	0.0167571
802.384	0.0168583
802.462	0.0167172
802.540	0.0169711
802.618	0.0168246
802.696	0.0167719
802.774	0.0168970
802.852	0.0168488
802.930	0.0167741
803.009	0.0167327
803.087	0.0167150
803.165	0.0168497
803.243	0.0167205
803.321	0.0168433
803.399	0.0167742
803.477	0.0167501
803.555	0.0168166
803.634	0.0168682
803.712	0.0168966
803.790	0.0167421
803.868	0.0167867
803.946	0.0167954
804.024	0.0167319
804.102	0.0167509
804.180	0.0168208
804.259	0.0167639
804.337	0.0168062
804.415	0.0166553
804.493	0.0167240
804.571	0.0166818
804.649	0.0167561
804.727	0.0167416
804.805	0.0166166
804.884	0.0167033
804.962	0.0166842
805.040	0.0166599
805.118	0.0166905
805.196	0.0166889
805.274	0.0167151
805.352	0.0167356
805.430	0.0165598
805.509	0.0165860
805.587	0.0165576
805.665	0.0166574
805.743	0.0166561
805.821	0.0165503
805.899	0.0166219
805.977	0.0167192
806.055	0.0166552
806.134	0.0166111
806.212	0.0167131
806.290	0.0168559
806.368	0.0166948
806.446	0.0168552
806.524	0.0168653
806.602	0.0168393
806.680	0.0167686
806.759	0.0167046
806.837	0.0168079
806.915	0.0169085
806.993	0.0167015
807.071	0.0168867
807.149	0.0168095
807.227	0.0167956
807.305	0.0168822
807.384	0.0167612
807.462	0.0167038
807.540	0.0168067
807.618	0.0167769
807.696	0.0167653
807.774	0.0167693
807.852	0.0167580
807.930	0.0167350
808.009	0.0165500
808.087	0.0167022
808.165	0.0168040
808.243	0.0167339
808.321	0.0165752
808.399	0.0165805
808.477	0.0167337
808.555	0.0166757
808.634	0.0166148
808.712	0.0165241
808.790	0.0165926
808.868	0.0165955
808.946	0.0166135
809.024	0.0165894
809.102	0.0167608
809.180	0.0165950
809.259	0.0165742
809.337	0.0166531
809.415	0.0165795
809.493	0.0167444
809.571	0.0166133
809.649	0.0165147
809.727	0.0167664
809.805	0.0165880
809.884	0.0166750
809.962	0.0166531
810.040	0.0167092
810.118	0.0164587
810.196	0.0165405
810.274	0.0166734
810.352	0.0165921
810.430	0.0166473
810.509	0.0166534
810.587	0.0166556
810.665	0.0165389
810.743	0.0166296
810.821	0.0168001
810.899	0.0166576
810.977	0.0165651
811.055	0.0167493
811.134	0.0166417
811.212	0.0167283
811.290	0.0168799
811.368	0.0166987
811.446	0.0167414
811.524	0.0169259
811.602	0.0165866
811.680	0.0166030
811.759	0.0167183
811.837	0.0167449
811.915	0.0166349
811.993	0.0166708
812.071	0.0166174
812.149	0.0167720
812.227	0.0167397
812.305	0.0167905
812.384	0.0166411
812.462	0.0166931
812.540	0.0165891
812.618	0.0167054
812.696	0.0167240
812.774	0.0167312
812.852	0.0167071
812.930	0.0166624
813.009	0.0166495
813.087	0.0166544
813.165	0.0166753
813.243	0.0167010
813.321	0.0166399
813.399	0.0165829
813.477	0.0166222
813.555	0.0168111
813.634	0.0165336
813.712	0.0166073
813.790	0.0167252
813.868	0.0165135
813.946	0.0165261
814.024	0.0164896
814.102	0.0165853
814.180	0.0165073
814.259	0.0165785
814.337	0.0165782
814.415	0.0166833
814.493	0.0166550
814.571	0.0165927
814.649	0.0166528
814.727	0.0167561
814.805	0.0166776
814.884	0.0167687
814.962	0.0167036
815.040	0.0166731
815.118	0.0167996
815.196	0.0167194
815.274	0.0166535
815.352	0.0165897
815.430	0.0168922
815.509	0.0167517
815.587	0.0169610
815.665	0.0167595
815.743	0.0167280
815.821	0.0168449
815.899	0.0168665
815.977	0.0167756
816.055	0.0168478
816.134	0.0168837
816.212	0.0168172
816.290	0.0168095
816.368	0.0168600
816.446	0.0167284
816.524	0.0166571
816.602	0.0167848
816.680	0.0167696
816.759	0.0167966
816.837	0.0167226
816.915	0.0167928
816.993	0.0168088
817.071	0.0166550
817.149	0.0165755
817.227	0.0165231
817.305	0.0166753
817.384	0.0166554
817.462	0.0166214
817.540	0.0166432
817.618	0.0166479
817.696	0.0166866
817.774	0.0165941
817.852	0.0166290
817.930	0.0166010
818.009	0.0166128
818.087	0.0167683
818.165	0.0166436
818.243	0.0166141
818.321	0.0165206
818.399	0.0165627
818.477	0.0165186
818.555	0.0165975
818.634	0.0166307
818.712	0.0165977
818.790	0.0164480
818.868	0.0165060
818.946	0.0166622
819.024	0.0165285
819.102	0.0166674
819.180	0.0164573
819.259	0.0165330
819.337	0.0165897
819.415	0.0166895
819.493	0.0168367
819.571	0.0165934
819.649	0.0167385
819.727	0.0168392
819.805	0.0166586
819.884	0.0167035
819.962	0.0167226
820.040	0.0166545
820.118	0.0166075
820.196	0.0165620
820.274	0.0167187
820.352	0.0165959
820.430	0.0165443
820.509	0.0165778
820.587	0.0166396
820.665	0.0165029
820.743	0.0165414
820.821	0.0166046
820.899	0.0166273
820.977	0.0166117
821.055	0.0166404
821.134	0.0165890
821.212	0.0166277
821.290	0.0166373
821.368	0.0168288
821.446	0.0167063
821.524	0.0165865
821.602	0.0166654
821.680	0.0167111
821.759	0.0166303
821.837	0.0167377
821.915	0.0168715
821.993	0.0167660
822.071	0.0166950
822.149	0.0166492
822.227	0.0167850
822.305	0.0168591
822.384	0.0167769
822.462	0.0167549
822.540	0.0166279
822.618	0.0166277
822.696	0.0166773
822.774	0.0168353
822.852	0.0167995
822.930	0.0167104
823.009	0.0168257
823.087	0.0166398
823.165	0.0166342
823.243	0.0167032
823.321	0.0166100
823.399	0.0165320
823.477	0.0167287
823.555	0.0168073
823.634	0.0167637
823.712	0.0168594
823.790	0.0167753
823.868	0.0168144
823.946	0.0166967
824.024	0.0167483
824.102	0.0169722
824.180	0.0167523
824.259	0.0168025
824.337	0.0166997
824.415	0.0168102
824.493	0.0169075
824.571	0.0167407
824.649	0.0167572
824.727	0.0167915
824.805	0.0169425
824.884	0.0167355
824.962	0.0168039
825.040	0.0168056
825.118	0.0167599
825.196	0.0168787
825.274	0.0168337
825.352	0.0168201
825.430	0.0167638
825.509	0.0167416
825.587	0.0168396
825.665	0.0168090
825.743	0.0169509
825.821	0.0167794
825.899	0.0166701
825.977	0.0166623
826.055	0.0167662
826.134	0.0168090
826.212	0.0167660
826.290	0.0166177
826.368	0.0167200
826.446	0.0167503
826.524	0.0166629
826.602	0.0166554
826.680	0.0166846
826.759	0.0166194
826.837	0.0167029
826.915	0.0166445
826.993	0.0165315
827.071	0.0165263
827.149	0.0167307
827.227	0.0167661
827.305	0.0166739
827.384	0.0166020
827.462	0.0165578
827.540	0.0166712
827.618	0.0167297
827.696	0.0167787
827.774	0.0166967
827.852	0.0166751
827.930	0.0166245
828.009	0.0165765
828.087	0.0165586
828.165	0.0167142
828.243	0.0165768
828.321	0.0164821
828.399	0.0165907
828.477	0.0166382
828.555	0.0166979
828.634	0.0166535
828.712	0.0166240
828.790	0.0166119
828.868	0.0165893
828.946	0.0166357
829.024	0.0166585
829.102	0.0166174
829.180	0.0166499
829.259	0.0167190
829.337	0.0166431
829.415	0.0167452
829.493	0.0167211
829.571	0.0167448
829.649	0.0167582
829.727	0.0167091
829.805	0.0167591
829.884	0.0168373
829.962	0.0167573
830.040	0.0167131
830.118	0.0167820
830.196	0.0167053
830.274	0.0167744
830.352	0.0167712
830.430	0.0169472
830.509	0.0167254
830.587	0.0165369
830.665	0.0166275
830.743	0.0165083
830.821	0.0166578
830.899	0.0166692
830.977	0.0165578
831.055	0.0166096
831.134	0.0166409
831.212	0.0163758
831.290	0.0164033
831.368	0.0164729
831.446	0.0164812
831.524	0.0166277
831.602	0.0166208
831.680	0.0165000
831.759	0.0165331
831.837	0.0165157
831.915	0.0167417
831.993	0.0165313
832.071	0.0164515
832.149	0.0166360
832.227	0.0167447
832.305	0.0166640
832.384	0.0166158
832.462	0.0166499
832.540	0.0167506
832.618	0.0167538
832.696	0.0167651
832.774	0.0167091
832.852	0.0167733
832.930	0.0167163
833.009	0.0168392
833.087	0.0167976
833.165	0.0166875
833.243	0.0166547
833.321	0.0167037
833.399	0.0166478
833.477	0.0167786
833.555	0.0166476
833.634	0.0166788
833.712	0.0167384
833.790	0.0167072
833.868	0.0167062
833.946	0.0167557
834.024	0.0167935
834.102	0.0166757
834.180	0.0167522
834.259	0.0167764
834.337	0.0168114
834.415	0.0167921
834.493	0.0166656
834.571	0.0167443
834.649	0.0167391
834.727	0.0167374
834.805	0.0167686
834.884	0.0166805
834.962	0.0166759
835.040	0.0167607
835.118	0.0168098
835.196	0.0167267
835.274	0.0166419
835.352	0.0165790
835.430	0.0167342
835.509	0.0166949
835.587	0.0166839
835.665	0.0167085
835.743	0.0167290
835.821	0.0167623
835.899	0.0167750
835.977	0.0167783
836.055	0.0166607
836.134	0.0167425
836.212	0.0167884
836.290	0.0167002
836.368	0.0165563
836.446	0.0166979
836.524	0.0166597
836.602	0.0166805
836.680	0.0165794
836.759	0.0164808
836.837	0.0164832
836.915	0.0165395
836.993	0.0166326
837.071	0.0166295
837.149	0.0165577
837.227	0.0166865
837.305	0.0165390
837.384	0.0164963
837.462	0.0164698
837.540	0.0164838
837.618	0.0166700
837.696	0.0166263
837.774	0.0166136
837.852	0.0165857
837.930	0.0165118
838.009	0.0165920
838.087	0.0165510
838.165	0.0165895
838.243	0.0164980
838.321	0.0166377
838.399	0.0166271
838.477	0.0166924
838.555	0.0165758
838.634	0.0166613
838.712	0.0166729
838.790	0.0166350
838.868	0.0165787
838.946	0.0164441
839.024	0.0166768
839.102	0.0164436
839.180	0.0164943
839.259	0.0164532
839.337	0.0164336
839.415	0.0164754
839.493	0.0165752
839.571	0.0164671
839.649	0.0164752
839.727	0.0165621
839.805	0.0165278
839.884	0.0164677
839.962	0.0163251
840.040	0.0163889
840.118	0.0164420
840.196	0.0164484
840.274	0.0164613
840.352	0.0163847
840.430	0.0163863
840.509	0.0163768
840.587	0.0165012
840.665	0.0165170
840.743	0.0165221
840.821	0.0165020
840.899	0.0164345
840.977	0.0164403
841.055	0.0164675
841.134	0.0165874
841.212	0.0166798
841.290	0.0165298
841.368	0.0163889
841.446	0.0164649
841.524	0.0165051
841.602	0.0164613
841.680	0.0164486
841.759	0.0165868
841.837	0.0166163
841.915	0.0165024
841.993	0.0164832
842.071	0.0165145
842.149	0.0165139
842.227	0.0165618
842.305	0.0165157
842.384	0.0165753
842.462	0.0166487
842.540	0.0165723
842.618	0.0164944
842.696	0.0166663
842.774	0.0164130
842.852	0.0166158
842.930	0.0165582
843.009	0.0164232
843.087	0.0164371
843.165	0.0164900
843.243	0.0164720
843.321	0.0165118
843.399	0.0165477
843.477	0.0164968
843.555	0.0165680
843.634	0.0167069
843.712	0.0166032
843.790	0.0166830
843.868	0.0166022
843.946	0.0166274
844.024	0.0165318
844.102	0.0166425
844.180	0.0164449
844.259	0.0165927
844.337	0.0166797
844.415	0.0164738
844.493	0.0165455
844.571	0.0165744
844.649	0.0165586
844.727	0.0165895
844.805	0.0166630
844.884	0.0166685
844.962	0.0167256
845.040	0.0165926
845.118	0.0166605
845.196	0.0167337
845.274	0.0166621
845.352	0.0166630
845.430	0.0166096
845.509	0.0167847
845.587	0.0167818
845.665	0.0167231
845.743	0.0167796
845.821	0.0167706
845.899	0.0167916
845.977	0.0166688
846.055	0.0167853
846.134	0.0168003
846.212	0.0167554
846.290	0.0168755
846.368	0.0168243
846.446	0.0166793
846.524	0.0167145
846.602	0.0167998
846.680	0.0167474
846.759	0.0168028
846.837	0.0167068
846.915	0.0167594
846.993	0.0167538
847.071	0.0167863
847.149	0.0166353
847.227	0.0168360
847.305	0.0166910
847.384	0.0166812
847.462	0.0166962
847.540	0.0166125
847.618	0.0167876
847.696	0.0166213
847.774	0.0167592
847.852	0.0168040
847.930	0.0167408
848.009	0.0167291
848.087	0.0165987
848.165	0.0166412
848.243	0.0167171
848.321	0.0166700
848.399	0.0165842
848.477	0.0166283
848.555	0.0167275
848.634	0.0166503
848.712	0.0166411
848.790	0.0166252
848.868	0.0166060
848.946	0.0166560
849.024	0.0165705
849.102	0.0164660
849.180	0.0166229
849.259	0.0167115
849.337	0.0165461
849.415	0.0166469
849.493	0.0166465
849.571	0.0165654
849.649	0.0165912
849.727	0.0166853
849.805	0.0166458
849.884	0.0165607
849.962	0.0166896
850.040	0.0166437
850.118	0.0165508
850.196	0.0166323
850.274	0.0167768
850.352	0.0166518
850.430	0.0166020
850.509	0.0168118
850.587	0.0167204
850.665	0.0165319
850.743	0.0166843
850.821	0.0165964
850.899	0.0166409
850.977	0.0166172
851.055	0.0166330
851.134	0.0166478
851.212	0.0166273
851.290	0.0166616
851.368	0.0167222
851.446	0.0165701
851.524	0.0166341
851.602	0.0166432
851.680	0.0165993
851.759	0.0166296
851.837	0.0166615
851.915	0.0167360
851.993	0.0167664
852.071	0.0167498
852.149	0.0166977
852.227	0.0167389
852.305	0.0168690
852.384	0.0165874
852.462	0.0166870
852.540	0.0166892
852.618	0.0166810
852.696	0.0166319
852.774	0.0167426
852.852	0.0167211
852.930	0.0166461
853.009	0.0166064
853.087	0.0167215
853.165	0.0167179
853.243	0.0166867
853.321	0.0167821
853.399	0.0167349
853.477	0.0168742
853.555	0.0167770
853.634	0.0166817
853.712	0.0167507
853.790	0.0167895
853.868	0.0168173
853.946	0.0167484
854.024	0.0168431
854.102	0.0168102
854.180	0.0168362
854.259	0.0167510
854.337	0.0168691
854.415	0.0167178
854.493	0.0168851
854.571	0.0168784
854.649	0.0168076
854.727	0.0167266
854.805	0.0167395
854.884	0.0167779
854.962	0.0166932
855.040	0.0167517
855.118	0.0167524
855.196	0.0167623
855.274	0.0166237
855.352	0.0167596
855.430	0.0167224
855.509	0.0167442
855.587	0.0167136
855.665	0.0167826
855.743	0.0168526
855.821	0.0167621
855.899	0.0167429
855.977	0.0168452
856.055	0.0168829
856.134	0.0167463
856.212	0.0166881
856.290	0.0168462
856.368	0.0167682
856.446	0.0170338
856.524	0.0169122
856.602	0.0168020
856.680	0.0168277
856.759	0.0168135
856.837	0.0168142
856.915	0.0169057
856.993	0.0168121
857.071	0.0168603
857.149	0.0168266
857.227	0.0169615
857.305	0.0169020
857.384	0.0169675
857.462	0.0168999
857.540	0.0168377
857.618	0.0168860
857.696	0.0166010
857.774	0.0167313
857.852	0.0168395
857.930	0.0167558
858.009	0.0167966
858.087	0.0166994
858.165	0.0167252
858.243	0.0166948
858.321	0.0167146
858.399	0.0166663
858.477	0.0166223
858.555	0.0166200
858.634	0.0166463
858.712	0.0166935
858.790	0.0167318
858.868	0.0167451
858.946	0.0167204
859.024	0.0166734
859.102	0.0166584
859.180	0.0166803
859.259	0.0167657
859.337	0.0164871
859.415	0.0165948
859.493	0.0166592
859.571	0.0166850
859.649	0.0166058
859.727	0.0166062
859.805	0.0167406
859.884	0.0167181
859.962	0.0166862
860.040	0.0166592
860.118	0.0167445
860.196	0.0167515
860.274	0.0166327
860.352	0.0166595
860.430	0.0166939
860.509	0.0168241
860.587	0.0168130
860.665	0.0166955
860.743	0.0167490
860.821	0.0166491
860.899	0.0166911
860.977	0.0167686
861.055	0.0167357
861.134	0.0167333
861.212	0.0166296
861.290	0.0167219
861.368	0.0167574
861.446	0.0166943
861.524	0.0166019
861.602	0.0166946
861.680	0.0168237
861.759	0.0167080
861.837	0.0165486
861.915	0.0167396
861.993	0.0167018
862.071	0.0167545
862.149	0.0167112
862.227	0.0168848
862.305	0.0167923
862.384	0.0167722
862.462	0.0166900
862.540	0.0167732
862.618	0.0166850
862.696	0.0167247
862.774	0.0166422
862.852	0.0168381
862.930	0.0167027
863.009	0.0167888
863.087	0.0167715
863.165	0.0165937
863.243	0.0166511
863.321	0.0167982
863.399	0.0166553
863.477	0.0166393
863.555	0.0166731
863.634	0.0167274
863.712	0.0166272
863.790	0.0165501
863.868	0.0167563
863.946	0.0166425
864.024	0.0166761
864.102	0.0166804
864.180	0.0165182
864.259	0.0166042
864.337	0.0166057
864.415	0.0166103
864.493	0.0166766
864.571	0.0166042
864.649	0.0167557
864.727	0.0167962
864.805	0.0166161
864.884	0.0166731
864.962	0.0167281
865.040	0.0164873
865.118	0.0165498
865.196	0.0166795
865.274	0.0165520
865.352	0.0165936
865.430	0.0167023
865.509	0.0164797
865.587	0.0166020
865.665	0.0167462
865.743	0.0165804
865.821	0.0166795
865.899	0.0166705
865.977	0.0167385
866.055	0.0166679
866.134	0.0166817
866.212	0.0166754
866.290	0.0167336
866.368	0.0167410
866.446	0.0165427
866.524	0.0167442
866.602	0.0165622
866.680	0.0166408
866.759	0.0166008
866.837	0.0166200
866.915	0.0167515
866.993	0.0165975
867.071	0.0164817
867.149	0.0163950
867.227	0.0165607
867.305	0.0165242
867.384	0.0165337
867.462	0.0164867
867.540	0.0164264
867.618	0.0166046
867.696	0.0165073
867.774	0.0164970
867.852	0.0165269
867.930	0.0165562
868.009	0.0163691
868.087	0.0164409
868.165	0.0164478
868.243	0.0165253
868.321	0.0165144
868.399	0.0165203
868.477	0.0165695
868.555	0.0165277
868.634	0.0165434
868.712	0.0166868
868.790	0.0164125
868.868	0.0164628
868.946	0.0165924
869.024	0.0164563
869.102	0.0165219
869.180	0.0165019
869.259	0.0167731
869.337	0.0165464
869.415	0.0165147
869.493	0.0166333
869.571	0.0165326
869.649	0.0166116
869.727	0.0166553
869.805	0.0166670
869.884	0.0165137
869.962	0.0165865
870.040	0.0166853
870.118	0.0165379
870.196	0.0164748
870.274	0.0167696
870.352	0.0167847
870.430	0.0167513
870.509	0.0165262
870.587	0.0167310
870.665	0.0165495
870.743	0.0165643
870.821	0.0166106
870.899	0.0165162
870.977	0.0166046
871.055	0.0165502
871.134	0.0165707
871.212	0.0165752
871.290	0.0165552
871.368	0.0166464
871.446	0.0167342
871.524	0.0166053
871.602	0.0166816
871.680	0.0166654
871.759	0.0166850
871.837	0.0166773
871.915	0.0167507
871.993	0.0166610
872.071	0.0167648
872.149	0.0167817
872.227	0.0168682
872.305	0.0168045
872.384	0.0167159
872.462	0.0168238
872.540	0.0168380
872.618	0.0168240
872.696	0.0166669
872.774	0.0166991
872.852	0.0168154
872.930	0.0167281
873.009	0.0168815
873.087	0.0168062
873.165	0.0168230
873.243	0.0167111
873.321	0.0168329
873.399	0.0167832
873.477	0.0168837
873.555	0.0168452
873.634	0.0167130
873.712	0.0168175
873.790	0.0167648
873.868	0.0168575
873.946	0.0168048
874.024	0.0167432
874.102	0.0167439
874.180	0.0167288
874.259	0.0167286
874.337	0.0168192
874.415	0.0167715
874.493	0.0167966
874.571	0.0169586
874.649	0.0168591
874.727	0.0166841
874.805	0.0167921
874.884	0.0168000
874.962	0.0167990
875.040	0.0167478
875.118	0.0167604
875.196	0.0167318
875.274	0.0168531
875.352	0.0166667
875.430	0.0167375
875.509	0.0168164
875.587	0.0167072
875.665	0.0168443
875.743	0.0166893
875.821	0.0166870
875.899	0.0167490
875.977	0.0167260
876.055	0.0167610
876.134	0.0167304
876.212	0.0168163
876.290	0.0168580
876.368	0.0166738
876.446	0.0167579
876.524	0.0168092
876.602	0.0166380
876.680	0.0167394
876.759	0.0168736
876.837	0.0166220
876.915	0.0166937
876.993	0.0167249
877.071	0.0166901
877.149	0.0167242
877.227	0.0166990
877.305	0.0166886
877.384	0.0166238
877.462	0.0167693
877.540	0.0166684
877.618	0.0166311
877.696	0.0166969
877.774	0.0167152
877.852	0.0166869
877.930	0.0167038
878.009	0.0167056
878.087	0.0167351
878.165	0.0166771
878.243	0.0165484
878.321	0.0166422
878.399	0.0166247
878.477	0.0166856
878.555	0.0167371
878.634	0.0165699
878.712	0.0167397
878.790	0.0166583
878.868	0.0166399
878.946	0.0166852
879.024	0.0167427
879.102	0.0167825
879.180	0.0166709
879.259	0.0167992
879.337	0.0168084
879.415	0.0166761
879.493	0.0166747
879.571	0.0166591
879.649	0.0166712
879.727	0.0167376
879.805	0.0169355
879.884	0.0168304
879.962	0.0168040
880.040	0.0167160
880.118	0.0169419
880.196	0.0167236
880.274	0.0166399
880.352	0.0167098
880.430	0.0168192
880.509	0.0167652
880.587	0.0167849
880.665	0.0166019
880.743	0.0166294
880.821	0.0168658
880.899	0.0167818
880.977	0.0166263
881.055	0.0167513
881.134	0.0168699
881.212	0.0168510
881.290	0.0168527
881.368	0.0168040
881.446	0.0167702
881.524	0.0168028
881.602	0.0167487
881.680	0.0168455
881.759	0.0169293
881.837	0.0167680
881.915	0.0166824
881.993	0.0167554
882.071	0.0167725
882.149	0.0168566
882.227	0.0167896
882.305	0.0167774
882.384	0.0166738
882.462	0.0167515
882.540	0.0167223
882.618	0.0167873
882.696	0.0166880
882.774	0.0166590
882.852	0.0168067
882.930	0.0168990
883.009	0.0167618
883.087	0.0167702
883.165	0.0168311
883.243	0.0166797
883.321	0.0165395
883.399	0.0168560
883.477	0.0167607
883.555	0.0165815
883.634	0.0167173
883.712	0.0165975
883.790	0.0165694
883.868	0.0167239
883.946	0.0167208
884.024	0.0165816
884.102	0.0166315
884.180	0.0166151
884.259	0.0166499
884.337	0.0166586
884.415	0.0166501
884.493	0.0165392
884.571	0.0165617
884.649	0.0165044
884.727	0.0165775
884.805	0.0166590
884.884	0.0166475
884.962	0.0166291
885.040	0.0164997
885.118	0.0165459
885.196	0.0167892
885.274	0.0167434
885.352	0.0166425
885.430	0.0167312
885.509	0.0168441
885.587	0.0166357
885.665	0.0164521
885.743	0.0164330
885.821	0.0166507
885.899	0.0166877
885.977	0.0166637
886.055	0.0166844
886.134	0.0167991
886.212	0.0167159
886.290	0.0165941
886.368	0.0165182
886.446	0.0165667
886.524	0.0165865
886.602	0.0165615
886.680	0.0167137
886.759	0.0165798
886.837	0.0165327
886.915	0.0166304
886.993	0.0165359
887.071	0.0166846
887.149	0.0168720
887.227	0.0166203
887.305	0.0165880
887.384	0.0167188
887.462	0.0165997
887.540	0.0165872
887.618	0.0166206
887.696	0.0165999
887.774	0.0166966
887.852	0.0165900
887.930	0.0167195
888.009	0.0166462
888.087	0.0165424
888.165	0.0166590
888.243	0.0164860
888.321	0.0165083
888.399	0.0164929
888.477	0.0165887
888.555	0.0165008
888.634	0.0166412
888.712	0.0166308
888.790	0.0166338
888.868	0.0164332
888.946	0.0165836
889.024	0.0166441
889.102	0.0167143
889.180	0.0165681
889.259	0.0166270
889.337	0.0165508
889.415	0.0164666
889.493	0.0164219
889.571	0.0165903
889.649	0.0165703
889.727	0.0165803
889.805	0.0167136
889.884	0.0167860
889.962	0.0166068
890.040	0.0167068
890.118	0.0165778
890.196	0.0165163
890.274	0.0168219
890.352	0.0166860
890.430	0.0166895
890.509	0.0166664
890.587	0.0167719
890.665	0.0164886
890.743	0.0166666
890.821	0.0166890
890.899	0.0166431
890.977	0.0167266
891.055	0.0167351
891.134	0.0166814
891.212	0.0166984
891.290	0.0168169
891.368	0.0167316
891.446	0.0166628
891.524	0.0167313
891.602	0.0167514
891.680	0.0167171
891.759	0.0167308
891.837	0.0168998
891.915	0.0168407
891.993	0.0166981
892.071	0.0166032
892.149	0.0166394
892.227	0.0166617
892.305	0.0167016
892.384	0.0167254
892.462	0.0166656
892.540	0.0166122
892.618	0.0167194
892.696	0.0164986
892.774	0.0166101
892.852	0.0166093
892.930	0.0166300
893.009	0.0166525
893.087	0.0166132
893.165	0.0165989
893.243	0.0166491
893.321	0.0166481
893.399	0.0166347
893.477	0.0166554
893.555	0.0165732
893.634	0.0166333
893.712	0.0166148
893.790	0.0166206
893.868	0.0166384
893.946	0.0166542
894.024	0.0165517
894.102	0.0166162
894.180	0.0166081
894.259	0.0166574
894.337	0.0166900
894.415	0.0167463
894.493	0.0168853
894.571	0.0166985
894.649	0.0167010
894.727	0.0167152
894.805	0.0168408
894.884	0.0169959
894.962	0.0168857
895.040	0.0168219
895.118	0.0167593
895.196	0.0168021
895.274	0.0167480
895.352	0.0168256
895.430	0.0167479
895.509	0.0166097
895.587	0.0166173
895.665	0.0166868
895.743	0.0166228
895.821	0.0166751
895.899	0.0167637
895.977	0.0166850
896.055	0.0165702
896.134	0.0167661
896.212	0.0165318
896.290	0.0166216
896.368	0.0164876
896.446	0.0165768
896.524	0.0167155
896.602	0.0168037
896.680	0.0167082
896.759	0.0165392
896.837	0.0166294
896.915	0.0167362
896.993	0.0166257
897.071	0.0167207
897.149	0.0166734
897.227	0.0167535
897.305	0.0168720
897.384	0.0167419
897.462	0.0168231
897.540	0.0167590
897.618	0.0168523
897.696	0.0168877
897.774	0.0168948
897.852	0.0167531
897.930	0.0168544
898.009	0.0168189
898.087	0.0167651
898.165	0.0168992
898.243	0.0169376
898.321	0.0169491
898.399	0.0169476
898.477	0.0168216
898.555	0.0169279
898.634	0.0169998
898.712	0.0168820
898.790	0.0169352
898.868	0.0168884
898.946	0.0168179
899.024	0.0169463
899.102	0.0167142
899.180	0.0168570
899.259	0.0168653
899.337	0.0169386
899.415	0.0167861
899.493	0.0167648
899.571	0.0167894
899.649	0.0167722
899.727	0.0168454
899.805	0.0167765
899.884	0.0168001
899.962	0.0167507
900.040	0.0167971
900.118	0.0168470
900.196	0.0167851
900.274	0.0167774
900.352	0.0169258
900.430	0.0169062
900.509	0.0166694
900.587	0.0166501
900.665	0.0167672
900.743	0.0168185
900.821	0.0167715
900.899	0.0167142
900.977	0.0167515
901.055	0.0166731
901.134	0.0168216
901.212	0.0166650
901.290	0.0167056
901.368	0.0166566
901.446	0.0167313
901.524	0.0167850
901.602	0.0167249
901.680	0.0167760
901.759	0.0166319
901.837	0.0166468
901.915	0.0166943
901.993	0.0166606
902.071	0.0167078
902.149	0.0167203
902.227	0.0166630
902.305	0.0166786
902.384	0.0166716
902.462	0.0167031
902.540	0.0166582
902.618	0.0167553
902.696	0.0166440
902.774	0.0167493
902.852	0.0166953
902.930	0.0167067
903.009	0.0168398
903.087	0.0167599
903.165	0.0167248
903.243	0.0166934
903.321	0.0167019
903.399	0.0167710
903.477	0.0167706
903.555	0.0168439
903.634	0.0168580
903.712	0.0167038
903.790	0.0168831
903.868	0.0167567
903.946	0.0167355
904.024	0.0168108
904.102	0.0167318
904.180	0.0166853
904.259	0.0168189
904.337	0.0168205
904.415	0.0166982
904.493	0.0167416
904.571	0.0167317
904.649	0.0166150
904.727	0.0166256
904.805	0.0168137
904.884	0.0166065
904.962	0.0166763
905.040	0.0167109
905.118	0.0166013
905.196	0.0165997
905.274	0.0165602
905.352	0.0165787
905.430	0.0167153
905.509	0.0165877
905.587	0.0165842
905.665	0.0165628
905.743	0.0165256
905.821	0.0167000
905.899	0.0166949
905.977	0.0165082
906.055	0.0167961
906.134	0.0166627
906.212	0.0165944
906.290	0.0165802
906.368	0.0165580
906.446	0.0166551
906.524	0.0166917
906.602	0.0166614
906.680	0.0165742
906.759	0.0165588
906.837	0.0165274
906.915	0.0165536
906.993	0.0166487
907.071	0.0165787
907.149	0.0165426
907.227	0.0166292
907.305	0.0168080
907.384	0.0167049
907.462	0.0167866
907.540	0.0166606
907.618	0.0167114
907.696	0.0168189
907.774	0.0166494
907.852	0.0166393
907.930	0.0167924
908.009	0.0167228
908.087	0.0167448
908.165	0.0166512
908.243	0.0167170
908.321	0.0168283
908.399	0.0167411
908.477	0.0167426
908.555	0.0167126
908.634	0.0166024
908.712	0.0166355
908.790	0.0167041
908.868	0.0165577
908.946	0.0165012
909.024	0.0166524
909.102	0.0167711
909.180	0.0165379
909.259	0.0165109
909.337	0.0164977
909.415	0.0164911
909.493	0.0165623
909.571	0.0165376
909.649	0.0164351
909.727	0.0164290
909.805	0.0163638
909.884	0.0162698
909.962	0.0162843
910.040	0.0163892
910.118	0.0164872
910.196	0.0163526
910.274	0.0163637
910.352	0.0164641
910.430	0.0165292
910.509	0.0163687
910.587	0.0165228
910.665	0.0164851
910.743	0.0165068
910.821	0.0165051
910.899	0.0165244
910.977	0.0166395
911.055	0.0166235
911.134	0.0165543
911.212	0.0166245
911.290	0.0165930
911.368	0.0166369
911.446	0.0167676
911.524	0.0167644
911.602	0.0166766
911.680	0.0168149
911.759	0.0167711
911.837	0.0168040
911.915	0.0166041
911.993	0.0166228
912.071	0.0166175
912.149	0.0166028
912.227	0.0166872
912.305	0.0166502
912.384	0.0166377
912.462	0.0166790
912.540	0.0165202
912.618	0.0166453
912.696	0.0166602
912.774	0.0165079
912.852	0.0166173
912.930	0.0166023
913.009	0.0164823
913.087	0.0167444
913.165	0.0166927
913.243	0.0166834
913.321	0.0165450
913.399	0.0167240
913.477	0.0166949
913.555	0.0166873
913.634	0.0167912
913.712	0.0167279
913.790	0.0167768
913.868	0.0168153
913.946	0.0167229
914.024	0.0167422
914.102	0.0167465
914.180	0.0167332
914.259	0.0168087
914.337	0.0166463
914.415	0.0169089
914.493	0.0168817
914.571	0.0167521
914.649	0.0167393
914.727	0.0167648
914.805	0.0167890
914.884	0.0167052
914.962	0.0167615
915.040	0.0166416
915.118	0.0167381
915.196	0.0167587
915.274	0.0167235
915.352	0.0167792
915.430	0.0166919
915.509	0.0166052
915.587	0.0166956
915.665	0.0167060
915.743	0.0166957
915.821	0.0166122
915.899	0.0167695
915.977	0.0167294
916.055	0.0167469
916.134	0.0165921
916.212	0.0166625
916.290	0.0166879
916.368	0.0166373
916.446	0.0167048
916.524	0.0166417
916.602	0.0166412
916.680	0.0167190
916.759	0.0166512
916.837	0.0166884
916.915	0.0167008
916.993	0.0167308
917.071	0.0168825
917.149	0.0167197
917.227	0.0166748
917.305	0.0166409
917.384	0.0167891
917.462	0.0168205
917.540	0.0166513
917.618	0.0166459
917.696	0.0167162
917.774	0.0165344
917.852	0.0167482
917.930	0.0168436
918.009	0.0167908
918.087	0.0166656
918.165	0.0166801
918.243	0.0167653
918.321	0.0167599
918.399	0.0168043
918.477	0.0166530
918.555	0.0166301
918.634	0.0166512
918.712	0.0164864
918.790	0.0166611
918.868	0.0166902
918.946	0.0166495
919.024	0.0167361
919.102	0.0166799
919.180	0.0164336
919.259	0.0165302
919.337	0.0167252
919.415	0.0166211
919.493	0.0166058
919.571	0.0165468
919.649	0.0167536
919.727	0.0164620
919.805	0.0166693
919.884	0.0166402
