06/13/2022	14:57:14	Ver.	4.1	UNKNOWN
Optical Delay	599.968395	Delta X		0.078125	Sweeps	1	Scan Rate	0/0
Coordinates	Axis 1	NaN	Axis 2	NaN	Axis 3	NaN	Axis 4	NaN	Axis 5	NaN	Axis 6	0.000000
TX Power	0.000000	RX Power	0.000000

599.968	0.0161984
600.047	0.0161005
600.125	0.0162788
600.203	0.0161977
600.281	0.0161264
600.359	0.0161022
600.437	0.0162073
600.515	0.0162209
600.593	0.0162061
600.672	0.0161736
600.750	0.0161698
600.828	0.0162399
600.906	0.0160956
600.984	0.0160838
601.062	0.0162823
601.140	0.0163096
601.218	0.0161178
601.297	0.0159447
601.375	0.0162823
601.453	0.0162202
601.531	0.0161895
601.609	0.0161922
601.687	0.0163188
601.765	0.0162299
601.843	0.0161016
601.922	0.0161566
602.000	0.0161657
602.078	0.0161872
602.156	0.0161455
602.234	0.0162994
602.312	0.0162182
602.390	0.0160931
602.468	0.0162434
602.547	0.0161501
602.625	0.0161319
602.703	0.0163939
602.781	0.0161845
602.859	0.0161649
602.937	0.0162207
603.015	0.0162305
603.093	0.0163059
603.172	0.0162512
603.250	0.0161427
603.328	0.0161772
603.406	0.0161444
603.484	0.0161903
603.562	0.0161990
603.640	0.0163209
603.718	0.0160208
603.797	0.0161079
603.875	0.0162582
603.953	0.0162540
604.031	0.0162264
604.109	0.0161028
604.187	0.0162514
604.265	0.0161289
604.343	0.0162032
604.422	0.0162619
604.500	0.0161163
604.578	0.0160947
604.656	0.0161902
604.734	0.0161414
604.812	0.0162720
604.890	0.0161306
604.968	0.0160754
605.047	0.0161724
605.125	0.0162408
605.203	0.0161238
605.281	0.0161706
605.359	0.0162180
605.437	0.0161829
605.515	0.0161350
605.593	0.0162858
605.672	0.0162358
605.750	0.0161273
605.828	0.0161513
605.906	0.0161261
605.984	0.0160448
606.062	0.0161746
606.140	0.0161002
606.218	0.0161102
606.297	0.0161464
606.375	0.0161362
606.453	0.0161985
606.531	0.0162091
606.609	0.0161477
606.687	0.0160805
606.765	0.0161530
606.843	0.0160900
606.922	0.0161973
607.000	0.0162460
607.078	0.0160640
607.156	0.0161037
607.234	0.0161075
607.312	0.0162338
607.390	0.0161679
607.468	0.0160925
607.547	0.0162747
607.625	0.0162292
607.703	0.0160745
607.781	0.0160386
607.859	0.0162313
607.937	0.0161077
608.015	0.0161053
608.093	0.0162163
608.172	0.0160686
608.250	0.0160485
608.328	0.0161878
608.406	0.0162948
608.484	0.0162273
608.562	0.0161586
608.640	0.0161424
608.718	0.0161047
608.797	0.0160710
608.875	0.0161044
608.953	0.0162217
609.031	0.0160981
609.109	0.0162053
609.187	0.0162026
609.265	0.0161986
609.343	0.0161617
609.422	0.0161940
609.500	0.0160842
609.578	0.0161597
609.656	0.0162550
609.734	0.0159977
609.812	0.0161018
609.890	0.0161843
609.968	0.0161847
610.047	0.0162205
610.125	0.0163625
610.203	0.0161561
610.281	0.0161578
610.359	0.0161329
610.437	0.0162655
610.515	0.0162157
610.593	0.0162095
610.672	0.0162297
610.750	0.0162600
610.828	0.0162704
610.906	0.0162453
610.984	0.0162322
611.062	0.0162864
611.140	0.0162512
611.218	0.0162754
611.297	0.0162348
611.375	0.0162452
611.453	0.0162577
611.531	0.0161951
611.609	0.0162957
611.687	0.0161941
611.765	0.0162939
611.843	0.0162981
611.922	0.0161766
612.000	0.0162231
612.078	0.0161569
612.156	0.0162753
612.234	0.0162679
612.312	0.0163428
612.390	0.0162476
612.468	0.0162291
612.547	0.0162932
612.625	0.0161800
612.703	0.0162391
612.781	0.0162930
612.859	0.0163058
612.937	0.0162687
613.015	0.0163914
613.093	0.0163610
613.172	0.0161735
613.250	0.0161337
613.328	0.0160699
613.406	0.0163174
613.484	0.0163479
613.562	0.0162281
613.640	0.0162282
613.718	0.0163625
613.797	0.0161968
613.875	0.0160686
613.953	0.0162472
614.031	0.0162964
614.109	0.0163395
614.187	0.0162689
614.265	0.0161752
614.343	0.0161871
614.422	0.0163038
614.500	0.0163133
614.578	0.0162314
614.656	0.0163062
614.734	0.0161833
614.812	0.0162627
614.890	0.0162357
614.968	0.0161096
615.047	0.0162341
615.125	0.0162939
615.203	0.0163192
615.281	0.0162334
615.359	0.0162712
615.437	0.0161555
615.515	0.0161820
615.593	0.0162656
615.672	0.0163131
615.750	0.0161447
615.828	0.0161353
615.906	0.0163248
615.984	0.0162851
616.062	0.0163142
616.140	0.0162501
616.218	0.0162450
616.297	0.0162279
616.375	0.0163332
616.453	0.0162991
616.531	0.0162949
616.609	0.0162412
616.687	0.0162600
616.765	0.0162083
616.843	0.0161758
616.922	0.0161900
617.000	0.0162030
617.078	0.0162122
617.156	0.0162365
617.234	0.0161514
617.312	0.0161709
617.390	0.0162859
617.468	0.0162507
617.547	0.0160629
617.625	0.0162310
617.703	0.0162758
617.781	0.0162109
617.859	0.0162993
617.937	0.0164789
618.015	0.0161575
618.093	0.0163478
618.172	0.0162326
618.250	0.0161006
618.328	0.0162523
618.406	0.0162035
618.484	0.0162047
618.562	0.0162313
618.640	0.0161436
618.718	0.0161776
618.797	0.0162126
618.875	0.0162910
618.953	0.0162476
619.031	0.0161324
619.109	0.0162318
619.187	0.0160710
619.265	0.0161141
619.343	0.0162210
619.422	0.0162821
619.500	0.0162875
619.578	0.0162029
619.656	0.0162868
619.734	0.0162463
619.812	0.0162412
619.890	0.0163227
619.968	0.0163438
620.047	0.0160564
620.125	0.0163974
620.203	0.0162796
620.281	0.0160770
620.359	0.0162916
620.437	0.0162065
620.515	0.0162193
620.593	0.0162862
620.672	0.0161130
620.750	0.0161740
620.828	0.0163095
620.906	0.0161526
620.984	0.0162241
621.062	0.0162595
621.140	0.0162353
621.218	0.0163129
621.297	0.0162524
621.375	0.0162306
621.453	0.0162477
621.531	0.0163106
621.609	0.0162704
621.687	0.0162949
621.765	0.0162410
621.843	0.0162614
621.922	0.0162292
622.000	0.0162870
622.078	0.0162300
622.156	0.0161618
622.234	0.0162160
622.312	0.0162959
622.390	0.0162559
622.468	0.0162184
622.547	0.0163189
622.625	0.0162503
622.703	0.0162910
622.781	0.0162578
622.859	0.0163087
622.937	0.0162710
623.015	0.0162763
623.093	0.0163000
623.172	0.0161202
623.250	0.0161747
623.328	0.0161366
623.406	0.0162099
623.484	0.0161432
623.562	0.0162051
623.640	0.0161530
623.718	0.0162371
623.797	0.0161571
623.875	0.0162082
623.953	0.0162512
624.031	0.0163251
624.109	0.0161861
624.187	0.0161790
624.265	0.0162317
624.343	0.0160202
624.422	0.0161882
624.500	0.0162283
624.578	0.0162965
624.656	0.0162086
624.734	0.0163007
624.812	0.0163089
624.890	0.0160945
624.968	0.0162416
625.047	0.0163231
625.125	0.0161784
625.203	0.0162415
625.281	0.0161434
625.359	0.0162068
625.437	0.0162193
625.515	0.0161598
625.593	0.0162136
625.672	0.0162413
625.750	0.0162165
625.828	0.0160959
625.906	0.0162457
625.984	0.0160816
626.062	0.0161905
626.140	0.0161922
626.218	0.0161156
626.297	0.0161320
626.375	0.0160844
626.453	0.0161502
626.531	0.0163551
626.609	0.0161983
626.687	0.0163229
626.765	0.0161567
626.843	0.0160452
626.922	0.0162988
627.000	0.0160802
627.078	0.0161560
627.156	0.0163645
627.234	0.0162674
627.312	0.0161646
627.390	0.0160461
627.468	0.0161736
627.547	0.0161224
627.625	0.0161969
627.703	0.0161553
627.781	0.0162620
627.859	0.0161228
627.937	0.0162085
628.015	0.0161884
628.093	0.0161510
628.172	0.0161488
628.250	0.0161756
628.328	0.0163302
628.406	0.0161321
628.484	0.0161810
628.562	0.0161630
628.640	0.0161433
628.718	0.0162276
628.797	0.0162025
628.875	0.0161053
628.953	0.0161198
629.031	0.0160776
629.109	0.0162411
629.187	0.0162465
629.265	0.0161603
629.343	0.0162537
629.422	0.0161028
629.500	0.0162885
629.578	0.0162730
629.656	0.0160961
629.734	0.0162580
629.812	0.0161919
629.890	0.0162700
629.968	0.0161495
630.047	0.0161996
630.125	0.0161893
630.203	0.0162664
630.281	0.0161488
630.359	0.0161430
630.437	0.0161393
630.515	0.0162508
630.593	0.0160399
630.672	0.0160516
630.750	0.0162112
630.828	0.0162003
630.906	0.0162742
630.984	0.0160719
631.062	0.0162559
631.140	0.0161370
631.218	0.0161568
631.297	0.0160776
631.375	0.0163102
631.453	0.0162871
631.531	0.0162986
631.609	0.0162077
631.687	0.0162555
631.765	0.0162313
631.843	0.0161798
631.922	0.0162178
632.000	0.0162302
632.078	0.0161012
632.156	0.0161468
632.234	0.0162354
632.312	0.0162276
632.390	0.0162213
632.468	0.0162314
632.547	0.0162070
632.625	0.0161596
632.703	0.0162759
632.781	0.0161922
632.859	0.0161339
632.937	0.0161009
633.015	0.0161678
633.093	0.0161222
633.172	0.0161692
633.250	0.0163283
633.328	0.0162217
633.406	0.0160992
633.484	0.0161432
633.562	0.0162135
633.640	0.0162183
633.718	0.0162556
633.797	0.0162473
633.875	0.0162553
633.953	0.0162449
634.031	0.0163641
634.109	0.0161732
634.187	0.0162491
634.265	0.0161979
634.343	0.0161028
634.422	0.0162036
634.500	0.0162904
634.578	0.0161718
634.656	0.0161663
634.734	0.0161337
634.812	0.0161188
634.890	0.0161593
634.968	0.0161802
635.047	0.0162532
635.125	0.0160833
635.203	0.0161861
635.281	0.0161777
635.359	0.0161050
635.437	0.0162147
635.515	0.0161315
635.593	0.0161855
635.672	0.0162544
635.750	0.0161645
635.828	0.0160847
635.906	0.0162374
635.984	0.0161605
636.062	0.0161577
636.140	0.0161885
636.218	0.0161432
636.297	0.0163409
636.375	0.0163131
636.453	0.0160120
636.531	0.0162467
636.609	0.0162551
636.687	0.0161183
636.765	0.0161929
636.843	0.0160425
636.922	0.0161140
637.000	0.0162801
637.078	0.0162296
637.156	0.0162791
637.234	0.0160954
637.312	0.0161189
637.390	0.0162781
637.468	0.0160771
637.547	0.0161314
637.625	0.0162656
637.703	0.0162657
637.781	0.0161884
637.859	0.0162560
637.937	0.0162974
638.015	0.0162019
638.093	0.0162130
638.172	0.0160981
638.250	0.0162411
638.328	0.0162079
638.406	0.0162152
638.484	0.0161148
638.562	0.0160502
638.640	0.0162004
638.718	0.0162304
638.797	0.0161414
638.875	0.0161899
638.953	0.0161658
639.031	0.0161563
639.109	0.0163087
639.187	0.0161629
639.265	0.0162100
639.343	0.0162891
639.422	0.0161715
639.500	0.0162155
639.578	0.0163020
639.656	0.0161816
639.734	0.0161691
639.812	0.0162497
639.890	0.0162119
639.968	0.0162175
640.047	0.0162590
640.125	0.0161300
640.203	0.0161256
640.281	0.0161713
640.359	0.0162440
640.437	0.0161886
640.515	0.0162429
640.593	0.0161520
640.672	0.0162533
640.750	0.0162227
640.828	0.0160561
640.906	0.0162863
640.984	0.0161811
641.062	0.0162105
641.140	0.0161530
641.218	0.0161312
641.297	0.0161166
641.375	0.0162282
641.453	0.0162598
641.531	0.0162819
641.609	0.0160798
641.687	0.0161306
641.765	0.0161900
641.843	0.0161832
641.922	0.0161759
642.000	0.0160568
642.078	0.0161636
642.156	0.0163574
642.234	0.0161628
642.312	0.0162074
642.390	0.0161974
642.468	0.0160500
642.547	0.0161493
642.625	0.0161312
642.703	0.0162177
642.781	0.0162000
642.859	0.0161451
642.937	0.0161472
643.015	0.0161091
643.093	0.0161820
643.172	0.0161267
643.250	0.0161411
643.328	0.0159750
643.406	0.0162570
643.484	0.0162058
643.562	0.0160585
643.640	0.0160133
643.718	0.0162314
643.797	0.0161749
643.875	0.0161685
643.953	0.0161658
644.031	0.0163107
644.109	0.0162958
644.187	0.0161744
644.265	0.0163467
644.343	0.0163576
644.422	0.0160782
644.500	0.0162128
644.578	0.0162234
644.656	0.0162376
644.734	0.0160499
644.812	0.0162236
644.890	0.0161800
644.968	0.0161307
645.047	0.0163356
645.125	0.0161518
645.203	0.0162926
645.281	0.0162251
645.359	0.0161165
645.437	0.0161942
645.515	0.0162076
645.593	0.0162083
645.672	0.0162788
645.750	0.0161023
645.828	0.0160787
645.906	0.0161372
645.984	0.0161777
646.062	0.0160184
646.140	0.0163217
646.218	0.0161507
646.297	0.0160960
646.375	0.0162061
646.453	0.0161785
646.531	0.0161541
646.609	0.0162826
646.687	0.0161563
646.765	0.0162398
646.843	0.0160899
646.922	0.0160502
647.000	0.0161868
647.078	0.0161819
647.156	0.0161224
647.234	0.0161138
647.312	0.0162020
647.390	0.0162456
647.468	0.0162144
647.547	0.0162544
647.625	0.0162198
647.703	0.0161348
647.781	0.0161765
647.859	0.0160748
647.937	0.0161237
648.015	0.0161793
648.093	0.0162319
648.172	0.0161319
648.250	0.0161156
648.328	0.0162560
648.406	0.0160944
648.484	0.0162323
648.562	0.0161398
648.640	0.0162519
648.718	0.0161094
648.797	0.0160714
648.875	0.0161942
648.953	0.0161397
649.031	0.0161020
649.109	0.0162428
649.187	0.0162524
649.265	0.0160379
649.343	0.0162796
649.422	0.0161890
649.500	0.0161761
649.578	0.0162398
649.656	0.0161470
649.734	0.0161610
649.812	0.0160291
649.890	0.0161229
649.968	0.0161879
650.047	0.0161728
650.125	0.0161341
650.203	0.0161346
650.281	0.0162015
650.359	0.0161559
650.437	0.0162507
650.515	0.0162053
650.593	0.0160921
650.672	0.0161554
650.750	0.0161241
650.828	0.0160928
650.906	0.0162808
650.984	0.0161813
651.062	0.0159775
651.140	0.0161054
651.218	0.0160375
651.297	0.0161780
651.375	0.0162324
651.453	0.0161477
651.531	0.0162392
651.609	0.0159377
651.687	0.0162132
651.765	0.0163145
651.843	0.0162009
651.922	0.0160637
652.000	0.0161720
652.078	0.0160342
652.156	0.0160951
652.234	0.0160987
652.312	0.0161335
652.390	0.0161233
652.468	0.0161429
652.547	0.0160341
652.625	0.0162041
652.703	0.0160909
652.781	0.0160982
652.859	0.0160696
652.937	0.0160325
653.015	0.0160999
653.093	0.0161489
653.172	0.0160815
653.250	0.0161772
653.328	0.0160850
653.406	0.0162019
653.484	0.0160851
653.562	0.0162161
653.640	0.0161694
653.718	0.0160940
653.797	0.0161471
653.875	0.0161259
653.953	0.0161099
654.031	0.0161527
654.109	0.0160906
654.187	0.0161765
654.265	0.0160780
654.343	0.0160174
654.422	0.0162038
654.500	0.0160257
654.578	0.0161552
654.656	0.0162162
654.734	0.0161391
654.812	0.0161153
654.890	0.0161904
654.968	0.0161839
655.047	0.0160293
655.125	0.0161539
655.203	0.0161063
655.281	0.0162881
655.359	0.0162660
655.437	0.0161826
655.515	0.0161438
655.593	0.0160775
655.672	0.0162540
655.750	0.0161964
655.828	0.0161082
655.906	0.0161241
655.984	0.0160197
656.062	0.0161435
656.140	0.0162508
656.218	0.0162024
656.297	0.0162043
656.375	0.0162941
656.453	0.0161874
656.531	0.0160348
656.609	0.0161579
656.687	0.0162520
656.765	0.0162238
656.843	0.0161324
656.922	0.0160937
657.000	0.0161050
657.078	0.0163018
657.156	0.0162038
657.234	0.0162762
657.312	0.0161887
657.390	0.0162016
657.468	0.0162818
657.547	0.0162431
657.625	0.0163348
657.703	0.0161395
657.781	0.0162074
657.859	0.0161514
657.937	0.0162612
658.015	0.0163223
658.093	0.0161624
658.172	0.0161640
658.250	0.0163335
658.328	0.0161983
658.406	0.0161480
658.484	0.0160702
658.562	0.0163468
658.640	0.0162543
658.718	0.0162139
658.797	0.0162096
658.875	0.0162160
658.953	0.0161167
659.031	0.0162141
659.109	0.0161411
659.187	0.0161107
659.265	0.0162376
659.343	0.0162473
659.422	0.0161748
659.500	0.0160961
659.578	0.0162795
659.656	0.0162451
659.734	0.0161442
659.812	0.0161671
659.890	0.0161663
659.968	0.0162063
660.047	0.0161442
660.125	0.0162274
660.203	0.0161473
660.281	0.0162302
660.359	0.0161716
660.437	0.0160750
660.515	0.0161523
660.593	0.0161778
660.672	0.0162147
660.750	0.0162029
660.828	0.0162690
660.906	0.0162329
660.984	0.0161328
661.062	0.0161637
661.140	0.0161359
661.218	0.0162904
661.297	0.0162228
661.375	0.0161481
661.453	0.0161238
661.531	0.0162005
661.609	0.0162226
661.687	0.0161546
661.765	0.0161510
661.843	0.0161169
661.922	0.0162858
662.000	0.0161401
662.078	0.0161118
662.156	0.0162417
662.234	0.0161525
662.312	0.0162038
662.390	0.0161613
662.468	0.0161597
662.547	0.0162250
662.625	0.0162793
662.703	0.0161654
662.781	0.0161921
662.859	0.0160691
662.937	0.0162148
663.015	0.0162395
663.093	0.0162393
663.172	0.0160973
663.250	0.0162019
663.328	0.0161519
663.406	0.0161636
663.484	0.0162253
663.562	0.0162684
663.640	0.0161086
663.718	0.0161160
663.797	0.0162212
663.875	0.0162010
663.953	0.0162201
664.031	0.0161462
664.109	0.0161510
664.187	0.0163304
664.265	0.0162045
664.343	0.0161945
664.422	0.0163911
664.500	0.0161769
664.578	0.0162103
664.656	0.0161223
664.734	0.0162321
664.812	0.0161771
664.890	0.0162319
664.968	0.0161018
665.047	0.0161247
665.125	0.0162579
665.203	0.0162907
665.281	0.0161266
665.359	0.0162258
665.437	0.0162621
665.515	0.0161807
665.593	0.0161381
665.672	0.0161618
665.750	0.0160764
665.828	0.0161427
665.906	0.0161046
665.984	0.0160748
666.062	0.0160648
666.140	0.0161954
666.218	0.0162272
666.297	0.0163393
666.375	0.0162128
666.453	0.0162489
666.531	0.0160989
666.609	0.0162044
666.687	0.0162167
666.765	0.0160561
666.843	0.0162031
666.922	0.0162088
667.000	0.0161588
667.078	0.0161681
667.156	0.0162304
667.234	0.0162037
667.312	0.0163050
667.390	0.0162636
667.468	0.0161740
667.547	0.0162083
667.625	0.0162366
667.703	0.0162968
667.781	0.0162685
667.859	0.0161817
667.937	0.0162675
668.015	0.0162874
668.093	0.0162438
668.172	0.0161629
668.250	0.0161591
668.328	0.0161846
668.406	0.0162611
668.484	0.0162694
668.562	0.0162885
668.640	0.0161783
668.718	0.0160427
668.797	0.0162376
668.875	0.0162606
668.953	0.0162537
669.031	0.0161484
669.109	0.0162106
669.187	0.0161700
669.265	0.0162490
669.343	0.0161136
669.422	0.0160574
669.500	0.0159716
669.578	0.0161410
669.656	0.0161683
669.734	0.0161442
669.812	0.0162080
669.890	0.0160856
669.968	0.0161948
670.047	0.0160622
670.125	0.0161252
670.203	0.0162791
670.281	0.0161076
670.359	0.0160280
670.437	0.0161292
670.515	0.0162267
670.593	0.0161591
670.672	0.0162196
670.750	0.0162048
670.828	0.0159936
670.906	0.0161869
670.984	0.0161203
671.062	0.0161732
671.140	0.0162234
671.218	0.0160780
671.297	0.0161641
671.375	0.0163290
671.453	0.0161837
671.531	0.0160406
671.609	0.0161259
671.687	0.0161853
671.765	0.0160839
671.843	0.0161861
671.922	0.0162048
672.000	0.0161658
672.078	0.0161577
672.156	0.0161904
672.234	0.0161926
672.312	0.0162492
672.390	0.0161584
672.468	0.0160907
672.547	0.0161938
672.625	0.0163061
672.703	0.0162027
672.781	0.0161272
672.859	0.0161571
672.937	0.0161479
673.015	0.0163665
673.093	0.0161040
673.172	0.0162334
673.250	0.0163029
673.328	0.0161404
673.406	0.0160738
673.484	0.0161529
673.562	0.0162247
673.640	0.0161974
673.718	0.0161748
673.797	0.0162047
673.875	0.0161543
673.953	0.0162860
674.031	0.0163038
674.109	0.0161385
674.187	0.0161699
674.265	0.0161546
674.343	0.0162755
674.422	0.0162373
674.500	0.0162101
674.578	0.0162536
674.656	0.0162466
674.734	0.0161342
674.812	0.0162251
674.890	0.0162741
674.968	0.0162079
675.047	0.0162928
675.125	0.0162370
675.203	0.0161590
675.281	0.0160532
675.359	0.0161443
675.437	0.0161829
675.515	0.0163039
675.593	0.0162142
675.672	0.0162589
675.750	0.0163120
675.828	0.0162119
675.906	0.0161952
675.984	0.0161655
676.062	0.0160893
676.140	0.0161141
676.218	0.0161780
676.297	0.0162594
676.375	0.0161414
676.453	0.0162357
676.531	0.0161940
676.609	0.0162423
676.687	0.0162817
676.765	0.0162078
676.843	0.0161205
676.922	0.0161687
677.000	0.0162134
677.078	0.0161568
677.156	0.0161160
677.234	0.0161977
677.312	0.0162934
677.390	0.0162125
677.468	0.0161194
677.547	0.0162096
677.625	0.0162111
677.703	0.0160774
677.781	0.0160939
677.859	0.0163403
677.937	0.0161790
678.015	0.0162339
678.093	0.0161607
678.172	0.0162120
678.250	0.0162227
678.328	0.0161073
678.406	0.0161317
678.484	0.0161283
678.562	0.0161278
678.640	0.0161024
678.718	0.0160811
678.797	0.0160757
678.875	0.0161932
678.953	0.0161959
679.031	0.0161230
679.109	0.0162084
679.187	0.0160816
679.265	0.0161458
679.343	0.0162012
679.422	0.0162082
679.500	0.0161094
679.578	0.0161691
679.656	0.0161407
679.734	0.0162096
679.812	0.0161298
679.890	0.0161710
679.968	0.0161585
680.047	0.0162146
680.125	0.0162013
680.203	0.0161503
680.281	0.0160864
680.359	0.0162383
680.437	0.0162167
680.515	0.0160912
680.593	0.0161820
680.672	0.0161221
680.750	0.0161455
680.828	0.0161626
680.906	0.0161137
680.984	0.0161510
681.062	0.0161730
681.140	0.0161662
681.218	0.0160623
681.297	0.0162155
681.375	0.0162122
681.453	0.0161323
681.531	0.0161642
681.609	0.0160779
681.687	0.0160390
681.765	0.0160858
681.843	0.0161040
681.922	0.0160751
682.000	0.0161269
682.078	0.0162280
682.156	0.0160297
682.234	0.0161286
682.312	0.0160954
682.390	0.0161877
682.468	0.0162439
682.547	0.0160477
682.625	0.0161377
682.703	0.0160753
682.781	0.0163358
682.859	0.0163390
682.937	0.0161964
683.015	0.0160212
683.093	0.0160555
683.172	0.0163094
683.250	0.0161963
683.328	0.0160497
683.406	0.0162563
683.484	0.0161478
683.562	0.0161133
683.640	0.0161752
683.718	0.0161172
683.797	0.0161824
683.875	0.0160172
683.953	0.0162625
684.031	0.0162238
684.109	0.0162643
684.187	0.0161433
684.265	0.0160664
684.343	0.0162343
684.422	0.0160563
684.500	0.0162212
684.578	0.0162607
684.656	0.0163255
684.734	0.0161925
684.812	0.0161636
684.890	0.0163717
684.968	0.0161749
685.047	0.0161314
685.125	0.0160101
685.203	0.0162382
685.281	0.0161877
685.359	0.0161409
685.437	0.0160425
685.515	0.0160581
685.593	0.0162503
685.672	0.0162278
685.750	0.0161482
685.828	0.0161307
685.906	0.0161107
685.984	0.0162049
686.062	0.0162634
686.140	0.0161720
686.218	0.0162896
686.297	0.0162126
686.375	0.0161903
686.453	0.0161929
686.531	0.0162246
686.609	0.0163705
686.687	0.0162211
686.765	0.0161118
686.843	0.0161806
686.922	0.0162405
687.000	0.0162897
687.078	0.0162985
687.156	0.0162745
687.234	0.0162515
687.312	0.0160676
687.390	0.0161853
687.468	0.0162518
687.547	0.0162920
687.625	0.0162825
687.703	0.0162584
687.781	0.0162096
687.859	0.0162289
687.937	0.0161655
688.015	0.0162138
688.093	0.0160957
688.172	0.0161014
688.250	0.0161924
688.328	0.0161479
688.406	0.0161659
688.484	0.0161826
688.562	0.0161853
688.640	0.0161978
688.718	0.0161871
688.797	0.0161906
688.875	0.0162213
688.953	0.0162490
689.031	0.0161224
689.109	0.0162534
689.187	0.0162372
689.265	0.0162746
689.343	0.0162721
689.422	0.0163184
689.500	0.0162299
689.578	0.0162563
689.656	0.0163026
689.734	0.0161799
689.812	0.0162196
689.890	0.0163065
689.968	0.0162594
690.047	0.0163066
690.125	0.0162933
690.203	0.0162986
690.281	0.0161332
690.359	0.0163010
690.437	0.0163410
690.515	0.0163005
690.593	0.0162468
690.672	0.0161736
690.750	0.0163887
690.828	0.0162728
690.906	0.0163459
690.984	0.0162880
691.062	0.0163738
691.140	0.0162395
691.218	0.0160857
691.297	0.0161577
691.375	0.0161498
691.453	0.0162773
691.531	0.0163128
691.609	0.0162598
691.687	0.0162874
691.765	0.0162848
691.843	0.0162559
691.922	0.0162995
692.000	0.0162492
692.078	0.0162079
692.156	0.0162333
692.234	0.0161613
692.312	0.0162486
692.390	0.0162510
692.468	0.0162804
692.547	0.0163680
692.625	0.0162485
692.703	0.0163605
692.781	0.0162688
692.859	0.0162215
692.937	0.0161895
693.015	0.0162172
693.093	0.0162800
693.172	0.0160683
693.250	0.0161708
693.328	0.0161805
693.406	0.0163218
693.484	0.0161478
693.562	0.0162151
693.640	0.0162187
693.718	0.0162486
693.797	0.0161964
693.875	0.0163035
693.953	0.0162619
694.031	0.0161145
694.109	0.0162164
694.187	0.0162231
694.265	0.0161661
694.343	0.0160409
694.422	0.0161545
694.500	0.0162035
694.578	0.0161749
694.656	0.0162843
694.734	0.0161597
694.812	0.0161272
694.890	0.0162843
694.968	0.0162243
695.047	0.0161310
695.125	0.0162908
695.203	0.0161216
695.281	0.0161822
695.359	0.0161672
695.437	0.0161942
695.515	0.0161441
695.593	0.0161777
695.672	0.0160364
695.750	0.0160889
695.828	0.0162359
695.906	0.0162770
695.984	0.0161548
696.062	0.0160941
696.140	0.0160979
696.218	0.0162377
696.297	0.0162361
696.375	0.0162011
696.453	0.0162576
696.531	0.0161018
696.609	0.0161607
696.687	0.0160503
696.765	0.0162119
696.843	0.0161899
696.922	0.0161505
697.000	0.0161045
697.078	0.0161005
697.156	0.0160352
697.234	0.0161530
697.312	0.0161205
697.390	0.0162016
697.468	0.0162045
697.547	0.0162305
697.625	0.0160136
697.703	0.0162418
697.781	0.0162966
697.859	0.0161773
697.937	0.0162387
698.015	0.0161900
698.093	0.0162154
698.172	0.0161478
698.250	0.0160963
698.328	0.0162302
698.406	0.0161475
698.484	0.0161263
698.562	0.0161754
698.640	0.0161552
698.718	0.0162029
698.797	0.0162724
698.875	0.0161269
698.953	0.0160994
699.031	0.0161556
699.109	0.0161356
699.187	0.0162081
699.265	0.0161391
699.343	0.0162272
699.422	0.0161420
699.500	0.0161381
699.578	0.0160709
699.656	0.0161719
699.734	0.0161469
699.812	0.0162771
699.890	0.0162439
699.968	0.0162231
700.047	0.0162019
700.125	0.0161456
700.203	0.0161214
700.281	0.0161591
700.359	0.0163081
700.437	0.0160694
700.515	0.0161860
700.593	0.0161135
700.672	0.0161475
700.750	0.0163154
700.828	0.0162194
700.906	0.0161783
700.984	0.0162123
701.062	0.0162004
701.140	0.0162352
701.218	0.0161083
701.297	0.0160592
701.375	0.0162002
701.453	0.0162743
701.531	0.0162254
701.609	0.0160877
701.687	0.0161516
701.765	0.0161928
701.843	0.0162834
701.922	0.0161296
702.000	0.0161459
702.078	0.0162404
702.156	0.0161634
702.234	0.0161443
702.312	0.0161880
702.390	0.0161563
702.468	0.0161993
702.547	0.0161441
702.625	0.0161416
702.703	0.0162317
702.781	0.0162490
702.859	0.0162810
702.937	0.0160413
703.015	0.0160851
703.093	0.0162410
703.172	0.0162714
703.250	0.0160977
703.328	0.0160963
703.406	0.0161269
703.484	0.0162196
703.562	0.0162551
703.640	0.0161732
703.718	0.0160938
703.797	0.0161072
703.875	0.0161659
703.953	0.0162356
704.031	0.0161743
704.109	0.0161292
704.187	0.0162579
704.265	0.0160217
704.343	0.0160813
704.422	0.0160764
704.500	0.0162150
704.578	0.0161451
704.656	0.0160870
704.734	0.0161514
704.812	0.0162361
704.890	0.0162406
704.968	0.0161409
705.047	0.0161998
705.125	0.0161032
705.203	0.0161251
705.281	0.0162664
705.359	0.0162122
705.437	0.0160860
705.515	0.0161687
705.593	0.0161941
705.672	0.0161741
705.750	0.0160861
705.828	0.0161235
705.906	0.0162502
705.984	0.0162711
706.062	0.0162280
706.140	0.0162080
706.218	0.0161009
706.297	0.0161298
706.375	0.0160753
706.453	0.0162570
706.531	0.0161916
706.609	0.0161945
706.687	0.0162147
706.765	0.0162412
706.843	0.0161332
706.922	0.0162516
707.000	0.0162029
707.078	0.0161823
707.156	0.0160516
707.234	0.0161364
707.312	0.0161149
707.390	0.0161790
707.468	0.0161847
707.547	0.0161779
707.625	0.0162105
707.703	0.0161893
707.781	0.0162602
707.859	0.0162360
707.937	0.0162508
708.015	0.0161964
708.093	0.0162048
708.172	0.0162236
708.250	0.0162482
708.328	0.0162372
708.406	0.0162836
708.484	0.0162336
708.562	0.0161884
708.640	0.0161879
708.718	0.0161690
708.797	0.0162217
708.875	0.0161753
708.953	0.0162169
709.031	0.0162601
709.109	0.0161401
709.187	0.0162035
709.265	0.0162720
709.343	0.0162862
709.422	0.0162610
709.500	0.0161478
709.578	0.0163017
709.656	0.0161605
709.734	0.0161938
709.812	0.0162099
709.890	0.0162144
709.968	0.0162060
710.047	0.0162611
710.125	0.0162138
710.203	0.0162502
710.281	0.0160937
710.359	0.0162417
710.437	0.0163249
710.515	0.0162988
710.593	0.0162992
710.672	0.0162234
710.750	0.0162536
710.828	0.0161856
710.906	0.0162683
710.984	0.0161921
711.062	0.0161832
711.140	0.0162213
711.218	0.0164025
711.297	0.0162621
711.375	0.0160867
711.453	0.0160099
711.531	0.0162232
711.609	0.0162060
711.687	0.0161768
711.765	0.0161855
711.843	0.0161535
711.922	0.0162009
712.000	0.0162432
712.078	0.0162758
712.156	0.0162167
712.234	0.0162093
712.312	0.0162762
712.390	0.0161791
712.468	0.0161505
712.547	0.0162659
712.625	0.0162616
712.703	0.0162974
712.781	0.0163012
712.859	0.0162726
712.937	0.0162675
713.015	0.0161868
713.093	0.0162426
713.172	0.0162365
713.250	0.0160764
713.328	0.0162149
713.406	0.0162515
713.484	0.0161815
713.562	0.0161083
713.640	0.0163173
713.718	0.0162673
713.797	0.0162178
713.875	0.0162197
713.953	0.0161076
714.031	0.0162701
714.109	0.0162126
714.187	0.0162983
714.265	0.0162117
714.343	0.0161577
714.422	0.0161430
714.500	0.0161781
714.578	0.0160924
714.656	0.0161388
714.734	0.0162319
714.812	0.0162215
714.890	0.0161902
714.968	0.0162174
715.047	0.0161877
715.125	0.0162409
715.203	0.0161843
715.281	0.0160284
715.359	0.0161389
715.437	0.0162989
715.515	0.0162049
715.593	0.0162347
715.672	0.0161806
715.750	0.0162480
715.828	0.0163209
715.906	0.0162682
715.984	0.0162491
716.062	0.0162449
716.140	0.0161729
716.218	0.0160472
716.297	0.0161572
716.375	0.0162224
716.453	0.0162978
716.531	0.0160324
716.609	0.0162328
716.687	0.0161983
716.765	0.0161345
716.843	0.0161936
716.922	0.0161223
717.000	0.0161369
717.078	0.0161558
717.156	0.0163297
717.234	0.0161306
717.312	0.0162148
717.390	0.0160954
717.468	0.0162047
717.547	0.0161742
717.625	0.0160760
717.703	0.0160956
717.781	0.0161760
717.859	0.0161343
717.937	0.0161452
718.015	0.0161119
718.093	0.0162824
718.172	0.0161417
718.250	0.0160951
718.328	0.0162626
718.406	0.0162189
718.484	0.0161774
718.562	0.0161414
718.640	0.0163234
718.718	0.0162867
718.797	0.0160922
718.875	0.0162336
718.953	0.0162384
719.031	0.0162063
719.109	0.0162170
719.187	0.0163026
719.265	0.0162057
719.343	0.0161213
719.422	0.0162991
719.500	0.0162698
719.578	0.0160954
719.656	0.0161926
719.734	0.0162463
719.812	0.0161181
719.890	0.0161378
719.968	0.0161712
720.047	0.0161544
720.125	0.0161865
720.203	0.0161446
720.281	0.0161809
720.359	0.0162447
720.437	0.0160841
720.515	0.0162835
720.593	0.0161897
720.672	0.0162223
720.750	0.0162794
720.828	0.0162703
720.906	0.0161666
720.984	0.0162981
721.062	0.0161136
721.140	0.0160752
721.218	0.0161714
721.297	0.0162661
721.375	0.0162983
721.453	0.0161512
721.531	0.0161899
721.609	0.0161956
721.687	0.0162326
721.765	0.0162179
721.843	0.0160447
721.922	0.0162337
722.000	0.0161235
722.078	0.0161700
722.156	0.0162673
722.234	0.0162186
722.312	0.0162126
722.390	0.0162981
722.468	0.0162173
722.547	0.0162440
722.625	0.0162892
722.703	0.0163935
722.781	0.0163701
722.859	0.0160863
722.937	0.0162164
723.015	0.0162953
723.093	0.0162527
723.172	0.0162537
723.250	0.0163836
723.328	0.0162493
723.406	0.0163174
723.484	0.0163686
723.562	0.0162724
723.640	0.0162298
723.718	0.0162891
723.797	0.0161753
723.875	0.0162590
723.953	0.0162450
724.031	0.0161932
724.109	0.0162231
724.187	0.0162117
724.265	0.0162949
724.343	0.0162576
724.422	0.0161556
724.500	0.0162310
724.578	0.0160792
724.656	0.0163129
724.734	0.0163139
724.812	0.0161211
724.890	0.0161169
724.968	0.0162112
725.047	0.0161645
725.125	0.0162349
725.203	0.0161913
725.281	0.0161864
725.359	0.0162575
725.437	0.0162797
725.515	0.0162649
725.593	0.0163203
725.672	0.0163256
725.750	0.0163857
725.828	0.0162495
725.906	0.0162660
725.984	0.0163026
726.062	0.0162990
726.140	0.0161399
726.218	0.0162335
726.297	0.0161603
726.375	0.0161993
726.453	0.0161486
726.531	0.0162457
726.609	0.0160651
726.687	0.0162354
726.765	0.0163904
726.843	0.0162702
726.922	0.0161207
727.000	0.0161630
727.078	0.0161998
727.156	0.0162866
727.234	0.0161121
727.312	0.0160374
727.390	0.0162739
727.468	0.0162998
727.547	0.0161791
727.625	0.0161660
727.703	0.0161021
727.781	0.0160530
727.859	0.0161291
727.937	0.0161233
728.015	0.0161826
728.093	0.0162794
728.172	0.0161772
728.250	0.0161549
728.328	0.0161729
728.406	0.0162762
728.484	0.0162457
728.562	0.0161718
728.640	0.0162961
728.718	0.0162625
728.797	0.0161965
728.875	0.0162351
728.953	0.0162244
729.031	0.0162304
729.109	0.0162209
729.187	0.0163316
729.265	0.0162129
729.343	0.0161645
729.422	0.0162805
729.500	0.0162966
729.578	0.0162220
729.656	0.0162563
729.734	0.0162585
729.812	0.0160938
729.890	0.0162066
729.968	0.0161901
730.047	0.0161150
730.125	0.0161548
730.203	0.0161308
730.281	0.0161906
730.359	0.0162167
730.437	0.0162562
730.515	0.0162336
730.593	0.0162125
730.672	0.0162618
730.750	0.0162078
730.828	0.0162902
730.906	0.0162274
730.984	0.0161341
731.062	0.0161684
731.140	0.0162727
731.218	0.0161639
731.297	0.0161098
731.375	0.0162737
731.453	0.0163071
731.531	0.0161132
731.609	0.0161381
731.687	0.0161002
731.765	0.0160719
731.843	0.0161728
731.922	0.0162804
732.000	0.0162237
732.078	0.0161258
732.156	0.0162473
732.234	0.0163080
732.312	0.0162717
732.390	0.0162623
732.468	0.0163551
732.547	0.0162566
732.625	0.0161735
732.703	0.0162891
732.781	0.0162985
732.859	0.0162605
732.937	0.0163531
733.015	0.0160746
733.093	0.0162193
733.172	0.0161480
733.250	0.0161512
733.328	0.0161682
733.406	0.0162081
733.484	0.0161877
733.562	0.0162084
733.640	0.0161305
733.718	0.0162671
733.797	0.0161497
733.875	0.0162192
733.953	0.0162050
734.031	0.0160466
734.109	0.0162918
734.187	0.0161903
734.265	0.0161393
734.343	0.0163158
734.422	0.0162978
734.500	0.0161880
734.578	0.0162820
734.656	0.0161494
734.734	0.0160610
734.812	0.0162311
734.890	0.0161973
734.968	0.0161221
735.047	0.0162208
735.125	0.0162317
735.203	0.0161383
735.281	0.0161469
735.359	0.0161140
735.437	0.0161539
735.515	0.0161285
735.593	0.0161884
735.672	0.0160570
735.750	0.0161813
735.828	0.0161628
735.906	0.0162537
735.984	0.0162195
736.062	0.0160395
736.140	0.0163040
736.218	0.0162523
736.297	0.0162633
736.375	0.0160979
736.453	0.0160455
736.531	0.0161607
736.609	0.0161779
736.687	0.0161850
736.765	0.0162388
736.843	0.0161668
736.922	0.0161082
737.000	0.0161599
737.078	0.0161974
737.156	0.0161569
737.234	0.0161256
737.312	0.0161937
737.390	0.0160927
737.468	0.0161590
737.547	0.0160751
737.625	0.0162124
737.703	0.0161900
737.781	0.0161115
737.859	0.0160960
737.937	0.0161292
738.015	0.0161131
738.093	0.0162704
738.172	0.0160988
738.250	0.0159894
738.328	0.0160824
738.406	0.0160900
738.484	0.0159954
738.562	0.0160305
738.640	0.0161309
738.718	0.0161265
738.797	0.0162482
738.875	0.0161192
738.953	0.0160972
739.031	0.0160742
739.109	0.0160494
739.187	0.0161366
739.265	0.0162383
739.343	0.0161323
739.422	0.0163199
739.500	0.0162296
739.578	0.0161914
739.656	0.0161663
739.734	0.0159414
739.812	0.0162136
739.890	0.0161630
739.968	0.0159844
740.047	0.0160914
740.125	0.0161037
740.203	0.0160475
740.281	0.0161151
740.359	0.0161457
740.437	0.0161000
740.515	0.0161217
740.593	0.0161880
740.672	0.0162277
740.750	0.0161016
740.828	0.0162438
740.906	0.0161875
740.984	0.0161586
741.062	0.0162132
741.140	0.0162841
741.218	0.0162038
741.297	0.0161951
741.375	0.0159974
741.453	0.0160040
741.531	0.0160175
741.609	0.0161890
741.687	0.0161784
741.765	0.0160854
741.843	0.0161024
741.922	0.0161993
742.000	0.0160314
742.078	0.0160671
742.156	0.0160476
742.234	0.0161155
742.312	0.0161219
742.390	0.0160769
742.468	0.0161877
742.547	0.0160714
742.625	0.0162521
742.703	0.0160762
742.781	0.0161171
742.859	0.0162193
742.937	0.0162363
743.015	0.0161462
743.093	0.0161355
743.172	0.0161003
743.250	0.0159431
743.328	0.0161428
743.406	0.0161500
743.484	0.0161941
743.562	0.0161367
743.640	0.0161242
743.718	0.0161938
743.797	0.0162338
743.875	0.0161499
743.953	0.0160211
744.031	0.0162518
744.109	0.0161034
744.187	0.0161795
744.265	0.0161098
744.343	0.0161993
744.422	0.0160989
744.500	0.0160181
744.578	0.0162248
744.656	0.0161082
744.734	0.0162871
744.812	0.0160637
744.890	0.0160757
744.968	0.0161944
745.047	0.0160410
745.125	0.0161741
745.203	0.0162003
745.281	0.0161863
745.359	0.0161868
745.437	0.0160678
745.515	0.0160626
745.593	0.0161398
745.672	0.0161262
745.750	0.0160584
745.828	0.0162121
745.906	0.0160748
745.984	0.0161060
746.062	0.0162361
746.140	0.0163577
746.218	0.0162283
746.297	0.0161768
746.375	0.0162570
746.453	0.0161722
746.531	0.0162426
746.609	0.0163571
746.687	0.0162378
746.765	0.0161432
746.843	0.0162211
746.922	0.0161388
747.000	0.0161562
747.078	0.0162689
747.156	0.0160424
747.234	0.0161120
747.312	0.0162191
747.390	0.0163189
747.468	0.0162376
747.547	0.0162873
747.625	0.0161056
747.703	0.0161777
747.781	0.0161610
747.859	0.0162494
747.937	0.0162458
748.015	0.0161462
748.093	0.0162249
748.172	0.0162228
748.250	0.0161501
748.328	0.0161720
748.406	0.0161777
748.484	0.0161485
748.562	0.0164024
748.640	0.0163299
748.718	0.0160137
748.797	0.0161719
748.875	0.0162639
748.953	0.0163947
749.031	0.0161381
749.109	0.0162875
749.187	0.0162717
749.265	0.0162408
749.343	0.0164256
749.422	0.0162868
749.500	0.0163454
749.578	0.0163492
749.656	0.0162917
749.734	0.0162708
749.812	0.0164471
749.890	0.0163153
749.968	0.0164014
750.047	0.0163565
750.125	0.0163091
750.203	0.0163766
750.281	0.0163887
750.359	0.0163618
750.437	0.0162543
750.515	0.0162496
750.593	0.0162017
750.672	0.0162301
750.750	0.0162075
750.828	0.0161784
750.906	0.0160899
750.984	0.0161870
751.062	0.0162325
751.140	0.0161793
751.218	0.0163139
751.297	0.0162566
751.375	0.0161980
751.453	0.0161721
751.531	0.0161073
751.609	0.0164013
751.687	0.0162033
751.765	0.0162558
751.843	0.0162471
751.922	0.0163550
752.000	0.0162555
752.078	0.0161910
752.156	0.0163004
752.234	0.0161192
752.312	0.0162341
752.390	0.0162357
752.468	0.0162451
752.547	0.0160458
752.625	0.0161188
752.703	0.0162038
752.781	0.0160477
752.859	0.0161008
752.937	0.0161314
753.015	0.0161069
753.093	0.0161566
753.172	0.0164407
753.250	0.0163348
753.328	0.0162093
753.406	0.0163110
753.484	0.0163612
753.562	0.0163406
753.640	0.0163532
753.718	0.0161829
753.797	0.0161743
753.875	0.0162741
753.953	0.0162499
754.031	0.0162251
754.109	0.0161681
754.187	0.0162459
754.265	0.0163184
754.343	0.0161120
754.422	0.0160812
754.500	0.0162843
754.578	0.0160448
754.656	0.0163861
754.734	0.0162457
754.812	0.0160312
754.890	0.0160764
754.968	0.0161140
755.047	0.0161936
755.125	0.0160388
755.203	0.0162688
755.281	0.0163789
755.359	0.0162212
755.437	0.0160757
755.515	0.0161857
755.593	0.0161665
755.672	0.0162740
755.750	0.0162025
755.828	0.0161633
755.906	0.0161945
755.984	0.0163107
756.062	0.0164582
756.140	0.0164474
756.218	0.0163825
756.297	0.0163857
756.375	0.0163281
756.453	0.0162678
756.531	0.0162758
756.609	0.0161607
756.687	0.0163166
756.765	0.0163493
756.843	0.0161537
756.922	0.0162762
757.000	0.0162482
757.078	0.0162534
757.156	0.0161696
757.234	0.0161663
757.312	0.0160225
757.390	0.0160545
757.468	0.0162285
757.547	0.0161916
757.625	0.0160688
757.703	0.0160410
757.781	0.0161456
757.859	0.0159930
757.937	0.0160413
758.015	0.0160890
758.093	0.0160345
758.172	0.0159399
758.250	0.0160428
758.328	0.0159681
758.406	0.0160974
758.484	0.0160773
758.562	0.0158793
758.640	0.0160913
758.718	0.0160407
758.797	0.0161164
758.875	0.0162449
758.953	0.0162280
759.031	0.0162101
759.109	0.0162450
759.187	0.0162598
759.265	0.0164296
759.343	0.0163712
759.422	0.0163407
759.500	0.0164137
759.578	0.0163789
759.656	0.0162414
759.734	0.0163243
759.812	0.0160967
759.890	0.0160837
759.968	0.0162318
760.047	0.0160046
760.125	0.0158611
760.203	0.0160066
760.281	0.0159884
760.359	0.0159465
760.437	0.0159481
760.515	0.0159593
760.593	0.0159914
760.672	0.0159823
760.750	0.0160680
760.828	0.0160757
760.906	0.0159026
760.984	0.0160868
761.062	0.0159669
761.140	0.0159489
761.218	0.0160739
761.297	0.0160233
761.375	0.0160507
761.453	0.0160703
761.531	0.0158956
761.609	0.0161425
761.687	0.0163402
761.765	0.0162836
761.843	0.0161820
761.922	0.0162349
762.000	0.0161998
762.078	0.0162834
762.156	0.0163525
762.234	0.0164068
762.312	0.0163332
762.390	0.0164079
762.468	0.0164046
762.547	0.0164093
762.625	0.0164745
762.703	0.0164631
762.781	0.0165981
762.859	0.0163489
762.937	0.0164446
763.015	0.0163499
763.093	0.0161288
763.172	0.0160998
763.250	0.0160116
763.328	0.0159723
763.406	0.0160102
763.484	0.0159045
763.562	0.0159579
763.640	0.0160082
763.718	0.0159461
763.797	0.0159528
763.875	0.0160603
763.953	0.0159794
764.031	0.0160545
764.109	0.0161002
764.187	0.0162495
764.265	0.0162563
764.343	0.0161221
764.422	0.0161497
764.500	0.0162035
764.578	0.0162226
764.656	0.0161806
764.734	0.0160680
764.812	0.0160670
764.890	0.0159608
764.968	0.0161777
765.047	0.0160741
765.125	0.0160594
765.203	0.0162952
765.281	0.0161805
765.359	0.0162315
765.437	0.0162234
765.515	0.0162299
765.593	0.0160494
765.672	0.0162069
765.750	0.0161105
765.828	0.0161423
765.906	0.0161303
765.984	0.0162938
766.062	0.0163709
766.140	0.0164172
766.218	0.0162617
766.297	0.0164215
766.375	0.0165355
766.453	0.0164347
766.531	0.0164166
766.609	0.0164913
766.687	0.0162734
766.765	0.0162801
766.843	0.0163856
766.922	0.0161380
767.000	0.0161684
767.078	0.0160294
767.156	0.0161300
767.234	0.0160362
767.312	0.0160619
767.390	0.0160098
767.468	0.0160648
767.547	0.0160770
767.625	0.0161266
767.703	0.0161942
767.781	0.0161673
767.859	0.0162211
767.937	0.0162473
768.015	0.0161422
768.093	0.0161040
768.172	0.0161690
768.250	0.0162540
768.328	0.0161693
768.406	0.0161407
768.484	0.0161230
768.562	0.0161494
768.640	0.0162953
768.718	0.0160855
768.797	0.0162046
768.875	0.0161381
768.953	0.0161037
769.031	0.0158747
769.109	0.0160255
769.187	0.0159244
769.265	0.0158904
769.343	0.0158981
769.422	0.0158331
769.500	0.0158399
769.578	0.0159294
769.656	0.0161006
769.734	0.0162797
769.812	0.0161932
769.890	0.0162621
769.968	0.0162376
770.047	0.0162112
770.125	0.0162694
770.203	0.0161767
770.281	0.0162282
770.359	0.0163022
770.437	0.0161682
770.515	0.0161954
770.593	0.0163251
770.672	0.0163087
770.750	0.0163847
770.828	0.0163978
770.906	0.0164547
770.984	0.0165289
771.062	0.0164705
771.140	0.0164509
771.218	0.0166708
771.297	0.0166240
771.375	0.0164306
771.453	0.0164862
771.531	0.0164243
771.609	0.0164457
771.687	0.0164639
771.765	0.0165046
771.843	0.0164979
771.922	0.0165106
772.000	0.0165226
772.078	0.0164728
772.156	0.0163076
772.234	0.0164406
772.312	0.0161064
772.390	0.0160899
772.468	0.0160956
772.547	0.0160777
772.625	0.0160152
772.703	0.0159584
772.781	0.0159963
772.859	0.0156230
772.937	0.0157422
773.015	0.0156642
773.093	0.0156549
773.172	0.0157175
773.250	0.0158282
773.328	0.0157723
773.406	0.0158162
773.484	0.0158598
773.562	0.0157410
773.640	0.0157704
773.718	0.0157733
773.797	0.0159138
773.875	0.0159386
773.953	0.0159497
774.031	0.0160118
774.109	0.0160542
774.187	0.0159113
774.265	0.0161283
774.343	0.0162064
774.422	0.0161830
774.500	0.0162823
774.578	0.0162374
774.656	0.0162885
774.734	0.0163148
774.812	0.0164369
774.890	0.0165636
774.968	0.0166443
775.047	0.0166435
775.125	0.0167305
775.203	0.0169028
775.281	0.0167848
775.359	0.0167035
775.437	0.0169281
775.515	0.0168223
775.593	0.0167914
775.672	0.0166870
775.750	0.0165385
775.828	0.0166186
775.906	0.0164246
775.984	0.0164288
776.062	0.0163992
776.140	0.0164055
776.218	0.0162986
776.297	0.0161552
776.375	0.0160574
776.453	0.0161069
776.531	0.0161440
776.609	0.0160702
776.687	0.0160787
776.765	0.0161926
776.843	0.0161990
776.922	0.0163782
777.000	0.0162386
777.078	0.0162048
777.156	0.0163189
777.234	0.0161687
777.312	0.0161662
777.390	0.0161654
777.468	0.0161496
777.547	0.0160447
777.625	0.0159711
777.703	0.0160101
777.781	0.0159097
777.859	0.0158701
777.937	0.0158147
778.015	0.0158992
778.093	0.0159682
778.172	0.0158245
778.250	0.0159012
778.328	0.0159662
778.406	0.0158891
778.484	0.0159947
778.562	0.0159262
778.640	0.0160050
778.718	0.0161018
778.797	0.0159404
778.875	0.0159825
778.953	0.0161861
779.031	0.0162543
779.109	0.0161164
779.187	0.0161571
779.265	0.0164024
779.343	0.0163062
779.422	0.0164079
779.500	0.0164999
779.578	0.0164953
779.656	0.0167115
779.734	0.0166948
779.812	0.0164802
779.890	0.0167831
779.968	0.0167413
780.047	0.0168722
780.125	0.0170094
780.203	0.0170677
780.281	0.0170107
780.359	0.0170616
780.437	0.0170470
780.515	0.0170078
780.593	0.0169378
780.672	0.0168803
780.750	0.0166747
780.828	0.0165418
780.906	0.0165025
780.984	0.0163758
781.062	0.0160262
781.140	0.0159097
781.218	0.0158301
781.297	0.0154862
781.375	0.0155750
781.453	0.0152390
781.531	0.0152907
781.609	0.0151786
781.687	0.0149741
781.765	0.0150692
781.843	0.0151971
781.922	0.0150933
782.000	0.0151673
782.078	0.0154145
782.156	0.0154074
782.234	0.0154942
782.312	0.0156393
782.390	0.0156284
782.468	0.0157859
782.547	0.0158862
782.625	0.0160257
782.703	0.0161357
782.781	0.0162868
782.859	0.0163308
782.937	0.0164819
783.015	0.0163946
783.093	0.0165759
783.172	0.0167085
783.250	0.0167566
783.328	0.0168866
783.406	0.0168478
783.484	0.0169375
783.562	0.0168988
783.640	0.0170346
783.718	0.0171001
783.797	0.0170242
783.875	0.0169744
783.953	0.0169498
784.031	0.0168866
784.109	0.0168600
784.187	0.0168356
784.265	0.0167847
784.343	0.0166594
784.422	0.0165378
784.500	0.0164663
784.578	0.0163495
784.656	0.0163499
784.734	0.0161615
784.812	0.0161555
784.890	0.0159971
784.968	0.0159581
785.047	0.0157897
785.125	0.0156982
785.203	0.0156955
785.281	0.0155846
785.359	0.0156544
785.437	0.0157450
785.515	0.0157986
785.593	0.0156748
785.672	0.0158691
785.750	0.0158407
785.828	0.0157296
785.906	0.0159200
785.984	0.0159975
786.062	0.0159086
786.140	0.0157734
786.218	0.0157728
786.297	0.0157143
786.375	0.0156635
786.453	0.0155186
786.531	0.0154707
786.609	0.0155022
786.687	0.0155715
786.765	0.0155835
786.843	0.0155101
786.922	0.0155827
787.000	0.0155486
787.078	0.0157288
787.156	0.0158769
787.234	0.0159194
787.312	0.0159690
787.390	0.0161704
787.468	0.0163461
787.547	0.0163522
787.625	0.0166331
787.703	0.0165642
787.781	0.0167349
787.859	0.0168777
787.937	0.0171027
788.015	0.0169621
788.093	0.0171891
788.172	0.0170821
788.250	0.0171464
788.328	0.0172360
788.406	0.0171569
788.484	0.0171689
788.562	0.0169373
788.640	0.0169929
788.718	0.0172100
788.797	0.0168269
788.875	0.0169138
788.953	0.0168805
789.031	0.0167514
789.109	0.0166133
789.187	0.0165994
789.265	0.0164043
789.343	0.0162499
789.422	0.0162243
789.500	0.0160275
789.578	0.0158968
789.656	0.0159160
789.734	0.0158775
789.812	0.0155149
789.890	0.0155956
789.968	0.0155822
790.047	0.0154716
790.125	0.0154590
790.203	0.0153919
790.281	0.0153182
790.359	0.0151280
790.437	0.0152496
790.515	0.0152230
790.593	0.0152915
790.672	0.0154342
790.750	0.0153944
790.828	0.0155205
790.906	0.0155881
790.984	0.0156770
791.062	0.0157933
791.140	0.0158384
791.218	0.0157192
791.297	0.0159032
791.375	0.0160867
791.453	0.0162341
791.531	0.0162085
791.609	0.0163712
791.687	0.0164633
791.765	0.0164005
791.843	0.0166724
791.922	0.0166665
792.000	0.0168369
792.078	0.0169237
792.156	0.0169802
792.234	0.0171815
792.312	0.0171017
792.390	0.0171127
792.468	0.0171006
792.547	0.0171027
792.625	0.0169983
792.703	0.0169072
792.781	0.0169611
792.859	0.0169320
792.937	0.0167258
793.015	0.0165794
793.093	0.0165717
793.172	0.0164887
793.250	0.0162989
793.328	0.0163750
793.406	0.0161819
793.484	0.0160770
793.562	0.0159680
793.640	0.0159052
793.718	0.0157261
793.797	0.0157465
793.875	0.0157042
793.953	0.0156226
794.031	0.0155956
794.109	0.0156416
794.187	0.0154649
794.265	0.0156911
794.343	0.0156996
794.422	0.0158572
794.500	0.0158805
794.578	0.0158742
794.656	0.0160832
794.734	0.0161185
794.812	0.0160892
794.890	0.0162743
794.968	0.0161709
795.047	0.0161971
795.125	0.0162754
795.203	0.0160918
795.281	0.0162621
795.359	0.0162601
795.437	0.0161626
795.515	0.0162898
795.593	0.0161608
795.672	0.0162354
795.750	0.0163324
795.828	0.0163285
795.906	0.0163025
795.984	0.0162127
796.062	0.0164399
796.140	0.0164037
796.218	0.0164312
796.297	0.0165637
796.375	0.0166054
796.453	0.0166273
796.531	0.0166264
796.609	0.0167093
796.687	0.0168778
796.765	0.0167568
796.843	0.0167854
796.922	0.0167130
797.000	0.0166841
797.078	0.0167665
797.156	0.0165369
797.234	0.0164632
797.312	0.0163923
797.390	0.0165229
797.468	0.0164661
797.547	0.0162471
797.625	0.0162449
797.703	0.0163499
797.781	0.0162374
797.859	0.0160798
797.937	0.0160516
798.015	0.0160455
798.093	0.0160288
798.172	0.0159156
798.250	0.0157699
798.328	0.0157525
798.406	0.0157772
798.484	0.0156308
798.562	0.0156365
798.640	0.0156882
798.718	0.0156841
798.797	0.0157037
798.875	0.0156034
798.953	0.0158440
799.031	0.0157722
799.109	0.0157198
799.187	0.0159448
799.265	0.0159138
799.343	0.0161140
799.422	0.0162128
799.500	0.0162682
799.578	0.0162658
799.656	0.0163879
799.734	0.0164822
799.812	0.0164125
799.890	0.0165769
799.968	0.0164935
800.047	0.0164507
800.125	0.0164348
800.203	0.0164658
800.281	0.0166575
800.359	0.0166740
800.437	0.0166328
800.515	0.0167851
800.593	0.0165561
800.672	0.0166077
800.750	0.0164968
800.828	0.0167081
800.906	0.0166546
800.984	0.0165224
801.062	0.0166546
801.140	0.0167484
801.218	0.0167085
801.297	0.0165394
801.375	0.0165375
801.453	0.0166650
801.531	0.0165324
801.609	0.0164606
801.687	0.0163779
801.765	0.0164369
801.843	0.0163904
801.922	0.0163271
802.000	0.0163073
802.078	0.0162343
802.156	0.0160852
802.234	0.0162380
802.312	0.0161578
802.390	0.0159933
802.468	0.0161911
802.547	0.0161406
802.625	0.0159814
802.703	0.0161299
802.781	0.0159232
802.859	0.0158863
802.937	0.0158371
803.015	0.0158043
803.093	0.0156775
803.172	0.0157253
803.250	0.0156673
803.328	0.0155626
803.406	0.0155766
803.484	0.0155120
803.562	0.0156316
803.640	0.0155238
803.718	0.0155038
803.797	0.0155800
803.875	0.0157190
803.953	0.0155770
804.031	0.0159019
804.109	0.0157873
804.187	0.0161008
804.265	0.0163786
804.343	0.0164684
804.422	0.0163560
804.500	0.0166781
804.578	0.0166673
804.656	0.0168391
804.734	0.0169402
804.812	0.0168583
804.890	0.0168771
804.968	0.0169633
805.047	0.0169033
805.125	0.0167725
805.203	0.0168568
805.281	0.0164959
805.359	0.0164542
805.437	0.0162709
805.515	0.0161321
805.593	0.0160946
805.672	0.0159748
805.750	0.0159280
805.828	0.0158298
805.906	0.0158283
805.984	0.0157098
806.062	0.0155872
806.140	0.0155100
806.218	0.0154425
806.297	0.0156242
806.375	0.0157646
806.453	0.0157028
806.531	0.0157079
806.609	0.0158732
806.687	0.0159856
806.765	0.0160700
806.843	0.0161344
806.922	0.0163424
807.000	0.0163591
807.078	0.0164425
807.156	0.0165701
807.234	0.0166673
807.312	0.0167007
807.390	0.0168155
807.468	0.0167715
807.547	0.0166937
807.625	0.0169240
807.703	0.0168584
807.781	0.0168363
807.859	0.0166837
807.937	0.0167207
808.015	0.0167031
808.093	0.0164465
808.172	0.0163419
808.250	0.0162814
808.328	0.0161989
808.406	0.0158974
808.484	0.0159114
808.562	0.0157156
808.640	0.0156540
808.718	0.0157625
808.797	0.0154820
808.875	0.0154393
808.953	0.0154946
809.031	0.0154398
809.109	0.0153318
809.187	0.0153777
809.265	0.0154316
809.343	0.0154845
809.422	0.0154834
809.500	0.0155232
809.578	0.0158878
809.656	0.0157201
809.734	0.0159535
809.812	0.0158286
809.890	0.0161194
809.968	0.0162704
810.047	0.0162439
810.125	0.0164455
810.203	0.0164510
810.281	0.0163893
810.359	0.0164075
810.437	0.0164711
810.515	0.0165881
810.593	0.0164722
810.672	0.0162894
810.750	0.0164082
810.828	0.0164178
810.906	0.0163567
810.984	0.0161971
811.062	0.0162560
811.140	0.0163142
811.218	0.0162766
811.297	0.0162650
811.375	0.0161405
811.453	0.0160823
811.531	0.0161217
811.609	0.0159357
811.687	0.0162708
811.765	0.0161637
811.843	0.0160477
811.922	0.0161887
812.000	0.0161730
812.078	0.0161884
812.156	0.0162253
812.234	0.0160496
812.312	0.0160485
812.390	0.0161646
812.468	0.0163037
812.547	0.0162462
812.625	0.0161902
812.703	0.0162664
812.781	0.0165712
812.859	0.0164743
812.937	0.0164562
813.015	0.0166302
813.093	0.0167340
813.172	0.0167273
813.250	0.0167140
813.328	0.0168256
813.406	0.0167957
813.484	0.0167414
813.562	0.0166367
813.640	0.0165733
813.718	0.0165975
813.797	0.0163820
813.875	0.0161885
813.953	0.0161288
814.031	0.0161996
814.109	0.0160516
814.187	0.0158493
814.265	0.0158752
814.343	0.0157117
814.422	0.0156258
814.500	0.0155012
814.578	0.0156448
814.656	0.0155211
814.734	0.0155116
814.812	0.0154356
814.890	0.0154193
814.968	0.0156164
815.047	0.0156996
815.125	0.0156746
815.203	0.0157701
815.281	0.0158798
815.359	0.0159286
815.437	0.0160485
815.515	0.0161999
815.593	0.0162753
815.672	0.0164755
815.750	0.0163605
815.828	0.0164817
815.906	0.0163894
815.984	0.0165441
816.062	0.0166294
816.140	0.0165234
816.218	0.0164414
816.297	0.0165393
816.375	0.0162875
816.453	0.0162958
816.531	0.0163853
816.609	0.0163191
816.687	0.0161562
816.765	0.0161420
816.843	0.0161388
816.922	0.0161028
817.000	0.0162385
817.078	0.0162025
817.156	0.0162396
817.234	0.0161765
817.312	0.0162482
817.390	0.0162572
817.468	0.0162149
817.547	0.0162581
817.625	0.0162536
817.703	0.0161753
817.781	0.0163667
817.859	0.0163359
817.937	0.0162742
818.015	0.0162909
818.093	0.0162704
818.172	0.0162788
818.250	0.0162466
818.328	0.0162033
818.406	0.0161264
818.484	0.0161456
818.562	0.0161533
818.640	0.0161928
818.718	0.0161361
818.797	0.0162220
818.875	0.0162467
818.953	0.0162325
819.031	0.0164321
819.109	0.0163926
819.187	0.0163127
819.265	0.0163839
819.343	0.0163758
819.422	0.0164745
819.500	0.0165669
819.578	0.0164606
819.656	0.0164812
819.734	0.0164297
819.812	0.0164152
819.890	0.0164858
819.968	0.0164189
820.047	0.0163328
820.125	0.0162048
820.203	0.0161521
820.281	0.0162027
820.359	0.0161116
820.437	0.0161833
820.515	0.0160186
820.593	0.0161066
820.672	0.0161412
820.750	0.0161518
820.828	0.0161055
820.906	0.0160235
820.984	0.0160630
821.062	0.0161127
821.140	0.0162241
821.218	0.0159778
821.297	0.0161354
821.375	0.0161873
821.453	0.0161835
821.531	0.0161651
821.609	0.0162228
821.687	0.0163333
821.765	0.0161882
821.843	0.0163468
821.922	0.0163059
822.000	0.0164445
822.078	0.0162031
822.156	0.0162116
822.234	0.0162546
822.312	0.0160902
822.390	0.0160718
822.468	0.0162252
822.547	0.0161224
822.625	0.0159916
822.703	0.0159191
822.781	0.0159722
822.859	0.0159306
822.937	0.0158070
823.015	0.0158391
823.093	0.0157606
823.172	0.0158308
823.250	0.0159028
823.328	0.0158581
823.406	0.0159585
823.484	0.0158824
823.562	0.0159325
823.640	0.0159711
823.718	0.0159492
823.797	0.0161929
823.875	0.0162117
823.953	0.0162970
824.031	0.0163164
824.109	0.0163718
824.187	0.0163921
824.265	0.0165570
824.343	0.0166139
824.422	0.0166549
824.500	0.0166689
824.578	0.0167044
824.656	0.0168147
824.734	0.0167507
824.812	0.0167957
824.890	0.0168774
824.968	0.0169102
825.047	0.0167171
825.125	0.0167069
825.203	0.0168506
825.281	0.0167068
825.359	0.0166520
825.437	0.0165602
825.515	0.0164685
825.593	0.0164799
825.672	0.0163406
825.750	0.0163078
825.828	0.0161290
825.906	0.0159918
825.984	0.0158999
826.062	0.0159617
826.140	0.0158337
826.218	0.0158064
826.297	0.0157967
826.375	0.0156509
826.453	0.0155563
826.531	0.0156902
826.609	0.0158030
826.687	0.0157175
826.765	0.0156326
826.843	0.0157629
826.922	0.0157041
827.000	0.0158166
827.078	0.0159362
827.156	0.0160370
827.234	0.0160740
827.312	0.0161335
827.390	0.0162062
827.468	0.0163396
827.547	0.0163898
827.625	0.0163136
827.703	0.0164124
827.781	0.0164056
827.859	0.0163738
827.937	0.0163007
828.015	0.0164106
828.093	0.0162563
828.172	0.0161797
828.250	0.0163042
828.328	0.0162240
828.406	0.0162286
828.484	0.0162247
828.562	0.0161344
828.640	0.0160252
828.718	0.0159207
828.797	0.0160759
828.875	0.0159361
828.953	0.0158681
829.031	0.0159953
829.109	0.0159231
829.187	0.0157038
829.265	0.0157330
829.343	0.0155321
829.422	0.0157267
829.500	0.0155452
829.578	0.0157451
829.656	0.0158253
829.734	0.0160554
829.812	0.0159784
829.890	0.0159666
829.968	0.0160557
830.047	0.0160814
830.125	0.0162656
830.203	0.0162569
830.281	0.0165573
830.359	0.0163583
830.437	0.0165167
830.515	0.0166156
830.593	0.0165839
830.672	0.0166351
830.750	0.0165893
830.828	0.0164622
830.906	0.0165052
830.984	0.0165907
831.062	0.0165630
831.140	0.0163644
831.218	0.0162539
831.297	0.0162556
831.375	0.0163391
831.453	0.0164461
831.531	0.0162161
831.609	0.0163447
831.687	0.0163199
831.765	0.0163407
831.843	0.0162292
831.922	0.0162298
832.000	0.0162373
832.078	0.0160574
832.156	0.0161144
832.234	0.0160159
832.312	0.0158750
832.390	0.0160002
832.468	0.0158578
832.547	0.0160680
832.625	0.0160152
832.703	0.0160053
832.781	0.0160863
832.859	0.0160516
832.937	0.0158960
833.015	0.0161033
833.093	0.0163232
833.172	0.0161441
833.250	0.0162186
833.328	0.0161082
833.406	0.0163015
833.484	0.0161961
833.562	0.0161182
833.640	0.0160268
833.718	0.0162001
833.797	0.0160962
833.875	0.0160217
833.953	0.0159442
834.031	0.0158298
834.109	0.0159709
834.187	0.0159541
834.265	0.0158321
834.343	0.0157781
834.422	0.0157560
834.500	0.0157823
834.578	0.0157277
834.656	0.0158122
834.734	0.0157648
834.812	0.0159746
834.890	0.0159843
834.968	0.0159842
835.047	0.0159943
835.125	0.0161189
835.203	0.0162100
835.281	0.0162831
835.359	0.0162426
835.437	0.0162904
835.515	0.0164181
835.593	0.0163283
835.672	0.0164240
835.750	0.0163395
835.828	0.0164677
835.906	0.0163766
835.984	0.0165421
836.062	0.0164445
836.140	0.0163826
836.218	0.0163776
836.297	0.0162887
836.375	0.0162919
836.453	0.0163699
836.531	0.0162974
836.609	0.0162025
836.687	0.0162278
836.765	0.0162683
836.843	0.0161531
836.922	0.0161140
837.000	0.0162654
837.078	0.0161806
837.156	0.0162798
837.234	0.0162162
837.312	0.0162109
837.390	0.0162801
837.468	0.0162474
837.547	0.0163583
837.625	0.0163062
837.703	0.0162418
837.781	0.0162943
837.859	0.0163277
837.937	0.0162426
838.015	0.0163295
838.093	0.0161777
838.172	0.0162321
838.250	0.0161572
838.328	0.0161232
838.406	0.0162000
838.484	0.0163357
838.562	0.0161502
838.640	0.0160851
838.718	0.0162606
838.797	0.0163238
838.875	0.0161575
838.953	0.0162776
839.031	0.0160851
839.109	0.0160402
839.187	0.0161173
839.265	0.0160907
839.343	0.0159692
839.422	0.0159164
839.500	0.0159539
839.578	0.0158410
839.656	0.0158941
839.734	0.0159483
839.812	0.0159648
839.890	0.0160278
839.968	0.0159657
840.047	0.0159802
840.125	0.0159882
840.203	0.0160794
840.281	0.0161091
840.359	0.0162371
840.437	0.0163348
840.515	0.0163875
840.593	0.0164236
840.672	0.0163727
840.750	0.0163763
840.828	0.0164507
840.906	0.0165240
840.984	0.0164362
841.062	0.0163504
841.140	0.0163314
841.218	0.0163347
841.297	0.0163424
841.375	0.0162632
841.453	0.0162069
841.531	0.0160506
841.609	0.0161177
841.687	0.0161685
841.765	0.0161637
841.843	0.0159674
841.922	0.0159022
842.000	0.0160412
842.078	0.0160501
842.156	0.0162260
842.234	0.0159915
842.312	0.0162230
842.390	0.0161375
842.468	0.0161466
842.547	0.0161831
842.625	0.0162709
842.703	0.0162292
842.781	0.0162450
842.859	0.0162916
842.937	0.0162696
843.015	0.0162528
843.093	0.0163835
843.172	0.0164845
843.250	0.0163660
843.328	0.0163306
843.406	0.0163148
843.484	0.0163786
843.562	0.0164010
843.640	0.0161707
843.718	0.0162695
843.797	0.0162380
843.875	0.0163181
843.953	0.0161766
844.031	0.0162112
844.109	0.0161604
844.187	0.0162487
844.265	0.0161545
844.343	0.0161205
844.422	0.0160700
844.500	0.0160365
844.578	0.0160259
844.656	0.0161414
844.734	0.0161234
844.812	0.0161529
844.890	0.0160995
844.968	0.0160702
845.047	0.0161841
845.125	0.0161621
845.203	0.0161498
845.281	0.0161519
845.359	0.0160825
845.437	0.0161714
845.515	0.0162436
845.593	0.0162879
845.672	0.0163528
845.750	0.0161107
845.828	0.0162659
845.906	0.0162588
845.984	0.0163254
846.062	0.0161246
846.140	0.0162543
846.218	0.0162887
846.297	0.0161562
846.375	0.0162476
846.453	0.0162277
846.531	0.0162075
846.609	0.0161623
846.687	0.0159958
846.765	0.0161253
846.843	0.0163074
846.922	0.0161697
847.000	0.0160423
847.078	0.0161945
847.156	0.0162734
847.234	0.0162516
847.312	0.0162229
847.390	0.0161415
847.468	0.0163229
847.547	0.0162919
847.625	0.0163950
847.703	0.0163731
847.781	0.0163648
847.859	0.0163443
847.937	0.0165066
848.015	0.0164587
848.093	0.0161922
848.172	0.0163016
848.250	0.0164365
848.328	0.0163675
848.406	0.0164953
848.484	0.0163048
848.562	0.0163686
848.640	0.0163522
848.718	0.0162946
848.797	0.0162988
848.875	0.0163152
848.953	0.0161833
849.031	0.0162823
849.109	0.0162664
849.187	0.0162802
849.265	0.0162653
849.343	0.0161735
849.422	0.0164020
849.500	0.0163934
849.578	0.0162289
849.656	0.0162321
849.734	0.0162215
849.812	0.0161248
849.890	0.0162266
849.968	0.0162286
850.047	0.0163658
850.125	0.0162200
850.203	0.0163846
850.281	0.0162833
850.359	0.0162044
850.437	0.0163823
850.515	0.0163741
850.593	0.0162516
850.672	0.0163689
850.750	0.0164051
850.828	0.0162662
850.906	0.0162836
850.984	0.0162932
851.062	0.0162090
851.140	0.0162520
851.218	0.0163328
851.297	0.0162439
851.375	0.0160703
851.453	0.0162394
851.531	0.0162216
851.609	0.0160999
851.687	0.0161291
851.765	0.0161666
851.843	0.0162746
851.922	0.0161642
852.000	0.0161212
852.078	0.0161332
852.156	0.0160885
852.234	0.0162768
852.312	0.0161479
852.390	0.0163034
852.468	0.0163246
852.547	0.0161122
852.625	0.0162885
852.703	0.0164134
852.781	0.0162706
852.859	0.0162343
852.937	0.0163544
853.015	0.0162040
853.093	0.0162834
853.172	0.0162278
853.250	0.0162659
853.328	0.0162182
853.406	0.0161900
853.484	0.0161195
853.562	0.0161504
853.640	0.0161198
853.718	0.0161436
853.797	0.0161491
853.875	0.0161839
853.953	0.0160927
854.031	0.0161282
854.109	0.0159895
854.187	0.0160448
854.265	0.0160583
854.343	0.0160667
854.422	0.0160670
854.500	0.0160390
854.578	0.0160984
854.656	0.0161835
854.734	0.0159903
854.812	0.0161417
854.890	0.0161982
854.968	0.0161142
855.047	0.0162032
855.125	0.0162306
855.203	0.0162204
855.281	0.0162038
855.359	0.0161117
855.437	0.0161927
855.515	0.0161877
855.593	0.0162343
855.672	0.0162457
855.750	0.0163073
855.828	0.0163692
855.906	0.0163353
855.984	0.0164191
856.062	0.0163467
856.140	0.0164431
856.218	0.0165199
856.297	0.0165845
856.375	0.0164361
856.453	0.0164642
856.531	0.0164808
856.609	0.0164756
856.687	0.0165236
856.765	0.0164686
856.843	0.0164742
856.922	0.0163981
857.000	0.0162025
857.078	0.0162708
857.156	0.0161668
857.234	0.0162520
857.312	0.0161669
857.390	0.0161742
857.468	0.0161066
857.547	0.0162021
857.625	0.0160641
857.703	0.0159991
857.781	0.0161526
857.859	0.0160164
857.937	0.0159570
858.015	0.0159711
858.093	0.0160517
858.172	0.0159611
858.250	0.0159994
858.328	0.0159855
858.406	0.0160678
858.484	0.0160884
858.562	0.0160211
858.640	0.0160435
858.718	0.0161718
858.797	0.0159904
858.875	0.0159997
858.953	0.0159641
859.031	0.0159805
859.109	0.0159968
859.187	0.0160139
859.265	0.0160783
859.343	0.0159915
859.422	0.0160222
859.500	0.0160725
859.578	0.0159876
859.656	0.0159121
859.734	0.0159216
859.812	0.0159754
859.890	0.0160782
859.968	0.0160853
860.047	0.0160365
860.125	0.0160153
860.203	0.0160263
860.281	0.0160696
860.359	0.0162091
860.437	0.0162020
860.515	0.0161008
860.593	0.0161100
860.672	0.0161772
860.750	0.0162487
860.828	0.0161504
860.906	0.0160722
860.984	0.0161710
861.062	0.0161946
861.140	0.0161501
861.218	0.0162536
861.297	0.0161309
861.375	0.0160791
861.453	0.0161330
861.531	0.0162428
861.609	0.0161835
861.687	0.0161520
861.765	0.0164821
861.843	0.0162144
861.922	0.0162737
862.000	0.0163223
862.078	0.0161757
862.156	0.0161491
862.234	0.0163818
862.312	0.0162286
862.390	0.0163279
862.468	0.0162984
862.547	0.0161878
862.625	0.0162254
862.703	0.0162064
862.781	0.0162440
862.859	0.0161041
862.937	0.0161464
863.015	0.0162005
863.093	0.0161506
863.172	0.0162325
863.250	0.0159313
863.328	0.0159102
863.406	0.0158588
863.484	0.0160724
863.562	0.0159441
863.640	0.0160189
863.718	0.0161029
863.797	0.0159956
863.875	0.0159638
863.953	0.0161489
864.031	0.0160896
864.109	0.0159856
864.187	0.0160043
864.265	0.0161767
864.343	0.0159859
864.422	0.0161850
864.500	0.0162016
864.578	0.0160276
864.656	0.0162437
864.734	0.0164384
864.812	0.0163026
864.890	0.0163457
864.968	0.0164632
865.047	0.0164599
865.125	0.0162849
865.203	0.0163374
865.281	0.0162513
865.359	0.0162858
865.437	0.0161733
865.515	0.0161681
865.593	0.0162805
865.672	0.0162458
865.750	0.0161347
865.828	0.0160407
865.906	0.0160642
865.984	0.0161452
866.062	0.0161345
866.140	0.0161971
866.218	0.0162305
866.297	0.0161729
866.375	0.0161891
866.453	0.0161811
866.531	0.0160769
866.609	0.0161285
866.687	0.0160813
866.765	0.0163625
866.843	0.0162305
866.922	0.0162912
867.000	0.0162079
867.078	0.0163166
867.156	0.0163052
867.234	0.0163448
867.312	0.0163766
867.390	0.0162766
867.468	0.0162202
867.547	0.0165143
867.625	0.0163531
867.703	0.0163080
867.781	0.0164093
867.859	0.0164204
867.937	0.0163212
868.015	0.0163621
868.093	0.0163807
868.172	0.0165005
868.250	0.0164314
868.328	0.0164467
868.406	0.0164474
868.484	0.0162292
868.562	0.0164641
868.640	0.0164043
868.718	0.0162949
868.797	0.0162699
868.875	0.0162666
868.953	0.0162455
869.031	0.0161122
869.109	0.0162524
869.187	0.0161610
869.265	0.0162119
869.343	0.0160719
869.422	0.0161286
869.500	0.0161082
869.578	0.0162454
869.656	0.0160876
869.734	0.0159691
869.812	0.0160886
869.890	0.0162544
869.968	0.0161680
870.047	0.0162071
870.125	0.0161747
870.203	0.0162123
870.281	0.0162645
870.359	0.0160722
870.437	0.0162154
870.515	0.0161447
870.593	0.0162863
870.672	0.0162328
870.750	0.0162127
870.828	0.0162540
870.906	0.0162443
870.984	0.0161709
871.062	0.0163764
871.140	0.0162238
871.218	0.0161159
871.297	0.0161110
871.375	0.0163744
871.453	0.0162427
871.531	0.0160778
871.609	0.0162322
871.687	0.0162610
871.765	0.0161661
871.843	0.0162227
871.922	0.0162830
872.000	0.0162975
872.078	0.0163982
872.156	0.0163190
872.234	0.0164832
872.312	0.0162783
872.390	0.0165247
872.468	0.0165189
872.547	0.0162793
872.625	0.0163454
872.703	0.0163888
872.781	0.0163547
872.859	0.0164797
872.937	0.0164545
873.015	0.0164216
873.093	0.0164999
873.172	0.0164027
873.250	0.0163210
873.328	0.0164214
873.406	0.0163934
873.484	0.0162888
873.562	0.0164317
873.640	0.0162704
873.718	0.0162511
873.797	0.0162315
873.875	0.0162270
873.953	0.0163366
874.031	0.0162402
874.109	0.0162061
874.187	0.0161661
874.265	0.0162808
874.343	0.0162651
874.422	0.0163831
874.500	0.0163640
874.578	0.0163071
874.656	0.0162074
874.734	0.0162943
874.812	0.0163459
874.890	0.0162416
874.968	0.0163030
875.047	0.0161103
875.125	0.0162225
875.203	0.0162628
875.281	0.0162895
875.359	0.0161948
875.437	0.0162650
875.515	0.0162706
875.593	0.0162960
875.672	0.0160468
875.750	0.0162516
875.828	0.0163088
875.906	0.0162242
875.984	0.0162565
876.062	0.0164552
876.140	0.0163981
876.218	0.0165063
876.297	0.0162096
876.375	0.0162152
876.453	0.0163824
876.531	0.0164545
876.609	0.0163445
876.687	0.0162195
876.765	0.0163669
876.843	0.0164708
876.922	0.0162968
877.000	0.0163845
877.078	0.0162669
877.156	0.0163685
877.234	0.0163613
877.312	0.0161513
877.390	0.0161612
877.468	0.0162931
877.547	0.0160790
877.625	0.0161810
877.703	0.0160789
877.781	0.0160892
877.859	0.0161557
877.937	0.0161017
878.015	0.0161386
878.093	0.0160574
878.172	0.0161671
878.250	0.0161689
878.328	0.0161164
878.406	0.0161795
878.484	0.0162248
878.562	0.0161324
878.640	0.0160803
878.718	0.0162263
878.797	0.0160831
878.875	0.0162321
878.953	0.0160124
879.031	0.0160979
879.109	0.0162095
879.187	0.0161148
879.265	0.0161591
879.343	0.0161945
879.422	0.0163861
879.500	0.0164140
879.578	0.0162198
879.656	0.0161928
879.734	0.0162518
879.812	0.0162956
879.890	0.0162075
879.968	0.0162883
880.047	0.0163447
880.125	0.0163895
880.203	0.0163604
880.281	0.0162171
880.359	0.0164836
880.437	0.0163245
880.515	0.0163821
880.593	0.0162198
880.672	0.0163005
880.750	0.0164235
880.828	0.0164057
880.906	0.0164480
880.984	0.0163662
881.062	0.0163647
881.140	0.0163926
881.218	0.0163220
881.297	0.0163252
881.375	0.0164810
881.453	0.0165126
881.531	0.0163477
881.609	0.0164154
881.687	0.0162199
881.765	0.0162644
881.843	0.0163475
881.922	0.0163444
882.000	0.0163387
882.078	0.0162585
882.156	0.0163661
882.234	0.0163541
882.312	0.0161667
882.390	0.0161208
882.468	0.0161420
882.547	0.0161565
882.625	0.0163097
882.703	0.0162633
882.781	0.0161021
882.859	0.0159910
882.937	0.0161228
883.015	0.0160157
883.093	0.0161086
883.172	0.0162482
883.250	0.0160957
883.328	0.0161241
883.406	0.0161269
883.484	0.0160028
883.562	0.0160357
883.640	0.0161008
883.718	0.0162148
883.797	0.0160240
883.875	0.0160912
883.953	0.0162128
884.031	0.0162334
884.109	0.0160498
884.187	0.0161135
884.265	0.0162269
884.343	0.0160479
884.422	0.0161008
884.500	0.0160797
884.578	0.0160955
884.656	0.0161706
884.734	0.0160303
884.812	0.0160842
884.890	0.0160802
884.968	0.0162821
885.047	0.0162212
885.125	0.0162273
885.203	0.0161788
885.281	0.0161742
885.359	0.0162140
885.437	0.0161545
885.515	0.0162734
885.593	0.0161523
885.672	0.0160830
885.750	0.0161454
885.828	0.0160606
885.906	0.0161957
885.984	0.0162405
886.062	0.0160442
886.140	0.0158427
886.218	0.0159999
886.297	0.0159613
886.375	0.0158949
886.453	0.0160122
886.531	0.0159476
886.609	0.0157995
886.687	0.0158999
886.765	0.0158562
886.843	0.0158171
886.922	0.0160986
887.000	0.0159042
887.078	0.0159029
887.156	0.0157864
887.234	0.0159981
887.312	0.0160317
887.390	0.0160617
887.468	0.0161499
887.547	0.0161218
887.625	0.0161312
887.703	0.0162144
887.781	0.0160468
887.859	0.0160896
887.937	0.0161850
888.015	0.0162225
888.093	0.0161130
888.172	0.0161282
888.250	0.0162341
888.328	0.0160417
888.406	0.0161627
888.484	0.0161086
888.562	0.0161210
888.640	0.0161620
888.718	0.0161735
888.797	0.0162299
888.875	0.0162259
888.953	0.0161328
889.031	0.0161871
889.109	0.0160515
889.187	0.0162947
889.265	0.0163756
889.343	0.0162295
889.422	0.0161809
889.500	0.0162239
889.578	0.0161678
889.656	0.0162270
889.734	0.0161420
889.812	0.0162337
889.890	0.0162857
889.968	0.0162103
890.047	0.0161228
890.125	0.0161552
890.203	0.0161842
890.281	0.0160944
890.359	0.0161314
890.437	0.0160999
890.515	0.0161156
890.593	0.0159341
890.672	0.0161234
890.750	0.0159653
890.828	0.0159283
890.906	0.0159035
890.984	0.0158443
891.062	0.0160290
891.140	0.0159084
891.218	0.0160033
891.297	0.0159133
891.375	0.0160622
891.453	0.0159816
891.531	0.0160165
891.609	0.0158132
891.687	0.0160894
891.765	0.0161572
891.843	0.0161771
891.922	0.0162072
892.000	0.0161940
892.078	0.0162366
892.156	0.0162795
892.234	0.0162480
892.312	0.0163741
892.390	0.0162688
892.468	0.0163293
892.547	0.0162505
892.625	0.0162872
892.703	0.0164135
892.781	0.0163658
892.859	0.0163311
892.937	0.0163608
893.015	0.0162474
893.093	0.0164376
893.172	0.0163608
893.250	0.0163364
893.328	0.0161864
893.406	0.0161160
893.484	0.0162326
893.562	0.0163139
893.640	0.0163033
893.718	0.0162807
893.797	0.0162261
893.875	0.0163122
893.953	0.0163396
894.031	0.0163777
894.109	0.0162780
894.187	0.0162157
894.265	0.0162957
894.343	0.0162431
894.422	0.0161423
894.500	0.0161716
894.578	0.0161317
894.656	0.0161913
894.734	0.0160821
894.812	0.0160955
894.890	0.0161192
894.968	0.0161137
895.047	0.0161481
895.125	0.0161800
895.203	0.0162082
895.281	0.0161787
895.359	0.0162315
895.437	0.0161531
895.515	0.0161657
895.593	0.0163213
895.672	0.0162148
895.750	0.0163342
895.828	0.0162749
895.906	0.0161330
895.984	0.0162858
896.062	0.0162856
896.140	0.0162669
896.218	0.0161099
896.297	0.0162395
896.375	0.0163805
896.453	0.0161893
896.531	0.0162675
896.609	0.0161979
896.687	0.0162862
896.765	0.0162637
896.843	0.0162429
896.922	0.0162004
897.000	0.0163531
897.078	0.0162994
897.156	0.0163591
897.234	0.0162071
897.312	0.0163677
897.390	0.0163960
897.468	0.0162804
897.547	0.0164090
897.625	0.0162431
897.703	0.0161712
897.781	0.0162782
897.859	0.0163365
897.937	0.0161747
898.015	0.0161880
898.093	0.0162407
898.172	0.0162342
898.250	0.0163563
898.328	0.0161299
898.406	0.0160655
898.484	0.0162353
898.562	0.0162982
898.640	0.0162364
898.718	0.0162111
898.797	0.0162967
898.875	0.0161558
898.953	0.0161475
899.031	0.0161951
899.109	0.0161612
899.187	0.0163163
899.265	0.0162455
899.343	0.0160377
899.422	0.0160455
899.500	0.0162216
899.578	0.0162004
899.656	0.0161957
899.734	0.0161395
899.812	0.0161307
899.890	0.0161781
899.968	0.0163161
900.047	0.0161760
900.125	0.0162099
900.203	0.0161433
900.281	0.0161011
900.359	0.0161266
900.437	0.0162574
900.515	0.0162426
900.593	0.0162112
900.672	0.0161929
900.750	0.0163126
900.828	0.0162595
900.906	0.0162366
900.984	0.0163474
901.062	0.0162131
901.140	0.0163216
901.218	0.0163745
901.297	0.0163526
901.375	0.0164188
901.453	0.0162505
901.531	0.0164065
901.609	0.0164299
901.687	0.0163597
901.765	0.0164117
901.843	0.0163393
901.922	0.0163313
902.000	0.0164951
902.078	0.0164801
902.156	0.0163239
902.234	0.0162523
902.312	0.0162402
902.390	0.0162361
902.468	0.0164503
902.547	0.0161474
902.625	0.0161446
902.703	0.0160856
902.781	0.0162212
902.859	0.0162241
902.937	0.0160709
903.015	0.0161159
903.093	0.0160627
903.172	0.0162428
903.250	0.0161667
903.328	0.0161308
903.406	0.0162885
903.484	0.0161971
903.562	0.0163178
903.640	0.0162121
903.718	0.0161833
903.797	0.0162434
903.875	0.0161812
903.953	0.0162437
904.031	0.0163657
904.109	0.0163596
904.187	0.0162043
904.265	0.0161974
904.343	0.0163022
904.422	0.0162388
904.500	0.0162627
904.578	0.0162526
904.656	0.0162720
904.734	0.0164072
904.812	0.0164236
904.890	0.0163326
904.968	0.0162092
905.047	0.0162912
905.125	0.0163896
905.203	0.0163393
905.281	0.0161617
905.359	0.0163370
905.437	0.0162727
905.515	0.0162218
905.593	0.0162434
905.672	0.0160988
905.750	0.0161337
905.828	0.0162292
905.906	0.0161974
905.984	0.0160815
906.062	0.0161701
906.140	0.0161332
906.218	0.0160555
906.297	0.0163163
906.375	0.0162042
906.453	0.0162263
906.531	0.0160189
906.609	0.0161395
906.687	0.0161649
906.765	0.0161211
906.843	0.0159792
906.922	0.0160197
907.000	0.0161174
907.078	0.0161530
907.156	0.0160337
907.234	0.0162869
907.312	0.0163112
907.390	0.0160925
907.468	0.0162513
907.547	0.0161621
907.625	0.0162247
907.703	0.0162837
907.781	0.0161611
907.859	0.0161174
907.937	0.0161720
908.015	0.0162788
908.093	0.0162634
908.172	0.0162283
908.250	0.0162036
908.328	0.0162245
908.406	0.0162009
908.484	0.0162057
908.562	0.0162059
908.640	0.0161059
908.718	0.0160903
908.797	0.0161060
908.875	0.0161677
908.953	0.0161678
909.031	0.0161118
909.109	0.0161295
909.187	0.0160682
909.265	0.0161501
909.343	0.0162208
909.422	0.0162193
909.500	0.0160891
909.578	0.0162733
909.656	0.0162296
909.734	0.0161623
909.812	0.0161637
909.890	0.0162028
909.968	0.0160750
910.047	0.0162257
910.125	0.0162029
910.203	0.0162178
910.281	0.0162851
910.359	0.0160793
910.437	0.0161126
910.515	0.0162149
910.593	0.0160761
910.672	0.0160648
910.750	0.0162582
910.828	0.0160176
910.906	0.0160545
910.984	0.0160560
911.062	0.0159766
911.140	0.0159984
911.218	0.0160008
911.297	0.0160108
911.375	0.0160779
911.453	0.0160598
911.531	0.0162048
911.609	0.0160894
911.687	0.0160921
911.765	0.0161936
911.843	0.0161127
911.922	0.0161991
912.000	0.0161036
912.078	0.0162170
912.156	0.0161742
912.234	0.0161711
912.312	0.0162007
912.390	0.0162772
912.468	0.0161018
912.547	0.0161456
912.625	0.0162447
912.703	0.0162331
912.781	0.0161781
912.859	0.0162421
912.937	0.0161649
913.015	0.0163194
913.093	0.0161606
913.172	0.0160944
913.250	0.0162686
913.328	0.0162293
913.406	0.0161089
913.484	0.0161065
913.562	0.0161864
913.640	0.0160976
913.718	0.0160196
913.797	0.0159871
913.875	0.0160728
913.953	0.0160697
914.031	0.0161005
914.109	0.0159249
914.187	0.0161070
914.265	0.0160214
914.343	0.0160875
914.422	0.0161251
914.500	0.0159942
914.578	0.0160864
914.656	0.0160667
914.734	0.0161093
914.812	0.0161401
914.890	0.0161578
914.968	0.0161144
915.047	0.0162261
915.125	0.0161752
915.203	0.0162112
915.281	0.0160680
915.359	0.0160336
915.437	0.0159547
915.515	0.0160855
915.593	0.0162127
915.672	0.0160959
915.750	0.0161617
915.828	0.0159808
915.906	0.0161122
915.984	0.0161410
916.062	0.0161263
916.140	0.0161452
916.218	0.0161536
916.297	0.0161900
916.375	0.0162189
916.453	0.0162330
916.531	0.0162041
916.609	0.0162532
916.687	0.0162881
916.765	0.0162154
916.843	0.0162289
916.922	0.0162982
917.000	0.0162043
917.078	0.0163673
917.156	0.0162774
917.234	0.0162978
917.312	0.0163334
917.390	0.0161819
917.468	0.0162272
917.547	0.0160902
917.625	0.0161685
917.703	0.0163083
917.781	0.0162467
917.859	0.0161559
917.937	0.0162808
918.015	0.0162356
918.093	0.0162615
918.172	0.0161863
918.250	0.0163287
918.328	0.0162289
918.406	0.0161965
918.484	0.0160876
918.562	0.0162718
918.640	0.0162399
918.718	0.0161662
918.797	0.0161667
918.875	0.0161292
918.953	0.0163228
919.031	0.0162148
919.109	0.0160920
919.187	0.0162421
919.265	0.0161044
919.343	0.0160710
919.422	0.0161890
919.500	0.0160876
919.578	0.0162579
919.656	0.0160773
919.734	0.0160512
919.812	0.0161729
919.890	0.0162355
