05/25/2022	19:11:59	Ver.	4.1	UNKNOWN
Optical Delay	599.988409	Delta X		0.078125	Sweeps	1	Scan Rate	0/0
Coordinates	Axis 1	NaN	Axis 2	NaN	Axis 3	NaN	Axis 4	NaN	Axis 5	NaN	Axis 6	0.000000
TX Power	0.000000	RX Power	0.000000

599.988	0.0168486
600.067	0.0167624
600.145	0.0168327
600.223	0.0167833
600.301	0.0168943
600.379	0.0168295
600.457	0.0167009
600.535	0.0168874
600.613	0.0167966
600.692	0.0169471
600.770	0.0169185
600.848	0.0167779
600.926	0.0167648
601.004	0.0167683
601.082	0.0166788
601.160	0.0167854
601.238	0.0168034
601.317	0.0168774
601.395	0.0167810
601.473	0.0168365
601.551	0.0169188
601.629	0.0168197
601.707	0.0168092
601.785	0.0168321
601.863	0.0168848
601.942	0.0169484
602.020	0.0168427
602.098	0.0168068
602.176	0.0168005
602.254	0.0167540
602.332	0.0167731
602.410	0.0166444
602.488	0.0168435
602.567	0.0167984
602.645	0.0168359
602.723	0.0168353
602.801	0.0167860
602.879	0.0168357
602.957	0.0167281
603.035	0.0168015
603.113	0.0168063
603.192	0.0168339
603.270	0.0168099
603.348	0.0167897
603.426	0.0168183
603.504	0.0167522
603.582	0.0169450
603.660	0.0167577
603.738	0.0168758
603.817	0.0168925
603.895	0.0168304
603.973	0.0168600
604.051	0.0168667
604.129	0.0168561
604.207	0.0167326
604.285	0.0168694
604.363	0.0168619
604.442	0.0169937
604.520	0.0168019
604.598	0.0168710
604.676	0.0169182
604.754	0.0169524
604.832	0.0169505
604.910	0.0169356
604.988	0.0168919
605.067	0.0169322
605.145	0.0168284
605.223	0.0167258
605.301	0.0167899
605.379	0.0168964
605.457	0.0168086
605.535	0.0167361
605.613	0.0168484
605.692	0.0168325
605.770	0.0168374
605.848	0.0168578
605.926	0.0168268
606.004	0.0168172
606.082	0.0168016
606.160	0.0167769
606.238	0.0169371
606.317	0.0168648
606.395	0.0169147
606.473	0.0169341
606.551	0.0168106
606.629	0.0168033
606.707	0.0169435
606.785	0.0167673
606.863	0.0167465
606.942	0.0168209
607.020	0.0169051
607.098	0.0168312
607.176	0.0167785
607.254	0.0168455
607.332	0.0167740
607.410	0.0167672
607.488	0.0167741
607.567	0.0168476
607.645	0.0168589
607.723	0.0169336
607.801	0.0167894
607.879	0.0168679
607.957	0.0167587
608.035	0.0168259
608.113	0.0169147
608.192	0.0167770
608.270	0.0169531
608.348	0.0168664
608.426	0.0168728
608.504	0.0169355
608.582	0.0169379
608.660	0.0168530
608.738	0.0167894
608.817	0.0168872
608.895	0.0168341
608.973	0.0167855
609.051	0.0168039
609.129	0.0168081
609.207	0.0167545
609.285	0.0167525
609.363	0.0167139
609.442	0.0167058
609.520	0.0169381
609.598	0.0166737
609.676	0.0168456
609.754	0.0167491
609.832	0.0166343
609.910	0.0167665
609.988	0.0168560
610.067	0.0167170
610.145	0.0169263
610.223	0.0168505
610.301	0.0168731
610.379	0.0169470
610.457	0.0168362
610.535	0.0169523
610.613	0.0171491
610.692	0.0170385
610.770	0.0170295
610.848	0.0170432
610.926	0.0170937
611.004	0.0170148
611.082	0.0170133
611.160	0.0170327
611.238	0.0169659
611.317	0.0169758
611.395	0.0169537
611.473	0.0169509
611.551	0.0169989
611.629	0.0169450
611.707	0.0169556
611.785	0.0168372
611.863	0.0167586
611.942	0.0168092
612.020	0.0168421
612.098	0.0167521
612.176	0.0166821
612.254	0.0165526
612.332	0.0166913
612.410	0.0166805
612.488	0.0168097
612.567	0.0166740
612.645	0.0167414
612.723	0.0166608
612.801	0.0167105
612.879	0.0167775
612.957	0.0167294
613.035	0.0165741
613.113	0.0167842
613.192	0.0167394
613.270	0.0167253
613.348	0.0168000
613.426	0.0168423
613.504	0.0168798
613.582	0.0168647
613.660	0.0168424
613.738	0.0169633
613.817	0.0169418
613.895	0.0168174
613.973	0.0168198
614.051	0.0168417
614.129	0.0167840
614.207	0.0168614
614.285	0.0169518
614.363	0.0170061
614.442	0.0169745
614.520	0.0169269
614.598	0.0169199
614.676	0.0169308
614.754	0.0170099
614.832	0.0168252
614.910	0.0169162
614.988	0.0168787
615.067	0.0168787
615.145	0.0169094
615.223	0.0167793
615.301	0.0170759
615.379	0.0169574
615.457	0.0169743
615.535	0.0170031
615.613	0.0167749
615.692	0.0168896
615.770	0.0169693
615.848	0.0169076
615.926	0.0168948
616.004	0.0168706
616.082	0.0168163
616.160	0.0169019
616.238	0.0169582
616.317	0.0167545
616.395	0.0168970
616.473	0.0169237
616.551	0.0168284
616.629	0.0168681
616.707	0.0168076
616.785	0.0169118
616.863	0.0168620
616.942	0.0168969
617.020	0.0167847
617.098	0.0167513
617.176	0.0168102
617.254	0.0166951
617.332	0.0167735
617.410	0.0167084
617.488	0.0168216
617.567	0.0168827
617.645	0.0167186
617.723	0.0166967
617.801	0.0167310
617.879	0.0168253
617.957	0.0168317
618.035	0.0167583
618.113	0.0168018
618.192	0.0168402
618.270	0.0168164
618.348	0.0166787
618.426	0.0167813
618.504	0.0167301
618.582	0.0168118
618.660	0.0167732
618.738	0.0167487
618.817	0.0168040
618.895	0.0168113
618.973	0.0167863
619.051	0.0167610
619.129	0.0168985
619.207	0.0168531
619.285	0.0168694
619.363	0.0169244
619.442	0.0170226
619.520	0.0168610
619.598	0.0168682
619.676	0.0168430
619.754	0.0169583
619.832	0.0170962
619.910	0.0168345
619.988	0.0168326
620.067	0.0170603
620.145	0.0167888
620.223	0.0167978
620.301	0.0167625
620.379	0.0169165
620.457	0.0169412
620.535	0.0168209
620.613	0.0168277
620.692	0.0169581
620.770	0.0169293
620.848	0.0168738
620.926	0.0168479
621.004	0.0169197
621.082	0.0169121
621.160	0.0169102
621.238	0.0169744
621.317	0.0170083
621.395	0.0170173
621.473	0.0168562
621.551	0.0168983
621.629	0.0168875
621.707	0.0169196
621.785	0.0170676
621.863	0.0169678
621.942	0.0169483
622.020	0.0169309
622.098	0.0168597
622.176	0.0169714
622.254	0.0169999
622.332	0.0168701
622.410	0.0169582
622.488	0.0169986
622.567	0.0169126
622.645	0.0167605
622.723	0.0168645
622.801	0.0168922
622.879	0.0168541
622.957	0.0168631
623.035	0.0168559
623.113	0.0168127
623.192	0.0168964
623.270	0.0167345
623.348	0.0168347
623.426	0.0168997
623.504	0.0168639
623.582	0.0166703
623.660	0.0169296
623.738	0.0168835
623.817	0.0167223
623.895	0.0169004
623.973	0.0168635
624.051	0.0168839
624.129	0.0167758
624.207	0.0167519
624.285	0.0167736
624.363	0.0169792
624.442	0.0167817
624.520	0.0168407
624.598	0.0169306
624.676	0.0168400
624.754	0.0166783
624.832	0.0169569
624.910	0.0168729
624.988	0.0167906
625.067	0.0169494
625.145	0.0168604
625.223	0.0168626
625.301	0.0167930
625.379	0.0168242
625.457	0.0168455
625.535	0.0168984
625.613	0.0167382
625.692	0.0168401
625.770	0.0168928
625.848	0.0168252
625.926	0.0169999
626.004	0.0169762
626.082	0.0169241
626.160	0.0168529
626.238	0.0169240
626.317	0.0169645
626.395	0.0169432
626.473	0.0169470
626.551	0.0169257
626.629	0.0170061
626.707	0.0170187
626.785	0.0169981
626.863	0.0168262
626.942	0.0169325
627.020	0.0169781
627.098	0.0169759
627.176	0.0169557
627.254	0.0170074
627.332	0.0169221
627.410	0.0168635
627.488	0.0168720
627.567	0.0168644
627.645	0.0169030
627.723	0.0168743
627.801	0.0168511
627.879	0.0168544
627.957	0.0169196
628.035	0.0168130
628.113	0.0169040
628.192	0.0168152
628.270	0.0167424
628.348	0.0168661
628.426	0.0168250
628.504	0.0169201
628.582	0.0169933
628.660	0.0168478
628.738	0.0168595
628.817	0.0168520
628.895	0.0168041
628.973	0.0167319
629.051	0.0168764
629.129	0.0169170
629.207	0.0167797
629.285	0.0168226
629.363	0.0169625
629.442	0.0168540
629.520	0.0167655
629.598	0.0168085
629.676	0.0169248
629.754	0.0169536
629.832	0.0169202
629.910	0.0168565
629.988	0.0168967
630.067	0.0169428
630.145	0.0169016
630.223	0.0168518
630.301	0.0168335
630.379	0.0168141
630.457	0.0168282
630.535	0.0169211
630.613	0.0167297
630.692	0.0167607
630.770	0.0167779
630.848	0.0167437
630.926	0.0168469
631.004	0.0168879
631.082	0.0167911
631.160	0.0167574
631.238	0.0168742
631.317	0.0168562
631.395	0.0166789
631.473	0.0167431
631.551	0.0169717
631.629	0.0167761
631.707	0.0168366
631.785	0.0167763
631.863	0.0167787
631.942	0.0168744
632.020	0.0167122
632.098	0.0167348
632.176	0.0168178
632.254	0.0167841
632.332	0.0168499
632.410	0.0167793
632.488	0.0168132
632.567	0.0168862
632.645	0.0167812
632.723	0.0166803
632.801	0.0167895
632.879	0.0169011
632.957	0.0168154
633.035	0.0168103
633.113	0.0169527
633.192	0.0168664
633.270	0.0167958
633.348	0.0169131
633.426	0.0169552
633.504	0.0169303
633.582	0.0167933
633.660	0.0168302
633.738	0.0168800
633.817	0.0169761
633.895	0.0169856
633.973	0.0167759
634.051	0.0168368
634.129	0.0168467
634.207	0.0166778
634.285	0.0166444
634.363	0.0168331
634.442	0.0168693
634.520	0.0169447
634.598	0.0167423
634.676	0.0168588
634.754	0.0167640
634.832	0.0169595
634.910	0.0170004
634.988	0.0167745
635.067	0.0168527
635.145	0.0168898
635.223	0.0169723
635.301	0.0169034
635.379	0.0167547
635.457	0.0168192
635.535	0.0167192
635.613	0.0168757
635.692	0.0170551
635.770	0.0168541
635.848	0.0167604
635.926	0.0168311
636.004	0.0169438
636.082	0.0169541
636.160	0.0168946
636.238	0.0168557
636.317	0.0168462
636.395	0.0167662
636.473	0.0169141
636.551	0.0167966
636.629	0.0167643
636.707	0.0168683
636.785	0.0167515
636.863	0.0167648
636.942	0.0168236
637.020	0.0168743
637.098	0.0168223
637.176	0.0169299
637.254	0.0166824
637.332	0.0167490
637.410	0.0168318
637.488	0.0168594
637.567	0.0167464
637.645	0.0169015
637.723	0.0168108
637.801	0.0168304
637.879	0.0168388
637.957	0.0167912
638.035	0.0167818
638.113	0.0169306
638.192	0.0168498
638.270	0.0168819
638.348	0.0167860
638.426	0.0166943
638.504	0.0168042
638.582	0.0168835
638.660	0.0167718
638.738	0.0168291
638.817	0.0168784
638.895	0.0167538
638.973	0.0168388
639.051	0.0167911
639.129	0.0167084
639.207	0.0169300
639.285	0.0168961
639.363	0.0168597
639.442	0.0167308
639.520	0.0167669
639.598	0.0167661
639.676	0.0168649
639.754	0.0167400
639.832	0.0168573
639.910	0.0168488
639.988	0.0168619
640.067	0.0167794
640.145	0.0168871
640.223	0.0168307
640.301	0.0167107
640.379	0.0168467
640.457	0.0167953
640.535	0.0167686
640.613	0.0169091
640.692	0.0167883
640.770	0.0167715
640.848	0.0168980
640.926	0.0168599
641.004	0.0168602
641.082	0.0167619
641.160	0.0170759
641.238	0.0168580
641.317	0.0168982
641.395	0.0167519
641.473	0.0167960
641.551	0.0168437
641.629	0.0168214
641.707	0.0167723
641.785	0.0169355
641.863	0.0169183
641.942	0.0167980
642.020	0.0167974
642.098	0.0168369
642.176	0.0168410
642.254	0.0169576
642.332	0.0167613
642.410	0.0168956
642.488	0.0169926
642.567	0.0167978
642.645	0.0168069
642.723	0.0167061
642.801	0.0168044
642.879	0.0167977
642.957	0.0170222
643.035	0.0168673
643.113	0.0168167
643.192	0.0168741
643.270	0.0168798
643.348	0.0168382
643.426	0.0169319
643.504	0.0168451
643.582	0.0169392
643.660	0.0168371
643.738	0.0169137
643.817	0.0168858
643.895	0.0168624
643.973	0.0167585
644.051	0.0168130
644.129	0.0169319
644.207	0.0167970
644.285	0.0169338
644.363	0.0169288
644.442	0.0168213
644.520	0.0169099
644.598	0.0168864
644.676	0.0168756
644.754	0.0167654
644.832	0.0168732
644.910	0.0167642
644.988	0.0167592
645.067	0.0166696
645.145	0.0166870
645.223	0.0168495
645.301	0.0168733
645.379	0.0168444
645.457	0.0169108
645.535	0.0169855
645.613	0.0167400
645.692	0.0166938
645.770	0.0168634
645.848	0.0168618
645.926	0.0168768
646.004	0.0167771
646.082	0.0166893
646.160	0.0167783
646.238	0.0168060
646.317	0.0167177
646.395	0.0167044
646.473	0.0168556
646.551	0.0168462
646.629	0.0167664
646.707	0.0166848
646.785	0.0167606
646.863	0.0167369
646.942	0.0167043
647.020	0.0167799
647.098	0.0168639
647.176	0.0168050
647.254	0.0167773
647.332	0.0165992
647.410	0.0167785
647.488	0.0168681
647.567	0.0167580
647.645	0.0167786
647.723	0.0168746
647.801	0.0168494
647.879	0.0167802
647.957	0.0168023
648.035	0.0166335
648.113	0.0167374
648.192	0.0168736
648.270	0.0168716
648.348	0.0167492
648.426	0.0168354
648.504	0.0168736
648.582	0.0168336
648.660	0.0169283
648.738	0.0168874
648.817	0.0167332
648.895	0.0166959
648.973	0.0168581
649.051	0.0169022
649.129	0.0169331
649.207	0.0167943
649.285	0.0166714
649.363	0.0167934
649.442	0.0168018
649.520	0.0168587
649.598	0.0168156
649.676	0.0167754
649.754	0.0167887
649.832	0.0169093
649.910	0.0168536
649.988	0.0168413
650.067	0.0169386
650.145	0.0167506
650.223	0.0167147
650.301	0.0169292
650.379	0.0168952
650.457	0.0167436
650.535	0.0169249
650.613	0.0168319
650.692	0.0168871
650.770	0.0169123
650.848	0.0168446
650.926	0.0168390
651.004	0.0168023
651.082	0.0167910
651.160	0.0168188
651.238	0.0169082
651.317	0.0168979
651.395	0.0168875
651.473	0.0168963
651.551	0.0168694
651.629	0.0170644
651.707	0.0168517
651.785	0.0168369
651.863	0.0168713
651.942	0.0168266
652.020	0.0169055
652.098	0.0168276
652.176	0.0167985
652.254	0.0166682
652.332	0.0168430
652.410	0.0167829
652.488	0.0169536
652.567	0.0167835
652.645	0.0167606
652.723	0.0168026
652.801	0.0168301
652.879	0.0168054
652.957	0.0169057
653.035	0.0167986
653.113	0.0166845
653.192	0.0169052
653.270	0.0168593
653.348	0.0168225
653.426	0.0168362
653.504	0.0168053
653.582	0.0168658
653.660	0.0168961
653.738	0.0167858
653.817	0.0169470
653.895	0.0169496
653.973	0.0166948
654.051	0.0168298
654.129	0.0167584
654.207	0.0168723
654.285	0.0168310
654.363	0.0168516
654.442	0.0167532
654.520	0.0169676
654.598	0.0168938
654.676	0.0167626
654.754	0.0168235
654.832	0.0167982
654.910	0.0168275
654.988	0.0167926
655.067	0.0167525
655.145	0.0169196
655.223	0.0169223
655.301	0.0169341
655.379	0.0168292
655.457	0.0167954
655.535	0.0168006
655.613	0.0168643
655.692	0.0169012
655.770	0.0168103
655.848	0.0168481
655.926	0.0169241
656.004	0.0169073
656.082	0.0168242
656.160	0.0167446
656.238	0.0168010
656.317	0.0168017
656.395	0.0169106
656.473	0.0168961
656.551	0.0169997
656.629	0.0167452
656.707	0.0168740
656.785	0.0168781
656.863	0.0168612
656.942	0.0168516
657.020	0.0168058
657.098	0.0168806
657.176	0.0169146
657.254	0.0169025
657.332	0.0168268
657.410	0.0168377
657.488	0.0167061
657.567	0.0169641
657.645	0.0168987
657.723	0.0169296
657.801	0.0168622
657.879	0.0167931
657.957	0.0168591
658.035	0.0166800
658.113	0.0167552
658.192	0.0169289
658.270	0.0167716
658.348	0.0168957
658.426	0.0169057
658.504	0.0167030
658.582	0.0167695
658.660	0.0168506
658.738	0.0167646
658.817	0.0168726
658.895	0.0169099
658.973	0.0168036
659.051	0.0168033
659.129	0.0168858
659.207	0.0169203
659.285	0.0169595
659.363	0.0169612
659.442	0.0168757
659.520	0.0167080
659.598	0.0168697
659.676	0.0169592
659.754	0.0168394
659.832	0.0167535
659.910	0.0168625
659.988	0.0167809
660.067	0.0167930
660.145	0.0169382
660.223	0.0170345
660.301	0.0167573
660.379	0.0168124
660.457	0.0167807
660.535	0.0169437
660.613	0.0168604
660.692	0.0167863
660.770	0.0167886
660.848	0.0169762
660.926	0.0169245
661.004	0.0167999
661.082	0.0168152
661.160	0.0168089
661.238	0.0168520
661.317	0.0168001
661.395	0.0169105
661.473	0.0168257
661.551	0.0167446
661.629	0.0167765
661.707	0.0168147
661.785	0.0168926
661.863	0.0168413
661.942	0.0168302
662.020	0.0168226
662.098	0.0167918
662.176	0.0167767
662.254	0.0168021
662.332	0.0168225
662.410	0.0167645
662.488	0.0168087
662.567	0.0167886
662.645	0.0168052
662.723	0.0167929
662.801	0.0167663
662.879	0.0167206
662.957	0.0168462
663.035	0.0167876
663.113	0.0168253
663.192	0.0168237
663.270	0.0167668
663.348	0.0167647
663.426	0.0168605
663.504	0.0167847
663.582	0.0167696
663.660	0.0168557
663.738	0.0167968
663.817	0.0169079
663.895	0.0168631
663.973	0.0167750
664.051	0.0167949
664.129	0.0168397
664.207	0.0169118
664.285	0.0167798
664.363	0.0167458
664.442	0.0168176
664.520	0.0169115
664.598	0.0167365
664.676	0.0168171
664.754	0.0167677
664.832	0.0168909
664.910	0.0167724
664.988	0.0167429
665.067	0.0168745
665.145	0.0168270
665.223	0.0168211
665.301	0.0169169
665.379	0.0168478
665.457	0.0167770
665.535	0.0167833
665.613	0.0167032
665.692	0.0169634
665.770	0.0168320
665.848	0.0167495
665.926	0.0168324
666.004	0.0168878
666.082	0.0169488
666.160	0.0168314
666.238	0.0169096
666.317	0.0168862
666.395	0.0167942
666.473	0.0167695
666.551	0.0169715
666.629	0.0168393
666.707	0.0168312
666.785	0.0170405
666.863	0.0168493
666.942	0.0170167
667.020	0.0168147
667.098	0.0168261
667.176	0.0169595
667.254	0.0168603
667.332	0.0168417
667.410	0.0167231
667.488	0.0168136
667.567	0.0168446
667.645	0.0168120
667.723	0.0167473
667.801	0.0167725
667.879	0.0168602
667.957	0.0168309
668.035	0.0168196
668.113	0.0168610
668.192	0.0168999
668.270	0.0167313
668.348	0.0168320
668.426	0.0169080
668.504	0.0168347
668.582	0.0168419
668.660	0.0168021
668.738	0.0168107
668.817	0.0167654
668.895	0.0167943
668.973	0.0168227
669.051	0.0168775
669.129	0.0167197
669.207	0.0169447
669.285	0.0168487
669.363	0.0167955
669.442	0.0168334
669.520	0.0168716
669.598	0.0168246
669.676	0.0167920
669.754	0.0168176
669.832	0.0167691
669.910	0.0169345
669.988	0.0168342
670.067	0.0167316
670.145	0.0168227
670.223	0.0167816
670.301	0.0168296
670.379	0.0168600
670.457	0.0168870
670.535	0.0169197
670.613	0.0169099
670.692	0.0169560
670.770	0.0169163
670.848	0.0168426
670.926	0.0168327
671.004	0.0169505
671.082	0.0168897
671.160	0.0168155
671.238	0.0170467
671.317	0.0169929
671.395	0.0169279
671.473	0.0169258
671.551	0.0168236
671.629	0.0169168
671.707	0.0169057
671.785	0.0171314
671.863	0.0168549
671.942	0.0169833
672.020	0.0168516
672.098	0.0168314
672.176	0.0168601
672.254	0.0168624
672.332	0.0169513
672.410	0.0167650
672.488	0.0168927
672.567	0.0168700
672.645	0.0169255
672.723	0.0167590
672.801	0.0167258
672.879	0.0168674
672.957	0.0167854
673.035	0.0167612
673.113	0.0167113
673.192	0.0168584
673.270	0.0166756
673.348	0.0167205
673.426	0.0168192
673.504	0.0167110
673.582	0.0167509
673.660	0.0167727
673.738	0.0167322
673.817	0.0167824
673.895	0.0168184
673.973	0.0167557
674.051	0.0166783
674.129	0.0166935
674.207	0.0167966
674.285	0.0168983
674.363	0.0167492
674.442	0.0166944
674.520	0.0169053
674.598	0.0166750
674.676	0.0166650
674.754	0.0166888
674.832	0.0167677
674.910	0.0167905
674.988	0.0166771
675.067	0.0167464
675.145	0.0166562
675.223	0.0167424
675.301	0.0165955
675.379	0.0166919
675.457	0.0167417
675.535	0.0167107
675.613	0.0166409
675.692	0.0165702
675.770	0.0165867
675.848	0.0166484
675.926	0.0167395
676.004	0.0167527
676.082	0.0166595
676.160	0.0166619
676.238	0.0167205
676.317	0.0166232
676.395	0.0166678
676.473	0.0167944
676.551	0.0166271
676.629	0.0166164
676.707	0.0166853
676.785	0.0167270
676.863	0.0166921
676.942	0.0165672
677.020	0.0165186
677.098	0.0165599
677.176	0.0166042
677.254	0.0165523
677.332	0.0166704
677.410	0.0165873
677.488	0.0166703
677.567	0.0167405
677.645	0.0166788
677.723	0.0166713
677.801	0.0167557
677.879	0.0165952
677.957	0.0167826
678.035	0.0168179
678.113	0.0168458
678.192	0.0168942
678.270	0.0168003
678.348	0.0167905
678.426	0.0169382
678.504	0.0168163
678.582	0.0170612
678.660	0.0169474
678.738	0.0168298
678.817	0.0168475
678.895	0.0169092
678.973	0.0168916
679.051	0.0169820
679.129	0.0168680
679.207	0.0168921
679.285	0.0169781
679.363	0.0168806
679.442	0.0167808
679.520	0.0168800
679.598	0.0168842
679.676	0.0168570
679.754	0.0168249
679.832	0.0168365
679.910	0.0166997
679.988	0.0168250
680.067	0.0167596
680.145	0.0168333
680.223	0.0167358
680.301	0.0168314
680.379	0.0166897
680.457	0.0168112
680.535	0.0169253
680.613	0.0168028
680.692	0.0169357
680.770	0.0167311
680.848	0.0169215
680.926	0.0168648
681.004	0.0169174
681.082	0.0169522
681.160	0.0170642
681.238	0.0168048
681.317	0.0171105
681.395	0.0171028
681.473	0.0169849
681.551	0.0169859
681.629	0.0170623
681.707	0.0169714
681.785	0.0169721
681.863	0.0170210
681.942	0.0171033
682.020	0.0170049
682.098	0.0170979
682.176	0.0170544
682.254	0.0171224
682.332	0.0169997
682.410	0.0170853
682.488	0.0169650
682.567	0.0169443
682.645	0.0169820
682.723	0.0169645
682.801	0.0170983
682.879	0.0170794
682.957	0.0169321
683.035	0.0167912
683.113	0.0169011
683.192	0.0169675
683.270	0.0169270
683.348	0.0169106
683.426	0.0169753
683.504	0.0168816
683.582	0.0168884
683.660	0.0169218
683.738	0.0169218
683.817	0.0169409
683.895	0.0169507
683.973	0.0168925
684.051	0.0168109
684.129	0.0169588
684.207	0.0170435
684.285	0.0168893
684.363	0.0169207
684.442	0.0169492
684.520	0.0170461
684.598	0.0169344
684.676	0.0170419
684.754	0.0170801
684.832	0.0169600
684.910	0.0170693
684.988	0.0168268
685.067	0.0168513
685.145	0.0169307
685.223	0.0169498
685.301	0.0168291
685.379	0.0169351
685.457	0.0167525
685.535	0.0168770
685.613	0.0167308
685.692	0.0166556
685.770	0.0166169
685.848	0.0167095
685.926	0.0167371
686.004	0.0166702
686.082	0.0166657
686.160	0.0166886
686.238	0.0165247
686.317	0.0166379
686.395	0.0166008
686.473	0.0164395
686.551	0.0163824
686.629	0.0161967
686.707	0.0159621
686.785	0.0158415
686.863	0.0153968
686.942	0.0152931
687.020	0.0154547
687.098	0.0154854
687.176	0.0161544
687.254	0.0173398
687.332	0.0187188
687.410	0.0204551
687.488	0.0227595
687.567	0.0249500
687.645	0.0269543
687.723	0.0283857
687.801	0.0290549
687.879	0.0286961
687.957	0.0276934
688.035	0.0252778
688.113	0.0221036
688.192	0.0178007
688.270	0.0131357
688.348	0.00807907
688.426	0.00309494
688.504	-0.00180367
688.582	-0.00594795
688.660	-0.00935493
688.738	-0.0118651
688.817	-0.0129753
688.895	-0.0130122
688.973	-0.0117168
689.051	-0.00917252
689.129	-0.00543869
689.207	-0.000983353
689.285	0.00421524
689.363	0.0100513
689.442	0.0156819
689.520	0.0219163
689.598	0.0278220
689.676	0.0334987
689.754	0.0389671
689.832	0.0439956
689.910	0.0483525
689.988	0.0521322
690.067	0.0550835
690.145	0.0572861
690.223	0.0583446
690.301	0.0586218
690.379	0.0575439
690.457	0.0555280
690.535	0.0528154
690.613	0.0488377
690.692	0.0441824
690.770	0.0392088
690.848	0.0333096
690.926	0.0268871
691.004	0.0204615
691.082	0.0138396
691.160	0.00720856
691.238	0.000875168
691.317	-0.00489708
691.395	-0.0103908
691.473	-0.0152202
691.551	-0.0192251
691.629	-0.0223150
691.707	-0.0244603
691.785	-0.0257557
691.863	-0.0260125
691.942	-0.0254201
692.020	-0.0238863
692.098	-0.0215094
692.176	-0.0184814
692.254	-0.0150212
692.332	-0.0113152
692.410	-0.00707100
692.488	-0.00256783
692.567	0.00173431
692.645	0.00612175
692.723	0.0101299
692.801	0.0138519
692.879	0.0172295
692.957	0.0203329
693.035	0.0229855
693.113	0.0253329
693.192	0.0273635
693.270	0.0289260
693.348	0.0304711
693.426	0.0317329
693.504	0.0329616
693.582	0.0340778
693.660	0.0351891
693.738	0.0362284
693.817	0.0371826
693.895	0.0380249
693.973	0.0390250
694.051	0.0395896
694.129	0.0403389
694.207	0.0406655
694.285	0.0408648
694.363	0.0407092
694.442	0.0404697
694.520	0.0397883
694.598	0.0389527
694.676	0.0377436
694.754	0.0362858
694.832	0.0346265
694.910	0.0329375
694.988	0.0310124
695.067	0.0288615
695.145	0.0267406
695.223	0.0246259
695.301	0.0225189
695.379	0.0203600
695.457	0.0182722
695.535	0.0162064
695.613	0.0142041
695.692	0.0124908
695.770	0.0107941
695.848	0.00917488
695.926	0.00777977
696.004	0.00619942
696.082	0.00499794
696.160	0.00410973
696.238	0.00306778
696.317	0.00212540
696.395	0.00149376
696.473	0.000732193
696.551	0.000253754
696.629	-0.000228119
696.707	-0.000600128
696.785	-0.000921707
696.863	-0.00105804
696.942	-0.00119270
697.020	-0.00116524
697.098	-0.00133438
697.176	-0.000852432
697.254	-0.000399780
697.332	0.000165634
697.410	0.000942841
697.488	0.00175011
697.567	0.00287415
697.645	0.00414352
697.723	0.00553917
697.801	0.00700233
697.879	0.00871460
697.957	0.0103542
698.035	0.0121522
698.113	0.0137720
698.192	0.0155061
698.270	0.0171682
698.348	0.0185324
698.426	0.0198946
698.504	0.0209159
698.582	0.0220332
698.660	0.0227705
698.738	0.0236090
698.817	0.0240646
698.895	0.0243983
698.973	0.0248228
699.051	0.0250027
699.129	0.0251837
699.207	0.0251900
699.285	0.0252157
699.363	0.0251944
699.442	0.0248402
699.520	0.0247392
699.598	0.0246764
699.676	0.0244202
699.754	0.0244341
699.832	0.0245829
699.910	0.0247062
699.988	0.0250130
700.067	0.0252051
700.145	0.0257775
700.223	0.0263145
700.301	0.0267273
700.379	0.0273515
700.457	0.0278033
700.535	0.0284554
700.613	0.0289153
700.692	0.0292239
700.770	0.0292652
700.848	0.0292296
700.926	0.0289278
701.004	0.0281636
701.082	0.0273689
701.160	0.0264311
701.238	0.0251260
701.317	0.0236629
701.395	0.0220560
701.473	0.0205293
701.551	0.0191663
701.629	0.0175023
701.707	0.0160178
701.785	0.0146603
701.863	0.0132561
701.942	0.0120346
702.020	0.0108922
702.098	0.00999046
702.176	0.00904282
702.254	0.00844803
702.332	0.00797218
702.410	0.00762619
702.488	0.00747963
702.567	0.00755180
702.645	0.00769989
702.723	0.00807274
702.801	0.00851166
702.879	0.00872574
702.957	0.00916138
703.035	0.00972374
703.113	0.0100341
703.192	0.0103172
703.270	0.0105971
703.348	0.0108739
703.426	0.0109660
703.504	0.0109793
703.582	0.0107712
703.660	0.0104420
703.738	0.0101284
703.817	0.00982285
703.895	0.00955910
703.973	0.00905029
704.051	0.00890076
704.129	0.00867149
704.207	0.00863022
704.285	0.00899582
704.363	0.00918205
704.442	0.00976219
704.520	0.0103789
704.598	0.0109605
704.676	0.0118240
704.754	0.0127573
704.832	0.0136270
704.910	0.0145673
704.988	0.0155849
705.067	0.0166644
705.145	0.0175458
705.223	0.0184504
705.301	0.0193192
705.379	0.0200948
705.457	0.0207531
705.535	0.0210876
705.613	0.0212877
705.692	0.0218111
705.770	0.0219809
705.848	0.0221481
705.926	0.0222169
706.004	0.0222820
706.082	0.0223386
706.160	0.0224077
706.238	0.0221545
706.317	0.0222484
706.395	0.0219918
706.473	0.0218063
706.551	0.0216719
706.629	0.0215080
706.707	0.0214902
706.785	0.0214615
706.863	0.0212980
706.942	0.0213282
707.020	0.0213976
707.098	0.0216422
707.176	0.0215813
707.254	0.0216360
707.332	0.0217668
707.410	0.0219585
707.488	0.0219344
707.567	0.0222218
707.645	0.0223650
707.723	0.0223386
707.801	0.0225061
707.879	0.0227334
707.957	0.0225789
708.035	0.0224574
708.113	0.0223743
708.192	0.0221700
708.270	0.0215949
708.348	0.0209241
708.426	0.0204759
708.504	0.0200385
708.582	0.0191064
708.660	0.0185992
708.738	0.0178310
708.817	0.0170860
708.895	0.0163592
708.973	0.0156355
709.051	0.0149812
709.129	0.0142802
709.207	0.0138039
709.285	0.0133595
709.363	0.0131305
709.442	0.0127393
709.520	0.0126498
709.598	0.0125707
709.676	0.0126040
709.754	0.0125352
709.832	0.0126398
709.910	0.0127928
709.988	0.0128566
710.067	0.0129844
710.145	0.0128716
710.223	0.0132845
710.301	0.0134104
710.379	0.0135112
710.457	0.0138371
710.535	0.0138209
710.613	0.0137616
710.692	0.0139500
710.770	0.0139278
710.848	0.0138664
710.926	0.0137347
711.004	0.0136231
711.082	0.0133406
711.160	0.0134019
711.238	0.0132631
711.317	0.0129739
711.395	0.0127362
711.473	0.0127582
711.551	0.0125836
711.629	0.0123394
711.707	0.0124698
711.785	0.0123645
711.863	0.0125269
711.942	0.0127126
712.020	0.0129395
712.098	0.0132314
712.176	0.0134798
712.254	0.0139755
712.332	0.0145325
712.410	0.0151899
712.488	0.0154340
712.567	0.0160685
712.645	0.0164367
712.723	0.0168271
712.801	0.0173990
712.879	0.0178469
712.957	0.0182491
713.035	0.0185201
713.113	0.0190276
713.192	0.0193955
713.270	0.0196952
713.348	0.0197758
713.426	0.0200113
713.504	0.0202263
713.582	0.0203582
713.660	0.0204107
713.738	0.0203374
713.817	0.0203605
713.895	0.0202637
713.973	0.0201311
714.051	0.0198843
714.129	0.0196774
714.207	0.0195846
714.285	0.0193114
714.363	0.0190640
714.442	0.0190014
714.520	0.0188576
714.598	0.0189451
714.676	0.0187310
714.754	0.0190318
714.832	0.0189764
714.910	0.0191474
714.988	0.0195403
715.067	0.0197396
715.145	0.0199912
715.223	0.0202923
715.301	0.0205328
715.379	0.0207917
715.457	0.0208543
715.535	0.0210091
715.613	0.0211077
715.692	0.0209927
715.770	0.0207418
715.848	0.0205258
715.926	0.0201203
716.004	0.0195808
716.082	0.0190856
716.160	0.0186298
716.238	0.0182030
716.317	0.0177900
716.395	0.0174599
716.473	0.0169887
716.551	0.0164463
716.629	0.0163271
716.707	0.0160342
716.785	0.0157059
716.863	0.0155077
716.942	0.0154419
717.020	0.0154189
717.098	0.0153226
717.176	0.0151706
717.254	0.0152777
717.332	0.0152003
717.410	0.0152735
717.488	0.0151801
717.567	0.0151570
717.645	0.0153502
717.723	0.0153926
717.801	0.0152159
717.879	0.0152014
717.957	0.0152731
718.035	0.0151770
718.113	0.0151879
718.192	0.0152115
718.270	0.0149940
718.348	0.0147874
718.426	0.0148415
718.504	0.0147205
718.582	0.0146146
718.660	0.0146052
718.738	0.0144650
718.817	0.0141465
718.895	0.0138219
718.973	0.0137270
719.051	0.0134982
719.129	0.0133874
719.207	0.0131739
719.285	0.0128437
719.363	0.0127656
719.442	0.0129641
719.520	0.0126297
719.598	0.0127777
719.676	0.0128586
719.754	0.0130342
719.832	0.0132738
719.910	0.0134377
719.988	0.0137840
720.067	0.0142059
720.145	0.0147050
720.223	0.0150130
720.301	0.0155074
720.379	0.0158759
720.457	0.0161172
720.535	0.0165999
720.613	0.0170885
720.692	0.0176186
720.770	0.0178465
720.848	0.0179504
720.926	0.0181793
721.004	0.0184034
721.082	0.0186361
721.160	0.0187428
721.238	0.0188372
721.317	0.0187521
721.395	0.0186564
721.473	0.0186739
721.551	0.0186423
721.629	0.0186076
721.707	0.0186959
721.785	0.0186428
721.863	0.0186446
721.942	0.0185789
722.020	0.0185692
722.098	0.0186589
722.176	0.0187257
722.254	0.0187275
722.332	0.0188788
722.410	0.0190112
722.488	0.0192235
722.567	0.0196228
722.645	0.0198836
722.723	0.0201775
722.801	0.0203876
722.879	0.0207107
722.957	0.0207424
723.035	0.0211700
723.113	0.0212826
723.192	0.0211873
723.270	0.0213872
723.348	0.0213033
723.426	0.0207680
723.504	0.0207254
723.582	0.0203917
723.660	0.0199619
723.738	0.0196566
723.817	0.0190612
723.895	0.0186097
723.973	0.0181805
724.051	0.0176586
724.129	0.0173677
724.207	0.0170042
724.285	0.0167786
724.363	0.0166091
724.442	0.0164106
724.520	0.0161192
724.598	0.0159013
724.676	0.0157025
724.754	0.0155920
724.832	0.0156263
724.910	0.0155333
724.988	0.0154217
725.067	0.0154903
725.145	0.0154742
725.223	0.0154089
725.301	0.0154552
725.379	0.0153671
725.457	0.0156705
725.535	0.0155861
725.613	0.0154961
725.692	0.0154863
725.770	0.0156440
725.848	0.0156589
725.926	0.0155441
726.004	0.0157412
726.082	0.0155548
726.160	0.0154887
726.238	0.0154581
726.317	0.0153459
726.395	0.0150997
726.473	0.0149041
726.551	0.0148991
726.629	0.0146866
726.707	0.0142664
726.785	0.0139722
726.863	0.0137774
726.942	0.0135613
727.020	0.0133204
727.098	0.0130739
727.176	0.0130882
727.254	0.0129670
727.332	0.0128602
727.410	0.0129685
727.488	0.0128935
727.567	0.0129755
727.645	0.0131390
727.723	0.0133231
727.801	0.0137653
727.879	0.0139307
727.957	0.0143462
728.035	0.0146761
728.113	0.0150968
728.192	0.0155453
728.270	0.0158677
728.348	0.0162126
728.426	0.0165682
728.504	0.0168982
728.582	0.0170406
728.660	0.0173927
728.738	0.0175336
728.817	0.0178749
728.895	0.0179861
728.973	0.0179482
729.051	0.0180920
729.129	0.0183743
729.207	0.0183512
729.285	0.0184267
729.363	0.0187595
729.442	0.0187624
729.520	0.0187501
729.598	0.0189109
729.676	0.0188048
729.754	0.0190491
729.832	0.0189518
729.910	0.0190791
729.988	0.0190950
730.067	0.0189952
730.145	0.0191266
730.223	0.0191697
730.301	0.0191031
730.379	0.0191167
730.457	0.0191949
730.535	0.0193749
730.613	0.0193025
730.692	0.0194379
730.770	0.0195496
730.848	0.0194642
730.926	0.0196107
731.004	0.0199525
731.082	0.0200412
731.160	0.0201145
731.238	0.0202924
731.317	0.0202525
731.395	0.0202625
731.473	0.0199232
731.551	0.0198113
731.629	0.0196423
731.707	0.0193620
731.785	0.0191174
731.863	0.0187141
731.942	0.0182233
732.020	0.0180964
732.098	0.0176861
732.176	0.0172662
732.254	0.0167838
732.332	0.0163800
732.410	0.0160561
732.488	0.0158194
732.567	0.0155782
732.645	0.0154494
732.723	0.0152469
732.801	0.0150481
732.879	0.0149646
732.957	0.0148830
733.035	0.0148812
733.113	0.0148054
733.192	0.0147704
733.270	0.0149722
733.348	0.0149352
733.426	0.0150679
733.504	0.0151886
733.582	0.0153147
733.660	0.0153955
733.738	0.0154189
733.817	0.0155466
733.895	0.0156010
733.973	0.0154693
734.051	0.0154765
734.129	0.0154410
734.207	0.0153579
734.285	0.0152438
734.363	0.0152965
734.442	0.0152458
734.520	0.0151831
734.598	0.0151373
734.676	0.0149673
734.754	0.0148855
734.832	0.0147893
734.910	0.0148106
734.988	0.0146253
735.067	0.0146941
735.145	0.0147140
735.223	0.0146626
735.301	0.0146300
735.379	0.0148350
735.457	0.0147832
735.535	0.0148293
735.613	0.0149790
735.692	0.0151110
735.770	0.0151959
735.848	0.0155361
735.926	0.0157011
736.004	0.0158029
736.082	0.0162977
736.160	0.0164923
736.238	0.0165057
736.317	0.0167022
736.395	0.0170719
736.473	0.0171432
736.551	0.0170422
736.629	0.0175098
736.707	0.0177123
736.785	0.0178709
736.863	0.0179351
736.942	0.0180780
737.020	0.0180694
737.098	0.0181897
737.176	0.0182706
737.254	0.0182273
737.332	0.0181885
737.410	0.0182706
737.488	0.0183214
737.567	0.0181958
737.645	0.0182346
737.723	0.0181327
737.801	0.0180289
737.879	0.0179163
737.957	0.0178854
738.035	0.0178310
738.113	0.0178156
738.192	0.0177036
738.270	0.0177522
738.348	0.0177789
738.426	0.0178869
738.504	0.0179960
738.582	0.0182211
738.660	0.0184362
738.738	0.0185307
738.817	0.0187685
738.895	0.0189739
738.973	0.0191685
739.051	0.0192816
739.129	0.0193571
739.207	0.0195303
739.285	0.0196965
739.363	0.0195869
739.442	0.0194560
739.520	0.0193045
739.598	0.0191693
739.676	0.0189542
739.754	0.0187991
739.832	0.0184000
739.910	0.0181096
739.988	0.0178474
740.067	0.0173997
740.145	0.0171265
740.223	0.0169323
740.301	0.0166380
740.379	0.0162048
740.457	0.0157171
740.535	0.0156902
740.613	0.0153098
740.692	0.0152882
740.770	0.0149575
740.848	0.0147138
740.926	0.0147537
741.004	0.0146432
741.082	0.0145744
741.160	0.0145100
741.238	0.0144882
741.317	0.0144138
741.395	0.0145849
741.473	0.0148038
741.551	0.0147980
741.629	0.0149069
741.707	0.0150659
741.785	0.0151710
741.863	0.0153214
741.942	0.0155643
742.020	0.0157195
742.098	0.0159879
742.176	0.0159550
742.254	0.0160110
742.332	0.0162555
742.410	0.0164499
742.488	0.0164031
742.567	0.0164687
742.645	0.0164774
742.723	0.0166241
742.801	0.0165303
742.879	0.0165526
742.957	0.0164728
743.035	0.0163342
743.113	0.0163131
743.192	0.0162612
743.270	0.0162358
743.348	0.0159944
743.426	0.0160652
743.504	0.0161828
743.582	0.0160066
743.660	0.0161134
743.738	0.0163040
743.817	0.0161801
743.895	0.0164487
743.973	0.0166824
744.051	0.0166697
744.129	0.0168262
744.207	0.0169142
744.285	0.0169828
744.363	0.0170004
744.442	0.0171136
744.520	0.0172746
744.598	0.0171922
744.676	0.0172992
744.754	0.0173286
744.832	0.0171889
744.910	0.0171564
744.988	0.0170832
745.067	0.0171238
745.145	0.0170967
745.223	0.0170895
745.301	0.0171358
745.379	0.0172317
745.457	0.0170689
745.535	0.0171601
745.613	0.0174593
745.692	0.0173336
745.770	0.0174513
745.848	0.0174861
745.926	0.0175634
746.004	0.0176813
746.082	0.0176248
746.160	0.0176849
746.238	0.0179364
746.317	0.0178840
746.395	0.0178394
746.473	0.0178899
746.551	0.0180734
746.629	0.0180003
746.707	0.0182410
746.785	0.0181405
746.863	0.0182310
746.942	0.0182227
747.020	0.0183798
747.098	0.0184192
747.176	0.0183218
747.254	0.0182697
747.332	0.0182611
747.410	0.0182501
747.488	0.0181659
747.567	0.0179717
747.645	0.0179633
747.723	0.0177819
747.801	0.0175635
747.879	0.0174753
747.957	0.0173852
748.035	0.0171872
748.113	0.0169329
748.192	0.0166004
748.270	0.0166256
748.348	0.0164160
748.426	0.0161530
748.504	0.0160716
748.582	0.0158466
748.660	0.0157527
748.738	0.0158096
748.817	0.0158345
748.895	0.0157684
748.973	0.0155533
749.051	0.0157500
749.129	0.0157880
749.207	0.0158329
749.285	0.0158036
749.363	0.0160967
749.442	0.0161844
749.520	0.0162181
749.598	0.0163268
749.676	0.0165788
749.754	0.0166934
749.832	0.0166656
749.910	0.0167712
749.988	0.0167848
750.067	0.0167525
750.145	0.0168385
750.223	0.0167304
750.301	0.0168034
750.379	0.0166139
750.457	0.0165089
750.535	0.0166961
750.613	0.0165444
750.692	0.0164114
750.770	0.0163142
750.848	0.0163520
750.926	0.0162309
751.004	0.0160012
751.082	0.0160137
751.160	0.0159935
751.238	0.0157991
751.317	0.0158183
751.395	0.0157667
751.473	0.0156721
751.551	0.0156454
751.629	0.0157308
751.707	0.0157200
751.785	0.0158423
751.863	0.0158173
751.942	0.0159529
752.020	0.0160244
752.098	0.0160091
752.176	0.0162877
752.254	0.0162991
752.332	0.0164662
752.410	0.0166979
752.488	0.0167198
752.567	0.0169371
752.645	0.0169529
752.723	0.0171994
752.801	0.0170629
752.879	0.0172876
752.957	0.0173562
753.035	0.0175054
753.113	0.0176401
753.192	0.0175283
753.270	0.0175497
753.348	0.0177113
753.426	0.0177551
753.504	0.0176724
753.582	0.0177422
753.660	0.0176062
753.738	0.0173489
753.817	0.0173109
753.895	0.0172149
753.973	0.0173553
754.051	0.0173281
754.129	0.0171553
754.207	0.0172550
754.285	0.0171350
754.363	0.0171728
754.442	0.0172002
754.520	0.0171599
754.598	0.0171178
754.676	0.0172691
754.754	0.0173882
754.832	0.0173895
754.910	0.0174057
754.988	0.0175624
755.067	0.0176691
755.145	0.0175182
755.223	0.0177504
755.301	0.0178914
755.379	0.0179068
755.457	0.0177633
755.535	0.0178467
755.613	0.0177108
755.692	0.0176861
755.770	0.0176182
755.848	0.0176492
755.926	0.0174857
756.004	0.0173013
756.082	0.0172709
756.160	0.0169455
756.238	0.0170215
756.317	0.0168771
756.395	0.0168852
756.473	0.0167511
756.551	0.0167332
756.629	0.0165894
756.707	0.0166181
756.785	0.0165730
756.863	0.0165690
756.942	0.0164913
757.020	0.0164757
757.098	0.0165553
757.176	0.0165170
757.254	0.0165454
757.332	0.0164792
757.410	0.0164674
757.488	0.0164838
757.567	0.0164816
757.645	0.0164894
757.723	0.0165128
757.801	0.0165243
757.879	0.0165300
757.957	0.0165717
758.035	0.0166616
758.113	0.0165477
758.192	0.0165190
758.270	0.0164565
758.348	0.0165376
758.426	0.0165991
758.504	0.0164944
758.582	0.0163602
758.660	0.0165079
758.738	0.0164945
758.817	0.0164597
758.895	0.0163301
758.973	0.0163244
759.051	0.0162177
759.129	0.0161086
759.207	0.0161123
759.285	0.0159570
759.363	0.0159683
759.442	0.0159200
759.520	0.0157804
759.598	0.0158482
759.676	0.0158838
759.754	0.0159314
759.832	0.0159868
759.910	0.0159869
759.988	0.0158837
760.067	0.0161452
760.145	0.0162891
760.223	0.0164460
760.301	0.0164198
760.379	0.0165909
760.457	0.0167189
760.535	0.0168009
760.613	0.0167818
760.692	0.0169441
760.770	0.0169241
760.848	0.0170882
760.926	0.0171455
761.004	0.0170802
761.082	0.0172353
761.160	0.0173802
761.238	0.0171654
761.317	0.0172930
761.395	0.0173220
761.473	0.0174419
761.551	0.0173328
761.629	0.0172523
761.707	0.0173932
761.785	0.0173005
761.863	0.0173315
761.942	0.0172777
762.020	0.0171386
762.098	0.0172788
762.176	0.0172851
762.254	0.0172097
762.332	0.0171391
762.410	0.0172408
762.488	0.0174386
762.567	0.0174350
762.645	0.0174615
762.723	0.0174552
762.801	0.0173590
762.879	0.0173250
762.957	0.0175861
763.035	0.0176096
763.113	0.0175871
763.192	0.0176060
763.270	0.0177054
763.348	0.0177843
763.426	0.0176926
763.504	0.0175711
763.582	0.0178542
763.660	0.0177214
763.738	0.0176065
763.817	0.0177956
763.895	0.0177731
763.973	0.0176558
764.051	0.0175269
764.129	0.0174081
764.207	0.0172482
764.285	0.0172466
764.363	0.0170561
764.442	0.0167874
764.520	0.0167839
764.598	0.0167721
764.676	0.0165845
764.754	0.0163168
764.832	0.0161210
764.910	0.0160358
764.988	0.0161536
765.067	0.0158875
765.145	0.0160371
765.223	0.0159400
765.301	0.0160267
765.379	0.0161745
765.457	0.0160442
765.535	0.0162202
765.613	0.0163421
765.692	0.0163365
765.770	0.0163145
765.848	0.0163013
765.926	0.0164829
766.004	0.0166517
766.082	0.0164883
766.160	0.0166631
766.238	0.0166902
766.317	0.0166021
766.395	0.0166319
766.473	0.0166245
766.551	0.0167263
766.629	0.0166659
766.707	0.0166126
766.785	0.0166761
766.863	0.0166359
766.942	0.0165955
767.020	0.0166177
767.098	0.0164297
767.176	0.0165321
767.254	0.0163547
767.332	0.0162843
767.410	0.0162897
767.488	0.0161742
767.567	0.0161222
767.645	0.0160658
767.723	0.0160188
767.801	0.0160183
767.879	0.0160254
767.957	0.0160775
768.035	0.0161988
768.113	0.0162130
768.192	0.0162585
768.270	0.0162608
768.348	0.0163634
768.426	0.0165962
768.504	0.0168791
768.582	0.0169086
768.660	0.0170539
768.738	0.0172212
768.817	0.0172443
768.895	0.0174015
768.973	0.0174432
769.051	0.0174812
769.129	0.0175668
769.207	0.0177285
769.285	0.0177182
769.363	0.0176432
769.442	0.0175462
769.520	0.0175575
769.598	0.0176196
769.676	0.0175685
769.754	0.0175671
769.832	0.0172507
769.910	0.0173334
769.988	0.0171558
770.067	0.0171089
770.145	0.0171192
770.223	0.0171425
770.301	0.0168596
770.379	0.0168625
770.457	0.0168519
770.535	0.0167766
770.613	0.0166559
770.692	0.0166984
770.770	0.0167828
770.848	0.0165475
770.926	0.0165237
771.004	0.0168626
771.082	0.0168388
771.160	0.0167757
771.238	0.0170627
771.317	0.0168557
771.395	0.0170162
771.473	0.0170834
771.551	0.0170135
771.629	0.0171676
771.707	0.0171825
771.785	0.0171919
771.863	0.0171005
771.942	0.0170860
772.020	0.0171467
772.098	0.0169687
772.176	0.0169132
772.254	0.0169539
772.332	0.0168946
772.410	0.0168606
772.488	0.0169297
772.567	0.0168574
772.645	0.0167579
772.723	0.0167085
772.801	0.0168147
772.879	0.0168914
772.957	0.0166694
773.035	0.0168739
773.113	0.0166459
773.192	0.0168075
773.270	0.0168969
773.348	0.0169290
773.426	0.0168840
773.504	0.0168701
773.582	0.0169199
773.660	0.0170119
773.738	0.0169344
773.817	0.0169185
773.895	0.0169254
773.973	0.0168658
774.051	0.0168819
774.129	0.0167815
774.207	0.0169522
774.285	0.0168701
774.363	0.0167719
774.442	0.0169112
774.520	0.0167529
774.598	0.0167543
774.676	0.0168670
774.754	0.0167728
774.832	0.0166478
774.910	0.0166592
774.988	0.0164837
775.067	0.0165275
775.145	0.0163999
775.223	0.0166444
775.301	0.0163603
775.379	0.0162847
775.457	0.0163847
775.535	0.0161400
775.613	0.0162068
775.692	0.0162047
775.770	0.0162177
775.848	0.0161552
775.926	0.0162996
776.004	0.0162418
776.082	0.0163392
776.160	0.0164695
776.238	0.0163590
776.317	0.0164780
776.395	0.0165281
776.473	0.0164356
776.551	0.0165011
776.629	0.0165673
776.707	0.0166697
776.785	0.0166595
776.863	0.0165972
776.942	0.0167002
777.020	0.0167898
777.098	0.0168591
777.176	0.0169145
777.254	0.0168915
777.332	0.0169301
777.410	0.0169632
777.488	0.0170409
777.567	0.0170820
777.645	0.0171207
777.723	0.0171052
777.801	0.0171844
777.879	0.0172479
777.957	0.0172797
778.035	0.0173398
778.113	0.0172386
778.192	0.0172052
778.270	0.0172620
778.348	0.0171210
778.426	0.0172237
778.504	0.0174346
778.582	0.0172779
778.660	0.0171516
778.738	0.0171963
778.817	0.0171826
778.895	0.0170237
778.973	0.0171604
779.051	0.0171205
779.129	0.0171793
779.207	0.0171970
779.285	0.0172838
779.363	0.0172359
779.442	0.0173840
779.520	0.0172205
779.598	0.0171748
779.676	0.0173215
779.754	0.0174324
779.832	0.0173402
779.910	0.0173652
779.988	0.0172066
780.067	0.0172815
780.145	0.0174162
780.223	0.0172758
780.301	0.0172778
780.379	0.0173362
780.457	0.0173039
780.535	0.0172557
780.613	0.0171561
780.692	0.0170220
780.770	0.0169017
780.848	0.0169550
780.926	0.0169702
781.004	0.0169210
781.082	0.0168447
781.160	0.0167788
781.238	0.0169463
781.317	0.0167852
781.395	0.0166581
781.473	0.0166726
781.551	0.0169266
781.629	0.0168713
781.707	0.0167526
781.785	0.0167608
781.863	0.0167421
781.942	0.0166630
782.020	0.0166333
782.098	0.0166373
782.176	0.0165846
782.254	0.0166374
782.332	0.0164981
782.410	0.0166695
782.488	0.0164233
782.567	0.0163911
782.645	0.0164605
782.723	0.0163735
782.801	0.0163628
782.879	0.0165015
782.957	0.0164410
783.035	0.0162913
783.113	0.0164087
783.192	0.0163923
783.270	0.0163457
783.348	0.0163792
783.426	0.0165420
783.504	0.0165653
783.582	0.0165132
783.660	0.0166754
783.738	0.0168631
783.817	0.0170035
783.895	0.0170264
783.973	0.0170152
784.051	0.0171936
784.129	0.0172619
784.207	0.0173188
784.285	0.0174349
784.363	0.0172737
784.442	0.0171747
784.520	0.0170181
784.598	0.0168655
784.676	0.0166117
784.754	0.0162962
784.832	0.0161144
784.910	0.0157076
784.988	0.0155511
785.067	0.0152373
785.145	0.0149629
785.223	0.0148957
785.301	0.0146937
785.379	0.0146304
785.457	0.0147401
785.535	0.0148486
785.613	0.0149197
785.692	0.0152139
785.770	0.0152840
785.848	0.0158407
785.926	0.0160899
786.004	0.0165907
786.082	0.0171399
786.160	0.0177271
786.238	0.0183817
786.317	0.0189891
786.395	0.0196021
786.473	0.0200967
786.551	0.0206106
786.629	0.0211271
786.707	0.0213318
786.785	0.0214653
786.863	0.0215475
786.942	0.0215175
787.020	0.0214418
787.098	0.0211456
787.176	0.0207965
787.254	0.0204012
787.332	0.0198869
787.410	0.0192508
787.488	0.0186701
787.567	0.0180041
787.645	0.0173764
787.723	0.0167033
787.801	0.0159975
787.879	0.0155509
787.957	0.0148271
788.035	0.0142466
788.113	0.0137447
788.192	0.0135138
788.270	0.0130214
788.348	0.0126939
788.426	0.0126559
788.504	0.0123628
788.582	0.0123202
788.660	0.0123576
788.738	0.0123367
788.817	0.0124167
788.895	0.0126633
788.973	0.0128999
789.051	0.0130834
789.129	0.0134582
789.207	0.0138982
789.285	0.0143443
789.363	0.0148061
789.442	0.0152025
789.520	0.0155553
789.598	0.0158379
789.676	0.0163567
789.754	0.0169491
789.832	0.0172285
789.910	0.0176111
789.988	0.0178511
790.067	0.0182355
790.145	0.0187463
790.223	0.0188525
790.301	0.0192624
790.379	0.0196349
790.457	0.0197028
790.535	0.0199426
790.613	0.0202032
790.692	0.0202225
790.770	0.0203067
790.848	0.0206645
790.926	0.0204704
791.004	0.0205853
791.082	0.0205201
791.160	0.0205695
791.238	0.0204670
791.317	0.0202466
791.395	0.0201710
791.473	0.0198254
791.551	0.0196117
791.629	0.0193628
791.707	0.0191043
791.785	0.0186102
791.863	0.0183064
791.942	0.0177804
792.020	0.0174974
792.098	0.0170387
792.176	0.0167512
792.254	0.0163306
792.332	0.0160448
792.410	0.0157667
792.488	0.0153826
792.567	0.0151280
792.645	0.0150993
792.723	0.0148868
792.801	0.0146346
792.879	0.0144984
792.957	0.0143254
793.035	0.0142254
793.113	0.0141972
793.192	0.0142260
793.270	0.0139799
793.348	0.0138185
793.426	0.0137553
793.504	0.0137569
793.582	0.0135565
793.660	0.0135654
793.738	0.0134370
793.817	0.0134940
793.895	0.0134650
793.973	0.0135046
794.051	0.0135767
794.129	0.0137975
794.207	0.0139664
794.285	0.0142976
794.363	0.0144090
794.442	0.0146640
794.520	0.0151338
794.598	0.0154371
794.676	0.0158440
794.754	0.0162389
794.832	0.0165574
794.910	0.0168114
794.988	0.0172472
795.067	0.0174630
795.145	0.0177435
795.223	0.0178944
795.301	0.0180565
795.379	0.0183140
795.457	0.0185398
795.535	0.0185094
795.613	0.0187460
795.692	0.0188747
795.770	0.0189171
795.848	0.0190282
795.926	0.0189311
796.004	0.0190259
796.082	0.0190763
796.160	0.0192182
796.238	0.0192178
796.317	0.0194634
796.395	0.0194340
796.473	0.0192914
796.551	0.0192899
796.629	0.0194252
796.707	0.0193784
796.785	0.0193768
796.863	0.0192406
796.942	0.0191985
797.020	0.0191424
797.098	0.0191326
797.176	0.0189010
797.254	0.0186650
797.332	0.0185354
797.410	0.0184341
797.488	0.0182313
797.567	0.0180767
797.645	0.0178459
797.723	0.0176345
797.801	0.0172655
797.879	0.0175056
797.957	0.0172678
798.035	0.0169312
798.113	0.0167061
798.192	0.0166920
798.270	0.0163850
798.348	0.0163277
798.426	0.0161965
798.504	0.0160123
798.582	0.0158676
798.660	0.0157304
798.738	0.0155964
798.817	0.0155161
798.895	0.0153596
798.973	0.0151460
799.051	0.0150038
799.129	0.0149118
799.207	0.0148331
799.285	0.0149179
799.363	0.0148434
799.442	0.0148104
799.520	0.0146749
799.598	0.0147204
799.676	0.0147170
799.754	0.0148051
799.832	0.0149017
799.910	0.0148160
799.988	0.0149088
800.067	0.0148870
800.145	0.0150909
800.223	0.0150099
800.301	0.0150672
800.379	0.0151398
800.457	0.0151879
800.535	0.0151126
800.613	0.0151450
800.692	0.0151231
800.770	0.0152884
800.848	0.0152414
800.926	0.0154166
801.004	0.0156525
801.082	0.0156837
801.160	0.0159201
801.238	0.0162199
801.317	0.0162682
801.395	0.0164381
801.473	0.0166225
801.551	0.0168426
801.629	0.0171228
801.707	0.0173362
801.785	0.0176140
801.863	0.0177424
801.942	0.0178239
802.020	0.0182513
802.098	0.0182559
802.176	0.0184122
802.254	0.0185172
802.332	0.0186690
802.410	0.0186936
802.488	0.0188432
802.567	0.0190103
802.645	0.0190747
802.723	0.0190031
802.801	0.0188648
802.879	0.0189582
802.957	0.0189574
803.035	0.0188588
803.113	0.0189574
803.192	0.0188510
803.270	0.0187211
803.348	0.0184095
803.426	0.0182551
803.504	0.0182161
803.582	0.0180729
803.660	0.0180348
803.738	0.0176326
803.817	0.0174368
803.895	0.0176174
803.973	0.0174417
804.051	0.0172274
804.129	0.0172356
804.207	0.0170532
804.285	0.0170430
804.363	0.0169233
804.442	0.0168472
804.520	0.0167678
804.598	0.0167757
804.676	0.0168199
804.754	0.0167394
804.832	0.0166259
804.910	0.0166376
804.988	0.0166543
805.067	0.0165289
805.145	0.0164936
805.223	0.0164537
805.301	0.0164300
805.379	0.0163613
805.457	0.0163393
805.535	0.0162019
805.613	0.0162127
805.692	0.0161002
805.770	0.0160181
805.848	0.0161370
805.926	0.0160746
806.004	0.0160262
806.082	0.0161327
806.160	0.0160984
806.238	0.0160979
806.317	0.0160902
806.395	0.0162646
806.473	0.0163553
806.551	0.0161819
806.629	0.0162941
806.707	0.0164964
806.785	0.0166119
806.863	0.0164857
806.942	0.0167171
807.020	0.0165776
807.098	0.0166496
807.176	0.0165649
807.254	0.0165387
807.332	0.0165404
807.410	0.0166299
807.488	0.0163582
807.567	0.0162623
807.645	0.0164075
807.723	0.0162456
807.801	0.0161998
807.879	0.0161505
807.957	0.0160710
808.035	0.0161877
808.113	0.0161918
808.192	0.0164013
808.270	0.0164144
808.348	0.0163273
808.426	0.0162487
808.504	0.0162477
808.582	0.0163928
808.660	0.0162757
808.738	0.0161862
808.817	0.0161829
808.895	0.0161620
808.973	0.0162663
809.051	0.0162609
809.129	0.0162180
809.207	0.0164606
809.285	0.0165328
809.363	0.0164500
809.442	0.0166390
809.520	0.0167635
809.598	0.0169537
809.676	0.0170685
809.754	0.0171127
809.832	0.0171704
809.910	0.0173358
809.988	0.0173765
810.067	0.0173995
810.145	0.0175697
810.223	0.0173049
810.301	0.0174960
810.379	0.0175290
810.457	0.0174562
810.535	0.0174479
810.613	0.0175076
810.692	0.0174161
810.770	0.0174213
810.848	0.0174502
810.926	0.0173118
811.004	0.0174089
811.082	0.0175042
811.160	0.0174863
811.238	0.0174747
811.317	0.0175567
811.395	0.0175544
811.473	0.0177020
811.551	0.0177420
811.629	0.0178479
811.707	0.0176385
811.785	0.0177480
811.863	0.0177383
811.942	0.0176847
812.020	0.0176348
812.098	0.0177824
812.176	0.0175945
812.254	0.0177316
812.332	0.0175035
812.410	0.0174635
812.488	0.0174532
812.567	0.0174797
812.645	0.0172729
812.723	0.0171874
812.801	0.0169851
812.879	0.0167798
812.957	0.0168227
813.035	0.0166579
813.113	0.0164412
813.192	0.0163985
813.270	0.0163456
813.348	0.0163310
813.426	0.0162704
813.504	0.0162880
813.582	0.0162158
813.660	0.0163248
813.738	0.0164054
813.817	0.0164151
813.895	0.0164877
813.973	0.0165799
814.051	0.0165569
814.129	0.0168594
814.207	0.0169070
814.285	0.0167448
814.363	0.0170829
814.442	0.0169628
814.520	0.0169920
814.598	0.0170046
814.676	0.0169950
814.754	0.0168040
814.832	0.0167993
814.910	0.0165677
814.988	0.0164072
815.067	0.0163761
815.145	0.0161230
815.223	0.0158899
815.301	0.0157749
815.379	0.0156248
815.457	0.0155745
815.535	0.0153040
815.613	0.0152312
815.692	0.0153496
815.770	0.0153744
815.848	0.0154443
815.926	0.0154893
816.004	0.0156841
816.082	0.0159357
816.160	0.0159058
816.238	0.0161742
816.317	0.0164368
816.395	0.0165016
816.473	0.0167175
816.551	0.0168504
816.629	0.0169292
816.707	0.0171010
816.785	0.0172163
816.863	0.0171187
816.942	0.0171778
817.020	0.0174001
817.098	0.0173808
817.176	0.0173448
817.254	0.0173310
817.332	0.0172417
817.410	0.0173176
817.488	0.0172808
817.567	0.0171685
817.645	0.0170729
817.723	0.0170148
817.801	0.0170281
817.879	0.0169122
817.957	0.0167638
818.035	0.0168330
818.113	0.0167419
818.192	0.0166594
818.270	0.0166740
818.348	0.0166898
818.426	0.0168133
818.504	0.0167525
818.582	0.0166496
818.660	0.0166668
818.738	0.0168391
818.817	0.0167581
818.895	0.0167397
818.973	0.0170392
819.051	0.0170804
819.129	0.0171975
819.207	0.0172002
819.285	0.0173675
819.363	0.0174056
819.442	0.0174849
819.520	0.0176403
819.598	0.0178926
819.676	0.0177993
819.754	0.0181018
819.832	0.0181124
819.910	0.0180619
819.988	0.0182388
820.067	0.0183468
820.145	0.0181892
820.223	0.0180679
820.301	0.0180684
820.379	0.0179588
820.457	0.0179013
820.535	0.0177548
820.613	0.0174487
820.692	0.0174978
820.770	0.0171500
820.848	0.0169422
820.926	0.0169360
821.004	0.0168150
821.082	0.0167567
821.160	0.0165843
821.238	0.0163757
821.317	0.0163087
821.395	0.0163100
821.473	0.0161676
821.551	0.0161140
821.629	0.0161318
821.707	0.0161642
821.785	0.0161482
821.863	0.0162091
821.942	0.0162368
822.020	0.0162312
822.098	0.0163836
822.176	0.0163633
822.254	0.0165313
822.332	0.0166287
822.410	0.0165363
822.488	0.0165114
822.567	0.0166075
822.645	0.0168006
822.723	0.0166920
822.801	0.0167359
822.879	0.0168249
822.957	0.0167614
823.035	0.0164673
823.113	0.0166737
823.192	0.0167324
823.270	0.0167550
823.348	0.0165889
823.426	0.0167282
823.504	0.0166730
823.582	0.0164149
823.660	0.0163865
823.738	0.0163213
823.817	0.0163570
823.895	0.0162141
823.973	0.0160417
824.051	0.0160132
824.129	0.0158260
824.207	0.0158418
824.285	0.0156876
824.363	0.0157939
824.442	0.0157938
824.520	0.0158633
824.598	0.0157919
824.676	0.0158938
824.754	0.0158625
824.832	0.0159606
824.910	0.0158947
824.988	0.0161414
825.067	0.0164497
825.145	0.0166047
825.223	0.0164811
825.301	0.0167908
825.379	0.0167413
825.457	0.0169298
825.535	0.0169038
825.613	0.0170135
825.692	0.0170580
825.770	0.0169901
825.848	0.0171260
825.926	0.0171665
826.004	0.0171790
826.082	0.0172161
826.160	0.0171907
826.238	0.0172623
826.317	0.0172144
826.395	0.0171735
826.473	0.0172877
826.551	0.0172861
826.629	0.0172939
826.707	0.0173228
826.785	0.0175085
826.863	0.0175150
826.942	0.0174755
827.020	0.0175514
827.098	0.0178443
827.176	0.0178017
827.254	0.0178084
827.332	0.0178329
827.410	0.0178503
827.488	0.0177892
827.567	0.0179230
827.645	0.0177934
827.723	0.0179424
827.801	0.0178632
827.879	0.0177600
827.957	0.0177893
828.035	0.0179752
828.113	0.0177904
828.192	0.0175646
828.270	0.0177156
828.348	0.0176340
828.426	0.0173603
828.504	0.0172576
828.582	0.0172712
828.660	0.0170768
828.738	0.0169774
828.817	0.0168959
828.895	0.0168099
828.973	0.0167149
829.051	0.0167401
829.129	0.0165636
829.207	0.0164156
829.285	0.0164058
829.363	0.0163129
829.442	0.0161731
829.520	0.0162429
829.598	0.0160961
829.676	0.0161143
829.754	0.0160646
829.832	0.0160011
829.910	0.0159922
829.988	0.0160425
830.067	0.0161063
830.145	0.0159705
830.223	0.0158591
830.301	0.0157462
830.379	0.0157414
830.457	0.0157678
830.535	0.0159180
830.613	0.0160353
830.692	0.0159229
830.770	0.0160121
830.848	0.0160564
830.926	0.0160827
831.004	0.0161651
831.082	0.0159994
831.160	0.0161806
831.238	0.0162020
831.317	0.0163922
831.395	0.0164494
831.473	0.0164341
831.551	0.0165108
831.629	0.0166319
831.707	0.0167614
831.785	0.0167867
831.863	0.0167977
831.942	0.0170750
832.020	0.0171430
832.098	0.0170628
832.176	0.0171733
832.254	0.0173431
832.332	0.0172216
832.410	0.0174352
832.488	0.0175729
832.567	0.0176360
832.645	0.0176755
832.723	0.0174918
832.801	0.0175584
832.879	0.0176089
832.957	0.0174628
833.035	0.0175430
833.113	0.0174725
833.192	0.0174898
833.270	0.0173935
833.348	0.0172024
833.426	0.0171585
833.504	0.0172744
833.582	0.0171243
833.660	0.0171202
833.738	0.0170264
833.817	0.0169378
833.895	0.0169660
833.973	0.0169447
834.051	0.0168459
834.129	0.0168636
834.207	0.0166590
834.285	0.0167024
834.363	0.0166689
834.442	0.0164993
834.520	0.0164819
834.598	0.0165007
834.676	0.0164491
834.754	0.0164494
834.832	0.0164738
834.910	0.0164207
834.988	0.0164120
835.067	0.0164740
835.145	0.0163626
835.223	0.0166100
835.301	0.0165731
835.379	0.0165723
835.457	0.0166100
835.535	0.0167462
835.613	0.0167931
835.692	0.0169720
835.770	0.0168208
835.848	0.0168973
835.926	0.0169375
836.004	0.0168948
836.082	0.0170663
836.160	0.0171236
836.238	0.0170438
836.317	0.0170336
836.395	0.0171072
836.473	0.0171737
836.551	0.0172663
836.629	0.0172292
836.707	0.0171477
836.785	0.0171295
836.863	0.0171344
836.942	0.0172607
837.020	0.0172218
837.098	0.0172788
837.176	0.0172569
837.254	0.0171861
837.332	0.0171676
837.410	0.0172245
837.488	0.0172058
837.567	0.0171568
837.645	0.0171728
837.723	0.0171887
837.801	0.0170142
837.879	0.0169643
837.957	0.0169704
838.035	0.0170206
838.113	0.0168436
838.192	0.0169078
838.270	0.0168112
838.348	0.0170889
838.426	0.0171233
838.504	0.0169588
838.582	0.0172002
838.660	0.0171058
838.738	0.0169402
838.817	0.0171381
838.895	0.0171661
838.973	0.0171432
839.051	0.0169593
839.129	0.0169867
839.207	0.0171050
839.285	0.0169562
839.363	0.0168913
839.442	0.0167844
839.520	0.0167746
839.598	0.0166850
839.676	0.0165005
839.754	0.0164606
839.832	0.0164235
839.910	0.0163131
839.988	0.0162283
840.067	0.0162022
840.145	0.0160837
840.223	0.0162209
840.301	0.0161313
840.379	0.0161128
840.457	0.0161387
840.535	0.0161978
840.613	0.0162725
840.692	0.0163126
840.770	0.0163649
840.848	0.0164583
840.926	0.0165639
841.004	0.0165099
841.082	0.0166243
841.160	0.0166348
841.238	0.0166876
841.317	0.0167603
841.395	0.0167066
841.473	0.0166566
841.551	0.0168354
841.629	0.0167519
841.707	0.0166620
841.785	0.0165865
841.863	0.0165956
841.942	0.0167298
842.020	0.0166653
842.098	0.0167504
842.176	0.0167496
842.254	0.0166727
842.332	0.0166239
842.410	0.0166920
842.488	0.0167455
842.567	0.0168033
842.645	0.0167987
842.723	0.0168816
842.801	0.0169122
842.879	0.0168588
842.957	0.0169484
843.035	0.0171564
843.113	0.0171971
843.192	0.0171711
843.270	0.0172408
843.348	0.0175452
843.426	0.0173878
843.504	0.0172497
843.582	0.0172839
843.660	0.0174318
843.738	0.0175519
843.817	0.0175114
843.895	0.0174508
843.973	0.0175657
844.051	0.0175343
844.129	0.0176154
844.207	0.0177468
844.285	0.0176788
844.363	0.0176701
844.442	0.0175735
844.520	0.0174629
844.598	0.0175462
844.676	0.0174545
844.754	0.0173727
844.832	0.0172610
844.910	0.0171981
844.988	0.0172628
845.067	0.0172566
845.145	0.0170951
845.223	0.0169995
845.301	0.0169594
845.379	0.0169299
845.457	0.0166055
845.535	0.0165884
845.613	0.0167372
845.692	0.0167410
845.770	0.0166655
845.848	0.0166689
845.926	0.0164125
846.004	0.0165366
846.082	0.0164942
846.160	0.0165422
846.238	0.0164204
846.317	0.0166068
846.395	0.0166241
846.473	0.0165156
846.551	0.0165164
846.629	0.0165667
846.707	0.0164166
846.785	0.0164224
846.863	0.0164639
846.942	0.0165108
847.020	0.0164615
847.098	0.0166206
847.176	0.0166447
847.254	0.0164288
847.332	0.0164837
847.410	0.0164780
847.488	0.0165234
847.567	0.0164487
847.645	0.0163895
847.723	0.0163148
847.801	0.0165318
847.879	0.0164069
847.957	0.0164157
848.035	0.0164223
848.113	0.0164420
848.192	0.0162952
848.270	0.0164197
848.348	0.0162282
848.426	0.0163078
848.504	0.0164261
848.582	0.0164883
848.660	0.0165260
848.738	0.0165202
848.817	0.0166403
848.895	0.0167056
848.973	0.0167225
849.051	0.0167570
849.129	0.0167628
849.207	0.0170185
849.285	0.0170168
849.363	0.0170531
849.442	0.0171880
849.520	0.0172630
849.598	0.0173564
849.676	0.0173863
849.754	0.0173740
849.832	0.0174576
849.910	0.0174941
849.988	0.0174357
850.067	0.0174223
850.145	0.0173937
850.223	0.0174119
850.301	0.0173939
850.379	0.0173625
850.457	0.0172700
850.535	0.0172547
850.613	0.0170555
850.692	0.0172944
850.770	0.0171325
850.848	0.0171066
850.926	0.0172315
851.004	0.0171539
851.082	0.0172443
851.160	0.0169162
851.238	0.0169643
851.317	0.0169917
851.395	0.0168450
851.473	0.0169576
851.551	0.0168914
851.629	0.0169152
851.707	0.0166914
851.785	0.0166965
851.863	0.0166971
851.942	0.0167770
852.020	0.0166893
852.098	0.0166457
852.176	0.0167080
852.254	0.0167468
852.332	0.0165129
852.410	0.0166387
852.488	0.0167164
852.567	0.0166288
852.645	0.0166756
852.723	0.0167219
852.801	0.0167824
852.879	0.0168041
852.957	0.0169173
853.035	0.0168261
853.113	0.0169608
853.192	0.0170287
853.270	0.0169682
853.348	0.0169717
853.426	0.0170016
853.504	0.0170233
853.582	0.0168802
853.660	0.0170029
853.738	0.0170621
853.817	0.0170893
853.895	0.0169997
853.973	0.0169277
854.051	0.0170397
854.129	0.0170782
854.207	0.0170360
854.285	0.0171703
854.363	0.0169289
854.442	0.0168958
854.520	0.0169228
854.598	0.0169946
854.676	0.0168069
854.754	0.0168153
854.832	0.0166389
854.910	0.0166318
854.988	0.0167258
855.067	0.0166502
855.145	0.0166577
855.223	0.0167641
855.301	0.0167387
855.379	0.0166553
855.457	0.0166805
855.535	0.0166606
855.613	0.0166345
855.692	0.0167284
855.770	0.0167499
855.848	0.0167522
855.926	0.0167841
856.004	0.0166297
856.082	0.0166476
856.160	0.0166976
856.238	0.0168169
856.317	0.0167431
856.395	0.0168343
856.473	0.0167801
856.551	0.0168126
856.629	0.0167363
856.707	0.0168096
856.785	0.0166314
856.863	0.0167807
856.942	0.0167280
857.020	0.0167025
857.098	0.0166678
857.176	0.0165435
857.254	0.0165617
857.332	0.0166727
857.410	0.0166682
857.488	0.0167611
857.567	0.0168152
857.645	0.0167567
857.723	0.0166499
857.801	0.0166913
857.879	0.0168921
857.957	0.0170184
858.035	0.0169162
858.113	0.0169875
858.192	0.0169064
858.270	0.0170327
858.348	0.0169685
858.426	0.0169671
858.504	0.0170427
858.582	0.0167725
858.660	0.0169342
858.738	0.0168247
858.817	0.0167757
858.895	0.0169254
858.973	0.0168111
859.051	0.0167646
859.129	0.0166842
859.207	0.0167584
859.285	0.0167880
859.363	0.0166521
859.442	0.0166533
859.520	0.0166497
859.598	0.0166214
859.676	0.0166708
859.754	0.0166974
859.832	0.0168605
859.910	0.0168411
859.988	0.0167969
860.067	0.0167346
860.145	0.0168569
860.223	0.0168373
860.301	0.0169296
860.379	0.0171161
860.457	0.0172408
860.535	0.0172553
860.613	0.0171799
860.692	0.0172210
860.770	0.0173314
860.848	0.0173521
860.926	0.0173859
861.004	0.0173016
861.082	0.0172943
861.160	0.0173771
861.238	0.0174208
861.317	0.0172752
861.395	0.0173318
861.473	0.0173618
861.551	0.0173553
861.629	0.0172171
861.707	0.0172797
861.785	0.0172533
861.863	0.0170355
861.942	0.0170931
862.020	0.0170273
862.098	0.0169978
862.176	0.0168436
862.254	0.0170532
862.332	0.0168731
862.410	0.0167828
862.488	0.0168258
862.567	0.0168918
862.645	0.0165856
862.723	0.0166132
862.801	0.0167453
862.879	0.0166962
862.957	0.0166373
863.035	0.0165888
863.113	0.0166398
863.192	0.0166175
863.270	0.0168163
863.348	0.0167705
863.426	0.0165401
863.504	0.0167007
863.582	0.0166398
863.660	0.0166260
863.738	0.0166647
863.817	0.0167240
863.895	0.0165138
863.973	0.0164092
864.051	0.0164819
864.129	0.0164722
864.207	0.0165118
864.285	0.0166447
864.363	0.0165354
864.442	0.0165663
864.520	0.0166152
864.598	0.0167574
864.676	0.0166575
864.754	0.0166518
864.832	0.0166225
864.910	0.0164735
864.988	0.0165136
865.067	0.0164639
865.145	0.0163704
865.223	0.0164091
865.301	0.0164513
865.379	0.0163926
865.457	0.0165642
865.535	0.0164209
865.613	0.0165115
865.692	0.0165974
865.770	0.0168404
865.848	0.0166319
865.926	0.0168401
866.004	0.0170035
866.082	0.0171056
866.160	0.0171574
866.238	0.0172378
866.317	0.0172826
866.395	0.0173085
866.473	0.0172157
866.551	0.0172290
866.629	0.0173371
866.707	0.0171461
866.785	0.0172156
866.863	0.0171964
866.942	0.0171806
867.020	0.0171371
867.098	0.0171536
867.176	0.0170963
867.254	0.0171188
867.332	0.0170535
867.410	0.0170865
867.488	0.0171398
867.567	0.0171930
867.645	0.0172157
867.723	0.0172231
867.801	0.0170981
867.879	0.0171909
867.957	0.0171775
868.035	0.0170954
868.113	0.0170198
868.192	0.0169891
868.270	0.0170331
868.348	0.0168284
868.426	0.0169271
868.504	0.0167866
868.582	0.0166100
868.660	0.0166331
868.738	0.0167396
868.817	0.0167947
868.895	0.0167097
868.973	0.0166943
869.051	0.0165707
869.129	0.0165735
869.207	0.0167181
869.285	0.0166586
869.363	0.0167204
869.442	0.0167429
869.520	0.0169417
869.598	0.0168175
869.676	0.0168314
869.754	0.0168404
869.832	0.0167999
869.910	0.0168776
869.988	0.0169431
870.067	0.0169250
870.145	0.0169990
870.223	0.0169804
870.301	0.0169968
870.379	0.0169676
870.457	0.0169619
870.535	0.0168565
870.613	0.0170406
870.692	0.0170620
870.770	0.0170752
870.848	0.0169064
870.926	0.0170217
871.004	0.0170287
871.082	0.0169538
871.160	0.0169955
871.238	0.0169986
871.317	0.0168708
871.395	0.0167050
871.473	0.0167362
871.551	0.0166966
871.629	0.0167428
871.707	0.0167287
871.785	0.0166290
871.863	0.0166909
871.942	0.0167561
872.020	0.0167425
872.098	0.0167491
872.176	0.0168732
872.254	0.0169064
872.332	0.0166962
872.410	0.0168087
872.488	0.0166742
872.567	0.0167409
872.645	0.0168215
872.723	0.0167162
872.801	0.0168799
872.879	0.0166811
872.957	0.0166183
873.035	0.0167489
873.113	0.0167546
873.192	0.0166505
873.270	0.0166636
873.348	0.0166451
873.426	0.0166972
873.504	0.0166960
873.582	0.0165504
873.660	0.0166187
873.738	0.0165435
873.817	0.0165756
873.895	0.0167119
873.973	0.0166959
874.051	0.0166106
874.129	0.0166913
874.207	0.0167509
874.285	0.0167049
874.363	0.0165787
874.442	0.0168797
874.520	0.0168596
874.598	0.0168353
874.676	0.0168977
874.754	0.0170361
874.832	0.0168900
874.910	0.0168539
874.988	0.0168578
875.067	0.0168558
875.145	0.0168108
875.223	0.0169095
875.301	0.0167323
875.379	0.0168091
875.457	0.0167677
875.535	0.0167782
875.613	0.0166972
875.692	0.0167069
875.770	0.0167851
875.848	0.0167424
875.926	0.0167115
876.004	0.0167742
876.082	0.0168006
876.160	0.0169302
876.238	0.0170451
876.317	0.0171147
876.395	0.0171724
876.473	0.0172126
876.551	0.0172538
876.629	0.0173692
876.707	0.0173477
876.785	0.0173655
876.863	0.0174656
876.942	0.0175675
877.020	0.0174234
877.098	0.0174935
877.176	0.0173298
877.254	0.0173640
877.332	0.0173651
877.410	0.0174449
877.488	0.0175294
877.567	0.0174003
877.645	0.0172983
877.723	0.0171556
877.801	0.0171695
877.879	0.0171643
877.957	0.0170060
878.035	0.0169434
878.113	0.0169020
878.192	0.0168185
878.270	0.0169489
878.348	0.0167625
878.426	0.0166506
878.504	0.0166713
878.582	0.0165550
878.660	0.0164848
878.738	0.0165539
878.817	0.0164704
878.895	0.0165015
878.973	0.0166048
879.051	0.0167766
879.129	0.0168320
879.207	0.0171970
879.285	0.0172760
879.363	0.0174935
879.442	0.0174665
879.520	0.0175344
879.598	0.0175454
879.676	0.0176212
879.754	0.0172722
879.832	0.0169794
879.910	0.0166351
879.988	0.0160538
880.067	0.0157035
880.145	0.0153537
880.223	0.0145701
880.301	0.0143585
880.379	0.0140789
880.457	0.0139716
880.535	0.0140866
880.613	0.0142561
880.692	0.0145606
880.770	0.0150496
880.848	0.0158530
880.926	0.0165564
881.004	0.0172790
881.082	0.0179646
881.160	0.0186545
881.238	0.0191861
881.317	0.0198096
881.395	0.0202864
881.473	0.0203447
881.551	0.0205581
881.629	0.0206626
881.707	0.0205648
881.785	0.0202856
881.863	0.0200194
881.942	0.0193840
882.020	0.0189068
882.098	0.0183653
882.176	0.0176276
882.254	0.0169420
882.332	0.0162756
882.410	0.0158112
882.488	0.0153275
882.567	0.0147360
882.645	0.0141470
882.723	0.0137649
882.801	0.0135913
882.879	0.0133928
882.957	0.0132525
883.035	0.0132525
883.113	0.0132893
883.192	0.0134811
883.270	0.0136923
883.348	0.0139760
883.426	0.0142084
883.504	0.0145750
883.582	0.0149065
883.660	0.0154527
883.738	0.0157710
883.817	0.0162578
883.895	0.0166759
883.973	0.0172202
884.051	0.0175872
884.129	0.0179227
884.207	0.0184112
884.285	0.0186724
884.363	0.0188807
884.442	0.0191642
884.520	0.0194334
884.598	0.0193603
884.676	0.0193660
884.754	0.0193272
884.832	0.0191995
884.910	0.0192020
884.988	0.0189984
885.067	0.0188399
885.145	0.0187199
885.223	0.0183670
885.301	0.0180228
885.379	0.0179198
885.457	0.0176958
885.535	0.0176125
885.613	0.0172866
885.692	0.0170647
885.770	0.0167822
885.848	0.0167194
885.926	0.0167421
886.004	0.0167326
886.082	0.0166058
886.160	0.0164920
886.238	0.0165996
886.317	0.0167381
886.395	0.0166469
886.473	0.0168359
886.551	0.0170087
886.629	0.0169385
886.707	0.0168749
886.785	0.0169247
886.863	0.0169327
886.942	0.0166870
887.020	0.0165701
887.098	0.0165584
887.176	0.0164165
887.254	0.0161960
887.332	0.0160480
887.410	0.0158964
887.488	0.0157144
887.567	0.0155931
887.645	0.0155415
887.723	0.0155141
887.801	0.0156578
887.879	0.0155946
887.957	0.0157133
888.035	0.0157150
888.113	0.0158758
888.192	0.0159366
888.270	0.0162327
888.348	0.0162630
888.426	0.0165351
888.504	0.0167241
888.582	0.0169788
888.660	0.0169060
888.738	0.0171038
888.817	0.0172730
888.895	0.0172935
888.973	0.0173991
889.051	0.0174554
889.129	0.0173252
889.207	0.0175262
889.285	0.0173391
889.363	0.0173506
889.442	0.0173859
889.520	0.0171717
889.598	0.0171751
889.676	0.0171326
889.754	0.0170257
889.832	0.0169958
889.910	0.0169505
889.988	0.0169495
890.067	0.0170837
890.145	0.0169175
890.223	0.0169658
890.301	0.0169852
890.379	0.0170116
890.457	0.0170419
890.535	0.0170381
890.613	0.0170205
890.692	0.0169042
890.770	0.0167309
890.848	0.0167773
890.926	0.0167507
891.004	0.0164716
891.082	0.0165230
891.160	0.0163644
891.238	0.0161632
891.317	0.0161898
891.395	0.0161816
891.473	0.0160994
891.551	0.0160979
891.629	0.0160284
891.707	0.0161430
891.785	0.0159293
891.863	0.0161608
891.942	0.0160847
892.020	0.0161909
892.098	0.0162235
892.176	0.0163277
892.254	0.0164508
892.332	0.0165253
892.410	0.0167336
892.488	0.0169006
892.567	0.0166908
892.645	0.0167996
892.723	0.0170414
892.801	0.0167731
892.879	0.0168814
892.957	0.0170464
893.035	0.0168926
893.113	0.0168465
893.192	0.0169205
893.270	0.0170150
893.348	0.0168799
893.426	0.0170365
893.504	0.0170695
893.582	0.0170370
893.660	0.0171517
893.738	0.0171883
893.817	0.0173277
893.895	0.0174342
893.973	0.0174666
894.051	0.0174748
894.129	0.0174593
894.207	0.0176305
894.285	0.0177801
894.363	0.0177650
894.442	0.0177887
894.520	0.0178574
894.598	0.0177960
894.676	0.0180273
894.754	0.0180386
894.832	0.0179252
894.910	0.0177860
894.988	0.0177504
895.067	0.0177744
895.145	0.0178384
895.223	0.0179371
895.301	0.0179044
895.379	0.0181371
895.457	0.0180204
895.535	0.0181164
895.613	0.0180082
895.692	0.0180087
895.770	0.0178210
895.848	0.0175362
895.926	0.0174323
896.004	0.0171828
896.082	0.0169822
896.160	0.0167002
896.238	0.0166579
896.317	0.0164151
896.395	0.0162778
896.473	0.0162115
896.551	0.0158390
896.629	0.0153066
896.707	0.0148108
896.785	0.0140529
896.863	0.0135896
896.942	0.0130115
897.020	0.0124333
897.098	0.0120422
897.176	0.0119347
897.254	0.0119997
897.332	0.0121235
897.410	0.0126941
897.488	0.0130912
897.567	0.0140458
897.645	0.0150341
897.723	0.0159247
897.801	0.0170240
897.879	0.0180640
897.957	0.0189500
898.035	0.0198206
898.113	0.0206719
898.192	0.0213319
898.270	0.0218725
898.348	0.0221591
898.426	0.0223422
898.504	0.0223374
898.582	0.0221656
898.660	0.0217306
898.738	0.0209195
898.817	0.0203561
898.895	0.0193674
898.973	0.0185717
899.051	0.0174904
899.129	0.0165757
899.207	0.0156371
899.285	0.0149052
899.363	0.0140903
899.442	0.0136092
899.520	0.0132318
899.598	0.0130609
899.676	0.0127433
899.754	0.0125068
899.832	0.0124773
899.910	0.0125372
899.988	0.0125855
900.067	0.0126743
900.145	0.0127437
900.223	0.0128593
900.301	0.0129589
900.379	0.0134032
900.457	0.0134998
900.535	0.0137530
900.613	0.0140773
900.692	0.0144924
900.770	0.0146858
900.848	0.0149062
900.926	0.0154687
901.004	0.0160733
901.082	0.0164118
901.160	0.0167918
901.238	0.0173874
901.317	0.0180010
901.395	0.0186249
901.473	0.0191788
901.551	0.0196870
901.629	0.0204555
901.707	0.0210360
901.785	0.0217442
901.863	0.0222337
901.942	0.0227191
902.020	0.0230186
902.098	0.0230738
902.176	0.0235492
902.254	0.0235973
902.332	0.0236495
902.410	0.0233499
902.488	0.0231553
902.567	0.0226761
902.645	0.0223291
902.723	0.0219616
902.801	0.0215436
902.879	0.0208868
902.957	0.0202498
903.035	0.0196696
903.113	0.0190022
903.192	0.0183923
903.270	0.0177454
903.348	0.0170403
903.426	0.0164418
903.504	0.0159531
903.582	0.0151514
903.660	0.0146052
903.738	0.0141475
903.817	0.0137038
903.895	0.0132499
903.973	0.0129192
904.051	0.0125890
904.129	0.0125535
904.207	0.0124351
904.285	0.0121470
904.363	0.0120726
904.442	0.0119190
904.520	0.0120570
904.598	0.0117924
904.676	0.0117530
904.754	0.0115743
904.832	0.0115579
904.910	0.0116000
904.988	0.0115808
905.067	0.0117082
905.145	0.0119473
905.223	0.0120287
905.301	0.0123364
905.379	0.0124062
905.457	0.0125947
905.535	0.0126360
905.613	0.0130509
905.692	0.0133791
905.770	0.0136704
905.848	0.0141040
905.926	0.0145329
906.004	0.0148571
906.082	0.0153027
906.160	0.0158530
906.238	0.0162306
906.317	0.0167725
906.395	0.0172572
906.473	0.0177426
906.551	0.0181617
906.629	0.0186781
906.707	0.0191358
906.785	0.0195731
906.863	0.0200618
906.942	0.0201402
907.020	0.0205463
907.098	0.0208627
907.176	0.0209583
907.254	0.0211858
907.332	0.0211336
907.410	0.0214295
907.488	0.0214133
907.567	0.0215237
907.645	0.0213897
907.723	0.0213725
907.801	0.0214401
907.879	0.0213789
907.957	0.0214024
908.035	0.0214122
908.113	0.0213207
908.192	0.0212051
908.270	0.0212868
908.348	0.0211050
908.426	0.0209124
908.504	0.0208436
908.582	0.0208055
908.660	0.0204741
908.738	0.0200943
908.817	0.0198901
908.895	0.0196004
908.973	0.0191594
909.051	0.0187724
909.129	0.0183533
909.207	0.0177697
909.285	0.0173341
909.363	0.0167751
909.442	0.0162494
909.520	0.0158833
909.598	0.0152840
909.676	0.0146779
909.754	0.0145578
909.832	0.0141933
909.910	0.0137513
909.988	0.0135035
910.067	0.0133391
910.145	0.0130750
910.223	0.0129758
910.301	0.0128778
910.379	0.0127433
910.457	0.0127693
910.535	0.0128127
910.613	0.0128284
910.692	0.0129656
910.770	0.0129546
910.848	0.0130323
910.926	0.0130198
911.004	0.0132192
911.082	0.0133056
911.160	0.0135266
911.238	0.0137047
911.317	0.0137717
911.395	0.0141616
911.473	0.0142748
911.551	0.0143134
911.629	0.0145147
911.707	0.0148879
911.785	0.0149818
911.863	0.0152386
911.942	0.0153845
912.020	0.0155247
912.098	0.0158762
912.176	0.0159460
912.254	0.0161728
912.332	0.0164612
912.410	0.0166564
912.488	0.0168879
912.567	0.0170695
912.645	0.0173674
912.723	0.0174948
912.801	0.0178461
912.879	0.0178255
912.957	0.0181774
913.035	0.0183778
913.113	0.0185226
913.192	0.0187614
913.270	0.0191009
913.348	0.0191708
913.426	0.0193588
913.504	0.0192957
913.582	0.0194830
913.660	0.0194719
913.738	0.0195480
913.817	0.0194590
913.895	0.0194093
913.973	0.0194775
914.051	0.0193903
914.129	0.0192194
914.207	0.0191245
914.285	0.0191316
914.363	0.0190009
914.442	0.0188425
914.520	0.0187058
914.598	0.0185201
914.676	0.0184518
914.754	0.0184724
914.832	0.0183398
914.910	0.0181868
914.988	0.0182542
915.067	0.0183446
915.145	0.0180766
915.223	0.0179881
915.301	0.0178084
915.379	0.0177251
915.457	0.0175893
915.535	0.0173150
915.613	0.0170870
915.692	0.0170068
915.770	0.0166798
915.848	0.0165503
915.926	0.0164625
916.004	0.0162700
916.082	0.0160451
916.160	0.0158305
916.238	0.0158768
916.317	0.0156047
916.395	0.0155780
916.473	0.0155527
916.551	0.0155083
916.629	0.0156596
916.707	0.0156695
916.785	0.0157903
916.863	0.0158334
916.942	0.0158619
917.020	0.0159179
917.098	0.0160098
917.176	0.0160662
917.254	0.0160577
917.332	0.0161832
917.410	0.0162279
917.488	0.0163007
917.567	0.0161308
917.645	0.0162738
917.723	0.0162346
917.801	0.0162303
917.879	0.0161613
917.957	0.0161461
918.035	0.0161356
918.113	0.0161336
918.192	0.0161269
918.270	0.0160847
918.348	0.0161541
918.426	0.0161792
918.504	0.0161337
918.582	0.0162523
918.660	0.0162173
918.738	0.0162720
918.817	0.0161954
918.895	0.0162497
918.973	0.0162843
919.051	0.0161916
919.129	0.0161887
919.207	0.0163377
919.285	0.0163783
919.363	0.0162607
919.442	0.0164677
919.520	0.0163007
919.598	0.0163960
919.676	0.0164457
919.754	0.0163918
919.832	0.0164486
919.910	0.0164957
