06/01/2022	17:44:02	Ver.	4.1	UNKNOWN
Optical Delay	539.986900	Delta X		0.078125	Sweeps	1	Scan Rate	0/0
Coordinates	Axis 1	NaN	Axis 2	NaN	Axis 3	NaN	Axis 4	NaN	Axis 5	NaN	Axis 6	0.000000
TX Power	0.000000	RX Power	0.000000

539.987	0.0166016
540.065	0.0164809
540.143	0.0164465
540.221	0.0166057
540.299	0.0165105
540.378	0.0163867
540.456	0.0165518
540.534	0.0165723
540.612	0.0166554
540.690	0.0162712
540.768	0.0164658
540.846	0.0164906
540.924	0.0165248
541.003	0.0166752
541.081	0.0166136
541.159	0.0165395
541.237	0.0166766
541.315	0.0166295
541.393	0.0165024
541.471	0.0165361
541.549	0.0165392
541.628	0.0165431
541.706	0.0165840
541.784	0.0166135
541.862	0.0164668
541.940	0.0163908
542.018	0.0165482
542.096	0.0166181
542.174	0.0165589
542.253	0.0166999
542.331	0.0165227
542.409	0.0164367
542.487	0.0164259
542.565	0.0165774
542.643	0.0165898
542.721	0.0165698
542.799	0.0165810
542.878	0.0166772
542.956	0.0166029
543.034	0.0165166
543.112	0.0166497
543.190	0.0167315
543.268	0.0165798
543.346	0.0164831
543.424	0.0165076
543.503	0.0166292
543.581	0.0165629
543.659	0.0166356
543.737	0.0165321
543.815	0.0164957
543.893	0.0165215
543.971	0.0165287
544.049	0.0165625
544.128	0.0166607
544.206	0.0166189
544.284	0.0165683
544.362	0.0165028
544.440	0.0165348
544.518	0.0166295
544.596	0.0166496
544.674	0.0164301
544.753	0.0165765
544.831	0.0165905
544.909	0.0165069
544.987	0.0166319
545.065	0.0165078
545.143	0.0165073
545.221	0.0166530
545.299	0.0167022
545.378	0.0164689
545.456	0.0165678
545.534	0.0163577
545.612	0.0165107
545.690	0.0164468
545.768	0.0165325
545.846	0.0166612
545.924	0.0164976
546.003	0.0164316
546.081	0.0165288
546.159	0.0165922
546.237	0.0165778
546.315	0.0164701
546.393	0.0165192
546.471	0.0166020
546.549	0.0164770
546.628	0.0165614
546.706	0.0166343
546.784	0.0165523
546.862	0.0166132
546.940	0.0166924
547.018	0.0165763
547.096	0.0166689
547.174	0.0166418
547.253	0.0166804
547.331	0.0166593
547.409	0.0165785
547.487	0.0166214
547.565	0.0166908
547.643	0.0167197
547.721	0.0166382
547.799	0.0165939
547.878	0.0166895
547.956	0.0167239
548.034	0.0167223
548.112	0.0166570
548.190	0.0166471
548.268	0.0167432
548.346	0.0167897
548.424	0.0167592
548.503	0.0167360
548.581	0.0165372
548.659	0.0168638
548.737	0.0167937
548.815	0.0168178
548.893	0.0167503
548.971	0.0167514
549.049	0.0167435
549.128	0.0168065
549.206	0.0167426
549.284	0.0166981
549.362	0.0167284
549.440	0.0167034
549.518	0.0168572
549.596	0.0168699
549.674	0.0167384
549.753	0.0167873
549.831	0.0167998
549.909	0.0167522
549.987	0.0168509
550.065	0.0167539
550.143	0.0166949
550.221	0.0168317
550.299	0.0168394
550.378	0.0167542
550.456	0.0168199
550.534	0.0166707
550.612	0.0167692
550.690	0.0167166
550.768	0.0166327
550.846	0.0167329
550.924	0.0167856
551.003	0.0167567
551.081	0.0166469
551.159	0.0167419
551.237	0.0167503
551.315	0.0166434
551.393	0.0168311
551.471	0.0166839
551.549	0.0167087
551.628	0.0167639
551.706	0.0168567
551.784	0.0167840
551.862	0.0167080
551.940	0.0166314
552.018	0.0165965
552.096	0.0165987
552.174	0.0166463
552.253	0.0167896
552.331	0.0165731
552.409	0.0166845
552.487	0.0166013
552.565	0.0166938
552.643	0.0166724
552.721	0.0166256
552.799	0.0165813
552.878	0.0166747
552.956	0.0165406
553.034	0.0165109
553.112	0.0166401
553.190	0.0165730
553.268	0.0165957
553.346	0.0167265
553.424	0.0166252
553.503	0.0166158
553.581	0.0165679
553.659	0.0166560
553.737	0.0166924
553.815	0.0165462
553.893	0.0164815
553.971	0.0165863
554.049	0.0165977
554.128	0.0167290
554.206	0.0165639
554.284	0.0165760
554.362	0.0166045
554.440	0.0165286
554.518	0.0165496
554.596	0.0167313
554.674	0.0166241
554.753	0.0167965
554.831	0.0166935
554.909	0.0166936
554.987	0.0166598
555.065	0.0164629
555.143	0.0166032
555.221	0.0165473
555.299	0.0165177
555.378	0.0165409
555.456	0.0166069
555.534	0.0167138
555.612	0.0166939
555.690	0.0165595
555.768	0.0164429
555.846	0.0164849
555.924	0.0165379
556.003	0.0164982
556.081	0.0166072
556.159	0.0165614
556.237	0.0164851
556.315	0.0165868
556.393	0.0165952
556.471	0.0166225
556.549	0.0164994
556.628	0.0164284
556.706	0.0166478
556.784	0.0166649
556.862	0.0165551
556.940	0.0166407
557.018	0.0164548
557.096	0.0165231
557.174	0.0165300
557.253	0.0166563
557.331	0.0164548
557.409	0.0165469
557.487	0.0167286
557.565	0.0166372
557.643	0.0167288
557.721	0.0165005
557.799	0.0165632
557.878	0.0166290
557.956	0.0166228
558.034	0.0166792
558.112	0.0166711
558.190	0.0167255
558.268	0.0166647
558.346	0.0167036
558.424	0.0166338
558.503	0.0165935
558.581	0.0167108
558.659	0.0166203
558.737	0.0168446
558.815	0.0167007
558.893	0.0167455
558.971	0.0167294
559.049	0.0167285
559.128	0.0167037
559.206	0.0166550
559.284	0.0168118
559.362	0.0168365
559.440	0.0167782
559.518	0.0167326
559.596	0.0167734
559.674	0.0167754
559.753	0.0168647
559.831	0.0166947
559.909	0.0166038
559.987	0.0168171
560.065	0.0168096
560.143	0.0167221
560.221	0.0168037
560.299	0.0167754
560.378	0.0166816
560.456	0.0167191
560.534	0.0167641
560.612	0.0166072
560.690	0.0166187
560.768	0.0165427
560.846	0.0167138
560.924	0.0165594
561.003	0.0165828
561.081	0.0165795
561.159	0.0166482
561.237	0.0166546
561.315	0.0166109
561.393	0.0166467
561.471	0.0165054
561.549	0.0167090
561.628	0.0165252
561.706	0.0166135
561.784	0.0167880
561.862	0.0166391
561.940	0.0166642
562.018	0.0165193
562.096	0.0166073
562.174	0.0166254
562.253	0.0165598
562.331	0.0166470
562.409	0.0166132
562.487	0.0165704
562.565	0.0166800
562.643	0.0165842
562.721	0.0165734
562.799	0.0165694
562.878	0.0167131
562.956	0.0164606
563.034	0.0163992
563.112	0.0164887
563.190	0.0165817
563.268	0.0165909
563.346	0.0166782
563.424	0.0164926
563.503	0.0166581
563.581	0.0165729
563.659	0.0165733
563.737	0.0164797
563.815	0.0166296
563.893	0.0164792
563.971	0.0166055
564.049	0.0165813
564.128	0.0164440
564.206	0.0166536
564.284	0.0166171
564.362	0.0166209
564.440	0.0166558
564.518	0.0165533
564.596	0.0165979
564.674	0.0165587
564.753	0.0165779
564.831	0.0167021
564.909	0.0165755
564.987	0.0166076
565.065	0.0166456
565.143	0.0164819
565.221	0.0166120
565.299	0.0167554
565.378	0.0166365
565.456	0.0166414
565.534	0.0167402
565.612	0.0165942
565.690	0.0164392
565.768	0.0164808
565.846	0.0164632
565.924	0.0165183
566.003	0.0164616
566.081	0.0165734
566.159	0.0165672
566.237	0.0164384
566.315	0.0163405
566.393	0.0164754
566.471	0.0164709
566.549	0.0164898
566.628	0.0165061
566.706	0.0164413
566.784	0.0165533
566.862	0.0163811
566.940	0.0164249
567.018	0.0165163
567.096	0.0164325
567.174	0.0164194
567.253	0.0164733
567.331	0.0163473
567.409	0.0164533
567.487	0.0163940
567.565	0.0164454
567.643	0.0164745
567.721	0.0164865
567.799	0.0165227
567.878	0.0164131
567.956	0.0162656
568.034	0.0166236
568.112	0.0164252
568.190	0.0165184
568.268	0.0166226
568.346	0.0163079
568.424	0.0164079
568.503	0.0164537
568.581	0.0162851
568.659	0.0166011
568.737	0.0165739
568.815	0.0164877
568.893	0.0164146
568.971	0.0165623
569.049	0.0165969
569.128	0.0164890
569.206	0.0164194
569.284	0.0166203
569.362	0.0165767
569.440	0.0165186
569.518	0.0166039
569.596	0.0165684
569.674	0.0165680
569.753	0.0166770
569.831	0.0165675
569.909	0.0166648
569.987	0.0165975
570.065	0.0165651
570.143	0.0164780
570.221	0.0167570
570.299	0.0165292
570.378	0.0165329
570.456	0.0166454
570.534	0.0166013
570.612	0.0165220
570.690	0.0165611
570.768	0.0165681
570.846	0.0165472
570.924	0.0166698
571.003	0.0165280
571.081	0.0165443
571.159	0.0166452
571.237	0.0165936
571.315	0.0164256
571.393	0.0166241
571.471	0.0165672
571.549	0.0166085
571.628	0.0166600
571.706	0.0165896
571.784	0.0165378
571.862	0.0165269
571.940	0.0165411
572.018	0.0167310
572.096	0.0167175
572.174	0.0167558
572.253	0.0166399
572.331	0.0165196
572.409	0.0165701
572.487	0.0166484
572.565	0.0164522
572.643	0.0166708
572.721	0.0167085
572.799	0.0165688
572.878	0.0165818
572.956	0.0166388
573.034	0.0165971
573.112	0.0165433
573.190	0.0165249
573.268	0.0165385
573.346	0.0166145
573.424	0.0166861
573.503	0.0165639
573.581	0.0165530
573.659	0.0165888
573.737	0.0166375
573.815	0.0165629
573.893	0.0166140
573.971	0.0166244
574.049	0.0166989
574.128	0.0166615
574.206	0.0167553
574.284	0.0166319
574.362	0.0165800
574.440	0.0166263
574.518	0.0167142
574.596	0.0167361
574.674	0.0166364
574.753	0.0165836
574.831	0.0165756
574.909	0.0167478
574.987	0.0165524
575.065	0.0166650
575.143	0.0167023
575.221	0.0165867
575.299	0.0165259
575.378	0.0165365
575.456	0.0165884
575.534	0.0165308
575.612	0.0166448
575.690	0.0166252
575.768	0.0165101
575.846	0.0165514
575.924	0.0165673
576.003	0.0164025
576.081	0.0165788
576.159	0.0166405
576.237	0.0165083
576.315	0.0166584
576.393	0.0166182
576.471	0.0166037
576.549	0.0166093
576.628	0.0165593
576.706	0.0166186
576.784	0.0166212
576.862	0.0167234
576.940	0.0165704
577.018	0.0165788
577.096	0.0166788
577.174	0.0166265
577.253	0.0166035
577.331	0.0166316
577.409	0.0165273
577.487	0.0166803
577.565	0.0166147
577.643	0.0165100
577.721	0.0165372
577.799	0.0166573
577.878	0.0164486
577.956	0.0164577
578.034	0.0164922
578.112	0.0164544
578.190	0.0165474
578.268	0.0165017
578.346	0.0165236
578.424	0.0164774
578.503	0.0164649
578.581	0.0164507
578.659	0.0164692
578.737	0.0165846
578.815	0.0165923
578.893	0.0164722
578.971	0.0164375
579.049	0.0165254
579.128	0.0163876
579.206	0.0163914
579.284	0.0164457
579.362	0.0164406
579.440	0.0164069
579.518	0.0164738
579.596	0.0164979
579.674	0.0164857
579.753	0.0165346
579.831	0.0164782
579.909	0.0165231
579.987	0.0163716
580.065	0.0164436
580.143	0.0165733
580.221	0.0165254
580.299	0.0164579
580.378	0.0163886
580.456	0.0166139
580.534	0.0166229
580.612	0.0164088
580.690	0.0164259
580.768	0.0165723
580.846	0.0165990
580.924	0.0165241
581.003	0.0165961
581.081	0.0166058
581.159	0.0166196
581.237	0.0164708
581.315	0.0166210
581.393	0.0165212
581.471	0.0166319
581.549	0.0165468
581.628	0.0165777
581.706	0.0165751
581.784	0.0166177
581.862	0.0166579
581.940	0.0166348
582.018	0.0164507
582.096	0.0165112
582.174	0.0165462
582.253	0.0164706
582.331	0.0164628
582.409	0.0165900
582.487	0.0164788
582.565	0.0165633
582.643	0.0164617
582.721	0.0163491
582.799	0.0164272
582.878	0.0164238
582.956	0.0164003
583.034	0.0162878
583.112	0.0163972
583.190	0.0162813
583.268	0.0164593
583.346	0.0164248
583.424	0.0161771
583.503	0.0164410
583.581	0.0162345
583.659	0.0162946
583.737	0.0162959
583.815	0.0163870
583.893	0.0162750
583.971	0.0163300
584.049	0.0164014
584.128	0.0164086
584.206	0.0163477
584.284	0.0165551
584.362	0.0165131
584.440	0.0165476
584.518	0.0165544
584.596	0.0164990
584.674	0.0165871
584.753	0.0165268
584.831	0.0165427
584.909	0.0166795
584.987	0.0165346
585.065	0.0165185
585.143	0.0165962
585.221	0.0166382
585.299	0.0166366
585.378	0.0166248
585.456	0.0166525
585.534	0.0166935
585.612	0.0167323
585.690	0.0167513
585.768	0.0167485
585.846	0.0166646
585.924	0.0167586
586.003	0.0168495
586.081	0.0168230
586.159	0.0167876
586.237	0.0170370
586.315	0.0169814
586.393	0.0170997
586.471	0.0169106
586.549	0.0171851
586.628	0.0170184
586.706	0.0170317
586.784	0.0168646
586.862	0.0168561
586.940	0.0169290
587.018	0.0168396
587.096	0.0168249
587.174	0.0167511
587.253	0.0167488
587.331	0.0168099
587.409	0.0167673
587.487	0.0167430
587.565	0.0167274
587.643	0.0167547
587.721	0.0168131
587.799	0.0167683
587.878	0.0167178
587.956	0.0168615
588.034	0.0169537
588.112	0.0167838
588.190	0.0167332
588.268	0.0166212
588.346	0.0166989
588.424	0.0167326
588.503	0.0166010
588.581	0.0166431
588.659	0.0167460
588.737	0.0165747
588.815	0.0165569
588.893	0.0165543
588.971	0.0165069
589.049	0.0165907
589.128	0.0165056
589.206	0.0165829
589.284	0.0166375
589.362	0.0165688
589.440	0.0165533
589.518	0.0164933
589.596	0.0165237
589.674	0.0164606
589.753	0.0164435
589.831	0.0163032
589.909	0.0163964
589.987	0.0164611
590.065	0.0163119
590.143	0.0164467
590.221	0.0164397
590.299	0.0162973
590.378	0.0162931
590.456	0.0163973
590.534	0.0164439
590.612	0.0163754
590.690	0.0163444
590.768	0.0163622
590.846	0.0163531
590.924	0.0164584
591.003	0.0164506
591.081	0.0164969
591.159	0.0164661
591.237	0.0164104
591.315	0.0164455
591.393	0.0164844
591.471	0.0164477
591.549	0.0165597
591.628	0.0164375
591.706	0.0163936
591.784	0.0165409
591.862	0.0166499
591.940	0.0166132
592.018	0.0166122
592.096	0.0166524
592.174	0.0165211
592.253	0.0164944
592.331	0.0165592
592.409	0.0164302
592.487	0.0165443
592.565	0.0165157
592.643	0.0165733
592.721	0.0165037
592.799	0.0164403
592.878	0.0164259
592.956	0.0163440
593.034	0.0162881
593.112	0.0162815
593.190	0.0162250
593.268	0.0162525
593.346	0.0162051
593.424	0.0161471
593.503	0.0161103
593.581	0.0161025
593.659	0.0161348
593.737	0.0160964
593.815	0.0160475
593.893	0.0160995
593.971	0.0160957
594.049	0.0163358
594.128	0.0162580
594.206	0.0162814
594.284	0.0163238
594.362	0.0163368
594.440	0.0161569
594.518	0.0163258
594.596	0.0162616
594.674	0.0164296
594.753	0.0162852
594.831	0.0162336
594.909	0.0162935
594.987	0.0162636
595.065	0.0161507
595.143	0.0160825
595.221	0.0160953
595.299	0.0161482
595.378	0.0162158
595.456	0.0163387
595.534	0.0164461
595.612	0.0163679
595.690	0.0164490
595.768	0.0166193
595.846	0.0166267
595.924	0.0166942
596.003	0.0167860
596.081	0.0168584
596.159	0.0168178
596.237	0.0170724
596.315	0.0169560
596.393	0.0168267
596.471	0.0167867
596.549	0.0168975
596.628	0.0166048
596.706	0.0165562
596.784	0.0165782
596.862	0.0163673
596.940	0.0161893
597.018	0.0161125
597.096	0.0159317
597.174	0.0159630
597.253	0.0158501
597.331	0.0156767
597.409	0.0157945
597.487	0.0159320
597.565	0.0158492
597.643	0.0158446
597.721	0.0159614
597.799	0.0161055
597.878	0.0164973
597.956	0.0166698
598.034	0.0166430
598.112	0.0169075
598.190	0.0170561
598.268	0.0172440
598.346	0.0174285
598.424	0.0175255
598.503	0.0177479
598.581	0.0177533
598.659	0.0177466
598.737	0.0176601
598.815	0.0175906
598.893	0.0176463
598.971	0.0173942
599.049	0.0171975
599.128	0.0169968
599.206	0.0167885
599.284	0.0166194
599.362	0.0162704
599.440	0.0160968
599.518	0.0159441
599.596	0.0157389
599.674	0.0154670
599.753	0.0153340
599.831	0.0153873
599.909	0.0151967
599.987	0.0151562
600.065	0.0153112
600.143	0.0153469
600.221	0.0152429
600.299	0.0155598
600.378	0.0157379
600.456	0.0157863
600.534	0.0158886
600.612	0.0159300
600.690	0.0162287
600.768	0.0164408
600.846	0.0165088
600.924	0.0168275
601.003	0.0168490
601.081	0.0170384
601.159	0.0171915
601.237	0.0171471
601.315	0.0173920
601.393	0.0173569
601.471	0.0174834
601.549	0.0176130
601.628	0.0176272
601.706	0.0177016
601.784	0.0177225
601.862	0.0177271
601.940	0.0177579
602.018	0.0178387
602.096	0.0178291
602.174	0.0177315
602.253	0.0176052
602.331	0.0175072
602.409	0.0174331
602.487	0.0171747
602.565	0.0171240
602.643	0.0169904
602.721	0.0168561
602.799	0.0166321
602.878	0.0164426
602.956	0.0161868
603.034	0.0159739
603.112	0.0156199
603.190	0.0155882
603.268	0.0152490
603.346	0.0150485
603.424	0.0149929
603.503	0.0150842
603.581	0.0148415
603.659	0.0149234
603.737	0.0149030
603.815	0.0149720
603.893	0.0151385
603.971	0.0154266
604.049	0.0155148
604.128	0.0156661
604.206	0.0159954
604.284	0.0162781
604.362	0.0163997
604.440	0.0165142
604.518	0.0168111
604.596	0.0169231
604.674	0.0170737
604.753	0.0172703
604.831	0.0174206
604.909	0.0176344
604.987	0.0176071
605.065	0.0177385
605.143	0.0178674
605.221	0.0180633
605.299	0.0180260
605.378	0.0181702
605.456	0.0182461
605.534	0.0181955
605.612	0.0181709
605.690	0.0180324
605.768	0.0181460
605.846	0.0180989
605.924	0.0178989
606.003	0.0177331
606.081	0.0175697
606.159	0.0174397
606.237	0.0172718
606.315	0.0169887
606.393	0.0169534
606.471	0.0166318
606.549	0.0162464
606.628	0.0163428
606.706	0.0161951
606.784	0.0160757
606.862	0.0158034
606.940	0.0156397
607.018	0.0155312
607.096	0.0155190
607.174	0.0153326
607.253	0.0153217
607.331	0.0151904
607.409	0.0151658
607.487	0.0151528
607.565	0.0150598
607.643	0.0151022
607.721	0.0150298
607.799	0.0152409
607.878	0.0152586
607.956	0.0154252
608.034	0.0153775
608.112	0.0155055
608.190	0.0158274
608.268	0.0160194
608.346	0.0162039
608.424	0.0162453
608.503	0.0165392
608.581	0.0167326
608.659	0.0169235
608.737	0.0171327
608.815	0.0174892
608.893	0.0175478
608.971	0.0177382
609.049	0.0180131
609.128	0.0180546
609.206	0.0180543
609.284	0.0182391
609.362	0.0183516
609.440	0.0184155
609.518	0.0182806
609.596	0.0183981
609.674	0.0182672
609.753	0.0179955
609.831	0.0180182
609.909	0.0178785
609.987	0.0177189
610.065	0.0175658
610.143	0.0174076
610.221	0.0173098
610.299	0.0172385
610.378	0.0170428
610.456	0.0169660
610.534	0.0169485
610.612	0.0168465
610.690	0.0167236
610.768	0.0168128
610.846	0.0167532
610.924	0.0167095
611.003	0.0165492
611.081	0.0163710
611.159	0.0164319
611.237	0.0162744
611.315	0.0162070
611.393	0.0160466
611.471	0.0159186
611.549	0.0158636
611.628	0.0156838
611.706	0.0156339
611.784	0.0153473
611.862	0.0151586
611.940	0.0151391
612.018	0.0150974
612.096	0.0149570
612.174	0.0147984
612.253	0.0146602
612.331	0.0145206
612.409	0.0147078
612.487	0.0143954
612.565	0.0144770
612.643	0.0145563
612.721	0.0144839
612.799	0.0144263
612.878	0.0145666
612.956	0.0147781
613.034	0.0151310
613.112	0.0152212
613.190	0.0154723
613.268	0.0157520
613.346	0.0160547
613.424	0.0164387
613.503	0.0168974
613.581	0.0170472
613.659	0.0174083
613.737	0.0177084
613.815	0.0181445
613.893	0.0183067
613.971	0.0184463
614.049	0.0188491
614.128	0.0190844
614.206	0.0191432
614.284	0.0193233
614.362	0.0194860
614.440	0.0194283
614.518	0.0195656
614.596	0.0194466
614.674	0.0195303
614.753	0.0194811
614.831	0.0192432
614.909	0.0191345
614.987	0.0189150
615.065	0.0187212
615.143	0.0183031
615.221	0.0180621
615.299	0.0175571
615.378	0.0169591
615.456	0.0164919
615.534	0.0160658
615.612	0.0153880
615.690	0.0147536
615.768	0.0143185
615.846	0.0139144
615.924	0.0134879
616.003	0.0132343
616.081	0.0130219
616.159	0.0126250
616.237	0.0124821
616.315	0.0125332
616.393	0.0127029
616.471	0.0126111
616.549	0.0129346
616.628	0.0131506
616.706	0.0134520
616.784	0.0135875
616.862	0.0140941
616.940	0.0145552
617.018	0.0149430
617.096	0.0153526
617.174	0.0159054
617.253	0.0164443
617.331	0.0167822
617.409	0.0172844
617.487	0.0176590
617.565	0.0181108
617.643	0.0185841
617.721	0.0188706
617.799	0.0192868
617.878	0.0195329
617.956	0.0197817
618.034	0.0198053
618.112	0.0199195
618.190	0.0199653
618.268	0.0201147
618.346	0.0198413
618.424	0.0196420
618.503	0.0194450
618.581	0.0191690
618.659	0.0188096
618.737	0.0184358
618.815	0.0178988
618.893	0.0176212
618.971	0.0171238
619.049	0.0167044
619.128	0.0164005
619.206	0.0160434
619.284	0.0157063
619.362	0.0154836
619.440	0.0153993
619.518	0.0152614
619.596	0.0152863
619.674	0.0153105
619.753	0.0156302
619.831	0.0157915
619.909	0.0159790
619.987	0.0160883
620.065	0.0162935
620.143	0.0163248
620.221	0.0164793
620.299	0.0165220
620.378	0.0165767
620.456	0.0166026
620.534	0.0165707
620.612	0.0164851
620.690	0.0165144
620.768	0.0164887
620.846	0.0161561
620.924	0.0161877
621.003	0.0158900
621.081	0.0156405
621.159	0.0155737
621.237	0.0153733
621.315	0.0152987
621.393	0.0152724
621.471	0.0150607
621.549	0.0150568
621.628	0.0151002
621.706	0.0150786
621.784	0.0150196
621.862	0.0152244
621.940	0.0152906
622.018	0.0154340
622.096	0.0154134
622.174	0.0157944
622.253	0.0158027
622.331	0.0160810
622.409	0.0164605
622.487	0.0165173
622.565	0.0167328
622.643	0.0171535
622.721	0.0172928
622.799	0.0175338
622.878	0.0178269
622.956	0.0180737
623.034	0.0183745
623.112	0.0186257
623.190	0.0188490
623.268	0.0189773
623.346	0.0192490
623.424	0.0192078
623.503	0.0191248
623.581	0.0194404
623.659	0.0191723
623.737	0.0191093
623.815	0.0189066
623.893	0.0188621
623.971	0.0185025
624.049	0.0182430
624.128	0.0177618
624.206	0.0174959
624.284	0.0170545
624.362	0.0166717
624.440	0.0162827
624.518	0.0159500
624.596	0.0156527
624.674	0.0154552
624.753	0.0152438
624.831	0.0149297
624.909	0.0146829
624.987	0.0146941
625.065	0.0145810
625.143	0.0145101
625.221	0.0144533
625.299	0.0144987
625.378	0.0145084
625.456	0.0145762
625.534	0.0145438
625.612	0.0147370
625.690	0.0147836
625.768	0.0149600
625.846	0.0150760
625.924	0.0152286
626.003	0.0156512
626.081	0.0157919
626.159	0.0159090
626.237	0.0162721
626.315	0.0167019
626.393	0.0170177
626.471	0.0172358
626.549	0.0174246
626.628	0.0177605
626.706	0.0180096
626.784	0.0181292
626.862	0.0181106
626.940	0.0180923
627.018	0.0182862
627.096	0.0184261
627.174	0.0183047
627.253	0.0181764
627.331	0.0181861
627.409	0.0183908
627.487	0.0181341
627.565	0.0181577
627.643	0.0179092
627.721	0.0179317
627.799	0.0176156
627.878	0.0173892
627.956	0.0172147
628.034	0.0170232
628.112	0.0165745
628.190	0.0164072
628.268	0.0162656
628.346	0.0159248
628.424	0.0157033
628.503	0.0155137
628.581	0.0154415
628.659	0.0151565
628.737	0.0150375
628.815	0.0150208
628.893	0.0150627
628.971	0.0150420
629.049	0.0150541
629.128	0.0149718
629.206	0.0149864
629.284	0.0152492
629.362	0.0152869
629.440	0.0153433
629.518	0.0153531
629.596	0.0155496
629.674	0.0155402
629.753	0.0156403
629.831	0.0158254
629.909	0.0158324
629.987	0.0160288
630.065	0.0160069
630.143	0.0161304
630.221	0.0162205
630.299	0.0163445
630.378	0.0164874
630.456	0.0166048
630.534	0.0167248
630.612	0.0170583
630.690	0.0171610
630.768	0.0174484
630.846	0.0177213
630.924	0.0177564
631.003	0.0179028
631.081	0.0181757
631.159	0.0184028
631.237	0.0185802
631.315	0.0188070
631.393	0.0187688
631.471	0.0189228
631.549	0.0191891
631.628	0.0192508
631.706	0.0190089
631.784	0.0192164
631.862	0.0190316
631.940	0.0189415
632.018	0.0190101
632.096	0.0187080
632.174	0.0185088
632.253	0.0183806
632.331	0.0181131
632.409	0.0178212
632.487	0.0175771
632.565	0.0172692
632.643	0.0169404
632.721	0.0165147
632.799	0.0161786
632.878	0.0157082
632.956	0.0154016
633.034	0.0149744
633.112	0.0144529
633.190	0.0140326
633.268	0.0136796
633.346	0.0134418
633.424	0.0130830
633.503	0.0130389
633.581	0.0128284
633.659	0.0127095
633.737	0.0128683
633.815	0.0129505
633.893	0.0130940
633.971	0.0133839
634.049	0.0136081
634.128	0.0139769
634.206	0.0144556
634.284	0.0147617
634.362	0.0153610
634.440	0.0157606
634.518	0.0161599
634.596	0.0165172
634.674	0.0168611
634.753	0.0171911
634.831	0.0175051
634.909	0.0177373
634.987	0.0178846
635.065	0.0181081
635.143	0.0183302
635.221	0.0185440
635.299	0.0186475
635.378	0.0188147
635.456	0.0189757
635.534	0.0191027
635.612	0.0191828
635.690	0.0191494
635.768	0.0192113
635.846	0.0193654
635.924	0.0192168
636.003	0.0191150
636.081	0.0190314
636.159	0.0187531
636.237	0.0187617
636.315	0.0183984
636.393	0.0182324
636.471	0.0177254
636.549	0.0175787
636.628	0.0171727
636.706	0.0168714
636.784	0.0165419
636.862	0.0162594
636.940	0.0159645
637.018	0.0158119
637.096	0.0155097
637.174	0.0153906
637.253	0.0152476
637.331	0.0150240
637.409	0.0148276
637.487	0.0147717
637.565	0.0148515
637.643	0.0149615
637.721	0.0150556
637.799	0.0151367
637.878	0.0153334
637.956	0.0153810
638.034	0.0154685
638.112	0.0155718
638.190	0.0157672
638.268	0.0158434
638.346	0.0159850
638.424	0.0159862
638.503	0.0161440
638.581	0.0162253
638.659	0.0160540
638.737	0.0162424
638.815	0.0163123
638.893	0.0162906
638.971	0.0162469
639.049	0.0164896
639.128	0.0164307
639.206	0.0166531
639.284	0.0165569
639.362	0.0166015
639.440	0.0165955
639.518	0.0168553
639.596	0.0168516
639.674	0.0165958
639.753	0.0167901
639.831	0.0167328
639.909	0.0167921
639.987	0.0167452
640.065	0.0166937
640.143	0.0164828
640.221	0.0166069
640.299	0.0165205
640.378	0.0163933
640.456	0.0162356
640.534	0.0163892
640.612	0.0162644
640.690	0.0164183
640.768	0.0162092
640.846	0.0161974
640.924	0.0161610
641.003	0.0162239
641.081	0.0162326
641.159	0.0161716
641.237	0.0160714
641.315	0.0159958
641.393	0.0161451
641.471	0.0160495
641.549	0.0162230
641.628	0.0162378
641.706	0.0162496
641.784	0.0164211
641.862	0.0164529
641.940	0.0164582
642.018	0.0164433
642.096	0.0167867
642.174	0.0167780
642.253	0.0169717
642.331	0.0168932
642.409	0.0170201
642.487	0.0170297
642.565	0.0170631
642.643	0.0171223
642.721	0.0170566
642.799	0.0171272
642.878	0.0170969
642.956	0.0172013
643.034	0.0174139
643.112	0.0174487
643.190	0.0174673
643.268	0.0177071
643.346	0.0179610
643.424	0.0179332
643.503	0.0181309
643.581	0.0182714
643.659	0.0183329
643.737	0.0184826
643.815	0.0182121
643.893	0.0182000
643.971	0.0180927
644.049	0.0179977
644.128	0.0177225
644.206	0.0176025
644.284	0.0173801
644.362	0.0169383
644.440	0.0168074
644.518	0.0164099
644.596	0.0162285
644.674	0.0161435
644.753	0.0159493
644.831	0.0156898
644.909	0.0156530
644.987	0.0155285
645.065	0.0155140
645.143	0.0154822
645.221	0.0155684
645.299	0.0156690
645.378	0.0155346
645.456	0.0155431
645.534	0.0155909
645.612	0.0156707
645.690	0.0155557
645.768	0.0157437
645.846	0.0155569
645.924	0.0155422
646.003	0.0155860
646.081	0.0157312
646.159	0.0157166
646.237	0.0155155
646.315	0.0157726
646.393	0.0157475
646.471	0.0158400
646.549	0.0157088
646.628	0.0157407
646.706	0.0158537
646.784	0.0158844
646.862	0.0157950
646.940	0.0158080
647.018	0.0158224
647.096	0.0159537
647.174	0.0159655
647.253	0.0159394
647.331	0.0160480
647.409	0.0160152
647.487	0.0161581
647.565	0.0164471
647.643	0.0165427
647.721	0.0166470
647.799	0.0170238
647.878	0.0172626
647.956	0.0174435
648.034	0.0177824
648.112	0.0179572
648.190	0.0182614
648.268	0.0183811
648.346	0.0185207
648.424	0.0185976
648.503	0.0185566
648.581	0.0187923
648.659	0.0187052
648.737	0.0186575
648.815	0.0185921
648.893	0.0186197
648.971	0.0183233
649.049	0.0183127
649.128	0.0180724
649.206	0.0179469
649.284	0.0177795
649.362	0.0177467
649.440	0.0176118
649.518	0.0174957
649.596	0.0172768
649.674	0.0171054
649.753	0.0169937
649.831	0.0168502
649.909	0.0167838
649.987	0.0165811
650.065	0.0166534
650.143	0.0165112
650.221	0.0163814
650.299	0.0162813
650.378	0.0161568
650.456	0.0159655
650.534	0.0157767
650.612	0.0157077
650.690	0.0157298
650.768	0.0155307
650.846	0.0154778
650.924	0.0154195
651.003	0.0154063
651.081	0.0154488
651.159	0.0154360
651.237	0.0155869
651.315	0.0155499
651.393	0.0156271
651.471	0.0155576
651.549	0.0154771
651.628	0.0155569
651.706	0.0157113
651.784	0.0158111
651.862	0.0157772
651.940	0.0159042
652.018	0.0158340
652.096	0.0160075
652.174	0.0162158
652.253	0.0162459
652.331	0.0163036
652.409	0.0162889
652.487	0.0164127
652.565	0.0165309
652.643	0.0167722
652.721	0.0166714
652.799	0.0166750
652.878	0.0169241
652.956	0.0169582
653.034	0.0170200
653.112	0.0171527
653.190	0.0170061
653.268	0.0172825
653.346	0.0172722
653.424	0.0172955
653.503	0.0170904
653.581	0.0169773
653.659	0.0168626
653.737	0.0168996
653.815	0.0166090
653.893	0.0167032
653.971	0.0165269
654.049	0.0165210
654.128	0.0164944
654.206	0.0162531
654.284	0.0163892
654.362	0.0163595
654.440	0.0164905
654.518	0.0165228
654.596	0.0164539
654.674	0.0166617
654.753	0.0167094
654.831	0.0167439
654.909	0.0167601
654.987	0.0168459
655.065	0.0167689
655.143	0.0167011
655.221	0.0165205
655.299	0.0164433
655.378	0.0164445
655.456	0.0164337
655.534	0.0163374
655.612	0.0164069
655.690	0.0162048
655.768	0.0161720
655.846	0.0161512
655.924	0.0161240
656.003	0.0160598
656.081	0.0159980
656.159	0.0161912
656.237	0.0163054
656.315	0.0163686
656.393	0.0167763
656.471	0.0166774
656.549	0.0167743
656.628	0.0170158
656.706	0.0171896
656.784	0.0173038
656.862	0.0174818
656.940	0.0176547
657.018	0.0176785
657.096	0.0178423
657.174	0.0177999
657.253	0.0178581
657.331	0.0178626
657.409	0.0178993
657.487	0.0178508
657.565	0.0175200
657.643	0.0173256
657.721	0.0171373
657.799	0.0169656
657.878	0.0167661
657.956	0.0166171
658.034	0.0163814
658.112	0.0161792
658.190	0.0160755
658.268	0.0156850
658.346	0.0155576
658.424	0.0154147
658.503	0.0153870
658.581	0.0153674
658.659	0.0153215
658.737	0.0153365
658.815	0.0152744
658.893	0.0152913
658.971	0.0153088
659.049	0.0153778
659.128	0.0154610
659.206	0.0154353
659.284	0.0154296
659.362	0.0153807
659.440	0.0155345
659.518	0.0155550
659.596	0.0155247
659.674	0.0156674
659.753	0.0158958
659.831	0.0159080
659.909	0.0160965
659.987	0.0160726
660.065	0.0162694
660.143	0.0164042
660.221	0.0164397
660.299	0.0165746
660.378	0.0167584
660.456	0.0166941
660.534	0.0166943
660.612	0.0166478
660.690	0.0168275
660.768	0.0166667
660.846	0.0169224
660.924	0.0168454
661.003	0.0168554
661.081	0.0165852
661.159	0.0167411
661.237	0.0167164
661.315	0.0168057
661.393	0.0169093
661.471	0.0168502
661.549	0.0169308
661.628	0.0171417
661.706	0.0169706
661.784	0.0170516
661.862	0.0171344
661.940	0.0172273
662.018	0.0173009
662.096	0.0171909
662.174	0.0171220
662.253	0.0172725
662.331	0.0172375
662.409	0.0172893
662.487	0.0173563
662.565	0.0171744
662.643	0.0173779
662.721	0.0172872
662.799	0.0173732
662.878	0.0174314
662.956	0.0174293
663.034	0.0174267
663.112	0.0175306
663.190	0.0175018
663.268	0.0173349
663.346	0.0173943
663.424	0.0172585
663.503	0.0171444
663.581	0.0169799
663.659	0.0169439
663.737	0.0168115
663.815	0.0166132
663.893	0.0166531
663.971	0.0165817
664.049	0.0162646
664.128	0.0160760
664.206	0.0159531
664.284	0.0159620
664.362	0.0157411
664.440	0.0157065
664.518	0.0153912
664.596	0.0152193
664.674	0.0151691
664.753	0.0150758
664.831	0.0149886
664.909	0.0149651
664.987	0.0148986
665.065	0.0149761
665.143	0.0150368
665.221	0.0150964
665.299	0.0151324
665.378	0.0153297
665.456	0.0154665
665.534	0.0156350
665.612	0.0157370
665.690	0.0157841
665.768	0.0159849
665.846	0.0160202
665.924	0.0160918
666.003	0.0161819
666.081	0.0163261
666.159	0.0163786
666.237	0.0164378
666.315	0.0164671
666.393	0.0165615
666.471	0.0165257
666.549	0.0166937
666.628	0.0168546
666.706	0.0170521
666.784	0.0170557
666.862	0.0171497
666.940	0.0172065
667.018	0.0173303
667.096	0.0176004
667.174	0.0177468
667.253	0.0176488
667.331	0.0176129
667.409	0.0177776
667.487	0.0176406
667.565	0.0176321
667.643	0.0174601
667.721	0.0174374
667.799	0.0173690
667.878	0.0172113
667.956	0.0171416
668.034	0.0169786
668.112	0.0168689
668.190	0.0167194
668.268	0.0166942
668.346	0.0165660
668.424	0.0164493
668.503	0.0164249
668.581	0.0163013
668.659	0.0163454
668.737	0.0164195
668.815	0.0165029
668.893	0.0163506
668.971	0.0164481
669.049	0.0164366
669.128	0.0165798
669.206	0.0166425
669.284	0.0167255
669.362	0.0168748
669.440	0.0169102
669.518	0.0168262
669.596	0.0170308
669.674	0.0169832
669.753	0.0171821
669.831	0.0172168
669.909	0.0172346
669.987	0.0172287
670.065	0.0171981
670.143	0.0173563
670.221	0.0173117
670.299	0.0172747
670.378	0.0171876
670.456	0.0173197
670.534	0.0171445
670.612	0.0170653
670.690	0.0170869
670.768	0.0169480
670.846	0.0169563
670.924	0.0169006
671.003	0.0166363
671.081	0.0165531
671.159	0.0165355
671.237	0.0163384
671.315	0.0161170
671.393	0.0160509
671.471	0.0160642
671.549	0.0159446
671.628	0.0159517
671.706	0.0158764
671.784	0.0157697
671.862	0.0157137
671.940	0.0157573
672.018	0.0156937
672.096	0.0156635
672.174	0.0158446
672.253	0.0157277
672.331	0.0159341
672.409	0.0159489
672.487	0.0159895
672.565	0.0161697
672.643	0.0161443
672.721	0.0161998
672.799	0.0163121
672.878	0.0163426
672.956	0.0163979
673.034	0.0164404
673.112	0.0164288
673.190	0.0165815
673.268	0.0165765
673.346	0.0166591
673.424	0.0167554
673.503	0.0166708
673.581	0.0167668
673.659	0.0167872
673.737	0.0168839
673.815	0.0170715
673.893	0.0169672
673.971	0.0169888
674.049	0.0169746
674.128	0.0169923
674.206	0.0170721
674.284	0.0170552
674.362	0.0172394
674.440	0.0169124
674.518	0.0171107
674.596	0.0171405
674.674	0.0171776
674.753	0.0172003
674.831	0.0172002
674.909	0.0172604
674.987	0.0172219
675.065	0.0172506
675.143	0.0172808
675.221	0.0170446
675.299	0.0169785
675.378	0.0169949
675.456	0.0168584
675.534	0.0166928
675.612	0.0165137
675.690	0.0164836
675.768	0.0163354
675.846	0.0163381
675.924	0.0161909
676.003	0.0161124
676.081	0.0160835
676.159	0.0160966
676.237	0.0161879
676.315	0.0160324
676.393	0.0160045
676.471	0.0160276
676.549	0.0160663
676.628	0.0160916
676.706	0.0161670
676.784	0.0161365
676.862	0.0162161
676.940	0.0163415
677.018	0.0163282
677.096	0.0163762
677.174	0.0163066
677.253	0.0162428
677.331	0.0163931
677.409	0.0163392
677.487	0.0164509
677.565	0.0163204
677.643	0.0161757
677.721	0.0162791
677.799	0.0163271
677.878	0.0163066
677.956	0.0162951
678.034	0.0162376
678.112	0.0164204
678.190	0.0161926
678.268	0.0164198
678.346	0.0166089
678.424	0.0166798
678.503	0.0164782
678.581	0.0167347
678.659	0.0167117
678.737	0.0166464
678.815	0.0167342
678.893	0.0167671
678.971	0.0166590
679.049	0.0167701
679.128	0.0166086
679.206	0.0165319
679.284	0.0165540
679.362	0.0167319
679.440	0.0167517
679.518	0.0167039
679.596	0.0165910
679.674	0.0167644
679.753	0.0165932
679.831	0.0166766
679.909	0.0167411
679.987	0.0167284
680.065	0.0166436
680.143	0.0167970
680.221	0.0168942
680.299	0.0168340
680.378	0.0168399
680.456	0.0168692
680.534	0.0169585
680.612	0.0169444
680.690	0.0169212
680.768	0.0169979
680.846	0.0169052
680.924	0.0170679
681.003	0.0169891
681.081	0.0169902
681.159	0.0170373
681.237	0.0171178
681.315	0.0170689
681.393	0.0170487
681.471	0.0168875
681.549	0.0168406
681.628	0.0170969
681.706	0.0168890
681.784	0.0167742
681.862	0.0167414
681.940	0.0166430
682.018	0.0164326
682.096	0.0163867
682.174	0.0162926
682.253	0.0163715
682.331	0.0160974
682.409	0.0159648
682.487	0.0161100
682.565	0.0162258
682.643	0.0159026
682.721	0.0159570
682.799	0.0159911
682.878	0.0158903
682.956	0.0160853
683.034	0.0159732
683.112	0.0159457
683.190	0.0159821
683.268	0.0159395
683.346	0.0160844
683.424	0.0161963
683.503	0.0161418
683.581	0.0162709
683.659	0.0162211
683.737	0.0163179
683.815	0.0163129
683.893	0.0164040
683.971	0.0165655
684.049	0.0165998
684.128	0.0167121
684.206	0.0167841
684.284	0.0167943
684.362	0.0167373
684.440	0.0167162
684.518	0.0168221
684.596	0.0167979
684.674	0.0167265
684.753	0.0167834
684.831	0.0165745
684.909	0.0167184
684.987	0.0166776
685.065	0.0165784
685.143	0.0166348
685.221	0.0165825
685.299	0.0165235
685.378	0.0166826
685.456	0.0165464
685.534	0.0166649
685.612	0.0167858
685.690	0.0167267
685.768	0.0168314
685.846	0.0168861
685.924	0.0168318
686.003	0.0168137
686.081	0.0167494
686.159	0.0168880
686.237	0.0167817
686.315	0.0168658
686.393	0.0168020
686.471	0.0169011
686.549	0.0168296
686.628	0.0168294
686.706	0.0167453
686.784	0.0168770
686.862	0.0166785
686.940	0.0167213
687.018	0.0167946
687.096	0.0167403
687.174	0.0167432
687.253	0.0167425
687.331	0.0167905
687.409	0.0167540
687.487	0.0167326
687.565	0.0167371
687.643	0.0167706
687.721	0.0166261
687.799	0.0165009
687.878	0.0164465
687.956	0.0166871
688.034	0.0165471
688.112	0.0164692
688.190	0.0165186
688.268	0.0164336
688.346	0.0164092
688.424	0.0164923
688.503	0.0165252
688.581	0.0164776
688.659	0.0164839
688.737	0.0165528
688.815	0.0164389
688.893	0.0163950
688.971	0.0162497
689.049	0.0162310
689.128	0.0163907
689.206	0.0164362
689.284	0.0164217
689.362	0.0162061
689.440	0.0164503
689.518	0.0162768
689.596	0.0162041
689.674	0.0162965
689.753	0.0162021
689.831	0.0162845
689.909	0.0161382
689.987	0.0162163
690.065	0.0163839
690.143	0.0164484
690.221	0.0163445
690.299	0.0164635
690.378	0.0165550
690.456	0.0165651
690.534	0.0165041
690.612	0.0165556
690.690	0.0166938
690.768	0.0166606
690.846	0.0167748
690.924	0.0167887
691.003	0.0169324
691.081	0.0168208
691.159	0.0170556
691.237	0.0169756
691.315	0.0170052
691.393	0.0169591
691.471	0.0170030
691.549	0.0170383
691.628	0.0169613
691.706	0.0170609
691.784	0.0169817
691.862	0.0168757
691.940	0.0168556
692.018	0.0169458
692.096	0.0168903
692.174	0.0166869
692.253	0.0168545
692.331	0.0166295
692.409	0.0165937
692.487	0.0166261
692.565	0.0166586
692.643	0.0165898
692.721	0.0165659
692.799	0.0164815
692.878	0.0164968
692.956	0.0164829
693.034	0.0164527
693.112	0.0165604
693.190	0.0166296
693.268	0.0166116
693.346	0.0165509
693.424	0.0166693
693.503	0.0166442
693.581	0.0164935
693.659	0.0164398
693.737	0.0163880
693.815	0.0163802
693.893	0.0164815
693.971	0.0163238
694.049	0.0162713
694.128	0.0163144
694.206	0.0163332
694.284	0.0162675
694.362	0.0162075
694.440	0.0162930
694.518	0.0164353
694.596	0.0164845
694.674	0.0164875
694.753	0.0165154
694.831	0.0165530
694.909	0.0167259
694.987	0.0167783
695.065	0.0167557
695.143	0.0168919
695.221	0.0168275
695.299	0.0168510
695.378	0.0167168
695.456	0.0167155
695.534	0.0166986
695.612	0.0166943
695.690	0.0164605
695.768	0.0165598
695.846	0.0164749
695.924	0.0164808
696.003	0.0164706
696.081	0.0165039
696.159	0.0164544
696.237	0.0165368
696.315	0.0164899
696.393	0.0167227
696.471	0.0165836
696.549	0.0167413
696.628	0.0166106
696.706	0.0166559
696.784	0.0167441
696.862	0.0167675
696.940	0.0167345
697.018	0.0167470
697.096	0.0166458
697.174	0.0166768
697.253	0.0165625
697.331	0.0166518
697.409	0.0167130
697.487	0.0167402
697.565	0.0166428
697.643	0.0167627
697.721	0.0166782
697.799	0.0166504
697.878	0.0167497
697.956	0.0167731
698.034	0.0166259
698.112	0.0166616
698.190	0.0167071
698.268	0.0166285
698.346	0.0167870
698.424	0.0165836
698.503	0.0167891
698.581	0.0167534
698.659	0.0166569
698.737	0.0167978
698.815	0.0166848
698.893	0.0167906
698.971	0.0168165
699.049	0.0167846
699.128	0.0167868
699.206	0.0168925
699.284	0.0169044
699.362	0.0167786
699.440	0.0168511
699.518	0.0167701
699.596	0.0167627
699.674	0.0167056
699.753	0.0166628
699.831	0.0166448
699.909	0.0165598
699.987	0.0164369
700.065	0.0164010
700.143	0.0165739
700.221	0.0163776
700.299	0.0164261
700.378	0.0164317
700.456	0.0164080
700.534	0.0163098
700.612	0.0162566
700.690	0.0163174
700.768	0.0164484
700.846	0.0164384
700.924	0.0163560
701.003	0.0164112
701.081	0.0164294
701.159	0.0164829
701.237	0.0163937
701.315	0.0163490
701.393	0.0165999
701.471	0.0164525
701.549	0.0165527
701.628	0.0164796
701.706	0.0166171
701.784	0.0166305
701.862	0.0165874
701.940	0.0167333
702.018	0.0167079
702.096	0.0167758
702.174	0.0167762
702.253	0.0168472
702.331	0.0168530
702.409	0.0167425
702.487	0.0169126
702.565	0.0169196
702.643	0.0167408
702.721	0.0168777
702.799	0.0168621
702.878	0.0167374
702.956	0.0168143
703.034	0.0166749
703.112	0.0166030
703.190	0.0165376
703.268	0.0166508
703.346	0.0166062
703.424	0.0166036
703.503	0.0167950
703.581	0.0166166
703.659	0.0165486
703.737	0.0164941
703.815	0.0166258
703.893	0.0165158
703.971	0.0165752
704.049	0.0165118
704.128	0.0164040
704.206	0.0166165
704.284	0.0165075
704.362	0.0165279
704.440	0.0165439
704.518	0.0164293
704.596	0.0164071
704.674	0.0163663
704.753	0.0163547
704.831	0.0164007
704.909	0.0163985
704.987	0.0165803
705.065	0.0164874
705.143	0.0163799
705.221	0.0164101
705.299	0.0167366
705.378	0.0166214
705.456	0.0166540
705.534	0.0165520
705.612	0.0166850
705.690	0.0165864
705.768	0.0167637
705.846	0.0167384
705.924	0.0167607
706.003	0.0167630
706.081	0.0168738
706.159	0.0167398
706.237	0.0167760
706.315	0.0166008
706.393	0.0167910
706.471	0.0168797
706.549	0.0166837
706.628	0.0166530
706.706	0.0168222
706.784	0.0169109
706.862	0.0169164
706.940	0.0168439
707.018	0.0168823
707.096	0.0167743
707.174	0.0167975
707.253	0.0168483
707.331	0.0168634
707.409	0.0168213
707.487	0.0169778
707.565	0.0169399
707.643	0.0168611
707.721	0.0168114
707.799	0.0168491
707.878	0.0168363
707.956	0.0168790
708.034	0.0168417
708.112	0.0168076
708.190	0.0165845
708.268	0.0167270
708.346	0.0167070
708.424	0.0165769
708.503	0.0166062
708.581	0.0165078
708.659	0.0165202
708.737	0.0165652
708.815	0.0164259
708.893	0.0163396
708.971	0.0164285
709.049	0.0163799
709.128	0.0165240
709.206	0.0165919
709.284	0.0164285
709.362	0.0164536
709.440	0.0164482
709.518	0.0164660
709.596	0.0165704
709.674	0.0165108
709.753	0.0166367
709.831	0.0168433
709.909	0.0166010
709.987	0.0168054
710.065	0.0168606
710.143	0.0168524
710.221	0.0167857
710.299	0.0168159
710.378	0.0170220
710.456	0.0171223
710.534	0.0169649
710.612	0.0169402
710.690	0.0170770
710.768	0.0172215
710.846	0.0169813
710.924	0.0170893
711.003	0.0171194
711.081	0.0170659
711.159	0.0171432
711.237	0.0171666
711.315	0.0171585
711.393	0.0172566
711.471	0.0172687
711.549	0.0170754
711.628	0.0169794
711.706	0.0169012
711.784	0.0169730
711.862	0.0168140
711.940	0.0167155
712.018	0.0166412
712.096	0.0165182
712.174	0.0163676
712.253	0.0163140
712.331	0.0163075
712.409	0.0161562
712.487	0.0161040
712.565	0.0159550
712.643	0.0160911
712.721	0.0159042
712.799	0.0158669
712.878	0.0158753
712.956	0.0158807
713.034	0.0158605
713.112	0.0158823
713.190	0.0158843
713.268	0.0159930
713.346	0.0160295
713.424	0.0160210
713.503	0.0160207
713.581	0.0160836
713.659	0.0163331
713.737	0.0162170
713.815	0.0164517
713.893	0.0166566
713.971	0.0165984
714.049	0.0166326
714.128	0.0168644
714.206	0.0168948
714.284	0.0168585
714.362	0.0169695
714.440	0.0170218
714.518	0.0172113
714.596	0.0171563
714.674	0.0169929
714.753	0.0170546
714.831	0.0171611
714.909	0.0169531
714.987	0.0170717
715.065	0.0169810
715.143	0.0168164
715.221	0.0168653
715.299	0.0168814
715.378	0.0167649
715.456	0.0166747
715.534	0.0167238
715.612	0.0166544
715.690	0.0166691
715.768	0.0165956
715.846	0.0166067
715.924	0.0166452
716.003	0.0163268
716.081	0.0163770
716.159	0.0165407
716.237	0.0165470
716.315	0.0164632
716.393	0.0164776
716.471	0.0166232
716.549	0.0165494
716.628	0.0166821
716.706	0.0165643
716.784	0.0166352
716.862	0.0165643
716.940	0.0165842
717.018	0.0165025
717.096	0.0164520
717.174	0.0164716
717.253	0.0164881
717.331	0.0165417
717.409	0.0164871
717.487	0.0165354
717.565	0.0165017
717.643	0.0164442
717.721	0.0164567
717.799	0.0163213
717.878	0.0163953
717.956	0.0161613
718.034	0.0161476
718.112	0.0163016
718.190	0.0160741
718.268	0.0160800
718.346	0.0161752
718.424	0.0161202
718.503	0.0162169
718.581	0.0161584
718.659	0.0161852
718.737	0.0161304
718.815	0.0162873
718.893	0.0162198
718.971	0.0164214
719.049	0.0164629
719.128	0.0164486
719.206	0.0164195
719.284	0.0165496
719.362	0.0165859
719.440	0.0167290
719.518	0.0167595
719.596	0.0167174
719.674	0.0166909
719.753	0.0168414
719.831	0.0169583
719.909	0.0169535
719.987	0.0169910
720.065	0.0169843
720.143	0.0170203
720.221	0.0169867
720.299	0.0170365
720.378	0.0171203
720.456	0.0172193
720.534	0.0169093
720.612	0.0170297
720.690	0.0170898
720.768	0.0171781
720.846	0.0170583
720.924	0.0170152
721.003	0.0170578
721.081	0.0169547
721.159	0.0169820
721.237	0.0168733
721.315	0.0167616
721.393	0.0167374
721.471	0.0166774
721.549	0.0166591
721.628	0.0167989
721.706	0.0167549
721.784	0.0166708
721.862	0.0165237
721.940	0.0165988
722.018	0.0166306
722.096	0.0165617
722.174	0.0165966
722.253	0.0165434
722.331	0.0165212
722.409	0.0166203
722.487	0.0166122
722.565	0.0167064
722.643	0.0165749
722.721	0.0167518
722.799	0.0167393
722.878	0.0167162
722.956	0.0169640
723.034	0.0168141
723.112	0.0168877
723.190	0.0169060
723.268	0.0169785
723.346	0.0169283
723.424	0.0169584
723.503	0.0170772
723.581	0.0170401
723.659	0.0169606
723.737	0.0171391
723.815	0.0169021
723.893	0.0168949
723.971	0.0168561
724.049	0.0169119
724.128	0.0167791
724.206	0.0168847
724.284	0.0167781
724.362	0.0166061
724.440	0.0166212
724.518	0.0166146
724.596	0.0166079
724.674	0.0164504
724.753	0.0164328
724.831	0.0164294
724.909	0.0163704
724.987	0.0162689
725.065	0.0163789
725.143	0.0161785
725.221	0.0162641
725.299	0.0163108
725.378	0.0161079
725.456	0.0161745
725.534	0.0161613
725.612	0.0160883
725.690	0.0160112
725.768	0.0160687
725.846	0.0160194
725.924	0.0160856
726.003	0.0161723
726.081	0.0161727
726.159	0.0160881
726.237	0.0162225
726.315	0.0161840
726.393	0.0162267
726.471	0.0162141
726.549	0.0162263
726.628	0.0163840
726.706	0.0164523
726.784	0.0165000
726.862	0.0164740
726.940	0.0167483
727.018	0.0167097
727.096	0.0166353
727.174	0.0165894
727.253	0.0167459
727.331	0.0167747
727.409	0.0167677
727.487	0.0168832
727.565	0.0168288
727.643	0.0169176
727.721	0.0168285
727.799	0.0169363
727.878	0.0168605
727.956	0.0168866
728.034	0.0169368
728.112	0.0168618
728.190	0.0167480
728.268	0.0168314
728.346	0.0168861
728.424	0.0168900
728.503	0.0166926
728.581	0.0167262
728.659	0.0168703
728.737	0.0168518
728.815	0.0167599
728.893	0.0167879
728.971	0.0167990
729.049	0.0167197
729.128	0.0166904
729.206	0.0166456
729.284	0.0167152
729.362	0.0167577
729.440	0.0167311
729.518	0.0166403
729.596	0.0166940
729.674	0.0165495
729.753	0.0164468
729.831	0.0164104
729.909	0.0163748
729.987	0.0164521
730.065	0.0165337
730.143	0.0163512
730.221	0.0163779
730.299	0.0163179
730.378	0.0164402
730.456	0.0163563
730.534	0.0164410
730.612	0.0164320
730.690	0.0163969
730.768	0.0163416
730.846	0.0163678
730.924	0.0164555
731.003	0.0165101
731.081	0.0165651
731.159	0.0166203
731.237	0.0165215
731.315	0.0166283
731.393	0.0168016
731.471	0.0167788
731.549	0.0168092
731.628	0.0169062
731.706	0.0168331
731.784	0.0169434
731.862	0.0170234
731.940	0.0171534
732.018	0.0171333
732.096	0.0169769
732.174	0.0169953
732.253	0.0171543
732.331	0.0171827
732.409	0.0171615
732.487	0.0172426
732.565	0.0171656
732.643	0.0171088
732.721	0.0169194
732.799	0.0170184
732.878	0.0170762
732.956	0.0169740
733.034	0.0169028
733.112	0.0167569
733.190	0.0167033
733.268	0.0167207
733.346	0.0166003
733.424	0.0166996
733.503	0.0165165
733.581	0.0164671
733.659	0.0165514
733.737	0.0164420
733.815	0.0164597
733.893	0.0163075
733.971	0.0163944
734.049	0.0163773
734.128	0.0163079
734.206	0.0163704
734.284	0.0163560
734.362	0.0163090
734.440	0.0164661
734.518	0.0162478
734.596	0.0162309
734.674	0.0163769
734.753	0.0164227
734.831	0.0164778
734.909	0.0165345
734.987	0.0165472
735.065	0.0163531
735.143	0.0165752
735.221	0.0165547
735.299	0.0164798
735.378	0.0166410
735.456	0.0166961
735.534	0.0166889
735.612	0.0167778
735.690	0.0166058
735.768	0.0167490
735.846	0.0167385
735.924	0.0168269
736.003	0.0167590
736.081	0.0167369
736.159	0.0166650
736.237	0.0166967
736.315	0.0166624
736.393	0.0165036
736.471	0.0165177
736.549	0.0164896
736.628	0.0164285
736.706	0.0164548
736.784	0.0165182
736.862	0.0162751
736.940	0.0163722
737.018	0.0163102
737.096	0.0163444
737.174	0.0162443
737.253	0.0161506
737.331	0.0162249
737.409	0.0164111
737.487	0.0162839
737.565	0.0161638
737.643	0.0162021
737.721	0.0162778
737.799	0.0162574
737.878	0.0163873
737.956	0.0163351
738.034	0.0163336
738.112	0.0163367
738.190	0.0164480
738.268	0.0165898
738.346	0.0165113
738.424	0.0165556
738.503	0.0167016
738.581	0.0165806
738.659	0.0166393
738.737	0.0167439
738.815	0.0168444
738.893	0.0168443
738.971	0.0167603
739.049	0.0167452
739.128	0.0169838
739.206	0.0168702
739.284	0.0169667
739.362	0.0169358
739.440	0.0169193
739.518	0.0168700
739.596	0.0168277
739.674	0.0168196
739.753	0.0169006
739.831	0.0168902
739.909	0.0169242
739.987	0.0168916
740.065	0.0167393
740.143	0.0168289
740.221	0.0169148
740.299	0.0167062
740.378	0.0167487
740.456	0.0166605
740.534	0.0166061
740.612	0.0165935
740.690	0.0165417
740.768	0.0166748
740.846	0.0164925
740.924	0.0166971
741.003	0.0165205
741.081	0.0165208
741.159	0.0164494
741.237	0.0165294
741.315	0.0165308
741.393	0.0163445
741.471	0.0163254
741.549	0.0164655
741.628	0.0164394
741.706	0.0162531
741.784	0.0163174
741.862	0.0162451
741.940	0.0163380
742.018	0.0162291
742.096	0.0162748
742.174	0.0162803
742.253	0.0162369
742.331	0.0163160
742.409	0.0162614
742.487	0.0163946
742.565	0.0162893
742.643	0.0162932
742.721	0.0164664
742.799	0.0162419
742.878	0.0164024
742.956	0.0163233
743.034	0.0162420
743.112	0.0161565
743.190	0.0162208
743.268	0.0163780
743.346	0.0162375
743.424	0.0161623
743.503	0.0162876
743.581	0.0164050
743.659	0.0162362
743.737	0.0161987
743.815	0.0164032
743.893	0.0164793
743.971	0.0163474
744.049	0.0165563
744.128	0.0166322
744.206	0.0165274
744.284	0.0165976
744.362	0.0168082
744.440	0.0168572
744.518	0.0168146
744.596	0.0169031
744.674	0.0168318
744.753	0.0168403
744.831	0.0169816
744.909	0.0169102
744.987	0.0169414
745.065	0.0168793
745.143	0.0169311
745.221	0.0169238
745.299	0.0169534
745.378	0.0169550
745.456	0.0168748
745.534	0.0168919
745.612	0.0170018
745.690	0.0168613
745.768	0.0168086
745.846	0.0167014
745.924	0.0167037
746.003	0.0166850
746.081	0.0168658
746.159	0.0168364
746.237	0.0167078
746.315	0.0167386
746.393	0.0167500
746.471	0.0168166
746.549	0.0167703
746.628	0.0167689
746.706	0.0166959
746.784	0.0165928
746.862	0.0166444
746.940	0.0167185
747.018	0.0165289
747.096	0.0165008
747.174	0.0165170
747.253	0.0165676
747.331	0.0164314
747.409	0.0164311
747.487	0.0165366
747.565	0.0164689
747.643	0.0164157
747.721	0.0163217
747.799	0.0164167
747.878	0.0162463
747.956	0.0162685
748.034	0.0163953
748.112	0.0163840
748.190	0.0163291
748.268	0.0164532
748.346	0.0164017
748.424	0.0164484
748.503	0.0162479
748.581	0.0165557
748.659	0.0164726
748.737	0.0164742
748.815	0.0165690
748.893	0.0166056
748.971	0.0166953
749.049	0.0166674
749.128	0.0165527
749.206	0.0166342
749.284	0.0166048
749.362	0.0166559
749.440	0.0166122
749.518	0.0167313
749.596	0.0167675
749.674	0.0166908
749.753	0.0166728
749.831	0.0168813
749.909	0.0167315
749.987	0.0168259
750.065	0.0167670
750.143	0.0167888
750.221	0.0166695
750.299	0.0166367
750.378	0.0168406
750.456	0.0167406
750.534	0.0168129
750.612	0.0166419
750.690	0.0165899
750.768	0.0166384
750.846	0.0166020
750.924	0.0166254
751.003	0.0167745
751.081	0.0166650
751.159	0.0166060
751.237	0.0165006
751.315	0.0166891
751.393	0.0167367
751.471	0.0166116
751.549	0.0165776
751.628	0.0166071
751.706	0.0166151
751.784	0.0165633
751.862	0.0166395
751.940	0.0165636
752.018	0.0166053
752.096	0.0165337
752.174	0.0166209
752.253	0.0165237
752.331	0.0166180
752.409	0.0166633
752.487	0.0165925
752.565	0.0166652
752.643	0.0167036
752.721	0.0167854
752.799	0.0166621
752.878	0.0167881
752.956	0.0167330
753.034	0.0166948
753.112	0.0166419
753.190	0.0166697
753.268	0.0166653
753.346	0.0167502
753.424	0.0166536
753.503	0.0167232
753.581	0.0168325
753.659	0.0167773
753.737	0.0168427
753.815	0.0167164
753.893	0.0167758
753.971	0.0167896
754.049	0.0167742
754.128	0.0166544
754.206	0.0165144
754.284	0.0167950
754.362	0.0166331
754.440	0.0165060
754.518	0.0164698
754.596	0.0163150
754.674	0.0164120
754.753	0.0165222
754.831	0.0163631
754.909	0.0163559
754.987	0.0164123
755.065	0.0163447
755.143	0.0163634
755.221	0.0162776
755.299	0.0164716
755.378	0.0165071
755.456	0.0164865
755.534	0.0164542
755.612	0.0164536
755.690	0.0164363
755.768	0.0164539
755.846	0.0164832
755.924	0.0164819
756.003	0.0165157
756.081	0.0167355
756.159	0.0164505
756.237	0.0164886
756.315	0.0168736
756.393	0.0167184
756.471	0.0166236
756.549	0.0167213
756.628	0.0168015
756.706	0.0168102
756.784	0.0168597
756.862	0.0168470
756.940	0.0167469
757.018	0.0166823
757.096	0.0167326
757.174	0.0167399
757.253	0.0168177
757.331	0.0167149
757.409	0.0165598
757.487	0.0166065
757.565	0.0166972
757.643	0.0165289
757.721	0.0165401
757.799	0.0164212
757.878	0.0165781
757.956	0.0165769
758.034	0.0165266
758.112	0.0164767
758.190	0.0166257
758.268	0.0164798
758.346	0.0164374
758.424	0.0165535
758.503	0.0165005
758.581	0.0165413
758.659	0.0164473
758.737	0.0163944
758.815	0.0165508
758.893	0.0165503
758.971	0.0165885
759.049	0.0165867
759.128	0.0165797
759.206	0.0166160
759.284	0.0166761
759.362	0.0166377
759.440	0.0167132
759.518	0.0167255
759.596	0.0168314
759.674	0.0167941
759.753	0.0166843
759.831	0.0168426
759.909	0.0167837
759.987	0.0166538
760.065	0.0167884
760.143	0.0167216
760.221	0.0167152
760.299	0.0168034
760.378	0.0167662
760.456	0.0168124
760.534	0.0167413
760.612	0.0165771
760.690	0.0165048
760.768	0.0167028
760.846	0.0164703
760.924	0.0165710
761.003	0.0165146
761.081	0.0164726
761.159	0.0165217
761.237	0.0165314
761.315	0.0164915
761.393	0.0164825
761.471	0.0165184
761.549	0.0163676
761.628	0.0163956
761.706	0.0164291
761.784	0.0163064
761.862	0.0164236
761.940	0.0165513
762.018	0.0164574
762.096	0.0164040
762.174	0.0164190
762.253	0.0164854
762.331	0.0165388
762.409	0.0164010
762.487	0.0166206
762.565	0.0165845
762.643	0.0166700
762.721	0.0165441
762.799	0.0167373
762.878	0.0166449
762.956	0.0166698
763.034	0.0167801
763.112	0.0166769
763.190	0.0167259
763.268	0.0168161
763.346	0.0167808
763.424	0.0168703
763.503	0.0168260
763.581	0.0167960
763.659	0.0167467
763.737	0.0167186
763.815	0.0168970
763.893	0.0167570
763.971	0.0168774
764.049	0.0168206
764.128	0.0166596
764.206	0.0167341
764.284	0.0166438
764.362	0.0166309
764.440	0.0167096
764.518	0.0165912
764.596	0.0165004
764.674	0.0163732
764.753	0.0164336
764.831	0.0164124
764.909	0.0164161
764.987	0.0164168
765.065	0.0162720
765.143	0.0163718
765.221	0.0163345
765.299	0.0162204
765.378	0.0161121
765.456	0.0162550
765.534	0.0163190
765.612	0.0163856
765.690	0.0162273
765.768	0.0163470
765.846	0.0162796
765.924	0.0162457
766.003	0.0164274
766.081	0.0163773
766.159	0.0162847
766.237	0.0163270
766.315	0.0162659
766.393	0.0162140
766.471	0.0163103
766.549	0.0164676
766.628	0.0163559
766.706	0.0163224
766.784	0.0164075
766.862	0.0163067
766.940	0.0164400
767.018	0.0163611
767.096	0.0164028
767.174	0.0163196
767.253	0.0163529
767.331	0.0164043
767.409	0.0162363
767.487	0.0163988
767.565	0.0162742
767.643	0.0162003
767.721	0.0163763
767.799	0.0162366
767.878	0.0162184
767.956	0.0163037
768.034	0.0161122
768.112	0.0161633
768.190	0.0162889
768.268	0.0164661
768.346	0.0163695
768.424	0.0163579
768.503	0.0163453
768.581	0.0164116
768.659	0.0162254
768.737	0.0162578
768.815	0.0165022
768.893	0.0164926
768.971	0.0164833
769.049	0.0165873
769.128	0.0165359
769.206	0.0165955
769.284	0.0165478
769.362	0.0165608
769.440	0.0167928
769.518	0.0167908
769.596	0.0166389
769.674	0.0167138
769.753	0.0166717
769.831	0.0169350
769.909	0.0168797
769.987	0.0167255
770.065	0.0167094
770.143	0.0168317
770.221	0.0168388
770.299	0.0169521
770.378	0.0168049
770.456	0.0167987
770.534	0.0168784
770.612	0.0168994
770.690	0.0167584
770.768	0.0167573
770.846	0.0169164
770.924	0.0168394
771.003	0.0167818
771.081	0.0168349
771.159	0.0167244
771.237	0.0166862
771.315	0.0166022
771.393	0.0166848
771.471	0.0166626
771.549	0.0167081
771.628	0.0167116
771.706	0.0166325
771.784	0.0165765
771.862	0.0165771
771.940	0.0167387
772.018	0.0164901
772.096	0.0164918
772.174	0.0165112
772.253	0.0165169
772.331	0.0166714
772.409	0.0166216
772.487	0.0166537
772.565	0.0165007
772.643	0.0164502
772.721	0.0165898
772.799	0.0165829
772.878	0.0164764
772.956	0.0167276
773.034	0.0167208
773.112	0.0166004
773.190	0.0166474
773.268	0.0165649
773.346	0.0164101
773.424	0.0166151
773.503	0.0166155
773.581	0.0166484
773.659	0.0167283
773.737	0.0165704
773.815	0.0167268
773.893	0.0166695
773.971	0.0167305
774.049	0.0166048
774.128	0.0166194
774.206	0.0166352
774.284	0.0166380
774.362	0.0167470
774.440	0.0168318
774.518	0.0166463
774.596	0.0165930
774.674	0.0167616
774.753	0.0166808
774.831	0.0167232
774.909	0.0168047
774.987	0.0167251
775.065	0.0166515
775.143	0.0167917
775.221	0.0168035
775.299	0.0168698
775.378	0.0168855
775.456	0.0166399
775.534	0.0166487
775.612	0.0169139
775.690	0.0166456
775.768	0.0167966
775.846	0.0168745
775.924	0.0168002
776.003	0.0166069
776.081	0.0165111
776.159	0.0167693
776.237	0.0166222
776.315	0.0166398
776.393	0.0166711
776.471	0.0166948
776.549	0.0167570
776.628	0.0166911
776.706	0.0167287
776.784	0.0166730
776.862	0.0166398
776.940	0.0167340
777.018	0.0167754
777.096	0.0167519
777.174	0.0167752
777.253	0.0168432
777.331	0.0166615
777.409	0.0166393
777.487	0.0167572
777.565	0.0166389
777.643	0.0167724
777.721	0.0169176
777.799	0.0168221
777.878	0.0168716
777.956	0.0167959
778.034	0.0168384
778.112	0.0167721
778.190	0.0166823
778.268	0.0165387
778.346	0.0167970
778.424	0.0168272
778.503	0.0166133
778.581	0.0166949
778.659	0.0167480
778.737	0.0166080
778.815	0.0166998
778.893	0.0165293
778.971	0.0165446
779.049	0.0165354
779.128	0.0165442
779.206	0.0164989
779.284	0.0167078
779.362	0.0164886
779.440	0.0165126
779.518	0.0164664
779.596	0.0164674
779.674	0.0164843
779.753	0.0164009
779.831	0.0164510
779.909	0.0163940
779.987	0.0163402
780.065	0.0162729
780.143	0.0162198
780.221	0.0162508
780.299	0.0162872
780.378	0.0162410
780.456	0.0164606
780.534	0.0163171
780.612	0.0164291
780.690	0.0163535
780.768	0.0163343
780.846	0.0163596
780.924	0.0164462
781.003	0.0164448
781.081	0.0165049
781.159	0.0165133
781.237	0.0164744
781.315	0.0165144
781.393	0.0165898
781.471	0.0166633
781.549	0.0166548
781.628	0.0166180
781.706	0.0164678
781.784	0.0166271
781.862	0.0166655
781.940	0.0166593
782.018	0.0166494
782.096	0.0167403
782.174	0.0167580
782.253	0.0167549
782.331	0.0167265
782.409	0.0167774
782.487	0.0168597
782.565	0.0166965
782.643	0.0168011
782.721	0.0167978
782.799	0.0166821
782.878	0.0166787
782.956	0.0166824
783.034	0.0165998
783.112	0.0167095
783.190	0.0168147
783.268	0.0167258
783.346	0.0166004
783.424	0.0166887
783.503	0.0166270
783.581	0.0165176
783.659	0.0164763
783.737	0.0165784
783.815	0.0165278
783.893	0.0167264
783.971	0.0165324
784.049	0.0165495
784.128	0.0166145
784.206	0.0165022
784.284	0.0166529
784.362	0.0165972
784.440	0.0165511
784.518	0.0166586
784.596	0.0166020
784.674	0.0166348
784.753	0.0164532
784.831	0.0167484
784.909	0.0167550
784.987	0.0164923
785.065	0.0166764
785.143	0.0166897
785.221	0.0167616
785.299	0.0165939
785.378	0.0168713
785.456	0.0167639
785.534	0.0168477
785.612	0.0169151
785.690	0.0168130
785.768	0.0168382
785.846	0.0169154
785.924	0.0168725
786.003	0.0169083
786.081	0.0168916
786.159	0.0169533
786.237	0.0169636
786.315	0.0168922
786.393	0.0168499
786.471	0.0169252
786.549	0.0169289
786.628	0.0167683
786.706	0.0168361
786.784	0.0167547
786.862	0.0168382
786.940	0.0168515
787.018	0.0168419
787.096	0.0167906
787.174	0.0166580
787.253	0.0166706
787.331	0.0167461
787.409	0.0167470
787.487	0.0168243
787.565	0.0165604
787.643	0.0166511
787.721	0.0166370
787.799	0.0165273
787.878	0.0166727
787.956	0.0165955
788.034	0.0164085
788.112	0.0165461
788.190	0.0165181
788.268	0.0164546
788.346	0.0165235
788.424	0.0164825
788.503	0.0163216
788.581	0.0163398
788.659	0.0163485
788.737	0.0164893
788.815	0.0164174
788.893	0.0163660
788.971	0.0162563
789.049	0.0164038
789.128	0.0165244
789.206	0.0165620
789.284	0.0164247
789.362	0.0165736
789.440	0.0165308
789.518	0.0165209
789.596	0.0166965
789.674	0.0166269
789.753	0.0167146
789.831	0.0168160
789.909	0.0168004
789.987	0.0167010
790.065	0.0169503
790.143	0.0168335
790.221	0.0170206
790.299	0.0168532
790.378	0.0169321
790.456	0.0170550
790.534	0.0168570
790.612	0.0168510
790.690	0.0168095
790.768	0.0167908
790.846	0.0167051
790.924	0.0166074
791.003	0.0165323
791.081	0.0165276
791.159	0.0165137
791.237	0.0166387
791.315	0.0165435
791.393	0.0164431
791.471	0.0164761
791.549	0.0164140
791.628	0.0164524
791.706	0.0162399
791.784	0.0163962
791.862	0.0164142
791.940	0.0163126
792.018	0.0164950
792.096	0.0163825
792.174	0.0163470
792.253	0.0165197
792.331	0.0165289
792.409	0.0165285
792.487	0.0165356
792.565	0.0164479
792.643	0.0165106
792.721	0.0167866
792.799	0.0166209
792.878	0.0164889
792.956	0.0166100
793.034	0.0166473
793.112	0.0167068
793.190	0.0167079
793.268	0.0167310
793.346	0.0167699
793.424	0.0167028
793.503	0.0167615
793.581	0.0168446
793.659	0.0167640
793.737	0.0164937
793.815	0.0169054
793.893	0.0166587
793.971	0.0167673
794.049	0.0166170
794.128	0.0166228
794.206	0.0166996
794.284	0.0166829
794.362	0.0166350
794.440	0.0166704
794.518	0.0165733
794.596	0.0165212
794.674	0.0165935
794.753	0.0167306
794.831	0.0166434
794.909	0.0166589
794.987	0.0166178
795.065	0.0164611
795.143	0.0165291
795.221	0.0166319
795.299	0.0164955
795.378	0.0165729
795.456	0.0166425
795.534	0.0165480
795.612	0.0164883
795.690	0.0164809
795.768	0.0165853
795.846	0.0164912
795.924	0.0166561
796.003	0.0165321
796.081	0.0164976
796.159	0.0164211
796.237	0.0163694
796.315	0.0166169
796.393	0.0164389
796.471	0.0164041
796.549	0.0165185
796.628	0.0164009
796.706	0.0164082
796.784	0.0164817
796.862	0.0164410
796.940	0.0163881
797.018	0.0163474
797.096	0.0164175
797.174	0.0164450
797.253	0.0165131
797.331	0.0164330
797.409	0.0163781
797.487	0.0163728
797.565	0.0163918
797.643	0.0164630
797.721	0.0164610
797.799	0.0165514
797.878	0.0164699
797.956	0.0164187
798.034	0.0165077
798.112	0.0164475
798.190	0.0165651
798.268	0.0165118
798.346	0.0164500
798.424	0.0166343
798.503	0.0164704
798.581	0.0165780
798.659	0.0166339
798.737	0.0165961
798.815	0.0166457
798.893	0.0166562
798.971	0.0167134
799.049	0.0167054
799.128	0.0166193
799.206	0.0166428
799.284	0.0167331
799.362	0.0167453
799.440	0.0168048
799.518	0.0167680
799.596	0.0169406
799.674	0.0168733
799.753	0.0169054
799.831	0.0168238
799.909	0.0169196
799.987	0.0168655
800.065	0.0168304
800.143	0.0169040
800.221	0.0168204
800.299	0.0167831
800.378	0.0168456
800.456	0.0168829
800.534	0.0166808
800.612	0.0166550
800.690	0.0167571
800.768	0.0167033
800.846	0.0167774
800.924	0.0166419
801.003	0.0166846
801.081	0.0166532
801.159	0.0167291
801.237	0.0166335
801.315	0.0165873
801.393	0.0165606
801.471	0.0165240
801.549	0.0164181
801.628	0.0163718
801.706	0.0164842
801.784	0.0164737
801.862	0.0163156
801.940	0.0164038
802.018	0.0165024
802.096	0.0165152
802.174	0.0164931
802.253	0.0164093
802.331	0.0164091
802.409	0.0163748
802.487	0.0165768
802.565	0.0165623
802.643	0.0165018
802.721	0.0165771
802.799	0.0164269
802.878	0.0165465
802.956	0.0166348
803.034	0.0166261
803.112	0.0165996
803.190	0.0166716
803.268	0.0166456
803.346	0.0165668
803.424	0.0166875
803.503	0.0165916
803.581	0.0166589
803.659	0.0166525
803.737	0.0166630
803.815	0.0165950
803.893	0.0164844
803.971	0.0165005
804.049	0.0165903
804.128	0.0164038
804.206	0.0164558
804.284	0.0164690
804.362	0.0168160
804.440	0.0167800
804.518	0.0165840
804.596	0.0166583
804.674	0.0166074
804.753	0.0165758
804.831	0.0167155
804.909	0.0167531
804.987	0.0167120
805.065	0.0168643
805.143	0.0167969
805.221	0.0168073
805.299	0.0166721
805.378	0.0170151
805.456	0.0168587
805.534	0.0168536
805.612	0.0169257
805.690	0.0170448
805.768	0.0171037
805.846	0.0169925
805.924	0.0170573
806.003	0.0170176
806.081	0.0169830
806.159	0.0169973
806.237	0.0169628
806.315	0.0169225
806.393	0.0168007
806.471	0.0167965
806.549	0.0166921
806.628	0.0167358
806.706	0.0166607
806.784	0.0166220
806.862	0.0165612
806.940	0.0164930
807.018	0.0165343
807.096	0.0163718
807.174	0.0163739
807.253	0.0163483
807.331	0.0162978
807.409	0.0162819
807.487	0.0163212
807.565	0.0162373
807.643	0.0162608
807.721	0.0163877
807.799	0.0163546
807.878	0.0162189
807.956	0.0163009
808.034	0.0164712
808.112	0.0163581
808.190	0.0165471
808.268	0.0165503
808.346	0.0163792
808.424	0.0164787
808.503	0.0165495
808.581	0.0164452
808.659	0.0165066
808.737	0.0166151
808.815	0.0165935
808.893	0.0165650
808.971	0.0166918
809.049	0.0166464
809.128	0.0167146
809.206	0.0166315
809.284	0.0167300
809.362	0.0167646
809.440	0.0166503
809.518	0.0166959
809.596	0.0168403
809.674	0.0166989
809.753	0.0168888
809.831	0.0165871
809.909	0.0168520
809.987	0.0167648
810.065	0.0166589
810.143	0.0165710
810.221	0.0166649
810.299	0.0166963
810.378	0.0165787
810.456	0.0164903
810.534	0.0164487
810.612	0.0164793
810.690	0.0165782
810.768	0.0164664
810.846	0.0165385
810.924	0.0165436
811.003	0.0165316
811.081	0.0166064
811.159	0.0165796
811.237	0.0168039
811.315	0.0168095
811.393	0.0166617
811.471	0.0166207
811.549	0.0169648
811.628	0.0169426
811.706	0.0169356
811.784	0.0170280
811.862	0.0169786
811.940	0.0170053
812.018	0.0170970
812.096	0.0171427
812.174	0.0170314
812.253	0.0170847
812.331	0.0169540
812.409	0.0167926
812.487	0.0168859
812.565	0.0167764
812.643	0.0167744
812.721	0.0168647
812.799	0.0166756
812.878	0.0167286
812.956	0.0166772
813.034	0.0165852
813.112	0.0164816
813.190	0.0166186
813.268	0.0166215
813.346	0.0166344
813.424	0.0166180
813.503	0.0165938
813.581	0.0165436
813.659	0.0166939
813.737	0.0166711
813.815	0.0165553
813.893	0.0165734
813.971	0.0166398
814.049	0.0167072
814.128	0.0166258
814.206	0.0166135
814.284	0.0166381
814.362	0.0166367
814.440	0.0167792
814.518	0.0167020
814.596	0.0166238
814.674	0.0168591
814.753	0.0166973
814.831	0.0166724
814.909	0.0166932
814.987	0.0168353
815.065	0.0167300
815.143	0.0167579
815.221	0.0167222
815.299	0.0168425
815.378	0.0167324
815.456	0.0166815
815.534	0.0166434
815.612	0.0164922
815.690	0.0168048
815.768	0.0166470
815.846	0.0165162
815.924	0.0164256
816.003	0.0164713
816.081	0.0165280
816.159	0.0165278
816.237	0.0163303
816.315	0.0164334
816.393	0.0164698
816.471	0.0164858
816.549	0.0166238
816.628	0.0164652
816.706	0.0166414
816.784	0.0165598
816.862	0.0166399
816.940	0.0166358
817.018	0.0166647
817.096	0.0166164
817.174	0.0168491
817.253	0.0169236
817.331	0.0168547
817.409	0.0167499
817.487	0.0168620
817.565	0.0170216
817.643	0.0172125
817.721	0.0170042
817.799	0.0171727
817.878	0.0170189
817.956	0.0170998
818.034	0.0170623
818.112	0.0170149
818.190	0.0170050
818.268	0.0170105
818.346	0.0172391
818.424	0.0170214
818.503	0.0169190
818.581	0.0169645
818.659	0.0169931
818.737	0.0168731
818.815	0.0166690
818.893	0.0167484
818.971	0.0167982
819.049	0.0166850
819.128	0.0166326
819.206	0.0166190
819.284	0.0165607
819.362	0.0165270
819.440	0.0163678
819.518	0.0163490
819.596	0.0163266
819.674	0.0163710
819.753	0.0162117
819.831	0.0162632
819.909	0.0162698
819.987	0.0162560
820.065	0.0163672
820.143	0.0162064
820.221	0.0162947
820.299	0.0162696
820.378	0.0163384
820.456	0.0162405
820.534	0.0163261
820.612	0.0162836
820.690	0.0161819
820.768	0.0160931
820.846	0.0162598
820.924	0.0163364
821.003	0.0163182
821.081	0.0162197
821.159	0.0163016
821.237	0.0162720
821.315	0.0163898
821.393	0.0163280
821.471	0.0164011
821.549	0.0164888
821.628	0.0164384
821.706	0.0164160
821.784	0.0164938
821.862	0.0165670
821.940	0.0165697
822.018	0.0165428
822.096	0.0164141
822.174	0.0165106
822.253	0.0165098
822.331	0.0167289
822.409	0.0168467
822.487	0.0165661
822.565	0.0166194
822.643	0.0166642
822.721	0.0166724
822.799	0.0167510
822.878	0.0168134
822.956	0.0169052
823.034	0.0167936
823.112	0.0168130
823.190	0.0169044
823.268	0.0169165
823.346	0.0169267
823.424	0.0170250
823.503	0.0168959
823.581	0.0168640
823.659	0.0169139
823.737	0.0168504
823.815	0.0168413
823.893	0.0168184
823.971	0.0166771
824.049	0.0167675
824.128	0.0168369
824.206	0.0168230
824.284	0.0167489
824.362	0.0167276
824.440	0.0166692
824.518	0.0166667
824.596	0.0165830
824.674	0.0163644
824.753	0.0165153
824.831	0.0165047
824.909	0.0164218
824.987	0.0163832
825.065	0.0162574
825.143	0.0164364
825.221	0.0163641
825.299	0.0162838
825.378	0.0164832
825.456	0.0163364
825.534	0.0163045
825.612	0.0163958
825.690	0.0164205
825.768	0.0164461
825.846	0.0165157
825.924	0.0165179
826.003	0.0167188
826.081	0.0166131
826.159	0.0165803
826.237	0.0166280
826.315	0.0165462
826.393	0.0167331
826.471	0.0167040
826.549	0.0166257
826.628	0.0166997
826.706	0.0166323
826.784	0.0165592
826.862	0.0166873
826.940	0.0166270
827.018	0.0167014
827.096	0.0166210
827.174	0.0166576
827.253	0.0166463
827.331	0.0166256
827.409	0.0166328
827.487	0.0165798
827.565	0.0165628
827.643	0.0165748
827.721	0.0164852
827.799	0.0165027
827.878	0.0164651
827.956	0.0165798
828.034	0.0164223
828.112	0.0164452
828.190	0.0164420
828.268	0.0163163
828.346	0.0162704
828.424	0.0163205
828.503	0.0164114
828.581	0.0164437
828.659	0.0162775
828.737	0.0163447
828.815	0.0163150
828.893	0.0163329
828.971	0.0164160
829.049	0.0164299
829.128	0.0164841
829.206	0.0164214
829.284	0.0165099
829.362	0.0165334
829.440	0.0164779
829.518	0.0164349
829.596	0.0166257
829.674	0.0166786
829.753	0.0165063
829.831	0.0166572
829.909	0.0167159
829.987	0.0166718
830.065	0.0166023
830.143	0.0167234
830.221	0.0166280
830.299	0.0165843
830.378	0.0165470
830.456	0.0166898
830.534	0.0165081
830.612	0.0166434
830.690	0.0165663
830.768	0.0164957
830.846	0.0165801
830.924	0.0166212
831.003	0.0165927
831.081	0.0166106
831.159	0.0165338
831.237	0.0165092
831.315	0.0165135
831.393	0.0165448
831.471	0.0165266
831.549	0.0164777
831.628	0.0165566
831.706	0.0165075
831.784	0.0164751
831.862	0.0164558
831.940	0.0164093
832.018	0.0163828
832.096	0.0165475
832.174	0.0165243
832.253	0.0165331
832.331	0.0164827
832.409	0.0165058
832.487	0.0165868
832.565	0.0165973
832.643	0.0165453
832.721	0.0165533
832.799	0.0165759
832.878	0.0165717
832.956	0.0166331
833.034	0.0166833
833.112	0.0165277
833.190	0.0165362
833.268	0.0165994
833.346	0.0165795
833.424	0.0164716
833.503	0.0165538
833.581	0.0166186
833.659	0.0165769
833.737	0.0167088
833.815	0.0166253
833.893	0.0166350
833.971	0.0167268
834.049	0.0166409
834.128	0.0165927
834.206	0.0167015
834.284	0.0165898
834.362	0.0166352
834.440	0.0165565
834.518	0.0167446
834.596	0.0167664
834.674	0.0166248
834.753	0.0167083
834.831	0.0168661
834.909	0.0168613
834.987	0.0168452
835.065	0.0169176
835.143	0.0169184
835.221	0.0169754
835.299	0.0169588
835.378	0.0170069
835.456	0.0171458
835.534	0.0170453
835.612	0.0170814
835.690	0.0169560
835.768	0.0170966
835.846	0.0169342
835.924	0.0169987
836.003	0.0170376
836.081	0.0169348
836.159	0.0169962
836.237	0.0168340
836.315	0.0168008
836.393	0.0166750
836.471	0.0168163
836.549	0.0169091
836.628	0.0168600
836.706	0.0168311
836.784	0.0167793
836.862	0.0166349
836.940	0.0165955
837.018	0.0167916
837.096	0.0166209
837.174	0.0167831
837.253	0.0167417
837.331	0.0167162
837.409	0.0167697
837.487	0.0167556
837.565	0.0166554
837.643	0.0167441
837.721	0.0167022
837.799	0.0166658
837.878	0.0166148
837.956	0.0166830
838.034	0.0165113
838.112	0.0165460
838.190	0.0164694
838.268	0.0165576
838.346	0.0164778
838.424	0.0164291
838.503	0.0164237
838.581	0.0164159
838.659	0.0164249
838.737	0.0163544
838.815	0.0163946
838.893	0.0162877
838.971	0.0164335
839.049	0.0164290
839.128	0.0163125
839.206	0.0165047
839.284	0.0164844
839.362	0.0164899
839.440	0.0163754
839.518	0.0165405
839.596	0.0167007
839.674	0.0167222
839.753	0.0166898
839.831	0.0166320
839.909	0.0168044
839.987	0.0166561
840.065	0.0166536
840.143	0.0165556
840.221	0.0167258
840.299	0.0166709
840.378	0.0165552
840.456	0.0165961
840.534	0.0165876
840.612	0.0163273
840.690	0.0166673
840.768	0.0165236
840.846	0.0164644
840.924	0.0165133
841.003	0.0165575
841.081	0.0165369
841.159	0.0165217
841.237	0.0166029
841.315	0.0164838
841.393	0.0163996
841.471	0.0164625
841.549	0.0164624
841.628	0.0164630
841.706	0.0165473
841.784	0.0163369
841.862	0.0162295
841.940	0.0163580
842.018	0.0163635
842.096	0.0164651
842.174	0.0163458
842.253	0.0163541
842.331	0.0164314
842.409	0.0164668
842.487	0.0163401
842.565	0.0165781
842.643	0.0164837
842.721	0.0164515
842.799	0.0165468
842.878	0.0164871
842.956	0.0165241
843.034	0.0166065
843.112	0.0166241
843.190	0.0165357
843.268	0.0165345
843.346	0.0166319
843.424	0.0165663
843.503	0.0166299
843.581	0.0167097
843.659	0.0166615
843.737	0.0165162
843.815	0.0165927
843.893	0.0166924
843.971	0.0165024
844.049	0.0164948
844.128	0.0164977
844.206	0.0165284
844.284	0.0165253
844.362	0.0165416
844.440	0.0163659
844.518	0.0165023
844.596	0.0164766
844.674	0.0163963
844.753	0.0164227
844.831	0.0164801
844.909	0.0164182
844.987	0.0163873
845.065	0.0162801
845.143	0.0163076
845.221	0.0163911
845.299	0.0163056
845.378	0.0163495
845.456	0.0163351
845.534	0.0162257
845.612	0.0163321
845.690	0.0165185
845.768	0.0163672
845.846	0.0161992
845.924	0.0163157
846.003	0.0164104
846.081	0.0162951
846.159	0.0163775
846.237	0.0164861
846.315	0.0163165
846.393	0.0163568
846.471	0.0163943
846.549	0.0163798
846.628	0.0164534
846.706	0.0164351
846.784	0.0164211
846.862	0.0164164
846.940	0.0165805
847.018	0.0166271
847.096	0.0165730
847.174	0.0165421
847.253	0.0165680
847.331	0.0165978
847.409	0.0165079
847.487	0.0164613
847.565	0.0167047
847.643	0.0167208
847.721	0.0165210
847.799	0.0167863
847.878	0.0167177
847.956	0.0166129
848.034	0.0168425
848.112	0.0167500
848.190	0.0167060
848.268	0.0167555
848.346	0.0168690
848.424	0.0167863
848.503	0.0169088
848.581	0.0168430
848.659	0.0168542
848.737	0.0168947
848.815	0.0169123
848.893	0.0169208
848.971	0.0168082
849.049	0.0167905
849.128	0.0166924
849.206	0.0166452
849.284	0.0166912
849.362	0.0166375
849.440	0.0166312
849.518	0.0165435
849.596	0.0164784
849.674	0.0165239
849.753	0.0165692
849.831	0.0165932
849.909	0.0165212
849.987	0.0163225
850.065	0.0164132
850.143	0.0165606
850.221	0.0164909
850.299	0.0164617
850.378	0.0164489
850.456	0.0163535
850.534	0.0164662
850.612	0.0164758
850.690	0.0164333
850.768	0.0165096
850.846	0.0165164
850.924	0.0163284
851.003	0.0163760
851.081	0.0163956
851.159	0.0162856
851.237	0.0162699
851.315	0.0164523
851.393	0.0164204
851.471	0.0162189
851.549	0.0164075
851.628	0.0163285
851.706	0.0163307
851.784	0.0161977
851.862	0.0163183
851.940	0.0163103
852.018	0.0161741
852.096	0.0161977
852.174	0.0163091
852.253	0.0163857
852.331	0.0162801
852.409	0.0163156
852.487	0.0162488
852.565	0.0163732
852.643	0.0163359
852.721	0.0162676
852.799	0.0163159
852.878	0.0164915
852.956	0.0164163
853.034	0.0165371
853.112	0.0165576
853.190	0.0164722
853.268	0.0166221
853.346	0.0165465
853.424	0.0164937
853.503	0.0165628
853.581	0.0166153
853.659	0.0166646
853.737	0.0167341
853.815	0.0166278
853.893	0.0167236
853.971	0.0167835
854.049	0.0166919
854.128	0.0165570
854.206	0.0166549
854.284	0.0165002
854.362	0.0166150
854.440	0.0165813
854.518	0.0165898
854.596	0.0165663
854.674	0.0166337
854.753	0.0166613
854.831	0.0166341
854.909	0.0166147
854.987	0.0165084
855.065	0.0164453
855.143	0.0165263
855.221	0.0164032
855.299	0.0166383
855.378	0.0165363
855.456	0.0164405
855.534	0.0163466
855.612	0.0163436
855.690	0.0163744
855.768	0.0165195
855.846	0.0163274
855.924	0.0164684
856.003	0.0165524
856.081	0.0165929
856.159	0.0165483
856.237	0.0165041
856.315	0.0166959
856.393	0.0165479
856.471	0.0165644
856.549	0.0168169
856.628	0.0166940
856.706	0.0166509
856.784	0.0167738
856.862	0.0166841
856.940	0.0168060
857.018	0.0167018
857.096	0.0166698
857.174	0.0167440
857.253	0.0166677
857.331	0.0167547
857.409	0.0165499
857.487	0.0166651
857.565	0.0166889
857.643	0.0166665
857.721	0.0164712
857.799	0.0165250
857.878	0.0166674
857.956	0.0165138
858.034	0.0166872
858.112	0.0165755
858.190	0.0164915
858.268	0.0165568
858.346	0.0166410
858.424	0.0166396
858.503	0.0165882
858.581	0.0166093
858.659	0.0165512
858.737	0.0165869
858.815	0.0165798
858.893	0.0165710
858.971	0.0165327
859.049	0.0165586
859.128	0.0164970
859.206	0.0164789
859.284	0.0166441
859.362	0.0164477
859.440	0.0165279
859.518	0.0163678
859.596	0.0165527
859.674	0.0165983
859.753	0.0165296
859.831	0.0165671
859.909	0.0165947
