06/01/2022	17:44:27	Ver.	4.1	UNKNOWN
Optical Delay	539.993571	Delta X		0.078125	Sweeps	1	Scan Rate	0/0
Coordinates	Axis 1	NaN	Axis 2	NaN	Axis 3	NaN	Axis 4	NaN	Axis 5	NaN	Axis 6	0.000000
TX Power	0.000000	RX Power	0.000000

539.994	0.0170044
540.072	0.0169005
540.150	0.0169936
540.228	0.0169211
540.306	0.0169407
540.384	0.0169384
540.462	0.0170026
540.540	0.0169250
540.619	0.0169520
540.697	0.0170123
540.775	0.0169758
540.853	0.0168422
540.931	0.0169002
541.009	0.0169167
541.087	0.0170924
541.165	0.0168928
541.244	0.0170544
541.322	0.0171125
541.400	0.0170280
541.478	0.0170447
541.556	0.0168512
541.634	0.0170187
541.712	0.0169379
541.790	0.0170621
541.869	0.0170480
541.947	0.0169797
542.025	0.0171522
542.103	0.0171217
542.181	0.0169908
542.259	0.0170509
542.337	0.0171535
542.415	0.0171138
542.494	0.0170488
542.572	0.0172492
542.650	0.0171524
542.728	0.0170993
542.806	0.0170200
542.884	0.0172820
542.962	0.0170815
543.040	0.0170991
543.119	0.0171010
543.197	0.0170190
543.275	0.0170577
543.353	0.0171421
543.431	0.0172026
543.509	0.0172345
543.587	0.0171583
543.665	0.0170814
543.744	0.0172720
543.822	0.0171557
543.900	0.0172070
543.978	0.0171265
544.056	0.0172044
544.134	0.0172107
544.212	0.0172295
544.290	0.0170932
544.369	0.0172360
544.447	0.0170878
544.525	0.0172401
544.603	0.0171958
544.681	0.0172060
544.759	0.0171920
544.837	0.0172431
544.915	0.0171481
544.994	0.0171757
545.072	0.0172646
545.150	0.0171852
545.228	0.0171505
545.306	0.0172688
545.384	0.0171500
545.462	0.0171597
545.540	0.0171993
545.619	0.0171410
545.697	0.0171674
545.775	0.0172108
545.853	0.0172613
545.931	0.0171557
546.009	0.0170517
546.087	0.0172398
546.165	0.0171705
546.244	0.0171124
546.322	0.0172310
546.400	0.0171347
546.478	0.0171900
546.556	0.0171530
546.634	0.0171340
546.712	0.0172369
546.790	0.0172829
546.869	0.0172353
546.947	0.0170678
547.025	0.0171240
547.103	0.0171907
547.181	0.0170179
547.259	0.0171046
547.337	0.0171935
547.415	0.0169901
547.494	0.0168841
547.572	0.0170069
547.650	0.0171163
547.728	0.0170658
547.806	0.0169786
547.884	0.0170808
547.962	0.0168440
548.040	0.0170312
548.119	0.0169732
548.197	0.0170682
548.275	0.0170398
548.353	0.0170173
548.431	0.0169669
548.509	0.0169788
548.587	0.0170588
548.665	0.0171243
548.744	0.0170865
548.822	0.0169866
548.900	0.0170899
548.978	0.0171614
549.056	0.0170725
549.134	0.0169062
549.212	0.0169178
549.290	0.0171627
549.369	0.0171438
549.447	0.0169453
549.525	0.0170191
549.603	0.0169750
549.681	0.0169929
549.759	0.0169391
549.837	0.0170204
549.915	0.0170927
549.994	0.0170418
550.072	0.0170911
550.150	0.0170358
550.228	0.0171325
550.306	0.0170560
550.384	0.0170828
550.462	0.0172023
550.540	0.0170508
550.619	0.0169952
550.697	0.0170206
550.775	0.0170695
550.853	0.0171167
550.931	0.0170950
551.009	0.0171676
551.087	0.0169290
551.165	0.0169598
551.244	0.0169435
551.322	0.0170237
551.400	0.0170554
551.478	0.0170960
551.556	0.0169836
551.634	0.0171738
551.712	0.0171289
551.790	0.0169776
551.869	0.0170255
551.947	0.0171299
552.025	0.0171737
552.103	0.0170838
552.181	0.0169089
552.259	0.0169783
552.337	0.0169617
552.415	0.0170630
552.494	0.0171782
552.572	0.0170186
552.650	0.0170404
552.728	0.0170879
552.806	0.0171052
552.884	0.0169825
552.962	0.0170161
553.040	0.0170579
553.119	0.0171159
553.197	0.0169479
553.275	0.0171603
553.353	0.0170065
553.431	0.0169721
553.509	0.0173231
553.587	0.0172195
553.665	0.0172254
553.744	0.0172984
553.822	0.0171856
553.900	0.0170252
553.978	0.0171488
554.056	0.0171533
554.134	0.0174010
554.212	0.0173409
554.290	0.0171004
554.369	0.0171289
554.447	0.0171940
554.525	0.0172495
554.603	0.0172469
554.681	0.0172166
554.759	0.0171767
554.837	0.0172211
554.915	0.0171494
554.994	0.0171117
555.072	0.0172256
555.150	0.0172396
555.228	0.0172635
555.306	0.0172448
555.384	0.0172323
555.462	0.0171355
555.540	0.0172556
555.619	0.0173196
555.697	0.0171236
555.775	0.0171812
555.853	0.0172667
555.931	0.0172024
556.009	0.0170229
556.087	0.0170676
556.165	0.0171642
556.244	0.0170745
556.322	0.0170851
556.400	0.0171745
556.478	0.0171003
556.556	0.0170897
556.634	0.0170967
556.712	0.0171725
556.790	0.0169396
556.869	0.0170894
556.947	0.0171636
557.025	0.0170668
557.103	0.0170464
557.181	0.0170341
557.259	0.0170229
557.337	0.0170435
557.415	0.0171038
557.494	0.0171248
557.572	0.0170424
557.650	0.0171076
557.728	0.0169652
557.806	0.0169008
557.884	0.0171167
557.962	0.0169568
558.040	0.0169656
558.119	0.0170354
558.197	0.0170052
558.275	0.0168673
558.353	0.0170881
558.431	0.0171597
558.509	0.0169774
558.587	0.0168713
558.665	0.0171052
558.744	0.0169769
558.822	0.0169929
558.900	0.0170606
558.978	0.0171092
559.056	0.0169093
559.134	0.0169130
559.212	0.0171788
559.290	0.0169248
559.369	0.0168684
559.447	0.0169353
559.525	0.0170588
559.603	0.0170306
559.681	0.0170073
559.759	0.0169363
559.837	0.0169615
559.915	0.0170859
559.994	0.0169615
560.072	0.0168703
560.150	0.0169917
560.228	0.0169913
560.306	0.0169107
560.384	0.0168996
560.462	0.0170161
560.540	0.0168216
560.619	0.0168581
560.697	0.0170297
560.775	0.0169072
560.853	0.0168949
560.931	0.0168512
561.009	0.0169807
561.087	0.0169296
561.165	0.0167931
561.244	0.0167489
561.322	0.0168690
561.400	0.0167719
561.478	0.0167912
561.556	0.0168190
561.634	0.0169345
561.712	0.0169208
561.790	0.0166821
561.869	0.0168509
561.947	0.0168901
562.025	0.0168455
562.103	0.0168542
562.181	0.0168472
562.259	0.0169447
562.337	0.0168362
562.415	0.0168098
562.494	0.0166838
562.572	0.0168799
562.650	0.0169089
562.728	0.0168404
562.806	0.0168279
562.884	0.0167767
562.962	0.0168328
563.040	0.0169035
563.119	0.0168747
563.197	0.0169044
563.275	0.0169559
563.353	0.0167910
563.431	0.0168578
563.509	0.0169357
563.587	0.0168719
563.665	0.0169197
563.744	0.0169163
563.822	0.0169653
563.900	0.0169138
563.978	0.0168517
564.056	0.0169894
564.134	0.0169386
564.212	0.0170150
564.290	0.0169099
564.369	0.0169775
564.447	0.0169491
564.525	0.0170227
564.603	0.0171014
564.681	0.0170027
564.759	0.0169714
564.837	0.0169911
564.915	0.0170168
564.994	0.0170185
565.072	0.0169817
565.150	0.0169116
565.228	0.0171805
565.306	0.0169951
565.384	0.0169594
565.462	0.0170299
565.540	0.0170995
565.619	0.0170282
565.697	0.0169485
565.775	0.0171007
565.853	0.0170185
565.931	0.0169289
566.009	0.0169859
566.087	0.0170812
566.165	0.0170393
566.244	0.0170563
566.322	0.0170509
566.400	0.0169432
566.478	0.0168714
566.556	0.0170680
566.634	0.0168339
566.712	0.0169243
566.790	0.0169371
566.869	0.0168694
566.947	0.0168767
567.025	0.0169855
567.103	0.0169483
567.181	0.0171032
567.259	0.0169073
567.337	0.0170811
567.415	0.0169657
567.494	0.0168638
567.572	0.0169772
567.650	0.0170576
567.728	0.0171513
567.806	0.0169529
567.884	0.0170600
567.962	0.0169966
568.040	0.0170483
568.119	0.0171469
568.197	0.0170194
568.275	0.0171679
568.353	0.0169782
568.431	0.0169931
568.509	0.0170664
568.587	0.0170364
568.665	0.0170305
568.744	0.0170241
568.822	0.0169911
568.900	0.0170952
568.978	0.0169949
569.056	0.0171207
569.134	0.0170382
569.212	0.0170668
569.290	0.0169986
569.369	0.0170234
569.447	0.0169276
569.525	0.0170653
569.603	0.0170715
569.681	0.0171502
569.759	0.0170938
569.837	0.0170616
569.915	0.0171351
569.994	0.0170213
570.072	0.0171329
570.150	0.0171049
570.228	0.0170428
570.306	0.0169714
570.384	0.0169626
570.462	0.0171061
570.540	0.0173122
570.619	0.0171365
570.697	0.0171603
570.775	0.0170774
570.853	0.0169183
570.931	0.0172609
571.009	0.0171808
571.087	0.0171111
571.165	0.0170435
571.244	0.0171782
571.322	0.0171626
571.400	0.0170506
571.478	0.0170431
571.556	0.0170046
571.634	0.0170787
571.712	0.0170900
571.790	0.0169711
571.869	0.0171266
571.947	0.0170728
572.025	0.0170192
572.103	0.0169478
572.181	0.0170689
572.259	0.0170487
572.337	0.0169805
572.415	0.0169359
572.494	0.0169566
572.572	0.0170210
572.650	0.0170605
572.728	0.0169992
572.806	0.0170161
572.884	0.0170570
572.962	0.0170041
573.040	0.0169923
573.119	0.0170206
573.197	0.0170664
573.275	0.0169785
573.353	0.0170120
573.431	0.0169665
573.509	0.0169321
573.587	0.0169134
573.665	0.0170443
573.744	0.0169498
573.822	0.0168804
573.900	0.0169912
573.978	0.0168960
574.056	0.0169887
574.134	0.0168781
574.212	0.0169257
574.290	0.0168144
574.369	0.0169765
574.447	0.0169553
574.525	0.0170320
574.603	0.0168510
574.681	0.0168352
574.759	0.0168472
574.837	0.0169527
574.915	0.0169563
574.994	0.0169341
575.072	0.0168028
575.150	0.0168787
575.228	0.0169238
575.306	0.0169359
575.384	0.0169592
575.462	0.0168951
575.540	0.0169308
575.619	0.0169662
575.697	0.0168949
575.775	0.0169311
575.853	0.0170353
575.931	0.0169958
576.009	0.0169723
576.087	0.0168919
576.165	0.0170739
576.244	0.0169630
576.322	0.0168846
576.400	0.0169011
576.478	0.0170875
576.556	0.0170118
576.634	0.0169372
576.712	0.0170140
576.790	0.0170316
576.869	0.0169290
576.947	0.0170481
577.025	0.0168961
577.103	0.0168683
577.181	0.0169180
577.259	0.0169432
577.337	0.0168418
577.415	0.0168391
577.494	0.0168967
577.572	0.0168017
577.650	0.0169668
577.728	0.0168024
577.806	0.0168687
577.884	0.0168446
577.962	0.0167656
578.040	0.0169588
578.119	0.0169440
578.197	0.0169024
578.275	0.0169239
578.353	0.0168835
578.431	0.0167822
578.509	0.0167738
578.587	0.0168543
578.665	0.0168820
578.744	0.0168472
578.822	0.0167722
578.900	0.0168410
578.978	0.0170434
579.056	0.0169390
579.134	0.0168345
579.212	0.0169521
579.290	0.0169226
579.369	0.0169528
579.447	0.0168356
579.525	0.0169830
579.603	0.0168684
579.681	0.0168934
579.759	0.0169399
579.837	0.0170031
579.915	0.0170290
579.994	0.0169847
580.072	0.0169095
580.150	0.0170845
580.228	0.0170887
580.306	0.0171165
580.384	0.0169762
580.462	0.0170335
580.540	0.0172504
580.619	0.0172237
580.697	0.0171786
580.775	0.0170532
580.853	0.0171169
580.931	0.0171093
581.009	0.0172880
581.087	0.0172059
581.165	0.0172271
581.244	0.0173155
581.322	0.0173838
581.400	0.0174631
581.478	0.0173784
581.556	0.0174185
581.634	0.0173875
581.712	0.0174661
581.790	0.0174457
581.869	0.0174292
581.947	0.0172190
582.025	0.0172568
582.103	0.0172398
582.181	0.0173726
582.259	0.0172475
582.337	0.0172899
582.415	0.0171883
582.494	0.0173288
582.572	0.0172691
582.650	0.0170120
582.728	0.0172126
582.806	0.0172061
582.884	0.0171251
582.962	0.0172099
583.040	0.0173191
583.119	0.0173929
583.197	0.0171724
583.275	0.0172893
583.353	0.0173316
583.431	0.0172868
583.509	0.0173134
583.587	0.0171252
583.665	0.0171986
583.744	0.0173706
583.822	0.0173370
583.900	0.0172287
583.978	0.0170937
584.056	0.0171430
584.134	0.0172156
584.212	0.0171845
584.290	0.0170956
584.369	0.0169247
584.447	0.0169981
584.525	0.0169810
584.603	0.0170147
584.681	0.0169183
584.759	0.0168505
584.837	0.0168877
584.915	0.0168646
584.994	0.0167087
585.072	0.0168150
585.150	0.0168426
585.228	0.0168523
585.306	0.0167167
585.384	0.0167078
585.462	0.0167659
585.540	0.0168868
585.619	0.0167957
585.697	0.0168262
585.775	0.0169528
585.853	0.0168270
585.931	0.0167916
586.009	0.0169124
586.087	0.0169480
586.165	0.0169595
586.244	0.0169456
586.322	0.0167404
586.400	0.0168464
586.478	0.0169679
586.556	0.0168463
586.634	0.0168710
586.712	0.0168745
586.790	0.0169676
586.869	0.0168867
586.947	0.0169526
587.025	0.0169225
587.103	0.0167818
587.181	0.0168031
587.259	0.0166798
587.337	0.0169133
587.415	0.0167979
587.494	0.0167578
587.572	0.0168102
587.650	0.0166154
587.728	0.0167790
587.806	0.0167796
587.884	0.0166917
587.962	0.0166135
588.040	0.0167375
588.119	0.0165538
588.197	0.0166299
588.275	0.0167422
588.353	0.0167335
588.431	0.0167378
588.509	0.0168422
588.587	0.0168295
588.665	0.0166229
588.744	0.0167450
588.822	0.0166219
588.900	0.0167001
588.978	0.0167432
589.056	0.0167200
589.134	0.0167423
589.212	0.0169196
589.290	0.0167191
589.369	0.0167970
589.447	0.0168580
589.525	0.0167651
589.603	0.0167838
589.681	0.0167017
589.759	0.0168373
589.837	0.0168127
589.915	0.0167605
589.994	0.0167842
590.072	0.0167404
590.150	0.0166935
590.228	0.0168139
590.306	0.0168500
590.384	0.0168203
590.462	0.0167992
590.540	0.0168937
590.619	0.0167599
590.697	0.0169186
590.775	0.0170192
590.853	0.0170040
590.931	0.0170179
591.009	0.0169180
591.087	0.0168354
591.165	0.0169086
591.244	0.0168945
591.322	0.0168539
591.400	0.0170027
591.478	0.0168557
591.556	0.0168697
591.634	0.0168468
591.712	0.0168823
591.790	0.0168336
591.869	0.0167983
591.947	0.0167685
592.025	0.0168702
592.103	0.0169283
592.181	0.0167953
592.259	0.0167776
592.337	0.0169130
592.415	0.0168664
592.494	0.0169215
592.572	0.0168514
592.650	0.0168512
592.728	0.0168927
592.806	0.0171119
592.884	0.0169794
592.962	0.0170261
593.040	0.0170511
593.119	0.0169627
593.197	0.0169135
593.275	0.0169249
593.353	0.0169087
593.431	0.0169463
593.509	0.0168636
593.587	0.0169555
593.665	0.0167626
593.744	0.0167352
593.822	0.0168587
593.900	0.0170423
593.978	0.0168626
594.056	0.0168654
594.134	0.0169485
594.212	0.0170127
594.290	0.0171742
594.369	0.0170300
594.447	0.0171662
594.525	0.0173520
594.603	0.0173309
594.681	0.0174390
594.759	0.0176048
594.837	0.0176282
594.915	0.0175127
594.994	0.0175364
595.072	0.0176200
595.150	0.0176150
595.228	0.0175459
595.306	0.0173151
595.384	0.0172823
595.462	0.0170097
595.540	0.0169931
595.619	0.0168224
595.697	0.0166448
595.775	0.0166008
595.853	0.0163932
595.931	0.0162949
596.009	0.0162920
596.087	0.0163576
596.165	0.0162786
596.244	0.0163004
596.322	0.0163641
596.400	0.0163146
596.478	0.0165567
596.556	0.0166738
596.634	0.0167437
596.712	0.0170356
596.790	0.0172528
596.869	0.0173545
596.947	0.0175880
597.025	0.0178143
597.103	0.0177236
597.181	0.0180580
597.259	0.0180987
597.337	0.0181543
597.415	0.0180709
597.494	0.0181049
597.572	0.0180884
597.650	0.0178674
597.728	0.0176718
597.806	0.0174741
597.884	0.0173918
597.962	0.0171720
598.040	0.0167850
598.119	0.0165346
598.197	0.0163387
598.275	0.0161723
598.353	0.0159769
598.431	0.0158887
598.509	0.0157196
598.587	0.0156508
598.665	0.0155279
598.744	0.0154428
598.822	0.0154968
598.900	0.0156461
598.978	0.0157321
599.056	0.0158552
599.134	0.0160874
599.212	0.0161534
599.290	0.0162215
599.369	0.0163540
599.447	0.0166608
599.525	0.0168629
599.603	0.0171333
599.681	0.0172915
599.759	0.0173792
599.837	0.0175608
599.915	0.0176149
599.994	0.0179100
600.072	0.0181042
600.150	0.0181150
600.228	0.0181131
600.306	0.0183416
600.384	0.0182992
600.462	0.0184709
600.540	0.0184697
600.619	0.0183951
600.697	0.0184558
600.775	0.0183837
600.853	0.0183884
600.931	0.0182412
601.009	0.0181622
601.087	0.0180596
601.165	0.0179596
601.244	0.0178337
601.322	0.0175854
601.400	0.0173441
601.478	0.0172659
601.556	0.0169684
601.634	0.0169530
601.712	0.0165582
601.790	0.0164124
601.869	0.0162481
601.947	0.0160583
602.025	0.0159089
602.103	0.0157024
602.181	0.0156197
602.259	0.0154749
602.337	0.0154938
602.415	0.0153490
602.494	0.0153321
602.572	0.0156036
602.650	0.0157469
602.728	0.0158240
602.806	0.0158332
602.884	0.0160959
602.962	0.0164821
603.040	0.0166795
603.119	0.0168775
603.197	0.0169942
603.275	0.0173103
603.353	0.0173923
603.431	0.0175861
603.509	0.0177436
603.587	0.0176969
603.665	0.0178461
603.744	0.0181358
603.822	0.0181033
603.900	0.0179713
603.978	0.0180955
604.056	0.0182343
604.134	0.0181793
604.212	0.0182224
604.290	0.0182478
604.369	0.0183001
604.447	0.0183086
604.525	0.0181895
604.603	0.0183591
604.681	0.0182186
604.759	0.0180163
604.837	0.0179756
604.915	0.0176015
604.994	0.0176344
605.072	0.0175263
605.150	0.0172419
605.228	0.0170177
605.306	0.0166845
605.384	0.0166661
605.462	0.0164851
605.540	0.0163039
605.619	0.0160973
605.697	0.0158324
605.775	0.0158200
605.853	0.0157853
605.931	0.0154526
606.009	0.0157333
606.087	0.0154625
606.165	0.0153951
606.244	0.0153338
606.322	0.0153516
606.400	0.0154160
606.478	0.0154175
606.556	0.0152615
606.634	0.0154436
606.712	0.0156706
606.790	0.0158257
606.869	0.0158212
606.947	0.0162079
607.025	0.0163179
607.103	0.0165696
607.181	0.0168861
607.259	0.0169382
607.337	0.0172742
607.415	0.0173690
607.494	0.0175259
607.572	0.0176640
607.650	0.0178412
607.728	0.0180980
607.806	0.0182070
607.884	0.0184386
607.962	0.0184448
608.040	0.0185736
608.119	0.0185010
608.197	0.0185124
608.275	0.0185677
608.353	0.0184505
608.431	0.0185362
608.509	0.0183383
608.587	0.0180461
608.665	0.0178640
608.744	0.0177740
608.822	0.0176548
608.900	0.0174086
608.978	0.0173275
609.056	0.0170634
609.134	0.0168149
609.212	0.0166931
609.290	0.0166013
609.369	0.0164648
609.447	0.0166974
609.525	0.0164349
609.603	0.0162781
609.681	0.0163992
609.759	0.0163931
609.837	0.0164366
609.915	0.0164098
609.994	0.0164062
610.072	0.0165883
610.150	0.0165295
610.228	0.0163891
610.306	0.0163008
610.384	0.0163802
610.462	0.0161646
610.540	0.0161377
610.619	0.0161610
610.697	0.0160997
610.775	0.0159490
610.853	0.0158855
610.931	0.0158737
611.009	0.0157467
611.087	0.0156980
611.165	0.0157387
611.244	0.0157137
611.322	0.0157239
611.400	0.0156876
611.478	0.0156618
611.556	0.0158792
611.634	0.0159877
611.712	0.0160906
611.790	0.0161460
611.869	0.0162843
611.947	0.0165457
612.025	0.0166258
612.103	0.0167377
612.181	0.0170193
612.259	0.0174227
612.337	0.0176346
612.415	0.0178642
612.494	0.0181858
612.572	0.0185085
612.650	0.0187120
612.728	0.0190485
612.806	0.0193103
612.884	0.0194280
612.962	0.0196078
613.040	0.0195953
613.119	0.0197740
613.197	0.0200229
613.275	0.0199211
613.353	0.0199575
613.431	0.0200161
613.509	0.0199972
613.587	0.0198731
613.665	0.0197090
613.744	0.0196220
613.822	0.0193717
613.900	0.0191606
613.978	0.0186933
614.056	0.0183480
614.134	0.0179115
614.212	0.0174126
614.290	0.0169991
614.369	0.0163657
614.447	0.0157632
614.525	0.0153811
614.603	0.0150627
614.681	0.0142635
614.759	0.0139106
614.837	0.0136052
614.915	0.0134944
614.994	0.0131566
615.072	0.0129445
615.150	0.0129353
615.228	0.0130624
615.306	0.0131223
615.384	0.0133030
615.462	0.0134221
615.540	0.0137856
615.619	0.0140364
615.697	0.0142767
615.775	0.0147344
615.853	0.0151179
615.931	0.0154565
616.009	0.0161736
616.087	0.0164945
616.165	0.0169479
616.244	0.0174576
616.322	0.0178204
616.400	0.0183186
616.478	0.0187683
616.556	0.0192142
616.634	0.0197195
616.712	0.0199822
616.790	0.0201986
616.869	0.0204987
616.947	0.0209205
617.025	0.0208540
617.103	0.0208331
617.181	0.0207495
617.259	0.0208418
617.337	0.0208076
617.415	0.0203014
617.494	0.0201466
617.572	0.0198460
617.650	0.0194305
617.728	0.0191431
617.806	0.0187883
617.884	0.0183671
617.962	0.0180031
618.040	0.0174969
618.119	0.0171430
618.197	0.0169381
618.275	0.0164677
618.353	0.0161610
618.431	0.0160783
618.509	0.0157351
618.587	0.0157407
618.665	0.0157693
618.744	0.0158175
618.822	0.0157395
618.900	0.0156933
618.978	0.0159613
619.056	0.0159235
619.134	0.0157829
619.212	0.0158911
619.290	0.0159482
619.369	0.0157519
619.447	0.0157585
619.525	0.0158096
619.603	0.0157040
619.681	0.0157352
619.759	0.0156339
619.837	0.0156944
619.915	0.0155620
619.994	0.0155158
620.072	0.0154512
620.150	0.0155723
620.228	0.0154305
620.306	0.0157904
620.384	0.0156541
620.462	0.0158086
620.540	0.0158575
620.619	0.0159916
620.697	0.0159914
620.775	0.0161212
620.853	0.0161993
620.931	0.0162932
621.009	0.0165961
621.087	0.0167445
621.165	0.0167812
621.244	0.0169759
621.322	0.0170671
621.400	0.0174268
621.478	0.0175476
621.556	0.0176923
621.634	0.0180933
621.712	0.0184450
621.790	0.0185517
621.869	0.0187864
621.947	0.0190253
622.025	0.0192542
622.103	0.0194849
622.181	0.0194745
622.259	0.0194424
622.337	0.0196386
622.415	0.0195195
622.494	0.0193307
622.572	0.0194205
622.650	0.0191071
622.728	0.0189868
622.806	0.0187233
622.884	0.0183289
622.962	0.0180810
623.040	0.0179075
623.119	0.0175406
623.197	0.0172146
623.275	0.0169851
623.353	0.0165506
623.431	0.0163461
623.509	0.0161904
623.587	0.0158721
623.665	0.0158250
623.744	0.0157265
623.822	0.0156218
623.900	0.0155677
623.978	0.0154888
624.056	0.0155680
624.134	0.0154943
624.212	0.0154567
624.290	0.0154736
624.369	0.0155721
624.447	0.0156049
624.525	0.0156305
624.603	0.0156412
624.681	0.0159032
624.759	0.0160363
624.837	0.0162154
624.915	0.0162762
624.994	0.0166250
625.072	0.0166538
625.150	0.0169577
625.228	0.0171955
625.306	0.0175031
625.384	0.0175919
625.462	0.0175423
625.540	0.0178004
625.619	0.0179587
625.697	0.0179530
625.775	0.0180354
625.853	0.0180622
625.931	0.0181203
626.009	0.0182288
626.087	0.0183607
626.165	0.0182343
626.244	0.0182817
626.322	0.0183102
626.400	0.0182806
626.478	0.0183345
626.556	0.0182702
626.634	0.0181679
626.712	0.0180027
626.790	0.0180137
626.869	0.0179002
626.947	0.0177689
627.025	0.0176688
627.103	0.0173835
627.181	0.0173553
627.259	0.0170794
627.337	0.0167290
627.415	0.0165209
627.494	0.0161063
627.572	0.0159846
627.650	0.0159686
627.728	0.0158752
627.806	0.0157843
627.884	0.0155851
627.962	0.0156054
628.040	0.0156544
628.119	0.0155951
628.197	0.0156629
628.275	0.0158198
628.353	0.0157950
628.431	0.0160037
628.509	0.0160012
628.587	0.0160172
628.665	0.0160587
628.744	0.0160437
628.822	0.0160556
628.900	0.0160368
628.978	0.0163004
629.056	0.0164421
629.134	0.0163609
629.212	0.0165733
629.290	0.0166338
629.369	0.0168456
629.447	0.0170671
629.525	0.0171983
629.603	0.0174674
629.681	0.0177710
629.759	0.0177917
629.837	0.0181071
629.915	0.0183572
629.994	0.0185036
630.072	0.0187238
630.150	0.0188103
630.228	0.0190878
630.306	0.0191626
630.384	0.0193929
630.462	0.0194592
630.540	0.0195284
630.619	0.0196584
630.697	0.0195231
630.775	0.0197271
630.853	0.0197102
630.931	0.0195358
631.009	0.0193257
631.087	0.0192799
631.165	0.0190471
631.244	0.0188609
631.322	0.0184705
631.400	0.0180917
631.478	0.0177694
631.556	0.0176110
631.634	0.0171394
631.712	0.0164386
631.790	0.0162050
631.869	0.0159187
631.947	0.0153636
632.025	0.0149598
632.103	0.0145753
632.181	0.0141944
632.259	0.0139307
632.337	0.0134644
632.415	0.0133592
632.494	0.0132755
632.572	0.0131280
632.650	0.0130045
632.728	0.0130659
632.806	0.0131182
632.884	0.0132758
632.962	0.0134489
633.040	0.0135712
633.119	0.0139572
633.197	0.0143410
633.275	0.0148107
633.353	0.0150772
633.431	0.0156210
633.509	0.0161810
633.587	0.0164610
633.665	0.0169862
633.744	0.0176133
633.822	0.0178815
633.900	0.0182812
633.978	0.0186867
634.056	0.0188883
634.134	0.0192660
634.212	0.0194793
634.290	0.0197227
634.369	0.0198719
634.447	0.0200185
634.525	0.0199769
634.603	0.0200948
634.681	0.0201783
634.759	0.0199757
634.837	0.0197101
634.915	0.0197998
634.994	0.0195526
635.072	0.0193252
635.150	0.0189892
635.228	0.0187392
635.306	0.0185331
635.384	0.0182475
635.462	0.0180729
635.540	0.0176976
635.619	0.0175698
635.697	0.0172598
635.775	0.0171344
635.853	0.0167937
635.931	0.0167190
636.009	0.0166000
636.087	0.0162630
636.165	0.0160726
636.244	0.0161020
636.322	0.0157798
636.400	0.0155637
636.478	0.0155197
636.556	0.0155547
636.634	0.0155532
636.712	0.0154776
636.790	0.0155131
636.869	0.0156694
636.947	0.0156465
637.025	0.0158729
637.103	0.0160092
637.181	0.0161742
637.259	0.0162868
637.337	0.0163333
637.415	0.0164644
637.494	0.0166185
637.572	0.0168075
637.650	0.0168181
637.728	0.0168890
637.806	0.0168923
637.884	0.0169592
637.962	0.0170014
638.040	0.0170749
638.119	0.0169082
638.197	0.0169691
638.275	0.0170448
638.353	0.0168861
638.431	0.0169160
638.509	0.0168877
638.587	0.0169176
638.665	0.0169746
638.744	0.0168378
638.822	0.0168896
638.900	0.0169186
638.978	0.0169478
639.056	0.0168190
639.134	0.0169093
639.212	0.0169654
639.290	0.0170166
639.369	0.0171022
639.447	0.0170816
639.525	0.0171885
639.603	0.0172178
639.681	0.0172077
639.759	0.0172793
639.837	0.0172419
639.915	0.0173563
639.994	0.0175412
640.072	0.0174193
640.150	0.0173279
640.228	0.0172947
640.306	0.0175408
640.384	0.0176698
640.462	0.0175216
640.540	0.0175971
640.619	0.0177986
640.697	0.0177164
640.775	0.0175820
640.853	0.0176431
640.931	0.0176148
641.009	0.0175344
641.087	0.0173690
641.165	0.0172993
641.244	0.0171600
641.322	0.0169589
641.400	0.0167992
641.478	0.0168232
641.556	0.0166844
641.634	0.0165309
641.712	0.0165627
641.790	0.0165198
641.869	0.0165936
641.947	0.0167954
642.025	0.0168266
642.103	0.0170699
642.181	0.0171977
642.259	0.0173259
642.337	0.0176849
642.415	0.0177621
642.494	0.0180367
642.572	0.0182812
642.650	0.0183590
642.728	0.0183887
642.806	0.0183786
642.884	0.0184632
642.962	0.0184019
643.040	0.0182330
643.119	0.0181931
643.197	0.0181266
643.275	0.0179993
643.353	0.0176826
643.431	0.0176758
643.509	0.0174452
643.587	0.0173574
643.665	0.0172627
643.744	0.0171803
643.822	0.0171259
643.900	0.0168803
643.978	0.0169032
644.056	0.0167010
644.134	0.0167628
644.212	0.0168452
644.290	0.0166226
644.369	0.0166062
644.447	0.0164962
644.525	0.0165219
644.603	0.0163004
644.681	0.0163223
644.759	0.0162894
644.837	0.0162505
644.915	0.0163042
644.994	0.0161443
645.072	0.0160720
645.150	0.0159769
645.228	0.0161211
645.306	0.0159216
645.384	0.0159531
645.462	0.0158888
645.540	0.0156586
645.619	0.0158147
645.697	0.0158273
645.775	0.0157265
645.853	0.0157431
645.931	0.0157494
646.009	0.0160075
646.087	0.0158355
646.165	0.0159811
646.244	0.0160143
646.322	0.0161710
646.400	0.0161861
646.478	0.0165112
646.556	0.0165602
646.634	0.0168446
646.712	0.0170633
646.790	0.0171696
646.869	0.0172735
646.947	0.0175073
647.025	0.0177328
647.103	0.0179704
647.181	0.0181819
647.259	0.0182600
647.337	0.0184736
647.415	0.0188966
647.494	0.0189194
647.572	0.0188726
647.650	0.0191395
647.728	0.0192658
647.806	0.0194326
647.884	0.0195596
647.962	0.0193970
648.040	0.0193404
648.119	0.0192117
648.197	0.0192253
648.275	0.0190462
648.353	0.0187820
648.431	0.0185033
648.509	0.0183894
648.587	0.0180305
648.665	0.0178379
648.744	0.0176724
648.822	0.0171609
648.900	0.0170351
648.978	0.0168971
649.056	0.0165140
649.134	0.0164555
649.212	0.0162321
649.290	0.0158752
649.369	0.0158968
649.447	0.0157954
649.525	0.0154385
649.603	0.0152225
649.681	0.0151396
649.759	0.0151859
649.837	0.0150240
649.915	0.0148744
649.994	0.0149004
650.072	0.0148331
650.150	0.0149438
650.228	0.0149674
650.306	0.0152528
650.384	0.0152080
650.462	0.0153578
650.540	0.0155283
650.619	0.0155329
650.697	0.0158745
650.775	0.0160175
650.853	0.0161916
650.931	0.0162295
651.009	0.0164318
651.087	0.0166329
651.165	0.0168163
651.244	0.0167801
651.322	0.0170320
651.400	0.0171049
651.478	0.0171265
651.556	0.0171694
651.634	0.0171846
651.712	0.0173260
651.790	0.0173977
651.869	0.0173606
651.947	0.0175619
652.025	0.0176166
652.103	0.0178812
652.181	0.0179013
652.259	0.0178013
652.337	0.0177412
652.415	0.0179199
652.494	0.0179572
652.572	0.0178268
652.650	0.0176349
652.728	0.0178580
652.806	0.0175449
652.884	0.0175001
652.962	0.0174158
653.040	0.0175301
653.119	0.0172592
653.197	0.0171818
653.275	0.0170493
653.353	0.0169541
653.431	0.0168778
653.509	0.0167456
653.587	0.0168141
653.665	0.0168208
653.744	0.0169005
653.822	0.0167863
653.900	0.0167693
653.978	0.0168672
654.056	0.0166663
654.134	0.0167900
654.212	0.0167445
654.290	0.0168358
654.369	0.0169080
654.447	0.0168152
654.525	0.0168353
654.603	0.0169061
654.681	0.0171387
654.759	0.0172019
654.837	0.0171677
654.915	0.0171552
654.994	0.0174410
655.072	0.0173013
655.150	0.0172334
655.228	0.0173876
655.306	0.0173318
655.384	0.0174403
655.462	0.0174818
655.540	0.0175225
655.619	0.0174022
655.697	0.0174673
655.775	0.0173306
655.853	0.0174090
655.931	0.0174509
656.009	0.0173493
656.087	0.0173392
656.165	0.0173917
656.244	0.0172298
656.322	0.0172031
656.400	0.0172044
656.478	0.0170857
656.556	0.0171352
656.634	0.0169397
656.712	0.0168523
656.790	0.0167518
656.869	0.0167531
656.947	0.0166411
657.025	0.0165748
657.103	0.0164293
657.181	0.0165214
657.259	0.0164872
657.337	0.0165641
657.415	0.0164838
657.494	0.0163683
657.572	0.0165660
657.650	0.0165509
657.728	0.0164551
657.806	0.0165208
657.884	0.0165594
657.962	0.0164433
658.040	0.0166114
658.119	0.0165726
658.197	0.0164829
658.275	0.0163435
658.353	0.0163641
658.431	0.0163183
658.509	0.0163060
658.587	0.0163248
658.665	0.0162169
658.744	0.0162955
658.822	0.0163198
658.900	0.0163403
658.978	0.0163900
659.056	0.0162208
659.134	0.0161079
659.212	0.0161320
659.290	0.0161856
659.369	0.0161949
659.447	0.0162003
659.525	0.0162379
659.603	0.0163007
659.681	0.0163825
659.759	0.0164645
659.837	0.0164017
659.915	0.0165962
659.994	0.0166799
660.072	0.0166681
660.150	0.0168076
660.228	0.0171034
660.306	0.0171640
660.384	0.0173547
660.462	0.0173821
660.540	0.0175931
660.619	0.0176447
660.697	0.0176498
660.775	0.0177519
660.853	0.0178460
660.931	0.0178864
661.009	0.0178338
661.087	0.0179159
661.165	0.0179783
661.244	0.0179668
661.322	0.0180944
661.400	0.0182459
661.478	0.0180386
661.556	0.0182072
661.634	0.0182288
661.712	0.0180806
661.790	0.0181705
661.869	0.0181509
661.947	0.0180717
662.025	0.0180559
662.103	0.0181790
662.181	0.0180470
662.259	0.0178654
662.337	0.0179765
662.415	0.0178259
662.494	0.0177339
662.572	0.0177322
662.650	0.0175059
662.728	0.0173851
662.806	0.0172011
662.884	0.0170263
662.962	0.0169640
663.040	0.0169012
663.119	0.0167382
663.197	0.0165078
663.275	0.0163691
663.353	0.0161317
663.431	0.0160532
663.509	0.0158183
663.587	0.0157899
663.665	0.0157269
663.744	0.0156735
663.822	0.0154715
663.900	0.0154607
663.978	0.0155289
664.056	0.0156950
664.134	0.0156674
664.212	0.0157776
664.290	0.0157397
664.369	0.0158954
664.447	0.0160492
664.525	0.0161449
664.603	0.0162928
664.681	0.0164663
664.759	0.0165456
664.837	0.0165939
664.915	0.0167556
664.994	0.0166574
665.072	0.0170089
665.150	0.0170435
665.228	0.0172056
665.306	0.0172681
665.384	0.0173416
665.462	0.0173934
665.540	0.0173740
665.619	0.0176484
665.697	0.0178521
665.775	0.0176881
665.853	0.0178249
665.931	0.0179236
666.009	0.0178798
666.087	0.0179897
666.165	0.0182190
666.244	0.0182619
666.322	0.0182011
666.400	0.0181295
666.478	0.0182204
666.556	0.0181294
666.634	0.0180605
666.712	0.0179415
666.790	0.0176693
666.869	0.0174758
666.947	0.0174702
667.025	0.0174716
667.103	0.0171465
667.181	0.0171506
667.259	0.0170205
667.337	0.0167992
667.415	0.0167814
667.494	0.0167844
667.572	0.0166708
667.650	0.0168333
667.728	0.0167697
667.806	0.0167098
667.884	0.0167050
667.962	0.0168094
668.040	0.0169292
668.119	0.0167495
668.197	0.0169077
668.275	0.0169594
668.353	0.0171806
668.431	0.0171284
668.509	0.0170921
668.587	0.0172513
668.665	0.0172869
668.744	0.0173538
668.822	0.0173631
668.900	0.0173086
668.978	0.0172900
669.056	0.0175179
669.134	0.0173722
669.212	0.0173798
669.290	0.0173512
669.369	0.0174329
669.447	0.0173640
669.525	0.0172366
669.603	0.0172520
669.681	0.0171175
669.759	0.0172033
669.837	0.0170648
669.915	0.0169748
669.994	0.0168236
670.072	0.0167220
670.150	0.0167007
670.228	0.0165666
670.306	0.0165338
670.384	0.0164469
670.462	0.0162391
670.540	0.0159879
670.619	0.0160688
670.697	0.0161201
670.775	0.0161456
670.853	0.0159872
670.931	0.0156716
671.009	0.0158688
671.087	0.0158955
671.165	0.0158733
671.244	0.0157825
671.322	0.0158755
671.400	0.0159173
671.478	0.0159219
671.556	0.0161590
671.634	0.0161220
671.712	0.0162497
671.790	0.0164150
671.869	0.0164779
671.947	0.0165477
672.025	0.0166443
672.103	0.0167325
672.181	0.0168791
672.259	0.0171739
672.337	0.0173147
672.415	0.0173062
672.494	0.0173959
672.572	0.0175683
672.650	0.0174628
672.728	0.0176514
672.806	0.0176315
672.884	0.0174771
672.962	0.0174946
673.040	0.0173817
673.119	0.0174118
673.197	0.0174905
673.275	0.0173015
673.353	0.0175694
673.431	0.0174474
673.509	0.0174358
673.587	0.0174613
673.665	0.0175813
673.744	0.0176519
673.822	0.0176579
673.900	0.0176437
673.978	0.0177888
674.056	0.0176063
674.134	0.0177000
674.212	0.0175779
674.290	0.0175507
674.369	0.0172353
674.447	0.0173566
674.525	0.0173054
674.603	0.0171472
674.681	0.0170662
674.759	0.0170847
674.837	0.0168571
674.915	0.0168140
674.994	0.0168606
675.072	0.0168748
675.150	0.0168922
675.228	0.0168595
675.306	0.0168786
675.384	0.0170122
675.462	0.0170358
675.540	0.0171062
675.619	0.0171194
675.697	0.0172787
675.775	0.0172741
675.853	0.0173868
675.931	0.0171382
676.009	0.0172256
676.087	0.0172368
676.165	0.0171303
676.244	0.0170764
676.322	0.0170369
676.400	0.0169003
676.478	0.0167591
676.556	0.0167487
676.634	0.0166594
676.712	0.0166039
676.790	0.0165405
676.869	0.0165528
676.947	0.0165910
677.025	0.0165295
677.103	0.0164177
677.181	0.0163886
677.259	0.0163958
677.337	0.0163136
677.415	0.0163677
677.494	0.0164203
677.572	0.0164924
677.650	0.0166131
677.728	0.0164989
677.806	0.0165232
677.884	0.0165332
677.962	0.0165931
678.040	0.0165870
678.119	0.0165741
678.197	0.0167982
678.275	0.0165986
678.353	0.0167370
678.431	0.0168539
678.509	0.0168504
678.587	0.0168203
678.665	0.0168690
678.744	0.0169362
678.822	0.0170271
678.900	0.0170196
678.978	0.0170613
679.056	0.0170647
679.134	0.0172282
679.212	0.0171866
679.290	0.0172005
679.369	0.0172237
679.447	0.0172640
679.525	0.0173012
679.603	0.0173122
679.681	0.0173843
679.759	0.0175058
679.837	0.0175167
679.915	0.0174596
679.994	0.0174146
680.072	0.0174879
680.150	0.0174912
680.228	0.0175886
680.306	0.0175676
680.384	0.0175504
680.462	0.0175381
680.540	0.0175683
680.619	0.0174026
680.697	0.0174458
680.775	0.0174651
680.853	0.0173029
680.931	0.0172050
681.009	0.0172762
681.087	0.0169923
681.165	0.0169580
681.244	0.0168764
681.322	0.0168216
681.400	0.0166684
681.478	0.0165714
681.556	0.0164441
681.634	0.0164082
681.712	0.0163287
681.790	0.0162788
681.869	0.0162856
681.947	0.0163953
682.025	0.0162653
682.103	0.0163732
682.181	0.0162218
682.259	0.0163078
682.337	0.0164985
682.415	0.0164198
682.494	0.0164974
682.572	0.0165321
682.650	0.0166115
682.728	0.0168275
682.806	0.0168832
682.884	0.0170451
682.962	0.0172297
683.040	0.0171628
683.119	0.0172330
683.197	0.0173047
683.275	0.0174066
683.353	0.0174127
683.431	0.0173769
683.509	0.0175178
683.587	0.0175294
683.665	0.0174817
683.744	0.0173967
683.822	0.0173114
683.900	0.0173009
683.978	0.0172449
684.056	0.0172243
684.134	0.0173887
684.212	0.0172923
684.290	0.0172469
684.369	0.0172575
684.447	0.0171703
684.525	0.0173215
684.603	0.0172560
684.681	0.0172680
684.759	0.0172495
684.837	0.0172455
684.915	0.0171365
684.994	0.0171264
685.072	0.0170396
685.150	0.0171246
685.228	0.0170029
685.306	0.0169560
685.384	0.0170186
685.462	0.0170309
685.540	0.0169944
685.619	0.0170696
685.697	0.0169314
685.775	0.0171153
685.853	0.0171568
685.931	0.0170432
686.009	0.0169945
686.087	0.0170589
686.165	0.0171196
686.244	0.0172289
686.322	0.0171866
686.400	0.0173328
686.478	0.0172149
686.556	0.0171219
686.634	0.0171381
686.712	0.0172406
686.790	0.0171917
686.869	0.0169442
686.947	0.0170264
687.025	0.0172133
687.103	0.0170737
687.181	0.0171265
687.259	0.0170090
687.337	0.0171458
687.415	0.0172345
687.494	0.0171120
687.572	0.0170433
687.650	0.0171889
687.728	0.0171054
687.806	0.0169621
687.884	0.0170841
687.962	0.0168911
688.040	0.0169052
688.119	0.0168034
688.197	0.0167799
688.275	0.0167030
688.353	0.0168107
688.431	0.0166250
688.509	0.0165929
688.587	0.0167001
688.665	0.0164981
688.744	0.0164030
688.822	0.0164375
688.900	0.0164236
688.978	0.0163671
689.056	0.0163920
689.134	0.0164598
689.212	0.0164701
689.290	0.0164101
689.369	0.0164611
689.447	0.0164692
689.525	0.0165404
689.603	0.0164614
689.681	0.0166601
689.759	0.0168225
689.837	0.0168118
689.915	0.0169113
689.994	0.0169388
690.072	0.0169738
690.150	0.0170947
690.228	0.0171473
690.306	0.0173161
690.384	0.0174373
690.462	0.0173857
690.540	0.0172189
690.619	0.0173259
690.697	0.0174143
690.775	0.0174842
690.853	0.0173831
690.931	0.0174030
691.009	0.0173325
691.087	0.0175542
691.165	0.0174428
691.244	0.0174858
691.322	0.0173833
691.400	0.0173447
691.478	0.0173335
691.556	0.0174442
691.634	0.0174348
691.712	0.0175116
691.790	0.0175964
691.869	0.0173812
691.947	0.0173368
692.025	0.0173756
692.103	0.0173089
692.181	0.0172706
692.259	0.0172139
692.337	0.0173341
692.415	0.0171544
692.494	0.0172284
692.572	0.0172285
692.650	0.0171425
692.728	0.0170248
692.806	0.0170995
692.884	0.0170988
692.962	0.0169715
693.040	0.0169379
693.119	0.0170547
693.197	0.0169272
693.275	0.0169512
693.353	0.0168366
693.431	0.0170009
693.509	0.0170491
693.587	0.0168958
693.665	0.0169459
693.744	0.0171545
693.822	0.0171298
693.900	0.0171485
693.978	0.0172437
694.056	0.0170935
694.134	0.0171638
694.212	0.0171265
694.290	0.0170625
694.369	0.0171533
694.447	0.0171507
694.525	0.0170650
694.603	0.0169142
694.681	0.0169015
694.759	0.0170380
694.837	0.0168394
694.915	0.0168165
694.994	0.0168555
695.072	0.0167182
695.150	0.0166581
695.228	0.0165025
695.306	0.0166830
695.384	0.0166943
695.462	0.0166795
695.540	0.0168283
695.619	0.0167543
695.697	0.0167891
695.775	0.0168313
695.853	0.0168942
695.931	0.0170210
696.009	0.0170908
696.087	0.0171104
696.165	0.0171346
696.244	0.0171802
696.322	0.0171891
696.400	0.0171690
696.478	0.0171955
696.556	0.0171684
696.634	0.0172989
696.712	0.0172469
696.790	0.0172912
696.869	0.0171457
696.947	0.0171596
697.025	0.0172299
697.103	0.0171347
697.181	0.0170213
697.259	0.0171071
697.337	0.0171605
697.415	0.0170335
697.494	0.0170133
697.572	0.0171052
697.650	0.0170243
697.728	0.0171648
697.806	0.0170214
697.884	0.0169859
697.962	0.0171219
698.040	0.0170679
698.119	0.0170272
698.197	0.0171259
698.275	0.0171982
698.353	0.0171106
698.431	0.0170216
698.509	0.0170949
698.587	0.0171790
698.665	0.0170271
698.744	0.0170123
698.822	0.0170075
698.900	0.0170908
698.978	0.0169724
699.056	0.0170385
699.134	0.0172386
699.212	0.0169821
699.290	0.0169154
699.369	0.0170144
699.447	0.0169422
699.525	0.0169080
699.603	0.0168658
699.681	0.0169048
699.759	0.0168659
699.837	0.0168560
699.915	0.0167752
699.994	0.0167805
700.072	0.0166705
700.150	0.0168420
700.228	0.0167835
700.306	0.0167505
700.384	0.0168755
700.462	0.0168751
700.540	0.0168459
700.619	0.0170980
700.697	0.0170010
700.775	0.0170593
700.853	0.0171033
700.931	0.0171946
701.009	0.0171447
701.087	0.0172237
701.165	0.0172108
701.244	0.0171033
701.322	0.0172027
701.400	0.0171701
701.478	0.0171613
701.556	0.0170586
701.634	0.0171284
701.712	0.0171609
701.790	0.0170127
701.869	0.0170002
701.947	0.0170228
702.025	0.0171528
702.103	0.0169920
702.181	0.0169211
702.259	0.0170488
702.337	0.0170779
702.415	0.0170213
702.494	0.0170579
702.572	0.0169083
702.650	0.0170872
702.728	0.0170597
702.806	0.0169631
702.884	0.0168788
702.962	0.0170103
703.040	0.0169112
703.119	0.0170115
703.197	0.0169820
703.275	0.0170333
703.353	0.0170193
703.431	0.0170213
703.509	0.0170520
703.587	0.0170406
703.665	0.0172010
703.744	0.0171681
703.822	0.0171828
703.900	0.0171252
703.978	0.0172300
704.056	0.0171458
704.134	0.0170896
704.212	0.0171375
704.290	0.0171043
704.369	0.0172196
704.447	0.0174194
704.525	0.0172816
704.603	0.0171416
704.681	0.0170985
704.759	0.0172387
704.837	0.0173394
704.915	0.0172370
704.994	0.0170837
705.072	0.0171343
705.150	0.0172346
705.228	0.0172131
705.306	0.0170751
705.384	0.0171950
705.462	0.0171660
705.540	0.0170453
705.619	0.0171203
705.697	0.0171436
705.775	0.0169810
705.853	0.0169276
705.931	0.0171986
706.009	0.0172422
706.087	0.0171702
706.165	0.0170616
706.244	0.0170952
706.322	0.0173483
706.400	0.0172153
706.478	0.0171846
706.556	0.0172109
706.634	0.0172216
706.712	0.0170764
706.790	0.0170448
706.869	0.0170949
706.947	0.0171320
707.025	0.0170124
707.103	0.0169202
707.181	0.0169107
707.259	0.0169546
707.337	0.0168768
707.415	0.0169317
707.494	0.0169222
707.572	0.0169020
707.650	0.0167403
707.728	0.0167225
707.806	0.0167786
707.884	0.0167020
707.962	0.0167977
708.040	0.0166955
708.119	0.0167044
708.197	0.0167368
708.275	0.0167030
708.353	0.0167372
708.431	0.0168417
708.509	0.0168755
708.587	0.0168574
708.665	0.0168781
708.744	0.0169671
708.822	0.0171188
708.900	0.0170200
708.978	0.0170042
709.056	0.0170577
709.134	0.0171820
709.212	0.0171494
709.290	0.0170601
709.369	0.0173036
709.447	0.0172470
709.525	0.0171678
709.603	0.0172264
709.681	0.0174252
709.759	0.0173698
709.837	0.0173003
709.915	0.0172932
709.994	0.0172886
710.072	0.0173383
710.150	0.0173595
710.228	0.0173489
710.306	0.0173502
710.384	0.0172375
710.462	0.0171525
710.540	0.0171845
710.619	0.0171113
710.697	0.0172056
710.775	0.0170197
710.853	0.0168211
710.931	0.0168861
711.009	0.0168293
711.087	0.0167597
711.165	0.0166867
711.244	0.0165121
711.322	0.0164987
711.400	0.0165240
711.478	0.0165200
711.556	0.0164113
711.634	0.0161729
711.712	0.0164054
711.790	0.0163345
711.869	0.0161819
711.947	0.0163178
712.025	0.0162724
712.103	0.0162232
712.181	0.0164438
712.259	0.0163017
712.337	0.0162585
712.415	0.0164027
712.494	0.0165100
712.572	0.0166064
712.650	0.0165984
712.728	0.0167582
712.806	0.0168384
712.884	0.0167889
712.962	0.0168781
713.040	0.0170935
713.119	0.0171137
713.197	0.0171314
713.275	0.0172945
713.353	0.0173542
713.431	0.0173486
713.509	0.0173814
713.587	0.0175163
713.665	0.0174552
713.744	0.0174396
713.822	0.0176099
713.900	0.0176016
713.978	0.0174613
714.056	0.0176066
714.134	0.0174168
714.212	0.0174767
714.290	0.0175186
714.369	0.0175383
714.447	0.0174995
714.525	0.0173257
714.603	0.0173708
714.681	0.0173650
714.759	0.0173343
714.837	0.0171455
714.915	0.0172381
714.994	0.0171764
715.072	0.0172308
715.150	0.0171902
715.228	0.0172815
715.306	0.0172092
715.384	0.0172292
715.462	0.0172782
715.540	0.0172484
715.619	0.0172411
715.697	0.0171947
715.775	0.0171696
715.853	0.0172376
715.931	0.0172354
716.009	0.0172614
716.087	0.0172551
716.165	0.0171297
716.244	0.0170385
716.322	0.0171049
716.400	0.0171103
716.478	0.0170717
716.556	0.0169760
716.634	0.0170306
716.712	0.0168587
716.790	0.0169421
716.869	0.0168507
716.947	0.0168838
717.025	0.0169729
717.103	0.0168823
717.181	0.0169285
717.259	0.0168642
717.337	0.0168439
717.415	0.0168689
717.494	0.0169366
717.572	0.0169255
717.650	0.0169196
717.728	0.0169447
717.806	0.0168711
717.884	0.0169408
717.962	0.0168814
718.040	0.0169767
718.119	0.0170776
718.197	0.0169704
718.275	0.0171284
718.353	0.0171149
718.431	0.0172106
718.509	0.0171571
718.587	0.0171452
718.665	0.0171199
718.744	0.0172330
718.822	0.0172821
718.900	0.0172047
718.978	0.0173109
719.056	0.0172928
719.134	0.0170962
719.212	0.0172935
719.290	0.0171223
719.369	0.0173028
719.447	0.0171232
719.525	0.0170141
719.603	0.0171320
719.681	0.0171339
719.759	0.0169698
719.837	0.0171027
719.915	0.0170855
719.994	0.0169455
720.072	0.0171008
720.150	0.0170039
720.228	0.0169819
720.306	0.0168422
720.384	0.0167905
720.462	0.0168681
720.540	0.0168389
720.619	0.0168584
720.697	0.0167516
720.775	0.0166928
720.853	0.0168243
720.931	0.0167460
721.009	0.0166125
721.087	0.0166718
721.165	0.0167554
721.244	0.0166950
721.322	0.0167682
721.400	0.0167661
721.478	0.0168370
721.556	0.0168343
721.634	0.0168307
721.712	0.0170937
721.790	0.0169524
721.869	0.0170079
721.947	0.0171173
722.025	0.0171470
722.103	0.0171046
722.181	0.0171697
722.259	0.0172409
722.337	0.0173788
722.415	0.0173029
722.494	0.0172059
722.572	0.0172990
722.650	0.0172238
722.728	0.0172579
722.806	0.0170545
722.884	0.0171241
722.962	0.0172421
723.040	0.0171728
723.119	0.0170155
723.197	0.0169556
723.275	0.0170080
723.353	0.0169106
723.431	0.0169209
723.509	0.0169152
723.587	0.0169190
723.665	0.0170049
723.744	0.0169492
723.822	0.0168734
723.900	0.0167538
723.978	0.0167673
724.056	0.0167458
724.134	0.0167192
724.212	0.0167348
724.290	0.0168372
724.369	0.0168300
724.447	0.0167768
724.525	0.0167385
724.603	0.0168741
724.681	0.0168531
724.759	0.0167881
724.837	0.0168812
724.915	0.0168097
724.994	0.0170466
725.072	0.0169147
725.150	0.0168861
725.228	0.0170332
725.306	0.0171358
725.384	0.0170708
725.462	0.0171692
725.540	0.0172462
725.619	0.0170563
725.697	0.0172412
725.775	0.0171285
725.853	0.0172289
725.931	0.0173006
726.009	0.0172275
726.087	0.0172382
726.165	0.0172447
726.244	0.0173979
726.322	0.0173063
726.400	0.0173576
726.478	0.0174638
726.556	0.0174229
726.634	0.0172348
726.712	0.0172410
726.790	0.0174233
726.869	0.0173380
726.947	0.0174325
727.025	0.0173917
727.103	0.0173226
727.181	0.0174310
727.259	0.0173518
727.337	0.0171825
727.415	0.0173415
727.494	0.0173263
727.572	0.0172861
727.650	0.0172186
727.728	0.0172112
727.806	0.0172475
727.884	0.0172284
727.962	0.0172630
728.040	0.0172182
728.119	0.0169591
728.197	0.0169789
728.275	0.0168559
728.353	0.0167960
728.431	0.0168944
728.509	0.0167036
728.587	0.0168382
728.665	0.0165951
728.744	0.0164932
728.822	0.0165627
728.900	0.0165771
728.978	0.0164371
729.056	0.0163546
729.134	0.0164358
729.212	0.0164693
729.290	0.0164276
729.369	0.0164777
729.447	0.0163908
729.525	0.0163264
729.603	0.0163702
729.681	0.0165750
729.759	0.0165902
729.837	0.0165559
729.915	0.0164937
729.994	0.0168365
730.072	0.0167386
730.150	0.0168666
730.228	0.0168154
730.306	0.0169376
730.384	0.0169231
730.462	0.0170691
730.540	0.0171507
730.619	0.0171384
730.697	0.0169962
730.775	0.0171531
730.853	0.0173830
730.931	0.0172146
731.009	0.0171018
731.087	0.0171385
731.165	0.0172854
731.244	0.0172856
731.322	0.0172343
731.400	0.0172009
731.478	0.0172862
731.556	0.0173928
731.634	0.0172485
731.712	0.0170134
731.790	0.0170860
731.869	0.0170818
731.947	0.0171017
732.025	0.0170755
732.103	0.0170372
732.181	0.0169560
732.259	0.0169171
732.337	0.0168764
732.415	0.0168997
732.494	0.0167267
732.572	0.0166753
732.650	0.0166577
732.728	0.0167236
732.806	0.0165864
732.884	0.0168005
732.962	0.0165964
733.040	0.0165070
733.119	0.0166637
733.197	0.0166057
733.275	0.0167511
733.353	0.0166419
733.431	0.0167580
733.509	0.0166401
733.587	0.0167284
733.665	0.0167598
733.744	0.0168334
733.822	0.0168047
733.900	0.0168166
733.978	0.0169804
734.056	0.0169529
734.134	0.0169599
734.212	0.0169680
734.290	0.0169266
734.369	0.0169630
734.447	0.0170597
734.525	0.0170728
734.603	0.0169807
734.681	0.0170308
734.759	0.0170049
734.837	0.0171423
734.915	0.0171599
734.994	0.0169633
735.072	0.0170006
735.150	0.0171751
735.228	0.0170658
735.306	0.0170277
735.384	0.0169260
735.462	0.0168760
735.540	0.0169298
735.619	0.0167976
735.697	0.0168938
735.775	0.0168022
735.853	0.0168027
735.931	0.0168402
736.009	0.0168106
736.087	0.0165228
736.165	0.0167668
736.244	0.0168285
736.322	0.0167583
736.400	0.0167010
736.478	0.0167638
736.556	0.0167207
736.634	0.0167673
736.712	0.0169550
736.790	0.0167599
736.869	0.0168594
736.947	0.0167401
737.025	0.0169075
737.103	0.0171477
737.181	0.0168987
737.259	0.0169689
737.337	0.0170332
737.415	0.0171351
737.494	0.0172068
737.572	0.0171026
737.650	0.0170986
737.728	0.0171819
737.806	0.0170575
737.884	0.0173360
737.962	0.0171390
738.040	0.0173053
738.119	0.0173641
738.197	0.0172497
738.275	0.0171288
738.353	0.0172311
738.431	0.0171653
738.509	0.0170190
738.587	0.0169933
738.665	0.0170991
738.744	0.0169455
738.822	0.0170555
738.900	0.0170435
738.978	0.0169762
739.056	0.0170048
739.134	0.0169708
739.212	0.0170649
739.290	0.0169558
739.369	0.0169126
739.447	0.0170419
739.525	0.0170040
739.603	0.0168083
739.681	0.0170500
739.759	0.0169981
739.837	0.0169883
739.915	0.0170276
739.994	0.0171034
740.072	0.0169512
740.150	0.0168674
740.228	0.0169311
740.306	0.0168571
740.384	0.0167715
740.462	0.0168222
740.540	0.0169476
740.619	0.0168041
740.697	0.0170154
740.775	0.0168130
740.853	0.0168035
740.931	0.0168386
741.009	0.0169589
741.087	0.0168349
741.165	0.0168840
741.244	0.0169218
741.322	0.0167959
741.400	0.0167909
741.478	0.0168685
741.556	0.0169437
741.634	0.0167661
741.712	0.0169231
741.790	0.0169249
741.869	0.0168957
741.947	0.0168742
742.025	0.0168578
742.103	0.0168741
742.181	0.0167157
742.259	0.0167934
742.337	0.0168003
742.415	0.0167715
742.494	0.0167500
742.572	0.0167898
742.650	0.0168629
742.728	0.0169743
742.806	0.0168449
742.884	0.0168480
742.962	0.0168859
743.040	0.0170076
743.119	0.0170700
743.197	0.0169128
743.275	0.0169834
743.353	0.0172427
743.431	0.0172409
743.509	0.0171165
743.587	0.0172392
743.665	0.0171758
743.744	0.0173042
743.822	0.0174707
743.900	0.0173364
743.978	0.0173205
744.056	0.0174122
744.134	0.0173917
744.212	0.0174590
744.290	0.0174088
744.369	0.0173725
744.447	0.0173382
744.525	0.0175277
744.603	0.0173087
744.681	0.0172545
744.759	0.0172654
744.837	0.0173531
744.915	0.0173386
744.994	0.0171613
745.072	0.0173582
745.150	0.0172421
745.228	0.0172346
745.306	0.0171788
745.384	0.0172552
745.462	0.0169953
745.540	0.0171848
745.619	0.0172577
745.697	0.0171540
745.775	0.0170194
745.853	0.0169849
745.931	0.0169911
746.009	0.0169637
746.087	0.0170599
746.165	0.0169950
746.244	0.0169286
746.322	0.0169363
746.400	0.0168562
746.478	0.0166540
746.556	0.0168517
746.634	0.0167924
746.712	0.0167164
746.790	0.0167404
746.869	0.0166886
746.947	0.0168291
747.025	0.0167312
747.103	0.0167065
747.181	0.0167894
747.259	0.0167821
747.337	0.0167587
747.415	0.0168385
747.494	0.0168385
747.572	0.0167738
747.650	0.0167955
747.728	0.0168121
747.806	0.0167878
747.884	0.0168572
747.962	0.0168980
748.040	0.0168188
748.119	0.0167680
748.197	0.0168195
748.275	0.0168796
748.353	0.0168110
748.431	0.0167616
748.509	0.0168471
748.587	0.0168938
748.665	0.0168719
748.744	0.0168483
748.822	0.0170449
748.900	0.0170338
748.978	0.0169779
749.056	0.0170612
749.134	0.0169740
749.212	0.0170428
749.290	0.0169308
749.369	0.0170621
749.447	0.0170380
749.525	0.0169707
749.603	0.0169554
749.681	0.0169546
749.759	0.0170731
749.837	0.0169165
749.915	0.0170552
749.994	0.0169729
750.072	0.0171131
750.150	0.0169623
750.228	0.0169849
750.306	0.0170153
750.384	0.0169458
750.462	0.0170212
750.540	0.0170345
750.619	0.0170553
750.697	0.0168783
750.775	0.0170244
750.853	0.0170187
750.931	0.0170176
751.009	0.0168750
751.087	0.0168682
751.165	0.0169519
751.244	0.0169937
751.322	0.0170599
751.400	0.0170255
751.478	0.0169556
751.556	0.0170631
751.634	0.0170358
751.712	0.0170132
751.790	0.0171451
751.869	0.0170610
751.947	0.0171527
752.025	0.0171612
752.103	0.0171264
752.181	0.0171171
752.259	0.0170081
752.337	0.0172057
752.415	0.0171881
752.494	0.0170901
752.572	0.0170947
752.650	0.0170884
752.728	0.0172102
752.806	0.0170749
752.884	0.0171059
752.962	0.0171201
753.040	0.0171600
753.119	0.0169913
753.197	0.0170181
753.275	0.0171319
753.353	0.0170802
753.431	0.0171458
753.509	0.0169465
753.587	0.0169412
753.665	0.0170419
753.744	0.0171181
753.822	0.0169866
753.900	0.0170354
753.978	0.0169167
754.056	0.0169574
754.134	0.0169504
754.212	0.0170184
754.290	0.0170818
754.369	0.0169733
754.447	0.0168687
754.525	0.0168191
754.603	0.0171164
754.681	0.0170287
754.759	0.0169601
754.837	0.0170647
754.915	0.0169449
754.994	0.0170712
755.072	0.0169791
755.150	0.0169986
755.228	0.0169932
755.306	0.0170271
755.384	0.0169675
755.462	0.0169276
755.540	0.0170420
755.619	0.0170536
755.697	0.0169286
755.775	0.0169173
755.853	0.0170514
755.931	0.0169280
756.009	0.0170487
756.087	0.0170449
756.165	0.0169051
756.244	0.0169331
756.322	0.0171166
756.400	0.0170535
756.478	0.0169857
756.556	0.0170771
756.634	0.0169084
756.712	0.0170097
756.790	0.0169124
756.869	0.0170113
756.947	0.0170288
757.025	0.0169652
757.103	0.0169904
757.181	0.0169056
757.259	0.0168672
757.337	0.0169093
757.415	0.0169053
757.494	0.0168615
757.572	0.0170339
757.650	0.0169097
757.728	0.0169608
757.806	0.0168686
757.884	0.0168157
757.962	0.0169723
758.040	0.0169221
758.119	0.0168776
758.197	0.0169359
758.275	0.0171127
758.353	0.0170389
758.431	0.0171355
758.509	0.0171262
758.587	0.0169833
758.665	0.0170303
758.744	0.0170316
758.822	0.0170879
758.900	0.0170145
758.978	0.0170554
759.056	0.0172107
759.134	0.0169808
759.212	0.0170116
759.290	0.0169602
759.369	0.0168987
759.447	0.0168219
759.525	0.0168392
759.603	0.0168822
759.681	0.0168767
759.759	0.0168507
759.837	0.0168819
759.915	0.0168163
759.994	0.0166729
760.072	0.0167861
760.150	0.0166959
760.228	0.0168943
760.306	0.0167722
760.384	0.0168370
760.462	0.0167336
760.540	0.0167076
760.619	0.0168285
760.697	0.0167287
760.775	0.0167235
760.853	0.0167341
760.931	0.0167826
761.009	0.0166148
761.087	0.0167072
761.165	0.0167799
761.244	0.0168643
761.322	0.0166219
761.400	0.0167809
761.478	0.0167519
761.556	0.0168364
761.634	0.0166240
761.712	0.0168858
761.790	0.0167421
761.869	0.0167763
761.947	0.0166615
762.025	0.0167801
762.103	0.0167643
762.181	0.0167458
762.259	0.0169300
762.337	0.0168944
762.415	0.0167719
762.494	0.0168546
762.572	0.0170042
762.650	0.0169505
762.728	0.0171205
762.806	0.0169238
762.884	0.0170217
762.962	0.0170263
763.040	0.0169720
763.119	0.0170668
763.197	0.0171342
763.275	0.0171467
763.353	0.0171941
763.431	0.0171187
763.509	0.0172083
763.587	0.0171288
763.665	0.0170064
763.744	0.0169667
763.822	0.0169430
763.900	0.0170704
763.978	0.0170805
764.056	0.0169756
764.134	0.0170988
764.212	0.0170172
764.290	0.0171330
764.369	0.0170110
764.447	0.0169672
764.525	0.0169534
764.603	0.0169704
764.681	0.0170235
764.759	0.0170814
764.837	0.0168816
764.915	0.0169495
764.994	0.0170887
765.072	0.0170817
765.150	0.0170525
765.228	0.0169981
765.306	0.0170177
765.384	0.0168674
765.462	0.0170499
765.540	0.0170420
765.619	0.0168218
765.697	0.0168310
765.775	0.0170248
765.853	0.0169884
765.931	0.0169584
766.009	0.0169440
766.087	0.0169831
766.165	0.0169798
766.244	0.0169115
766.322	0.0169431
766.400	0.0170193
766.478	0.0169547
766.556	0.0170735
766.634	0.0168204
766.712	0.0168742
766.790	0.0169425
766.869	0.0168996
766.947	0.0168797
767.025	0.0169328
767.103	0.0169272
767.181	0.0169068
767.259	0.0169376
767.337	0.0169950
767.415	0.0172488
767.494	0.0169566
767.572	0.0168921
767.650	0.0168669
767.728	0.0170163
767.806	0.0169187
767.884	0.0170265
767.962	0.0171541
768.040	0.0170577
768.119	0.0171523
768.197	0.0171944
768.275	0.0171779
768.353	0.0170616
768.431	0.0172448
768.509	0.0172215
768.587	0.0171560
768.665	0.0173263
768.744	0.0173061
768.822	0.0171898
768.900	0.0173379
768.978	0.0173633
769.056	0.0174544
769.134	0.0174236
769.212	0.0174374
769.290	0.0173281
769.369	0.0174141
769.447	0.0172859
769.525	0.0175084
769.603	0.0173091
769.681	0.0172047
769.759	0.0173269
769.837	0.0174190
769.915	0.0172107
769.994	0.0172899
770.072	0.0170724
770.150	0.0171951
770.228	0.0172148
770.306	0.0172526
770.384	0.0170425
770.462	0.0171189
770.540	0.0172148
770.619	0.0170531
770.697	0.0169823
770.775	0.0170313
770.853	0.0169971
770.931	0.0171652
771.009	0.0169959
771.087	0.0170358
771.165	0.0170467
771.244	0.0169951
771.322	0.0168327
771.400	0.0168845
771.478	0.0170169
771.556	0.0169995
771.634	0.0170085
771.712	0.0169557
771.790	0.0169688
771.869	0.0169740
771.947	0.0168369
772.025	0.0169765
772.103	0.0171410
772.181	0.0169447
772.259	0.0168222
772.337	0.0169991
772.415	0.0169887
772.494	0.0168928
772.572	0.0170737
772.650	0.0168851
772.728	0.0168439
772.806	0.0168884
772.884	0.0168613
772.962	0.0169284
773.040	0.0168978
773.119	0.0166954
773.197	0.0168655
773.275	0.0167426
773.353	0.0167836
773.431	0.0167758
773.509	0.0167519
773.587	0.0168709
773.665	0.0168748
773.744	0.0167426
773.822	0.0168330
773.900	0.0168192
773.978	0.0169016
774.056	0.0169938
774.134	0.0169153
774.212	0.0168584
774.290	0.0168244
774.369	0.0169732
774.447	0.0167337
774.525	0.0167706
774.603	0.0168124
774.681	0.0168987
774.759	0.0168769
774.837	0.0169794
774.915	0.0167699
774.994	0.0168101
775.072	0.0168246
775.150	0.0169406
775.228	0.0167570
775.306	0.0167709
775.384	0.0168587
775.462	0.0168539
775.540	0.0169438
775.619	0.0168441
775.697	0.0169592
775.775	0.0168703
775.853	0.0169038
775.931	0.0170413
776.009	0.0170655
776.087	0.0169699
776.165	0.0170785
776.244	0.0170676
776.322	0.0170006
776.400	0.0169785
776.478	0.0172662
776.556	0.0171266
776.634	0.0171017
776.712	0.0170381
776.790	0.0173810
776.869	0.0171446
776.947	0.0170218
777.025	0.0171135
777.103	0.0171992
777.181	0.0172848
777.259	0.0172621
777.337	0.0171336
777.415	0.0172491
777.494	0.0172976
777.572	0.0171453
777.650	0.0171620
777.728	0.0170451
777.806	0.0172028
777.884	0.0170749
777.962	0.0169087
778.040	0.0170439
778.119	0.0170197
778.197	0.0170295
778.275	0.0169765
778.353	0.0169363
778.431	0.0168966
778.509	0.0169600
778.587	0.0168089
778.665	0.0169309
778.744	0.0169070
778.822	0.0167948
778.900	0.0167448
778.978	0.0169671
779.056	0.0168730
779.134	0.0168455
779.212	0.0168629
779.290	0.0168562
779.369	0.0168435
779.447	0.0169305
779.525	0.0169345
779.603	0.0168961
779.681	0.0169807
779.759	0.0169120
779.837	0.0170522
779.915	0.0168891
779.994	0.0169151
780.072	0.0169210
780.150	0.0170791
780.228	0.0171687
780.306	0.0168212
780.384	0.0170428
780.462	0.0170349
780.540	0.0169672
780.619	0.0170516
780.697	0.0168822
780.775	0.0169852
780.853	0.0170159
780.931	0.0171611
781.009	0.0171375
781.087	0.0170837
781.165	0.0169115
781.244	0.0170139
781.322	0.0170573
781.400	0.0172022
781.478	0.0171156
781.556	0.0172404
781.634	0.0172201
781.712	0.0171513
781.790	0.0170848
781.869	0.0171658
781.947	0.0171540
782.025	0.0171618
782.103	0.0171075
782.181	0.0171095
782.259	0.0170834
782.337	0.0171581
782.415	0.0171490
782.494	0.0170715
782.572	0.0169015
782.650	0.0170761
782.728	0.0170888
782.806	0.0170265
782.884	0.0170448
782.962	0.0171184
783.040	0.0170597
783.119	0.0170238
783.197	0.0170469
783.275	0.0169839
783.353	0.0169569
783.431	0.0171432
783.509	0.0172002
783.587	0.0170087
783.665	0.0170846
783.744	0.0171043
783.822	0.0169296
783.900	0.0170564
783.978	0.0171423
784.056	0.0171923
784.134	0.0171217
784.212	0.0170316
784.290	0.0171419
784.369	0.0171143
784.447	0.0170853
784.525	0.0172420
784.603	0.0171154
784.681	0.0171031
784.759	0.0171696
784.837	0.0172081
784.915	0.0172253
784.994	0.0171785
785.072	0.0171693
785.150	0.0171296
785.228	0.0172368
785.306	0.0170950
785.384	0.0170338
785.462	0.0172002
785.540	0.0172765
785.619	0.0171922
785.697	0.0171475
785.775	0.0172157
785.853	0.0169355
785.931	0.0171381
786.009	0.0170033
786.087	0.0170248
786.165	0.0171915
786.244	0.0169297
786.322	0.0170194
786.400	0.0170373
786.478	0.0168446
786.556	0.0169027
786.634	0.0170221
786.712	0.0168883
786.790	0.0169074
786.869	0.0167039
786.947	0.0168677
787.025	0.0167645
787.103	0.0167268
787.181	0.0167111
787.259	0.0166935
787.337	0.0167229
787.415	0.0167508
787.494	0.0167006
787.572	0.0166467
787.650	0.0167232
787.728	0.0166490
787.806	0.0167127
787.884	0.0166800
787.962	0.0167420
788.040	0.0168375
788.119	0.0167502
788.197	0.0168211
788.275	0.0167867
788.353	0.0168774
788.431	0.0168764
788.509	0.0168722
788.587	0.0169948
788.665	0.0169089
788.744	0.0169148
788.822	0.0169496
788.900	0.0170948
788.978	0.0169570
789.056	0.0171608
789.134	0.0171362
789.212	0.0171057
789.290	0.0171282
789.369	0.0169895
789.447	0.0170495
789.525	0.0170187
789.603	0.0169911
789.681	0.0170869
789.759	0.0169979
789.837	0.0170309
789.915	0.0169280
789.994	0.0170086
790.072	0.0169689
790.150	0.0168903
790.228	0.0170720
790.306	0.0170602
790.384	0.0168781
790.462	0.0169653
790.540	0.0168536
790.619	0.0170166
790.697	0.0168052
790.775	0.0169189
790.853	0.0168096
790.931	0.0168507
791.009	0.0170409
791.087	0.0169687
791.165	0.0168620
791.244	0.0169267
791.322	0.0168246
791.400	0.0169104
791.478	0.0170006
791.556	0.0169615
791.634	0.0168733
791.712	0.0170288
791.790	0.0168597
791.869	0.0168506
791.947	0.0170334
792.025	0.0169239
792.103	0.0170164
792.181	0.0169604
792.259	0.0169936
792.337	0.0169920
792.415	0.0170307
792.494	0.0170811
792.572	0.0169520
792.650	0.0169593
792.728	0.0170068
792.806	0.0170245
792.884	0.0170699
792.962	0.0170306
793.040	0.0169919
793.119	0.0170126
793.197	0.0169740
793.275	0.0169920
793.353	0.0171227
793.431	0.0170975
793.509	0.0170527
793.587	0.0169348
793.665	0.0170695
793.744	0.0170124
793.822	0.0169937
793.900	0.0169203
793.978	0.0169888
794.056	0.0169396
794.134	0.0171056
794.212	0.0170203
794.290	0.0170060
794.369	0.0170496
794.447	0.0171690
794.525	0.0171879
794.603	0.0170659
794.681	0.0169866
794.759	0.0170362
794.837	0.0171411
794.915	0.0170426
794.994	0.0171645
795.072	0.0171098
795.150	0.0171520
795.228	0.0170647
795.306	0.0171336
795.384	0.0168871
795.462	0.0169311
795.540	0.0169656
795.619	0.0169848
795.697	0.0169092
795.775	0.0168593
795.853	0.0168462
795.931	0.0168260
796.009	0.0167789
796.087	0.0168570
796.165	0.0169830
796.244	0.0168546
796.322	0.0167970
796.400	0.0168889
796.478	0.0168703
796.556	0.0169153
796.634	0.0168047
796.712	0.0167961
796.790	0.0168433
796.869	0.0168787
796.947	0.0168435
797.025	0.0167619
797.103	0.0168253
797.181	0.0168347
797.259	0.0168119
797.337	0.0168480
797.415	0.0168535
797.494	0.0168499
797.572	0.0169090
797.650	0.0170026
797.728	0.0169277
797.806	0.0168799
797.884	0.0170092
797.962	0.0170673
798.040	0.0171153
798.119	0.0169309
798.197	0.0169512
798.275	0.0170918
798.353	0.0171367
798.431	0.0172800
798.509	0.0172340
798.587	0.0172287
798.665	0.0173373
798.744	0.0172151
798.822	0.0173708
798.900	0.0173503
798.978	0.0174162
799.056	0.0174116
799.134	0.0174425
799.212	0.0173582
799.290	0.0173914
799.369	0.0174271
799.447	0.0174393
799.525	0.0174088
799.603	0.0174120
799.681	0.0175150
799.759	0.0172617
799.837	0.0172077
799.915	0.0173151
799.994	0.0172451
800.072	0.0172994
800.150	0.0172482
800.228	0.0172073
800.306	0.0171884
800.384	0.0172210
800.462	0.0172100
800.540	0.0171372
800.619	0.0171289
800.697	0.0171906
800.775	0.0171352
800.853	0.0171478
800.931	0.0173241
801.009	0.0172610
801.087	0.0171202
801.165	0.0170631
801.244	0.0171143
801.322	0.0169985
801.400	0.0169371
801.478	0.0169352
801.556	0.0170616
801.634	0.0169087
801.712	0.0169276
801.790	0.0168584
801.869	0.0169067
801.947	0.0168405
802.025	0.0168423
802.103	0.0168282
802.181	0.0166976
802.259	0.0168130
802.337	0.0167770
802.415	0.0169067
802.494	0.0168520
802.572	0.0167225
802.650	0.0168446
802.728	0.0168034
802.806	0.0167477
802.884	0.0167782
802.962	0.0168188
803.040	0.0167863
803.119	0.0167822
803.197	0.0168195
803.275	0.0168053
803.353	0.0169249
803.431	0.0168303
803.509	0.0168278
803.587	0.0169364
803.665	0.0168908
803.744	0.0169785
803.822	0.0168893
803.900	0.0168678
803.978	0.0170603
804.056	0.0169447
804.134	0.0171078
804.212	0.0171318
804.290	0.0170848
804.369	0.0170789
804.447	0.0172076
804.525	0.0171022
804.603	0.0171883
804.681	0.0171472
804.759	0.0171996
804.837	0.0172072
804.915	0.0172932
804.994	0.0172142
805.072	0.0170561
805.150	0.0171626
805.228	0.0172401
805.306	0.0171370
805.384	0.0171085
805.462	0.0171091
805.540	0.0170731
805.619	0.0171243
805.697	0.0170660
805.775	0.0170767
805.853	0.0170946
805.931	0.0170535
806.009	0.0171329
806.087	0.0168454
806.165	0.0167989
806.244	0.0170227
806.322	0.0169244
806.400	0.0168541
806.478	0.0169547
806.556	0.0169316
806.634	0.0170522
806.712	0.0169821
806.790	0.0168858
806.869	0.0168060
806.947	0.0169904
807.025	0.0170707
807.103	0.0171001
807.181	0.0171590
807.259	0.0171989
807.337	0.0171093
807.415	0.0173743
807.494	0.0173953
807.572	0.0172521
807.650	0.0172882
807.728	0.0174048
807.806	0.0173015
807.884	0.0173376
807.962	0.0174525
808.040	0.0173849
808.119	0.0174065
808.197	0.0173708
808.275	0.0173590
808.353	0.0174144
808.431	0.0173991
808.509	0.0174451
808.587	0.0173212
808.665	0.0172495
808.744	0.0173274
808.822	0.0172136
808.900	0.0172637
808.978	0.0172308
809.056	0.0169529
809.134	0.0170296
809.212	0.0170688
809.290	0.0170139
809.369	0.0169859
809.447	0.0170480
809.525	0.0169547
809.603	0.0171188
809.681	0.0168773
809.759	0.0169495
809.837	0.0170532
809.915	0.0170181
809.994	0.0169444
810.072	0.0168990
810.150	0.0169227
810.228	0.0169025
810.306	0.0170444
810.384	0.0170631
810.462	0.0169935
810.540	0.0170563
810.619	0.0169988
810.697	0.0170809
810.775	0.0171204
810.853	0.0171456
810.931	0.0172316
811.009	0.0172152
811.087	0.0169584
811.165	0.0170179
811.244	0.0171702
811.322	0.0171329
811.400	0.0169853
811.478	0.0170028
811.556	0.0168575
811.634	0.0169385
811.712	0.0168678
811.790	0.0169550
811.869	0.0167789
811.947	0.0168488
812.025	0.0169028
812.103	0.0169093
812.181	0.0168935
812.259	0.0170011
812.337	0.0169586
812.415	0.0169151
812.494	0.0169354
812.572	0.0170500
812.650	0.0169154
812.728	0.0170466
812.806	0.0169283
812.884	0.0169232
812.962	0.0170200
813.040	0.0170353
813.119	0.0169636
813.197	0.0171644
813.275	0.0171078
813.353	0.0170370
813.431	0.0171414
813.509	0.0171693
813.587	0.0172024
813.665	0.0170818
813.744	0.0171603
813.822	0.0171050
813.900	0.0170554
813.978	0.0171390
814.056	0.0170321
814.134	0.0171454
814.212	0.0170371
814.290	0.0170022
814.369	0.0170934
814.447	0.0169454
814.525	0.0170300
814.603	0.0170218
814.681	0.0170065
814.759	0.0168804
814.837	0.0168372
814.915	0.0168451
814.994	0.0168145
815.072	0.0167533
815.150	0.0169276
815.228	0.0168188
815.306	0.0168836
815.384	0.0167791
815.462	0.0169492
815.540	0.0169270
815.619	0.0166393
815.697	0.0169827
815.775	0.0168785
815.853	0.0169696
815.931	0.0170222
816.009	0.0170697
816.087	0.0171089
816.165	0.0170919
816.244	0.0170675
816.322	0.0171689
816.400	0.0170702
816.478	0.0172104
816.556	0.0172738
816.634	0.0173682
816.712	0.0172537
816.790	0.0173108
816.869	0.0173040
816.947	0.0172458
817.025	0.0172093
817.103	0.0172052
817.181	0.0172575
817.259	0.0171775
817.337	0.0170140
817.415	0.0172047
817.494	0.0170161
817.572	0.0171268
817.650	0.0170030
817.728	0.0169346
817.806	0.0169843
817.884	0.0170045
817.962	0.0170267
818.040	0.0169913
818.119	0.0168269
818.197	0.0169314
818.275	0.0168310
818.353	0.0168083
818.431	0.0168723
818.509	0.0167316
818.587	0.0167348
818.665	0.0166846
818.744	0.0167002
818.822	0.0166825
818.900	0.0166269
818.978	0.0164938
819.056	0.0166695
819.134	0.0166379
819.212	0.0165900
819.290	0.0165909
819.369	0.0166825
819.447	0.0165813
819.525	0.0164954
819.603	0.0166446
819.681	0.0167577
819.759	0.0166029
819.837	0.0166260
819.915	0.0166269
819.994	0.0167818
820.072	0.0167363
820.150	0.0169185
820.228	0.0168119
820.306	0.0167226
820.384	0.0165957
820.462	0.0167450
820.540	0.0169278
820.619	0.0167731
820.697	0.0168546
820.775	0.0168667
820.853	0.0169782
820.931	0.0168549
821.009	0.0167981
821.087	0.0170215
821.165	0.0168964
821.244	0.0169481
821.322	0.0170069
821.400	0.0169405
821.478	0.0169719
821.556	0.0169904
821.634	0.0170047
821.712	0.0170192
821.790	0.0170248
821.869	0.0170636
821.947	0.0170312
822.025	0.0170867
822.103	0.0171178
822.181	0.0171379
822.259	0.0170763
822.337	0.0172131
822.415	0.0171854
822.494	0.0172831
822.572	0.0170321
822.650	0.0170682
822.728	0.0171326
822.806	0.0170934
822.884	0.0169919
822.962	0.0169239
823.040	0.0171198
823.119	0.0171745
823.197	0.0171892
823.275	0.0170479
823.353	0.0172234
823.431	0.0170641
823.509	0.0170746
823.587	0.0169926
823.665	0.0169740
823.744	0.0169522
823.822	0.0170383
823.900	0.0169971
823.978	0.0169911
824.056	0.0169051
824.134	0.0168922
824.212	0.0170083
824.290	0.0169241
824.369	0.0169395
824.447	0.0169112
824.525	0.0169370
824.603	0.0169919
824.681	0.0169469
824.759	0.0170335
824.837	0.0168365
824.915	0.0170529
824.994	0.0170389
825.072	0.0170290
825.150	0.0171789
825.228	0.0170982
825.306	0.0171016
825.384	0.0172630
825.462	0.0171758
825.540	0.0170673
825.619	0.0171548
825.697	0.0171602
825.775	0.0171525
825.853	0.0171457
825.931	0.0170758
826.009	0.0171153
826.087	0.0171380
826.165	0.0169777
826.244	0.0169540
826.322	0.0168597
826.400	0.0168758
826.478	0.0168073
826.556	0.0168286
826.634	0.0168676
826.712	0.0166718
826.790	0.0166619
826.869	0.0167482
826.947	0.0167654
827.025	0.0167040
827.103	0.0167505
827.181	0.0167947
827.259	0.0166376
827.337	0.0166723
827.415	0.0167349
827.494	0.0166463
827.572	0.0167856
827.650	0.0167980
827.728	0.0167946
827.806	0.0166709
827.884	0.0169066
827.962	0.0169202
828.040	0.0168848
828.119	0.0169957
828.197	0.0168934
828.275	0.0170275
828.353	0.0170397
828.431	0.0170362
828.509	0.0171002
828.587	0.0171986
828.665	0.0173261
828.744	0.0172696
828.822	0.0173448
828.900	0.0173021
828.978	0.0173125
829.056	0.0172909
829.134	0.0174393
829.212	0.0173760
829.290	0.0172878
829.369	0.0174037
829.447	0.0173753
829.525	0.0174043
829.603	0.0174986
829.681	0.0174090
829.759	0.0173124
829.837	0.0174123
829.915	0.0174283
829.994	0.0174397
830.072	0.0174098
830.150	0.0173228
830.228	0.0173457
830.306	0.0173531
830.384	0.0173943
830.462	0.0173000
830.540	0.0171449
830.619	0.0173685
830.697	0.0172890
830.775	0.0171323
830.853	0.0173096
830.931	0.0172390
831.009	0.0171874
831.087	0.0171891
831.165	0.0170640
831.244	0.0170287
831.322	0.0171747
831.400	0.0171057
831.478	0.0170838
831.556	0.0171003
831.634	0.0170643
831.712	0.0171231
831.790	0.0170657
831.869	0.0170245
831.947	0.0171043
832.025	0.0169423
832.103	0.0170212
832.181	0.0171708
832.259	0.0171875
832.337	0.0171626
832.415	0.0169484
832.494	0.0171151
832.572	0.0169842
832.650	0.0170237
832.728	0.0170033
832.806	0.0169972
832.884	0.0169293
832.962	0.0169299
833.040	0.0170382
833.119	0.0169403
833.197	0.0168615
833.275	0.0169152
833.353	0.0168148
833.431	0.0167963
833.509	0.0168766
833.587	0.0168756
833.665	0.0167905
833.744	0.0169641
833.822	0.0168372
833.900	0.0169549
833.978	0.0169862
834.056	0.0170229
834.134	0.0170383
834.212	0.0169986
834.290	0.0170502
834.369	0.0171357
834.447	0.0171776
834.525	0.0169794
834.603	0.0170591
834.681	0.0169781
834.759	0.0169347
834.837	0.0169276
834.915	0.0170765
834.994	0.0167915
835.072	0.0168742
835.150	0.0168202
835.228	0.0168609
835.306	0.0168219
835.384	0.0168217
835.462	0.0168811
835.540	0.0166808
835.619	0.0167092
835.697	0.0167208
835.775	0.0166682
835.853	0.0167342
835.931	0.0167289
836.009	0.0167068
836.087	0.0167562
836.165	0.0168144
836.244	0.0167253
836.322	0.0168418
836.400	0.0167137
836.478	0.0167685
836.556	0.0167701
836.634	0.0165966
836.712	0.0166901
836.790	0.0167422
836.869	0.0166525
836.947	0.0165531
837.025	0.0166636
837.103	0.0167322
837.181	0.0165553
837.259	0.0167043
837.337	0.0166488
837.415	0.0167463
837.494	0.0167401
837.572	0.0167342
837.650	0.0165896
837.728	0.0166386
837.806	0.0168067
837.884	0.0165823
837.962	0.0167622
838.040	0.0167673
838.119	0.0166572
838.197	0.0167198
838.275	0.0167888
838.353	0.0169031
838.431	0.0169115
838.509	0.0169848
838.587	0.0168826
838.665	0.0169743
838.744	0.0170870
838.822	0.0168207
838.900	0.0169460
838.978	0.0171121
839.056	0.0170688
839.134	0.0170359
839.212	0.0170270
839.290	0.0171037
839.369	0.0170541
839.447	0.0170083
839.525	0.0170954
839.603	0.0170786
839.681	0.0170263
839.759	0.0169952
839.837	0.0170316
839.915	0.0169681
839.994	0.0169616
840.072	0.0170374
840.150	0.0169926
840.228	0.0170297
840.306	0.0168211
840.384	0.0168570
840.462	0.0169568
840.540	0.0169144
840.619	0.0168935
840.697	0.0169868
840.775	0.0169704
840.853	0.0170061
840.931	0.0170803
841.009	0.0170711
841.087	0.0169511
841.165	0.0169170
841.244	0.0170038
841.322	0.0172027
841.400	0.0171621
841.478	0.0169968
841.556	0.0170898
841.634	0.0171106
841.712	0.0172130
841.790	0.0171567
841.869	0.0171286
841.947	0.0171625
842.025	0.0171986
842.103	0.0171962
842.181	0.0171753
842.259	0.0172088
842.337	0.0171833
842.415	0.0172120
842.494	0.0172191
842.572	0.0172588
842.650	0.0172054
842.728	0.0171806
842.806	0.0172148
842.884	0.0171095
842.962	0.0171606
843.040	0.0170370
843.119	0.0170522
843.197	0.0171004
843.275	0.0170356
843.353	0.0171801
843.431	0.0170184
843.509	0.0170676
843.587	0.0170072
843.665	0.0169097
843.744	0.0169110
843.822	0.0169111
843.900	0.0168044
843.978	0.0168275
844.056	0.0169192
844.134	0.0168851
844.212	0.0167898
844.290	0.0168336
844.369	0.0168624
844.447	0.0167377
844.525	0.0167079
844.603	0.0167118
844.681	0.0166371
844.759	0.0166556
844.837	0.0165495
844.915	0.0165778
844.994	0.0165516
845.072	0.0166866
845.150	0.0165986
845.228	0.0166315
845.306	0.0164736
845.384	0.0165386
845.462	0.0165616
845.540	0.0164981
845.619	0.0167761
845.697	0.0165888
845.775	0.0167844
845.853	0.0166011
845.931	0.0166362
846.009	0.0164898
846.087	0.0166513
846.165	0.0166998
846.244	0.0167363
846.322	0.0167496
846.400	0.0166618
846.478	0.0166550
846.556	0.0168177
846.634	0.0168934
846.712	0.0167942
846.790	0.0169937
846.869	0.0169427
846.947	0.0169088
847.025	0.0167518
847.103	0.0168042
847.181	0.0169969
847.259	0.0170351
847.337	0.0169012
847.415	0.0168957
847.494	0.0170161
847.572	0.0170641
847.650	0.0170442
847.728	0.0169762
847.806	0.0169987
847.884	0.0169871
847.962	0.0170211
848.040	0.0170044
848.119	0.0171349
848.197	0.0169624
848.275	0.0170219
848.353	0.0170065
848.431	0.0168724
848.509	0.0168746
848.587	0.0169363
848.665	0.0169529
848.744	0.0168400
848.822	0.0169049
848.900	0.0169265
848.978	0.0169257
849.056	0.0168972
849.134	0.0168409
849.212	0.0168202
849.290	0.0168800
849.369	0.0169740
849.447	0.0168781
849.525	0.0169115
849.603	0.0169696
849.681	0.0168186
849.759	0.0168469
849.837	0.0168620
849.915	0.0168229
849.994	0.0167466
850.072	0.0168340
850.150	0.0169711
850.228	0.0167845
850.306	0.0166972
850.384	0.0167901
850.462	0.0169202
850.540	0.0166842
850.619	0.0167230
850.697	0.0167169
850.775	0.0168305
850.853	0.0168797
850.931	0.0168835
851.009	0.0168667
851.087	0.0168648
851.165	0.0169263
851.244	0.0168393
851.322	0.0169341
851.400	0.0168404
851.478	0.0169527
851.556	0.0171461
851.634	0.0169620
851.712	0.0170210
851.790	0.0169590
851.869	0.0171141
851.947	0.0171391
852.025	0.0171096
852.103	0.0171844
852.181	0.0172659
852.259	0.0171967
852.337	0.0171110
852.415	0.0171329
852.494	0.0171379
852.572	0.0171436
852.650	0.0170981
852.728	0.0171883
852.806	0.0171413
852.884	0.0169994
852.962	0.0170721
853.040	0.0169301
853.119	0.0169668
853.197	0.0170718
853.275	0.0170624
853.353	0.0170457
853.431	0.0170473
853.509	0.0169939
853.587	0.0169846
853.665	0.0170126
853.744	0.0170823
853.822	0.0170895
853.900	0.0169740
853.978	0.0169669
854.056	0.0170545
854.134	0.0171682
854.212	0.0171253
854.290	0.0171544
854.369	0.0170785
854.447	0.0170591
854.525	0.0169992
854.603	0.0172996
854.681	0.0170885
854.759	0.0170514
854.837	0.0171234
854.915	0.0171880
854.994	0.0170654
855.072	0.0171259
855.150	0.0171684
855.228	0.0171949
855.306	0.0170918
855.384	0.0169850
855.462	0.0171547
855.540	0.0170687
855.619	0.0170439
855.697	0.0168689
855.775	0.0169736
855.853	0.0171326
855.931	0.0171249
856.009	0.0169858
856.087	0.0170924
856.165	0.0171138
856.244	0.0170679
856.322	0.0169990
856.400	0.0168113
856.478	0.0168838
856.556	0.0170798
856.634	0.0169453
856.712	0.0170429
856.790	0.0170458
856.869	0.0170130
856.947	0.0169734
857.025	0.0168447
857.103	0.0167445
857.181	0.0169305
857.259	0.0169118
857.337	0.0169341
857.415	0.0168919
857.494	0.0169292
857.572	0.0170296
857.650	0.0169907
857.728	0.0170013
857.806	0.0169988
857.884	0.0167798
857.962	0.0168404
858.040	0.0169565
858.119	0.0168715
858.197	0.0169162
858.275	0.0168578
858.353	0.0168386
858.431	0.0167269
858.509	0.0167920
858.587	0.0169116
858.665	0.0167184
858.744	0.0166637
858.822	0.0166403
858.900	0.0166216
858.978	0.0167813
859.056	0.0168096
859.134	0.0165600
859.212	0.0166949
859.290	0.0165619
859.369	0.0166691
859.447	0.0168266
859.525	0.0166978
859.603	0.0168592
859.681	0.0169984
859.759	0.0169135
859.837	0.0168670
859.915	0.0170226
