06/01/2022	17:44:47	Ver.	4.1	UNKNOWN
Optical Delay	539.993571	Delta X		0.078125	Sweeps	1	Scan Rate	0/0
Coordinates	Axis 1	NaN	Axis 2	NaN	Axis 3	NaN	Axis 4	NaN	Axis 5	NaN	Axis 6	0.000000
TX Power	0.000000	RX Power	0.000000

539.994	0.0167817
540.072	0.0167555
540.150	0.0168299
540.228	0.0168510
540.306	0.0167815
540.384	0.0169110
540.462	0.0169248
540.540	0.0169234
540.619	0.0169687
540.697	0.0168292
540.775	0.0167619
540.853	0.0167878
540.931	0.0167844
541.009	0.0169350
541.087	0.0167054
541.165	0.0169122
541.244	0.0169961
541.322	0.0167653
541.400	0.0169223
541.478	0.0169866
541.556	0.0168037
541.634	0.0168948
541.712	0.0168600
541.790	0.0169457
541.869	0.0169002
541.947	0.0168068
542.025	0.0170023
542.103	0.0168477
542.181	0.0168357
542.259	0.0170144
542.337	0.0169337
542.415	0.0168620
542.494	0.0168338
542.572	0.0169259
542.650	0.0169384
542.728	0.0169450
542.806	0.0167449
542.884	0.0169018
542.962	0.0168466
543.040	0.0167828
543.119	0.0169019
543.197	0.0168668
543.275	0.0168214
543.353	0.0168880
543.431	0.0168217
543.509	0.0167247
543.587	0.0167037
543.665	0.0169157
543.744	0.0168233
543.822	0.0168900
543.900	0.0167860
543.978	0.0168696
544.056	0.0167501
544.134	0.0166969
544.212	0.0168372
544.290	0.0167027
544.369	0.0168098
544.447	0.0167793
544.525	0.0166836
544.603	0.0165334
544.681	0.0167433
544.759	0.0167766
544.837	0.0167645
544.915	0.0167268
544.994	0.0166958
545.072	0.0166599
545.150	0.0168617
545.228	0.0167181
545.306	0.0168185
545.384	0.0167982
545.462	0.0166846
545.540	0.0167268
545.619	0.0166618
545.697	0.0166936
545.775	0.0168247
545.853	0.0168420
545.931	0.0167894
546.009	0.0167310
546.087	0.0166933
546.165	0.0166882
546.244	0.0165931
546.322	0.0167224
546.400	0.0168774
546.478	0.0167487
546.556	0.0168489
546.634	0.0166959
546.712	0.0166821
546.790	0.0167652
546.869	0.0167816
546.947	0.0166779
547.025	0.0168164
547.103	0.0168239
547.181	0.0167279
547.259	0.0168459
547.337	0.0169165
547.415	0.0168360
547.494	0.0168258
547.572	0.0167165
547.650	0.0168842
547.728	0.0167393
547.806	0.0167257
547.884	0.0168223
547.962	0.0167602
548.040	0.0168067
548.119	0.0167336
548.197	0.0166470
548.275	0.0167509
548.353	0.0168578
548.431	0.0167521
548.509	0.0167104
548.587	0.0169376
548.665	0.0167211
548.744	0.0168317
548.822	0.0166483
548.900	0.0167616
548.978	0.0167425
549.056	0.0167792
549.134	0.0166742
549.212	0.0168096
549.290	0.0167912
549.369	0.0168985
549.447	0.0167922
549.525	0.0166953
549.603	0.0167971
549.681	0.0169284
549.759	0.0168572
549.837	0.0169324
549.915	0.0167264
549.994	0.0168828
550.072	0.0168858
550.150	0.0168082
550.228	0.0168286
550.306	0.0168360
550.384	0.0168999
550.462	0.0168064
550.540	0.0169835
550.619	0.0169043
550.697	0.0168980
550.775	0.0169102
550.853	0.0168890
550.931	0.0169109
551.009	0.0169774
551.087	0.0170310
551.165	0.0169308
551.244	0.0169092
551.322	0.0170461
551.400	0.0169026
551.478	0.0169080
551.556	0.0169262
551.634	0.0168675
551.712	0.0168436
551.790	0.0169102
551.869	0.0168504
551.947	0.0167709
552.025	0.0169180
552.103	0.0170530
552.181	0.0167631
552.259	0.0168636
552.337	0.0167690
552.415	0.0168758
552.494	0.0168712
552.572	0.0168215
552.650	0.0168719
552.728	0.0167899
552.806	0.0167152
552.884	0.0168661
552.962	0.0167616
553.040	0.0167916
553.119	0.0169674
553.197	0.0168295
553.275	0.0167296
553.353	0.0168649
553.431	0.0168638
553.509	0.0167238
553.587	0.0167093
553.665	0.0168377
553.744	0.0167970
553.822	0.0168090
553.900	0.0168379
553.978	0.0168204
554.056	0.0168643
554.134	0.0166814
554.212	0.0169506
554.290	0.0167978
554.369	0.0166604
554.447	0.0167568
554.525	0.0168391
554.603	0.0167124
554.681	0.0167508
554.759	0.0166881
554.837	0.0167260
554.915	0.0168017
554.994	0.0167039
555.072	0.0166163
555.150	0.0165453
555.228	0.0166033
555.306	0.0167632
555.384	0.0167921
555.462	0.0166826
555.540	0.0166741
555.619	0.0166316
555.697	0.0166084
555.775	0.0167738
555.853	0.0166735
555.931	0.0166358
556.009	0.0167406
556.087	0.0166721
556.165	0.0166901
556.244	0.0167447
556.322	0.0167081
556.400	0.0167344
556.478	0.0167421
556.556	0.0168304
556.634	0.0167122
556.712	0.0166189
556.790	0.0166838
556.869	0.0167204
556.947	0.0167252
557.025	0.0165952
557.103	0.0166293
557.181	0.0166705
557.259	0.0167294
557.337	0.0167453
557.415	0.0166978
557.494	0.0166740
557.572	0.0165907
557.650	0.0167064
557.728	0.0167008
557.806	0.0165679
557.884	0.0166589
557.962	0.0165995
558.040	0.0165891
558.119	0.0165624
558.197	0.0166617
558.275	0.0167262
558.353	0.0165783
558.431	0.0165540
558.509	0.0166735
558.587	0.0166524
558.665	0.0165942
558.744	0.0165424
558.822	0.0164718
558.900	0.0164256
558.978	0.0165043
559.056	0.0165214
559.134	0.0166510
559.212	0.0165655
559.290	0.0166226
559.369	0.0164579
559.447	0.0164313
559.525	0.0164671
559.603	0.0165992
559.681	0.0164094
559.759	0.0166140
559.837	0.0164698
559.915	0.0164209
559.994	0.0163863
560.072	0.0166465
560.150	0.0165817
560.228	0.0165822
560.306	0.0166165
560.384	0.0166173
560.462	0.0165986
560.540	0.0166078
560.619	0.0166028
560.697	0.0166617
560.775	0.0167131
560.853	0.0167198
560.931	0.0166822
561.009	0.0166311
561.087	0.0166568
561.165	0.0165649
561.244	0.0167188
561.322	0.0166553
561.400	0.0168195
561.478	0.0167472
561.556	0.0167217
561.634	0.0168847
561.712	0.0166738
561.790	0.0166805
561.869	0.0168336
561.947	0.0167278
562.025	0.0167189
562.103	0.0167142
562.181	0.0166664
562.259	0.0166824
562.337	0.0166919
562.415	0.0166835
562.494	0.0166722
562.572	0.0168282
562.650	0.0167417
562.728	0.0169054
562.806	0.0167642
562.884	0.0166624
562.962	0.0166851
563.040	0.0167487
563.119	0.0166981
563.197	0.0167010
563.275	0.0166742
563.353	0.0166463
563.431	0.0166831
563.509	0.0166315
563.587	0.0167671
563.665	0.0166595
563.744	0.0167302
563.822	0.0167109
563.900	0.0166993
563.978	0.0167397
564.056	0.0167687
564.134	0.0168134
564.212	0.0166310
564.290	0.0167731
564.369	0.0168241
564.447	0.0166982
564.525	0.0167239
564.603	0.0166507
564.681	0.0167921
564.759	0.0168048
564.837	0.0168376
564.915	0.0166019
564.994	0.0167598
565.072	0.0167168
565.150	0.0167659
565.228	0.0168270
565.306	0.0167509
565.384	0.0167654
565.462	0.0166944
565.540	0.0167425
565.619	0.0167783
565.697	0.0166962
565.775	0.0167568
565.853	0.0168175
565.931	0.0167368
566.009	0.0166765
566.087	0.0166065
566.165	0.0167504
566.244	0.0168584
566.322	0.0168464
566.400	0.0167473
566.478	0.0166880
566.556	0.0167529
566.634	0.0166602
566.712	0.0166488
566.790	0.0167054
566.869	0.0168568
566.947	0.0168533
567.025	0.0166866
567.103	0.0167747
567.181	0.0168152
567.259	0.0167466
567.337	0.0167520
567.415	0.0167529
567.494	0.0167886
567.572	0.0168732
567.650	0.0167054
567.728	0.0167119
567.806	0.0167193
567.884	0.0167368
567.962	0.0168046
568.040	0.0167130
568.119	0.0167603
568.197	0.0168255
568.275	0.0166431
568.353	0.0168211
568.431	0.0168030
568.509	0.0169031
568.587	0.0167907
568.665	0.0166904
568.744	0.0167386
568.822	0.0168503
568.900	0.0167767
568.978	0.0168815
569.056	0.0167439
569.134	0.0167565
569.212	0.0166762
569.290	0.0167352
569.369	0.0167704
569.447	0.0167431
569.525	0.0167128
569.603	0.0166813
569.681	0.0168057
569.759	0.0168488
569.837	0.0165639
569.915	0.0165397
569.994	0.0166048
570.072	0.0167384
570.150	0.0167218
570.228	0.0165878
570.306	0.0166005
570.384	0.0165941
570.462	0.0165549
570.540	0.0165601
570.619	0.0166402
570.697	0.0167596
570.775	0.0165827
570.853	0.0167123
570.931	0.0167297
571.009	0.0165710
571.087	0.0166352
571.165	0.0166346
571.244	0.0166192
571.322	0.0168159
571.400	0.0166369
571.478	0.0166080
571.556	0.0167406
571.634	0.0167438
571.712	0.0166632
571.790	0.0165804
571.869	0.0165386
571.947	0.0165080
572.025	0.0166343
572.103	0.0165323
572.181	0.0166547
572.259	0.0166353
572.337	0.0166247
572.415	0.0166321
572.494	0.0167071
572.572	0.0167100
572.650	0.0166052
572.728	0.0167914
572.806	0.0168650
572.884	0.0167023
572.962	0.0167564
573.040	0.0165798
573.119	0.0167544
573.197	0.0166602
573.275	0.0167369
573.353	0.0167924
573.431	0.0166903
573.509	0.0166947
573.587	0.0167529
573.665	0.0167085
573.744	0.0165241
573.822	0.0167410
573.900	0.0167015
573.978	0.0166244
574.056	0.0166962
574.134	0.0167807
574.212	0.0166061
574.290	0.0166419
574.369	0.0166171
574.447	0.0167229
574.525	0.0167889
574.603	0.0166522
574.681	0.0166192
574.759	0.0167256
574.837	0.0166215
574.915	0.0166801
574.994	0.0165502
575.072	0.0166615
575.150	0.0165739
575.228	0.0167120
575.306	0.0166827
575.384	0.0167606
575.462	0.0167673
575.540	0.0166371
575.619	0.0166096
575.697	0.0166884
575.775	0.0165862
575.853	0.0165880
575.931	0.0163885
576.009	0.0165540
576.087	0.0166225
576.165	0.0164130
576.244	0.0164948
576.322	0.0165055
576.400	0.0166541
576.478	0.0165261
576.556	0.0165040
576.634	0.0165467
576.712	0.0165494
576.790	0.0165585
576.869	0.0166330
576.947	0.0168379
577.025	0.0166098
577.103	0.0166231
577.181	0.0166530
577.259	0.0169449
577.337	0.0169212
577.415	0.0167146
577.494	0.0167711
577.572	0.0169395
577.650	0.0170326
577.728	0.0170282
577.806	0.0170047
577.884	0.0169720
577.962	0.0170824
578.040	0.0171630
578.119	0.0171606
578.197	0.0170858
578.275	0.0172356
578.353	0.0172151
578.431	0.0172298
578.509	0.0172794
578.587	0.0171729
578.665	0.0171919
578.744	0.0171924
578.822	0.0171453
578.900	0.0170779
578.978	0.0169973
579.056	0.0169835
579.134	0.0169540
579.212	0.0170965
579.290	0.0170048
579.369	0.0169749
579.447	0.0167501
579.525	0.0168967
579.603	0.0169346
579.681	0.0169803
579.759	0.0169289
579.837	0.0169645
579.915	0.0168974
579.994	0.0170074
580.072	0.0170134
580.150	0.0170834
580.228	0.0170219
580.306	0.0170006
580.384	0.0169110
580.462	0.0169449
580.540	0.0168895
580.619	0.0169195
580.697	0.0168577
580.775	0.0167953
580.853	0.0167358
580.931	0.0167875
581.009	0.0166744
581.087	0.0165495
581.165	0.0166936
581.244	0.0165167
581.322	0.0165919
581.400	0.0166506
581.478	0.0165414
581.556	0.0165604
581.634	0.0166068
581.712	0.0164835
581.790	0.0164156
581.869	0.0164066
581.947	0.0165332
582.025	0.0164760
582.103	0.0165678
582.181	0.0164397
582.259	0.0165128
582.337	0.0164664
582.415	0.0166161
582.494	0.0165227
582.572	0.0166129
582.650	0.0165210
582.728	0.0165340
582.806	0.0167659
582.884	0.0165478
582.962	0.0167022
583.040	0.0165718
583.119	0.0166365
583.197	0.0166513
583.275	0.0166509
583.353	0.0166042
583.431	0.0165797
583.509	0.0164949
583.587	0.0165911
583.665	0.0166433
583.744	0.0166987
583.822	0.0165131
583.900	0.0165753
583.978	0.0166171
584.056	0.0165657
584.134	0.0164352
584.212	0.0166589
584.290	0.0166034
584.369	0.0166036
584.447	0.0166734
584.525	0.0166570
584.603	0.0164754
584.681	0.0164561
584.759	0.0166219
584.837	0.0165587
584.915	0.0165471
584.994	0.0166859
585.072	0.0162736
585.150	0.0164062
585.228	0.0165221
585.306	0.0165799
585.384	0.0165305
585.462	0.0164486
585.540	0.0162928
585.619	0.0164707
585.697	0.0163247
585.775	0.0164498
585.853	0.0164357
585.931	0.0163781
586.009	0.0164701
586.087	0.0164962
586.165	0.0164937
586.244	0.0164938
586.322	0.0163479
586.400	0.0164397
586.478	0.0165214
586.556	0.0163734
586.634	0.0163779
586.712	0.0164977
586.790	0.0163445
586.869	0.0164169
586.947	0.0164759
587.025	0.0167254
587.103	0.0164579
587.181	0.0165803
587.259	0.0165432
587.337	0.0162782
587.415	0.0165975
587.494	0.0166789
587.572	0.0163988
587.650	0.0166781
587.728	0.0166637
587.806	0.0166436
587.884	0.0166597
587.962	0.0167371
588.040	0.0165872
588.119	0.0164914
588.197	0.0167500
588.275	0.0167478
588.353	0.0167595
588.431	0.0166097
588.509	0.0167326
588.587	0.0168333
588.665	0.0166485
588.744	0.0165774
588.822	0.0168867
588.900	0.0168702
588.978	0.0166979
589.056	0.0167921
589.134	0.0167745
589.212	0.0169419
589.290	0.0168179
589.369	0.0168519
589.447	0.0170201
589.525	0.0168092
589.603	0.0168974
589.681	0.0168675
589.759	0.0167836
589.837	0.0167551
589.915	0.0169014
589.994	0.0167474
590.072	0.0167442
590.150	0.0167558
590.228	0.0168008
590.306	0.0168199
590.384	0.0167319
590.462	0.0166181
590.540	0.0168021
590.619	0.0166626
590.697	0.0166742
590.775	0.0167200
590.853	0.0166207
590.931	0.0167115
591.009	0.0165867
591.087	0.0164503
591.165	0.0165807
591.244	0.0165327
591.322	0.0165785
591.400	0.0165438
591.478	0.0165503
591.556	0.0167529
591.634	0.0167765
591.712	0.0166909
591.790	0.0166730
591.869	0.0168441
591.947	0.0166397
592.025	0.0167278
592.103	0.0165578
592.181	0.0167667
592.259	0.0165405
592.337	0.0166815
592.415	0.0165154
592.494	0.0165329
592.572	0.0164588
592.650	0.0165984
592.728	0.0164993
592.806	0.0166368
592.884	0.0164924
592.962	0.0165064
593.040	0.0165381
593.119	0.0164537
593.197	0.0166231
593.275	0.0167768
593.353	0.0168773
593.431	0.0167167
593.509	0.0170132
593.587	0.0170274
593.665	0.0171541
593.744	0.0172311
593.822	0.0171693
593.900	0.0172197
593.978	0.0173096
594.056	0.0172348
594.134	0.0170698
594.212	0.0170847
594.290	0.0170362
594.369	0.0170506
594.447	0.0166520
594.525	0.0166113
594.603	0.0164208
594.681	0.0165257
594.759	0.0163287
594.837	0.0161669
594.915	0.0160068
594.994	0.0160284
595.072	0.0159669
595.150	0.0161242
595.228	0.0159822
595.306	0.0160334
595.384	0.0160323
595.462	0.0162459
595.540	0.0165620
595.619	0.0166040
595.697	0.0167690
595.775	0.0170059
595.853	0.0172266
595.931	0.0172488
596.009	0.0174624
596.087	0.0176790
596.165	0.0178204
596.244	0.0178776
596.322	0.0178440
596.400	0.0179919
596.478	0.0180181
596.556	0.0179340
596.634	0.0178638
596.712	0.0176830
596.790	0.0174910
596.869	0.0172863
596.947	0.0170084
597.025	0.0170126
597.103	0.0166804
597.181	0.0163647
597.259	0.0162275
597.337	0.0158144
597.415	0.0156979
597.494	0.0157260
597.572	0.0155716
597.650	0.0154964
597.728	0.0154240
597.806	0.0153938
597.884	0.0154817
597.962	0.0155907
598.040	0.0156866
598.119	0.0158601
598.197	0.0161094
598.275	0.0161524
598.353	0.0164138
598.431	0.0165916
598.509	0.0167815
598.587	0.0169758
598.665	0.0170368
598.744	0.0171583
598.822	0.0173832
598.900	0.0175074
598.978	0.0177153
599.056	0.0177644
599.134	0.0177434
599.212	0.0179997
599.290	0.0180251
599.369	0.0181125
599.447	0.0179702
599.525	0.0179124
599.603	0.0180765
599.681	0.0181095
599.759	0.0181469
599.837	0.0179065
599.915	0.0178835
599.994	0.0177767
600.072	0.0176020
600.150	0.0175377
600.228	0.0173313
600.306	0.0171998
600.384	0.0171023
600.462	0.0167771
600.540	0.0164326
600.619	0.0162907
600.697	0.0162028
600.775	0.0159499
600.853	0.0157195
600.931	0.0155077
601.009	0.0153512
601.087	0.0151629
601.165	0.0151855
601.244	0.0150664
601.322	0.0149993
601.400	0.0149375
601.478	0.0149372
601.556	0.0152025
601.634	0.0152824
601.712	0.0153197
601.790	0.0156734
601.869	0.0158954
601.947	0.0159997
602.025	0.0161951
602.103	0.0164988
602.181	0.0166677
602.259	0.0169805
602.337	0.0170553
602.415	0.0172453
602.494	0.0174899
602.572	0.0175623
602.650	0.0176183
602.728	0.0178143
602.806	0.0179250
602.884	0.0179998
602.962	0.0179879
603.040	0.0179137
603.119	0.0179202
603.197	0.0180334
603.275	0.0180698
603.353	0.0180201
603.431	0.0180437
603.509	0.0180911
603.587	0.0179364
603.665	0.0179226
603.744	0.0179997
603.822	0.0177329
603.900	0.0174648
603.978	0.0174633
604.056	0.0172596
604.134	0.0171233
604.212	0.0167669
604.290	0.0167017
604.369	0.0164645
604.447	0.0163886
604.525	0.0159930
604.603	0.0159155
604.681	0.0157433
604.759	0.0156136
604.837	0.0153369
604.915	0.0153485
604.994	0.0150514
605.072	0.0149633
605.150	0.0148771
605.228	0.0148753
605.306	0.0146996
605.384	0.0147864
605.462	0.0147941
605.540	0.0147849
605.619	0.0147651
605.697	0.0147760
605.775	0.0150860
605.853	0.0152776
605.931	0.0153740
606.009	0.0156484
606.087	0.0159040
606.165	0.0163255
606.244	0.0163924
606.322	0.0165013
606.400	0.0168751
606.478	0.0171128
606.556	0.0173866
606.634	0.0176224
606.712	0.0177973
606.790	0.0180862
606.869	0.0182150
606.947	0.0183246
607.025	0.0184723
607.103	0.0185672
607.181	0.0186347
607.259	0.0186919
607.337	0.0187373
607.415	0.0187882
607.494	0.0186662
607.572	0.0185219
607.650	0.0185171
607.728	0.0183800
607.806	0.0180945
607.884	0.0180824
607.962	0.0179209
608.040	0.0176648
608.119	0.0174302
608.197	0.0171952
608.275	0.0170744
608.353	0.0168098
608.431	0.0167981
608.509	0.0167266
608.587	0.0165003
608.665	0.0164497
608.744	0.0163567
608.822	0.0163045
608.900	0.0162517
608.978	0.0162383
609.056	0.0160820
609.134	0.0161849
609.212	0.0161486
609.290	0.0160545
609.369	0.0160215
609.447	0.0158681
609.525	0.0156614
609.603	0.0157207
609.681	0.0155314
609.759	0.0155008
609.837	0.0152560
609.915	0.0151206
609.994	0.0151376
610.072	0.0150343
610.150	0.0150406
610.228	0.0149915
610.306	0.0149579
610.384	0.0149308
610.462	0.0150735
610.540	0.0150837
610.619	0.0151958
610.697	0.0153298
610.775	0.0155930
610.853	0.0156770
610.931	0.0159001
611.009	0.0159844
611.087	0.0161646
611.165	0.0164420
611.244	0.0166845
611.322	0.0169504
611.400	0.0172369
611.478	0.0175849
611.556	0.0179343
611.634	0.0181333
611.712	0.0184715
611.790	0.0187283
611.869	0.0188574
611.947	0.0191701
612.025	0.0193446
612.103	0.0194693
612.181	0.0197528
612.259	0.0197849
612.337	0.0199439
612.415	0.0199393
612.494	0.0200639
612.572	0.0200044
612.650	0.0199617
612.728	0.0198502
612.806	0.0196507
612.884	0.0193625
612.962	0.0192653
613.040	0.0189007
613.119	0.0184002
613.197	0.0179942
613.275	0.0176275
613.353	0.0171124
613.431	0.0165388
613.509	0.0160265
613.587	0.0154852
613.665	0.0150443
613.744	0.0143693
613.822	0.0141730
613.900	0.0136816
613.978	0.0132471
614.056	0.0131506
614.134	0.0129224
614.212	0.0126801
614.290	0.0127603
614.369	0.0127330
614.447	0.0126991
614.525	0.0130069
614.603	0.0132716
614.681	0.0135220
614.759	0.0137576
614.837	0.0141457
614.915	0.0145374
614.994	0.0147525
615.072	0.0150571
615.150	0.0157021
615.228	0.0160291
615.306	0.0163638
615.384	0.0168429
615.462	0.0174971
615.540	0.0178419
615.619	0.0181320
615.697	0.0186449
615.775	0.0190132
615.853	0.0192007
615.931	0.0195210
616.009	0.0198349
616.087	0.0199610
616.165	0.0200866
616.244	0.0202615
616.322	0.0201952
616.400	0.0202824
616.478	0.0201146
616.556	0.0200178
616.634	0.0197310
616.712	0.0194080
616.790	0.0192300
616.869	0.0190240
616.947	0.0186003
617.025	0.0180988
617.103	0.0179060
617.181	0.0175040
617.259	0.0172144
617.337	0.0167755
617.415	0.0165597
617.494	0.0163634
617.572	0.0158640
617.650	0.0158282
617.728	0.0155994
617.806	0.0155140
617.884	0.0153713
617.962	0.0153622
618.040	0.0150420
618.119	0.0151736
618.197	0.0149763
618.275	0.0149778
618.353	0.0149982
618.431	0.0148051
618.509	0.0148379
618.587	0.0148156
618.665	0.0149352
618.744	0.0148338
618.822	0.0149097
618.900	0.0148191
618.978	0.0148486
619.056	0.0149086
619.134	0.0151300
619.212	0.0153776
619.290	0.0155818
619.369	0.0156609
619.447	0.0157186
619.525	0.0158715
619.603	0.0161252
619.681	0.0162407
619.759	0.0163819
619.837	0.0166488
619.915	0.0167027
619.994	0.0168703
620.072	0.0168257
620.150	0.0170860
620.228	0.0170742
620.306	0.0171938
620.384	0.0174416
620.462	0.0175079
620.540	0.0177403
620.619	0.0179012
620.697	0.0179546
620.775	0.0182236
620.853	0.0184933
620.931	0.0187300
621.009	0.0188603
621.087	0.0190504
621.165	0.0193181
621.244	0.0192017
621.322	0.0193288
621.400	0.0192062
621.478	0.0191689
621.556	0.0190626
621.634	0.0189275
621.712	0.0186993
621.790	0.0183041
621.869	0.0181250
621.947	0.0177709
622.025	0.0174379
622.103	0.0171020
622.181	0.0166718
622.259	0.0165710
622.337	0.0161922
622.415	0.0160519
622.494	0.0158603
622.572	0.0156682
622.650	0.0155275
622.728	0.0151986
622.806	0.0152539
622.884	0.0151585
622.962	0.0149818
623.040	0.0150232
623.119	0.0150868
623.197	0.0148228
623.275	0.0150292
623.353	0.0152348
623.431	0.0152203
623.509	0.0151238
623.587	0.0153595
623.665	0.0154497
623.744	0.0155935
623.822	0.0157238
623.900	0.0159106
623.978	0.0158717
624.056	0.0161693
624.134	0.0163362
624.212	0.0164481
624.290	0.0167471
624.369	0.0169710
624.447	0.0170822
624.525	0.0171043
624.603	0.0174479
624.681	0.0176262
624.759	0.0176563
624.837	0.0176982
624.915	0.0178633
624.994	0.0178362
625.072	0.0178906
625.150	0.0180141
625.228	0.0181003
625.306	0.0180476
625.384	0.0180612
625.462	0.0180364
625.540	0.0181042
625.619	0.0180135
625.697	0.0179553
625.775	0.0179749
625.853	0.0179221
625.931	0.0179472
626.009	0.0178230
626.087	0.0178354
626.165	0.0176029
626.244	0.0175388
626.322	0.0174635
626.400	0.0170597
626.478	0.0167268
626.556	0.0165981
626.634	0.0163743
626.712	0.0161917
626.790	0.0158713
626.869	0.0157388
626.947	0.0156279
627.025	0.0154105
627.103	0.0153036
627.181	0.0154262
627.259	0.0153500
627.337	0.0152010
627.415	0.0152174
627.494	0.0154276
627.572	0.0153444
627.650	0.0153228
627.728	0.0155092
627.806	0.0153072
627.884	0.0153471
627.962	0.0154369
628.040	0.0153765
628.119	0.0155082
628.197	0.0155061
628.275	0.0157136
628.353	0.0158187
628.431	0.0159471
628.509	0.0161018
628.587	0.0163277
628.665	0.0166297
628.744	0.0168105
628.822	0.0170390
628.900	0.0174436
628.978	0.0177383
629.056	0.0179308
629.134	0.0181174
629.212	0.0182131
629.290	0.0183907
629.369	0.0185248
629.447	0.0188239
629.525	0.0190553
629.603	0.0189920
629.681	0.0190259
629.759	0.0191391
629.837	0.0190630
629.915	0.0192162
629.994	0.0191976
630.072	0.0191095
630.150	0.0189786
630.228	0.0188828
630.306	0.0188071
630.384	0.0185671
630.462	0.0183477
630.540	0.0180593
630.619	0.0176548
630.697	0.0173145
630.775	0.0168906
630.853	0.0164143
630.931	0.0161423
631.009	0.0155979
631.087	0.0151478
631.165	0.0147885
631.244	0.0145132
631.322	0.0142377
631.400	0.0137498
631.478	0.0135503
631.556	0.0133733
631.634	0.0132406
631.712	0.0131830
631.790	0.0130581
631.869	0.0131281
631.947	0.0130632
632.025	0.0129894
632.103	0.0133891
632.181	0.0135266
632.259	0.0137147
632.337	0.0140698
632.415	0.0142710
632.494	0.0145988
632.572	0.0152686
632.650	0.0156637
632.728	0.0160500
632.806	0.0166130
632.884	0.0171420
632.962	0.0175821
633.040	0.0179288
633.119	0.0184644
633.197	0.0189501
633.275	0.0192234
633.353	0.0193360
633.431	0.0196315
633.509	0.0197713
633.587	0.0199132
633.665	0.0199973
633.744	0.0199300
633.822	0.0197459
633.900	0.0196104
633.978	0.0195404
634.056	0.0193394
634.134	0.0190472
634.212	0.0187330
634.290	0.0185142
634.369	0.0181424
634.447	0.0179093
634.525	0.0176138
634.603	0.0175832
634.681	0.0173137
634.759	0.0170432
634.837	0.0168653
634.915	0.0166512
634.994	0.0164472
635.072	0.0162435
635.150	0.0163641
635.228	0.0161104
635.306	0.0159595
635.384	0.0157722
635.462	0.0158701
635.540	0.0157580
635.619	0.0156152
635.697	0.0156140
635.775	0.0156828
635.853	0.0155663
635.931	0.0156261
636.009	0.0157436
636.087	0.0155071
636.165	0.0156548
636.244	0.0157447
636.322	0.0157320
636.400	0.0157796
636.478	0.0158815
636.556	0.0160168
636.634	0.0160286
636.712	0.0161292
636.790	0.0161437
636.869	0.0163718
636.947	0.0164064
637.025	0.0164399
637.103	0.0165876
637.181	0.0165751
637.259	0.0165894
637.337	0.0165327
637.415	0.0166483
637.494	0.0166840
637.572	0.0166933
637.650	0.0166077
637.728	0.0165765
637.806	0.0166332
637.884	0.0165311
637.962	0.0166233
638.040	0.0166730
638.119	0.0167112
638.197	0.0167475
638.275	0.0168286
638.353	0.0167944
638.431	0.0169066
638.509	0.0169172
638.587	0.0170449
638.665	0.0169888
638.744	0.0172639
638.822	0.0170679
638.900	0.0171766
638.978	0.0172755
639.056	0.0172780
639.134	0.0174138
639.212	0.0174104
639.290	0.0177850
639.369	0.0178979
639.447	0.0177742
639.525	0.0180090
639.603	0.0179331
639.681	0.0179719
639.759	0.0182175
639.837	0.0181678
639.915	0.0180415
639.994	0.0180391
640.072	0.0179457
640.150	0.0176134
640.228	0.0174458
640.306	0.0171755
640.384	0.0170029
640.462	0.0167168
640.540	0.0164911
640.619	0.0162309
640.697	0.0161343
640.775	0.0159209
640.853	0.0157394
640.931	0.0157864
641.009	0.0157185
641.087	0.0158841
641.165	0.0158584
641.244	0.0158351
641.322	0.0161909
641.400	0.0162835
641.478	0.0165202
641.556	0.0168845
641.634	0.0170684
641.712	0.0172581
641.790	0.0173725
641.869	0.0174242
641.947	0.0175615
642.025	0.0174445
642.103	0.0174712
642.181	0.0174564
642.259	0.0174213
642.337	0.0171732
642.415	0.0171339
642.494	0.0170515
642.572	0.0170048
642.650	0.0169416
642.728	0.0169491
642.806	0.0169839
642.884	0.0169664
642.962	0.0169965
643.040	0.0170850
643.119	0.0169536
643.197	0.0171000
643.275	0.0169738
643.353	0.0169392
643.431	0.0170551
643.509	0.0168822
643.587	0.0166762
643.665	0.0167257
643.744	0.0166660
643.822	0.0165628
643.900	0.0161776
643.978	0.0162843
644.056	0.0163477
644.134	0.0161252
644.212	0.0160723
644.290	0.0160251
644.369	0.0159554
644.447	0.0157545
644.525	0.0155385
644.603	0.0155618
644.681	0.0153912
644.759	0.0152772
644.837	0.0151166
644.915	0.0152364
644.994	0.0151405
645.072	0.0152351
645.150	0.0152953
645.228	0.0153957
645.306	0.0153288
645.384	0.0154972
645.462	0.0157753
645.540	0.0158849
645.619	0.0158577
645.697	0.0160136
645.775	0.0162545
645.853	0.0164680
645.931	0.0165857
646.009	0.0167369
646.087	0.0168915
646.165	0.0171153
646.244	0.0174928
646.322	0.0175753
646.400	0.0178822
646.478	0.0180353
646.556	0.0181482
646.634	0.0182439
646.712	0.0183818
646.790	0.0184471
646.869	0.0186731
646.947	0.0187132
647.025	0.0187421
647.103	0.0189882
647.181	0.0188274
647.259	0.0187074
647.337	0.0186564
647.415	0.0186460
647.494	0.0186356
647.572	0.0184606
647.650	0.0184162
647.728	0.0183486
647.806	0.0181239
647.884	0.0178995
647.962	0.0176311
648.040	0.0174699
648.119	0.0169873
648.197	0.0168018
648.275	0.0163560
648.353	0.0159761
648.431	0.0159269
648.509	0.0155058
648.587	0.0151132
648.665	0.0150627
648.744	0.0148287
648.822	0.0147259
648.900	0.0144888
648.978	0.0145148
649.056	0.0144924
649.134	0.0145039
649.212	0.0145453
649.290	0.0147072
649.369	0.0146632
649.447	0.0147999
649.525	0.0150385
649.603	0.0152415
649.681	0.0153922
649.759	0.0156405
649.837	0.0158095
649.915	0.0159510
649.994	0.0161096
650.072	0.0162865
650.150	0.0163126
650.228	0.0163850
650.306	0.0166422
650.384	0.0166589
650.462	0.0166685
650.540	0.0166998
650.619	0.0170141
650.697	0.0169904
650.775	0.0171761
650.853	0.0171904
650.931	0.0172458
651.009	0.0174293
651.087	0.0174269
651.165	0.0173309
651.244	0.0172744
651.322	0.0173737
651.400	0.0175400
651.478	0.0174041
651.556	0.0174427
651.634	0.0174152
651.712	0.0173623
651.790	0.0172489
651.869	0.0171469
651.947	0.0172881
652.025	0.0171765
652.103	0.0171164
652.181	0.0170951
652.259	0.0170126
652.337	0.0169643
652.415	0.0169079
652.494	0.0168528
652.572	0.0167770
652.650	0.0167056
652.728	0.0166142
652.806	0.0164993
652.884	0.0165512
652.962	0.0164388
653.040	0.0162859
653.119	0.0162949
653.197	0.0162034
653.275	0.0163651
653.353	0.0164526
653.431	0.0163730
653.509	0.0164529
653.587	0.0164830
653.665	0.0165984
653.744	0.0166519
653.822	0.0167182
653.900	0.0167601
653.978	0.0166912
654.056	0.0167480
654.134	0.0169995
654.212	0.0168506
654.290	0.0169157
654.369	0.0170799
654.447	0.0171495
654.525	0.0171962
654.603	0.0170744
654.681	0.0169237
654.759	0.0172285
654.837	0.0172578
654.915	0.0172598
654.994	0.0171313
655.072	0.0172045
655.150	0.0170982
655.228	0.0169933
655.306	0.0169590
655.384	0.0167582
655.462	0.0167931
655.540	0.0166639
655.619	0.0164958
655.697	0.0163890
655.775	0.0161977
655.853	0.0161395
655.931	0.0161327
656.009	0.0160778
656.087	0.0160264
656.165	0.0160919
656.244	0.0161426
656.322	0.0161501
656.400	0.0160607
656.478	0.0160921
656.556	0.0161475
656.634	0.0160932
656.712	0.0163140
656.790	0.0166499
656.869	0.0166920
656.947	0.0165350
657.025	0.0165646
657.103	0.0165849
657.181	0.0165742
657.259	0.0167097
657.337	0.0167374
657.415	0.0165894
657.494	0.0165355
657.572	0.0165461
657.650	0.0165942
657.728	0.0165876
657.806	0.0164869
657.884	0.0163652
657.962	0.0161775
658.040	0.0163467
658.119	0.0161043
658.197	0.0161491
658.275	0.0160785
658.353	0.0160008
658.431	0.0158688
658.509	0.0157407
658.587	0.0157912
658.665	0.0157391
658.744	0.0156635
658.822	0.0157918
658.900	0.0158094
658.978	0.0158917
659.056	0.0158720
659.134	0.0161125
659.212	0.0161698
659.290	0.0164111
659.369	0.0164682
659.447	0.0166537
659.525	0.0169255
659.603	0.0170234
659.681	0.0171021
659.759	0.0172954
659.837	0.0174264
659.915	0.0177673
659.994	0.0178401
660.072	0.0176809
660.150	0.0178956
660.228	0.0178386
660.306	0.0180984
660.384	0.0181699
660.462	0.0181556
660.540	0.0180694
660.619	0.0181799
660.697	0.0181618
660.775	0.0181615
660.853	0.0181381
660.931	0.0181139
661.009	0.0182329
661.087	0.0180191
661.165	0.0180116
661.244	0.0180170
661.322	0.0179820
661.400	0.0179780
661.478	0.0178889
661.556	0.0178102
661.634	0.0177750
661.712	0.0176405
661.790	0.0174023
661.869	0.0174839
661.947	0.0173640
662.025	0.0171882
662.103	0.0168823
662.181	0.0168896
662.259	0.0164893
662.337	0.0164652
662.415	0.0161943
662.494	0.0159213
662.572	0.0158825
662.650	0.0158612
662.728	0.0155482
662.806	0.0155527
662.884	0.0154852
662.962	0.0154095
663.040	0.0152766
663.119	0.0153011
663.197	0.0153970
663.275	0.0154306
663.353	0.0153450
663.431	0.0153706
663.509	0.0153866
663.587	0.0154326
663.665	0.0155412
663.744	0.0156156
663.822	0.0157453
663.900	0.0158452
663.978	0.0159822
664.056	0.0160188
664.134	0.0162762
664.212	0.0163600
664.290	0.0163551
664.369	0.0165675
664.447	0.0167479
664.525	0.0167870
664.603	0.0168137
664.681	0.0170480
664.759	0.0170880
664.837	0.0172355
664.915	0.0171993
664.994	0.0173565
665.072	0.0173609
665.150	0.0175216
665.228	0.0173702
665.306	0.0174636
665.384	0.0175709
665.462	0.0175410
665.540	0.0174251
665.619	0.0174706
665.697	0.0173653
665.775	0.0173354
665.853	0.0171784
665.931	0.0170200
666.009	0.0170023
666.087	0.0169779
666.165	0.0167207
666.244	0.0166346
666.322	0.0167126
666.400	0.0165261
666.478	0.0164330
666.556	0.0165367
666.634	0.0164620
666.712	0.0162682
666.790	0.0163626
666.869	0.0162785
666.947	0.0162357
667.025	0.0163870
667.103	0.0164523
667.181	0.0165365
667.259	0.0164741
667.337	0.0166483
667.415	0.0168111
667.494	0.0168256
667.572	0.0169095
667.650	0.0168240
667.728	0.0170271
667.806	0.0170579
667.884	0.0170786
667.962	0.0171560
668.040	0.0171931
668.119	0.0172588
668.197	0.0170743
668.275	0.0170376
668.353	0.0171801
668.431	0.0171972
668.509	0.0171545
668.587	0.0172397
668.665	0.0170877
668.744	0.0169660
668.822	0.0169624
668.900	0.0168951
668.978	0.0168340
669.056	0.0168500
669.134	0.0165723
669.212	0.0166628
669.290	0.0167094
669.369	0.0164723
669.447	0.0163618
669.525	0.0162788
669.603	0.0162701
669.681	0.0160361
669.759	0.0160723
669.837	0.0161772
669.915	0.0161774
669.994	0.0159148
670.072	0.0159176
670.150	0.0158927
670.228	0.0157478
670.306	0.0158195
670.384	0.0158461
670.462	0.0157655
670.540	0.0158618
670.619	0.0157670
670.697	0.0159070
670.775	0.0159138
670.853	0.0159864
670.931	0.0159928
671.009	0.0160605
671.087	0.0162378
671.165	0.0164526
671.244	0.0165337
671.322	0.0165821
671.400	0.0167754
671.478	0.0169135
671.556	0.0169505
671.634	0.0171872
671.712	0.0172320
671.790	0.0173876
671.869	0.0173386
671.947	0.0175390
672.025	0.0175741
672.103	0.0175124
672.181	0.0173343
672.259	0.0174155
672.337	0.0174555
672.415	0.0174249
672.494	0.0173973
672.572	0.0171891
672.650	0.0172667
672.728	0.0171734
672.806	0.0171362
672.884	0.0171415
672.962	0.0170087
673.040	0.0170534
673.119	0.0169922
673.197	0.0171310
673.275	0.0171091
673.353	0.0168523
673.431	0.0169501
673.509	0.0169672
673.587	0.0169920
673.665	0.0167142
673.744	0.0167114
673.822	0.0165440
673.900	0.0166066
673.978	0.0166413
674.056	0.0162798
674.134	0.0164434
674.212	0.0166446
674.290	0.0165268
674.369	0.0165445
674.447	0.0165980
674.525	0.0167059
674.603	0.0166891
674.681	0.0168335
674.759	0.0167194
674.837	0.0168222
674.915	0.0169805
674.994	0.0169621
675.072	0.0170498
675.150	0.0170442
675.228	0.0170865
675.306	0.0168591
675.384	0.0168916
675.462	0.0169030
675.540	0.0168770
675.619	0.0166799
675.697	0.0166183
675.775	0.0167327
675.853	0.0165391
675.931	0.0163359
676.009	0.0162975
676.087	0.0162627
676.165	0.0163541
676.244	0.0162042
676.322	0.0161967
676.400	0.0162327
676.478	0.0161891
676.556	0.0162796
676.634	0.0160637
676.712	0.0161638
676.790	0.0160722
676.869	0.0160930
676.947	0.0160110
677.025	0.0160937
677.103	0.0161740
677.181	0.0161262
677.259	0.0162430
677.337	0.0162370
677.415	0.0163273
677.494	0.0163776
677.572	0.0163393
677.650	0.0164246
677.728	0.0165058
677.806	0.0165748
677.884	0.0166670
677.962	0.0167188
678.040	0.0167329
678.119	0.0169020
678.197	0.0169061
678.275	0.0169669
678.353	0.0171073
678.431	0.0169223
678.509	0.0170179
678.587	0.0170541
678.665	0.0171442
678.744	0.0171809
678.822	0.0171746
678.900	0.0171320
678.978	0.0172895
679.056	0.0172821
679.134	0.0174416
679.212	0.0173481
679.290	0.0172368
679.369	0.0171755
679.447	0.0172949
679.525	0.0173266
679.603	0.0173014
679.681	0.0173369
679.759	0.0174000
679.837	0.0173694
679.915	0.0171998
679.994	0.0171867
680.072	0.0172536
680.150	0.0170354
680.228	0.0170314
680.306	0.0170668
680.384	0.0167247
680.462	0.0167317
680.540	0.0167289
680.619	0.0165186
680.697	0.0165265
680.775	0.0163721
680.853	0.0162692
680.931	0.0161481
681.009	0.0160748
681.087	0.0162621
681.165	0.0161351
681.244	0.0159700
681.322	0.0161183
681.400	0.0160712
681.478	0.0161577
681.556	0.0161636
681.634	0.0162273
681.712	0.0164411
681.790	0.0164822
681.869	0.0166447
681.947	0.0166091
682.025	0.0167560
682.103	0.0167512
682.181	0.0168645
682.259	0.0169404
682.337	0.0171251
682.415	0.0170028
682.494	0.0170891
682.572	0.0171962
682.650	0.0171499
682.728	0.0171923
682.806	0.0170264
682.884	0.0171375
682.962	0.0172656
683.040	0.0170477
683.119	0.0169852
683.197	0.0170417
683.275	0.0171130
683.353	0.0169934
683.431	0.0168902
683.509	0.0169952
683.587	0.0169746
683.665	0.0169395
683.744	0.0167484
683.822	0.0168843
683.900	0.0167202
683.978	0.0167665
684.056	0.0166982
684.134	0.0164948
684.212	0.0164869
684.290	0.0164166
684.369	0.0163512
684.447	0.0163693
684.525	0.0164079
684.603	0.0162875
684.681	0.0161923
684.759	0.0163535
684.837	0.0163789
684.915	0.0164789
684.994	0.0165048
685.072	0.0165065
685.150	0.0162834
685.228	0.0165520
685.306	0.0166779
685.384	0.0166547
685.462	0.0166152
685.540	0.0167205
685.619	0.0169543
685.697	0.0167975
685.775	0.0168459
685.853	0.0168401
685.931	0.0169418
686.009	0.0169624
686.087	0.0170142
686.165	0.0169072
686.244	0.0169391
686.322	0.0170744
686.400	0.0169166
686.478	0.0168921
686.556	0.0168610
686.634	0.0171275
686.712	0.0169632
686.790	0.0170018
686.869	0.0170284
686.947	0.0169532
687.025	0.0168265
687.103	0.0168282
687.181	0.0168313
687.259	0.0166767
687.337	0.0166089
687.415	0.0166627
687.494	0.0164592
687.572	0.0165721
687.650	0.0165932
687.728	0.0165336
687.806	0.0164982
687.884	0.0162935
687.962	0.0162901
688.040	0.0163709
688.119	0.0163792
688.197	0.0161913
688.275	0.0163081
688.353	0.0163484
688.431	0.0162297
688.509	0.0162225
688.587	0.0162557
688.665	0.0163734
688.744	0.0163095
688.822	0.0162827
688.900	0.0164360
688.978	0.0163911
689.056	0.0165600
689.134	0.0167092
689.212	0.0166982
689.290	0.0168354
689.369	0.0168213
689.447	0.0168285
689.525	0.0170516
689.603	0.0170506
689.681	0.0170129
689.759	0.0171538
689.837	0.0170515
689.915	0.0172524
689.994	0.0171624
690.072	0.0171156
690.150	0.0171249
690.228	0.0172480
690.306	0.0172796
690.384	0.0173239
690.462	0.0173864
690.540	0.0172489
690.619	0.0172730
690.697	0.0173671
690.775	0.0173399
690.853	0.0173363
690.931	0.0172559
691.009	0.0172733
691.087	0.0172790
691.165	0.0171724
691.244	0.0171592
691.322	0.0170746
691.400	0.0169971
691.478	0.0170349
691.556	0.0169802
691.634	0.0168635
691.712	0.0169356
691.790	0.0168795
691.869	0.0168042
691.947	0.0168362
692.025	0.0166591
692.103	0.0167684
692.181	0.0167666
692.259	0.0167022
692.337	0.0165664
692.415	0.0166169
692.494	0.0165444
692.572	0.0165668
692.650	0.0166019
692.728	0.0165472
692.806	0.0165794
692.884	0.0166045
692.962	0.0165775
693.040	0.0165998
693.119	0.0164656
693.197	0.0165960
693.275	0.0164721
693.353	0.0164366
693.431	0.0164920
693.509	0.0164358
693.587	0.0164925
693.665	0.0162973
693.744	0.0163838
693.822	0.0163347
693.900	0.0162557
693.978	0.0161602
694.056	0.0162894
694.134	0.0163193
694.212	0.0163318
694.290	0.0161323
694.369	0.0162959
694.447	0.0162463
694.525	0.0163428
694.603	0.0162585
694.681	0.0164487
694.759	0.0164253
694.837	0.0164259
694.915	0.0164047
694.994	0.0164570
695.072	0.0166422
695.150	0.0166634
695.228	0.0167310
695.306	0.0166171
695.384	0.0167146
695.462	0.0168748
695.540	0.0168749
695.619	0.0169245
695.697	0.0169831
695.775	0.0170975
695.853	0.0171117
695.931	0.0170097
696.009	0.0172049
696.087	0.0172875
696.165	0.0171124
696.244	0.0170648
696.322	0.0171211
696.400	0.0170280
696.478	0.0170017
696.556	0.0169821
696.634	0.0169679
696.712	0.0168958
696.790	0.0168728
696.869	0.0169537
696.947	0.0169875
697.025	0.0168086
697.103	0.0168468
697.181	0.0167933
697.259	0.0168217
697.337	0.0168515
697.415	0.0168590
697.494	0.0168072
697.572	0.0168241
697.650	0.0167771
697.728	0.0168052
697.806	0.0167792
697.884	0.0167006
697.962	0.0168903
698.040	0.0168146
698.119	0.0168755
698.197	0.0168797
698.275	0.0167677
698.353	0.0168448
698.431	0.0168524
698.509	0.0169813
698.587	0.0169907
698.665	0.0167844
698.744	0.0167897
698.822	0.0166888
698.900	0.0167229
698.978	0.0167546
699.056	0.0166876
699.134	0.0167183
699.212	0.0166148
699.290	0.0165095
699.369	0.0164838
699.447	0.0164741
699.525	0.0163946
699.603	0.0166735
699.681	0.0165816
699.759	0.0166342
699.837	0.0166932
699.915	0.0167719
699.994	0.0167028
700.072	0.0168056
700.150	0.0168810
700.228	0.0168842
700.306	0.0169215
700.384	0.0168108
700.462	0.0168657
700.540	0.0168319
700.619	0.0168568
700.697	0.0167642
700.775	0.0167432
700.853	0.0168539
700.931	0.0167382
701.009	0.0167274
701.087	0.0169466
701.165	0.0168457
701.244	0.0168177
701.322	0.0168732
701.400	0.0168013
701.478	0.0168427
701.556	0.0168562
701.634	0.0168593
701.712	0.0167688
701.790	0.0167783
701.869	0.0168224
701.947	0.0167641
702.025	0.0167992
702.103	0.0167205
702.181	0.0167912
702.259	0.0166196
702.337	0.0168621
702.415	0.0168051
702.494	0.0168082
702.572	0.0168616
702.650	0.0168513
702.728	0.0168430
702.806	0.0168877
702.884	0.0169393
702.962	0.0168750
703.040	0.0169849
703.119	0.0168959
703.197	0.0169397
703.275	0.0168316
703.353	0.0168925
703.431	0.0169076
703.509	0.0168857
703.587	0.0167643
703.665	0.0168291
703.744	0.0167858
703.822	0.0169273
703.900	0.0168938
703.978	0.0167660
704.056	0.0169258
704.134	0.0169339
704.212	0.0168143
704.290	0.0167134
704.369	0.0168906
704.447	0.0169061
704.525	0.0168047
704.603	0.0168877
704.681	0.0167803
704.759	0.0169183
704.837	0.0168301
704.915	0.0167589
704.994	0.0168913
705.072	0.0167043
705.150	0.0168098
705.228	0.0167724
705.306	0.0167765
705.384	0.0167499
705.462	0.0167572
705.540	0.0167328
705.619	0.0167971
705.697	0.0168035
705.775	0.0168066
705.853	0.0168847
705.931	0.0168639
706.009	0.0166801
706.087	0.0167083
706.165	0.0168188
706.244	0.0166273
706.322	0.0166398
706.400	0.0167506
706.478	0.0165465
706.556	0.0165195
706.634	0.0166126
706.712	0.0165375
706.790	0.0166228
706.869	0.0163160
706.947	0.0165209
707.025	0.0164461
707.103	0.0163655
707.181	0.0162955
707.259	0.0163660
707.337	0.0162688
707.415	0.0164156
707.494	0.0164713
707.572	0.0163189
707.650	0.0163068
707.728	0.0164412
707.806	0.0164574
707.884	0.0165442
707.962	0.0165758
708.040	0.0164624
708.119	0.0165539
708.197	0.0166811
708.275	0.0165113
708.353	0.0166273
708.431	0.0167558
708.509	0.0167561
708.587	0.0166444
708.665	0.0167696
708.744	0.0168686
708.822	0.0168123
708.900	0.0170318
708.978	0.0169158
709.056	0.0171169
709.134	0.0170612
709.212	0.0170664
709.290	0.0169370
709.369	0.0168733
709.447	0.0170528
709.525	0.0170766
709.603	0.0169415
709.681	0.0169726
709.759	0.0170046
709.837	0.0169009
709.915	0.0168983
709.994	0.0168615
710.072	0.0167363
710.150	0.0168044
710.228	0.0165573
710.306	0.0165111
710.384	0.0166273
710.462	0.0165298
710.540	0.0165068
710.619	0.0163791
710.697	0.0164217
710.775	0.0162752
710.853	0.0162126
710.931	0.0164277
711.009	0.0162244
711.087	0.0162840
711.165	0.0162831
711.244	0.0163454
711.322	0.0163031
711.400	0.0163869
711.478	0.0164613
711.556	0.0165864
711.634	0.0166094
711.712	0.0165066
711.790	0.0166520
711.869	0.0168279
711.947	0.0167703
712.025	0.0169235
712.103	0.0169685
712.181	0.0170058
712.259	0.0169944
712.337	0.0170712
712.415	0.0171937
712.494	0.0172461
712.572	0.0172965
712.650	0.0171930
712.728	0.0174557
712.806	0.0172718
712.884	0.0173899
712.962	0.0174613
713.040	0.0174373
713.119	0.0173429
713.197	0.0173985
713.275	0.0174500
713.353	0.0174062
713.431	0.0173761
713.509	0.0173930
713.587	0.0172734
713.665	0.0172132
713.744	0.0171337
713.822	0.0171490
713.900	0.0170860
713.978	0.0170272
714.056	0.0169143
714.134	0.0170000
714.212	0.0168335
714.290	0.0168811
714.369	0.0168979
714.447	0.0168491
714.525	0.0167682
714.603	0.0168921
714.681	0.0168008
714.759	0.0168996
714.837	0.0168177
714.915	0.0168427
714.994	0.0168141
715.072	0.0169207
715.150	0.0167629
715.228	0.0166991
715.306	0.0167513
715.384	0.0167288
715.462	0.0167297
715.540	0.0166846
715.619	0.0165244
715.697	0.0166422
715.775	0.0165129
715.853	0.0165547
715.931	0.0165295
716.009	0.0165145
716.087	0.0165008
716.165	0.0165954
716.244	0.0163893
716.322	0.0163576
716.400	0.0164234
716.478	0.0165318
716.556	0.0164493
716.634	0.0163175
716.712	0.0165680
716.790	0.0165957
716.869	0.0164841
716.947	0.0164819
717.025	0.0164846
717.103	0.0165557
717.181	0.0166060
717.259	0.0165432
717.337	0.0166253
717.415	0.0167358
717.494	0.0166384
717.572	0.0166476
717.650	0.0168154
717.728	0.0166177
717.806	0.0166288
717.884	0.0168198
717.962	0.0168690
718.040	0.0167664
718.119	0.0168442
718.197	0.0168436
718.275	0.0168520
718.353	0.0168295
718.431	0.0167960
718.509	0.0167824
718.587	0.0169080
718.665	0.0168137
718.744	0.0168554
718.822	0.0168118
718.900	0.0169102
718.978	0.0167213
719.056	0.0167849
719.134	0.0166888
719.212	0.0167635
719.290	0.0167084
719.369	0.0168563
719.447	0.0167248
719.525	0.0166352
719.603	0.0168458
719.681	0.0167493
719.759	0.0166887
719.837	0.0165523
719.915	0.0166582
719.994	0.0167458
720.072	0.0166090
720.150	0.0165943
720.228	0.0167808
720.306	0.0166725
720.384	0.0167038
720.462	0.0168182
720.540	0.0168305
720.619	0.0166782
720.697	0.0166698
720.775	0.0169788
720.853	0.0170195
720.931	0.0168234
721.009	0.0171390
721.087	0.0172546
721.165	0.0170709
721.244	0.0171012
721.322	0.0172472
721.400	0.0171221
721.478	0.0171937
721.556	0.0170895
721.634	0.0169118
721.712	0.0171502
721.790	0.0171098
721.869	0.0171501
721.947	0.0170931
722.025	0.0170432
722.103	0.0170309
722.181	0.0169984
722.259	0.0171366
722.337	0.0169952
722.415	0.0170000
722.494	0.0170494
722.572	0.0169897
722.650	0.0168552
722.728	0.0169746
722.806	0.0168681
722.884	0.0167605
722.962	0.0169649
723.040	0.0168211
723.119	0.0166826
723.197	0.0167316
723.275	0.0166632
723.353	0.0166898
723.431	0.0164523
723.509	0.0164758
723.587	0.0165564
723.665	0.0167057
723.744	0.0164812
723.822	0.0167057
723.900	0.0165611
723.978	0.0166186
724.056	0.0165559
724.134	0.0165394
724.212	0.0165095
724.290	0.0164944
724.369	0.0166741
724.447	0.0165760
724.525	0.0165114
724.603	0.0166142
724.681	0.0166076
724.759	0.0165378
724.837	0.0165812
724.915	0.0166394
724.994	0.0165997
725.072	0.0165762
725.150	0.0166399
725.228	0.0165163
725.306	0.0166536
725.384	0.0168116
725.462	0.0166880
725.540	0.0166631
725.619	0.0166500
725.697	0.0167410
725.775	0.0167850
725.853	0.0167353
725.931	0.0165544
726.009	0.0167486
726.087	0.0168351
726.165	0.0168168
726.244	0.0168241
726.322	0.0169118
726.400	0.0168433
726.478	0.0167734
726.556	0.0168997
726.634	0.0169783
726.712	0.0169143
726.790	0.0168674
726.869	0.0170586
726.947	0.0169608
727.025	0.0167912
727.103	0.0167541
727.181	0.0169581
727.259	0.0167444
727.337	0.0168020
727.415	0.0165142
727.494	0.0165849
727.572	0.0166674
727.650	0.0165003
727.728	0.0165429
727.806	0.0163490
727.884	0.0164467
727.962	0.0164094
728.040	0.0164214
728.119	0.0162708
728.197	0.0162735
728.275	0.0163003
728.353	0.0162839
728.431	0.0161194
728.509	0.0162517
728.587	0.0163937
728.665	0.0163553
728.744	0.0162688
728.822	0.0162778
728.900	0.0165026
728.978	0.0164639
729.056	0.0166006
729.134	0.0164725
729.212	0.0165795
729.290	0.0165855
729.369	0.0166932
729.447	0.0166434
729.525	0.0166336
729.603	0.0167942
729.681	0.0168241
729.759	0.0167104
729.837	0.0168104
729.915	0.0168908
729.994	0.0167904
730.072	0.0170008
730.150	0.0168341
730.228	0.0167080
730.306	0.0168418
730.384	0.0169450
730.462	0.0169871
730.540	0.0167825
730.619	0.0167905
730.697	0.0167482
730.775	0.0167942
730.853	0.0169101
730.931	0.0168699
731.009	0.0168169
731.087	0.0168597
731.165	0.0167204
731.244	0.0166090
731.322	0.0166817
731.400	0.0167574
731.478	0.0167120
731.556	0.0165881
731.634	0.0165985
731.712	0.0167033
731.790	0.0166348
731.869	0.0165417
731.947	0.0164480
732.025	0.0164168
732.103	0.0165213
732.181	0.0165703
732.259	0.0165298
732.337	0.0164626
732.415	0.0166136
732.494	0.0164495
732.572	0.0165961
732.650	0.0167033
732.728	0.0164268
732.806	0.0166574
732.884	0.0166348
732.962	0.0166878
733.040	0.0165891
733.119	0.0165848
733.197	0.0166732
733.275	0.0165544
733.353	0.0166654
733.431	0.0166834
733.509	0.0166506
733.587	0.0167423
733.665	0.0168804
733.744	0.0167461
733.822	0.0168123
733.900	0.0168445
733.978	0.0168690
734.056	0.0168056
734.134	0.0167821
734.212	0.0167403
734.290	0.0167313
734.369	0.0166923
734.447	0.0167763
734.525	0.0166367
734.603	0.0166462
734.681	0.0167677
734.759	0.0166423
734.837	0.0165993
734.915	0.0165929
734.994	0.0167194
735.072	0.0165651
735.150	0.0165592
735.228	0.0167119
735.306	0.0166486
735.384	0.0166179
735.462	0.0165852
735.540	0.0166386
735.619	0.0165705
735.697	0.0167342
735.775	0.0166981
735.853	0.0166187
735.931	0.0167651
736.009	0.0168183
736.087	0.0168198
736.165	0.0167833
736.244	0.0168107
736.322	0.0168893
736.400	0.0169872
736.478	0.0169819
736.556	0.0169249
736.634	0.0169874
736.712	0.0171184
736.790	0.0169942
736.869	0.0170321
736.947	0.0170272
737.025	0.0171168
737.103	0.0171162
737.181	0.0169895
737.259	0.0170615
737.337	0.0168793
737.415	0.0170137
737.494	0.0169745
737.572	0.0168571
737.650	0.0167860
737.728	0.0169519
737.806	0.0169497
737.884	0.0168582
737.962	0.0169952
738.040	0.0169749
738.119	0.0168626
738.197	0.0167594
738.275	0.0168020
738.353	0.0166687
738.431	0.0168329
738.509	0.0168579
738.587	0.0167918
738.665	0.0167276
738.744	0.0166992
738.822	0.0166248
738.900	0.0166414
738.978	0.0165890
739.056	0.0165448
739.134	0.0165766
739.212	0.0166517
739.290	0.0164983
739.369	0.0165365
739.447	0.0165204
739.525	0.0165804
739.603	0.0165392
739.681	0.0165044
739.759	0.0164672
739.837	0.0164348
739.915	0.0166266
739.994	0.0166933
740.072	0.0166662
740.150	0.0165961
740.228	0.0165640
740.306	0.0165974
740.384	0.0166531
740.462	0.0167780
740.540	0.0167109
740.619	0.0166956
740.697	0.0167347
740.775	0.0167178
740.853	0.0167094
740.931	0.0167562
741.009	0.0167438
741.087	0.0166147
741.165	0.0165852
741.244	0.0167301
741.322	0.0166714
741.400	0.0167613
741.478	0.0165795
741.556	0.0166531
741.634	0.0166924
741.712	0.0166288
741.790	0.0167354
741.869	0.0166547
741.947	0.0168227
742.025	0.0167921
742.103	0.0167673
742.181	0.0167535
742.259	0.0168451
742.337	0.0168462
742.415	0.0168090
742.494	0.0168628
742.572	0.0167980
742.650	0.0170245
742.728	0.0169738
742.806	0.0169651
742.884	0.0168967
742.962	0.0167690
743.040	0.0170641
743.119	0.0168847
743.197	0.0169321
743.275	0.0168306
743.353	0.0167934
743.431	0.0168845
743.509	0.0169093
743.587	0.0168787
743.665	0.0168629
743.744	0.0169275
743.822	0.0168610
743.900	0.0168106
743.978	0.0168577
744.056	0.0168610
744.134	0.0168014
744.212	0.0168722
744.290	0.0167908
744.369	0.0167931
744.447	0.0167990
744.525	0.0168513
744.603	0.0167793
744.681	0.0167297
744.759	0.0168145
744.837	0.0167185
744.915	0.0166175
744.994	0.0165696
745.072	0.0165944
745.150	0.0166649
745.228	0.0166130
745.306	0.0166048
745.384	0.0166588
745.462	0.0163997
745.540	0.0164655
745.619	0.0164172
745.697	0.0164552
745.775	0.0162816
745.853	0.0164985
745.931	0.0165745
746.009	0.0164867
746.087	0.0166036
746.165	0.0165109
746.244	0.0165487
746.322	0.0164484
746.400	0.0163567
746.478	0.0165430
746.556	0.0164768
746.634	0.0165248
746.712	0.0165603
746.790	0.0164860
746.869	0.0164852
746.947	0.0166878
747.025	0.0165845
747.103	0.0164790
747.181	0.0163309
747.259	0.0165199
747.337	0.0164874
747.415	0.0165508
747.494	0.0165206
747.572	0.0165656
747.650	0.0164041
747.728	0.0165117
747.806	0.0166117
747.884	0.0166215
747.962	0.0165409
748.040	0.0166750
748.119	0.0167445
748.197	0.0167519
748.275	0.0168595
748.353	0.0167349
748.431	0.0167802
748.509	0.0167409
748.587	0.0167402
748.665	0.0167962
748.744	0.0168192
748.822	0.0168996
748.900	0.0167578
748.978	0.0167699
749.056	0.0167041
749.134	0.0168329
749.212	0.0167366
749.290	0.0167317
749.369	0.0169509
749.447	0.0167606
749.525	0.0168588
749.603	0.0168095
749.681	0.0168694
749.759	0.0167657
749.837	0.0168325
749.915	0.0168497
749.994	0.0169038
750.072	0.0169299
750.150	0.0169139
750.228	0.0171173
750.306	0.0169585
750.384	0.0169505
750.462	0.0169718
750.540	0.0170027
750.619	0.0170259
750.697	0.0170189
750.775	0.0169651
750.853	0.0168636
750.931	0.0170085
751.009	0.0171039
751.087	0.0168436
751.165	0.0168850
751.244	0.0170322
751.322	0.0169857
751.400	0.0169094
751.478	0.0169080
751.556	0.0168157
751.634	0.0169357
751.712	0.0169117
751.790	0.0167137
751.869	0.0167213
751.947	0.0167477
752.025	0.0167292
752.103	0.0167735
752.181	0.0167820
752.259	0.0167226
752.337	0.0166707
752.415	0.0166622
752.494	0.0166533
752.572	0.0165671
752.650	0.0165142
752.728	0.0165376
752.806	0.0165987
752.884	0.0167507
752.962	0.0165939
753.040	0.0166282
753.119	0.0167093
753.197	0.0166639
753.275	0.0166335
753.353	0.0166053
753.431	0.0166792
753.509	0.0166708
753.587	0.0166261
753.665	0.0166000
753.744	0.0166999
753.822	0.0167784
753.900	0.0166762
753.978	0.0165865
754.056	0.0167413
754.134	0.0168503
754.212	0.0166164
754.290	0.0167348
754.369	0.0166001
754.447	0.0165871
754.525	0.0167069
754.603	0.0167612
754.681	0.0168066
754.759	0.0167059
754.837	0.0167113
754.915	0.0166905
754.994	0.0167844
755.072	0.0167863
755.150	0.0166726
755.228	0.0166541
755.306	0.0166655
755.384	0.0166117
755.462	0.0166951
755.540	0.0167398
755.619	0.0166016
755.697	0.0164877
755.775	0.0166533
755.853	0.0167050
755.931	0.0166662
756.009	0.0166307
756.087	0.0165054
756.165	0.0164733
756.244	0.0166249
756.322	0.0165862
756.400	0.0164918
756.478	0.0165720
756.556	0.0164058
756.634	0.0165935
756.712	0.0164946
756.790	0.0164958
756.869	0.0165675
756.947	0.0164809
757.025	0.0165147
757.103	0.0165132
757.181	0.0165815
757.259	0.0167171
757.337	0.0165036
757.415	0.0165336
757.494	0.0166584
757.572	0.0166006
757.650	0.0166536
757.728	0.0167309
757.806	0.0167049
757.884	0.0165745
757.962	0.0164525
758.040	0.0166602
758.119	0.0167617
758.197	0.0165176
758.275	0.0166792
758.353	0.0166660
758.431	0.0166438
758.509	0.0166538
758.587	0.0166492
758.665	0.0166126
758.744	0.0166008
758.822	0.0166366
758.900	0.0166220
758.978	0.0166592
759.056	0.0165548
759.134	0.0166696
759.212	0.0166245
759.290	0.0165786
759.369	0.0166359
759.447	0.0168050
759.525	0.0167126
759.603	0.0165572
759.681	0.0165546
759.759	0.0165209
759.837	0.0167316
759.915	0.0166203
759.994	0.0166763
760.072	0.0168456
760.150	0.0166959
760.228	0.0166805
760.306	0.0167450
760.384	0.0167009
760.462	0.0167834
760.540	0.0165374
760.619	0.0166592
760.697	0.0166824
760.775	0.0166237
760.853	0.0167790
760.931	0.0167110
761.009	0.0166699
761.087	0.0166427
761.165	0.0167130
761.244	0.0167065
761.322	0.0166656
761.400	0.0167227
761.478	0.0166754
761.556	0.0167590
761.634	0.0166801
761.712	0.0167437
761.790	0.0167188
761.869	0.0168505
761.947	0.0167290
762.025	0.0167597
762.103	0.0169073
762.181	0.0168526
762.259	0.0167532
762.337	0.0168706
762.415	0.0166378
762.494	0.0166676
762.572	0.0167752
762.650	0.0167791
762.728	0.0167850
762.806	0.0166569
762.884	0.0167125
762.962	0.0166975
763.040	0.0166432
763.119	0.0167999
763.197	0.0167730
763.275	0.0167598
763.353	0.0168738
763.431	0.0167649
763.509	0.0168687
763.587	0.0167895
763.665	0.0167503
763.744	0.0166534
763.822	0.0167781
763.900	0.0168569
763.978	0.0168963
764.056	0.0167325
764.134	0.0167368
764.212	0.0168281
764.290	0.0168335
764.369	0.0168971
764.447	0.0168678
764.525	0.0168829
764.603	0.0166434
764.681	0.0167249
764.759	0.0169353
764.837	0.0167345
764.915	0.0167231
764.994	0.0167312
765.072	0.0166420
765.150	0.0167896
765.228	0.0168109
765.306	0.0167204
765.384	0.0168461
765.462	0.0167688
765.540	0.0166497
765.619	0.0168015
765.697	0.0168153
765.775	0.0167137
765.853	0.0167986
765.931	0.0166553
766.009	0.0167085
766.087	0.0168604
766.165	0.0168275
766.244	0.0168002
766.322	0.0168214
766.400	0.0168626
766.478	0.0167582
766.556	0.0168571
766.634	0.0167840
766.712	0.0167044
766.790	0.0168016
766.869	0.0168584
766.947	0.0168420
767.025	0.0170311
767.103	0.0169925
767.181	0.0168350
767.259	0.0168031
767.337	0.0168771
767.415	0.0168922
767.494	0.0169339
767.572	0.0168440
767.650	0.0169016
767.728	0.0169480
767.806	0.0169710
767.884	0.0170110
767.962	0.0170634
768.040	0.0169238
768.119	0.0170139
768.197	0.0171471
768.275	0.0170856
768.353	0.0170751
768.431	0.0169088
768.509	0.0170070
768.587	0.0170148
768.665	0.0169557
768.744	0.0168937
768.822	0.0169823
768.900	0.0169189
768.978	0.0167534
769.056	0.0167961
769.134	0.0167773
769.212	0.0167803
769.290	0.0168678
769.369	0.0168618
769.447	0.0166042
769.525	0.0168026
769.603	0.0166599
769.681	0.0166072
769.759	0.0166233
769.837	0.0167457
769.915	0.0166634
769.994	0.0165877
770.072	0.0164494
770.150	0.0163491
770.228	0.0164273
770.306	0.0164601
770.384	0.0164518
770.462	0.0164240
770.540	0.0164575
770.619	0.0165343
770.697	0.0165181
770.775	0.0166154
770.853	0.0166522
770.931	0.0165097
771.009	0.0165636
771.087	0.0165453
771.165	0.0165822
771.244	0.0164214
771.322	0.0165249
771.400	0.0166016
771.478	0.0166412
771.556	0.0165672
771.634	0.0165063
771.712	0.0167100
771.790	0.0166309
771.869	0.0165531
771.947	0.0166933
772.025	0.0165731
772.103	0.0165475
772.181	0.0165945
772.259	0.0166027
772.337	0.0166798
772.415	0.0167683
772.494	0.0168497
772.572	0.0169331
772.650	0.0167229
772.728	0.0167200
772.806	0.0167609
772.884	0.0166491
772.962	0.0167628
773.040	0.0168250
773.119	0.0167232
773.197	0.0168433
773.275	0.0165958
773.353	0.0166283
773.431	0.0167338
773.509	0.0167680
773.587	0.0167413
773.665	0.0167265
773.744	0.0166084
773.822	0.0168346
773.900	0.0167483
773.978	0.0168082
774.056	0.0167725
774.134	0.0167971
774.212	0.0168033
774.290	0.0168510
774.369	0.0168644
774.447	0.0170317
774.525	0.0169395
774.603	0.0167567
774.681	0.0167348
774.759	0.0169498
774.837	0.0168919
774.915	0.0168729
774.994	0.0168555
775.072	0.0168832
775.150	0.0169365
775.228	0.0169537
775.306	0.0169138
775.384	0.0168922
775.462	0.0167104
775.540	0.0168857
775.619	0.0170020
775.697	0.0169095
775.775	0.0170274
775.853	0.0170319
775.931	0.0169260
776.009	0.0168549
776.087	0.0169160
776.165	0.0168253
776.244	0.0169476
776.322	0.0169613
776.400	0.0168421
776.478	0.0167598
776.556	0.0168410
776.634	0.0168284
776.712	0.0168368
776.790	0.0167148
776.869	0.0168137
776.947	0.0167185
777.025	0.0168176
777.103	0.0168345
777.181	0.0166927
777.259	0.0167896
777.337	0.0166114
777.415	0.0166055
777.494	0.0166895
777.572	0.0167246
777.650	0.0167277
777.728	0.0167001
777.806	0.0167181
777.884	0.0166504
777.962	0.0167734
778.040	0.0167705
778.119	0.0166732
778.197	0.0167949
778.275	0.0167677
778.353	0.0169034
778.431	0.0168172
778.509	0.0166892
778.587	0.0168003
778.665	0.0169553
778.744	0.0169278
778.822	0.0167410
778.900	0.0167431
778.978	0.0168542
779.056	0.0169281
779.134	0.0168983
779.212	0.0169850
779.290	0.0168125
779.369	0.0167509
779.447	0.0169565
779.525	0.0167898
779.603	0.0168195
779.681	0.0167416
779.759	0.0166565
779.837	0.0168082
779.915	0.0168755
779.994	0.0167397
780.072	0.0168970
780.150	0.0167262
780.228	0.0167269
780.306	0.0167571
780.384	0.0167586
780.462	0.0167876
780.540	0.0165685
780.619	0.0167358
780.697	0.0169308
780.775	0.0168954
780.853	0.0167771
780.931	0.0167287
781.009	0.0169202
781.087	0.0168359
781.165	0.0168140
781.244	0.0168108
781.322	0.0168032
781.400	0.0167722
781.478	0.0167734
781.556	0.0166976
781.634	0.0167710
781.712	0.0169125
781.790	0.0168460
781.869	0.0169083
781.947	0.0169086
782.025	0.0168363
782.103	0.0168523
782.181	0.0170232
782.259	0.0170152
782.337	0.0169305
782.415	0.0169667
782.494	0.0169362
782.572	0.0169263
782.650	0.0169128
782.728	0.0168873
782.806	0.0166857
782.884	0.0168925
782.962	0.0167694
783.040	0.0168396
783.119	0.0169205
783.197	0.0167156
783.275	0.0167943
783.353	0.0168658
783.431	0.0167258
783.509	0.0166484
783.587	0.0166088
783.665	0.0167513
783.744	0.0166831
783.822	0.0167731
783.900	0.0166843
783.978	0.0166957
784.056	0.0166689
784.134	0.0166695
784.212	0.0167419
784.290	0.0167430
784.369	0.0167908
784.447	0.0167162
784.525	0.0167739
784.603	0.0166802
784.681	0.0166552
784.759	0.0165991
784.837	0.0166226
784.915	0.0165534
784.994	0.0165787
785.072	0.0165425
785.150	0.0166343
785.228	0.0166061
785.306	0.0166402
785.384	0.0167075
785.462	0.0165318
785.540	0.0166763
785.619	0.0165310
785.697	0.0164732
785.775	0.0165694
785.853	0.0165411
785.931	0.0164250
786.009	0.0165776
786.087	0.0165974
786.165	0.0165352
786.244	0.0166109
786.322	0.0166556
786.400	0.0166259
786.478	0.0164111
786.556	0.0164180
786.634	0.0165766
786.712	0.0165323
786.790	0.0165832
786.869	0.0164249
786.947	0.0166458
787.025	0.0164611
787.103	0.0164845
787.181	0.0166310
787.259	0.0166530
787.337	0.0166232
787.415	0.0167744
787.494	0.0166032
787.572	0.0166322
787.650	0.0167282
787.728	0.0166708
787.806	0.0167431
787.884	0.0168704
787.962	0.0165578
788.040	0.0167197
788.119	0.0167852
788.197	0.0167055
788.275	0.0167567
788.353	0.0166909
788.431	0.0168750
788.509	0.0167555
788.587	0.0166135
788.665	0.0168299
788.744	0.0167709
788.822	0.0167181
788.900	0.0167252
788.978	0.0166721
789.056	0.0166383
789.134	0.0167360
789.212	0.0165516
789.290	0.0166958
789.369	0.0167028
789.447	0.0166396
789.525	0.0167191
789.603	0.0167149
789.681	0.0165826
789.759	0.0167498
789.837	0.0166914
789.915	0.0167130
789.994	0.0166975
790.072	0.0167600
790.150	0.0168276
790.228	0.0168600
790.306	0.0167441
790.384	0.0167767
790.462	0.0166010
790.540	0.0167941
790.619	0.0168768
790.697	0.0165974
790.775	0.0167765
790.853	0.0168283
790.931	0.0166978
791.009	0.0167169
791.087	0.0167947
791.165	0.0168440
791.244	0.0168732
791.322	0.0168670
791.400	0.0170522
791.478	0.0169308
791.556	0.0168584
791.634	0.0168629
791.712	0.0168790
791.790	0.0169573
791.869	0.0168420
791.947	0.0169302
792.025	0.0168294
792.103	0.0167603
792.181	0.0169016
792.259	0.0170193
792.337	0.0167710
792.415	0.0166405
792.494	0.0168169
792.572	0.0168791
792.650	0.0168035
792.728	0.0168179
792.806	0.0166945
792.884	0.0167425
792.962	0.0169514
793.040	0.0168773
793.119	0.0167888
793.197	0.0167560
793.275	0.0167563
793.353	0.0168349
793.431	0.0169234
793.509	0.0169141
793.587	0.0168944
793.665	0.0168896
793.744	0.0168116
793.822	0.0169548
793.900	0.0168632
793.978	0.0168410
794.056	0.0167018
794.134	0.0167722
794.212	0.0167624
794.290	0.0168188
794.369	0.0167786
794.447	0.0167104
794.525	0.0167245
794.603	0.0166711
794.681	0.0166517
794.759	0.0166655
794.837	0.0167148
794.915	0.0167509
794.994	0.0168452
795.072	0.0168053
795.150	0.0166073
795.228	0.0166425
795.306	0.0166213
795.384	0.0166802
795.462	0.0168459
795.540	0.0165974
795.619	0.0166806
795.697	0.0167554
795.775	0.0167231
795.853	0.0167641
795.931	0.0167875
796.009	0.0166819
796.087	0.0167889
796.165	0.0167159
796.244	0.0166854
796.322	0.0168733
796.400	0.0169361
796.478	0.0167885
796.556	0.0167295
796.634	0.0168006
796.712	0.0169080
796.790	0.0169981
796.869	0.0169706
796.947	0.0169514
797.025	0.0169137
797.103	0.0171013
797.181	0.0169440
797.259	0.0170026
797.337	0.0170071
797.415	0.0170220
797.494	0.0170188
797.572	0.0171244
797.650	0.0169860
797.728	0.0170514
797.806	0.0171187
797.884	0.0171038
797.962	0.0170169
798.040	0.0170229
798.119	0.0169576
798.197	0.0169353
798.275	0.0169385
798.353	0.0169222
798.431	0.0169913
798.509	0.0170548
798.587	0.0168626
798.665	0.0169645
798.744	0.0169293
798.822	0.0169718
798.900	0.0167635
798.978	0.0169039
799.056	0.0167786
799.134	0.0168900
799.212	0.0169033
799.290	0.0168262
799.369	0.0165962
799.447	0.0168166
799.525	0.0165919
799.603	0.0166666
799.681	0.0167202
799.759	0.0166039
799.837	0.0166597
799.915	0.0166041
799.994	0.0167070
800.072	0.0166296
800.150	0.0165943
800.228	0.0168247
800.306	0.0165812
800.384	0.0164428
800.462	0.0167203
800.540	0.0167053
800.619	0.0165187
800.697	0.0166399
800.775	0.0167242
800.853	0.0165998
800.931	0.0165193
801.009	0.0166801
801.087	0.0166525
801.165	0.0167212
801.244	0.0166824
801.322	0.0166527
801.400	0.0165710
801.478	0.0167050
801.556	0.0168301
801.634	0.0166304
801.712	0.0166477
801.790	0.0167740
801.869	0.0167439
801.947	0.0166752
802.025	0.0166578
802.103	0.0166914
802.181	0.0167565
802.259	0.0168477
802.337	0.0166808
802.415	0.0168810
802.494	0.0168023
802.572	0.0168619
802.650	0.0168232
802.728	0.0168359
802.806	0.0168963
802.884	0.0168926
802.962	0.0170244
803.040	0.0170635
803.119	0.0169328
803.197	0.0169392
803.275	0.0172198
803.353	0.0170825
803.431	0.0170082
803.509	0.0170992
803.587	0.0171365
803.665	0.0170576
803.744	0.0170847
803.822	0.0169747
803.900	0.0170838
803.978	0.0170860
804.056	0.0169810
804.134	0.0170816
804.212	0.0169880
804.290	0.0171294
804.369	0.0171213
804.447	0.0170161
804.525	0.0170163
804.603	0.0170174
804.681	0.0169360
804.759	0.0168262
804.837	0.0168880
804.915	0.0169215
804.994	0.0169238
805.072	0.0166399
805.150	0.0167136
805.228	0.0167812
805.306	0.0165965
805.384	0.0164803
805.462	0.0164590
805.540	0.0164944
805.619	0.0164009
805.697	0.0163445
805.775	0.0165924
805.853	0.0165715
805.931	0.0166235
806.009	0.0164660
806.087	0.0164982
806.165	0.0167017
806.244	0.0166691
806.322	0.0167553
806.400	0.0165738
806.478	0.0167607
806.556	0.0167707
806.634	0.0167677
806.712	0.0169054
806.790	0.0168041
806.869	0.0168630
806.947	0.0169335
807.025	0.0169189
807.103	0.0169059
807.181	0.0169888
807.259	0.0169186
807.337	0.0170351
807.415	0.0171696
807.494	0.0169516
807.572	0.0169574
807.650	0.0169171
807.728	0.0170538
807.806	0.0170341
807.884	0.0169449
807.962	0.0169051
808.040	0.0168882
808.119	0.0168026
808.197	0.0167123
808.275	0.0167108
808.353	0.0166369
808.431	0.0166511
808.509	0.0165433
808.587	0.0166099
808.665	0.0166651
808.744	0.0165982
808.822	0.0166457
808.900	0.0166928
808.978	0.0165471
809.056	0.0166294
809.134	0.0166706
809.212	0.0165940
809.290	0.0164771
809.369	0.0166348
809.447	0.0167687
809.525	0.0168314
809.603	0.0167165
809.681	0.0167213
809.759	0.0167809
809.837	0.0167960
809.915	0.0168584
809.994	0.0166750
810.072	0.0168314
810.150	0.0167604
810.228	0.0168546
810.306	0.0167161
810.384	0.0168288
810.462	0.0168147
810.540	0.0168060
810.619	0.0169231
810.697	0.0167328
810.775	0.0167652
810.853	0.0167513
810.931	0.0169017
811.009	0.0168440
811.087	0.0168548
811.165	0.0167623
811.244	0.0167478
811.322	0.0169777
811.400	0.0168160
811.478	0.0168561
811.556	0.0167250
811.634	0.0166803
811.712	0.0166696
811.790	0.0166454
811.869	0.0166093
811.947	0.0166412
812.025	0.0167215
812.103	0.0166381
812.181	0.0165266
812.259	0.0165636
812.337	0.0166199
812.415	0.0166127
812.494	0.0165147
812.572	0.0165400
812.650	0.0166103
812.728	0.0166145
812.806	0.0165499
812.884	0.0165122
812.962	0.0167074
813.040	0.0167455
813.119	0.0167319
813.197	0.0166250
813.275	0.0165061
813.353	0.0165372
813.431	0.0164848
813.509	0.0163609
813.587	0.0163588
813.665	0.0164535
813.744	0.0164917
813.822	0.0163178
813.900	0.0163285
813.978	0.0162991
814.056	0.0164532
814.134	0.0162817
814.212	0.0163155
814.290	0.0165046
814.369	0.0163740
814.447	0.0164693
814.525	0.0164871
814.603	0.0165081
814.681	0.0165955
814.759	0.0166724
814.837	0.0166629
814.915	0.0167126
814.994	0.0167162
815.072	0.0166956
815.150	0.0167965
815.228	0.0168478
815.306	0.0168230
815.384	0.0169650
815.462	0.0168711
815.540	0.0169970
815.619	0.0171162
815.697	0.0170737
815.775	0.0170090
815.853	0.0169945
815.931	0.0168976
816.009	0.0170478
816.087	0.0170051
816.165	0.0168481
816.244	0.0169366
816.322	0.0170377
816.400	0.0169738
816.478	0.0168925
816.556	0.0169020
816.634	0.0168156
816.712	0.0167308
816.790	0.0167634
816.869	0.0166159
816.947	0.0166257
817.025	0.0166389
817.103	0.0166679
817.181	0.0166400
817.259	0.0166517
817.337	0.0166145
817.415	0.0165219
817.494	0.0165520
817.572	0.0165274
817.650	0.0165342
817.728	0.0164344
817.806	0.0164960
817.884	0.0165369
817.962	0.0165342
818.040	0.0164671
818.119	0.0163794
818.197	0.0164831
818.275	0.0163683
818.353	0.0163328
818.431	0.0163699
818.509	0.0162341
818.587	0.0164275
818.665	0.0163374
818.744	0.0164702
818.822	0.0163931
818.900	0.0163794
818.978	0.0164141
819.056	0.0163963
819.134	0.0166164
819.212	0.0166087
819.290	0.0166192
819.369	0.0167304
819.447	0.0168342
819.525	0.0167268
819.603	0.0166830
819.681	0.0168464
819.759	0.0168436
819.837	0.0168325
819.915	0.0169601
819.994	0.0170193
820.072	0.0168984
820.150	0.0168587
820.228	0.0169738
820.306	0.0169506
820.384	0.0170007
820.462	0.0170064
820.540	0.0171391
820.619	0.0171563
820.697	0.0172060
820.775	0.0173167
820.853	0.0171912
820.931	0.0171226
821.009	0.0171056
821.087	0.0171250
821.165	0.0170852
821.244	0.0170369
821.322	0.0171378
821.400	0.0170480
821.478	0.0169685
821.556	0.0169063
821.634	0.0171162
821.712	0.0170385
821.790	0.0169455
821.869	0.0168375
821.947	0.0168861
822.025	0.0168134
822.103	0.0167849
822.181	0.0168222
822.259	0.0168085
822.337	0.0166865
822.415	0.0167193
822.494	0.0165125
822.572	0.0165514
822.650	0.0166135
822.728	0.0164995
822.806	0.0164597
822.884	0.0164924
822.962	0.0164964
823.040	0.0165871
823.119	0.0165019
823.197	0.0162754
823.275	0.0165179
823.353	0.0166940
823.431	0.0166089
823.509	0.0166628
823.587	0.0165910
823.665	0.0166467
823.744	0.0167639
823.822	0.0166608
823.900	0.0165999
823.978	0.0167590
824.056	0.0167296
824.134	0.0166556
824.212	0.0169810
824.290	0.0170035
824.369	0.0168984
824.447	0.0169389
824.525	0.0170337
824.603	0.0171637
824.681	0.0171745
824.759	0.0170301
824.837	0.0171694
824.915	0.0172306
824.994	0.0171346
825.072	0.0170930
825.150	0.0170772
825.228	0.0170306
825.306	0.0170002
825.384	0.0169424
825.462	0.0168999
825.540	0.0168779
825.619	0.0168822
825.697	0.0168849
825.775	0.0167796
825.853	0.0168427
825.931	0.0167500
826.009	0.0167376
826.087	0.0167105
826.165	0.0167145
826.244	0.0166238
826.322	0.0167525
826.400	0.0167558
826.478	0.0167532
826.556	0.0165771
826.634	0.0167869
826.712	0.0167412
826.790	0.0166729
826.869	0.0167284
826.947	0.0168163
827.025	0.0167081
827.103	0.0168368
827.181	0.0168586
827.259	0.0167874
827.337	0.0168478
827.415	0.0169833
827.494	0.0169585
827.572	0.0170312
827.650	0.0169147
827.728	0.0169963
827.806	0.0170844
827.884	0.0170470
827.962	0.0169455
828.040	0.0170722
828.119	0.0171304
828.197	0.0170491
828.275	0.0171133
828.353	0.0171581
828.431	0.0171500
828.509	0.0171421
828.587	0.0171886
828.665	0.0172050
828.744	0.0173320
828.822	0.0170737
828.900	0.0171129
828.978	0.0170279
829.056	0.0170520
829.134	0.0170325
829.212	0.0170576
829.290	0.0170284
829.369	0.0171368
829.447	0.0170363
829.525	0.0168672
829.603	0.0168510
829.681	0.0170007
829.759	0.0168177
829.837	0.0169105
829.915	0.0166983
829.994	0.0166433
830.072	0.0166566
830.150	0.0164600
830.228	0.0166616
830.306	0.0167515
830.384	0.0166055
830.462	0.0165797
830.540	0.0165921
830.619	0.0166464
830.697	0.0165828
830.775	0.0163596
830.853	0.0164301
830.931	0.0164236
831.009	0.0164140
831.087	0.0164447
831.165	0.0162668
831.244	0.0164358
831.322	0.0163551
831.400	0.0164194
831.478	0.0164037
831.556	0.0163055
831.634	0.0162553
831.712	0.0163123
831.790	0.0163548
831.869	0.0163490
831.947	0.0162355
832.025	0.0160957
832.103	0.0162049
832.181	0.0163836
832.259	0.0163638
832.337	0.0164182
832.415	0.0163911
832.494	0.0163412
832.572	0.0164307
832.650	0.0163920
832.728	0.0162961
832.806	0.0163875
832.884	0.0165897
832.962	0.0165356
833.040	0.0165985
833.119	0.0165600
833.197	0.0166601
833.275	0.0166233
833.353	0.0166145
833.431	0.0166936
833.509	0.0168116
833.587	0.0168065
833.665	0.0166767
833.744	0.0167462
833.822	0.0167378
833.900	0.0167487
833.978	0.0166630
834.056	0.0166808
834.134	0.0166617
834.212	0.0166873
834.290	0.0166306
834.369	0.0166171
834.447	0.0166875
834.525	0.0167871
834.603	0.0167305
834.681	0.0165842
834.759	0.0168938
834.837	0.0167594
834.915	0.0166156
834.994	0.0166140
835.072	0.0168129
835.150	0.0168079
835.228	0.0168463
835.306	0.0167834
835.384	0.0168866
835.462	0.0167761
835.540	0.0166041
835.619	0.0166348
835.697	0.0167038
835.775	0.0167284
835.853	0.0167524
835.931	0.0168379
836.009	0.0165625
836.087	0.0166918
836.165	0.0166094
836.244	0.0167410
836.322	0.0167095
836.400	0.0166521
836.478	0.0167128
836.556	0.0167030
836.634	0.0167731
836.712	0.0167152
836.790	0.0167565
836.869	0.0167233
836.947	0.0167371
837.025	0.0169066
837.103	0.0168189
837.181	0.0168691
837.259	0.0168333
837.337	0.0168528
837.415	0.0169601
837.494	0.0169116
837.572	0.0168195
837.650	0.0169987
837.728	0.0171207
837.806	0.0170589
837.884	0.0170596
837.962	0.0170125
838.040	0.0168399
838.119	0.0169129
838.197	0.0170670
838.275	0.0169645
838.353	0.0169067
838.431	0.0169384
838.509	0.0169007
838.587	0.0168302
838.665	0.0169569
838.744	0.0167852
838.822	0.0166528
838.900	0.0168316
838.978	0.0167834
839.056	0.0168250
839.134	0.0167159
839.212	0.0167100
839.290	0.0168371
839.369	0.0167157
839.447	0.0167175
839.525	0.0167710
839.603	0.0167128
839.681	0.0166512
839.759	0.0165572
839.837	0.0164982
839.915	0.0166341
839.994	0.0165607
840.072	0.0165776
840.150	0.0166364
840.228	0.0165427
840.306	0.0165454
840.384	0.0165948
840.462	0.0165263
840.540	0.0167105
840.619	0.0167355
840.697	0.0165611
840.775	0.0166473
840.853	0.0166312
840.931	0.0167113
841.009	0.0167458
841.087	0.0166900
841.165	0.0167622
841.244	0.0166920
841.322	0.0167628
841.400	0.0166605
841.478	0.0167841
841.556	0.0167464
841.634	0.0166418
841.712	0.0165999
841.790	0.0167177
841.869	0.0165958
841.947	0.0166663
842.025	0.0166291
842.103	0.0165897
842.181	0.0165702
842.259	0.0166098
842.337	0.0163998
842.415	0.0164310
842.494	0.0164526
842.572	0.0165276
842.650	0.0164355
842.728	0.0164606
842.806	0.0165559
842.884	0.0164661
842.962	0.0163924
843.040	0.0164594
843.119	0.0165872
843.197	0.0165839
843.275	0.0163723
843.353	0.0165876
843.431	0.0165804
843.509	0.0164136
843.587	0.0164760
843.665	0.0164983
843.744	0.0164729
843.822	0.0163576
843.900	0.0164228
843.978	0.0164085
844.056	0.0162668
844.134	0.0164153
844.212	0.0162701
844.290	0.0162273
844.369	0.0163835
844.447	0.0163305
844.525	0.0162794
844.603	0.0163224
844.681	0.0162894
844.759	0.0164507
844.837	0.0164052
844.915	0.0164366
844.994	0.0164513
845.072	0.0163618
845.150	0.0165040
845.228	0.0166544
845.306	0.0165033
845.384	0.0165829
845.462	0.0166705
845.540	0.0167183
845.619	0.0166100
845.697	0.0167963
845.775	0.0167973
845.853	0.0165909
845.931	0.0166800
846.009	0.0166496
846.087	0.0166726
846.165	0.0168925
846.244	0.0169043
846.322	0.0168079
846.400	0.0169482
846.478	0.0168925
846.556	0.0169308
846.634	0.0169022
846.712	0.0168850
846.790	0.0169452
846.869	0.0169941
846.947	0.0170456
847.025	0.0169679
847.103	0.0170912
847.181	0.0168977
847.259	0.0169921
847.337	0.0170079
847.415	0.0169408
847.494	0.0168884
847.572	0.0167997
847.650	0.0170630
847.728	0.0168917
847.806	0.0168637
847.884	0.0169626
847.962	0.0168591
848.040	0.0168114
848.119	0.0168719
848.197	0.0169247
848.275	0.0169259
848.353	0.0167841
848.431	0.0170475
848.509	0.0168795
848.587	0.0167825
848.665	0.0168899
848.744	0.0170241
848.822	0.0167723
848.900	0.0167083
848.978	0.0167103
849.056	0.0168539
849.134	0.0168037
849.212	0.0167389
849.290	0.0165983
849.369	0.0166344
849.447	0.0165400
849.525	0.0165689
849.603	0.0166885
849.681	0.0165164
849.759	0.0165671
849.837	0.0165950
849.915	0.0165313
849.994	0.0165422
850.072	0.0166567
850.150	0.0165445
850.228	0.0166910
850.306	0.0167122
850.384	0.0165445
850.462	0.0167226
850.540	0.0167965
850.619	0.0168371
850.697	0.0168390
850.775	0.0168002
850.853	0.0167066
850.931	0.0168825
851.009	0.0168907
851.087	0.0170526
851.165	0.0169630
851.244	0.0168816
851.322	0.0169930
851.400	0.0169762
851.478	0.0169814
851.556	0.0169524
851.634	0.0169730
851.712	0.0170654
851.790	0.0169086
851.869	0.0169824
851.947	0.0168256
852.025	0.0169964
852.103	0.0169208
852.181	0.0168224
852.259	0.0168089
852.337	0.0167691
852.415	0.0167915
852.494	0.0167164
852.572	0.0168195
852.650	0.0166508
852.728	0.0166418
852.806	0.0166818
852.884	0.0166408
852.962	0.0167878
853.040	0.0167883
853.119	0.0168039
853.197	0.0167099
853.275	0.0167877
853.353	0.0168105
853.431	0.0168851
853.509	0.0168277
853.587	0.0167981
853.665	0.0168143
853.744	0.0169310
853.822	0.0168874
853.900	0.0168246
853.978	0.0166920
854.056	0.0167114
854.134	0.0168462
854.212	0.0166976
854.290	0.0169329
854.369	0.0167934
854.447	0.0166154
854.525	0.0166579
854.603	0.0168182
854.681	0.0166803
854.759	0.0166943
854.837	0.0166480
854.915	0.0167943
854.994	0.0167713
855.072	0.0168439
855.150	0.0167802
855.228	0.0167842
855.306	0.0169236
855.384	0.0167795
855.462	0.0166599
855.540	0.0167565
855.619	0.0166081
855.697	0.0167659
855.775	0.0166909
855.853	0.0166997
855.931	0.0165741
856.009	0.0167122
856.087	0.0167147
856.165	0.0167159
856.244	0.0167352
856.322	0.0168729
856.400	0.0166568
856.478	0.0167014
856.556	0.0166891
856.634	0.0165914
856.712	0.0167089
856.790	0.0167879
856.869	0.0166883
856.947	0.0167700
857.025	0.0167422
857.103	0.0168113
857.181	0.0166873
857.259	0.0167333
857.337	0.0167103
857.415	0.0167727
857.494	0.0167719
857.572	0.0165821
857.650	0.0165887
857.728	0.0165510
857.806	0.0166264
857.884	0.0165656
857.962	0.0166296
858.040	0.0167823
858.119	0.0165429
858.197	0.0164301
858.275	0.0166193
858.353	0.0165809
858.431	0.0166354
858.509	0.0167247
858.587	0.0166560
858.665	0.0166530
858.744	0.0166666
858.822	0.0167617
858.900	0.0168446
858.978	0.0168081
859.056	0.0168929
859.134	0.0168271
859.212	0.0169632
859.290	0.0169492
859.369	0.0167975
859.447	0.0169214
859.525	0.0171034
859.603	0.0170451
859.681	0.0169628
859.759	0.0170969
859.837	0.0170799
859.915	0.0170468
