06/01/2022	17:45:27	Ver.	4.1	UNKNOWN
Optical Delay	539.993571	Delta X		0.078125	Sweeps	1	Scan Rate	0/0
Coordinates	Axis 1	NaN	Axis 2	NaN	Axis 3	NaN	Axis 4	NaN	Axis 5	NaN	Axis 6	0.000000
TX Power	0.000000	RX Power	0.000000

539.994	0.0168892
540.072	0.0169466
540.150	0.0169029
540.228	0.0169827
540.306	0.0169022
540.384	0.0168237
540.462	0.0169956
540.540	0.0170525
540.619	0.0169643
540.697	0.0169832
540.775	0.0170592
540.853	0.0170198
540.931	0.0169746
541.009	0.0169405
541.087	0.0169353
541.165	0.0169865
541.244	0.0168568
541.322	0.0169135
541.400	0.0167606
541.478	0.0167806
541.556	0.0168427
541.634	0.0168998
541.712	0.0168867
541.790	0.0169060
541.869	0.0169731
541.947	0.0169221
542.025	0.0170294
542.103	0.0167779
542.181	0.0167764
542.259	0.0170027
542.337	0.0169137
542.415	0.0169386
542.494	0.0168612
542.572	0.0169324
542.650	0.0168736
542.728	0.0169122
542.806	0.0169894
542.884	0.0168366
542.962	0.0169130
543.040	0.0168575
543.119	0.0168678
543.197	0.0169587
543.275	0.0168328
543.353	0.0170979
543.431	0.0168736
543.509	0.0167762
543.587	0.0170008
543.665	0.0169305
543.744	0.0169772
543.822	0.0169667
543.900	0.0169780
543.978	0.0169776
544.056	0.0167752
544.134	0.0168478
544.212	0.0169199
544.290	0.0168572
544.369	0.0169153
544.447	0.0169175
544.525	0.0169165
544.603	0.0169625
544.681	0.0169037
544.759	0.0168344
544.837	0.0168818
544.915	0.0168957
544.994	0.0168123
545.072	0.0168536
545.150	0.0170006
545.228	0.0168680
545.306	0.0169613
545.384	0.0168346
545.462	0.0169724
545.540	0.0169144
545.619	0.0168166
545.697	0.0169647
545.775	0.0168940
545.853	0.0168921
545.931	0.0169339
546.009	0.0169369
546.087	0.0167484
546.165	0.0168042
546.244	0.0168421
546.322	0.0167992
546.400	0.0169888
546.478	0.0168373
546.556	0.0168162
546.634	0.0169299
546.712	0.0167986
546.790	0.0167582
546.869	0.0167640
546.947	0.0168230
547.025	0.0168964
547.103	0.0168552
547.181	0.0168499
547.259	0.0168409
547.337	0.0168587
547.415	0.0168567
547.494	0.0168673
547.572	0.0167663
547.650	0.0167433
547.728	0.0168617
547.806	0.0167643
547.884	0.0167488
547.962	0.0167953
548.040	0.0168571
548.119	0.0168796
548.197	0.0166532
548.275	0.0168040
548.353	0.0167947
548.431	0.0165974
548.509	0.0168263
548.587	0.0168727
548.665	0.0167849
548.744	0.0166925
548.822	0.0168107
548.900	0.0167915
548.978	0.0168240
549.056	0.0167751
549.134	0.0169024
549.212	0.0168655
549.290	0.0167262
549.369	0.0167658
549.447	0.0168607
549.525	0.0167580
549.603	0.0168464
549.681	0.0167500
549.759	0.0167001
549.837	0.0167384
549.915	0.0166531
549.994	0.0166948
550.072	0.0167874
550.150	0.0168419
550.228	0.0165385
550.306	0.0166486
550.384	0.0168530
550.462	0.0167027
550.540	0.0166893
550.619	0.0164971
550.697	0.0165535
550.775	0.0166757
550.853	0.0166953
550.931	0.0166506
551.009	0.0165691
551.087	0.0165948
551.165	0.0166717
551.244	0.0167314
551.322	0.0168358
551.400	0.0167069
551.478	0.0167360
551.556	0.0168121
551.634	0.0164716
551.712	0.0166776
551.790	0.0167802
551.869	0.0167164
551.947	0.0167568
552.025	0.0168488
552.103	0.0168512
552.181	0.0167828
552.259	0.0167101
552.337	0.0167567
552.415	0.0168599
552.494	0.0169118
552.572	0.0168568
552.650	0.0167907
552.728	0.0168052
552.806	0.0170229
552.884	0.0168325
552.962	0.0167867
553.040	0.0168141
553.119	0.0169279
553.197	0.0169897
553.275	0.0168675
553.353	0.0169484
553.431	0.0168033
553.509	0.0168661
553.587	0.0169230
553.665	0.0169315
553.744	0.0170616
553.822	0.0170917
553.900	0.0169798
553.978	0.0169874
554.056	0.0168729
554.134	0.0171301
554.212	0.0170496
554.290	0.0171254
554.369	0.0170065
554.447	0.0168013
554.525	0.0169733
554.603	0.0168754
554.681	0.0169666
554.759	0.0169257
554.837	0.0167855
554.915	0.0168780
554.994	0.0168758
555.072	0.0168830
555.150	0.0170332
555.228	0.0168802
555.306	0.0167504
555.384	0.0168668
555.462	0.0167365
555.540	0.0167930
555.619	0.0168205
555.697	0.0167702
555.775	0.0168497
555.853	0.0168649
555.931	0.0168385
556.009	0.0166791
556.087	0.0167159
556.165	0.0168813
556.244	0.0167372
556.322	0.0167696
556.400	0.0167587
556.478	0.0167240
556.556	0.0167670
556.634	0.0169417
556.712	0.0167817
556.790	0.0168167
556.869	0.0167348
556.947	0.0166436
557.025	0.0167603
557.103	0.0169476
557.181	0.0167961
557.259	0.0167428
557.337	0.0167341
557.415	0.0167787
557.494	0.0168760
557.572	0.0167645
557.650	0.0168191
557.728	0.0167104
557.806	0.0168312
557.884	0.0167951
557.962	0.0167934
558.040	0.0169453
558.119	0.0167987
558.197	0.0168606
558.275	0.0168864
558.353	0.0167735
558.431	0.0167770
558.509	0.0170490
558.587	0.0169437
558.665	0.0168126
558.744	0.0168107
558.822	0.0168761
558.900	0.0168970
558.978	0.0168855
559.056	0.0170273
559.134	0.0167283
559.212	0.0169159
559.290	0.0168913
559.369	0.0169267
559.447	0.0168394
559.525	0.0168996
559.603	0.0167912
559.681	0.0168654
559.759	0.0169139
559.837	0.0169184
559.915	0.0168120
559.994	0.0168389
560.072	0.0167763
560.150	0.0167958
560.228	0.0169067
560.306	0.0167884
560.384	0.0168288
560.462	0.0169035
560.540	0.0168093
560.619	0.0169043
560.697	0.0169749
560.775	0.0167984
560.853	0.0169632
560.931	0.0168697
561.009	0.0168622
561.087	0.0168376
561.165	0.0168011
561.244	0.0169135
561.322	0.0168807
561.400	0.0168923
561.478	0.0169273
561.556	0.0168951
561.634	0.0167912
561.712	0.0168884
561.790	0.0167434
561.869	0.0167628
561.947	0.0168034
562.025	0.0168758
562.103	0.0167959
562.181	0.0168298
562.259	0.0167786
562.337	0.0167902
562.415	0.0166693
562.494	0.0168124
562.572	0.0167881
562.650	0.0166192
562.728	0.0168001
562.806	0.0168135
562.884	0.0166689
562.962	0.0169018
563.040	0.0167760
563.119	0.0167634
563.197	0.0167500
563.275	0.0168237
563.353	0.0167001
563.431	0.0167506
563.509	0.0168720
563.587	0.0167786
563.665	0.0167356
563.744	0.0167799
563.822	0.0168169
563.900	0.0169267
563.978	0.0167152
564.056	0.0166980
564.134	0.0168748
564.212	0.0166723
564.290	0.0166488
564.369	0.0166824
564.447	0.0166722
564.525	0.0166892
564.603	0.0168063
564.681	0.0168111
564.759	0.0167937
564.837	0.0166421
564.915	0.0167683
564.994	0.0167831
565.072	0.0168458
565.150	0.0167947
565.228	0.0169435
565.306	0.0168604
565.384	0.0168496
565.462	0.0168411
565.540	0.0169183
565.619	0.0168205
565.697	0.0167493
565.775	0.0167878
565.853	0.0169441
565.931	0.0168614
566.009	0.0168083
566.087	0.0169022
566.165	0.0169505
566.244	0.0168637
566.322	0.0168629
566.400	0.0169761
566.478	0.0167963
566.556	0.0167310
566.634	0.0166795
566.712	0.0167793
566.790	0.0167686
566.869	0.0167568
566.947	0.0167487
567.025	0.0168168
567.103	0.0167004
567.181	0.0166690
567.259	0.0165967
567.337	0.0166013
567.415	0.0167813
567.494	0.0167305
567.572	0.0165975
567.650	0.0167070
567.728	0.0166805
567.806	0.0165498
567.884	0.0166014
567.962	0.0166357
568.040	0.0167440
568.119	0.0168472
568.197	0.0167513
568.275	0.0167918
568.353	0.0167853
568.431	0.0168622
568.509	0.0167692
568.587	0.0167947
568.665	0.0168336
568.744	0.0168661
568.822	0.0168320
568.900	0.0168665
568.978	0.0168436
569.056	0.0168863
569.134	0.0169309
569.212	0.0170847
569.290	0.0171609
569.369	0.0171223
569.447	0.0171906
569.525	0.0172961
569.603	0.0172414
569.681	0.0172305
569.759	0.0172764
569.837	0.0173338
569.915	0.0173470
569.994	0.0173209
570.072	0.0174176
570.150	0.0173166
570.228	0.0172340
570.306	0.0173269
570.384	0.0172330
570.462	0.0172091
570.540	0.0169788
570.619	0.0171439
570.697	0.0171318
570.775	0.0173173
570.853	0.0173458
570.931	0.0171738
571.009	0.0172192
571.087	0.0171896
571.165	0.0172785
571.244	0.0171929
571.322	0.0172878
571.400	0.0171748
571.478	0.0173940
571.556	0.0172431
571.634	0.0170805
571.712	0.0170518
571.790	0.0171771
571.869	0.0171586
571.947	0.0171130
572.025	0.0171005
572.103	0.0170474
572.181	0.0169934
572.259	0.0169347
572.337	0.0168507
572.415	0.0168022
572.494	0.0168215
572.572	0.0168225
572.650	0.0167679
572.728	0.0167613
572.806	0.0166051
572.884	0.0166606
572.962	0.0167515
573.040	0.0166047
573.119	0.0165530
573.197	0.0165665
573.275	0.0165823
573.353	0.0165652
573.431	0.0163602
573.509	0.0164998
573.587	0.0166739
573.665	0.0165305
573.744	0.0165522
573.822	0.0165466
573.900	0.0165257
573.978	0.0166319
574.056	0.0165204
574.134	0.0164444
574.212	0.0165244
574.290	0.0167366
574.369	0.0165873
574.447	0.0167970
574.525	0.0165741
574.603	0.0166661
574.681	0.0166555
574.759	0.0167240
574.837	0.0167047
574.915	0.0167054
574.994	0.0167976
575.072	0.0167904
575.150	0.0168679
575.228	0.0166622
575.306	0.0168175
575.384	0.0166774
575.462	0.0166931
575.540	0.0166916
575.619	0.0167594
575.697	0.0168960
575.775	0.0167731
575.853	0.0167589
575.931	0.0167245
576.009	0.0167068
576.087	0.0168307
576.165	0.0167013
576.244	0.0167238
576.322	0.0167637
576.400	0.0169026
576.478	0.0166101
576.556	0.0167141
576.634	0.0165918
576.712	0.0166512
576.790	0.0166914
576.869	0.0166387
576.947	0.0165398
577.025	0.0164862
577.103	0.0164924
577.181	0.0164156
577.259	0.0165365
577.337	0.0164944
577.415	0.0164216
577.494	0.0164719
577.572	0.0164835
577.650	0.0165659
577.728	0.0165572
577.806	0.0164686
577.884	0.0164945
577.962	0.0164106
578.040	0.0167267
578.119	0.0165891
578.197	0.0166730
578.275	0.0166032
578.353	0.0166953
578.431	0.0167955
578.509	0.0167584
578.587	0.0167199
578.665	0.0167191
578.744	0.0167609
578.822	0.0167480
578.900	0.0166178
578.978	0.0168809
579.056	0.0167258
579.134	0.0168150
579.212	0.0167056
579.290	0.0167506
579.369	0.0169028
579.447	0.0168713
579.525	0.0168730
579.603	0.0167170
579.681	0.0168279
579.759	0.0170097
579.837	0.0169450
579.915	0.0168652
579.994	0.0170059
580.072	0.0167664
580.150	0.0169582
580.228	0.0169630
580.306	0.0170735
580.384	0.0168408
580.462	0.0168239
580.540	0.0169837
580.619	0.0170791
580.697	0.0169993
580.775	0.0168781
580.853	0.0169329
580.931	0.0170235
581.009	0.0169014
581.087	0.0168708
581.165	0.0169491
581.244	0.0167924
581.322	0.0167834
581.400	0.0168520
581.478	0.0169706
581.556	0.0168807
581.634	0.0168093
581.712	0.0167522
581.790	0.0166861
581.869	0.0167450
581.947	0.0167319
582.025	0.0168415
582.103	0.0168618
582.181	0.0168517
582.259	0.0167548
582.337	0.0168134
582.415	0.0168098
582.494	0.0167421
582.572	0.0167852
582.650	0.0167786
582.728	0.0168002
582.806	0.0167292
582.884	0.0167368
582.962	0.0167852
583.040	0.0168072
583.119	0.0168012
583.197	0.0168471
583.275	0.0167667
583.353	0.0168232
583.431	0.0166426
583.509	0.0168027
583.587	0.0168149
583.665	0.0167316
583.744	0.0167503
583.822	0.0166447
583.900	0.0167714
583.978	0.0166789
584.056	0.0166566
584.134	0.0167003
584.212	0.0167105
584.290	0.0166322
584.369	0.0165585
584.447	0.0166920
584.525	0.0167716
584.603	0.0166124
584.681	0.0166651
584.759	0.0166773
584.837	0.0167488
584.915	0.0168506
584.994	0.0168581
585.072	0.0167578
585.150	0.0168410
585.228	0.0167441
585.306	0.0168201
585.384	0.0168687
585.462	0.0168448
585.540	0.0168382
585.619	0.0168977
585.697	0.0168600
585.775	0.0169691
585.853	0.0170306
585.931	0.0168408
586.009	0.0168213
586.087	0.0168518
586.165	0.0168894
586.244	0.0169891
586.322	0.0169813
586.400	0.0169904
586.478	0.0168826
586.556	0.0169979
586.634	0.0171041
586.712	0.0170070
586.790	0.0171090
586.869	0.0171120
586.947	0.0168543
587.025	0.0169677
587.103	0.0169720
587.181	0.0169827
587.259	0.0169828
587.337	0.0170094
587.415	0.0168724
587.494	0.0168166
587.572	0.0169088
587.650	0.0169124
587.728	0.0169242
587.806	0.0168720
587.884	0.0168108
587.962	0.0167067
588.040	0.0169101
588.119	0.0168619
588.197	0.0167661
588.275	0.0167532
588.353	0.0169108
588.431	0.0168267
588.509	0.0167856
588.587	0.0168047
588.665	0.0168611
588.744	0.0167970
588.822	0.0168473
588.900	0.0168724
588.978	0.0168311
589.056	0.0167987
589.134	0.0169170
589.212	0.0170938
589.290	0.0169903
589.369	0.0170917
589.447	0.0168513
589.525	0.0168529
589.603	0.0169447
589.681	0.0169176
589.759	0.0170799
589.837	0.0169576
589.915	0.0168777
589.994	0.0168735
590.072	0.0169026
590.150	0.0167538
590.228	0.0166963
590.306	0.0167142
590.384	0.0167788
590.462	0.0167792
590.540	0.0167822
590.619	0.0167881
590.697	0.0168617
590.775	0.0168595
590.853	0.0169056
590.931	0.0169709
591.009	0.0170369
591.087	0.0170797
591.165	0.0171321
591.244	0.0171693
591.322	0.0173403
591.400	0.0172768
591.478	0.0174022
591.556	0.0172295
591.634	0.0171305
591.712	0.0173269
591.790	0.0172712
591.869	0.0172843
591.947	0.0170940
592.025	0.0170294
592.103	0.0167503
592.181	0.0165907
592.259	0.0165515
592.337	0.0165289
592.415	0.0164082
592.494	0.0162962
592.572	0.0160492
592.650	0.0161470
592.728	0.0160403
592.806	0.0160297
592.884	0.0159184
592.962	0.0162296
593.040	0.0161826
593.119	0.0163513
593.197	0.0165303
593.275	0.0166096
593.353	0.0169788
593.431	0.0169614
593.509	0.0173486
593.587	0.0175508
593.665	0.0175994
593.744	0.0177555
593.822	0.0180543
593.900	0.0179134
593.978	0.0179985
594.056	0.0180325
594.134	0.0180231
594.212	0.0178757
594.290	0.0179150
594.369	0.0177005
594.447	0.0174428
594.525	0.0174109
594.603	0.0170709
594.681	0.0169463
594.759	0.0166828
594.837	0.0164397
594.915	0.0162601
594.994	0.0160070
595.072	0.0158372
595.150	0.0155200
595.228	0.0153901
595.306	0.0155425
595.384	0.0153931
595.462	0.0154121
595.540	0.0152750
595.619	0.0155367
595.697	0.0155627
595.775	0.0157905
595.853	0.0160559
595.931	0.0162096
596.009	0.0164270
596.087	0.0166726
596.165	0.0168526
596.244	0.0169246
596.322	0.0173030
596.400	0.0173275
596.478	0.0173666
596.556	0.0173743
596.634	0.0175994
596.712	0.0177820
596.790	0.0179251
596.869	0.0179813
596.947	0.0178353
597.025	0.0179784
597.103	0.0178815
597.181	0.0180565
597.259	0.0180582
597.337	0.0179405
597.415	0.0178693
597.494	0.0178174
597.572	0.0176461
597.650	0.0173611
597.728	0.0173867
597.806	0.0172374
597.884	0.0171169
597.962	0.0170541
598.040	0.0168527
598.119	0.0166695
598.197	0.0163740
598.275	0.0161797
598.353	0.0161279
598.431	0.0160135
598.509	0.0158459
598.587	0.0157713
598.665	0.0156199
598.744	0.0154636
598.822	0.0154681
598.900	0.0155074
598.978	0.0155736
599.056	0.0155051
599.134	0.0155074
599.212	0.0154083
599.290	0.0158431
599.369	0.0160619
599.447	0.0161353
599.525	0.0162988
599.603	0.0165327
599.681	0.0167628
599.759	0.0170346
599.837	0.0171398
599.915	0.0173840
599.994	0.0174980
600.072	0.0176358
600.150	0.0179246
600.228	0.0180080
600.306	0.0179331
600.384	0.0180786
600.462	0.0180566
600.540	0.0178693
600.619	0.0180985
600.697	0.0179055
600.775	0.0179772
600.853	0.0177943
600.931	0.0176646
601.009	0.0176880
601.087	0.0176526
601.165	0.0175278
601.244	0.0174350
601.322	0.0174339
601.400	0.0173592
601.478	0.0172522
601.556	0.0170943
601.634	0.0170040
601.712	0.0169987
601.790	0.0168757
601.869	0.0168167
601.947	0.0166360
602.025	0.0164332
602.103	0.0164763
602.181	0.0162231
602.259	0.0160171
602.337	0.0158626
602.415	0.0157802
602.494	0.0156329
602.572	0.0155026
602.650	0.0153848
602.728	0.0153262
602.806	0.0153017
602.884	0.0152994
602.962	0.0151135
603.040	0.0151347
603.119	0.0151350
603.197	0.0151145
603.275	0.0153284
603.353	0.0152586
603.431	0.0155623
603.509	0.0157595
603.587	0.0159760
603.665	0.0162230
603.744	0.0165739
603.822	0.0168774
603.900	0.0170144
603.978	0.0173582
604.056	0.0176542
604.134	0.0178587
604.212	0.0181724
604.290	0.0184421
604.369	0.0186449
604.447	0.0186739
604.525	0.0186639
604.603	0.0188887
604.681	0.0189131
604.759	0.0188865
604.837	0.0186945
604.915	0.0188351
604.994	0.0185745
605.072	0.0184885
605.150	0.0184101
605.228	0.0183578
605.306	0.0183165
605.384	0.0180507
605.462	0.0179861
605.540	0.0176418
605.619	0.0175283
605.697	0.0173769
605.775	0.0171267
605.853	0.0169482
605.931	0.0166914
606.009	0.0165589
606.087	0.0164133
606.165	0.0162685
606.244	0.0160776
606.322	0.0159012
606.400	0.0160083
606.478	0.0159054
606.556	0.0157811
606.634	0.0157300
606.712	0.0159236
606.790	0.0159079
606.869	0.0159378
606.947	0.0158024
607.025	0.0159688
607.103	0.0160354
607.181	0.0159938
607.259	0.0159906
607.337	0.0159725
607.415	0.0158994
607.494	0.0159468
607.572	0.0159771
607.650	0.0158830
607.728	0.0157794
607.806	0.0158074
607.884	0.0158778
607.962	0.0158081
608.040	0.0158668
608.119	0.0157565
608.197	0.0158829
608.275	0.0161115
608.353	0.0160703
608.431	0.0162445
608.509	0.0166058
608.587	0.0164809
608.665	0.0167396
608.744	0.0167799
608.822	0.0169766
608.900	0.0170934
608.978	0.0172868
609.056	0.0172166
609.134	0.0175792
609.212	0.0176958
609.290	0.0179672
609.369	0.0179907
609.447	0.0180515
609.525	0.0183488
609.603	0.0185838
609.681	0.0186906
609.759	0.0187116
609.837	0.0190639
609.915	0.0190455
609.994	0.0191614
610.072	0.0192565
610.150	0.0194675
610.228	0.0194241
610.306	0.0195351
610.384	0.0194498
610.462	0.0193357
610.540	0.0193752
610.619	0.0191847
610.697	0.0189558
610.775	0.0187390
610.853	0.0183971
610.931	0.0180203
611.009	0.0175574
611.087	0.0171013
611.165	0.0167175
611.244	0.0163631
611.322	0.0159681
611.400	0.0155284
611.478	0.0151418
611.556	0.0147541
611.634	0.0144678
611.712	0.0142818
611.790	0.0138816
611.869	0.0138364
611.947	0.0137490
612.025	0.0135700
612.103	0.0135834
612.181	0.0135727
612.259	0.0135783
612.337	0.0136961
612.415	0.0139873
612.494	0.0140411
612.572	0.0142656
612.650	0.0146421
612.728	0.0149140
612.806	0.0152715
612.884	0.0156554
612.962	0.0158849
613.040	0.0162578
613.119	0.0166927
613.197	0.0170491
613.275	0.0174908
613.353	0.0177255
613.431	0.0181666
613.509	0.0184459
613.587	0.0186027
613.665	0.0188765
613.744	0.0191148
613.822	0.0192188
613.900	0.0192712
613.978	0.0195102
614.056	0.0197115
614.134	0.0197060
614.212	0.0198093
614.290	0.0198274
614.369	0.0197411
614.447	0.0197511
614.525	0.0198068
614.603	0.0197053
614.681	0.0196736
614.759	0.0195181
614.837	0.0192983
614.915	0.0191388
614.994	0.0188129
615.072	0.0187073
615.150	0.0184487
615.228	0.0180164
615.306	0.0176070
615.384	0.0172736
615.462	0.0168874
615.540	0.0164412
615.619	0.0159579
615.697	0.0156100
615.775	0.0153713
615.853	0.0148446
615.931	0.0144700
616.009	0.0141024
616.087	0.0138841
616.165	0.0136882
616.244	0.0135686
616.322	0.0132867
616.400	0.0131704
616.478	0.0133162
616.556	0.0134062
616.634	0.0136114
616.712	0.0137247
616.790	0.0139069
616.869	0.0140327
616.947	0.0143658
617.025	0.0146211
617.103	0.0150880
617.181	0.0156104
617.259	0.0161252
617.337	0.0164120
617.415	0.0168041
617.494	0.0172335
617.572	0.0177107
617.650	0.0179467
617.728	0.0182784
617.806	0.0185302
617.884	0.0185255
617.962	0.0186829
618.040	0.0188339
618.119	0.0188058
618.197	0.0187477
618.275	0.0186871
618.353	0.0187155
618.431	0.0186781
618.509	0.0187840
618.587	0.0187379
618.665	0.0186434
618.744	0.0187811
618.822	0.0186832
618.900	0.0187652
618.978	0.0186707
619.056	0.0186841
619.134	0.0186187
619.212	0.0185498
619.290	0.0184785
619.369	0.0180177
619.447	0.0178725
619.525	0.0176254
619.603	0.0172807
619.681	0.0170184
619.759	0.0166807
619.837	0.0164468
619.915	0.0163338
619.994	0.0160558
620.072	0.0158434
620.150	0.0157422
620.228	0.0156631
620.306	0.0155825
620.384	0.0155636
620.462	0.0154494
620.540	0.0154232
620.619	0.0155125
620.697	0.0152797
620.775	0.0153335
620.853	0.0154827
620.931	0.0154814
621.009	0.0154681
621.087	0.0153711
621.165	0.0153883
621.244	0.0155467
621.322	0.0157487
621.400	0.0157349
621.478	0.0158756
621.556	0.0159615
621.634	0.0162660
621.712	0.0163072
621.790	0.0164431
621.869	0.0166504
621.947	0.0166531
622.025	0.0167583
622.103	0.0169933
622.181	0.0168242
622.259	0.0167644
622.337	0.0168563
622.415	0.0169770
622.494	0.0168557
622.572	0.0170357
622.650	0.0170447
622.728	0.0168907
622.806	0.0169608
622.884	0.0170527
622.962	0.0172083
623.040	0.0172768
623.119	0.0172662
623.197	0.0174166
623.275	0.0174647
623.353	0.0172805
623.431	0.0174485
623.509	0.0175007
623.587	0.0175694
623.665	0.0175344
623.744	0.0174734
623.822	0.0176553
623.900	0.0176410
623.978	0.0175914
624.056	0.0174120
624.134	0.0175487
624.212	0.0176508
624.290	0.0175220
624.369	0.0174628
624.447	0.0175153
624.525	0.0172772
624.603	0.0171846
624.681	0.0171864
624.759	0.0170577
624.837	0.0167971
624.915	0.0166141
624.994	0.0162794
625.072	0.0161477
625.150	0.0160357
625.228	0.0156647
625.306	0.0156580
625.384	0.0153571
625.462	0.0153075
625.540	0.0150986
625.619	0.0150837
625.697	0.0150534
625.775	0.0152027
625.853	0.0152012
625.931	0.0151956
626.009	0.0154058
626.087	0.0153316
626.165	0.0155837
626.244	0.0155917
626.322	0.0159006
626.400	0.0160850
626.478	0.0161411
626.556	0.0165134
626.634	0.0168817
626.712	0.0171228
626.790	0.0172241
626.869	0.0176127
626.947	0.0180485
627.025	0.0181691
627.103	0.0185614
627.181	0.0188282
627.259	0.0190141
627.337	0.0191490
627.415	0.0192526
627.494	0.0193232
627.572	0.0192423
627.650	0.0193451
627.728	0.0190764
627.806	0.0189649
627.884	0.0190030
627.962	0.0188036
628.040	0.0186217
628.119	0.0184451
628.197	0.0183704
628.275	0.0182172
628.353	0.0180148
628.431	0.0180096
628.509	0.0178401
628.587	0.0174766
628.665	0.0172725
628.744	0.0170620
628.822	0.0167236
628.900	0.0163792
628.978	0.0162273
629.056	0.0157498
629.134	0.0154775
629.212	0.0152413
629.290	0.0149102
629.369	0.0146393
629.447	0.0144488
629.525	0.0142621
629.603	0.0139729
629.681	0.0139730
629.759	0.0142041
629.837	0.0140710
629.915	0.0141387
629.994	0.0144238
630.072	0.0144843
630.150	0.0146465
630.228	0.0149217
630.306	0.0153489
630.384	0.0155153
630.462	0.0158992
630.540	0.0160838
630.619	0.0166534
630.697	0.0169156
630.775	0.0173302
630.853	0.0177490
630.931	0.0179432
631.009	0.0182485
631.087	0.0186010
631.165	0.0188467
631.244	0.0189043
631.322	0.0191718
631.400	0.0193611
631.478	0.0191344
631.556	0.0192336
631.634	0.0192091
631.712	0.0190706
631.790	0.0189832
631.869	0.0186793
631.947	0.0187579
632.025	0.0186801
632.103	0.0183107
632.181	0.0182944
632.259	0.0180589
632.337	0.0180587
632.415	0.0179127
632.494	0.0176889
632.572	0.0176563
632.650	0.0175159
632.728	0.0172572
632.806	0.0171635
632.884	0.0171349
632.962	0.0169982
633.040	0.0167954
633.119	0.0166994
633.197	0.0166076
633.275	0.0166782
633.353	0.0165831
633.431	0.0166235
633.509	0.0166885
633.587	0.0166386
633.665	0.0167071
633.744	0.0167072
633.822	0.0168871
633.900	0.0168834
633.978	0.0170396
634.056	0.0168118
634.134	0.0165678
634.212	0.0166396
634.290	0.0166783
634.369	0.0164625
634.447	0.0163634
634.525	0.0161269
634.603	0.0159817
634.681	0.0159820
634.759	0.0158661
634.837	0.0156060
634.915	0.0154768
634.994	0.0154994
635.072	0.0154778
635.150	0.0153942
635.228	0.0151868
635.306	0.0152899
635.384	0.0152828
635.462	0.0153728
635.540	0.0154712
635.619	0.0157607
635.697	0.0156923
635.775	0.0159530
635.853	0.0160414
635.931	0.0161653
636.009	0.0164452
636.087	0.0164504
636.165	0.0166222
636.244	0.0166691
636.322	0.0167074
636.400	0.0168509
636.478	0.0169276
636.556	0.0169774
636.634	0.0171712
636.712	0.0173307
636.790	0.0174483
636.869	0.0176294
636.947	0.0174550
637.025	0.0176695
637.103	0.0180282
637.181	0.0182452
637.259	0.0182751
637.337	0.0185243
637.415	0.0187283
637.494	0.0188340
637.572	0.0189440
637.650	0.0188065
637.728	0.0188612
637.806	0.0189095
637.884	0.0187475
637.962	0.0185181
638.040	0.0183707
638.119	0.0182190
638.197	0.0180107
638.275	0.0176289
638.353	0.0172485
638.431	0.0170526
638.509	0.0167548
638.587	0.0164912
638.665	0.0163187
638.744	0.0160136
638.822	0.0157048
638.900	0.0156767
638.978	0.0157116
639.056	0.0153917
639.134	0.0153438
639.212	0.0154069
639.290	0.0152270
639.369	0.0152481
639.447	0.0153123
639.525	0.0153073
639.603	0.0152553
639.681	0.0153936
639.759	0.0153763
639.837	0.0155087
639.915	0.0155923
639.994	0.0157014
640.072	0.0159791
640.150	0.0161900
640.228	0.0163818
640.306	0.0166766
640.384	0.0169457
640.462	0.0169125
640.540	0.0171765
640.619	0.0172865
640.697	0.0174051
640.775	0.0176398
640.853	0.0176283
640.931	0.0176310
641.009	0.0177353
641.087	0.0176250
641.165	0.0175852
641.244	0.0176504
641.322	0.0176381
641.400	0.0175951
641.478	0.0175514
641.556	0.0173638
641.634	0.0175608
641.712	0.0172185
641.790	0.0171322
641.869	0.0171278
641.947	0.0170857
642.025	0.0168050
642.103	0.0167242
642.181	0.0166560
642.259	0.0164502
642.337	0.0161841
642.415	0.0161261
642.494	0.0160445
642.572	0.0159219
642.650	0.0156767
642.728	0.0156145
642.806	0.0156758
642.884	0.0155251
642.962	0.0154057
643.040	0.0154002
643.119	0.0154374
643.197	0.0153181
643.275	0.0153970
643.353	0.0155019
643.431	0.0155483
643.509	0.0155354
643.587	0.0156088
643.665	0.0157471
643.744	0.0158566
643.822	0.0159018
643.900	0.0161295
643.978	0.0165533
644.056	0.0165109
644.134	0.0167502
644.212	0.0169814
644.290	0.0173914
644.369	0.0176112
644.447	0.0176235
644.525	0.0178795
644.603	0.0180570
644.681	0.0180781
644.759	0.0182121
644.837	0.0181141
644.915	0.0183616
644.994	0.0183589
645.072	0.0183859
645.150	0.0183839
645.228	0.0184144
645.306	0.0183187
645.384	0.0183732
645.462	0.0183866
645.540	0.0182986
645.619	0.0181828
645.697	0.0181700
645.775	0.0180988
645.853	0.0180614
645.931	0.0179873
646.009	0.0177354
646.087	0.0176337
646.165	0.0175286
646.244	0.0171903
646.322	0.0169888
646.400	0.0167845
646.478	0.0165292
646.556	0.0161793
646.634	0.0160512
646.712	0.0160223
646.790	0.0157780
646.869	0.0155756
646.947	0.0155677
647.025	0.0156368
647.103	0.0155468
647.181	0.0154911
647.259	0.0153477
647.337	0.0153938
647.415	0.0152303
647.494	0.0153504
647.572	0.0152952
647.650	0.0152478
647.728	0.0153467
647.806	0.0152395
647.884	0.0152663
647.962	0.0153745
648.040	0.0154146
648.119	0.0155571
648.197	0.0156857
648.275	0.0157793
648.353	0.0160892
648.431	0.0164185
648.509	0.0164700
648.587	0.0167053
648.665	0.0169173
648.744	0.0169687
648.822	0.0172421
648.900	0.0172076
648.978	0.0174937
649.056	0.0175764
649.134	0.0175994
649.212	0.0176073
649.290	0.0174893
649.369	0.0176086
649.447	0.0174641
649.525	0.0176192
649.603	0.0176469
649.681	0.0176197
649.759	0.0173959
649.837	0.0175227
649.915	0.0176452
649.994	0.0176128
650.072	0.0176852
650.150	0.0176991
650.228	0.0176559
650.306	0.0176962
650.384	0.0177254
650.462	0.0175056
650.540	0.0174144
650.619	0.0173998
650.697	0.0173280
650.775	0.0170876
650.853	0.0170894
650.931	0.0168095
651.009	0.0168764
651.087	0.0167223
651.165	0.0168633
651.244	0.0167025
651.322	0.0166619
651.400	0.0167450
651.478	0.0167403
651.556	0.0168720
651.634	0.0169632
651.712	0.0169131
651.790	0.0170326
651.869	0.0170613
651.947	0.0170033
652.025	0.0171671
652.103	0.0170481
652.181	0.0170002
652.259	0.0169024
652.337	0.0170611
652.415	0.0168463
652.494	0.0169341
652.572	0.0170224
652.650	0.0168050
652.728	0.0166991
652.806	0.0167030
652.884	0.0167084
652.962	0.0166534
653.040	0.0168094
653.119	0.0167033
653.197	0.0167690
653.275	0.0167770
653.353	0.0168768
653.431	0.0167365
653.509	0.0168257
653.587	0.0169488
653.665	0.0170123
653.744	0.0168508
653.822	0.0170892
653.900	0.0171247
653.978	0.0171634
654.056	0.0171501
654.134	0.0172656
654.212	0.0172743
654.290	0.0172775
654.369	0.0172444
654.447	0.0172115
654.525	0.0172199
654.603	0.0171791
654.681	0.0171271
654.759	0.0170811
654.837	0.0169733
654.915	0.0169884
654.994	0.0167551
655.072	0.0167361
655.150	0.0168056
655.228	0.0169164
655.306	0.0166830
655.384	0.0166156
655.462	0.0167384
655.540	0.0166590
655.619	0.0164996
655.697	0.0165542
655.775	0.0164578
655.853	0.0163114
655.931	0.0163554
656.009	0.0161762
656.087	0.0160606
656.165	0.0161643
656.244	0.0161393
656.322	0.0159525
656.400	0.0159546
656.478	0.0159003
656.556	0.0159721
656.634	0.0160085
656.712	0.0159865
656.790	0.0160587
656.869	0.0162762
656.947	0.0162386
657.025	0.0165001
657.103	0.0165986
657.181	0.0165543
657.259	0.0166179
657.337	0.0168533
657.415	0.0169029
657.494	0.0170208
657.572	0.0170078
657.650	0.0171033
657.728	0.0172157
657.806	0.0173023
657.884	0.0175639
657.962	0.0173682
658.040	0.0174667
658.119	0.0175357
658.197	0.0176121
658.275	0.0175943
658.353	0.0177511
658.431	0.0176817
658.509	0.0176102
658.587	0.0176833
658.665	0.0177247
658.744	0.0177052
658.822	0.0175568
658.900	0.0173431
658.978	0.0172709
659.056	0.0172416
659.134	0.0172771
659.212	0.0171709
659.290	0.0172070
659.369	0.0170599
659.447	0.0170497
659.525	0.0171346
659.603	0.0171434
659.681	0.0170802
659.759	0.0169867
659.837	0.0168906
659.915	0.0168320
659.994	0.0167801
660.072	0.0167928
660.150	0.0166367
660.228	0.0164233
660.306	0.0164652
660.384	0.0165074
660.462	0.0164199
660.540	0.0164086
660.619	0.0162723
660.697	0.0163644
660.775	0.0162095
660.853	0.0161973
660.931	0.0161358
661.009	0.0161808
661.087	0.0160715
661.165	0.0160587
661.244	0.0160793
661.322	0.0161967
661.400	0.0159834
661.478	0.0161211
661.556	0.0160593
661.634	0.0159773
661.712	0.0161208
661.790	0.0160793
661.869	0.0160464
661.947	0.0161072
662.025	0.0161356
662.103	0.0161533
662.181	0.0162503
662.259	0.0161298
662.337	0.0162866
662.415	0.0163822
662.494	0.0165073
662.572	0.0165222
662.650	0.0165828
662.728	0.0167751
662.806	0.0168303
662.884	0.0169472
662.962	0.0171048
663.040	0.0172796
663.119	0.0173132
663.197	0.0174712
663.275	0.0174348
663.353	0.0174285
663.431	0.0176171
663.509	0.0174920
663.587	0.0175236
663.665	0.0175247
663.744	0.0177190
663.822	0.0176415
663.900	0.0175785
663.978	0.0173961
664.056	0.0173894
664.134	0.0172762
664.212	0.0171996
664.290	0.0171864
664.369	0.0169828
664.447	0.0169128
664.525	0.0168065
664.603	0.0168162
664.681	0.0169684
664.759	0.0168057
664.837	0.0168790
664.915	0.0170079
664.994	0.0170805
665.072	0.0171954
665.150	0.0172305
665.228	0.0173202
665.306	0.0174068
665.384	0.0174188
665.462	0.0174569
665.540	0.0175130
665.619	0.0174779
665.697	0.0174905
665.775	0.0173170
665.853	0.0173160
665.931	0.0172848
666.009	0.0171402
666.087	0.0172971
666.165	0.0172330
666.244	0.0171045
666.322	0.0171736
666.400	0.0172208
666.478	0.0170228
666.556	0.0170403
666.634	0.0170690
666.712	0.0169701
666.790	0.0168023
666.869	0.0170068
666.947	0.0167262
667.025	0.0166768
667.103	0.0166800
667.181	0.0164899
667.259	0.0165091
667.337	0.0163823
667.415	0.0163612
667.494	0.0161176
667.572	0.0161085
667.650	0.0161664
667.728	0.0160661
667.806	0.0160391
667.884	0.0159861
667.962	0.0158861
668.040	0.0159456
668.119	0.0158795
668.197	0.0160603
668.275	0.0161366
668.353	0.0160577
668.431	0.0160777
668.509	0.0161549
668.587	0.0161720
668.665	0.0161792
668.744	0.0162528
668.822	0.0163821
668.900	0.0164445
668.978	0.0164988
669.056	0.0166176
669.134	0.0167623
669.212	0.0168372
669.290	0.0168839
669.369	0.0170537
669.447	0.0170710
669.525	0.0170737
669.603	0.0172753
669.681	0.0172079
669.759	0.0172391
669.837	0.0172975
669.915	0.0174858
669.994	0.0173989
670.072	0.0173918
670.150	0.0175331
670.228	0.0176733
670.306	0.0175224
670.384	0.0174315
670.462	0.0175015
670.540	0.0175849
670.619	0.0174681
670.697	0.0174342
670.775	0.0174133
670.853	0.0174487
670.931	0.0173463
671.009	0.0172289
671.087	0.0171642
671.165	0.0171323
671.244	0.0170089
671.322	0.0170040
671.400	0.0169902
671.478	0.0169553
671.556	0.0167776
671.634	0.0166559
671.712	0.0167618
671.790	0.0168492
671.869	0.0167453
671.947	0.0167630
672.025	0.0167181
672.103	0.0168596
672.181	0.0169599
672.259	0.0170705
672.337	0.0168958
672.415	0.0169075
672.494	0.0170415
672.572	0.0171558
672.650	0.0171425
672.728	0.0171795
672.806	0.0171407
672.884	0.0173078
672.962	0.0173233
673.040	0.0172275
673.119	0.0171439
673.197	0.0172591
673.275	0.0173090
673.353	0.0172582
673.431	0.0171773
673.509	0.0172554
673.587	0.0172523
673.665	0.0173243
673.744	0.0171301
673.822	0.0172157
673.900	0.0171426
673.978	0.0170183
674.056	0.0168622
674.134	0.0167982
674.212	0.0167545
674.290	0.0166038
674.369	0.0164964
674.447	0.0164919
674.525	0.0163913
674.603	0.0162655
674.681	0.0162241
674.759	0.0161909
674.837	0.0161567
674.915	0.0160314
674.994	0.0161214
675.072	0.0159031
675.150	0.0159476
675.228	0.0160991
675.306	0.0162031
675.384	0.0159399
675.462	0.0160402
675.540	0.0160006
675.619	0.0162045
675.697	0.0161552
675.775	0.0162904
675.853	0.0162144
675.931	0.0163908
676.009	0.0163795
676.087	0.0166196
676.165	0.0165759
676.244	0.0168188
676.322	0.0168628
676.400	0.0169823
676.478	0.0169637
676.556	0.0169715
676.634	0.0170847
676.712	0.0171018
676.790	0.0172741
676.869	0.0173237
676.947	0.0172444
677.025	0.0171993
677.103	0.0173554
677.181	0.0174367
677.259	0.0174586
677.337	0.0172116
677.415	0.0173624
677.494	0.0173465
677.572	0.0173714
677.650	0.0173045
677.728	0.0172820
677.806	0.0171140
677.884	0.0171497
677.962	0.0171411
678.040	0.0170316
678.119	0.0168977
678.197	0.0169854
678.275	0.0169700
678.353	0.0166936
678.431	0.0167795
678.509	0.0168273
678.587	0.0167346
678.665	0.0166425
678.744	0.0164959
678.822	0.0165460
678.900	0.0164404
678.978	0.0165117
679.056	0.0165392
679.134	0.0163571
679.212	0.0162732
679.290	0.0163441
679.369	0.0163480
679.447	0.0164835
679.525	0.0164313
679.603	0.0165476
679.681	0.0166802
679.759	0.0166514
679.837	0.0168257
679.915	0.0167806
679.994	0.0167863
680.072	0.0169482
680.150	0.0170663
680.228	0.0170195
680.306	0.0170661
680.384	0.0170001
680.462	0.0171697
680.540	0.0170741
680.619	0.0172765
680.697	0.0172209
680.775	0.0171687
680.853	0.0171479
680.931	0.0171925
681.009	0.0174548
681.087	0.0172546
681.165	0.0172350
681.244	0.0172701
681.322	0.0172298
681.400	0.0173029
681.478	0.0173779
681.556	0.0172775
681.634	0.0172862
681.712	0.0173196
681.790	0.0171326
681.869	0.0172438
681.947	0.0171873
682.025	0.0170832
682.103	0.0170763
682.181	0.0169279
682.259	0.0168554
682.337	0.0169222
682.415	0.0167942
682.494	0.0166441
682.572	0.0166914
682.650	0.0167101
682.728	0.0165276
682.806	0.0163729
682.884	0.0163446
682.962	0.0164140
683.040	0.0164673
683.119	0.0165437
683.197	0.0165031
683.275	0.0164774
683.353	0.0165805
683.431	0.0166311
683.509	0.0167472
683.587	0.0166338
683.665	0.0167122
683.744	0.0166872
683.822	0.0168542
683.900	0.0169176
683.978	0.0168640
684.056	0.0169195
684.134	0.0169384
684.212	0.0170282
684.290	0.0170576
684.369	0.0171465
684.447	0.0172219
684.525	0.0172373
684.603	0.0172788
684.681	0.0170975
684.759	0.0172168
684.837	0.0172674
684.915	0.0172108
684.994	0.0170531
685.072	0.0170950
685.150	0.0171765
685.228	0.0170002
685.306	0.0169511
685.384	0.0169389
685.462	0.0169818
685.540	0.0169469
685.619	0.0167078
685.697	0.0167218
685.775	0.0167622
685.853	0.0167574
685.931	0.0166654
686.009	0.0167500
686.087	0.0167146
686.165	0.0166554
686.244	0.0166849
686.322	0.0165582
686.400	0.0167424
686.478	0.0167780
686.556	0.0166019
686.634	0.0166309
686.712	0.0166994
686.790	0.0166214
686.869	0.0166128
686.947	0.0166064
687.025	0.0167243
687.103	0.0168803
687.181	0.0166731
687.259	0.0167841
687.337	0.0167909
687.415	0.0166290
687.494	0.0167126
687.572	0.0166623
687.650	0.0167905
687.728	0.0168302
687.806	0.0167486
687.884	0.0167801
687.962	0.0166943
688.040	0.0169219
688.119	0.0167699
688.197	0.0167545
688.275	0.0167521
688.353	0.0167369
688.431	0.0169848
688.509	0.0169695
688.587	0.0170654
688.665	0.0171734
688.744	0.0169788
688.822	0.0171964
688.900	0.0171383
688.978	0.0170113
689.056	0.0172290
689.134	0.0171833
689.212	0.0171904
689.290	0.0171114
689.369	0.0170106
689.447	0.0170599
689.525	0.0169856
689.603	0.0170142
689.681	0.0170011
689.759	0.0169144
689.837	0.0169215
689.915	0.0170509
689.994	0.0169703
690.072	0.0171264
690.150	0.0170045
690.228	0.0170045
690.306	0.0171074
690.384	0.0171936
690.462	0.0170721
690.540	0.0172100
690.619	0.0171267
690.697	0.0170943
690.775	0.0171027
690.853	0.0170616
690.931	0.0169713
691.009	0.0169945
691.087	0.0169781
691.165	0.0169878
691.244	0.0169696
691.322	0.0167384
691.400	0.0168793
691.478	0.0168433
691.556	0.0167444
691.634	0.0166726
691.712	0.0167201
691.790	0.0166716
691.869	0.0164991
691.947	0.0164887
692.025	0.0165375
692.103	0.0165050
692.181	0.0165698
692.259	0.0165393
692.337	0.0166533
692.415	0.0165214
692.494	0.0164906
692.572	0.0167027
692.650	0.0166547
692.728	0.0166686
692.806	0.0167672
692.884	0.0166694
692.962	0.0167966
693.040	0.0168662
693.119	0.0168776
693.197	0.0168210
693.275	0.0169595
693.353	0.0171137
693.431	0.0170274
693.509	0.0170113
693.587	0.0171046
693.665	0.0170866
693.744	0.0173186
693.822	0.0172992
693.900	0.0171653
693.978	0.0172630
694.056	0.0172693
694.134	0.0173140
694.212	0.0173054
694.290	0.0174317
694.369	0.0174091
694.447	0.0172607
694.525	0.0173416
694.603	0.0174206
694.681	0.0173640
694.759	0.0173615
694.837	0.0173768
694.915	0.0173047
694.994	0.0171577
695.072	0.0170740
695.150	0.0171794
695.228	0.0172341
695.306	0.0170266
695.384	0.0170551
695.462	0.0170563
695.540	0.0171250
695.619	0.0168961
695.697	0.0169329
695.775	0.0169761
695.853	0.0170805
695.931	0.0169117
696.009	0.0170166
696.087	0.0170427
696.165	0.0171207
696.244	0.0170612
696.322	0.0171821
696.400	0.0171751
696.478	0.0170420
696.556	0.0170310
696.634	0.0170805
696.712	0.0171426
696.790	0.0169427
696.869	0.0169793
696.947	0.0169482
697.025	0.0169202
697.103	0.0170309
697.181	0.0167983
697.259	0.0167557
697.337	0.0166177
697.415	0.0165515
697.494	0.0166916
697.572	0.0165597
697.650	0.0166226
697.728	0.0166048
697.806	0.0166549
697.884	0.0166462
697.962	0.0165914
698.040	0.0166479
698.119	0.0165234
698.197	0.0164910
698.275	0.0165479
698.353	0.0165302
698.431	0.0164714
698.509	0.0165629
698.587	0.0163083
698.665	0.0164580
698.744	0.0165343
698.822	0.0164785
698.900	0.0164945
698.978	0.0164376
699.056	0.0163171
699.134	0.0165260
699.212	0.0164491
699.290	0.0164959
699.369	0.0163901
699.447	0.0164009
699.525	0.0164182
699.603	0.0165324
699.681	0.0166294
699.759	0.0165247
699.837	0.0166002
699.915	0.0165015
699.994	0.0165269
700.072	0.0167099
700.150	0.0166105
700.228	0.0166367
700.306	0.0167718
700.384	0.0168152
700.462	0.0168012
700.540	0.0168595
700.619	0.0167171
700.697	0.0167008
700.775	0.0167078
700.853	0.0169154
700.931	0.0168529
701.009	0.0168241
701.087	0.0168813
701.165	0.0168917
701.244	0.0169156
701.322	0.0169483
701.400	0.0170286
701.478	0.0168185
701.556	0.0167879
701.634	0.0167065
701.712	0.0168808
701.790	0.0168754
701.869	0.0167928
701.947	0.0167869
702.025	0.0167318
702.103	0.0168638
702.181	0.0168124
702.259	0.0169641
702.337	0.0169213
702.415	0.0169912
702.494	0.0169019
702.572	0.0170023
702.650	0.0170193
702.728	0.0172044
702.806	0.0169998
702.884	0.0170605
702.962	0.0170398
703.040	0.0171530
703.119	0.0170992
703.197	0.0170300
703.275	0.0170186
703.353	0.0171721
703.431	0.0171225
703.509	0.0172473
703.587	0.0171066
703.665	0.0170256
703.744	0.0170560
703.822	0.0170148
703.900	0.0170896
703.978	0.0170152
704.056	0.0169048
704.134	0.0169785
704.212	0.0169071
704.290	0.0168636
704.369	0.0169789
704.447	0.0168515
704.525	0.0168423
704.603	0.0170317
704.681	0.0169604
704.759	0.0169921
704.837	0.0169368
704.915	0.0168779
704.994	0.0169012
705.072	0.0170312
705.150	0.0170174
705.228	0.0168506
705.306	0.0168574
705.384	0.0169538
705.462	0.0169370
705.540	0.0168104
705.619	0.0169074
705.697	0.0167297
705.775	0.0169071
705.853	0.0169033
705.931	0.0168427
706.009	0.0168329
706.087	0.0169124
706.165	0.0170604
706.244	0.0169591
706.322	0.0168268
706.400	0.0169033
706.478	0.0168980
706.556	0.0168037
706.634	0.0169284
706.712	0.0169776
706.790	0.0169378
706.869	0.0169319
706.947	0.0168926
707.025	0.0169292
707.103	0.0170060
707.181	0.0169460
707.259	0.0168647
707.337	0.0169664
707.415	0.0169923
707.494	0.0169587
707.572	0.0167165
707.650	0.0169213
707.728	0.0169268
707.806	0.0167723
707.884	0.0168845
707.962	0.0168217
708.040	0.0167252
708.119	0.0167085
708.197	0.0166941
708.275	0.0166862
708.353	0.0165761
708.431	0.0165653
708.509	0.0165431
708.587	0.0164043
708.665	0.0164471
708.744	0.0164934
708.822	0.0167278
708.900	0.0165874
708.978	0.0164268
709.056	0.0163873
709.134	0.0166029
709.212	0.0167006
709.290	0.0167098
709.369	0.0167923
709.447	0.0168353
709.525	0.0169669
709.603	0.0169109
709.681	0.0170086
709.759	0.0171243
709.837	0.0171466
709.915	0.0171979
709.994	0.0172929
710.072	0.0172453
710.150	0.0172350
710.228	0.0172593
710.306	0.0172731
710.384	0.0174058
710.462	0.0172340
710.540	0.0173181
710.619	0.0174458
710.697	0.0173367
710.775	0.0173666
710.853	0.0174953
710.931	0.0173736
711.009	0.0172200
711.087	0.0170899
711.165	0.0172494
711.244	0.0172843
711.322	0.0171819
711.400	0.0171773
711.478	0.0171770
711.556	0.0171382
711.634	0.0170575
711.712	0.0170123
711.790	0.0169982
711.869	0.0169953
711.947	0.0169276
712.025	0.0168543
712.103	0.0168137
712.181	0.0168335
712.259	0.0167658
712.337	0.0168296
712.415	0.0166431
712.494	0.0167857
712.572	0.0166573
712.650	0.0166290
712.728	0.0167838
712.806	0.0166035
712.884	0.0166563
712.962	0.0166275
713.040	0.0166866
713.119	0.0167248
713.197	0.0165261
713.275	0.0165756
713.353	0.0165672
713.431	0.0168050
713.509	0.0166064
713.587	0.0167875
713.665	0.0166235
713.744	0.0167032
713.822	0.0167997
713.900	0.0168599
713.978	0.0168872
714.056	0.0169648
714.134	0.0171286
714.212	0.0170016
714.290	0.0168906
714.369	0.0171554
714.447	0.0172025
714.525	0.0169524
714.603	0.0169640
714.681	0.0170089
714.759	0.0171716
714.837	0.0172407
714.915	0.0169867
714.994	0.0169913
715.072	0.0170113
715.150	0.0169926
715.228	0.0171318
715.306	0.0171877
715.384	0.0170564
715.462	0.0169881
715.540	0.0169460
715.619	0.0170820
715.697	0.0170436
715.775	0.0170519
715.853	0.0170036
715.931	0.0169331
716.009	0.0168664
716.087	0.0168959
716.165	0.0168287
716.244	0.0169196
716.322	0.0168027
716.400	0.0168192
716.478	0.0167899
716.556	0.0167966
716.634	0.0167959
716.712	0.0166280
716.790	0.0166320
716.869	0.0166556
716.947	0.0165722
717.025	0.0166073
717.103	0.0166408
717.181	0.0165459
717.259	0.0165692
717.337	0.0165411
717.415	0.0165028
717.494	0.0164771
717.572	0.0166292
717.650	0.0167148
717.728	0.0165497
717.806	0.0165919
717.884	0.0165934
717.962	0.0166235
718.040	0.0166486
718.119	0.0165433
718.197	0.0166669
718.275	0.0167223
718.353	0.0169595
718.431	0.0167299
718.509	0.0167899
718.587	0.0168227
718.665	0.0168298
718.744	0.0169484
718.822	0.0168126
718.900	0.0168042
718.978	0.0169057
719.056	0.0167278
719.134	0.0168801
719.212	0.0168302
719.290	0.0166458
719.369	0.0167194
719.447	0.0167301
719.525	0.0168329
719.603	0.0168837
719.681	0.0167266
719.759	0.0167771
719.837	0.0166920
719.915	0.0167302
719.994	0.0167571
720.072	0.0167802
720.150	0.0166737
720.228	0.0165860
720.306	0.0166243
720.384	0.0166116
720.462	0.0165368
720.540	0.0166114
720.619	0.0167177
720.697	0.0166613
720.775	0.0166800
720.853	0.0167729
720.931	0.0168303
721.009	0.0167527
721.087	0.0166573
721.165	0.0166630
721.244	0.0168533
721.322	0.0166516
721.400	0.0166666
721.478	0.0167819
721.556	0.0165443
721.634	0.0166933
721.712	0.0167541
721.790	0.0166298
721.869	0.0166939
721.947	0.0167538
722.025	0.0167046
722.103	0.0166963
722.181	0.0166556
722.259	0.0166730
722.337	0.0168439
722.415	0.0166875
722.494	0.0167397
722.572	0.0167584
722.650	0.0167796
722.728	0.0168974
722.806	0.0167554
722.884	0.0165733
722.962	0.0168493
723.040	0.0167415
723.119	0.0167356
723.197	0.0167885
723.275	0.0167545
723.353	0.0167291
723.431	0.0166637
723.509	0.0168571
723.587	0.0168563
723.665	0.0168878
723.744	0.0169519
723.822	0.0168918
723.900	0.0170163
723.978	0.0168893
724.056	0.0167503
724.134	0.0168989
724.212	0.0168653
724.290	0.0168851
724.369	0.0169740
724.447	0.0170721
724.525	0.0171064
724.603	0.0170290
724.681	0.0171031
724.759	0.0170245
724.837	0.0170411
724.915	0.0168894
724.994	0.0169104
725.072	0.0169532
725.150	0.0170699
725.228	0.0169003
725.306	0.0167345
725.384	0.0167422
725.462	0.0168288
725.540	0.0168503
725.619	0.0166835
725.697	0.0167385
725.775	0.0167513
725.853	0.0167779
725.931	0.0168173
726.009	0.0167604
726.087	0.0167533
726.165	0.0167305
726.244	0.0167855
726.322	0.0167724
726.400	0.0168083
726.478	0.0168204
726.556	0.0169006
726.634	0.0168700
726.712	0.0169397
726.790	0.0168587
726.869	0.0169113
726.947	0.0170173
727.025	0.0169967
727.103	0.0170666
727.181	0.0170867
727.259	0.0171918
727.337	0.0171385
727.415	0.0170875
727.494	0.0173441
727.572	0.0173010
727.650	0.0171952
727.728	0.0172074
727.806	0.0172727
727.884	0.0172898
727.962	0.0170592
728.040	0.0171593
728.119	0.0173202
728.197	0.0171656
728.275	0.0171017
728.353	0.0169476
728.431	0.0170203
728.509	0.0169018
728.587	0.0168058
728.665	0.0170103
728.744	0.0168509
728.822	0.0168732
728.900	0.0168800
728.978	0.0167741
729.056	0.0166480
729.134	0.0167332
729.212	0.0166891
729.290	0.0167460
729.369	0.0167374
729.447	0.0166042
729.525	0.0165891
729.603	0.0166093
729.681	0.0165158
729.759	0.0165649
729.837	0.0165196
729.915	0.0166276
729.994	0.0166666
730.072	0.0165202
730.150	0.0166665
730.228	0.0166395
730.306	0.0167379
730.384	0.0167852
730.462	0.0168067
730.540	0.0168233
730.619	0.0166742
730.697	0.0166387
730.775	0.0167098
730.853	0.0168348
730.931	0.0167397
731.009	0.0169223
731.087	0.0168259
731.165	0.0169731
731.244	0.0168040
731.322	0.0168118
731.400	0.0169100
731.478	0.0168491
731.556	0.0168094
731.634	0.0167195
731.712	0.0167133
731.790	0.0168299
731.869	0.0168541
731.947	0.0167916
732.025	0.0167372
732.103	0.0167050
732.181	0.0167027
732.259	0.0167455
732.337	0.0167770
732.415	0.0166953
732.494	0.0167647
732.572	0.0168485
732.650	0.0167271
732.728	0.0169379
732.806	0.0167593
732.884	0.0168480
732.962	0.0169456
733.040	0.0168395
733.119	0.0169057
733.197	0.0169971
733.275	0.0170523
733.353	0.0168404
733.431	0.0169982
733.509	0.0169744
733.587	0.0171564
733.665	0.0169120
733.744	0.0169832
733.822	0.0171228
733.900	0.0169868
733.978	0.0169685
734.056	0.0171603
734.134	0.0170200
734.212	0.0170478
734.290	0.0172153
734.369	0.0170733
734.447	0.0171270
734.525	0.0170809
734.603	0.0170928
734.681	0.0171143
734.759	0.0170729
734.837	0.0169855
734.915	0.0168949
734.994	0.0168539
735.072	0.0167791
735.150	0.0169545
735.228	0.0169725
735.306	0.0168402
735.384	0.0168167
735.462	0.0168598
735.540	0.0167585
735.619	0.0167057
735.697	0.0164700
735.775	0.0166475
735.853	0.0166293
735.931	0.0166460
736.009	0.0166590
736.087	0.0165546
736.165	0.0165259
736.244	0.0166487
736.322	0.0167376
736.400	0.0165971
736.478	0.0166258
736.556	0.0165199
736.634	0.0166752
736.712	0.0166113
736.790	0.0165708
736.869	0.0165949
736.947	0.0165864
737.025	0.0166179
737.103	0.0166597
737.181	0.0166218
737.259	0.0166039
737.337	0.0167005
737.415	0.0165090
737.494	0.0165567
737.572	0.0165224
737.650	0.0166145
737.728	0.0167778
737.806	0.0166667
737.884	0.0166908
737.962	0.0166230
738.040	0.0165457
738.119	0.0167088
738.197	0.0165688
738.275	0.0166163
738.353	0.0167226
738.431	0.0167224
738.509	0.0166097
738.587	0.0168342
738.665	0.0165521
738.744	0.0166821
738.822	0.0167405
738.900	0.0167316
738.978	0.0167197
739.056	0.0167362
739.134	0.0165612
739.212	0.0167766
739.290	0.0166074
739.369	0.0165985
739.447	0.0167426
739.525	0.0168462
739.603	0.0168301
739.681	0.0166499
739.759	0.0168411
739.837	0.0166245
739.915	0.0168467
739.994	0.0169218
740.072	0.0168380
740.150	0.0168736
740.228	0.0167644
740.306	0.0167901
740.384	0.0168226
740.462	0.0169299
740.540	0.0169438
740.619	0.0169904
740.697	0.0168883
740.775	0.0170098
740.853	0.0169421
740.931	0.0170774
741.009	0.0170735
741.087	0.0170492
741.165	0.0171077
741.244	0.0170289
741.322	0.0171335
741.400	0.0171052
741.478	0.0169829
741.556	0.0172527
741.634	0.0172441
741.712	0.0170710
741.790	0.0170062
741.869	0.0171050
741.947	0.0171995
742.025	0.0171319
742.103	0.0171350
742.181	0.0171136
742.259	0.0170996
742.337	0.0170503
742.415	0.0171219
742.494	0.0170236
742.572	0.0170020
742.650	0.0170693
742.728	0.0170271
742.806	0.0169193
742.884	0.0169035
742.962	0.0168993
743.040	0.0166891
743.119	0.0168301
743.197	0.0168413
743.275	0.0167345
743.353	0.0166487
743.431	0.0167435
743.509	0.0167292
743.587	0.0166418
743.665	0.0166991
743.744	0.0166660
743.822	0.0167282
743.900	0.0166890
743.978	0.0167294
744.056	0.0168094
744.134	0.0167870
744.212	0.0168342
744.290	0.0167374
744.369	0.0167142
744.447	0.0166349
744.525	0.0167550
744.603	0.0168728
744.681	0.0169366
744.759	0.0167583
744.837	0.0168441
744.915	0.0168112
744.994	0.0166937
745.072	0.0167843
745.150	0.0168457
745.228	0.0168453
745.306	0.0167658
745.384	0.0168676
745.462	0.0168277
745.540	0.0168696
745.619	0.0168031
745.697	0.0168317
745.775	0.0168175
745.853	0.0168185
745.931	0.0167049
746.009	0.0168757
746.087	0.0168889
746.165	0.0169237
746.244	0.0169450
746.322	0.0168527
746.400	0.0169299
746.478	0.0169592
746.556	0.0168890
746.634	0.0169312
746.712	0.0169493
746.790	0.0169728
746.869	0.0169502
746.947	0.0170182
747.025	0.0167832
747.103	0.0170569
747.181	0.0171261
747.259	0.0170339
747.337	0.0169846
747.415	0.0168666
747.494	0.0168910
747.572	0.0169653
747.650	0.0170861
747.728	0.0170044
747.806	0.0170811
747.884	0.0169698
747.962	0.0169167
748.040	0.0169062
748.119	0.0169801
748.197	0.0168741
748.275	0.0167783
748.353	0.0168036
748.431	0.0167300
748.509	0.0167349
748.587	0.0169160
748.665	0.0168490
748.744	0.0167077
748.822	0.0167469
748.900	0.0166635
748.978	0.0168135
749.056	0.0166928
749.134	0.0165760
749.212	0.0165936
749.290	0.0166822
749.369	0.0168078
749.447	0.0167168
749.525	0.0167934
749.603	0.0167049
749.681	0.0166708
749.759	0.0166578
749.837	0.0167265
749.915	0.0166768
749.994	0.0167554
750.072	0.0167146
750.150	0.0165413
750.228	0.0166383
750.306	0.0165264
750.384	0.0166672
750.462	0.0166219
750.540	0.0165809
750.619	0.0166870
750.697	0.0167533
750.775	0.0166012
750.853	0.0165308
750.931	0.0166055
751.009	0.0167296
751.087	0.0167720
751.165	0.0168199
751.244	0.0168271
751.322	0.0167068
751.400	0.0166844
751.478	0.0168419
751.556	0.0168844
751.634	0.0167550
751.712	0.0166987
751.790	0.0167658
751.869	0.0167650
751.947	0.0168388
752.025	0.0168629
752.103	0.0166924
752.181	0.0168562
752.259	0.0168008
752.337	0.0168998
752.415	0.0168139
752.494	0.0167702
752.572	0.0168583
752.650	0.0167797
752.728	0.0168568
752.806	0.0167813
752.884	0.0168522
752.962	0.0168209
753.040	0.0167890
753.119	0.0169535
753.197	0.0168442
753.275	0.0167931
753.353	0.0168311
753.431	0.0168613
753.509	0.0167690
753.587	0.0167355
753.665	0.0167848
753.744	0.0168695
753.822	0.0168754
753.900	0.0167284
753.978	0.0168019
754.056	0.0167703
754.134	0.0168524
754.212	0.0167616
754.290	0.0167324
754.369	0.0168108
754.447	0.0168204
754.525	0.0167642
754.603	0.0168670
754.681	0.0167673
754.759	0.0168385
754.837	0.0169276
754.915	0.0169669
754.994	0.0169446
755.072	0.0170190
755.150	0.0171173
755.228	0.0170718
755.306	0.0169857
755.384	0.0171879
755.462	0.0172060
755.540	0.0170257
755.619	0.0170993
755.697	0.0170005
755.775	0.0169667
755.853	0.0171018
755.931	0.0171072
756.009	0.0172371
756.087	0.0169639
756.165	0.0169109
756.244	0.0169883
756.322	0.0169846
756.400	0.0170462
756.478	0.0170171
756.556	0.0169738
756.634	0.0169305
756.712	0.0168600
756.790	0.0167912
756.869	0.0168990
756.947	0.0170325
757.025	0.0170710
757.103	0.0169951
757.181	0.0168229
757.259	0.0170210
757.337	0.0169022
757.415	0.0169215
757.494	0.0168828
757.572	0.0169732
757.650	0.0169700
757.728	0.0168547
757.806	0.0168964
757.884	0.0169217
757.962	0.0168171
758.040	0.0168902
758.119	0.0168278
758.197	0.0168486
758.275	0.0169001
758.353	0.0167702
758.431	0.0168906
758.509	0.0169022
758.587	0.0167188
758.665	0.0167659
758.744	0.0168504
758.822	0.0168256
758.900	0.0168043
758.978	0.0168740
759.056	0.0169408
759.134	0.0167998
759.212	0.0168671
759.290	0.0168040
759.369	0.0168937
759.447	0.0168484
759.525	0.0168790
759.603	0.0170233
759.681	0.0168781
759.759	0.0169020
759.837	0.0168620
759.915	0.0169068
759.994	0.0167474
760.072	0.0168666
760.150	0.0167916
760.228	0.0167126
760.306	0.0168192
760.384	0.0168985
760.462	0.0169199
760.540	0.0169392
760.619	0.0168834
760.697	0.0168220
760.775	0.0168500
760.853	0.0168517
760.931	0.0168126
761.009	0.0169304
761.087	0.0169299
761.165	0.0169682
761.244	0.0169212
761.322	0.0169085
761.400	0.0167934
761.478	0.0169131
761.556	0.0167934
761.634	0.0169913
761.712	0.0168852
761.790	0.0167509
761.869	0.0168639
761.947	0.0168987
762.025	0.0168441
762.103	0.0168871
762.181	0.0167970
762.259	0.0168446
762.337	0.0167591
762.415	0.0168356
762.494	0.0169952
762.572	0.0168346
762.650	0.0168047
762.728	0.0168716
762.806	0.0167962
762.884	0.0169360
762.962	0.0167744
763.040	0.0168851
763.119	0.0167677
763.197	0.0166557
763.275	0.0167937
763.353	0.0168111
763.431	0.0168502
763.509	0.0166515
763.587	0.0167995
763.665	0.0169076
763.744	0.0169350
763.822	0.0168939
763.900	0.0168259
763.978	0.0167030
764.056	0.0167709
764.134	0.0168196
764.212	0.0166785
764.290	0.0167817
764.369	0.0167573
764.447	0.0167694
764.525	0.0168475
764.603	0.0168620
764.681	0.0167418
764.759	0.0167242
764.837	0.0166404
764.915	0.0168173
764.994	0.0168285
765.072	0.0168201
765.150	0.0167293
765.228	0.0168652
765.306	0.0168698
765.384	0.0168176
765.462	0.0170203
765.540	0.0167515
765.619	0.0169633
765.697	0.0169475
765.775	0.0169554
765.853	0.0170649
765.931	0.0170531
766.009	0.0170734
766.087	0.0169099
766.165	0.0168964
766.244	0.0169487
766.322	0.0168855
766.400	0.0170570
766.478	0.0168991
766.556	0.0168530
766.634	0.0169192
766.712	0.0169534
766.790	0.0167975
766.869	0.0169220
766.947	0.0169857
767.025	0.0168298
767.103	0.0168373
767.181	0.0168856
767.259	0.0168590
767.337	0.0168826
767.415	0.0168290
767.494	0.0167293
767.572	0.0169171
767.650	0.0169645
767.728	0.0169112
767.806	0.0168194
767.884	0.0169376
767.962	0.0169812
768.040	0.0168433
768.119	0.0169493
768.197	0.0168645
768.275	0.0170160
768.353	0.0169251
768.431	0.0167883
768.509	0.0169721
768.587	0.0169569
768.665	0.0170694
768.744	0.0169303
768.822	0.0168779
768.900	0.0170009
768.978	0.0169588
769.056	0.0169402
769.134	0.0170000
769.212	0.0170714
769.290	0.0171509
769.369	0.0170795
769.447	0.0171948
769.525	0.0170794
769.603	0.0171027
769.681	0.0170372
769.759	0.0170735
769.837	0.0170593
769.915	0.0172294
769.994	0.0172162
770.072	0.0170822
770.150	0.0169492
770.228	0.0171727
770.306	0.0170488
770.384	0.0171476
770.462	0.0171161
770.540	0.0169747
770.619	0.0170700
770.697	0.0169805
770.775	0.0171080
770.853	0.0168884
770.931	0.0169769
771.009	0.0169534
771.087	0.0170260
771.165	0.0168626
771.244	0.0169530
771.322	0.0169651
771.400	0.0168657
771.478	0.0169868
771.556	0.0169862
771.634	0.0168707
771.712	0.0168088
771.790	0.0169078
771.869	0.0167892
771.947	0.0169279
772.025	0.0169620
772.103	0.0169471
772.181	0.0168933
772.259	0.0170755
772.337	0.0170107
772.415	0.0169650
772.494	0.0170341
772.572	0.0169709
772.650	0.0170591
772.728	0.0169418
772.806	0.0170108
772.884	0.0169874
772.962	0.0170150
773.040	0.0170277
773.119	0.0170908
773.197	0.0169624
773.275	0.0171085
773.353	0.0169817
773.431	0.0169993
773.509	0.0171468
773.587	0.0169699
773.665	0.0170390
773.744	0.0168211
773.822	0.0169751
773.900	0.0168626
773.978	0.0169029
774.056	0.0168807
774.134	0.0167553
774.212	0.0167690
774.290	0.0167278
774.369	0.0166933
774.447	0.0167632
774.525	0.0167970
774.603	0.0166543
774.681	0.0167001
774.759	0.0167139
774.837	0.0166675
774.915	0.0166008
774.994	0.0166233
775.072	0.0165234
775.150	0.0166845
775.228	0.0165436
775.306	0.0166010
775.384	0.0166442
775.462	0.0165766
775.540	0.0167318
775.619	0.0167925
775.697	0.0166872
775.775	0.0166792
775.853	0.0164697
775.931	0.0165614
776.009	0.0168766
776.087	0.0167575
776.165	0.0167770
776.244	0.0167751
776.322	0.0166576
776.400	0.0167921
776.478	0.0167316
776.556	0.0168147
776.634	0.0167361
776.712	0.0167128
776.790	0.0169081
776.869	0.0168355
776.947	0.0167461
777.025	0.0168630
777.103	0.0168417
777.181	0.0167365
777.259	0.0168864
777.337	0.0169260
777.415	0.0167588
777.494	0.0168714
777.572	0.0167300
777.650	0.0167753
777.728	0.0167048
777.806	0.0169006
777.884	0.0167914
777.962	0.0166656
778.040	0.0168020
778.119	0.0167721
778.197	0.0168156
778.275	0.0166605
778.353	0.0166438
778.431	0.0168217
778.509	0.0166163
778.587	0.0167366
778.665	0.0167088
778.744	0.0166798
778.822	0.0167143
778.900	0.0167154
778.978	0.0165671
779.056	0.0165788
779.134	0.0166011
779.212	0.0166240
779.290	0.0165832
779.369	0.0165250
779.447	0.0165826
779.525	0.0166715
779.603	0.0166019
779.681	0.0165011
779.759	0.0167555
779.837	0.0167984
779.915	0.0167452
779.994	0.0170336
780.072	0.0168850
780.150	0.0167393
780.228	0.0169468
780.306	0.0169291
780.384	0.0169517
780.462	0.0170203
780.540	0.0170362
780.619	0.0169304
780.697	0.0169359
780.775	0.0170120
780.853	0.0169883
780.931	0.0170264
781.009	0.0171092
781.087	0.0170095
781.165	0.0170287
781.244	0.0170042
781.322	0.0171725
781.400	0.0170674
781.478	0.0172636
781.556	0.0171159
781.634	0.0168963
781.712	0.0169939
781.790	0.0170699
781.869	0.0170551
781.947	0.0172182
782.025	0.0169138
782.103	0.0170009
782.181	0.0170742
782.259	0.0170797
782.337	0.0169383
782.415	0.0170438
782.494	0.0170639
782.572	0.0170119
782.650	0.0169505
782.728	0.0169921
782.806	0.0171273
782.884	0.0169637
782.962	0.0170018
783.040	0.0169154
783.119	0.0169772
783.197	0.0169282
783.275	0.0168404
783.353	0.0168114
783.431	0.0169697
783.509	0.0168130
783.587	0.0168815
783.665	0.0168404
783.744	0.0167738
783.822	0.0168364
783.900	0.0167879
783.978	0.0167306
784.056	0.0168369
784.134	0.0166451
784.212	0.0167838
784.290	0.0168384
784.369	0.0168049
784.447	0.0168367
784.525	0.0168871
784.603	0.0169259
784.681	0.0168392
784.759	0.0168452
784.837	0.0168303
784.915	0.0169084
784.994	0.0169419
785.072	0.0169458
785.150	0.0168940
785.228	0.0169659
785.306	0.0169604
785.384	0.0167990
785.462	0.0171061
785.540	0.0170094
785.619	0.0169864
785.697	0.0170673
785.775	0.0170605
785.853	0.0170493
785.931	0.0170915
786.009	0.0169762
786.087	0.0169807
786.165	0.0169152
786.244	0.0169805
786.322	0.0169273
786.400	0.0168746
786.478	0.0169552
786.556	0.0169251
786.634	0.0168792
786.712	0.0169016
786.790	0.0169250
786.869	0.0169440
786.947	0.0169352
787.025	0.0168349
787.103	0.0170145
787.181	0.0170472
787.259	0.0170601
787.337	0.0170107
787.415	0.0171316
787.494	0.0171601
787.572	0.0171674
787.650	0.0173605
787.728	0.0173582
787.806	0.0172454
787.884	0.0171971
787.962	0.0173070
788.040	0.0171296
788.119	0.0172734
788.197	0.0173045
788.275	0.0172513
788.353	0.0172214
788.431	0.0172547
788.509	0.0171786
788.587	0.0171980
788.665	0.0170481
788.744	0.0170417
788.822	0.0170919
788.900	0.0169853
788.978	0.0168739
789.056	0.0169283
789.134	0.0169202
789.212	0.0170459
789.290	0.0168644
789.369	0.0166750
789.447	0.0167797
789.525	0.0167470
789.603	0.0166767
789.681	0.0166885
789.759	0.0167194
789.837	0.0166834
789.915	0.0167645
789.994	0.0167171
790.072	0.0166794
790.150	0.0167005
790.228	0.0167504
790.306	0.0167059
790.384	0.0167767
790.462	0.0168279
790.540	0.0167279
790.619	0.0167950
790.697	0.0167043
790.775	0.0167750
790.853	0.0168839
790.931	0.0168356
791.009	0.0167667
791.087	0.0169281
791.165	0.0168736
791.244	0.0167645
791.322	0.0168756
791.400	0.0169479
791.478	0.0168739
791.556	0.0169688
791.634	0.0168421
791.712	0.0168655
791.790	0.0169496
791.869	0.0169675
791.947	0.0169299
792.025	0.0169553
792.103	0.0169983
792.181	0.0170246
792.259	0.0168429
792.337	0.0169981
792.415	0.0167805
792.494	0.0168507
792.572	0.0168797
792.650	0.0169260
792.728	0.0168096
792.806	0.0166558
792.884	0.0166798
792.962	0.0167062
793.040	0.0167846
793.119	0.0169357
793.197	0.0168964
793.275	0.0168504
793.353	0.0167681
793.431	0.0167816
793.509	0.0168964
793.587	0.0168446
793.665	0.0168996
793.744	0.0168356
793.822	0.0168528
793.900	0.0167181
793.978	0.0167765
794.056	0.0168923
794.134	0.0170084
794.212	0.0168600
794.290	0.0169572
794.369	0.0168700
794.447	0.0168813
794.525	0.0169701
794.603	0.0168532
794.681	0.0169779
794.759	0.0171166
794.837	0.0170496
794.915	0.0170547
794.994	0.0170418
795.072	0.0169245
795.150	0.0171059
795.228	0.0171407
795.306	0.0170852
795.384	0.0170654
795.462	0.0170829
795.540	0.0170979
795.619	0.0171470
795.697	0.0171606
795.775	0.0171280
795.853	0.0171675
795.931	0.0172639
796.009	0.0171757
796.087	0.0171254
796.165	0.0173078
796.244	0.0171361
796.322	0.0169837
796.400	0.0172425
796.478	0.0171582
796.556	0.0171755
796.634	0.0171603
796.712	0.0170211
796.790	0.0169472
796.869	0.0169440
796.947	0.0169075
797.025	0.0169817
797.103	0.0168981
797.181	0.0168827
797.259	0.0167176
797.337	0.0168749
797.415	0.0168985
797.494	0.0167938
797.572	0.0166718
797.650	0.0167593
797.728	0.0166814
797.806	0.0166718
797.884	0.0167040
797.962	0.0166739
798.040	0.0166512
798.119	0.0166667
798.197	0.0166812
798.275	0.0167076
798.353	0.0167145
798.431	0.0167198
798.509	0.0166669
798.587	0.0165494
798.665	0.0166589
798.744	0.0166549
798.822	0.0167348
798.900	0.0168008
798.978	0.0168967
799.056	0.0168353
799.134	0.0167480
799.212	0.0167642
799.290	0.0167837
799.369	0.0167904
799.447	0.0167122
799.525	0.0167365
799.603	0.0168299
799.681	0.0166856
799.759	0.0167648
799.837	0.0168300
799.915	0.0168768
799.994	0.0168443
800.072	0.0167274
800.150	0.0167764
800.228	0.0167383
800.306	0.0169666
800.384	0.0169428
800.462	0.0169198
800.540	0.0168893
800.619	0.0168522
800.697	0.0169352
800.775	0.0169222
800.853	0.0166959
800.931	0.0168213
801.009	0.0169757
801.087	0.0168556
801.165	0.0168977
801.244	0.0169170
801.322	0.0170282
801.400	0.0169068
801.478	0.0168936
801.556	0.0169466
801.634	0.0170718
801.712	0.0169652
801.790	0.0168323
801.869	0.0167553
801.947	0.0169223
802.025	0.0169697
802.103	0.0167637
802.181	0.0167987
802.259	0.0167039
802.337	0.0168490
802.415	0.0166035
802.494	0.0165254
802.572	0.0166882
802.650	0.0166104
802.728	0.0166909
802.806	0.0166573
802.884	0.0165175
802.962	0.0165218
803.040	0.0163639
803.119	0.0164803
803.197	0.0163991
803.275	0.0164970
803.353	0.0165086
803.431	0.0164445
803.509	0.0164687
803.587	0.0165092
803.665	0.0165562
803.744	0.0164902
803.822	0.0165153
803.900	0.0166374
803.978	0.0165762
804.056	0.0165885
804.134	0.0167362
804.212	0.0167873
804.290	0.0167599
804.369	0.0169369
804.447	0.0168412
804.525	0.0168206
804.603	0.0169224
804.681	0.0169658
804.759	0.0168871
804.837	0.0170516
804.915	0.0169634
804.994	0.0169195
805.072	0.0171510
805.150	0.0171574
805.228	0.0170222
805.306	0.0169585
805.384	0.0169395
805.462	0.0172025
805.540	0.0170607
805.619	0.0172405
805.697	0.0170161
805.775	0.0170311
805.853	0.0169868
805.931	0.0169426
806.009	0.0169974
806.087	0.0170436
806.165	0.0169817
806.244	0.0168964
806.322	0.0168014
806.400	0.0168915
806.478	0.0168228
806.556	0.0169815
806.634	0.0168301
806.712	0.0167594
806.790	0.0167919
806.869	0.0167686
806.947	0.0166674
807.025	0.0165504
807.103	0.0165952
807.181	0.0165417
807.259	0.0167854
807.337	0.0166261
807.415	0.0164786
807.494	0.0165244
807.572	0.0165176
807.650	0.0165929
807.728	0.0165009
807.806	0.0164345
807.884	0.0166332
807.962	0.0166255
808.040	0.0165322
808.119	0.0165730
808.197	0.0167040
808.275	0.0166441
808.353	0.0166452
808.431	0.0167843
808.509	0.0166299
808.587	0.0167502
808.665	0.0167366
808.744	0.0168797
808.822	0.0169744
808.900	0.0170316
808.978	0.0171841
809.056	0.0171134
809.134	0.0171516
809.212	0.0172014
809.290	0.0171561
809.369	0.0171416
809.447	0.0171656
809.525	0.0170602
809.603	0.0171702
809.681	0.0171817
809.759	0.0172121
809.837	0.0171159
809.915	0.0170221
809.994	0.0171713
810.072	0.0169895
810.150	0.0169966
810.228	0.0169252
810.306	0.0171120
810.384	0.0169461
810.462	0.0169829
810.540	0.0169607
810.619	0.0167912
810.697	0.0169060
810.775	0.0169397
810.853	0.0169702
810.931	0.0169122
811.009	0.0170116
811.087	0.0168564
811.165	0.0169418
811.244	0.0167732
811.322	0.0168763
811.400	0.0169040
811.478	0.0167339
811.556	0.0168362
811.634	0.0168193
811.712	0.0168021
811.790	0.0167339
811.869	0.0167948
811.947	0.0168045
812.025	0.0167743
812.103	0.0168670
812.181	0.0170699
812.259	0.0168837
812.337	0.0169211
812.415	0.0171153
812.494	0.0170074
812.572	0.0169166
812.650	0.0169973
812.728	0.0169193
812.806	0.0169998
812.884	0.0169545
812.962	0.0169888
813.040	0.0170732
813.119	0.0170715
813.197	0.0170379
813.275	0.0168765
813.353	0.0169070
813.431	0.0169469
813.509	0.0171531
813.587	0.0169341
813.665	0.0169047
813.744	0.0169291
813.822	0.0170363
813.900	0.0170242
813.978	0.0168749
814.056	0.0168690
814.134	0.0168987
814.212	0.0168824
814.290	0.0168764
814.369	0.0167620
814.447	0.0168456
814.525	0.0168935
814.603	0.0169344
814.681	0.0168743
814.759	0.0168177
814.837	0.0168146
814.915	0.0168060
814.994	0.0168048
815.072	0.0166944
815.150	0.0167975
815.228	0.0167864
815.306	0.0166921
815.384	0.0166551
815.462	0.0167455
815.540	0.0167645
815.619	0.0167271
815.697	0.0166608
815.775	0.0166671
815.853	0.0168111
815.931	0.0167495
816.009	0.0167612
816.087	0.0167770
816.165	0.0166646
816.244	0.0167339
816.322	0.0167090
816.400	0.0166433
816.478	0.0167049
816.556	0.0168046
816.634	0.0166619
816.712	0.0165955
816.790	0.0166388
816.869	0.0168082
816.947	0.0166277
817.025	0.0166600
817.103	0.0167304
817.181	0.0168365
817.259	0.0168025
817.337	0.0167999
817.415	0.0168904
817.494	0.0168208
817.572	0.0169078
817.650	0.0169350
817.728	0.0169711
817.806	0.0170165
817.884	0.0170609
817.962	0.0169982
818.040	0.0170123
818.119	0.0171654
818.197	0.0169407
818.275	0.0170931
818.353	0.0171211
818.431	0.0171330
818.509	0.0171828
818.587	0.0171790
818.665	0.0172004
818.744	0.0172421
818.822	0.0171983
818.900	0.0171729
818.978	0.0172718
819.056	0.0172392
819.134	0.0172249
819.212	0.0172909
819.290	0.0169964
819.369	0.0170348
819.447	0.0170893
819.525	0.0169735
819.603	0.0170985
819.681	0.0169760
819.759	0.0168681
819.837	0.0168371
819.915	0.0170029
819.994	0.0168152
820.072	0.0168097
820.150	0.0167775
820.228	0.0168650
820.306	0.0168895
820.384	0.0168910
820.462	0.0168269
820.540	0.0165969
820.619	0.0168202
820.697	0.0166035
820.775	0.0165569
820.853	0.0167080
820.931	0.0167378
821.009	0.0166692
821.087	0.0166226
821.165	0.0165158
821.244	0.0166632
821.322	0.0166598
821.400	0.0165856
821.478	0.0165212
821.556	0.0165238
821.634	0.0166731
821.712	0.0166164
821.790	0.0166046
821.869	0.0166130
821.947	0.0168688
822.025	0.0168272
822.103	0.0166448
822.181	0.0166892
822.259	0.0168763
822.337	0.0168245
822.415	0.0168624
822.494	0.0169225
822.572	0.0167986
822.650	0.0168853
822.728	0.0169103
822.806	0.0169963
822.884	0.0166866
822.962	0.0167487
823.040	0.0168523
823.119	0.0168237
823.197	0.0168085
823.275	0.0166962
823.353	0.0166891
823.431	0.0167707
823.509	0.0164742
823.587	0.0165392
823.665	0.0165349
823.744	0.0164912
823.822	0.0162868
823.900	0.0165370
823.978	0.0163183
824.056	0.0163186
824.134	0.0164354
824.212	0.0164272
824.290	0.0164265
824.369	0.0165249
824.447	0.0164893
824.525	0.0165530
824.603	0.0164248
824.681	0.0165011
824.759	0.0164099
824.837	0.0165115
824.915	0.0166032
824.994	0.0164045
825.072	0.0165298
825.150	0.0166972
825.228	0.0167822
825.306	0.0167769
825.384	0.0167075
825.462	0.0168262
825.540	0.0168837
825.619	0.0167503
825.697	0.0167720
825.775	0.0168186
825.853	0.0167936
825.931	0.0168214
826.009	0.0169066
826.087	0.0168535
826.165	0.0167431
826.244	0.0168436
826.322	0.0166613
826.400	0.0167968
826.478	0.0167630
826.556	0.0167707
826.634	0.0168243
826.712	0.0166943
826.790	0.0167448
826.869	0.0168110
826.947	0.0166708
827.025	0.0168600
827.103	0.0168981
827.181	0.0168377
827.259	0.0168518
827.337	0.0168221
827.415	0.0168528
827.494	0.0168145
827.572	0.0169884
827.650	0.0170319
827.728	0.0168945
827.806	0.0169075
827.884	0.0169729
827.962	0.0168227
828.040	0.0169166
828.119	0.0169231
828.197	0.0168395
828.275	0.0167785
828.353	0.0168319
828.431	0.0168736
828.509	0.0170583
828.587	0.0168671
828.665	0.0168786
828.744	0.0168224
828.822	0.0169152
828.900	0.0169389
828.978	0.0168062
829.056	0.0169005
829.134	0.0168240
829.212	0.0170029
829.290	0.0170020
829.369	0.0168629
829.447	0.0169717
829.525	0.0169311
829.603	0.0169812
829.681	0.0168872
829.759	0.0168973
829.837	0.0167185
829.915	0.0168090
829.994	0.0167167
830.072	0.0168798
830.150	0.0168044
830.228	0.0167186
830.306	0.0166784
830.384	0.0167677
830.462	0.0167924
830.540	0.0168067
830.619	0.0168293
830.697	0.0168490
830.775	0.0167877
830.853	0.0167333
830.931	0.0167308
831.009	0.0168128
831.087	0.0168212
831.165	0.0167075
831.244	0.0167655
831.322	0.0169012
831.400	0.0168076
831.478	0.0167957
831.556	0.0167602
831.634	0.0168393
831.712	0.0170172
831.790	0.0168446
831.869	0.0168717
831.947	0.0167926
832.025	0.0169122
832.103	0.0167574
832.181	0.0168227
832.259	0.0168478
832.337	0.0169640
832.415	0.0168968
832.494	0.0167831
832.572	0.0168390
832.650	0.0168281
832.728	0.0168398
832.806	0.0167324
832.884	0.0166795
832.962	0.0167735
833.040	0.0166791
833.119	0.0166224
833.197	0.0165598
833.275	0.0166293
833.353	0.0165993
833.431	0.0165614
833.509	0.0165347
833.587	0.0165076
833.665	0.0166445
833.744	0.0165497
833.822	0.0164905
833.900	0.0165583
833.978	0.0164904
834.056	0.0165520
834.134	0.0164329
834.212	0.0163585
834.290	0.0163629
834.369	0.0164265
834.447	0.0163976
834.525	0.0165576
834.603	0.0165566
834.681	0.0162737
834.759	0.0163924
834.837	0.0165475
834.915	0.0165036
834.994	0.0165186
835.072	0.0164944
835.150	0.0165475
835.228	0.0164133
835.306	0.0166255
835.384	0.0165087
835.462	0.0165364
835.540	0.0166140
835.619	0.0166303
835.697	0.0167350
835.775	0.0166589
835.853	0.0166859
835.931	0.0167329
836.009	0.0168531
836.087	0.0168141
836.165	0.0167947
836.244	0.0168264
836.322	0.0169193
836.400	0.0168996
836.478	0.0168694
836.556	0.0167558
836.634	0.0167969
836.712	0.0168516
836.790	0.0166569
836.869	0.0167095
836.947	0.0167751
837.025	0.0167215
837.103	0.0167503
837.181	0.0166689
837.259	0.0166117
837.337	0.0166680
837.415	0.0168402
837.494	0.0167739
837.572	0.0167707
837.650	0.0167982
837.728	0.0168502
837.806	0.0168768
837.884	0.0168083
837.962	0.0169640
838.040	0.0168772
838.119	0.0168088
838.197	0.0167522
838.275	0.0167654
838.353	0.0169314
838.431	0.0168570
838.509	0.0167870
838.587	0.0169118
838.665	0.0168450
838.744	0.0169125
838.822	0.0169496
838.900	0.0168976
838.978	0.0168687
839.056	0.0169575
839.134	0.0169714
839.212	0.0169365
839.290	0.0168118
839.369	0.0168591
839.447	0.0168056
839.525	0.0166842
839.603	0.0167721
839.681	0.0166593
839.759	0.0168472
839.837	0.0168201
839.915	0.0166418
839.994	0.0166336
840.072	0.0165514
840.150	0.0166037
840.228	0.0165775
840.306	0.0167354
840.384	0.0167405
840.462	0.0166097
840.540	0.0166022
840.619	0.0166409
840.697	0.0166510
840.775	0.0166571
840.853	0.0166726
840.931	0.0168407
841.009	0.0169328
841.087	0.0169540
841.165	0.0168674
841.244	0.0169003
841.322	0.0168407
841.400	0.0168562
841.478	0.0168116
841.556	0.0170979
841.634	0.0169846
841.712	0.0169125
841.790	0.0169865
841.869	0.0170911
841.947	0.0169873
842.025	0.0169195
842.103	0.0170418
842.181	0.0171564
842.259	0.0169506
842.337	0.0170332
842.415	0.0170579
842.494	0.0169827
842.572	0.0169542
842.650	0.0170150
842.728	0.0169523
842.806	0.0169458
842.884	0.0169821
842.962	0.0170409
843.040	0.0169697
843.119	0.0169916
843.197	0.0170214
843.275	0.0170961
843.353	0.0170172
843.431	0.0170515
843.509	0.0172050
843.587	0.0171874
843.665	0.0170881
843.744	0.0170872
843.822	0.0172234
843.900	0.0171571
843.978	0.0172325
844.056	0.0170455
844.134	0.0170162
844.212	0.0171989
844.290	0.0170190
844.369	0.0170512
844.447	0.0170661
844.525	0.0169849
844.603	0.0170990
844.681	0.0169643
844.759	0.0169724
844.837	0.0169204
844.915	0.0168947
844.994	0.0169922
845.072	0.0168565
845.150	0.0169373
845.228	0.0169464
845.306	0.0169734
845.384	0.0170511
845.462	0.0169527
845.540	0.0169006
845.619	0.0169453
845.697	0.0170462
845.775	0.0169466
845.853	0.0169292
845.931	0.0170966
846.009	0.0168668
846.087	0.0169798
846.165	0.0168737
846.244	0.0170091
846.322	0.0170283
846.400	0.0169276
846.478	0.0169432
846.556	0.0168412
846.634	0.0168111
846.712	0.0168761
846.790	0.0167085
846.869	0.0167406
846.947	0.0167147
847.025	0.0166722
847.103	0.0168262
847.181	0.0167733
847.259	0.0166318
847.337	0.0165664
847.415	0.0166257
847.494	0.0165604
847.572	0.0164859
847.650	0.0164857
847.728	0.0165975
847.806	0.0166396
847.884	0.0166846
847.962	0.0165922
848.040	0.0165302
848.119	0.0168021
848.197	0.0165954
848.275	0.0166105
848.353	0.0165660
848.431	0.0166434
848.509	0.0166351
848.587	0.0167397
848.665	0.0166820
848.744	0.0167580
848.822	0.0167022
848.900	0.0167250
848.978	0.0168040
849.056	0.0168260
849.134	0.0169482
849.212	0.0168597
849.290	0.0168829
849.369	0.0168906
849.447	0.0169018
849.525	0.0169181
849.603	0.0170212
849.681	0.0168820
849.759	0.0169696
849.837	0.0168391
849.915	0.0169639
849.994	0.0169212
850.072	0.0168941
850.150	0.0168729
850.228	0.0168671
850.306	0.0168810
850.384	0.0171043
850.462	0.0170065
850.540	0.0171008
850.619	0.0169266
850.697	0.0169672
850.775	0.0170152
850.853	0.0170868
850.931	0.0169469
851.009	0.0169161
851.087	0.0169633
851.165	0.0170208
851.244	0.0169064
851.322	0.0170900
851.400	0.0169817
851.478	0.0169765
851.556	0.0169752
851.634	0.0169484
851.712	0.0171341
851.790	0.0169561
851.869	0.0168634
851.947	0.0168066
852.025	0.0169913
852.103	0.0170036
852.181	0.0168280
852.259	0.0168376
852.337	0.0167101
852.415	0.0168533
852.494	0.0169360
852.572	0.0167805
852.650	0.0167994
852.728	0.0167591
852.806	0.0168631
852.884	0.0168797
852.962	0.0168890
853.040	0.0167782
853.119	0.0167587
853.197	0.0166808
853.275	0.0166553
853.353	0.0166967
853.431	0.0167318
853.509	0.0166977
853.587	0.0166310
853.665	0.0165672
853.744	0.0166483
853.822	0.0166951
853.900	0.0167606
853.978	0.0166372
854.056	0.0165725
854.134	0.0167567
854.212	0.0167009
854.290	0.0165810
854.369	0.0167214
854.447	0.0167245
854.525	0.0166413
854.603	0.0165320
854.681	0.0166447
854.759	0.0167112
854.837	0.0166473
854.915	0.0165665
854.994	0.0165952
855.072	0.0167950
855.150	0.0167260
855.228	0.0166439
855.306	0.0167108
855.384	0.0166498
855.462	0.0165897
855.540	0.0166915
855.619	0.0167451
855.697	0.0166474
855.775	0.0166737
855.853	0.0166438
855.931	0.0167248
856.009	0.0166750
856.087	0.0167228
856.165	0.0168008
856.244	0.0167708
856.322	0.0165746
856.400	0.0167652
856.478	0.0168199
856.556	0.0167837
856.634	0.0170071
856.712	0.0169962
856.790	0.0170387
856.869	0.0171405
856.947	0.0170790
857.025	0.0171461
857.103	0.0169073
857.181	0.0171104
857.259	0.0170142
857.337	0.0170019
857.415	0.0169994
857.494	0.0170338
857.572	0.0169032
857.650	0.0170746
857.728	0.0169463
857.806	0.0167889
857.884	0.0168618
857.962	0.0169029
858.040	0.0169447
858.119	0.0169237
858.197	0.0168312
858.275	0.0168349
858.353	0.0169978
858.431	0.0167783
858.509	0.0167189
858.587	0.0169000
858.665	0.0169689
858.744	0.0168253
858.822	0.0167642
858.900	0.0169336
858.978	0.0169292
859.056	0.0167168
859.134	0.0168155
859.212	0.0167361
859.290	0.0168331
859.369	0.0168397
859.447	0.0169919
859.525	0.0168396
859.603	0.0167458
859.681	0.0167279
859.759	0.0167506
859.837	0.0167863
859.915	0.0168192
