06/01/2022	17:46:07	Ver.	4.1	UNKNOWN
Optical Delay	539.986900	Delta X		0.078125	Sweeps	1	Scan Rate	0/0
Coordinates	Axis 1	NaN	Axis 2	NaN	Axis 3	NaN	Axis 4	NaN	Axis 5	NaN	Axis 6	0.000000
TX Power	0.000000	RX Power	0.000000

539.987	0.0167754
540.065	0.0167149
540.143	0.0166402
540.221	0.0166901
540.299	0.0166241
540.378	0.0166889
540.456	0.0164591
540.534	0.0165894
540.612	0.0167436
540.690	0.0166883
540.768	0.0167378
540.846	0.0166678
540.924	0.0166114
541.003	0.0167074
541.081	0.0166427
541.159	0.0166325
541.237	0.0167950
541.315	0.0167057
541.393	0.0166811
541.471	0.0166635
541.549	0.0167546
541.628	0.0166000
541.706	0.0167480
541.784	0.0167046
541.862	0.0168081
541.940	0.0166830
542.018	0.0166734
542.096	0.0165590
542.174	0.0167336
542.253	0.0166153
542.331	0.0166323
542.409	0.0166502
542.487	0.0166410
542.565	0.0168349
542.643	0.0166320
542.721	0.0166509
542.799	0.0167187
542.878	0.0167461
542.956	0.0168145
543.034	0.0166975
543.112	0.0166130
543.190	0.0167151
543.268	0.0167257
543.346	0.0166558
543.424	0.0166873
543.503	0.0166928
543.581	0.0166605
543.659	0.0166231
543.737	0.0166460
543.815	0.0165766
543.893	0.0166454
543.971	0.0166473
544.049	0.0166353
544.128	0.0166359
544.206	0.0164799
544.284	0.0166638
544.362	0.0166510
544.440	0.0167481
544.518	0.0167055
544.596	0.0166213
544.674	0.0166312
544.753	0.0166435
544.831	0.0166994
544.909	0.0166834
544.987	0.0166557
545.065	0.0167702
545.143	0.0165356
545.221	0.0166360
545.299	0.0167133
545.378	0.0168114
545.456	0.0166502
545.534	0.0166870
545.612	0.0167171
545.690	0.0168456
545.768	0.0167925
545.846	0.0167010
545.924	0.0167361
546.003	0.0168823
546.081	0.0167654
546.159	0.0166806
546.237	0.0166753
546.315	0.0167197
546.393	0.0167432
546.471	0.0166943
546.549	0.0166028
546.628	0.0166779
546.706	0.0167908
546.784	0.0167774
546.862	0.0169086
546.940	0.0168345
547.018	0.0168737
547.096	0.0166652
547.174	0.0166367
547.253	0.0167862
547.331	0.0165353
547.409	0.0165914
547.487	0.0167307
547.565	0.0165677
547.643	0.0166640
547.721	0.0167499
547.799	0.0166117
547.878	0.0166592
547.956	0.0166575
548.034	0.0166823
548.112	0.0166487
548.190	0.0166198
548.268	0.0167242
548.346	0.0166672
548.424	0.0166926
548.503	0.0167756
548.581	0.0165630
548.659	0.0164695
548.737	0.0166410
548.815	0.0165916
548.893	0.0166688
548.971	0.0166386
549.049	0.0166652
549.128	0.0164721
549.206	0.0164359
549.284	0.0167430
549.362	0.0166358
549.440	0.0167443
549.518	0.0166120
549.596	0.0164880
549.674	0.0165113
549.753	0.0165362
549.831	0.0167209
549.909	0.0166557
549.987	0.0164633
550.065	0.0165144
550.143	0.0164817
550.221	0.0164998
550.299	0.0166663
550.378	0.0165800
550.456	0.0165253
550.534	0.0165887
550.612	0.0165447
550.690	0.0165468
550.768	0.0165636
550.846	0.0165913
550.924	0.0166063
551.003	0.0167628
551.081	0.0165269
551.159	0.0167336
551.237	0.0166702
551.315	0.0168079
551.393	0.0168159
551.471	0.0164992
551.549	0.0165070
551.628	0.0165224
551.706	0.0166956
551.784	0.0167328
551.862	0.0166964
551.940	0.0167596
552.018	0.0166418
552.096	0.0166461
552.174	0.0166978
552.253	0.0166207
552.331	0.0165730
552.409	0.0168390
552.487	0.0166843
552.565	0.0167548
552.643	0.0166744
552.721	0.0166750
552.799	0.0167335
552.878	0.0165316
552.956	0.0167624
553.034	0.0166475
553.112	0.0167714
553.190	0.0166289
553.268	0.0166964
553.346	0.0167141
553.424	0.0166783
553.503	0.0167196
553.581	0.0166920
553.659	0.0166933
553.737	0.0167972
553.815	0.0167088
553.893	0.0166637
553.971	0.0167397
554.049	0.0166815
554.128	0.0165854
554.206	0.0168967
554.284	0.0166693
554.362	0.0167316
554.440	0.0167304
554.518	0.0166144
554.596	0.0166279
554.674	0.0167702
554.753	0.0167063
554.831	0.0166787
554.909	0.0165697
554.987	0.0166582
555.065	0.0166351
555.143	0.0167018
555.221	0.0166853
555.299	0.0166557
555.378	0.0167255
555.456	0.0166053
555.534	0.0166074
555.612	0.0166607
555.690	0.0166512
555.768	0.0167612
555.846	0.0166392
555.924	0.0165185
556.003	0.0166029
556.081	0.0166014
556.159	0.0167561
556.237	0.0166633
556.315	0.0167095
556.393	0.0166008
556.471	0.0166272
556.549	0.0166463
556.628	0.0165934
556.706	0.0165171
556.784	0.0165549
556.862	0.0167420
556.940	0.0167766
557.018	0.0166094
557.096	0.0166349
557.174	0.0165591
557.253	0.0165565
557.331	0.0166117
557.409	0.0166761
557.487	0.0166295
557.565	0.0166178
557.643	0.0166662
557.721	0.0166759
557.799	0.0167127
557.878	0.0167122
557.956	0.0168208
558.034	0.0167118
558.112	0.0167771
558.190	0.0167681
558.268	0.0165846
558.346	0.0166942
558.424	0.0167106
558.503	0.0166833
558.581	0.0167442
558.659	0.0166255
558.737	0.0167390
558.815	0.0166384
558.893	0.0167162
558.971	0.0166831
559.049	0.0166956
559.128	0.0167455
559.206	0.0166221
559.284	0.0165694
559.362	0.0166683
559.440	0.0166128
559.518	0.0166484
559.596	0.0167661
559.674	0.0164846
559.753	0.0164868
559.831	0.0166289
559.909	0.0166493
559.987	0.0166300
560.065	0.0168002
560.143	0.0166410
560.221	0.0166235
560.299	0.0166003
560.378	0.0165354
560.456	0.0167530
560.534	0.0166768
560.612	0.0167108
560.690	0.0167146
560.768	0.0167934
560.846	0.0166650
560.924	0.0166949
561.003	0.0167300
561.081	0.0167272
561.159	0.0167461
561.237	0.0167256
561.315	0.0167182
561.393	0.0167583
561.471	0.0167949
561.549	0.0167099
561.628	0.0168351
561.706	0.0167897
561.784	0.0167310
561.862	0.0168656
561.940	0.0168335
562.018	0.0169764
562.096	0.0170992
562.174	0.0169991
562.253	0.0171005
562.331	0.0170981
562.409	0.0170564
562.487	0.0171323
562.565	0.0172182
562.643	0.0171922
562.721	0.0170891
562.799	0.0171932
562.878	0.0171651
562.956	0.0173335
563.034	0.0172520
563.112	0.0172123
563.190	0.0173235
563.268	0.0171424
563.346	0.0171084
563.424	0.0170809
563.503	0.0169356
563.581	0.0170075
563.659	0.0170731
563.737	0.0170576
563.815	0.0170992
563.893	0.0168947
563.971	0.0169581
564.049	0.0168974
564.128	0.0170805
564.206	0.0168672
564.284	0.0168798
564.362	0.0168580
564.440	0.0168481
564.518	0.0168276
564.596	0.0167509
564.674	0.0166810
564.753	0.0167452
564.831	0.0166777
564.909	0.0166314
564.987	0.0165743
565.065	0.0166091
565.143	0.0166822
565.221	0.0166750
565.299	0.0165791
565.378	0.0165754
565.456	0.0165385
565.534	0.0165639
565.612	0.0165688
565.690	0.0164886
565.768	0.0164776
565.846	0.0164557
565.924	0.0164970
566.003	0.0165615
566.081	0.0165176
566.159	0.0164866
566.237	0.0165310
566.315	0.0164646
566.393	0.0165926
566.471	0.0165128
566.549	0.0165042
566.628	0.0164841
566.706	0.0164320
566.784	0.0164906
566.862	0.0166008
566.940	0.0164820
567.018	0.0164278
567.096	0.0165911
567.174	0.0165298
567.253	0.0164352
567.331	0.0165754
567.409	0.0165565
567.487	0.0165422
567.565	0.0166171
567.643	0.0167285
567.721	0.0166243
567.799	0.0165721
567.878	0.0166857
567.956	0.0166057
568.034	0.0165903
568.112	0.0166512
568.190	0.0167242
568.268	0.0166774
568.346	0.0166798
568.424	0.0167416
568.503	0.0164810
568.581	0.0168154
568.659	0.0166457
568.737	0.0166206
568.815	0.0165250
568.893	0.0165424
568.971	0.0165343
569.049	0.0165762
569.128	0.0165487
569.206	0.0164210
569.284	0.0165749
569.362	0.0164309
569.440	0.0164634
569.518	0.0164053
569.596	0.0163911
569.674	0.0165418
569.753	0.0164306
569.831	0.0164687
569.909	0.0164976
569.987	0.0165405
570.065	0.0164455
570.143	0.0165059
570.221	0.0163844
570.299	0.0164275
570.378	0.0164136
570.456	0.0164477
570.534	0.0164274
570.612	0.0164550
570.690	0.0164732
570.768	0.0165096
570.846	0.0164787
570.924	0.0165061
571.003	0.0165335
571.081	0.0165170
571.159	0.0164958
571.237	0.0165023
571.315	0.0164957
571.393	0.0165868
571.471	0.0165210
571.549	0.0165675
571.628	0.0166161
571.706	0.0164940
571.784	0.0165415
571.862	0.0165707
571.940	0.0166157
572.018	0.0167078
572.096	0.0168294
572.174	0.0167793
572.253	0.0167786
572.331	0.0168200
572.409	0.0168604
572.487	0.0168369
572.565	0.0168816
572.643	0.0168826
572.721	0.0168803
572.799	0.0168260
572.878	0.0168164
572.956	0.0168583
573.034	0.0168639
573.112	0.0169270
573.190	0.0168254
573.268	0.0168536
573.346	0.0168393
573.424	0.0167914
573.503	0.0169315
573.581	0.0169456
573.659	0.0168054
573.737	0.0168349
573.815	0.0168401
573.893	0.0167765
573.971	0.0167444
574.049	0.0167574
574.128	0.0167587
574.206	0.0165987
574.284	0.0166981
574.362	0.0168156
574.440	0.0166827
574.518	0.0165598
574.596	0.0166235
574.674	0.0165833
574.753	0.0165698
574.831	0.0165960
574.909	0.0165163
574.987	0.0164815
575.065	0.0165479
575.143	0.0165086
575.221	0.0163836
575.299	0.0163271
575.378	0.0165976
575.456	0.0165594
575.534	0.0165662
575.612	0.0165119
575.690	0.0166266
575.768	0.0165667
575.846	0.0166565
575.924	0.0166663
576.003	0.0165699
576.081	0.0164704
576.159	0.0166277
576.237	0.0166341
576.315	0.0166196
576.393	0.0165984
576.471	0.0167356
576.549	0.0166271
576.628	0.0164220
576.706	0.0166206
576.784	0.0165711
576.862	0.0166558
576.940	0.0165894
577.018	0.0165321
577.096	0.0165767
577.174	0.0165529
577.253	0.0164761
577.331	0.0166759
577.409	0.0165821
577.487	0.0165395
577.565	0.0166260
577.643	0.0165886
577.721	0.0167190
577.799	0.0167271
577.878	0.0166391
577.956	0.0165353
578.034	0.0166645
578.112	0.0166731
578.190	0.0165942
578.268	0.0166722
578.346	0.0165658
578.424	0.0166373
578.503	0.0166776
578.581	0.0167204
578.659	0.0166806
578.737	0.0168404
578.815	0.0167310
578.893	0.0167680
578.971	0.0166162
579.049	0.0166496
579.128	0.0167876
579.206	0.0166247
579.284	0.0166748
579.362	0.0166928
579.440	0.0167052
579.518	0.0167643
579.596	0.0167676
579.674	0.0167941
579.753	0.0167934
579.831	0.0167285
579.909	0.0168335
579.987	0.0168752
580.065	0.0168932
580.143	0.0167929
580.221	0.0167376
580.299	0.0169045
580.378	0.0169478
580.456	0.0169472
580.534	0.0168337
580.612	0.0169267
580.690	0.0169049
580.768	0.0168604
580.846	0.0169123
580.924	0.0169007
581.003	0.0169564
581.081	0.0169515
581.159	0.0167857
581.237	0.0169363
581.315	0.0169232
581.393	0.0168124
581.471	0.0168257
581.549	0.0168256
581.628	0.0168753
581.706	0.0167129
581.784	0.0167803
581.862	0.0169823
581.940	0.0167616
582.018	0.0168399
582.096	0.0168369
582.174	0.0168643
582.253	0.0167875
582.331	0.0167077
582.409	0.0168390
582.487	0.0168340
582.565	0.0166525
582.643	0.0167415
582.721	0.0167595
582.799	0.0168925
582.878	0.0168917
582.956	0.0168722
583.034	0.0167480
583.112	0.0167017
583.190	0.0169017
583.268	0.0169586
583.346	0.0168537
583.424	0.0169927
583.503	0.0168735
583.581	0.0168373
583.659	0.0169846
583.737	0.0169390
583.815	0.0168719
583.893	0.0168209
583.971	0.0167590
584.049	0.0168279
584.128	0.0167546
584.206	0.0168629
584.284	0.0168103
584.362	0.0169596
584.440	0.0168250
584.518	0.0168761
584.596	0.0169605
584.674	0.0167431
584.753	0.0167101
584.831	0.0168186
584.909	0.0167742
584.987	0.0168513
585.065	0.0167781
585.143	0.0168478
585.221	0.0168066
585.299	0.0168005
585.378	0.0166883
585.456	0.0168124
585.534	0.0168746
585.612	0.0168658
585.690	0.0167933
585.768	0.0167685
585.846	0.0167194
585.924	0.0167625
586.003	0.0167756
586.081	0.0168869
586.159	0.0167068
586.237	0.0167274
586.315	0.0166867
586.393	0.0168804
586.471	0.0167879
586.549	0.0168379
586.628	0.0168169
586.706	0.0167834
586.784	0.0167673
586.862	0.0168040
586.940	0.0168623
587.018	0.0170383
587.096	0.0169643
587.174	0.0169806
587.253	0.0167152
587.331	0.0168433
587.409	0.0169645
587.487	0.0168536
587.565	0.0168002
587.643	0.0167528
587.721	0.0167588
587.799	0.0166724
587.878	0.0166156
587.956	0.0166151
588.034	0.0166752
588.112	0.0164556
588.190	0.0166010
588.268	0.0164263
588.346	0.0164170
588.424	0.0165150
588.503	0.0165898
588.581	0.0165403
588.659	0.0165335
588.737	0.0165370
588.815	0.0164946
588.893	0.0166033
588.971	0.0165627
589.049	0.0168396
589.128	0.0167279
589.206	0.0168324
589.284	0.0168446
589.362	0.0168149
589.440	0.0170185
589.518	0.0172504
589.596	0.0170579
589.674	0.0169647
589.753	0.0168513
589.831	0.0168381
589.909	0.0166939
589.987	0.0166251
590.065	0.0164871
590.143	0.0162284
590.221	0.0161443
590.299	0.0161000
590.378	0.0159658
590.456	0.0160466
590.534	0.0159139
590.612	0.0157701
590.690	0.0158810
590.768	0.0158285
590.846	0.0161193
590.924	0.0162284
591.003	0.0162220
591.081	0.0163509
591.159	0.0166685
591.237	0.0167951
591.315	0.0170157
591.393	0.0172794
591.471	0.0174856
591.549	0.0175393
591.628	0.0177407
591.706	0.0178751
591.784	0.0179198
591.862	0.0180251
591.940	0.0180695
592.018	0.0179398
592.096	0.0178858
592.174	0.0176972
592.253	0.0176734
592.331	0.0174557
592.409	0.0173943
592.487	0.0171051
592.565	0.0166542
592.643	0.0166527
592.721	0.0163902
592.799	0.0160923
592.878	0.0160125
592.956	0.0156921
593.034	0.0156757
593.112	0.0153511
593.190	0.0151093
593.268	0.0151076
593.346	0.0152918
593.424	0.0151856
593.503	0.0151908
593.581	0.0153840
593.659	0.0155337
593.737	0.0156187
593.815	0.0157711
593.893	0.0160571
593.971	0.0162438
594.049	0.0166061
594.128	0.0168359
594.206	0.0169169
594.284	0.0170305
594.362	0.0172684
594.440	0.0174129
594.518	0.0176029
594.596	0.0177435
594.674	0.0176427
594.753	0.0178552
594.831	0.0180172
594.909	0.0180701
594.987	0.0178541
595.065	0.0181435
595.143	0.0181596
595.221	0.0180107
595.299	0.0178103
595.378	0.0179789
595.456	0.0177587
595.534	0.0177246
595.612	0.0175069
595.690	0.0174606
595.768	0.0174563
595.846	0.0170692
595.924	0.0169064
596.003	0.0167721
596.081	0.0166412
596.159	0.0164780
596.237	0.0161550
596.315	0.0160629
596.393	0.0159995
596.471	0.0157397
596.549	0.0156670
596.628	0.0156223
596.706	0.0154066
596.784	0.0154067
596.862	0.0152364
596.940	0.0151924
597.018	0.0154343
597.096	0.0154158
597.174	0.0156995
597.253	0.0156757
597.331	0.0159795
597.409	0.0159818
597.487	0.0161567
597.565	0.0166146
597.643	0.0167866
597.721	0.0169559
597.799	0.0172405
597.878	0.0172834
597.956	0.0174581
598.034	0.0176969
598.112	0.0179294
598.190	0.0180636
598.268	0.0180307
598.346	0.0180035
598.424	0.0179857
598.503	0.0181203
598.581	0.0180059
598.659	0.0179388
598.737	0.0178237
598.815	0.0178590
598.893	0.0179170
598.971	0.0175707
599.049	0.0175957
599.128	0.0176083
599.206	0.0175177
599.284	0.0173438
599.362	0.0174647
599.440	0.0172314
599.518	0.0172301
599.596	0.0172492
599.674	0.0170778
599.753	0.0169830
599.831	0.0170113
599.909	0.0168795
599.987	0.0167863
600.065	0.0166339
600.143	0.0165467
600.221	0.0163324
600.299	0.0161890
600.378	0.0161836
600.456	0.0158516
600.534	0.0157922
600.612	0.0156758
600.690	0.0156187
600.768	0.0153913
600.846	0.0151743
600.924	0.0152350
601.003	0.0151853
601.081	0.0149797
601.159	0.0150626
601.237	0.0151345
601.315	0.0152299
601.393	0.0153397
601.471	0.0155890
601.549	0.0157149
601.628	0.0159135
601.706	0.0161797
601.784	0.0164742
601.862	0.0167527
601.940	0.0170290
602.018	0.0173912
602.096	0.0175591
602.174	0.0178522
602.253	0.0181376
602.331	0.0183282
602.409	0.0182673
602.487	0.0186082
602.565	0.0184566
602.643	0.0185706
602.721	0.0187964
602.799	0.0186652
602.878	0.0186181
602.956	0.0185652
603.034	0.0183633
603.112	0.0182893
603.190	0.0182047
603.268	0.0180240
603.346	0.0178769
603.424	0.0178066
603.503	0.0178123
603.581	0.0175937
603.659	0.0174916
603.737	0.0173278
603.815	0.0171068
603.893	0.0169456
603.971	0.0167831
604.049	0.0165054
604.128	0.0164426
604.206	0.0161163
604.284	0.0160580
604.362	0.0159090
604.440	0.0158025
604.518	0.0158295
604.596	0.0157172
604.674	0.0155123
604.753	0.0155939
604.831	0.0154118
604.909	0.0155181
604.987	0.0155770
605.065	0.0156658
605.143	0.0157862
605.221	0.0158005
605.299	0.0157849
605.378	0.0158384
605.456	0.0158488
605.534	0.0160070
605.612	0.0159529
605.690	0.0159810
605.768	0.0159132
605.846	0.0160798
605.924	0.0160580
606.003	0.0160291
606.081	0.0162210
606.159	0.0163683
606.237	0.0162474
606.315	0.0161346
606.393	0.0164261
606.471	0.0165025
606.549	0.0167597
606.628	0.0167241
606.706	0.0168647
606.784	0.0169140
606.862	0.0169447
606.940	0.0170746
607.018	0.0173228
607.096	0.0174536
607.174	0.0175126
607.253	0.0175130
607.331	0.0177700
607.409	0.0177384
607.487	0.0179053
607.565	0.0180106
607.643	0.0180579
607.721	0.0182909
607.799	0.0183650
607.878	0.0183811
607.956	0.0185055
608.034	0.0186375
608.112	0.0186496
608.190	0.0188343
608.268	0.0188495
608.346	0.0187182
608.424	0.0188019
608.503	0.0186786
608.581	0.0185675
608.659	0.0184470
608.737	0.0183334
608.815	0.0179958
608.893	0.0179298
608.971	0.0176582
609.049	0.0173267
609.128	0.0169106
609.206	0.0165777
609.284	0.0162794
609.362	0.0159580
609.440	0.0156355
609.518	0.0152171
609.596	0.0147562
609.674	0.0146613
609.753	0.0144519
609.831	0.0141968
609.909	0.0138527
609.987	0.0138998
610.065	0.0138667
610.143	0.0137891
610.221	0.0136588
610.299	0.0138769
610.378	0.0138795
610.456	0.0140773
610.534	0.0142809
610.612	0.0143252
610.690	0.0146442
610.768	0.0147445
610.846	0.0149667
610.924	0.0152844
611.003	0.0154267
611.081	0.0159122
611.159	0.0161026
611.237	0.0163461
611.315	0.0167797
611.393	0.0170444
611.471	0.0173601
611.549	0.0176261
611.628	0.0178593
611.706	0.0179684
611.784	0.0183017
611.862	0.0186614
611.940	0.0186137
612.018	0.0188049
612.096	0.0188899
612.174	0.0187967
612.253	0.0191743
612.331	0.0192226
612.409	0.0191996
612.487	0.0190047
612.565	0.0192149
612.643	0.0192984
612.721	0.0193343
612.799	0.0193462
612.878	0.0193797
612.956	0.0193468
613.034	0.0191932
613.112	0.0191090
613.190	0.0188925
613.268	0.0188191
613.346	0.0186445
613.424	0.0182037
613.503	0.0178719
613.581	0.0174239
613.659	0.0169481
613.737	0.0165752
613.815	0.0159344
613.893	0.0155691
613.971	0.0148576
614.049	0.0143578
614.128	0.0138682
614.206	0.0134533
614.284	0.0129483
614.362	0.0127646
614.440	0.0124567
614.518	0.0121737
614.596	0.0120496
614.674	0.0122245
614.753	0.0122293
614.831	0.0122950
614.909	0.0125400
614.987	0.0128250
615.065	0.0133220
615.143	0.0137348
615.221	0.0141201
615.299	0.0147021
615.378	0.0151301
615.456	0.0157124
615.534	0.0163071
615.612	0.0168555
615.690	0.0172266
615.768	0.0177238
615.846	0.0182404
615.924	0.0186746
616.003	0.0190632
616.081	0.0191941
616.159	0.0195699
616.237	0.0197941
616.315	0.0197525
616.393	0.0198146
616.471	0.0198839
616.549	0.0197597
616.628	0.0196748
616.706	0.0195326
616.784	0.0193597
616.862	0.0193074
616.940	0.0189816
617.018	0.0187997
617.096	0.0184427
617.174	0.0185546
617.253	0.0182865
617.331	0.0180077
617.409	0.0177243
617.487	0.0176150
617.565	0.0172294
617.643	0.0170805
617.721	0.0166866
617.799	0.0164839
617.878	0.0162704
617.956	0.0159474
618.034	0.0156738
618.112	0.0155231
618.190	0.0153357
618.268	0.0153691
618.346	0.0151061
618.424	0.0151211
618.503	0.0151997
618.581	0.0150229
618.659	0.0150085
618.737	0.0152584
618.815	0.0153274
618.893	0.0155217
618.971	0.0156133
619.049	0.0157363
619.128	0.0158780
619.206	0.0159866
619.284	0.0161024
619.362	0.0161938
619.440	0.0163612
619.518	0.0164145
619.596	0.0165260
619.674	0.0165115
619.753	0.0165653
619.831	0.0165725
619.909	0.0167677
619.987	0.0168007
620.065	0.0166403
620.143	0.0166857
620.221	0.0167503
620.299	0.0168445
620.378	0.0168961
620.456	0.0170488
620.534	0.0171268
620.612	0.0171064
620.690	0.0170322
620.768	0.0169242
620.846	0.0170086
620.924	0.0168555
621.003	0.0169019
621.081	0.0171455
621.159	0.0171372
621.237	0.0169713
621.315	0.0169678
621.393	0.0171272
621.471	0.0171738
621.549	0.0174015
621.628	0.0176110
621.706	0.0176955
621.784	0.0178167
621.862	0.0179219
621.940	0.0182637
622.018	0.0182862
622.096	0.0183466
622.174	0.0183681
622.253	0.0184193
622.331	0.0183510
622.409	0.0184178
622.487	0.0182580
622.565	0.0179349
622.643	0.0179236
622.721	0.0176524
622.799	0.0175826
622.878	0.0174412
622.956	0.0173096
623.034	0.0171509
623.112	0.0168793
623.190	0.0166898
623.268	0.0164718
623.346	0.0162782
623.424	0.0162230
623.503	0.0160152
623.581	0.0158270
623.659	0.0156022
623.737	0.0155280
623.815	0.0154305
623.893	0.0151318
623.971	0.0151057
624.049	0.0150686
624.128	0.0150881
624.206	0.0151008
624.284	0.0151681
624.362	0.0152424
624.440	0.0154485
624.518	0.0156621
624.596	0.0158117
624.674	0.0160420
624.753	0.0162402
624.831	0.0165008
624.909	0.0167063
624.987	0.0170328
625.065	0.0172249
625.143	0.0174426
625.221	0.0176699
625.299	0.0180116
625.378	0.0181958
625.456	0.0182031
625.534	0.0183904
625.612	0.0185845
625.690	0.0187241
625.768	0.0187535
625.846	0.0188797
625.924	0.0188414
626.003	0.0187477
626.081	0.0186527
626.159	0.0184500
626.237	0.0183645
626.315	0.0182334
626.393	0.0179772
626.471	0.0176750
626.549	0.0175589
626.628	0.0172929
626.706	0.0169953
626.784	0.0168385
626.862	0.0167059
626.940	0.0164273
627.018	0.0160574
627.096	0.0160259
627.174	0.0157057
627.253	0.0157178
627.331	0.0155028
627.409	0.0151012
627.487	0.0149586
627.565	0.0148316
627.643	0.0147021
627.721	0.0144368
627.799	0.0144022
627.878	0.0143102
627.956	0.0141778
628.034	0.0142077
628.112	0.0142758
628.190	0.0143784
628.268	0.0147045
628.346	0.0148808
628.424	0.0154379
628.503	0.0155304
628.581	0.0159182
628.659	0.0163642
628.737	0.0167353
628.815	0.0170670
628.893	0.0174065
628.971	0.0176424
629.049	0.0178294
629.128	0.0181047
629.206	0.0180888
629.284	0.0179030
629.362	0.0180537
629.440	0.0179606
629.518	0.0178873
629.596	0.0175660
629.674	0.0176433
629.753	0.0174287
629.831	0.0175967
629.909	0.0173320
629.987	0.0173438
630.065	0.0172301
630.143	0.0171360
630.221	0.0171722
630.299	0.0171088
630.378	0.0171056
630.456	0.0171072
630.534	0.0171635
630.612	0.0169530
630.690	0.0169408
630.768	0.0169162
630.846	0.0166882
630.924	0.0167619
631.003	0.0168140
631.081	0.0167232
631.159	0.0168307
631.237	0.0166819
631.315	0.0167883
631.393	0.0169365
631.471	0.0168553
631.549	0.0171374
631.628	0.0170654
631.706	0.0171217
631.784	0.0172889
631.862	0.0173212
631.940	0.0173093
632.018	0.0173753
632.096	0.0174093
632.174	0.0172740
632.253	0.0172014
632.331	0.0170417
632.409	0.0169096
632.487	0.0169727
632.565	0.0166732
632.643	0.0166496
632.721	0.0165080
632.799	0.0163530
632.878	0.0159988
632.956	0.0158524
633.034	0.0158144
633.112	0.0155975
633.190	0.0152841
633.268	0.0150945
633.346	0.0148425
633.424	0.0148429
633.503	0.0145463
633.581	0.0144086
633.659	0.0144975
633.737	0.0144038
633.815	0.0142921
633.893	0.0142978
633.971	0.0144678
634.049	0.0145311
634.128	0.0147305
634.206	0.0148335
634.284	0.0151083
634.362	0.0152342
634.440	0.0154727
634.518	0.0157542
634.596	0.0159034
634.674	0.0162154
634.753	0.0164452
634.831	0.0166444
634.909	0.0167801
634.987	0.0170924
635.065	0.0173197
635.143	0.0177964
635.221	0.0178372
635.299	0.0180922
635.378	0.0184950
635.456	0.0185297
635.534	0.0187662
635.612	0.0188596
635.690	0.0190684
635.768	0.0191915
635.846	0.0191891
635.924	0.0192677
636.003	0.0190925
636.081	0.0191435
636.159	0.0190826
636.237	0.0188456
636.315	0.0187174
636.393	0.0184756
636.471	0.0183947
636.549	0.0180526
636.628	0.0176835
636.706	0.0175387
636.784	0.0172929
636.862	0.0170240
636.940	0.0167316
637.018	0.0164391
637.096	0.0163636
637.174	0.0160697
637.253	0.0158331
637.331	0.0157425
637.409	0.0155790
637.487	0.0153365
637.565	0.0152320
637.643	0.0149854
637.721	0.0147788
637.799	0.0146725
637.878	0.0148016
637.956	0.0146967
638.034	0.0147978
638.112	0.0147611
638.190	0.0148592
638.268	0.0150815
638.346	0.0152296
638.424	0.0155124
638.503	0.0154903
638.581	0.0158122
638.659	0.0159988
638.737	0.0163130
638.815	0.0163832
638.893	0.0165346
638.971	0.0169316
639.049	0.0169884
639.128	0.0170534
639.206	0.0172913
639.284	0.0173708
639.362	0.0174290
639.440	0.0174987
639.518	0.0175359
639.596	0.0175817
639.674	0.0175298
639.753	0.0173690
639.831	0.0175675
639.909	0.0174697
639.987	0.0173488
640.065	0.0172306
640.143	0.0172615
640.221	0.0170541
640.299	0.0170618
640.378	0.0169283
640.456	0.0168573
640.534	0.0167546
640.612	0.0167390
640.690	0.0166883
640.768	0.0166496
640.846	0.0165199
640.924	0.0165488
641.003	0.0167116
641.081	0.0165896
641.159	0.0164055
641.237	0.0164314
641.315	0.0164542
641.393	0.0164783
641.471	0.0163168
641.549	0.0165399
641.628	0.0162830
641.706	0.0164021
641.784	0.0164046
641.862	0.0164407
641.940	0.0164985
642.018	0.0163221
642.096	0.0162371
642.174	0.0163332
642.253	0.0164178
642.331	0.0165606
642.409	0.0164896
642.487	0.0164693
642.565	0.0165776
642.643	0.0165927
642.721	0.0167140
642.799	0.0165936
642.878	0.0166952
642.956	0.0167419
643.034	0.0167575
643.112	0.0169033
643.190	0.0168691
643.268	0.0168973
643.346	0.0172121
643.424	0.0172108
643.503	0.0170586
643.581	0.0172569
643.659	0.0174387
643.737	0.0175159
643.815	0.0173816
643.893	0.0175095
643.971	0.0175381
644.049	0.0175980
644.128	0.0174403
644.206	0.0173900
644.284	0.0172957
644.362	0.0173501
644.440	0.0172599
644.518	0.0169253
644.596	0.0171182
644.674	0.0170613
644.753	0.0169209
644.831	0.0168227
644.909	0.0167924
644.987	0.0167140
645.065	0.0167032
645.143	0.0167635
645.221	0.0168465
645.299	0.0167529
645.378	0.0167859
645.456	0.0166530
645.534	0.0167337
645.612	0.0165929
645.690	0.0165282
645.768	0.0164274
645.846	0.0163200
645.924	0.0162679
646.003	0.0162824
646.081	0.0160645
646.159	0.0158446
646.237	0.0158714
646.315	0.0158198
646.393	0.0158364
646.471	0.0157294
646.549	0.0156880
646.628	0.0155704
646.706	0.0158002
646.784	0.0156477
646.862	0.0157179
646.940	0.0157228
647.018	0.0157859
647.096	0.0157706
647.174	0.0158054
647.253	0.0159046
647.331	0.0158069
647.409	0.0160555
647.487	0.0161608
647.565	0.0162784
647.643	0.0163497
647.721	0.0166254
647.799	0.0168229
647.878	0.0168509
647.956	0.0170350
648.034	0.0173327
648.112	0.0174850
648.190	0.0175455
648.268	0.0177201
648.346	0.0177126
648.424	0.0179865
648.503	0.0178495
648.581	0.0177247
648.659	0.0177621
648.737	0.0177243
648.815	0.0176077
648.893	0.0174681
648.971	0.0174397
649.049	0.0173837
649.128	0.0173171
649.206	0.0171965
649.284	0.0171889
649.362	0.0171358
649.440	0.0171768
649.518	0.0171712
649.596	0.0171862
649.674	0.0171002
649.753	0.0172536
649.831	0.0171771
649.909	0.0171584
649.987	0.0170930
650.065	0.0170557
650.143	0.0169783
650.221	0.0169204
650.299	0.0168502
650.378	0.0167710
650.456	0.0166311
650.534	0.0165489
650.612	0.0163824
650.690	0.0164064
650.768	0.0161856
650.846	0.0159713
650.924	0.0160339
651.003	0.0160265
651.081	0.0158819
651.159	0.0158233
651.237	0.0158485
651.315	0.0155663
651.393	0.0156066
651.471	0.0156373
651.549	0.0156058
651.628	0.0157005
651.706	0.0158666
651.784	0.0159544
651.862	0.0160616
651.940	0.0160398
652.018	0.0162448
652.096	0.0164732
652.174	0.0165704
652.253	0.0166605
652.331	0.0167860
652.409	0.0169557
652.487	0.0169579
652.565	0.0171290
652.643	0.0171137
652.721	0.0171160
652.799	0.0172757
652.878	0.0170634
652.956	0.0171083
653.034	0.0169508
653.112	0.0168752
653.190	0.0169238
653.268	0.0168346
653.346	0.0167680
653.424	0.0168639
653.503	0.0168780
653.581	0.0168610
653.659	0.0169958
653.737	0.0168540
653.815	0.0168671
653.893	0.0166799
653.971	0.0166656
654.049	0.0166547
654.128	0.0165946
654.206	0.0163351
654.284	0.0161014
654.362	0.0161738
654.440	0.0159076
654.518	0.0160394
654.596	0.0160028
654.674	0.0159328
654.753	0.0159701
654.831	0.0160103
654.909	0.0158783
654.987	0.0159576
655.065	0.0160510
655.143	0.0161914
655.221	0.0161188
655.299	0.0162966
655.378	0.0165166
655.456	0.0166889
655.534	0.0167630
655.612	0.0169093
655.690	0.0169270
655.768	0.0172493
655.846	0.0173956
655.924	0.0175852
656.003	0.0178027
656.081	0.0177697
656.159	0.0179613
656.237	0.0179958
656.315	0.0181309
656.393	0.0180575
656.471	0.0181354
656.549	0.0182147
656.628	0.0180344
656.706	0.0179923
656.784	0.0178504
656.862	0.0177908
656.940	0.0176190
657.018	0.0173322
657.096	0.0174581
657.174	0.0173152
657.253	0.0171942
657.331	0.0168835
657.409	0.0167616
657.487	0.0167055
657.565	0.0164956
657.643	0.0163945
657.721	0.0163613
657.799	0.0162640
657.878	0.0161131
657.956	0.0160038
658.034	0.0161067
658.112	0.0159248
658.190	0.0159734
658.268	0.0159977
658.346	0.0160547
658.424	0.0161617
658.503	0.0161889
658.581	0.0162246
658.659	0.0162224
658.737	0.0162450
658.815	0.0164306
658.893	0.0164722
658.971	0.0165598
659.049	0.0164886
659.128	0.0166276
659.206	0.0166353
659.284	0.0166125
659.362	0.0166425
659.440	0.0165845
659.518	0.0164690
659.596	0.0165604
659.674	0.0164113
659.753	0.0164038
659.831	0.0164843
659.909	0.0164586
659.987	0.0163441
660.065	0.0162465
660.143	0.0164697
660.221	0.0164115
660.299	0.0162878
660.378	0.0163469
660.456	0.0163096
660.534	0.0163655
660.612	0.0163436
660.690	0.0164278
660.768	0.0162528
660.846	0.0162876
660.924	0.0163529
661.003	0.0165211
661.081	0.0163541
661.159	0.0164541
661.237	0.0163900
661.315	0.0164831
661.393	0.0166327
661.471	0.0166141
661.549	0.0168291
661.628	0.0167149
661.706	0.0169254
661.784	0.0170008
661.862	0.0169041
661.940	0.0170173
662.018	0.0171293
662.096	0.0171187
662.174	0.0171393
662.253	0.0171770
662.331	0.0170646
662.409	0.0171326
662.487	0.0170841
662.565	0.0171806
662.643	0.0172435
662.721	0.0171558
662.799	0.0172089
662.878	0.0171593
662.956	0.0171616
663.034	0.0171980
663.112	0.0171976
663.190	0.0174976
663.268	0.0175315
663.346	0.0173616
663.424	0.0173782
663.503	0.0172232
663.581	0.0173353
663.659	0.0173133
663.737	0.0173083
663.815	0.0172369
663.893	0.0171336
663.971	0.0172404
664.049	0.0171743
664.128	0.0170926
664.206	0.0170705
664.284	0.0171030
664.362	0.0169890
664.440	0.0169751
664.518	0.0168434
664.596	0.0168835
664.674	0.0168829
664.753	0.0168671
664.831	0.0169085
664.909	0.0170087
664.987	0.0168845
665.065	0.0169561
665.143	0.0168733
665.221	0.0168660
665.299	0.0166740
665.378	0.0166690
665.456	0.0167281
665.534	0.0166209
665.612	0.0165633
665.690	0.0164651
665.768	0.0163698
665.846	0.0163444
665.924	0.0163260
666.003	0.0161626
666.081	0.0161272
666.159	0.0160254
666.237	0.0159935
666.315	0.0159930
666.393	0.0159412
666.471	0.0159403
666.549	0.0156743
666.628	0.0157970
666.706	0.0158862
666.784	0.0159461
666.862	0.0158224
666.940	0.0159671
667.018	0.0160803
667.096	0.0162329
667.174	0.0160590
667.253	0.0160665
667.331	0.0161858
667.409	0.0164029
667.487	0.0165232
667.565	0.0167248
667.643	0.0167326
667.721	0.0167166
667.799	0.0167861
667.878	0.0167088
667.956	0.0168632
668.034	0.0167802
668.112	0.0169332
668.190	0.0168590
668.268	0.0169037
668.346	0.0168733
668.424	0.0169882
668.503	0.0169787
668.581	0.0168659
668.659	0.0170090
668.737	0.0169894
668.815	0.0169464
668.893	0.0170942
668.971	0.0171194
669.049	0.0169331
669.128	0.0170599
669.206	0.0172128
669.284	0.0170715
669.362	0.0169354
669.440	0.0168573
669.518	0.0171042
669.596	0.0169467
669.674	0.0169028
669.753	0.0169009
669.831	0.0167510
669.909	0.0168726
669.987	0.0167634
670.065	0.0167410
670.143	0.0167198
670.221	0.0168771
670.299	0.0167639
670.378	0.0167542
670.456	0.0168397
670.534	0.0167457
670.612	0.0166991
670.690	0.0167702
670.768	0.0167789
670.846	0.0168803
670.924	0.0167823
671.003	0.0168962
671.081	0.0166949
671.159	0.0165063
671.237	0.0164877
671.315	0.0166866
671.393	0.0165878
671.471	0.0165223
671.549	0.0167767
671.628	0.0166202
671.706	0.0167101
671.784	0.0166370
671.862	0.0165886
671.940	0.0168356
672.018	0.0166238
672.096	0.0168153
672.174	0.0167301
672.253	0.0166245
672.331	0.0166312
672.409	0.0164816
672.487	0.0163711
672.565	0.0164539
672.643	0.0164101
672.721	0.0163844
672.799	0.0163461
672.878	0.0161810
672.956	0.0161155
673.034	0.0162167
673.112	0.0162425
673.190	0.0161942
673.268	0.0161848
673.346	0.0161399
673.424	0.0160433
673.503	0.0160825
673.581	0.0162186
673.659	0.0162453
673.737	0.0161701
673.815	0.0162002
673.893	0.0163815
673.971	0.0163765
674.049	0.0165440
674.128	0.0165541
674.206	0.0166830
674.284	0.0168804
674.362	0.0171221
674.440	0.0170733
674.518	0.0170124
674.596	0.0171865
674.674	0.0174024
674.753	0.0174116
674.831	0.0175307
674.909	0.0176456
674.987	0.0175838
675.065	0.0175406
675.143	0.0175480
675.221	0.0175628
675.299	0.0175029
675.378	0.0174915
675.456	0.0174992
675.534	0.0172910
675.612	0.0172665
675.690	0.0172110
675.768	0.0169917
675.846	0.0169645
675.924	0.0169308
676.003	0.0168464
676.081	0.0166536
676.159	0.0166669
676.237	0.0166727
676.315	0.0166616
676.393	0.0166292
676.471	0.0166824
676.549	0.0165642
676.628	0.0166408
676.706	0.0165683
676.784	0.0166784
676.862	0.0167018
676.940	0.0166578
677.018	0.0168076
677.096	0.0167527
677.174	0.0165836
677.253	0.0165438
677.331	0.0166961
677.409	0.0165620
677.487	0.0166461
677.565	0.0167355
677.643	0.0166492
677.721	0.0167137
677.799	0.0166190
677.878	0.0168124
677.956	0.0167903
678.034	0.0167575
678.112	0.0168105
678.190	0.0167730
678.268	0.0169958
678.346	0.0169167
678.424	0.0169228
678.503	0.0169206
678.581	0.0169215
678.659	0.0169859
678.737	0.0170902
678.815	0.0171663
678.893	0.0170272
678.971	0.0170265
679.049	0.0171245
679.128	0.0171232
679.206	0.0169757
679.284	0.0169407
679.362	0.0168808
679.440	0.0168962
679.518	0.0168222
679.596	0.0167706
679.674	0.0167088
679.753	0.0166994
679.831	0.0167112
679.909	0.0166504
679.987	0.0165750
680.065	0.0163839
680.143	0.0163821
680.221	0.0164149
680.299	0.0163272
680.378	0.0163147
680.456	0.0163499
680.534	0.0163944
680.612	0.0162123
680.690	0.0162684
680.768	0.0162809
680.846	0.0160915
680.924	0.0160828
681.003	0.0160455
681.081	0.0160234
681.159	0.0161937
681.237	0.0160744
681.315	0.0163078
681.393	0.0163934
681.471	0.0162353
681.549	0.0164761
681.628	0.0165799
681.706	0.0166689
681.784	0.0166474
681.862	0.0166927
681.940	0.0167963
682.018	0.0168752
682.096	0.0168433
682.174	0.0167929
682.253	0.0168600
682.331	0.0170268
682.409	0.0168386
682.487	0.0169894
682.565	0.0169029
682.643	0.0168848
682.721	0.0169476
682.799	0.0169973
682.878	0.0169666
682.956	0.0169324
683.034	0.0169508
683.112	0.0170498
683.190	0.0170013
683.268	0.0170087
683.346	0.0169566
683.424	0.0169761
683.503	0.0168524
683.581	0.0168790
683.659	0.0169550
683.737	0.0169351
683.815	0.0168856
683.893	0.0167402
683.971	0.0168465
684.049	0.0168803
684.128	0.0169170
684.206	0.0168926
684.284	0.0168034
684.362	0.0169231
684.440	0.0170122
684.518	0.0169920
684.596	0.0168532
684.674	0.0170348
684.753	0.0169517
684.831	0.0171073
684.909	0.0171727
684.987	0.0170179
685.065	0.0170671
685.143	0.0170387
685.221	0.0170059
685.299	0.0170739
685.378	0.0172083
685.456	0.0171005
685.534	0.0169910
685.612	0.0169062
685.690	0.0170583
685.768	0.0168725
685.846	0.0168712
685.924	0.0169359
686.003	0.0167423
686.081	0.0168015
686.159	0.0169005
686.237	0.0168531
686.315	0.0169231
686.393	0.0168057
686.471	0.0168431
686.549	0.0169353
686.628	0.0167725
686.706	0.0167068
686.784	0.0168976
686.862	0.0168729
686.940	0.0169017
687.018	0.0167595
687.096	0.0167297
687.174	0.0167899
687.253	0.0165125
687.331	0.0166774
687.409	0.0167664
687.487	0.0165939
687.565	0.0166459
687.643	0.0166015
687.721	0.0166500
687.799	0.0165936
687.878	0.0165826
687.956	0.0166600
688.034	0.0166969
688.112	0.0167327
688.190	0.0168325
688.268	0.0168276
688.346	0.0169082
688.424	0.0168472
688.503	0.0168553
688.581	0.0168227
688.659	0.0169753
688.737	0.0171014
688.815	0.0170539
688.893	0.0170938
688.971	0.0171178
689.049	0.0170822
689.128	0.0169595
689.206	0.0169554
689.284	0.0168670
689.362	0.0169485
689.440	0.0168068
689.518	0.0166792
689.596	0.0167071
689.674	0.0166887
689.753	0.0166343
689.831	0.0165560
689.909	0.0166180
689.987	0.0164198
690.065	0.0165211
690.143	0.0163054
690.221	0.0163988
690.299	0.0164980
690.378	0.0162500
690.456	0.0161816
690.534	0.0163049
690.612	0.0163651
690.690	0.0164123
690.768	0.0162679
690.846	0.0162710
690.924	0.0164082
691.003	0.0164185
691.081	0.0162910
691.159	0.0163452
691.237	0.0162540
691.315	0.0163844
691.393	0.0163757
691.471	0.0163376
691.549	0.0164195
691.628	0.0163696
691.706	0.0163820
691.784	0.0164598
691.862	0.0163245
691.940	0.0163656
692.018	0.0164932
692.096	0.0164210
692.174	0.0165100
692.253	0.0164839
692.331	0.0166903
692.409	0.0165685
692.487	0.0164919
692.565	0.0166077
692.643	0.0166408
692.721	0.0166174
692.799	0.0165976
692.878	0.0166625
692.956	0.0166114
693.034	0.0166700
693.112	0.0165740
693.190	0.0167776
693.268	0.0167784
693.346	0.0168469
693.424	0.0166509
693.503	0.0167329
693.581	0.0167094
693.659	0.0166187
693.737	0.0166929
693.815	0.0167034
693.893	0.0166300
693.971	0.0168218
694.049	0.0167687
694.128	0.0168360
694.206	0.0168412
694.284	0.0167681
694.362	0.0167973
694.440	0.0168786
694.518	0.0167237
694.596	0.0170134
694.674	0.0168120
694.753	0.0168675
694.831	0.0167741
694.909	0.0168168
694.987	0.0168133
695.065	0.0167561
695.143	0.0167791
695.221	0.0167487
695.299	0.0166788
695.378	0.0167117
695.456	0.0166451
695.534	0.0165992
695.612	0.0166692
695.690	0.0166811
695.768	0.0167976
695.846	0.0166376
695.924	0.0165527
696.003	0.0167403
696.081	0.0167200
696.159	0.0167268
696.237	0.0166237
696.315	0.0167505
696.393	0.0166985
696.471	0.0167059
696.549	0.0166637
696.628	0.0167688
696.706	0.0167419
696.784	0.0165619
696.862	0.0167159
696.940	0.0167751
697.018	0.0167058
697.096	0.0165595
697.174	0.0166436
697.253	0.0166206
697.331	0.0165390
697.409	0.0167655
697.487	0.0166638
697.565	0.0165154
697.643	0.0166920
697.721	0.0166264
697.799	0.0167034
697.878	0.0166599
697.956	0.0167165
698.034	0.0168279
698.112	0.0168465
698.190	0.0167842
698.268	0.0169211
698.346	0.0168192
698.424	0.0169910
698.503	0.0169463
698.581	0.0168443
698.659	0.0169561
698.737	0.0168776
698.815	0.0168111
698.893	0.0169726
698.971	0.0168412
699.049	0.0168550
699.128	0.0167725
699.206	0.0167278
699.284	0.0167310
699.362	0.0166776
699.440	0.0166034
699.518	0.0165816
699.596	0.0166206
699.674	0.0167113
699.753	0.0165776
699.831	0.0166370
699.909	0.0166464
699.987	0.0166698
700.065	0.0165599
700.143	0.0168010
700.221	0.0166419
700.299	0.0167227
700.378	0.0166776
700.456	0.0167862
700.534	0.0167023
700.612	0.0167007
700.690	0.0168155
700.768	0.0168022
700.846	0.0168926
700.924	0.0166290
701.003	0.0166978
701.081	0.0167616
701.159	0.0168637
701.237	0.0168375
701.315	0.0168269
701.393	0.0170198
701.471	0.0169811
701.549	0.0171381
701.628	0.0170612
701.706	0.0169897
701.784	0.0169685
701.862	0.0169987
701.940	0.0169292
702.018	0.0169456
702.096	0.0170013
702.174	0.0170132
702.253	0.0170056
702.331	0.0168676
702.409	0.0169085
702.487	0.0167743
702.565	0.0167265
702.643	0.0167756
702.721	0.0166206
702.799	0.0167033
702.878	0.0165988
702.956	0.0166292
703.034	0.0163937
703.112	0.0165575
703.190	0.0166335
703.268	0.0166259
703.346	0.0167081
703.424	0.0166224
703.503	0.0167538
703.581	0.0167056
703.659	0.0166032
703.737	0.0167420
703.815	0.0167915
703.893	0.0166838
703.971	0.0168326
704.049	0.0166470
704.128	0.0166756
704.206	0.0168028
704.284	0.0168937
704.362	0.0167870
704.440	0.0167474
704.518	0.0167555
704.596	0.0168906
704.674	0.0166983
704.753	0.0166673
704.831	0.0168340
704.909	0.0168468
704.987	0.0167085
705.065	0.0167894
705.143	0.0167511
705.221	0.0167330
705.299	0.0168169
705.378	0.0167496
705.456	0.0169342
705.534	0.0167667
705.612	0.0167473
705.690	0.0168021
705.768	0.0165743
705.846	0.0166344
705.924	0.0167174
706.003	0.0166640
706.081	0.0165895
706.159	0.0167315
706.237	0.0165305
706.315	0.0165847
706.393	0.0166514
706.471	0.0165346
706.549	0.0164137
706.628	0.0165142
706.706	0.0165312
706.784	0.0164832
706.862	0.0164807
706.940	0.0163441
707.018	0.0164418
707.096	0.0164627
707.174	0.0164696
707.253	0.0164488
707.331	0.0164666
707.409	0.0164535
707.487	0.0165474
707.565	0.0166788
707.643	0.0167514
707.721	0.0167323
707.799	0.0168240
707.878	0.0169881
707.956	0.0169524
708.034	0.0169524
708.112	0.0169485
708.190	0.0169885
708.268	0.0171558
708.346	0.0170840
708.424	0.0170576
708.503	0.0172344
708.581	0.0172793
708.659	0.0173190
708.737	0.0172820
708.815	0.0171823
708.893	0.0173257
708.971	0.0171330
709.049	0.0171445
709.128	0.0171476
709.206	0.0170122
709.284	0.0169595
709.362	0.0169401
709.440	0.0168654
709.518	0.0168240
709.596	0.0168037
709.674	0.0167509
709.753	0.0167209
709.831	0.0166033
709.909	0.0167602
709.987	0.0166203
710.065	0.0166007
710.143	0.0162844
710.221	0.0165015
710.299	0.0163522
710.378	0.0162661
710.456	0.0162561
710.534	0.0163029
710.612	0.0162457
710.690	0.0160398
710.768	0.0159459
710.846	0.0159877
710.924	0.0159734
711.003	0.0159677
711.081	0.0159743
711.159	0.0158466
711.237	0.0157771
711.315	0.0158524
711.393	0.0159405
711.471	0.0159932
711.549	0.0159920
711.628	0.0159277
711.706	0.0161430
711.784	0.0161631
711.862	0.0162412
711.940	0.0163569
712.018	0.0164426
712.096	0.0164093
712.174	0.0164799
712.253	0.0165289
712.331	0.0164777
712.409	0.0166385
712.487	0.0166842
712.565	0.0168233
712.643	0.0169536
712.721	0.0168793
712.799	0.0168359
712.878	0.0170279
712.956	0.0170583
713.034	0.0169697
713.112	0.0169673
713.190	0.0170972
713.268	0.0170465
713.346	0.0169858
713.424	0.0168800
713.503	0.0170050
713.581	0.0171167
713.659	0.0169087
713.737	0.0169563
713.815	0.0168517
713.893	0.0168610
713.971	0.0167872
714.049	0.0170217
714.128	0.0168636
714.206	0.0166331
714.284	0.0167834
714.362	0.0168185
714.440	0.0168424
714.518	0.0167822
714.596	0.0166684
714.674	0.0166985
714.753	0.0166521
714.831	0.0166193
714.909	0.0167358
714.987	0.0166436
715.065	0.0167362
715.143	0.0166969
715.221	0.0168154
715.299	0.0167712
715.378	0.0167649
715.456	0.0167093
715.534	0.0166228
715.612	0.0167176
715.690	0.0166906
715.768	0.0167010
715.846	0.0165264
715.924	0.0165562
716.003	0.0166700
716.081	0.0167059
716.159	0.0168383
716.237	0.0167287
716.315	0.0166535
716.393	0.0165927
716.471	0.0166344
716.549	0.0167765
716.628	0.0166103
716.706	0.0166101
716.784	0.0166331
716.862	0.0166851
716.940	0.0167221
717.018	0.0167816
717.096	0.0167204
717.174	0.0166805
717.253	0.0166909
717.331	0.0166608
717.409	0.0167766
717.487	0.0165893
717.565	0.0167017
717.643	0.0167416
717.721	0.0166320
717.799	0.0167000
717.878	0.0165571
717.956	0.0166451
718.034	0.0165051
718.112	0.0165542
718.190	0.0166082
718.268	0.0166723
718.346	0.0166214
718.424	0.0166132
718.503	0.0166866
718.581	0.0167896
718.659	0.0167125
718.737	0.0166228
718.815	0.0167429
718.893	0.0165910
718.971	0.0167318
719.049	0.0168548
719.128	0.0168466
719.206	0.0169852
719.284	0.0169496
719.362	0.0169497
719.440	0.0169131
719.518	0.0169010
719.596	0.0168669
719.674	0.0169263
719.753	0.0168998
719.831	0.0169543
719.909	0.0168929
719.987	0.0169518
720.065	0.0169565
720.143	0.0167865
720.221	0.0168262
720.299	0.0168744
720.378	0.0166565
720.456	0.0167935
720.534	0.0166402
720.612	0.0166130
720.690	0.0167994
720.768	0.0167633
720.846	0.0166765
720.924	0.0166458
721.003	0.0167234
721.081	0.0166136
721.159	0.0166670
721.237	0.0166325
721.315	0.0167472
721.393	0.0166723
721.471	0.0166147
721.549	0.0166647
721.628	0.0167480
721.706	0.0167376
721.784	0.0167703
721.862	0.0168316
721.940	0.0168224
722.018	0.0166725
722.096	0.0166204
722.174	0.0167300
722.253	0.0169180
722.331	0.0168238
722.409	0.0169056
722.487	0.0167062
722.565	0.0167706
722.643	0.0167785
722.721	0.0167294
722.799	0.0167822
722.878	0.0166306
722.956	0.0166638
723.034	0.0168440
723.112	0.0168152
723.190	0.0166261
723.268	0.0166404
723.346	0.0166806
723.424	0.0166499
723.503	0.0165464
723.581	0.0166611
723.659	0.0165738
723.737	0.0166656
723.815	0.0165963
723.893	0.0164100
723.971	0.0164744
724.049	0.0166023
724.128	0.0166975
724.206	0.0165492
724.284	0.0165900
724.362	0.0166091
724.440	0.0166346
724.518	0.0165755
724.596	0.0165368
724.674	0.0166655
724.753	0.0165855
724.831	0.0166625
724.909	0.0166116
724.987	0.0167930
725.065	0.0167452
725.143	0.0168085
725.221	0.0168059
725.299	0.0168874
725.378	0.0168443
725.456	0.0168343
725.534	0.0169515
725.612	0.0169651
725.690	0.0169678
725.768	0.0169112
725.846	0.0168770
725.924	0.0168395
726.003	0.0168978
726.081	0.0167806
726.159	0.0167011
726.237	0.0168242
726.315	0.0168119
726.393	0.0168341
726.471	0.0168943
726.549	0.0167999
726.628	0.0166948
726.706	0.0166296
726.784	0.0164742
726.862	0.0165397
726.940	0.0164971
727.018	0.0165523
727.096	0.0164113
727.174	0.0163913
727.253	0.0164101
727.331	0.0164172
727.409	0.0164077
727.487	0.0163815
727.565	0.0165041
727.643	0.0164417
727.721	0.0165264
727.799	0.0165665
727.878	0.0166744
727.956	0.0165646
728.034	0.0165586
728.112	0.0165806
728.190	0.0165875
728.268	0.0166584
728.346	0.0167147
728.424	0.0165493
728.503	0.0169202
728.581	0.0168848
728.659	0.0167908
728.737	0.0167216
728.815	0.0167331
728.893	0.0167371
728.971	0.0168458
729.049	0.0168217
729.128	0.0167781
729.206	0.0167071
729.284	0.0167296
729.362	0.0168111
729.440	0.0168021
729.518	0.0167030
729.596	0.0165862
729.674	0.0166284
729.753	0.0167018
729.831	0.0165611
729.909	0.0165618
729.987	0.0164397
730.065	0.0163779
730.143	0.0164835
730.221	0.0164152
730.299	0.0164389
730.378	0.0163068
730.456	0.0162908
730.534	0.0163058
730.612	0.0162816
730.690	0.0162550
730.768	0.0164279
730.846	0.0162382
730.924	0.0162260
731.003	0.0163350
731.081	0.0162914
731.159	0.0164374
731.237	0.0164639
731.315	0.0164471
731.393	0.0165810
731.471	0.0166358
731.549	0.0166510
731.628	0.0166612
731.706	0.0168269
731.784	0.0168535
731.862	0.0168081
731.940	0.0167802
732.018	0.0169770
732.096	0.0168497
732.174	0.0169795
732.253	0.0168790
732.331	0.0168919
732.409	0.0169631
732.487	0.0170229
732.565	0.0169557
732.643	0.0170882
732.721	0.0171343
732.799	0.0169034
732.878	0.0170384
732.956	0.0169350
733.034	0.0168462
733.112	0.0168702
733.190	0.0167228
733.268	0.0169032
733.346	0.0169518
733.424	0.0167744
733.503	0.0167197
733.581	0.0167995
733.659	0.0167625
733.737	0.0166122
733.815	0.0165726
733.893	0.0166467
733.971	0.0166920
734.049	0.0166151
734.128	0.0165549
734.206	0.0165628
734.284	0.0165615
734.362	0.0165769
734.440	0.0164594
734.518	0.0165564
734.596	0.0164896
734.674	0.0164133
734.753	0.0164514
734.831	0.0164851
734.909	0.0166283
734.987	0.0165145
735.065	0.0164823
735.143	0.0166251
735.221	0.0165961
735.299	0.0165130
735.378	0.0166570
735.456	0.0166682
735.534	0.0166764
735.612	0.0167830
735.690	0.0166320
735.768	0.0169320
735.846	0.0168361
735.924	0.0168345
736.003	0.0168270
736.081	0.0170517
736.159	0.0169885
736.237	0.0170612
736.315	0.0169695
736.393	0.0170320
736.471	0.0169440
736.549	0.0169697
736.628	0.0170023
736.706	0.0169888
736.784	0.0168804
736.862	0.0169548
736.940	0.0168674
737.018	0.0168858
737.096	0.0170531
737.174	0.0170607
737.253	0.0169347
737.331	0.0169559
737.409	0.0169942
737.487	0.0167992
737.565	0.0168089
737.643	0.0168857
737.721	0.0169263
737.799	0.0169912
737.878	0.0168776
737.956	0.0168460
738.034	0.0169630
738.112	0.0169109
738.190	0.0168594
738.268	0.0168101
738.346	0.0169707
738.424	0.0167996
738.503	0.0168693
738.581	0.0168092
738.659	0.0167311
738.737	0.0167414
738.815	0.0170163
738.893	0.0168703
738.971	0.0167981
739.049	0.0168037
739.128	0.0168522
739.206	0.0167258
739.284	0.0168987
739.362	0.0167846
739.440	0.0168046
739.518	0.0168776
739.596	0.0167902
739.674	0.0166002
739.753	0.0166939
739.831	0.0168333
739.909	0.0167355
739.987	0.0167152
740.065	0.0167544
740.143	0.0166713
740.221	0.0168174
740.299	0.0166161
740.378	0.0166937
740.456	0.0166891
740.534	0.0166897
740.612	0.0165483
740.690	0.0165072
740.768	0.0166286
740.846	0.0165858
740.924	0.0165711
741.003	0.0164381
741.081	0.0165557
741.159	0.0165104
741.237	0.0162823
741.315	0.0165056
741.393	0.0164975
741.471	0.0163371
741.549	0.0163683
741.628	0.0164484
741.706	0.0163204
741.784	0.0163493
741.862	0.0163390
741.940	0.0163110
742.018	0.0164661
742.096	0.0164350
742.174	0.0164866
742.253	0.0164851
742.331	0.0163956
742.409	0.0165543
742.487	0.0164257
742.565	0.0165231
742.643	0.0166228
742.721	0.0165797
742.799	0.0166376
742.878	0.0166182
742.956	0.0164766
743.034	0.0163570
743.112	0.0165374
743.190	0.0165094
743.268	0.0164867
743.346	0.0164867
743.424	0.0165141
743.503	0.0166212
743.581	0.0165457
743.659	0.0164757
743.737	0.0165392
743.815	0.0165835
743.893	0.0165112
743.971	0.0166173
744.049	0.0166958
744.128	0.0167892
744.206	0.0166970
744.284	0.0167502
744.362	0.0168590
744.440	0.0168249
744.518	0.0167532
744.596	0.0168440
744.674	0.0167849
744.753	0.0168044
744.831	0.0168530
744.909	0.0169344
744.987	0.0170026
745.065	0.0168373
745.143	0.0168222
745.221	0.0169064
745.299	0.0169939
745.378	0.0169160
745.456	0.0169182
745.534	0.0170094
745.612	0.0169388
745.690	0.0169534
745.768	0.0170870
745.846	0.0169102
745.924	0.0169469
746.003	0.0170395
746.081	0.0170168
746.159	0.0168954
746.237	0.0168582
746.315	0.0169350
746.393	0.0169681
746.471	0.0168903
746.549	0.0167401
746.628	0.0167933
746.706	0.0168404
746.784	0.0167828
746.862	0.0167307
746.940	0.0168472
747.018	0.0167823
747.096	0.0168510
747.174	0.0168066
747.253	0.0166153
747.331	0.0166799
747.409	0.0165672
747.487	0.0165488
747.565	0.0165532
747.643	0.0165824
747.721	0.0165688
747.799	0.0164888
747.878	0.0165862
747.956	0.0164541
748.034	0.0164722
748.112	0.0164861
748.190	0.0163743
748.268	0.0163355
748.346	0.0164482
748.424	0.0164411
748.503	0.0164104
748.581	0.0165527
748.659	0.0166031
748.737	0.0165508
748.815	0.0166048
748.893	0.0166451
748.971	0.0166886
749.049	0.0166599
749.128	0.0166457
749.206	0.0167313
749.284	0.0168320
749.362	0.0168555
749.440	0.0167323
749.518	0.0167835
749.596	0.0167156
749.674	0.0167427
749.753	0.0168488
749.831	0.0168023
749.909	0.0168084
749.987	0.0170177
750.065	0.0169915
750.143	0.0167745
750.221	0.0167596
750.299	0.0167636
750.378	0.0168812
750.456	0.0168831
750.534	0.0167916
750.612	0.0168428
750.690	0.0167988
750.768	0.0167829
750.846	0.0168272
750.924	0.0168363
751.003	0.0167081
751.081	0.0166905
751.159	0.0168297
751.237	0.0167453
751.315	0.0169234
751.393	0.0168214
751.471	0.0168861
751.549	0.0166040
751.628	0.0167345
751.706	0.0167828
751.784	0.0168067
751.862	0.0165480
751.940	0.0166843
752.018	0.0167657
752.096	0.0168486
752.174	0.0166991
752.253	0.0166502
752.331	0.0167953
752.409	0.0167456
752.487	0.0167443
752.565	0.0166474
752.643	0.0168155
752.721	0.0167557
752.799	0.0167255
752.878	0.0167673
752.956	0.0167215
753.034	0.0168343
753.112	0.0168127
753.190	0.0168278
753.268	0.0167685
753.346	0.0169572
753.424	0.0167580
753.503	0.0167370
753.581	0.0168503
753.659	0.0167603
753.737	0.0166620
753.815	0.0167174
753.893	0.0168262
753.971	0.0167500
754.049	0.0165836
754.128	0.0165975
754.206	0.0165760
754.284	0.0166255
754.362	0.0166428
754.440	0.0166500
754.518	0.0166728
754.596	0.0165405
754.674	0.0166534
754.753	0.0167678
754.831	0.0168591
754.909	0.0167931
754.987	0.0168038
755.065	0.0168172
755.143	0.0167258
755.221	0.0168935
755.299	0.0167999
755.378	0.0168585
755.456	0.0168836
755.534	0.0169289
755.612	0.0168579
755.690	0.0168651
755.768	0.0167663
755.846	0.0166770
755.924	0.0166197
756.003	0.0166487
756.081	0.0168134
756.159	0.0167428
756.237	0.0166553
756.315	0.0166203
756.393	0.0167628
756.471	0.0167879
756.549	0.0167027
756.628	0.0166264
756.706	0.0167119
756.784	0.0166783
756.862	0.0166738
756.940	0.0166050
757.018	0.0165382
757.096	0.0165967
757.174	0.0165306
757.253	0.0165675
757.331	0.0166692
757.409	0.0166561
757.487	0.0167382
757.565	0.0167427
757.643	0.0166042
757.721	0.0165960
757.799	0.0166636
757.878	0.0167624
757.956	0.0165668
758.034	0.0166344
758.112	0.0166188
758.190	0.0165542
758.268	0.0165182
758.346	0.0167153
758.424	0.0166393
758.503	0.0166429
758.581	0.0167397
758.659	0.0166889
758.737	0.0166682
758.815	0.0166438
758.893	0.0167394
758.971	0.0167748
759.049	0.0166978
759.128	0.0167883
759.206	0.0167616
759.284	0.0167696
759.362	0.0166628
759.440	0.0168069
759.518	0.0167995
759.596	0.0166766
759.674	0.0165894
759.753	0.0167987
759.831	0.0167956
759.909	0.0167419
759.987	0.0167294
760.065	0.0166775
760.143	0.0167085
760.221	0.0167818
760.299	0.0167966
760.378	0.0165837
760.456	0.0166174
760.534	0.0169344
760.612	0.0166730
760.690	0.0166106
760.768	0.0166360
760.846	0.0167673
760.924	0.0166325
761.003	0.0166417
761.081	0.0167675
761.159	0.0167701
761.237	0.0167805
761.315	0.0168945
761.393	0.0170290
761.471	0.0168234
761.549	0.0168723
761.628	0.0168724
761.706	0.0168735
761.784	0.0168543
761.862	0.0168559
761.940	0.0170061
762.018	0.0171500
762.096	0.0168934
762.174	0.0168373
762.253	0.0169357
762.331	0.0167976
762.409	0.0168364
762.487	0.0168896
762.565	0.0169643
762.643	0.0169636
762.721	0.0168192
762.799	0.0168365
762.878	0.0167548
762.956	0.0169231
763.034	0.0167345
763.112	0.0167960
763.190	0.0167107
763.268	0.0167432
763.346	0.0168401
763.424	0.0167194
763.503	0.0167036
763.581	0.0167662
763.659	0.0167043
763.737	0.0166148
763.815	0.0166335
763.893	0.0166473
763.971	0.0167697
764.049	0.0167462
764.128	0.0166833
764.206	0.0168021
764.284	0.0167559
764.362	0.0167401
764.440	0.0168171
764.518	0.0167693
764.596	0.0167603
764.674	0.0167497
764.753	0.0166604
764.831	0.0168523
764.909	0.0168473
764.987	0.0167353
765.065	0.0167661
765.143	0.0168282
765.221	0.0168606
765.299	0.0168005
765.378	0.0167316
765.456	0.0168468
765.534	0.0166776
765.612	0.0166985
765.690	0.0167684
765.768	0.0167413
765.846	0.0166479
765.924	0.0166541
766.003	0.0166821
766.081	0.0167226
766.159	0.0166186
766.237	0.0164558
766.315	0.0167043
766.393	0.0167184
766.471	0.0165730
766.549	0.0164993
766.628	0.0165249
766.706	0.0165104
766.784	0.0164813
766.862	0.0166554
766.940	0.0166344
767.018	0.0165210
767.096	0.0164682
767.174	0.0165646
767.253	0.0165752
767.331	0.0166292
767.409	0.0164523
767.487	0.0165733
767.565	0.0165955
767.643	0.0165966
767.721	0.0165178
767.799	0.0164783
767.878	0.0165952
767.956	0.0166201
768.034	0.0165862
768.112	0.0166513
768.190	0.0167583
768.268	0.0165947
768.346	0.0165922
768.424	0.0166350
768.503	0.0166708
768.581	0.0167719
768.659	0.0167049
768.737	0.0165012
768.815	0.0165771
768.893	0.0168467
768.971	0.0166451
769.049	0.0164753
769.128	0.0165759
769.206	0.0166537
769.284	0.0165754
769.362	0.0167735
769.440	0.0166377
769.518	0.0165777
769.596	0.0166567
769.674	0.0165417
769.753	0.0164473
769.831	0.0165958
769.909	0.0167241
769.987	0.0166575
770.065	0.0166111
770.143	0.0166110
770.221	0.0165577
770.299	0.0165353
770.378	0.0166096
770.456	0.0164913
770.534	0.0165565
770.612	0.0166403
770.690	0.0166779
770.768	0.0166474
770.846	0.0166571
770.924	0.0167088
771.003	0.0166819
771.081	0.0166159
771.159	0.0166456
771.237	0.0167037
771.315	0.0167185
771.393	0.0167133
771.471	0.0166261
771.549	0.0167513
771.628	0.0168009
771.706	0.0167677
771.784	0.0167428
771.862	0.0166792
771.940	0.0166307
772.018	0.0166166
772.096	0.0167084
772.174	0.0166660
772.253	0.0166355
772.331	0.0166189
772.409	0.0167152
772.487	0.0166425
772.565	0.0166965
772.643	0.0165499
772.721	0.0166887
772.799	0.0167068
772.878	0.0166416
772.956	0.0166161
773.034	0.0166093
773.112	0.0166612
773.190	0.0168159
773.268	0.0165691
773.346	0.0167033
773.424	0.0166418
773.503	0.0167435
773.581	0.0165973
773.659	0.0166832
773.737	0.0167148
773.815	0.0166979
773.893	0.0166777
773.971	0.0167096
774.049	0.0167028
774.128	0.0167379
774.206	0.0167258
774.284	0.0168808
774.362	0.0168829
774.440	0.0169243
774.518	0.0168386
774.596	0.0170091
774.674	0.0170428
774.753	0.0168301
774.831	0.0170140
774.909	0.0172713
774.987	0.0173077
775.065	0.0171120
775.143	0.0171097
775.221	0.0171687
775.299	0.0171576
775.378	0.0170485
775.456	0.0170966
775.534	0.0171362
775.612	0.0170567
775.690	0.0170258
775.768	0.0169598
775.846	0.0170145
775.924	0.0169639
776.003	0.0169515
776.081	0.0168996
776.159	0.0168517
776.237	0.0169627
776.315	0.0169345
776.393	0.0170393
776.471	0.0169624
776.549	0.0168736
776.628	0.0167792
776.706	0.0169025
776.784	0.0167838
776.862	0.0167259
776.940	0.0168322
777.018	0.0167751
777.096	0.0167236
777.174	0.0166162
777.253	0.0167841
777.331	0.0166927
777.409	0.0167343
777.487	0.0167587
777.565	0.0168002
777.643	0.0167838
777.721	0.0167023
777.799	0.0167930
777.878	0.0166122
777.956	0.0167712
778.034	0.0168155
778.112	0.0167651
778.190	0.0166796
778.268	0.0167429
778.346	0.0170201
778.424	0.0168388
778.503	0.0168681
778.581	0.0168960
778.659	0.0167271
778.737	0.0168880
778.815	0.0169729
778.893	0.0169314
778.971	0.0168753
779.049	0.0167924
779.128	0.0167987
779.206	0.0169727
779.284	0.0167744
779.362	0.0169302
779.440	0.0167898
779.518	0.0168647
779.596	0.0167749
779.674	0.0167422
779.753	0.0168374
779.831	0.0168535
779.909	0.0167797
779.987	0.0167863
780.065	0.0167506
780.143	0.0167902
780.221	0.0168498
780.299	0.0167970
780.378	0.0167797
780.456	0.0170225
780.534	0.0168639
780.612	0.0168575
780.690	0.0168685
780.768	0.0169016
780.846	0.0167386
780.924	0.0168905
781.003	0.0169010
781.081	0.0168135
781.159	0.0167936
781.237	0.0167464
781.315	0.0166583
781.393	0.0167160
781.471	0.0167479
781.549	0.0166326
781.628	0.0166257
781.706	0.0165789
781.784	0.0165312
781.862	0.0164700
781.940	0.0163674
782.018	0.0165630
782.096	0.0164338
782.174	0.0163643
782.253	0.0164993
782.331	0.0163607
782.409	0.0163786
782.487	0.0165051
782.565	0.0165087
782.643	0.0164314
782.721	0.0165191
782.799	0.0164949
782.878	0.0165548
782.956	0.0165025
783.034	0.0166994
783.112	0.0168414
783.190	0.0166841
783.268	0.0166138
783.346	0.0166424
783.424	0.0166823
783.503	0.0166956
783.581	0.0168040
783.659	0.0167467
783.737	0.0168049
783.815	0.0167363
783.893	0.0167167
783.971	0.0169042
784.049	0.0168501
784.128	0.0167517
784.206	0.0167972
784.284	0.0168907
784.362	0.0167239
784.440	0.0167770
784.518	0.0168449
784.596	0.0166006
784.674	0.0167651
784.753	0.0165438
784.831	0.0167653
784.909	0.0166010
784.987	0.0167681
785.065	0.0168362
785.143	0.0169340
785.221	0.0167285
785.299	0.0167314
785.378	0.0167933
785.456	0.0168729
785.534	0.0170062
785.612	0.0170244
785.690	0.0169041
785.768	0.0171859
785.846	0.0170174
785.924	0.0169930
786.003	0.0171706
786.081	0.0171552
786.159	0.0170829
786.237	0.0170953
786.315	0.0170219
786.393	0.0169846
786.471	0.0171047
786.549	0.0170903
786.628	0.0169785
786.706	0.0170820
786.784	0.0169189
786.862	0.0169185
786.940	0.0168522
787.018	0.0169099
787.096	0.0168627
787.174	0.0168291
787.253	0.0168927
787.331	0.0167593
787.409	0.0166534
787.487	0.0165903
787.565	0.0167451
787.643	0.0166441
787.721	0.0165551
787.799	0.0165520
787.878	0.0165089
787.956	0.0166141
788.034	0.0164130
788.112	0.0164732
788.190	0.0164910
788.268	0.0166196
788.346	0.0168011
788.424	0.0165325
788.503	0.0165794
788.581	0.0166419
788.659	0.0165041
788.737	0.0165991
788.815	0.0166234
788.893	0.0166455
788.971	0.0167307
789.049	0.0164957
789.128	0.0167068
789.206	0.0166210
789.284	0.0165427
789.362	0.0167776
789.440	0.0166522
789.518	0.0165828
789.596	0.0166889
789.674	0.0166055
789.753	0.0167258
789.831	0.0167463
789.909	0.0167130
789.987	0.0165250
790.065	0.0167742
790.143	0.0166637
790.221	0.0167690
790.299	0.0165569
790.378	0.0166394
790.456	0.0167002
790.534	0.0167275
790.612	0.0165659
790.690	0.0166074
790.768	0.0165558
790.846	0.0165494
790.924	0.0164796
791.003	0.0165358
791.081	0.0164478
791.159	0.0165444
791.237	0.0166336
791.315	0.0164671
791.393	0.0164494
791.471	0.0163888
791.549	0.0164678
791.628	0.0165716
791.706	0.0166430
791.784	0.0165257
791.862	0.0166366
791.940	0.0165529
792.018	0.0165514
792.096	0.0166837
792.174	0.0166753
792.253	0.0165308
792.331	0.0166016
792.409	0.0166134
792.487	0.0167311
792.565	0.0166528
792.643	0.0166420
792.721	0.0166061
792.799	0.0166127
792.878	0.0166351
792.956	0.0166819
793.034	0.0165970
793.112	0.0167171
793.190	0.0168051
793.268	0.0166859
793.346	0.0166988
793.424	0.0168312
793.503	0.0167848
793.581	0.0167809
793.659	0.0168271
793.737	0.0167861
793.815	0.0168661
793.893	0.0168433
793.971	0.0168100
794.049	0.0166319
794.128	0.0167561
794.206	0.0167042
794.284	0.0166853
794.362	0.0167828
794.440	0.0168279
794.518	0.0166885
794.596	0.0167310
794.674	0.0166995
794.753	0.0166304
794.831	0.0169521
794.909	0.0168545
794.987	0.0166077
795.065	0.0165510
795.143	0.0166479
795.221	0.0167016
795.299	0.0167491
795.378	0.0166471
795.456	0.0166341
795.534	0.0166676
795.612	0.0165211
795.690	0.0166042
795.768	0.0166277
795.846	0.0165447
795.924	0.0165213
796.003	0.0165791
796.081	0.0165313
796.159	0.0164351
796.237	0.0164982
796.315	0.0164491
796.393	0.0165590
796.471	0.0165263
796.549	0.0165140
796.628	0.0165321
796.706	0.0164629
796.784	0.0166316
796.862	0.0165255
796.940	0.0164767
797.018	0.0165438
797.096	0.0167678
797.174	0.0165862
797.253	0.0165581
797.331	0.0165651
797.409	0.0166417
797.487	0.0165853
797.565	0.0165919
797.643	0.0167186
797.721	0.0167211
797.799	0.0167814
797.878	0.0167304
797.956	0.0167278
798.034	0.0167813
798.112	0.0169079
798.190	0.0168332
798.268	0.0169439
798.346	0.0168970
798.424	0.0167660
798.503	0.0169724
798.581	0.0168047
798.659	0.0169112
798.737	0.0169715
798.815	0.0169181
798.893	0.0168849
798.971	0.0168724
799.049	0.0169049
799.128	0.0168492
799.206	0.0168244
799.284	0.0168993
799.362	0.0168525
799.440	0.0167120
799.518	0.0167701
799.596	0.0168639
799.674	0.0168478
799.753	0.0168200
799.831	0.0168581
799.909	0.0169280
799.987	0.0167894
800.065	0.0166841
800.143	0.0168316
800.221	0.0167589
800.299	0.0166891
800.378	0.0166148
800.456	0.0167985
800.534	0.0166044
800.612	0.0165485
800.690	0.0165952
800.768	0.0164811
800.846	0.0164320
800.924	0.0165166
801.003	0.0165738
801.081	0.0165231
801.159	0.0164104
801.237	0.0163556
801.315	0.0165691
801.393	0.0162926
801.471	0.0164433
801.549	0.0164631
801.628	0.0163915
801.706	0.0163374
801.784	0.0164042
801.862	0.0164229
801.940	0.0165522
802.018	0.0166226
802.096	0.0165854
802.174	0.0167143
802.253	0.0166122
802.331	0.0165132
802.409	0.0168433
802.487	0.0168164
802.565	0.0168672
802.643	0.0168178
802.721	0.0168258
802.799	0.0169901
802.878	0.0168768
802.956	0.0169668
803.034	0.0169487
803.112	0.0168510
803.190	0.0170896
803.268	0.0169933
803.346	0.0170251
803.424	0.0169644
803.503	0.0169543
803.581	0.0171132
803.659	0.0169955
803.737	0.0168491
803.815	0.0169580
803.893	0.0169595
803.971	0.0168056
804.049	0.0168121
804.128	0.0168481
804.206	0.0167931
804.284	0.0169109
804.362	0.0169067
804.440	0.0169319
804.518	0.0169054
804.596	0.0168929
804.674	0.0167355
804.753	0.0167496
804.831	0.0167052
804.909	0.0167374
804.987	0.0167050
805.065	0.0167232
805.143	0.0166151
805.221	0.0164796
805.299	0.0165722
805.378	0.0166716
805.456	0.0165661
805.534	0.0163623
805.612	0.0163348
805.690	0.0164173
805.768	0.0163815
805.846	0.0162016
805.924	0.0161712
806.003	0.0162457
806.081	0.0162804
806.159	0.0163293
806.237	0.0162494
806.315	0.0162246
806.393	0.0161797
806.471	0.0164379
806.549	0.0164195
806.628	0.0164526
806.706	0.0164421
806.784	0.0165215
806.862	0.0166052
806.940	0.0165867
807.018	0.0166340
807.096	0.0167644
807.174	0.0166246
807.253	0.0166742
807.331	0.0169131
807.409	0.0168896
807.487	0.0168232
807.565	0.0168208
807.643	0.0167538
807.721	0.0168454
807.799	0.0168780
807.878	0.0167991
807.956	0.0167189
808.034	0.0168343
808.112	0.0167917
808.190	0.0165107
808.268	0.0164153
808.346	0.0167066
808.424	0.0166302
808.503	0.0164700
808.581	0.0165462
808.659	0.0166232
808.737	0.0165516
808.815	0.0164241
808.893	0.0164424
808.971	0.0164970
809.049	0.0164162
809.128	0.0165149
809.206	0.0164645
809.284	0.0164687
809.362	0.0164780
809.440	0.0164008
809.518	0.0164738
809.596	0.0165002
809.674	0.0165855
809.753	0.0165083
809.831	0.0163683
809.909	0.0164733
809.987	0.0165365
810.065	0.0164034
810.143	0.0165245
810.221	0.0167631
810.299	0.0165633
810.378	0.0165851
810.456	0.0166631
810.534	0.0166062
810.612	0.0167477
810.690	0.0167941
810.768	0.0168708
810.846	0.0167604
810.924	0.0168187
811.003	0.0169124
811.081	0.0169971
811.159	0.0168584
811.237	0.0169146
811.315	0.0168143
811.393	0.0169776
811.471	0.0168638
811.549	0.0169982
811.628	0.0168475
811.706	0.0169530
811.784	0.0168204
811.862	0.0169617
811.940	0.0169797
812.018	0.0169021
812.096	0.0168640
812.174	0.0170208
812.253	0.0168538
812.331	0.0169637
812.409	0.0170202
812.487	0.0168575
812.565	0.0170149
812.643	0.0169518
812.721	0.0169648
812.799	0.0168263
812.878	0.0167776
812.956	0.0169527
813.034	0.0168584
813.112	0.0169296
813.190	0.0168039
813.268	0.0167520
813.346	0.0167940
813.424	0.0167708
813.503	0.0167063
813.581	0.0167185
813.659	0.0167949
813.737	0.0167289
813.815	0.0167056
813.893	0.0165865
813.971	0.0166272
814.049	0.0166885
814.128	0.0165833
814.206	0.0163610
814.284	0.0164414
814.362	0.0165003
814.440	0.0165337
814.518	0.0162342
814.596	0.0161992
814.674	0.0164011
814.753	0.0164153
814.831	0.0161986
814.909	0.0163433
814.987	0.0163219
815.065	0.0163245
815.143	0.0163635
815.221	0.0163963
815.299	0.0163569
815.378	0.0163634
815.456	0.0164006
815.534	0.0164579
815.612	0.0164033
815.690	0.0163652
815.768	0.0164245
815.846	0.0165071
815.924	0.0165422
816.003	0.0165525
816.081	0.0165346
816.159	0.0165270
816.237	0.0166734
816.315	0.0167070
816.393	0.0166833
816.471	0.0166463
816.549	0.0167018
816.628	0.0166322
816.706	0.0165109
816.784	0.0166354
816.862	0.0167361
816.940	0.0167711
817.018	0.0168391
817.096	0.0166219
817.174	0.0166422
817.253	0.0166557
817.331	0.0166759
817.409	0.0167591
817.487	0.0166845
817.565	0.0165961
817.643	0.0167133
817.721	0.0167323
817.799	0.0165405
817.878	0.0164328
817.956	0.0165896
818.034	0.0166072
818.112	0.0163983
818.190	0.0166090
818.268	0.0165717
818.346	0.0164631
818.424	0.0163553
818.503	0.0163768
818.581	0.0164532
818.659	0.0165727
818.737	0.0165256
818.815	0.0164555
818.893	0.0166080
818.971	0.0164682
819.049	0.0163981
819.128	0.0166435
819.206	0.0164806
819.284	0.0164713
819.362	0.0165021
819.440	0.0164041
819.518	0.0165308
819.596	0.0165197
819.674	0.0165006
819.753	0.0166486
819.831	0.0165668
819.909	0.0166462
819.987	0.0167130
820.065	0.0167645
820.143	0.0167166
820.221	0.0167692
820.299	0.0167995
820.378	0.0169559
820.456	0.0169167
820.534	0.0169279
820.612	0.0169695
820.690	0.0169957
820.768	0.0169083
820.846	0.0169038
820.924	0.0170105
821.003	0.0170045
821.081	0.0168747
821.159	0.0168578
821.237	0.0167482
821.315	0.0168647
821.393	0.0166577
821.471	0.0168373
821.549	0.0167933
821.628	0.0166536
821.706	0.0165617
821.784	0.0165855
821.862	0.0166815
821.940	0.0167006
822.018	0.0165740
822.096	0.0166420
822.174	0.0165948
822.253	0.0166551
822.331	0.0166884
822.409	0.0166745
822.487	0.0165456
822.565	0.0166898
822.643	0.0165580
822.721	0.0166915
822.799	0.0166576
822.878	0.0165673
822.956	0.0166376
823.034	0.0167478
823.112	0.0167265
823.190	0.0164963
823.268	0.0167793
823.346	0.0168269
823.424	0.0167552
823.503	0.0168700
823.581	0.0167838
823.659	0.0167648
823.737	0.0167815
823.815	0.0168452
823.893	0.0167649
823.971	0.0167401
824.049	0.0167129
824.128	0.0166810
824.206	0.0167642
824.284	0.0166251
824.362	0.0165333
824.440	0.0166691
824.518	0.0167451
824.596	0.0165141
824.674	0.0166570
824.753	0.0167559
824.831	0.0165141
824.909	0.0166821
824.987	0.0166824
825.065	0.0165880
825.143	0.0165395
825.221	0.0165271
825.299	0.0165224
825.378	0.0165134
825.456	0.0163988
825.534	0.0164333
825.612	0.0165513
825.690	0.0163925
825.768	0.0166256
825.846	0.0163740
825.924	0.0165265
826.003	0.0166664
826.081	0.0164616
826.159	0.0164906
826.237	0.0163807
826.315	0.0164492
826.393	0.0165849
826.471	0.0164234
826.549	0.0164675
826.628	0.0163517
826.706	0.0164358
826.784	0.0164402
826.862	0.0162585
826.940	0.0162276
827.018	0.0165150
827.096	0.0165067
827.174	0.0164032
827.253	0.0164156
827.331	0.0164914
827.409	0.0164149
827.487	0.0163850
827.565	0.0163628
827.643	0.0164410
827.721	0.0164506
827.799	0.0164017
827.878	0.0163644
827.956	0.0163492
828.034	0.0164466
828.112	0.0163766
828.190	0.0163637
828.268	0.0163591
828.346	0.0163508
828.424	0.0164486
828.503	0.0163564
828.581	0.0164430
828.659	0.0164358
828.737	0.0165264
828.815	0.0164053
828.893	0.0164174
828.971	0.0164262
829.049	0.0164435
829.128	0.0164821
829.206	0.0163338
829.284	0.0165879
829.362	0.0164515
829.440	0.0163056
829.518	0.0163799
829.596	0.0165289
829.674	0.0164278
829.753	0.0164807
829.831	0.0165988
829.909	0.0165277
829.987	0.0167662
830.065	0.0167059
830.143	0.0167219
830.221	0.0166498
830.299	0.0167199
830.378	0.0167060
830.456	0.0168903
830.534	0.0168300
830.612	0.0167825
830.690	0.0167855
830.768	0.0168022
830.846	0.0168851
830.924	0.0167857
831.003	0.0167880
831.081	0.0168712
831.159	0.0168246
831.237	0.0168978
831.315	0.0169246
831.393	0.0168187
831.471	0.0167850
831.549	0.0167711
831.628	0.0168322
831.706	0.0166764
831.784	0.0166985
831.862	0.0167246
831.940	0.0168859
832.018	0.0167893
832.096	0.0166971
832.174	0.0167516
832.253	0.0165730
832.331	0.0166235
832.409	0.0165811
832.487	0.0166084
832.565	0.0166196
832.643	0.0166553
832.721	0.0166519
832.799	0.0166767
832.878	0.0166969
832.956	0.0167250
833.034	0.0167757
833.112	0.0167116
833.190	0.0167839
833.268	0.0166818
833.346	0.0166806
833.424	0.0167776
833.503	0.0166667
833.581	0.0165459
833.659	0.0167016
833.737	0.0168707
833.815	0.0168121
833.893	0.0168247
833.971	0.0168592
834.049	0.0167988
834.128	0.0168353
834.206	0.0169224
834.284	0.0170149
834.362	0.0168493
834.440	0.0169376
834.518	0.0167944
834.596	0.0166756
834.674	0.0169164
834.753	0.0167980
834.831	0.0169115
834.909	0.0167924
834.987	0.0168475
835.065	0.0169784
835.143	0.0169927
835.221	0.0169014
835.299	0.0168555
835.378	0.0169355
835.456	0.0168540
835.534	0.0168050
835.612	0.0170478
835.690	0.0169513
835.768	0.0169053
835.846	0.0169382
835.924	0.0169790
836.003	0.0168787
836.081	0.0169258
836.159	0.0170428
836.237	0.0168801
836.315	0.0169877
836.393	0.0170280
836.471	0.0168150
836.549	0.0169202
836.628	0.0168247
836.706	0.0168065
836.784	0.0169325
836.862	0.0168200
836.940	0.0167371
837.018	0.0168423
837.096	0.0169041
837.174	0.0168425
837.253	0.0166191
837.331	0.0167265
837.409	0.0166179
837.487	0.0166447
837.565	0.0165198
837.643	0.0165616
837.721	0.0165781
837.799	0.0166271
837.878	0.0165643
837.956	0.0164958
838.034	0.0166140
838.112	0.0165709
838.190	0.0164584
838.268	0.0166073
838.346	0.0165648
838.424	0.0166053
838.503	0.0163860
838.581	0.0164401
838.659	0.0165157
838.737	0.0165983
838.815	0.0164468
838.893	0.0165025
838.971	0.0166106
839.049	0.0167532
839.128	0.0165490
839.206	0.0165778
839.284	0.0164960
839.362	0.0166833
839.440	0.0167838
839.518	0.0166561
839.596	0.0166286
839.674	0.0167327
839.753	0.0166850
839.831	0.0166354
839.909	0.0167140
839.987	0.0167697
840.065	0.0167397
840.143	0.0167152
840.221	0.0168123
840.299	0.0166245
840.378	0.0166025
840.456	0.0167515
840.534	0.0166689
840.612	0.0167680
840.690	0.0165839
840.768	0.0166882
840.846	0.0167073
840.924	0.0166720
841.003	0.0166738
841.081	0.0166837
841.159	0.0166451
841.237	0.0166331
841.315	0.0166299
841.393	0.0167229
841.471	0.0166652
841.549	0.0167553
841.628	0.0166370
841.706	0.0167538
841.784	0.0165988
841.862	0.0166074
841.940	0.0166415
842.018	0.0166295
842.096	0.0166852
842.174	0.0166426
842.253	0.0166392
842.331	0.0166543
842.409	0.0166221
842.487	0.0166392
842.565	0.0166613
842.643	0.0165302
842.721	0.0165797
842.799	0.0165222
842.878	0.0164979
842.956	0.0165617
843.034	0.0166841
843.112	0.0167271
843.190	0.0165528
843.268	0.0165813
843.346	0.0166734
843.424	0.0166773
843.503	0.0166132
843.581	0.0166894
843.659	0.0167976
843.737	0.0168378
843.815	0.0167817
843.893	0.0167841
843.971	0.0169648
844.049	0.0168561
844.128	0.0169727
844.206	0.0168919
844.284	0.0168925
844.362	0.0168800
844.440	0.0167496
844.518	0.0167398
844.596	0.0167920
844.674	0.0168897
844.753	0.0167606
844.831	0.0167246
844.909	0.0167559
844.987	0.0167358
845.065	0.0166863
845.143	0.0165913
845.221	0.0166800
845.299	0.0164886
845.378	0.0166232
845.456	0.0166797
845.534	0.0166041
845.612	0.0165569
845.690	0.0165681
845.768	0.0165977
845.846	0.0164516
845.924	0.0165388
846.003	0.0165623
846.081	0.0164124
846.159	0.0165757
846.237	0.0165620
846.315	0.0163805
846.393	0.0164306
846.471	0.0164579
846.549	0.0164931
846.628	0.0166343
846.706	0.0165959
846.784	0.0165159
846.862	0.0167011
846.940	0.0166475
847.018	0.0166928
847.096	0.0167452
847.174	0.0166720
847.253	0.0167366
847.331	0.0167616
847.409	0.0166726
847.487	0.0168432
847.565	0.0166618
847.643	0.0166998
847.721	0.0167333
847.799	0.0168544
847.878	0.0167204
847.956	0.0166901
848.034	0.0166072
848.112	0.0167879
848.190	0.0165673
848.268	0.0166608
848.346	0.0166629
848.424	0.0167493
848.503	0.0167165
848.581	0.0165564
848.659	0.0166933
848.737	0.0167252
848.815	0.0167738
848.893	0.0167596
848.971	0.0167651
849.049	0.0167934
849.128	0.0168311
849.206	0.0167033
849.284	0.0167300
849.362	0.0169040
849.440	0.0168266
849.518	0.0168150
849.596	0.0168735
849.674	0.0168622
849.753	0.0167650
849.831	0.0167794
849.909	0.0168143
849.987	0.0167995
850.065	0.0169260
850.143	0.0169722
850.221	0.0168489
850.299	0.0167457
850.378	0.0168443
850.456	0.0167825
850.534	0.0167998
850.612	0.0168736
850.690	0.0168459
850.768	0.0168020
850.846	0.0168152
850.924	0.0169084
851.003	0.0167411
851.081	0.0167413
851.159	0.0169516
851.237	0.0168200
851.315	0.0167948
851.393	0.0167860
851.471	0.0167300
851.549	0.0167934
851.628	0.0167890
851.706	0.0168155
851.784	0.0166971
851.862	0.0167485
851.940	0.0169065
852.018	0.0169164
852.096	0.0167018
852.174	0.0166702
852.253	0.0167861
852.331	0.0168042
852.409	0.0167319
852.487	0.0168069
852.565	0.0167606
852.643	0.0166145
852.721	0.0166904
852.799	0.0166405
852.878	0.0167542
852.956	0.0166811
853.034	0.0167336
853.112	0.0165594
853.190	0.0166032
853.268	0.0166844
853.346	0.0166614
853.424	0.0165530
853.503	0.0166147
853.581	0.0165744
853.659	0.0166734
853.737	0.0166277
853.815	0.0167354
853.893	0.0166345
853.971	0.0165271
854.049	0.0164388
854.128	0.0166214
854.206	0.0167388
854.284	0.0167358
854.362	0.0165312
854.440	0.0166961
854.518	0.0167493
854.596	0.0165736
854.674	0.0166422
854.753	0.0166203
854.831	0.0166959
854.909	0.0168030
854.987	0.0167367
855.065	0.0166108
855.143	0.0165779
855.221	0.0166625
855.299	0.0167084
855.378	0.0167111
855.456	0.0167351
855.534	0.0167396
855.612	0.0166989
855.690	0.0165765
855.768	0.0167075
855.846	0.0168836
855.924	0.0168447
856.003	0.0167088
856.081	0.0167719
856.159	0.0168594
856.237	0.0168837
856.315	0.0167119
856.393	0.0168448
856.471	0.0166905
856.549	0.0166782
856.628	0.0167672
856.706	0.0166948
856.784	0.0168586
856.862	0.0167152
856.940	0.0166714
857.018	0.0166425
857.096	0.0168626
857.174	0.0167044
857.253	0.0167049
857.331	0.0165470
857.409	0.0167213
857.487	0.0167505
857.565	0.0166229
857.643	0.0164754
857.721	0.0166225
857.799	0.0165442
857.878	0.0166693
857.956	0.0165681
858.034	0.0166048
858.112	0.0165961
858.190	0.0166168
858.268	0.0166692
858.346	0.0165528
858.424	0.0166558
858.503	0.0166087
858.581	0.0167290
858.659	0.0167080
858.737	0.0166673
858.815	0.0166743
858.893	0.0166604
858.971	0.0167441
859.049	0.0167195
859.128	0.0166902
859.206	0.0167547
859.284	0.0167092
859.362	0.0166707
859.440	0.0168330
859.518	0.0166283
859.596	0.0167621
859.674	0.0166914
859.753	0.0166898
859.831	0.0168021
859.909	0.0166252
