06/01/2022	17:51:07	Ver.	4.1	UNKNOWN
Optical Delay	539.993571	Delta X		0.078125	Sweeps	1	Scan Rate	0/0
Coordinates	Axis 1	NaN	Axis 2	NaN	Axis 3	NaN	Axis 4	NaN	Axis 5	NaN	Axis 6	0.000000
TX Power	0.000000	RX Power	0.000000

539.994	0.0175715
540.072	0.0175674
540.150	0.0175224
540.228	0.0175416
540.306	0.0175583
540.384	0.0175022
540.462	0.0175682
540.540	0.0175833
540.619	0.0175697
540.697	0.0175577
540.775	0.0175703
540.853	0.0174438
540.931	0.0174938
541.009	0.0174874
541.087	0.0176347
541.165	0.0174693
541.244	0.0175075
541.322	0.0175233
541.400	0.0174076
541.478	0.0173090
541.556	0.0174593
541.634	0.0175940
541.712	0.0175867
541.790	0.0173893
541.869	0.0173466
541.947	0.0175963
542.025	0.0174873
542.103	0.0174740
542.181	0.0175127
542.259	0.0174913
542.337	0.0174422
542.415	0.0173866
542.494	0.0174979
542.572	0.0175542
542.650	0.0173982
542.728	0.0174582
542.806	0.0174294
542.884	0.0173622
542.962	0.0174934
543.040	0.0173647
543.119	0.0174568
543.197	0.0176456
543.275	0.0175358
543.353	0.0175513
543.431	0.0175799
543.509	0.0175343
543.587	0.0175515
543.665	0.0174915
543.744	0.0174210
543.822	0.0174339
543.900	0.0173746
543.978	0.0173944
544.056	0.0172893
544.134	0.0173834
544.212	0.0173953
544.290	0.0173477
544.369	0.0174301
544.447	0.0173904
544.525	0.0173499
544.603	0.0173820
544.681	0.0174194
544.759	0.0173701
544.837	0.0174084
544.915	0.0173694
544.994	0.0174534
545.072	0.0173276
545.150	0.0173682
545.228	0.0174261
545.306	0.0173251
545.384	0.0173238
545.462	0.0173820
545.540	0.0173359
545.619	0.0173830
545.697	0.0173853
545.775	0.0172446
545.853	0.0172833
545.931	0.0172295
546.009	0.0172333
546.087	0.0173809
546.165	0.0173169
546.244	0.0172672
546.322	0.0173721
546.400	0.0174333
546.478	0.0174495
546.556	0.0174159
546.634	0.0172724
546.712	0.0173504
546.790	0.0174763
546.869	0.0174586
546.947	0.0174522
547.025	0.0175278
547.103	0.0175930
547.181	0.0174849
547.259	0.0172878
547.337	0.0174593
547.415	0.0174790
547.494	0.0176883
547.572	0.0176223
547.650	0.0175506
547.728	0.0176617
547.806	0.0174860
547.884	0.0175365
547.962	0.0176624
548.040	0.0176481
548.119	0.0175990
548.197	0.0174638
548.275	0.0175732
548.353	0.0175446
548.431	0.0176209
548.509	0.0174528
548.587	0.0174217
548.665	0.0174194
548.744	0.0175188
548.822	0.0174401
548.900	0.0174614
548.978	0.0175487
549.056	0.0174674
549.134	0.0174818
549.212	0.0175301
549.290	0.0175085
549.369	0.0174966
549.447	0.0174519
549.525	0.0175484
549.603	0.0175963
549.681	0.0175115
549.759	0.0174830
549.837	0.0175734
549.915	0.0176018
549.994	0.0174946
550.072	0.0175555
550.150	0.0176056
550.228	0.0177345
550.306	0.0175801
550.384	0.0176092
550.462	0.0175879
550.540	0.0176154
550.619	0.0175542
550.697	0.0176762
550.775	0.0175608
550.853	0.0176581
550.931	0.0175286
551.009	0.0174938
551.087	0.0176278
551.165	0.0175989
551.244	0.0176504
551.322	0.0175270
551.400	0.0175414
551.478	0.0174684
551.556	0.0175036
551.634	0.0174017
551.712	0.0174580
551.790	0.0174358
551.869	0.0175562
551.947	0.0173838
552.025	0.0174715
552.103	0.0175378
552.181	0.0174207
552.259	0.0175568
552.337	0.0174945
552.415	0.0174344
552.494	0.0174178
552.572	0.0174902
552.650	0.0173663
552.728	0.0175023
552.806	0.0172432
552.884	0.0174011
552.962	0.0174308
553.040	0.0176054
553.119	0.0175419
553.197	0.0175318
553.275	0.0172872
553.353	0.0175184
553.431	0.0174482
553.509	0.0175170
553.587	0.0175353
553.665	0.0175994
553.744	0.0176046
553.822	0.0176063
553.900	0.0174887
553.978	0.0177477
554.056	0.0175710
554.134	0.0176376
554.212	0.0175946
554.290	0.0175390
554.369	0.0177055
554.447	0.0176746
554.525	0.0175645
554.603	0.0175626
554.681	0.0176131
554.759	0.0175359
554.837	0.0175987
554.915	0.0174548
554.994	0.0175498
555.072	0.0175066
555.150	0.0174740
555.228	0.0175208
555.306	0.0175543
555.384	0.0174324
555.462	0.0175191
555.540	0.0173621
555.619	0.0175108
555.697	0.0173889
555.775	0.0175083
555.853	0.0174796
555.931	0.0173566
556.009	0.0175292
556.087	0.0175035
556.165	0.0172650
556.244	0.0173911
556.322	0.0174974
556.400	0.0174558
556.478	0.0174445
556.556	0.0174470
556.634	0.0174385
556.712	0.0174590
556.790	0.0175699
556.869	0.0174933
556.947	0.0174895
557.025	0.0175837
557.103	0.0175657
557.181	0.0176160
557.259	0.0174253
557.337	0.0175119
557.415	0.0175288
557.494	0.0174939
557.572	0.0175793
557.650	0.0173718
557.728	0.0174271
557.806	0.0175135
557.884	0.0173882
557.962	0.0173505
558.040	0.0175195
558.119	0.0173580
558.197	0.0173578
558.275	0.0174790
558.353	0.0174463
558.431	0.0175213
558.509	0.0172684
558.587	0.0173978
558.665	0.0174404
558.744	0.0173742
558.822	0.0173804
558.900	0.0173691
558.978	0.0173849
559.056	0.0174376
559.134	0.0173791
559.212	0.0173537
559.290	0.0173914
559.369	0.0172703
559.447	0.0173016
559.525	0.0172662
559.603	0.0172483
559.681	0.0172883
559.759	0.0172678
559.837	0.0174405
559.915	0.0173611
559.994	0.0172346
560.072	0.0174731
560.150	0.0173234
560.228	0.0173846
560.306	0.0174520
560.384	0.0174260
560.462	0.0173943
560.540	0.0174521
560.619	0.0174420
560.697	0.0174362
560.775	0.0174399
560.853	0.0175521
560.931	0.0174012
561.009	0.0174645
561.087	0.0175008
561.165	0.0175984
561.244	0.0174681
561.322	0.0173628
561.400	0.0174450
561.478	0.0175314
561.556	0.0174752
561.634	0.0174074
561.712	0.0174921
561.790	0.0175728
561.869	0.0175191
561.947	0.0176091
562.025	0.0173750
562.103	0.0173917
562.181	0.0175764
562.259	0.0175009
562.337	0.0175474
562.415	0.0175365
562.494	0.0174603
562.572	0.0174696
562.650	0.0174020
562.728	0.0174158
562.806	0.0174150
562.884	0.0174773
562.962	0.0174076
563.040	0.0173959
563.119	0.0174017
563.197	0.0172314
563.275	0.0172243
563.353	0.0173483
563.431	0.0171876
563.509	0.0172232
563.587	0.0172836
563.665	0.0171868
563.744	0.0172062
563.822	0.0171573
563.900	0.0171043
563.978	0.0171735
564.056	0.0171735
564.134	0.0171738
564.212	0.0172337
564.290	0.0170773
564.369	0.0171609
564.447	0.0170647
564.525	0.0171392
564.603	0.0171902
564.681	0.0170792
564.759	0.0172317
564.837	0.0172197
564.915	0.0172361
564.994	0.0172903
565.072	0.0173464
565.150	0.0172673
565.228	0.0172610
565.306	0.0175007
565.384	0.0173950
565.462	0.0175644
565.540	0.0174782
565.619	0.0174910
565.697	0.0174864
565.775	0.0176480
565.853	0.0175880
565.931	0.0175253
566.009	0.0174471
566.087	0.0174622
566.165	0.0175629
566.244	0.0175088
566.322	0.0173836
566.400	0.0175018
566.478	0.0173756
566.556	0.0173317
566.634	0.0174056
566.712	0.0173965
566.790	0.0174064
566.869	0.0174220
566.947	0.0174136
567.025	0.0175523
567.103	0.0173492
567.181	0.0174088
567.259	0.0173292
567.337	0.0172977
567.415	0.0173696
567.494	0.0173629
567.572	0.0174220
567.650	0.0171404
567.728	0.0173154
567.806	0.0173196
567.884	0.0172536
567.962	0.0173758
568.040	0.0173108
568.119	0.0174844
568.197	0.0174351
568.275	0.0173910
568.353	0.0173779
568.431	0.0172782
568.509	0.0172578
568.587	0.0174147
568.665	0.0173644
568.744	0.0174129
568.822	0.0173373
568.900	0.0174174
568.978	0.0172842
569.056	0.0175055
569.134	0.0175549
569.212	0.0174158
569.290	0.0174152
569.369	0.0174440
569.447	0.0173492
569.525	0.0174984
569.603	0.0175661
569.681	0.0175693
569.759	0.0174725
569.837	0.0174229
569.915	0.0174809
569.994	0.0174271
570.072	0.0173019
570.150	0.0175947
570.228	0.0176411
570.306	0.0175134
570.384	0.0174691
570.462	0.0175394
570.540	0.0176189
570.619	0.0174826
570.697	0.0175037
570.775	0.0175303
570.853	0.0176498
570.931	0.0174566
571.009	0.0177045
571.087	0.0175636
571.165	0.0175603
571.244	0.0176244
571.322	0.0176453
571.400	0.0174496
571.478	0.0175002
571.556	0.0174483
571.634	0.0174954
571.712	0.0177123
571.790	0.0175937
571.869	0.0177254
571.947	0.0174880
572.025	0.0174532
572.103	0.0176519
572.181	0.0176327
572.259	0.0175342
572.337	0.0177203
572.415	0.0176262
572.494	0.0177006
572.572	0.0175438
572.650	0.0175455
572.728	0.0175698
572.806	0.0175568
572.884	0.0176173
572.962	0.0177656
573.040	0.0177742
573.119	0.0177120
573.197	0.0176528
573.275	0.0176714
573.353	0.0177932
573.431	0.0177411
573.509	0.0177300
573.587	0.0174918
573.665	0.0176115
573.744	0.0175569
573.822	0.0174940
573.900	0.0177230
573.978	0.0175219
574.056	0.0175134
574.134	0.0175069
574.212	0.0175857
574.290	0.0174918
574.369	0.0174365
574.447	0.0175218
574.525	0.0174455
574.603	0.0174629
574.681	0.0175347
574.759	0.0175263
574.837	0.0174840
574.915	0.0175829
574.994	0.0175465
575.072	0.0175886
575.150	0.0175632
575.228	0.0175060
575.306	0.0174992
575.384	0.0174969
575.462	0.0175896
575.540	0.0177127
575.619	0.0176102
575.697	0.0175744
575.775	0.0176045
575.853	0.0175486
575.931	0.0174681
576.009	0.0173778
576.087	0.0174541
576.165	0.0172984
576.244	0.0173472
576.322	0.0173486
576.400	0.0172805
576.478	0.0171770
576.556	0.0173835
576.634	0.0171600
576.712	0.0170872
576.790	0.0171606
576.869	0.0173582
576.947	0.0171638
577.025	0.0171881
577.103	0.0172501
577.181	0.0172897
577.259	0.0173923
577.337	0.0173064
577.415	0.0171957
577.494	0.0172876
577.572	0.0174078
577.650	0.0174065
577.728	0.0172674
577.806	0.0174767
577.884	0.0175204
577.962	0.0175948
578.040	0.0178053
578.119	0.0175527
578.197	0.0178126
578.275	0.0178442
578.353	0.0176615
578.431	0.0176472
578.509	0.0176379
578.587	0.0175373
578.665	0.0177271
578.744	0.0176769
578.822	0.0176000
578.900	0.0174846
578.978	0.0173177
579.056	0.0173298
579.134	0.0173083
579.212	0.0172128
579.290	0.0169660
579.369	0.0170596
579.447	0.0171017
579.525	0.0170078
579.603	0.0171271
579.681	0.0170726
579.759	0.0170869
579.837	0.0171913
579.915	0.0172279
579.994	0.0175986
580.072	0.0175852
580.150	0.0178003
580.228	0.0179609
580.306	0.0179703
580.384	0.0181306
580.462	0.0181652
580.540	0.0182085
580.619	0.0184329
580.697	0.0185094
580.775	0.0183520
580.853	0.0184866
580.931	0.0184117
581.009	0.0181738
581.087	0.0183504
581.165	0.0180000
581.244	0.0177985
581.322	0.0177051
581.400	0.0174527
581.478	0.0172064
581.556	0.0170319
581.634	0.0168801
581.712	0.0167655
581.790	0.0164376
581.869	0.0163198
581.947	0.0161154
582.025	0.0160675
582.103	0.0159135
582.181	0.0159177
582.259	0.0157497
582.337	0.0158655
582.415	0.0159765
582.494	0.0161574
582.572	0.0162759
582.650	0.0165262
582.728	0.0167529
582.806	0.0169652
582.884	0.0172182
582.962	0.0174612
583.040	0.0178373
583.119	0.0180556
583.197	0.0183614
583.275	0.0183774
583.353	0.0186563
583.431	0.0188110
583.509	0.0188883
583.587	0.0191093
583.665	0.0190816
583.744	0.0190794
583.822	0.0191606
583.900	0.0189050
583.978	0.0189107
584.056	0.0189471
584.134	0.0187400
584.212	0.0185720
584.290	0.0182783
584.369	0.0179368
584.447	0.0177779
584.525	0.0173750
584.603	0.0171507
584.681	0.0171429
584.759	0.0169561
584.837	0.0165219
584.915	0.0164193
584.994	0.0164285
585.072	0.0159424
585.150	0.0158000
585.228	0.0156956
585.306	0.0157876
585.384	0.0159087
585.462	0.0159360
585.540	0.0157805
585.619	0.0157856
585.697	0.0158528
585.775	0.0161320
585.853	0.0163692
585.931	0.0167747
586.009	0.0168289
586.087	0.0170477
586.165	0.0173957
586.244	0.0175008
586.322	0.0176290
586.400	0.0179090
586.478	0.0182141
586.556	0.0185123
586.634	0.0185529
586.712	0.0187332
586.790	0.0189382
586.869	0.0189454
586.947	0.0190968
587.025	0.0190257
587.103	0.0188950
587.181	0.0189198
587.259	0.0188330
587.337	0.0187038
587.415	0.0188753
587.494	0.0185351
587.572	0.0184957
587.650	0.0183434
587.728	0.0181625
587.806	0.0180511
587.884	0.0178310
587.962	0.0176012
588.040	0.0174770
588.119	0.0174082
588.197	0.0173063
588.275	0.0171045
588.353	0.0169181
588.431	0.0167973
588.509	0.0168127
588.587	0.0167399
588.665	0.0167133
588.744	0.0165414
588.822	0.0165460
588.900	0.0166252
588.978	0.0164690
589.056	0.0163857
589.134	0.0163707
589.212	0.0164269
589.290	0.0164384
589.369	0.0162893
589.447	0.0162743
589.525	0.0162563
589.603	0.0160628
589.681	0.0162299
589.759	0.0161232
589.837	0.0159878
589.915	0.0160594
589.994	0.0159869
590.072	0.0161896
590.150	0.0163567
590.228	0.0163748
590.306	0.0165874
590.384	0.0166137
590.462	0.0168922
590.540	0.0170052
590.619	0.0170024
590.697	0.0174046
590.775	0.0175326
590.853	0.0175634
590.931	0.0177440
591.009	0.0178561
591.087	0.0179658
591.165	0.0181607
591.244	0.0183714
591.322	0.0183939
591.400	0.0186118
591.478	0.0185498
591.556	0.0187705
591.634	0.0187186
591.712	0.0187999
591.790	0.0186958
591.869	0.0188165
591.947	0.0188390
592.025	0.0186767
592.103	0.0184766
592.181	0.0184265
592.259	0.0186696
592.337	0.0183378
592.415	0.0182891
592.494	0.0182126
592.572	0.0182367
592.650	0.0180614
592.728	0.0180768
592.806	0.0178495
592.884	0.0176754
592.962	0.0176068
593.040	0.0173801
593.119	0.0172739
593.197	0.0170399
593.275	0.0169065
593.353	0.0168336
593.431	0.0166146
593.509	0.0165640
593.587	0.0163894
593.665	0.0163305
593.744	0.0162627
593.822	0.0162342
593.900	0.0161541
593.978	0.0161257
594.056	0.0159460
594.134	0.0160577
594.212	0.0158424
594.290	0.0159696
594.369	0.0159399
594.447	0.0159507
594.525	0.0161120
594.603	0.0161554
594.681	0.0161544
594.759	0.0162650
594.837	0.0164207
594.915	0.0167789
594.994	0.0169546
595.072	0.0171814
595.150	0.0174258
595.228	0.0175536
595.306	0.0178871
595.384	0.0181142
595.462	0.0185067
595.540	0.0187478
595.619	0.0190099
595.697	0.0192410
595.775	0.0194350
595.853	0.0195830
595.931	0.0196407
596.009	0.0197453
596.087	0.0197942
596.165	0.0197955
596.244	0.0196894
596.322	0.0196666
596.400	0.0195840
596.478	0.0194225
596.556	0.0193461
596.634	0.0191248
596.712	0.0189420
596.790	0.0187283
596.869	0.0185145
596.947	0.0183788
597.025	0.0180405
597.103	0.0177564
597.181	0.0175538
597.259	0.0172886
597.337	0.0169675
597.415	0.0166636
597.494	0.0163981
597.572	0.0161214
597.650	0.0157943
597.728	0.0155307
597.806	0.0154420
597.884	0.0153472
597.962	0.0153239
598.040	0.0153696
598.119	0.0153726
598.197	0.0155145
598.275	0.0155335
598.353	0.0157526
598.431	0.0158548
598.509	0.0160741
598.587	0.0161671
598.665	0.0165061
598.744	0.0165739
598.822	0.0167749
598.900	0.0169535
598.978	0.0171011
599.056	0.0172970
599.134	0.0173722
599.212	0.0175593
599.290	0.0177555
599.369	0.0178690
599.447	0.0177612
599.525	0.0179619
599.603	0.0178750
599.681	0.0178515
599.759	0.0179408
599.837	0.0180613
599.915	0.0178114
599.994	0.0178954
600.072	0.0179196
600.150	0.0178282
600.228	0.0178096
600.306	0.0176801
600.384	0.0176192
600.462	0.0175410
600.540	0.0174204
600.619	0.0171789
600.697	0.0171478
600.775	0.0169634
600.853	0.0169206
600.931	0.0168317
601.009	0.0167359
601.087	0.0166652
601.165	0.0165145
601.244	0.0165675
601.322	0.0166180
601.400	0.0168463
601.478	0.0168539
601.556	0.0168913
601.634	0.0170987
601.712	0.0173675
601.790	0.0173731
601.869	0.0177634
601.947	0.0179165
602.025	0.0179568
602.103	0.0180788
602.181	0.0181673
602.259	0.0184010
602.337	0.0183556
602.415	0.0182803
602.494	0.0182864
602.572	0.0182000
602.650	0.0181219
602.728	0.0179520
602.806	0.0178162
602.884	0.0177203
602.962	0.0175246
603.040	0.0174406
603.119	0.0173864
603.197	0.0173230
603.275	0.0171318
603.353	0.0172453
603.431	0.0170339
603.509	0.0170308
603.587	0.0170725
603.665	0.0170928
603.744	0.0170216
603.822	0.0170362
603.900	0.0170432
603.978	0.0170062
604.056	0.0170168
604.134	0.0170991
604.212	0.0169547
604.290	0.0170479
604.369	0.0171020
604.447	0.0170882
604.525	0.0170798
604.603	0.0171070
604.681	0.0171846
604.759	0.0171417
604.837	0.0171423
604.915	0.0170409
604.994	0.0169846
605.072	0.0169994
605.150	0.0169672
605.228	0.0168937
605.306	0.0168620
605.384	0.0168330
605.462	0.0167666
605.540	0.0167439
605.619	0.0169196
605.697	0.0169160
605.775	0.0169472
605.853	0.0169228
605.931	0.0172001
606.009	0.0174709
606.087	0.0174006
606.165	0.0174678
606.244	0.0175855
606.322	0.0178283
606.400	0.0179459
606.478	0.0181489
606.556	0.0179213
606.634	0.0182191
606.712	0.0185539
606.790	0.0186373
606.869	0.0187081
606.947	0.0188263
607.025	0.0190116
607.103	0.0191308
607.181	0.0191835
607.259	0.0193291
607.337	0.0194367
607.415	0.0195240
607.494	0.0195965
607.572	0.0195597
607.650	0.0196600
607.728	0.0196230
607.806	0.0195757
607.884	0.0195775
607.962	0.0194275
608.040	0.0193452
608.119	0.0190829
608.197	0.0187226
608.275	0.0187250
608.353	0.0183242
608.431	0.0179336
608.509	0.0177831
608.587	0.0174764
608.665	0.0169916
608.744	0.0166565
608.822	0.0163440
608.900	0.0158336
608.978	0.0155582
609.056	0.0152428
609.134	0.0148460
609.212	0.0144415
609.290	0.0142462
609.369	0.0139819
609.447	0.0137644
609.525	0.0136464
609.603	0.0136098
609.681	0.0135151
609.759	0.0136827
609.837	0.0137336
609.915	0.0140853
609.994	0.0142297
610.072	0.0144424
610.150	0.0147153
610.228	0.0150888
610.306	0.0152918
610.384	0.0156998
610.462	0.0161421
610.540	0.0166582
610.619	0.0170934
610.697	0.0175314
610.775	0.0180090
610.853	0.0184458
610.931	0.0188033
611.009	0.0193088
611.087	0.0197271
611.165	0.0199388
611.244	0.0202448
611.322	0.0204225
611.400	0.0208218
611.478	0.0208611
611.556	0.0209461
611.634	0.0208851
611.712	0.0208598
611.790	0.0208526
611.869	0.0207581
611.947	0.0205370
612.025	0.0202150
612.103	0.0199119
612.181	0.0196706
612.259	0.0192336
612.337	0.0188816
612.415	0.0183829
612.494	0.0180342
612.572	0.0175266
612.650	0.0172266
612.728	0.0168408
612.806	0.0162411
612.884	0.0160007
612.962	0.0157648
613.040	0.0154572
613.119	0.0152937
613.197	0.0153270
613.275	0.0153342
613.353	0.0153037
613.431	0.0154819
613.509	0.0154499
613.587	0.0156857
613.665	0.0159696
613.744	0.0161938
613.822	0.0164716
613.900	0.0165203
613.978	0.0168178
614.056	0.0169788
614.134	0.0171933
614.212	0.0172314
614.290	0.0171799
614.369	0.0172238
614.447	0.0172449
614.525	0.0172971
614.603	0.0172123
614.681	0.0173322
614.759	0.0173554
614.837	0.0171132
614.915	0.0172723
614.994	0.0172865
615.072	0.0171867
615.150	0.0172940
615.228	0.0172722
615.306	0.0174330
615.384	0.0175058
615.462	0.0175220
615.540	0.0176637
615.619	0.0176450
615.697	0.0176094
615.775	0.0176555
615.853	0.0176769
615.931	0.0176292
616.009	0.0176421
616.087	0.0176555
616.165	0.0175394
616.244	0.0175111
616.322	0.0176464
616.400	0.0175603
616.478	0.0175076
616.556	0.0175473
616.634	0.0176118
616.712	0.0176239
616.790	0.0178159
616.869	0.0176991
616.947	0.0177269
617.025	0.0177618
617.103	0.0179069
617.181	0.0178107
617.259	0.0178973
617.337	0.0180546
617.415	0.0182671
617.494	0.0182556
617.572	0.0181897
617.650	0.0181609
617.728	0.0180976
617.806	0.0179968
617.884	0.0180004
617.962	0.0178133
618.040	0.0176141
618.119	0.0175876
618.197	0.0171539
618.275	0.0172155
618.353	0.0170030
618.431	0.0167822
618.509	0.0165712
618.587	0.0166153
618.665	0.0165501
618.744	0.0166503
618.822	0.0165662
618.900	0.0166509
618.978	0.0166027
619.056	0.0166521
619.134	0.0167432
619.212	0.0171226
619.290	0.0171144
619.369	0.0173587
619.447	0.0174514
619.525	0.0175280
619.603	0.0175211
619.681	0.0178986
619.759	0.0178521
619.837	0.0178069
619.915	0.0179308
619.994	0.0179913
620.072	0.0178138
620.150	0.0178025
620.228	0.0176881
620.306	0.0176418
620.384	0.0175047
620.462	0.0175704
620.540	0.0172932
620.619	0.0173102
620.697	0.0171701
620.775	0.0172105
620.853	0.0170921
620.931	0.0171680
621.009	0.0170702
621.087	0.0170317
621.165	0.0168622
621.244	0.0169730
621.322	0.0170033
621.400	0.0170228
621.478	0.0170983
621.556	0.0171450
621.634	0.0172580
621.712	0.0173650
621.790	0.0173350
621.869	0.0175847
621.947	0.0176367
622.025	0.0176019
622.103	0.0177276
622.181	0.0176716
622.259	0.0177378
622.337	0.0177785
622.415	0.0177744
622.494	0.0175687
622.572	0.0177795
622.650	0.0177486
622.728	0.0176913
622.806	0.0175072
622.884	0.0175894
622.962	0.0174973
623.040	0.0174638
623.119	0.0172967
623.197	0.0172057
623.275	0.0173234
623.353	0.0172934
623.431	0.0171505
623.509	0.0171618
623.587	0.0171171
623.665	0.0171529
623.744	0.0171397
623.822	0.0171432
623.900	0.0171185
623.978	0.0171532
624.056	0.0171454
624.134	0.0171496
624.212	0.0172394
624.290	0.0172954
624.369	0.0174261
624.447	0.0173631
624.525	0.0174392
624.603	0.0172894
624.681	0.0172824
624.759	0.0172423
624.837	0.0172296
624.915	0.0171490
624.994	0.0170449
625.072	0.0172186
625.150	0.0171981
625.228	0.0170898
625.306	0.0172303
625.384	0.0171954
625.462	0.0171970
625.540	0.0171632
625.619	0.0171397
625.697	0.0171581
625.775	0.0172493
625.853	0.0174210
625.931	0.0174837
626.009	0.0173099
626.087	0.0172975
626.165	0.0173876
626.244	0.0174957
626.322	0.0175174
626.400	0.0174300
626.478	0.0175667
626.556	0.0176260
626.634	0.0174878
626.712	0.0178752
626.790	0.0179520
626.869	0.0179694
626.947	0.0179504
627.025	0.0182515
627.103	0.0184296
627.181	0.0183084
627.259	0.0184401
627.337	0.0186077
627.415	0.0186079
627.494	0.0187061
627.572	0.0187563
627.650	0.0187062
627.728	0.0186176
627.806	0.0186028
627.884	0.0185870
627.962	0.0183871
628.040	0.0183131
628.119	0.0180837
628.197	0.0179741
628.275	0.0177796
628.353	0.0175943
628.431	0.0176191
628.509	0.0173889
628.587	0.0170526
628.665	0.0168080
628.744	0.0166554
628.822	0.0165053
628.900	0.0162452
628.978	0.0160860
629.056	0.0159607
629.134	0.0157967
629.212	0.0156431
629.290	0.0155074
629.369	0.0156099
629.447	0.0156100
629.525	0.0155309
629.603	0.0158224
629.681	0.0157146
629.759	0.0157678
629.837	0.0159382
629.915	0.0161634
629.994	0.0163593
630.072	0.0165379
630.150	0.0168134
630.228	0.0170193
630.306	0.0172184
630.384	0.0172547
630.462	0.0175944
630.540	0.0177875
630.619	0.0179391
630.697	0.0181078
630.775	0.0183801
630.853	0.0185115
630.931	0.0185818
631.009	0.0186908
631.087	0.0187978
631.165	0.0189339
631.244	0.0188719
631.322	0.0190607
631.400	0.0188795
631.478	0.0189069
631.556	0.0189114
631.634	0.0187785
631.712	0.0185725
631.790	0.0186309
631.869	0.0186264
631.947	0.0184650
632.025	0.0184088
632.103	0.0184686
632.181	0.0183701
632.259	0.0184000
632.337	0.0183214
632.415	0.0185058
632.494	0.0183426
632.572	0.0181895
632.650	0.0182174
632.728	0.0182432
632.806	0.0180489
632.884	0.0179813
632.962	0.0178085
633.040	0.0177188
633.119	0.0174839
633.197	0.0174895
633.275	0.0171472
633.353	0.0171095
633.431	0.0168034
633.509	0.0166412
633.587	0.0165422
633.665	0.0164194
633.744	0.0164441
633.822	0.0163165
633.900	0.0162627
633.978	0.0162959
634.056	0.0162325
634.134	0.0164253
634.212	0.0164204
634.290	0.0164139
634.369	0.0164741
634.447	0.0166577
634.525	0.0165441
634.603	0.0165986
634.681	0.0167039
634.759	0.0166298
634.837	0.0167407
634.915	0.0167858
634.994	0.0166760
635.072	0.0169119
635.150	0.0168587
635.228	0.0169537
635.306	0.0168130
635.384	0.0168638
635.462	0.0168845
635.540	0.0169759
635.619	0.0170305
635.697	0.0170487
635.775	0.0171607
635.853	0.0171754
635.931	0.0172978
636.009	0.0173203
636.087	0.0172562
636.165	0.0173722
636.244	0.0173514
636.322	0.0173669
636.400	0.0173788
636.478	0.0173217
636.556	0.0171909
636.634	0.0171903
636.712	0.0173086
636.790	0.0173435
636.869	0.0172319
636.947	0.0172545
637.025	0.0174020
637.103	0.0175199
637.181	0.0173568
637.259	0.0175737
637.337	0.0178397
637.415	0.0177930
637.494	0.0178312
637.572	0.0177959
637.650	0.0178938
637.728	0.0180807
637.806	0.0181475
637.884	0.0182620
637.962	0.0184323
638.040	0.0184885
638.119	0.0185019
638.197	0.0186478
638.275	0.0187141
638.353	0.0187936
638.431	0.0188506
638.509	0.0189144
638.587	0.0188609
638.665	0.0188757
638.744	0.0187360
638.822	0.0185154
638.900	0.0183936
638.978	0.0182264
639.056	0.0179972
639.134	0.0178340
639.212	0.0174860
639.290	0.0171384
639.369	0.0170293
639.447	0.0167627
639.525	0.0165906
639.603	0.0164458
639.681	0.0160474
639.759	0.0158470
639.837	0.0156774
639.915	0.0156730
639.994	0.0156410
640.072	0.0156036
640.150	0.0156300
640.228	0.0156093
640.306	0.0156342
640.384	0.0157351
640.462	0.0158694
640.540	0.0159329
640.619	0.0161209
640.697	0.0162375
640.775	0.0162924
640.853	0.0163940
640.931	0.0165948
641.009	0.0168941
641.087	0.0171888
641.165	0.0172063
641.244	0.0174847
641.322	0.0177484
641.400	0.0178178
641.478	0.0179625
641.556	0.0181214
641.634	0.0181128
641.712	0.0184599
641.790	0.0186930
641.869	0.0186989
641.947	0.0187608
642.025	0.0189122
642.103	0.0188868
642.181	0.0189579
642.259	0.0188638
642.337	0.0187631
642.415	0.0188560
642.494	0.0186331
642.572	0.0184273
642.650	0.0184205
642.728	0.0183247
642.806	0.0181276
642.884	0.0179605
642.962	0.0178387
643.040	0.0176254
643.119	0.0174845
643.197	0.0173246
643.275	0.0172966
643.353	0.0170701
643.431	0.0169261
643.509	0.0168322
643.587	0.0169407
643.665	0.0166924
643.744	0.0165604
643.822	0.0166711
643.900	0.0167664
643.978	0.0166976
644.056	0.0165885
644.134	0.0167599
644.212	0.0168866
644.290	0.0168346
644.369	0.0169553
644.447	0.0169991
644.525	0.0169750
644.603	0.0172471
644.681	0.0171384
644.759	0.0174828
644.837	0.0173318
644.915	0.0174549
644.994	0.0176915
645.072	0.0179218
645.150	0.0178439
645.228	0.0180163
645.306	0.0180910
645.384	0.0181423
645.462	0.0183284
645.540	0.0181991
645.619	0.0181446
645.697	0.0182193
645.775	0.0181078
645.853	0.0181749
645.931	0.0181441
646.009	0.0181059
646.087	0.0180029
646.165	0.0178802
646.244	0.0177466
646.322	0.0177422
646.400	0.0177290
646.478	0.0176341
646.556	0.0175866
646.634	0.0173166
646.712	0.0172186
646.790	0.0170688
646.869	0.0171400
646.947	0.0170647
647.025	0.0169623
647.103	0.0169259
647.181	0.0168295
647.259	0.0168574
647.337	0.0168955
647.415	0.0168810
647.494	0.0169762
647.572	0.0168919
647.650	0.0168317
647.728	0.0169167
647.806	0.0171214
647.884	0.0171038
647.962	0.0170898
648.040	0.0170717
648.119	0.0172018
648.197	0.0172855
648.275	0.0172753
648.353	0.0173857
648.431	0.0173643
648.509	0.0174133
648.587	0.0175591
648.665	0.0175930
648.744	0.0176434
648.822	0.0176592
648.900	0.0177061
648.978	0.0175952
649.056	0.0175326
649.134	0.0176349
649.212	0.0175861
649.290	0.0177027
649.369	0.0174986
649.447	0.0174613
649.525	0.0176469
649.603	0.0174397
649.681	0.0173002
649.759	0.0172955
649.837	0.0172523
649.915	0.0171200
649.994	0.0170517
650.072	0.0167793
650.150	0.0168385
650.228	0.0166798
650.306	0.0165176
650.384	0.0165268
650.462	0.0166607
650.540	0.0165723
650.619	0.0166433
650.697	0.0164899
650.775	0.0165217
650.853	0.0166573
650.931	0.0165873
651.009	0.0168295
651.087	0.0168767
651.165	0.0169279
651.244	0.0170570
651.322	0.0171821
651.400	0.0171509
651.478	0.0173773
651.556	0.0174752
651.634	0.0175318
651.712	0.0177139
651.790	0.0176942
651.869	0.0177139
651.947	0.0177328
652.025	0.0178549
652.103	0.0177409
652.181	0.0179411
652.259	0.0178633
652.337	0.0178149
652.415	0.0179046
652.494	0.0180415
652.572	0.0181470
652.650	0.0180157
652.728	0.0183443
652.806	0.0181293
652.884	0.0182450
652.962	0.0181941
653.040	0.0182355
653.119	0.0182337
653.197	0.0182656
653.275	0.0180957
653.353	0.0180397
653.431	0.0180486
653.509	0.0179076
653.587	0.0178139
653.665	0.0177863
653.744	0.0175302
653.822	0.0174944
653.900	0.0173576
653.978	0.0173936
654.056	0.0172512
654.134	0.0171645
654.212	0.0171506
654.290	0.0170672
654.369	0.0171698
654.447	0.0171321
654.525	0.0170457
654.603	0.0171021
654.681	0.0169964
654.759	0.0170898
654.837	0.0171296
654.915	0.0169975
654.994	0.0170947
655.072	0.0169412
655.150	0.0169035
655.228	0.0170039
655.306	0.0169324
655.384	0.0169777
655.462	0.0170803
655.540	0.0170597
655.619	0.0170837
655.697	0.0170987
655.775	0.0172582
655.853	0.0172213
655.931	0.0172720
656.009	0.0173905
656.087	0.0174519
656.165	0.0175787
656.244	0.0176830
656.322	0.0176430
656.400	0.0176302
656.478	0.0175990
656.556	0.0176925
656.634	0.0177212
656.712	0.0177361
656.790	0.0178545
656.869	0.0176878
656.947	0.0178504
657.025	0.0177853
657.103	0.0178017
657.181	0.0176820
657.259	0.0177236
657.337	0.0176540
657.415	0.0175504
657.494	0.0175076
657.572	0.0174005
657.650	0.0174760
657.728	0.0175296
657.806	0.0172673
657.884	0.0171218
657.962	0.0171424
658.040	0.0170464
658.119	0.0171274
658.197	0.0170469
658.275	0.0170800
658.353	0.0170047
658.431	0.0171355
658.509	0.0171943
658.587	0.0172025
658.665	0.0171870
658.744	0.0172581
658.822	0.0174886
658.900	0.0175269
658.978	0.0174760
659.056	0.0176070
659.134	0.0178251
659.212	0.0178299
659.290	0.0177773
659.369	0.0179621
659.447	0.0179605
659.525	0.0179478
659.603	0.0180693
659.681	0.0179314
659.759	0.0179237
659.837	0.0178048
659.915	0.0178000
659.994	0.0178168
660.072	0.0177979
660.150	0.0177759
660.228	0.0177871
660.306	0.0177383
660.384	0.0176568
660.462	0.0177025
660.540	0.0177393
660.619	0.0175092
660.697	0.0175515
660.775	0.0175206
660.853	0.0174572
660.931	0.0174397
661.009	0.0174620
661.087	0.0171811
661.165	0.0172102
661.244	0.0172743
661.322	0.0170711
661.400	0.0169954
661.478	0.0169671
661.556	0.0169159
661.634	0.0168842
661.712	0.0168013
661.790	0.0167669
661.869	0.0167824
661.947	0.0168192
662.025	0.0170248
662.103	0.0167537
662.181	0.0168676
662.259	0.0169711
662.337	0.0168533
662.415	0.0169118
662.494	0.0169377
662.572	0.0168755
662.650	0.0170860
662.728	0.0170341
662.806	0.0170225
662.884	0.0172149
662.962	0.0171366
663.040	0.0170672
663.119	0.0173331
663.197	0.0173387
663.275	0.0174747
663.353	0.0175356
663.431	0.0174719
663.509	0.0175739
663.587	0.0176060
663.665	0.0177300
663.744	0.0176991
663.822	0.0176204
663.900	0.0177525
663.978	0.0177233
664.056	0.0178130
664.134	0.0176560
664.212	0.0177875
664.290	0.0177482
664.369	0.0176929
664.447	0.0176690
664.525	0.0174933
664.603	0.0175516
664.681	0.0174827
664.759	0.0173622
664.837	0.0174321
664.915	0.0174021
664.994	0.0173948
665.072	0.0172357
665.150	0.0171717
665.228	0.0170932
665.306	0.0170955
665.384	0.0170132
665.462	0.0169707
665.540	0.0169011
665.619	0.0170112
665.697	0.0169851
665.775	0.0169006
665.853	0.0169251
665.931	0.0170423
666.009	0.0170107
666.087	0.0170820
666.165	0.0171451
666.244	0.0171335
666.322	0.0171217
666.400	0.0171976
666.478	0.0174524
666.556	0.0174660
666.634	0.0174552
666.712	0.0174097
666.790	0.0173413
666.869	0.0175434
666.947	0.0175062
667.025	0.0175925
667.103	0.0176234
667.181	0.0176249
667.259	0.0175078
667.337	0.0175474
667.415	0.0176633
667.494	0.0174670
667.572	0.0175063
667.650	0.0175208
667.728	0.0175577
667.806	0.0175184
667.884	0.0174184
667.962	0.0175238
668.040	0.0173861
668.119	0.0172422
668.197	0.0172447
668.275	0.0173490
668.353	0.0172077
668.431	0.0171696
668.509	0.0172645
668.587	0.0172026
668.665	0.0171105
668.744	0.0170488
668.822	0.0172533
668.900	0.0171059
668.978	0.0171086
669.056	0.0172247
669.134	0.0170789
669.212	0.0170759
669.290	0.0170748
669.369	0.0172050
669.447	0.0170741
669.525	0.0171562
669.603	0.0170265
669.681	0.0172364
669.759	0.0171443
669.837	0.0172541
669.915	0.0173640
669.994	0.0172957
670.072	0.0174795
670.150	0.0174034
670.228	0.0174417
670.306	0.0175507
670.384	0.0174701
670.462	0.0174603
670.540	0.0176498
670.619	0.0175329
670.697	0.0175414
670.775	0.0176330
670.853	0.0174834
670.931	0.0175747
671.009	0.0176360
671.087	0.0176109
671.165	0.0177314
671.244	0.0176772
671.322	0.0176672
671.400	0.0175652
671.478	0.0176283
671.556	0.0176077
671.634	0.0177876
671.712	0.0177567
671.790	0.0175908
671.869	0.0176678
671.947	0.0176036
672.025	0.0176775
672.103	0.0176183
672.181	0.0176383
672.259	0.0176432
672.337	0.0175996
672.415	0.0177512
672.494	0.0176759
672.572	0.0176115
672.650	0.0176552
672.728	0.0177789
672.806	0.0178153
672.884	0.0177321
672.962	0.0175795
673.040	0.0177869
673.119	0.0176320
673.197	0.0178118
673.275	0.0176483
673.353	0.0176030
673.431	0.0176067
673.509	0.0175562
673.587	0.0176310
673.665	0.0175461
673.744	0.0173853
673.822	0.0174753
673.900	0.0174911
673.978	0.0175330
674.056	0.0175346
674.134	0.0173539
674.212	0.0175320
674.290	0.0174696
674.369	0.0174550
674.447	0.0176671
674.525	0.0178122
674.603	0.0177264
674.681	0.0176418
674.759	0.0176037
674.837	0.0177374
674.915	0.0177771
674.994	0.0177566
675.072	0.0177610
675.150	0.0177690
675.228	0.0177713
675.306	0.0180179
675.384	0.0177371
675.462	0.0176141
675.540	0.0178690
675.619	0.0178241
675.697	0.0177068
675.775	0.0175771
675.853	0.0175731
675.931	0.0176017
676.009	0.0175783
676.087	0.0175115
676.165	0.0173733
676.244	0.0173584
676.322	0.0173342
676.400	0.0172057
676.478	0.0172597
676.556	0.0171069
676.634	0.0171194
676.712	0.0169591
676.790	0.0171133
676.869	0.0171242
676.947	0.0169033
677.025	0.0169676
677.103	0.0168816
677.181	0.0169276
677.259	0.0169321
677.337	0.0169409
677.415	0.0168794
677.494	0.0168136
677.572	0.0166879
677.650	0.0168552
677.728	0.0169895
677.806	0.0169334
677.884	0.0167332
677.962	0.0168076
678.040	0.0169614
678.119	0.0169996
678.197	0.0169294
678.275	0.0169820
678.353	0.0169182
678.431	0.0169627
678.509	0.0170074
678.587	0.0168980
678.665	0.0169457
678.744	0.0168615
678.822	0.0169543
678.900	0.0170033
678.978	0.0171619
679.056	0.0171275
679.134	0.0170240
679.212	0.0172514
679.290	0.0173412
679.369	0.0172585
679.447	0.0173277
679.525	0.0174281
679.603	0.0174232
679.681	0.0175965
679.759	0.0176400
679.837	0.0175816
679.915	0.0176498
679.994	0.0176887
680.072	0.0177266
680.150	0.0176788
680.228	0.0178614
680.306	0.0177911
680.384	0.0176823
680.462	0.0176719
680.540	0.0178992
680.619	0.0177905
680.697	0.0176991
680.775	0.0178352
680.853	0.0176994
680.931	0.0177473
681.009	0.0176968
681.087	0.0176437
681.165	0.0176112
681.244	0.0175150
681.322	0.0175214
681.400	0.0175381
681.478	0.0174851
681.556	0.0173366
681.634	0.0172038
681.712	0.0172349
681.790	0.0171561
681.869	0.0170516
681.947	0.0170297
682.025	0.0171291
682.103	0.0169919
682.181	0.0168913
682.259	0.0169449
682.337	0.0170051
682.415	0.0169850
682.494	0.0170507
682.572	0.0171132
682.650	0.0170977
682.728	0.0172245
682.806	0.0172983
682.884	0.0172962
682.962	0.0172980
683.040	0.0173225
683.119	0.0173833
683.197	0.0174647
683.275	0.0174969
683.353	0.0174931
683.431	0.0175828
683.509	0.0175650
683.587	0.0176300
683.665	0.0175864
683.744	0.0176112
683.822	0.0176984
683.900	0.0176042
683.978	0.0175566
684.056	0.0175898
684.134	0.0175671
684.212	0.0175845
684.290	0.0173971
684.369	0.0174766
684.447	0.0174676
684.525	0.0174796
684.603	0.0174554
684.681	0.0173460
684.759	0.0174611
684.837	0.0175703
684.915	0.0173681
684.994	0.0171797
685.072	0.0173483
685.150	0.0174937
685.228	0.0172054
685.306	0.0170541
685.384	0.0172369
685.462	0.0172707
685.540	0.0172227
685.619	0.0172946
685.697	0.0172457
685.775	0.0170995
685.853	0.0172597
685.931	0.0173154
686.009	0.0174902
686.087	0.0174751
686.165	0.0173409
686.244	0.0174001
686.322	0.0174424
686.400	0.0174545
686.478	0.0174379
686.556	0.0175356
686.634	0.0176258
686.712	0.0175828
686.790	0.0175801
686.869	0.0175469
686.947	0.0176794
687.025	0.0175705
687.103	0.0176426
687.181	0.0176499
687.259	0.0176176
687.337	0.0177193
687.415	0.0177853
687.494	0.0176327
687.572	0.0176846
687.650	0.0176795
687.728	0.0176728
687.806	0.0177364
687.884	0.0176604
687.962	0.0176225
688.040	0.0176911
688.119	0.0176999
688.197	0.0176206
688.275	0.0175685
688.353	0.0175955
688.431	0.0175960
688.509	0.0174593
688.587	0.0173929
688.665	0.0174574
688.744	0.0174554
688.822	0.0176350
688.900	0.0176504
688.978	0.0174173
689.056	0.0174427
689.134	0.0174327
689.212	0.0173821
689.290	0.0174475
689.369	0.0173659
689.447	0.0175100
689.525	0.0173277
689.603	0.0173616
689.681	0.0172623
689.759	0.0173413
689.837	0.0173009
689.915	0.0172633
689.994	0.0173802
690.072	0.0172462
690.150	0.0173228
690.228	0.0171578
690.306	0.0172139
690.384	0.0174427
690.462	0.0173096
690.540	0.0172376
690.619	0.0173318
690.697	0.0171645
690.775	0.0172305
690.853	0.0172260
690.931	0.0172363
691.009	0.0171634
691.087	0.0174048
691.165	0.0173835
691.244	0.0171234
691.322	0.0175027
691.400	0.0173346
691.478	0.0173471
691.556	0.0173849
691.634	0.0174313
691.712	0.0175437
691.790	0.0174921
691.869	0.0174827
691.947	0.0175359
692.025	0.0175198
692.103	0.0175797
692.181	0.0176432
692.259	0.0176055
692.337	0.0176373
692.415	0.0175497
692.494	0.0176666
692.572	0.0175893
692.650	0.0175664
692.728	0.0175965
692.806	0.0177237
692.884	0.0177283
692.962	0.0175214
693.040	0.0176962
693.119	0.0177570
693.197	0.0175231
693.275	0.0176928
693.353	0.0176623
693.431	0.0175586
693.509	0.0175989
693.587	0.0176727
693.665	0.0176019
693.744	0.0175959
693.822	0.0174900
693.900	0.0175046
693.978	0.0175292
694.056	0.0174374
694.134	0.0173495
694.212	0.0173808
694.290	0.0174019
694.369	0.0172004
694.447	0.0172378
694.525	0.0172526
694.603	0.0172658
694.681	0.0171252
694.759	0.0172700
694.837	0.0172163
694.915	0.0172356
694.994	0.0172032
695.072	0.0172403
695.150	0.0173651
695.228	0.0174634
695.306	0.0173152
695.384	0.0171344
695.462	0.0173226
695.540	0.0173314
695.619	0.0173105
695.697	0.0173417
695.775	0.0173023
695.853	0.0174777
695.931	0.0174324
696.009	0.0173497
696.087	0.0173164
696.165	0.0173912
696.244	0.0174164
696.322	0.0173096
696.400	0.0173360
696.478	0.0174112
696.556	0.0174826
696.634	0.0176060
696.712	0.0173755
696.790	0.0174216
696.869	0.0174248
696.947	0.0174120
697.025	0.0174870
697.103	0.0174191
697.181	0.0174024
697.259	0.0175481
697.337	0.0174661
697.415	0.0174599
697.494	0.0174855
697.572	0.0174078
697.650	0.0175852
697.728	0.0175552
697.806	0.0174238
697.884	0.0175684
697.962	0.0174886
698.040	0.0175286
698.119	0.0175590
698.197	0.0175595
698.275	0.0175218
698.353	0.0177048
698.431	0.0175184
698.509	0.0175968
698.587	0.0177414
698.665	0.0175903
698.744	0.0175841
698.822	0.0177467
698.900	0.0177477
698.978	0.0175277
699.056	0.0176795
699.134	0.0177312
699.212	0.0176683
699.290	0.0177130
699.369	0.0174912
699.447	0.0175764
699.525	0.0175087
699.603	0.0175027
699.681	0.0174868
699.759	0.0173112
699.837	0.0174671
699.915	0.0172025
699.994	0.0172800
700.072	0.0171889
700.150	0.0171865
700.228	0.0172789
700.306	0.0171638
700.384	0.0170803
700.462	0.0171938
700.540	0.0171899
700.619	0.0170498
700.697	0.0170870
700.775	0.0171662
700.853	0.0171033
700.931	0.0170961
701.009	0.0172701
701.087	0.0171266
701.165	0.0170708
701.244	0.0168810
701.322	0.0171971
701.400	0.0172357
701.478	0.0172906
701.556	0.0172440
701.634	0.0172765
701.712	0.0172808
701.790	0.0173288
701.869	0.0171443
701.947	0.0172717
702.025	0.0173276
702.103	0.0173845
702.181	0.0174147
702.259	0.0174023
702.337	0.0174677
702.415	0.0173425
702.494	0.0172771
702.572	0.0174500
702.650	0.0174727
702.728	0.0174602
702.806	0.0174385
702.884	0.0175752
702.962	0.0173519
703.040	0.0174431
703.119	0.0175361
703.197	0.0175505
703.275	0.0175085
703.353	0.0176581
703.431	0.0176028
703.509	0.0174580
703.587	0.0174902
703.665	0.0175961
703.744	0.0176036
703.822	0.0176520
703.900	0.0177193
703.978	0.0177013
704.056	0.0176241
704.134	0.0175670
704.212	0.0175179
704.290	0.0176161
704.369	0.0177801
704.447	0.0176192
704.525	0.0175068
704.603	0.0175423
704.681	0.0174648
704.759	0.0175761
704.837	0.0175625
704.915	0.0175620
704.994	0.0176699
705.072	0.0175906
705.150	0.0174152
705.228	0.0173691
705.306	0.0175050
705.384	0.0174361
705.462	0.0172822
705.540	0.0172730
705.619	0.0174104
705.697	0.0173678
705.775	0.0171135
705.853	0.0172406
705.931	0.0170090
706.009	0.0172958
706.087	0.0171709
706.165	0.0171424
706.244	0.0170958
706.322	0.0170580
706.400	0.0172503
706.478	0.0171256
706.556	0.0174302
706.634	0.0170872
706.712	0.0170290
706.790	0.0171653
706.869	0.0172350
706.947	0.0170924
707.025	0.0172620
707.103	0.0172314
707.181	0.0173603
707.259	0.0174258
707.337	0.0173537
707.415	0.0175314
707.494	0.0176046
707.572	0.0176148
707.650	0.0176070
707.728	0.0177800
707.806	0.0177230
707.884	0.0180346
707.962	0.0179472
708.040	0.0178873
708.119	0.0178152
708.197	0.0180318
708.275	0.0179561
708.353	0.0178201
708.431	0.0179308
708.509	0.0179355
708.587	0.0178500
708.665	0.0177672
708.744	0.0179997
708.822	0.0178665
708.900	0.0178580
708.978	0.0178356
709.056	0.0178867
709.134	0.0176606
709.212	0.0175640
709.290	0.0177267
709.369	0.0175192
709.447	0.0176064
709.525	0.0177711
709.603	0.0175457
709.681	0.0174564
709.759	0.0174329
709.837	0.0173297
709.915	0.0173327
709.994	0.0175555
710.072	0.0174442
710.150	0.0173586
710.228	0.0173897
710.306	0.0174025
710.384	0.0175089
710.462	0.0174363
710.540	0.0174700
710.619	0.0174338
710.697	0.0174575
710.775	0.0175604
710.853	0.0175837
710.931	0.0174494
711.009	0.0175130
711.087	0.0175680
711.165	0.0174950
711.244	0.0175549
711.322	0.0176172
711.400	0.0176284
711.478	0.0174428
711.556	0.0174950
711.634	0.0176387
711.712	0.0174209
711.790	0.0174236
711.869	0.0175548
711.947	0.0175754
712.025	0.0173532
712.103	0.0173812
712.181	0.0174015
712.259	0.0173220
712.337	0.0174501
712.415	0.0174509
712.494	0.0172877
712.572	0.0172796
712.650	0.0174908
712.728	0.0174976
712.806	0.0172129
712.884	0.0173075
712.962	0.0173643
713.040	0.0174763
713.119	0.0173505
713.197	0.0173610
713.275	0.0173930
713.353	0.0174369
713.431	0.0174754
713.509	0.0175697
713.587	0.0175632
713.665	0.0174606
713.744	0.0173702
713.822	0.0174792
713.900	0.0175597
713.978	0.0174940
714.056	0.0175940
714.134	0.0174873
714.212	0.0175795
714.290	0.0175069
714.369	0.0175563
714.447	0.0174917
714.525	0.0174854
714.603	0.0174493
714.681	0.0173540
714.759	0.0176018
714.837	0.0174811
714.915	0.0173186
714.994	0.0173088
715.072	0.0172256
715.150	0.0172316
715.228	0.0172333
715.306	0.0171670
715.384	0.0171468
715.462	0.0171747
715.540	0.0170920
715.619	0.0170342
715.697	0.0168920
715.775	0.0170072
715.853	0.0169256
715.931	0.0170425
716.009	0.0170647
716.087	0.0170588
716.165	0.0170380
716.244	0.0170342
716.322	0.0171783
716.400	0.0169732
716.478	0.0171028
716.556	0.0172186
716.634	0.0172346
716.712	0.0170945
716.790	0.0172292
716.869	0.0173644
716.947	0.0171413
717.025	0.0172529
717.103	0.0173540
717.181	0.0172188
717.259	0.0171934
717.337	0.0174358
717.415	0.0174234
717.494	0.0174543
717.572	0.0173999
717.650	0.0175384
717.728	0.0175129
717.806	0.0175585
717.884	0.0176160
717.962	0.0174837
718.040	0.0175763
718.119	0.0175590
718.197	0.0176545
718.275	0.0175385
718.353	0.0175308
718.431	0.0176140
718.509	0.0178300
718.587	0.0175873
718.665	0.0176213
718.744	0.0174911
718.822	0.0175854
718.900	0.0175391
718.978	0.0176315
719.056	0.0174315
719.134	0.0176485
719.212	0.0176614
719.290	0.0175609
719.369	0.0175111
719.447	0.0175452
719.525	0.0175533
719.603	0.0176528
719.681	0.0175758
719.759	0.0174753
719.837	0.0175180
719.915	0.0175478
719.994	0.0175414
720.072	0.0174884
720.150	0.0176305
720.228	0.0176517
720.306	0.0176628
720.384	0.0175747
720.462	0.0176619
720.540	0.0176548
720.619	0.0175556
720.697	0.0175684
720.775	0.0178078
720.853	0.0176796
720.931	0.0175333
721.009	0.0178304
721.087	0.0176527
721.165	0.0177402
721.244	0.0176130
721.322	0.0175138
721.400	0.0175743
721.478	0.0177848
721.556	0.0176762
721.634	0.0175244
721.712	0.0173098
721.790	0.0174966
721.869	0.0173744
721.947	0.0174662
722.025	0.0174722
722.103	0.0174253
722.181	0.0175274
722.259	0.0174686
722.337	0.0175428
722.415	0.0175475
722.494	0.0174234
722.572	0.0175092
722.650	0.0175047
722.728	0.0173563
722.806	0.0174500
722.884	0.0173788
722.962	0.0173083
723.040	0.0175153
723.119	0.0174361
723.197	0.0172588
723.275	0.0174055
723.353	0.0172659
723.431	0.0172895
723.509	0.0173391
723.587	0.0174249
723.665	0.0174936
723.744	0.0173270
723.822	0.0172895
723.900	0.0173582
723.978	0.0173291
724.056	0.0172238
724.134	0.0173855
724.212	0.0172346
724.290	0.0172169
724.369	0.0172192
724.447	0.0172715
724.525	0.0171987
724.603	0.0172701
724.681	0.0172990
724.759	0.0172200
724.837	0.0172011
724.915	0.0174052
724.994	0.0174021
725.072	0.0171914
725.150	0.0172453
725.228	0.0172672
725.306	0.0172440
725.384	0.0172397
725.462	0.0171478
725.540	0.0171009
725.619	0.0171641
725.697	0.0172105
725.775	0.0172788
725.853	0.0171811
725.931	0.0170117
726.009	0.0170696
726.087	0.0170397
726.165	0.0171281
726.244	0.0171706
726.322	0.0171143
726.400	0.0170504
726.478	0.0172443
726.556	0.0172641
726.634	0.0171533
726.712	0.0171421
726.790	0.0173568
726.869	0.0171320
726.947	0.0171512
727.025	0.0173979
727.103	0.0174388
727.181	0.0174645
727.259	0.0174108
727.337	0.0174619
727.415	0.0174983
727.494	0.0176271
727.572	0.0176190
727.650	0.0176086
727.728	0.0176553
727.806	0.0177686
727.884	0.0176867
727.962	0.0176916
728.040	0.0178042
728.119	0.0178868
728.197	0.0178576
728.275	0.0177898
728.353	0.0178629
728.431	0.0179604
728.509	0.0180127
728.587	0.0180371
728.665	0.0180257
728.744	0.0179734
728.822	0.0180112
728.900	0.0180642
728.978	0.0180504
729.056	0.0179865
729.134	0.0179313
729.212	0.0179364
729.290	0.0179897
729.369	0.0180723
729.447	0.0179273
729.525	0.0177821
729.603	0.0177429
729.681	0.0178022
729.759	0.0177596
729.837	0.0177762
729.915	0.0176427
729.994	0.0175542
730.072	0.0173946
730.150	0.0173416
730.228	0.0173787
730.306	0.0172931
730.384	0.0173481
730.462	0.0173710
730.540	0.0172023
730.619	0.0171516
730.697	0.0170298
730.775	0.0172038
730.853	0.0171974
730.931	0.0170952
731.009	0.0171774
731.087	0.0171349
731.165	0.0171424
731.244	0.0170370
731.322	0.0171407
731.400	0.0171265
731.478	0.0171108
731.556	0.0172286
731.634	0.0171455
731.712	0.0171169
731.790	0.0171814
731.869	0.0172108
731.947	0.0171553
732.025	0.0171452
732.103	0.0172533
732.181	0.0172912
732.259	0.0171444
732.337	0.0174492
732.415	0.0172968
732.494	0.0172283
732.572	0.0173696
732.650	0.0174025
732.728	0.0174588
732.806	0.0172799
732.884	0.0174574
732.962	0.0173633
733.040	0.0174417
733.119	0.0175860
733.197	0.0174777
733.275	0.0175055
733.353	0.0175623
733.431	0.0175888
733.509	0.0175461
733.587	0.0176109
733.665	0.0174954
733.744	0.0175202
733.822	0.0175243
733.900	0.0176600
733.978	0.0175559
734.056	0.0176530
734.134	0.0175815
734.212	0.0175372
734.290	0.0175435
734.369	0.0176556
734.447	0.0175946
734.525	0.0176385
734.603	0.0176540
734.681	0.0176184
734.759	0.0177749
734.837	0.0176324
734.915	0.0175693
734.994	0.0175589
735.072	0.0175900
735.150	0.0175652
735.228	0.0176633
735.306	0.0176573
735.384	0.0176838
735.462	0.0174875
735.540	0.0174634
735.619	0.0173711
735.697	0.0174852
735.775	0.0173850
735.853	0.0173916
735.931	0.0173040
736.009	0.0173582
736.087	0.0173834
736.165	0.0172896
736.244	0.0171297
736.322	0.0172055
736.400	0.0170780
736.478	0.0170651
736.556	0.0170267
736.634	0.0169713
736.712	0.0170677
736.790	0.0169915
736.869	0.0169359
736.947	0.0169403
737.025	0.0168535
737.103	0.0168875
737.181	0.0169566
737.259	0.0170071
737.337	0.0170733
737.415	0.0170854
737.494	0.0171345
737.572	0.0170772
737.650	0.0170351
737.728	0.0172764
737.806	0.0172421
737.884	0.0173637
737.962	0.0173948
738.040	0.0172545
738.119	0.0173061
738.197	0.0174258
738.275	0.0174911
738.353	0.0175234
738.431	0.0175327
738.509	0.0175484
738.587	0.0175309
738.665	0.0174844
738.744	0.0175832
738.822	0.0176285
738.900	0.0177708
738.978	0.0175444
739.056	0.0175645
739.134	0.0176397
739.212	0.0176376
739.290	0.0176252
739.369	0.0174791
739.447	0.0175944
739.525	0.0175138
739.603	0.0176014
739.681	0.0175684
739.759	0.0174884
739.837	0.0175215
739.915	0.0174863
739.994	0.0174853
740.072	0.0173591
740.150	0.0174115
740.228	0.0173603
740.306	0.0172652
740.384	0.0172787
740.462	0.0173199
740.540	0.0172824
740.619	0.0172795
740.697	0.0174931
740.775	0.0174352
740.853	0.0173004
740.931	0.0172444
741.009	0.0173949
741.087	0.0173166
741.165	0.0173927
741.244	0.0174529
741.322	0.0174329
741.400	0.0173676
741.478	0.0175306
741.556	0.0175562
741.634	0.0174286
741.712	0.0175864
741.790	0.0176709
741.869	0.0176751
741.947	0.0174925
742.025	0.0174446
742.103	0.0176991
742.181	0.0175694
742.259	0.0175108
742.337	0.0175276
742.415	0.0174976
742.494	0.0175563
742.572	0.0175538
742.650	0.0174422
742.728	0.0175685
742.806	0.0175121
742.884	0.0174986
742.962	0.0175317
743.040	0.0175253
743.119	0.0175674
743.197	0.0175145
743.275	0.0174959
743.353	0.0175175
743.431	0.0174238
743.509	0.0175476
743.587	0.0175223
743.665	0.0174415
743.744	0.0175590
743.822	0.0175379
743.900	0.0173944
743.978	0.0175796
744.056	0.0175851
744.134	0.0174934
744.212	0.0176025
744.290	0.0175365
744.369	0.0174303
744.447	0.0175627
744.525	0.0174591
744.603	0.0174996
744.681	0.0176049
744.759	0.0176097
744.837	0.0175527
744.915	0.0175562
744.994	0.0175159
745.072	0.0175568
745.150	0.0173412
745.228	0.0175356
745.306	0.0173576
745.384	0.0173283
745.462	0.0173463
745.540	0.0173576
745.619	0.0172679
745.697	0.0173605
745.775	0.0173439
745.853	0.0173919
745.931	0.0173466
746.009	0.0172749
746.087	0.0171828
746.165	0.0171800
746.244	0.0172758
746.322	0.0171835
746.400	0.0170037
746.478	0.0171066
746.556	0.0171672
746.634	0.0169855
746.712	0.0169405
746.790	0.0170560
746.869	0.0170026
746.947	0.0169196
747.025	0.0169761
747.103	0.0170061
747.181	0.0171634
747.259	0.0171091
747.337	0.0171839
747.415	0.0169875
747.494	0.0171516
747.572	0.0172086
747.650	0.0171568
747.728	0.0173003
747.806	0.0173871
747.884	0.0171246
747.962	0.0172450
748.040	0.0172163
748.119	0.0174341
748.197	0.0174804
748.275	0.0173257
748.353	0.0173603
748.431	0.0172231
748.509	0.0175234
748.587	0.0174968
748.665	0.0174511
748.744	0.0174216
748.822	0.0175031
748.900	0.0176081
748.978	0.0174951
749.056	0.0175507
749.134	0.0174646
749.212	0.0173888
749.290	0.0176741
749.369	0.0175521
749.447	0.0177297
749.525	0.0176363
749.603	0.0175549
749.681	0.0175397
749.759	0.0175726
749.837	0.0176342
749.915	0.0176289
749.994	0.0175108
750.072	0.0175814
750.150	0.0176166
750.228	0.0176939
750.306	0.0175374
750.384	0.0176122
750.462	0.0176650
750.540	0.0176180
750.619	0.0175185
750.697	0.0175072
750.775	0.0176208
750.853	0.0175243
750.931	0.0174812
751.009	0.0173666
751.087	0.0175065
751.165	0.0174658
751.244	0.0174608
751.322	0.0175001
751.400	0.0174596
751.478	0.0173789
751.556	0.0174906
751.634	0.0174878
751.712	0.0174523
751.790	0.0174074
751.869	0.0173729
751.947	0.0173277
752.025	0.0172765
752.103	0.0174029
752.181	0.0173016
752.259	0.0173356
752.337	0.0172416
752.415	0.0172858
752.494	0.0172829
752.572	0.0173379
752.650	0.0172815
752.728	0.0171836
752.806	0.0172950
752.884	0.0172522
752.962	0.0172546
753.040	0.0173785
753.119	0.0173325
753.197	0.0172591
753.275	0.0172335
753.353	0.0171053
753.431	0.0174219
753.509	0.0174309
753.587	0.0172148
753.665	0.0171244
753.744	0.0173027
753.822	0.0173177
753.900	0.0172781
753.978	0.0172747
754.056	0.0172912
754.134	0.0173600
754.212	0.0173625
754.290	0.0174443
754.369	0.0172746
754.447	0.0172326
754.525	0.0174343
754.603	0.0173657
754.681	0.0171664
754.759	0.0173386
754.837	0.0172797
754.915	0.0172537
754.994	0.0173007
755.072	0.0172201
755.150	0.0172217
755.228	0.0174126
755.306	0.0173412
755.384	0.0171865
755.462	0.0171885
755.540	0.0172817
755.619	0.0172693
755.697	0.0172108
755.775	0.0172684
755.853	0.0173469
755.931	0.0172980
756.009	0.0171923
756.087	0.0171156
756.165	0.0173043
756.244	0.0173350
756.322	0.0173279
756.400	0.0174514
756.478	0.0173730
756.556	0.0171902
756.634	0.0172809
756.712	0.0172707
756.790	0.0172237
756.869	0.0173074
756.947	0.0173272
757.025	0.0173244
757.103	0.0171089
757.181	0.0172933
757.259	0.0172088
757.337	0.0173311
757.415	0.0171073
757.494	0.0172657
757.572	0.0171555
757.650	0.0171613
757.728	0.0172682
757.806	0.0172430
757.884	0.0171893
757.962	0.0173338
758.040	0.0172736
758.119	0.0171238
758.197	0.0173059
758.275	0.0172984
758.353	0.0171380
758.431	0.0172263
758.509	0.0173363
758.587	0.0172807
758.665	0.0173534
758.744	0.0172970
758.822	0.0174050
758.900	0.0173201
758.978	0.0174525
759.056	0.0173637
759.134	0.0173623
759.212	0.0174087
759.290	0.0175470
759.369	0.0173952
759.447	0.0173422
759.525	0.0175526
759.603	0.0174447
759.681	0.0175203
759.759	0.0173578
759.837	0.0174968
759.915	0.0174091
759.994	0.0174649
760.072	0.0175007
760.150	0.0174866
760.228	0.0175768
760.306	0.0176588
760.384	0.0175204
760.462	0.0176044
760.540	0.0175937
760.619	0.0174593
760.697	0.0176318
760.775	0.0175898
760.853	0.0176279
760.931	0.0173825
761.009	0.0173337
761.087	0.0174182
761.165	0.0175754
761.244	0.0173659
761.322	0.0175016
761.400	0.0174067
761.478	0.0172729
761.556	0.0174044
761.634	0.0173833
761.712	0.0173215
761.790	0.0173844
761.869	0.0172318
761.947	0.0171795
762.025	0.0173890
762.103	0.0172675
762.181	0.0172757
762.259	0.0173139
762.337	0.0173672
762.415	0.0174266
762.494	0.0172916
762.572	0.0173703
762.650	0.0174293
762.728	0.0174058
762.806	0.0173191
762.884	0.0174775
762.962	0.0175028
763.040	0.0175342
763.119	0.0176279
763.197	0.0174299
763.275	0.0173319
763.353	0.0175143
763.431	0.0175555
763.509	0.0174697
763.587	0.0175790
763.665	0.0175719
763.744	0.0173936
763.822	0.0172783
763.900	0.0174583
763.978	0.0175633
764.056	0.0175929
764.134	0.0175533
764.212	0.0174216
764.290	0.0174142
764.369	0.0175595
764.447	0.0174324
764.525	0.0173987
764.603	0.0175144
764.681	0.0174465
764.759	0.0174659
764.837	0.0173438
764.915	0.0173855
764.994	0.0173531
765.072	0.0174282
765.150	0.0175388
765.228	0.0173923
765.306	0.0173270
765.384	0.0174655
765.462	0.0172835
765.540	0.0172939
765.619	0.0174130
765.697	0.0174095
765.775	0.0173665
765.853	0.0172862
765.931	0.0174146
766.009	0.0171554
766.087	0.0172256
766.165	0.0172670
766.244	0.0172969
766.322	0.0173002
766.400	0.0174163
766.478	0.0172963
766.556	0.0172716
766.634	0.0173441
766.712	0.0172729
766.790	0.0172989
766.869	0.0172253
766.947	0.0172871
767.025	0.0172489
767.103	0.0171427
767.181	0.0172543
767.259	0.0173722
767.337	0.0173250
767.415	0.0171262
767.494	0.0171030
767.572	0.0171674
767.650	0.0172072
767.728	0.0171767
767.806	0.0171522
767.884	0.0171656
767.962	0.0170671
768.040	0.0170887
768.119	0.0170273
768.197	0.0170094
768.275	0.0169995
768.353	0.0171486
768.431	0.0171774
768.509	0.0171999
768.587	0.0170760
768.665	0.0172131
768.744	0.0172303
768.822	0.0171374
768.900	0.0171709
768.978	0.0172719
769.056	0.0173068
769.134	0.0173567
769.212	0.0174680
769.290	0.0175420
769.369	0.0174475
769.447	0.0173702
769.525	0.0173965
769.603	0.0174158
769.681	0.0174850
769.759	0.0175678
769.837	0.0176254
769.915	0.0176550
769.994	0.0175061
770.072	0.0175302
770.150	0.0175508
770.228	0.0175034
770.306	0.0176050
770.384	0.0177180
770.462	0.0176237
770.540	0.0175670
770.619	0.0176825
770.697	0.0174995
770.775	0.0175648
770.853	0.0175243
770.931	0.0176476
771.009	0.0177295
771.087	0.0176318
771.165	0.0173757
771.244	0.0175816
771.322	0.0175273
771.400	0.0176125
771.478	0.0175329
771.556	0.0176225
771.634	0.0175803
771.712	0.0175436
771.790	0.0173961
771.869	0.0176161
771.947	0.0175311
772.025	0.0175676
772.103	0.0175900
772.181	0.0175135
772.259	0.0175551
772.337	0.0176767
772.415	0.0174695
772.494	0.0174962
772.572	0.0174030
772.650	0.0175381
772.728	0.0174314
772.806	0.0175438
772.884	0.0175333
772.962	0.0174953
773.040	0.0177778
773.119	0.0175014
773.197	0.0175542
773.275	0.0174827
773.353	0.0176155
773.431	0.0174383
773.509	0.0173158
773.587	0.0173382
773.665	0.0175191
773.744	0.0173537
773.822	0.0173856
773.900	0.0174948
773.978	0.0174940
774.056	0.0174143
774.134	0.0173716
774.212	0.0175655
774.290	0.0175246
774.369	0.0175218
774.447	0.0176191
774.525	0.0175613
774.603	0.0176208
774.681	0.0177028
774.759	0.0176035
774.837	0.0175407
774.915	0.0176468
774.994	0.0175375
775.072	0.0175507
775.150	0.0176911
775.228	0.0177309
775.306	0.0176052
775.384	0.0176143
775.462	0.0177086
775.540	0.0175423
775.619	0.0176736
775.697	0.0176233
775.775	0.0175634
775.853	0.0175427
775.931	0.0173632
776.009	0.0173734
776.087	0.0173234
776.165	0.0171844
776.244	0.0170908
776.322	0.0171921
776.400	0.0171096
776.478	0.0171719
776.556	0.0171126
776.634	0.0170424
776.712	0.0170642
776.790	0.0170667
776.869	0.0171248
776.947	0.0170970
777.025	0.0169640
777.103	0.0171592
777.181	0.0171883
777.259	0.0173105
777.337	0.0171410
777.415	0.0171987
777.494	0.0172920
777.572	0.0174512
777.650	0.0173607
777.728	0.0173193
777.806	0.0174354
777.884	0.0174768
777.962	0.0174754
778.040	0.0175397
778.119	0.0174003
778.197	0.0174176
778.275	0.0175084
778.353	0.0174281
778.431	0.0175111
778.509	0.0174926
778.587	0.0175175
778.665	0.0175063
778.744	0.0175256
778.822	0.0175736
778.900	0.0174800
778.978	0.0174191
779.056	0.0174175
779.134	0.0173269
779.212	0.0172776
779.290	0.0173328
779.369	0.0172540
779.447	0.0172904
779.525	0.0172868
779.603	0.0172569
779.681	0.0172777
779.759	0.0172682
779.837	0.0171325
779.915	0.0171957
779.994	0.0172366
780.072	0.0172439
780.150	0.0172840
780.228	0.0173286
780.306	0.0173180
780.384	0.0172284
780.462	0.0174027
780.540	0.0173160
780.619	0.0171985
780.697	0.0171700
780.775	0.0173187
780.853	0.0172637
780.931	0.0172327
781.009	0.0171719
781.087	0.0172707
781.165	0.0171983
781.244	0.0173349
781.322	0.0173079
781.400	0.0172059
781.478	0.0172326
781.556	0.0172722
781.634	0.0172406
781.712	0.0172633
781.790	0.0171819
781.869	0.0172000
781.947	0.0172083
782.025	0.0172536
782.103	0.0171904
782.181	0.0171707
782.259	0.0172752
782.337	0.0174039
782.415	0.0171709
782.494	0.0174300
782.572	0.0174171
782.650	0.0173153
782.728	0.0173837
782.806	0.0173254
782.884	0.0174258
782.962	0.0174462
783.040	0.0174596
783.119	0.0175085
783.197	0.0175814
783.275	0.0177105
783.353	0.0174065
783.431	0.0173264
783.509	0.0174500
783.587	0.0174191
783.665	0.0173644
783.744	0.0172375
783.822	0.0174316
783.900	0.0174599
783.978	0.0173653
784.056	0.0173518
784.134	0.0173920
784.212	0.0174225
784.290	0.0173039
784.369	0.0173205
784.447	0.0172262
784.525	0.0173159
784.603	0.0173264
784.681	0.0174166
784.759	0.0172996
784.837	0.0173120
784.915	0.0172878
784.994	0.0171408
785.072	0.0171995
785.150	0.0172357
785.228	0.0172268
785.306	0.0172193
785.384	0.0171614
785.462	0.0171593
785.540	0.0172363
785.619	0.0173032
785.697	0.0173271
785.775	0.0173335
785.853	0.0173166
785.931	0.0174785
786.009	0.0174136
786.087	0.0173333
786.165	0.0174076
786.244	0.0173500
786.322	0.0174612
786.400	0.0175002
786.478	0.0175040
786.556	0.0175768
786.634	0.0175500
786.712	0.0177039
786.790	0.0176786
786.869	0.0177869
786.947	0.0175714
787.025	0.0177992
787.103	0.0178017
787.181	0.0177426
787.259	0.0178137
787.337	0.0178391
787.415	0.0178038
787.494	0.0178774
787.572	0.0178894
787.650	0.0177849
787.728	0.0177608
787.806	0.0177629
787.884	0.0177646
787.962	0.0176529
788.040	0.0176353
788.119	0.0176880
788.197	0.0177473
788.275	0.0175976
788.353	0.0176649
788.431	0.0175765
788.509	0.0175472
788.587	0.0174734
788.665	0.0175660
788.744	0.0176254
788.822	0.0175137
788.900	0.0174252
788.978	0.0174318
789.056	0.0174117
789.134	0.0174339
789.212	0.0172714
789.290	0.0173412
789.369	0.0174078
789.447	0.0173743
789.525	0.0173047
789.603	0.0172562
789.681	0.0172207
789.759	0.0172975
789.837	0.0173734
789.915	0.0171638
789.994	0.0172391
790.072	0.0173104
790.150	0.0173635
790.228	0.0172074
790.306	0.0173679
790.384	0.0174182
790.462	0.0171835
790.540	0.0171942
790.619	0.0172117
790.697	0.0173631
790.775	0.0172159
790.853	0.0171863
790.931	0.0172879
791.009	0.0173317
791.087	0.0171889
791.165	0.0171944
791.244	0.0172040
791.322	0.0172127
791.400	0.0172880
791.478	0.0173713
791.556	0.0172782
791.634	0.0172810
791.712	0.0171822
791.790	0.0173363
791.869	0.0172984
791.947	0.0172810
792.025	0.0173585
792.103	0.0173742
792.181	0.0174086
792.259	0.0173367
792.337	0.0173626
792.415	0.0174851
792.494	0.0173784
792.572	0.0173839
792.650	0.0172979
792.728	0.0172929
792.806	0.0173429
792.884	0.0175005
792.962	0.0175148
793.040	0.0174746
793.119	0.0175635
793.197	0.0174752
793.275	0.0176044
793.353	0.0175804
793.431	0.0174796
793.509	0.0175536
793.587	0.0177551
793.665	0.0177660
793.744	0.0175600
793.822	0.0177050
793.900	0.0178083
793.978	0.0177608
794.056	0.0177438
794.134	0.0177422
794.212	0.0177635
794.290	0.0176430
794.369	0.0174370
794.447	0.0176342
794.525	0.0175188
794.603	0.0175837
794.681	0.0175236
794.759	0.0174716
794.837	0.0175572
794.915	0.0174036
794.994	0.0174660
795.072	0.0175673
795.150	0.0174655
795.228	0.0173954
795.306	0.0175941
795.384	0.0174754
795.462	0.0174933
795.540	0.0175796
795.619	0.0175386
795.697	0.0175272
795.775	0.0175836
795.853	0.0175448
795.931	0.0175494
796.009	0.0176057
796.087	0.0174892
796.165	0.0176960
796.244	0.0177657
796.322	0.0176237
796.400	0.0177467
796.478	0.0177030
796.556	0.0176678
796.634	0.0176297
796.712	0.0176160
796.790	0.0175642
796.869	0.0175648
796.947	0.0176155
797.025	0.0175333
797.103	0.0175539
797.181	0.0175040
797.259	0.0173644
797.337	0.0176293
797.415	0.0174787
797.494	0.0176953
797.572	0.0175140
797.650	0.0172910
797.728	0.0175911
797.806	0.0174049
797.884	0.0176011
797.962	0.0175131
798.040	0.0174844
798.119	0.0175503
798.197	0.0174847
798.275	0.0174963
798.353	0.0175091
798.431	0.0175516
798.509	0.0175336
798.587	0.0175924
798.665	0.0174532
798.744	0.0175003
798.822	0.0175709
798.900	0.0174188
798.978	0.0175448
799.056	0.0176202
799.134	0.0175936
799.212	0.0175806
799.290	0.0175298
799.369	0.0175776
799.447	0.0175619
799.525	0.0175005
799.603	0.0174808
799.681	0.0175526
799.759	0.0176524
799.837	0.0174601
799.915	0.0174586
799.994	0.0175840
800.072	0.0174257
800.150	0.0173862
800.228	0.0173837
800.306	0.0173152
800.384	0.0173975
800.462	0.0172802
800.540	0.0171885
800.619	0.0172211
800.697	0.0172404
800.775	0.0172029
800.853	0.0170908
800.931	0.0171107
801.009	0.0172484
801.087	0.0170546
801.165	0.0170931
801.244	0.0170557
801.322	0.0170803
801.400	0.0171985
801.478	0.0170326
801.556	0.0172077
801.634	0.0172713
801.712	0.0172142
801.790	0.0172955
801.869	0.0173564
801.947	0.0174181
802.025	0.0175181
802.103	0.0175126
802.181	0.0174355
802.259	0.0175520
802.337	0.0175043
802.415	0.0174892
802.494	0.0175649
802.572	0.0176630
802.650	0.0175915
802.728	0.0176619
802.806	0.0176802
802.884	0.0176800
802.962	0.0175747
803.040	0.0177933
803.119	0.0176618
803.197	0.0174966
803.275	0.0176369
803.353	0.0176301
803.431	0.0175249
803.509	0.0176148
803.587	0.0176102
803.665	0.0174897
803.744	0.0175844
803.822	0.0175538
803.900	0.0173759
803.978	0.0174365
804.056	0.0173782
804.134	0.0173573
804.212	0.0174004
804.290	0.0173508
804.369	0.0173895
804.447	0.0172697
804.525	0.0172375
804.603	0.0172549
804.681	0.0173083
804.759	0.0173549
804.837	0.0171617
804.915	0.0172125
804.994	0.0174007
805.072	0.0173599
805.150	0.0174033
805.228	0.0173568
805.306	0.0173859
805.384	0.0173447
805.462	0.0174132
805.540	0.0175996
805.619	0.0174466
805.697	0.0174041
805.775	0.0175123
805.853	0.0175597
805.931	0.0175494
806.009	0.0173562
806.087	0.0173341
806.165	0.0174693
806.244	0.0175510
806.322	0.0174542
806.400	0.0175039
806.478	0.0173779
806.556	0.0175488
806.634	0.0175285
806.712	0.0175601
806.790	0.0175026
806.869	0.0176498
806.947	0.0175952
807.025	0.0175874
807.103	0.0177130
807.181	0.0175980
807.259	0.0176411
807.337	0.0175480
807.415	0.0176142
807.494	0.0174863
807.572	0.0176127
807.650	0.0176131
807.728	0.0175250
807.806	0.0175202
807.884	0.0175924
807.962	0.0175890
808.040	0.0176192
808.119	0.0176168
808.197	0.0174426
808.275	0.0175809
808.353	0.0175078
808.431	0.0173773
808.509	0.0174442
808.587	0.0174963
808.665	0.0174744
808.744	0.0175252
808.822	0.0174384
808.900	0.0174204
808.978	0.0174713
809.056	0.0173909
809.134	0.0173355
809.212	0.0175021
809.290	0.0173881
809.369	0.0174381
809.447	0.0173486
809.525	0.0172459
809.603	0.0171360
809.681	0.0172713
809.759	0.0171678
809.837	0.0172302
809.915	0.0171406
809.994	0.0170493
810.072	0.0170299
810.150	0.0169097
810.228	0.0170288
810.306	0.0170927
810.384	0.0170707
810.462	0.0170377
810.540	0.0170927
810.619	0.0170557
810.697	0.0170125
810.775	0.0171299
810.853	0.0172850
810.931	0.0171766
811.009	0.0170983
811.087	0.0173448
811.165	0.0174074
811.244	0.0173333
811.322	0.0173087
811.400	0.0174042
811.478	0.0175229
811.556	0.0175384
811.634	0.0175055
811.712	0.0174467
811.790	0.0174312
811.869	0.0175481
811.947	0.0176469
812.025	0.0176054
812.103	0.0175295
812.181	0.0176106
812.259	0.0175037
812.337	0.0174990
812.415	0.0174969
812.494	0.0175654
812.572	0.0175452
812.650	0.0176039
812.728	0.0177003
812.806	0.0175784
812.884	0.0176591
812.962	0.0176399
813.040	0.0175349
813.119	0.0175710
813.197	0.0176403
813.275	0.0175763
813.353	0.0176699
813.431	0.0174995
813.509	0.0173989
813.587	0.0173473
813.665	0.0173821
813.744	0.0173832
813.822	0.0174363
813.900	0.0174069
813.978	0.0173663
814.056	0.0174414
814.134	0.0173602
814.212	0.0172785
814.290	0.0172603
814.369	0.0173238
814.447	0.0172350
814.525	0.0172796
814.603	0.0172652
814.681	0.0172703
814.759	0.0171682
814.837	0.0171858
814.915	0.0173466
814.994	0.0174139
815.072	0.0174395
815.150	0.0173840
815.228	0.0174404
815.306	0.0172837
815.384	0.0172039
815.462	0.0172847
815.540	0.0174100
815.619	0.0174049
815.697	0.0173863
815.775	0.0172836
815.853	0.0174145
815.931	0.0174594
816.009	0.0175071
816.087	0.0173931
816.165	0.0174070
816.244	0.0174673
816.322	0.0173664
816.400	0.0174768
816.478	0.0175619
816.556	0.0174466
816.634	0.0174401
816.712	0.0174603
816.790	0.0174359
816.869	0.0175631
816.947	0.0174950
817.025	0.0175095
817.103	0.0174673
817.181	0.0174807
817.259	0.0174625
817.337	0.0175426
817.415	0.0175964
817.494	0.0175806
817.572	0.0174703
817.650	0.0175068
817.728	0.0176938
817.806	0.0176187
817.884	0.0176447
817.962	0.0177039
818.040	0.0177133
818.119	0.0177542
818.197	0.0176984
818.275	0.0178167
818.353	0.0176778
818.431	0.0177887
818.509	0.0177481
818.587	0.0177367
818.665	0.0177770
818.744	0.0178304
818.822	0.0179041
818.900	0.0176124
818.978	0.0177345
819.056	0.0177228
819.134	0.0177462
819.212	0.0175876
819.290	0.0176462
819.369	0.0176121
819.447	0.0177003
819.525	0.0175787
819.603	0.0176078
819.681	0.0176500
819.759	0.0176526
819.837	0.0175029
819.915	0.0174830
819.994	0.0175201
820.072	0.0174741
820.150	0.0174376
820.228	0.0174741
820.306	0.0174039
820.384	0.0174027
820.462	0.0175310
820.540	0.0174191
820.619	0.0172681
820.697	0.0173468
820.775	0.0173454
820.853	0.0173591
820.931	0.0174253
821.009	0.0173881
821.087	0.0172606
821.165	0.0173615
821.244	0.0173163
821.322	0.0173206
821.400	0.0173611
821.478	0.0174989
821.556	0.0175584
821.634	0.0174715
821.712	0.0174686
821.790	0.0174608
821.869	0.0176466
821.947	0.0176459
822.025	0.0176207
822.103	0.0175374
822.181	0.0176681
822.259	0.0176923
822.337	0.0175620
822.415	0.0175804
822.494	0.0175763
822.572	0.0176353
822.650	0.0176729
822.728	0.0176540
822.806	0.0175008
822.884	0.0175365
822.962	0.0176450
823.040	0.0175737
823.119	0.0174992
823.197	0.0173616
823.275	0.0174911
823.353	0.0175429
823.431	0.0175739
823.509	0.0174940
823.587	0.0174850
823.665	0.0174872
823.744	0.0175153
823.822	0.0174754
823.900	0.0176145
823.978	0.0174675
824.056	0.0174158
824.134	0.0173948
824.212	0.0175203
824.290	0.0175765
824.369	0.0175593
824.447	0.0175072
824.525	0.0175889
824.603	0.0174935
824.681	0.0174505
824.759	0.0174437
824.837	0.0175377
824.915	0.0175056
824.994	0.0174365
825.072	0.0175462
825.150	0.0175179
825.228	0.0175461
825.306	0.0175258
825.384	0.0176054
825.462	0.0174768
825.540	0.0175467
825.619	0.0176067
825.697	0.0175483
825.775	0.0175481
825.853	0.0176356
825.931	0.0176348
826.009	0.0176968
826.087	0.0176146
826.165	0.0176842
826.244	0.0175935
826.322	0.0176313
826.400	0.0177722
826.478	0.0174918
826.556	0.0175434
826.634	0.0175301
826.712	0.0175393
826.790	0.0175748
826.869	0.0175197
826.947	0.0174607
827.025	0.0173882
827.103	0.0173562
827.181	0.0174085
827.259	0.0173355
827.337	0.0173705
827.415	0.0173676
827.494	0.0174777
827.572	0.0172802
827.650	0.0173880
827.728	0.0172598
827.806	0.0173835
827.884	0.0173938
827.962	0.0173873
828.040	0.0173503
828.119	0.0174202
828.197	0.0173235
828.275	0.0175108
828.353	0.0173532
828.431	0.0173758
828.509	0.0173122
828.587	0.0174694
828.665	0.0175108
828.744	0.0175245
828.822	0.0174398
828.900	0.0173594
828.978	0.0175230
829.056	0.0174287
829.134	0.0175127
829.212	0.0175467
829.290	0.0174741
829.369	0.0174033
829.447	0.0174290
829.525	0.0173281
829.603	0.0173322
829.681	0.0174232
829.759	0.0174994
829.837	0.0174750
829.915	0.0175912
829.994	0.0174610
830.072	0.0175311
830.150	0.0174908
830.228	0.0174253
830.306	0.0174055
830.384	0.0174439
830.462	0.0173094
830.540	0.0174097
830.619	0.0174258
830.697	0.0174255
830.775	0.0173899
830.853	0.0173203
830.931	0.0173767
831.009	0.0173420
831.087	0.0173151
831.165	0.0171822
831.244	0.0171899
831.322	0.0173026
831.400	0.0170842
831.478	0.0172800
831.556	0.0171846
831.634	0.0173383
831.712	0.0173365
831.790	0.0173225
831.869	0.0172598
831.947	0.0171037
832.025	0.0173579
832.103	0.0172104
832.181	0.0173714
832.259	0.0172325
832.337	0.0173735
832.415	0.0173278
832.494	0.0172787
832.572	0.0173676
832.650	0.0173877
832.728	0.0174780
832.806	0.0173454
832.884	0.0174404
832.962	0.0173638
833.040	0.0173306
833.119	0.0173872
833.197	0.0173414
833.275	0.0173023
833.353	0.0173801
833.431	0.0173383
833.509	0.0174448
833.587	0.0173605
833.665	0.0172967
833.744	0.0173735
833.822	0.0173027
833.900	0.0172632
833.978	0.0173026
834.056	0.0173154
834.134	0.0173631
834.212	0.0173228
834.290	0.0173251
834.369	0.0172528
834.447	0.0173199
834.525	0.0173996
834.603	0.0172216
834.681	0.0172777
834.759	0.0173300
834.837	0.0172633
834.915	0.0173181
834.994	0.0172446
835.072	0.0171526
835.150	0.0172582
835.228	0.0173743
835.306	0.0174287
835.384	0.0173122
835.462	0.0172451
835.540	0.0172874
835.619	0.0171878
835.697	0.0172276
835.775	0.0172923
835.853	0.0174075
835.931	0.0173180
836.009	0.0174103
836.087	0.0172964
836.165	0.0173920
836.244	0.0173686
836.322	0.0174708
836.400	0.0174874
836.478	0.0174876
836.556	0.0175004
836.634	0.0173563
836.712	0.0174410
836.790	0.0174455
836.869	0.0173050
836.947	0.0173309
837.025	0.0173251
837.103	0.0173211
837.181	0.0173981
837.259	0.0173284
837.337	0.0173228
837.415	0.0173096
837.494	0.0173086
837.572	0.0173186
837.650	0.0172998
837.728	0.0173699
837.806	0.0172885
837.884	0.0172525
837.962	0.0173277
838.040	0.0173625
838.119	0.0172444
838.197	0.0173585
838.275	0.0172982
838.353	0.0172687
838.431	0.0172990
838.509	0.0173524
838.587	0.0173253
838.665	0.0172266
838.744	0.0174413
838.822	0.0174252
838.900	0.0173338
838.978	0.0174091
839.056	0.0174172
839.134	0.0173947
839.212	0.0174873
839.290	0.0174771
839.369	0.0175171
839.447	0.0175803
839.525	0.0174493
839.603	0.0174574
839.681	0.0174252
839.759	0.0175282
839.837	0.0175594
839.915	0.0174687
839.994	0.0175873
840.072	0.0174712
840.150	0.0176852
840.228	0.0177016
840.306	0.0175623
840.384	0.0175572
840.462	0.0175464
840.540	0.0173994
840.619	0.0175514
840.697	0.0176100
840.775	0.0176173
840.853	0.0174850
840.931	0.0177046
841.009	0.0176149
841.087	0.0175677
841.165	0.0175700
841.244	0.0175392
841.322	0.0176332
841.400	0.0174959
841.478	0.0176237
841.556	0.0175387
841.634	0.0174844
841.712	0.0174872
841.790	0.0175574
841.869	0.0175098
841.947	0.0175746
842.025	0.0176797
842.103	0.0175387
842.181	0.0175214
842.259	0.0175188
842.337	0.0174775
842.415	0.0175748
842.494	0.0174123
842.572	0.0174918
842.650	0.0174187
842.728	0.0175184
842.806	0.0175581
842.884	0.0175114
842.962	0.0174908
843.040	0.0174517
843.119	0.0174382
843.197	0.0174771
843.275	0.0174904
843.353	0.0175199
843.431	0.0174726
843.509	0.0173835
843.587	0.0173740
843.665	0.0175123
843.744	0.0174673
843.822	0.0173159
843.900	0.0174850
843.978	0.0175917
844.056	0.0173621
844.134	0.0175171
844.212	0.0174792
844.290	0.0176115
844.369	0.0172852
844.447	0.0174780
844.525	0.0175682
844.603	0.0177095
844.681	0.0176186
844.759	0.0174928
844.837	0.0175926
844.915	0.0176434
844.994	0.0175886
845.072	0.0175429
845.150	0.0176028
845.228	0.0176951
845.306	0.0175480
845.384	0.0176993
845.462	0.0175906
845.540	0.0175684
845.619	0.0175087
845.697	0.0176939
845.775	0.0176174
845.853	0.0174788
845.931	0.0174765
846.009	0.0176432
846.087	0.0175258
846.165	0.0175596
846.244	0.0175743
846.322	0.0174492
846.400	0.0176237
846.478	0.0175705
846.556	0.0174003
846.634	0.0173612
846.712	0.0174610
846.790	0.0175858
846.869	0.0175809
846.947	0.0174673
847.025	0.0173335
847.103	0.0173797
847.181	0.0173520
847.259	0.0173903
847.337	0.0174982
847.415	0.0173370
847.494	0.0174152
847.572	0.0172575
847.650	0.0174113
847.728	0.0174043
847.806	0.0172578
847.884	0.0173853
847.962	0.0174085
848.040	0.0174660
848.119	0.0174096
848.197	0.0173852
848.275	0.0173288
848.353	0.0174709
848.431	0.0173428
848.509	0.0175101
848.587	0.0174845
848.665	0.0173260
848.744	0.0174867
848.822	0.0174176
848.900	0.0174187
848.978	0.0172821
849.056	0.0174043
849.134	0.0174127
849.212	0.0173763
849.290	0.0175011
849.369	0.0174220
849.447	0.0174324
849.525	0.0173029
849.603	0.0174866
849.681	0.0172849
849.759	0.0173521
849.837	0.0173335
849.915	0.0174123
849.994	0.0174090
850.072	0.0173909
850.150	0.0174240
850.228	0.0173713
850.306	0.0172714
850.384	0.0172695
850.462	0.0173520
850.540	0.0173346
850.619	0.0172206
850.697	0.0172736
850.775	0.0173797
850.853	0.0173194
850.931	0.0173357
851.009	0.0173499
851.087	0.0173669
851.165	0.0171827
851.244	0.0172114
851.322	0.0173254
851.400	0.0173034
851.478	0.0171376
851.556	0.0171793
851.634	0.0172788
851.712	0.0171369
851.790	0.0172155
851.869	0.0172763
851.947	0.0173371
852.025	0.0174059
852.103	0.0174866
852.181	0.0174102
852.259	0.0174840
852.337	0.0173276
852.415	0.0173521
852.494	0.0173508
852.572	0.0173981
852.650	0.0174349
852.728	0.0175653
852.806	0.0174376
852.884	0.0175275
852.962	0.0174998
853.040	0.0175671
853.119	0.0176366
853.197	0.0175973
853.275	0.0175581
853.353	0.0175705
853.431	0.0175970
853.509	0.0176067
853.587	0.0175378
853.665	0.0174654
853.744	0.0174791
853.822	0.0175661
853.900	0.0175581
853.978	0.0174355
854.056	0.0174275
854.134	0.0173884
854.212	0.0173772
854.290	0.0173450
854.369	0.0173147
854.447	0.0174609
854.525	0.0174091
854.603	0.0174648
854.681	0.0174870
854.759	0.0173909
854.837	0.0174052
854.915	0.0172787
854.994	0.0174352
855.072	0.0173307
855.150	0.0174486
855.228	0.0174279
855.306	0.0173130
855.384	0.0173576
855.462	0.0173864
855.540	0.0174847
855.619	0.0172959
855.697	0.0173158
855.775	0.0174997
855.853	0.0174129
855.931	0.0173226
856.009	0.0173780
856.087	0.0173730
856.165	0.0172916
856.244	0.0172327
856.322	0.0172656
856.400	0.0173635
856.478	0.0172945
856.556	0.0172986
856.634	0.0173975
856.712	0.0173495
856.790	0.0173567
856.869	0.0173739
856.947	0.0174387
857.025	0.0174538
857.103	0.0173903
857.181	0.0173594
857.259	0.0173186
857.337	0.0172864
857.415	0.0173560
857.494	0.0173326
857.572	0.0173135
857.650	0.0173006
857.728	0.0172832
857.806	0.0172240
857.884	0.0173587
857.962	0.0172761
858.040	0.0173842
858.119	0.0173025
858.197	0.0171187
858.275	0.0170984
858.353	0.0172290
858.431	0.0173019
858.509	0.0171582
858.587	0.0172713
858.665	0.0173915
858.744	0.0171463
858.822	0.0171360
858.900	0.0171149
858.978	0.0173332
859.056	0.0172320
859.134	0.0172725
859.212	0.0171907
859.290	0.0173984
859.369	0.0171593
859.447	0.0171355
859.525	0.0171564
859.603	0.0171584
859.681	0.0172446
859.759	0.0171269
859.837	0.0171730
859.915	0.0172659
