06/01/2022	17:14:58	Ver.	4.1	UNKNOWN
Optical Delay	599.975067	Delta X		0.078125	Sweeps	1	Scan Rate	0/0
Coordinates	Axis 1	NaN	Axis 2	NaN	Axis 3	NaN	Axis 4	NaN	Axis 5	NaN	Axis 6	0.000000
TX Power	0.000000	RX Power	0.000000

599.975	0.0163371
600.053	0.0164404
600.131	0.0164349
600.209	0.0163946
600.288	0.0163432
600.366	0.0163335
600.444	0.0163917
600.522	0.0163518
600.600	0.0163959
600.678	0.0163391
600.756	0.0163684
600.834	0.0162774
600.913	0.0163242
600.991	0.0163103
601.069	0.0162423
601.147	0.0162191
601.225	0.0162401
601.303	0.0163869
601.381	0.0163847
601.459	0.0162798
601.538	0.0161946
601.616	0.0163192
601.694	0.0162819
601.772	0.0162861
601.850	0.0162959
601.928	0.0163489
602.006	0.0162888
602.084	0.0163407
602.163	0.0163730
602.241	0.0164462
602.319	0.0163281
602.397	0.0162760
602.475	0.0163162
602.553	0.0162390
602.631	0.0162765
602.709	0.0163313
602.788	0.0162643
602.866	0.0162955
602.944	0.0163815
603.022	0.0162890
603.100	0.0163747
603.178	0.0164042
603.256	0.0163761
603.334	0.0162895
603.413	0.0162872
603.491	0.0163776
603.569	0.0165796
603.647	0.0163445
603.725	0.0162926
603.803	0.0162560
603.881	0.0162818
603.959	0.0164841
604.038	0.0164057
604.116	0.0164485
604.194	0.0163638
604.272	0.0163268
604.350	0.0164397
604.428	0.0163907
604.506	0.0163973
604.584	0.0163762
604.663	0.0163856
604.741	0.0161869
604.819	0.0164027
604.897	0.0163772
604.975	0.0161629
605.053	0.0163228
605.131	0.0164185
605.209	0.0164806
605.288	0.0163778
605.366	0.0164332
605.444	0.0164358
605.522	0.0164445
605.600	0.0162957
605.678	0.0164630
605.756	0.0163483
605.834	0.0162276
605.913	0.0163044
605.991	0.0164450
606.069	0.0164444
606.147	0.0162969
606.225	0.0163667
606.303	0.0163711
606.381	0.0164036
606.459	0.0162853
606.538	0.0162563
606.616	0.0162924
606.694	0.0162209
606.772	0.0163673
606.850	0.0162920
606.928	0.0163171
607.006	0.0164082
607.084	0.0162706
607.163	0.0162855
607.241	0.0164163
607.319	0.0164305
607.397	0.0163858
607.475	0.0163346
607.553	0.0162970
607.631	0.0164915
607.709	0.0163422
607.788	0.0163519
607.866	0.0161905
607.944	0.0162434
608.022	0.0164519
608.100	0.0164751
608.178	0.0163251
608.256	0.0162771
608.334	0.0164204
608.413	0.0163230
608.491	0.0163131
608.569	0.0162506
608.647	0.0161555
608.725	0.0163017
608.803	0.0164613
608.881	0.0164657
608.959	0.0163553
609.038	0.0162565
609.116	0.0163909
609.194	0.0162578
609.272	0.0163013
609.350	0.0163078
609.428	0.0163733
609.506	0.0161960
609.584	0.0162762
609.663	0.0162675
609.741	0.0163609
609.819	0.0162555
609.897	0.0163778
609.975	0.0162704
610.053	0.0162762
610.131	0.0162787
610.209	0.0164317
610.288	0.0163216
610.366	0.0163715
610.444	0.0164896
610.522	0.0163286
610.600	0.0162020
610.678	0.0164228
610.756	0.0163516
610.834	0.0162319
610.913	0.0163170
610.991	0.0163650
611.069	0.0163818
611.147	0.0164132
611.225	0.0161568
611.303	0.0163007
611.381	0.0163119
611.459	0.0164416
611.538	0.0163831
611.616	0.0162893
611.694	0.0164524
611.772	0.0164565
611.850	0.0164497
611.928	0.0164336
612.006	0.0162728
612.084	0.0163802
612.163	0.0163593
612.241	0.0163061
612.319	0.0163328
612.397	0.0163718
612.475	0.0164491
612.553	0.0162112
612.631	0.0163748
612.709	0.0163173
612.788	0.0164132
612.866	0.0163036
612.944	0.0163127
613.022	0.0164137
613.100	0.0162650
613.178	0.0162163
613.256	0.0163313
613.334	0.0162808
613.413	0.0162955
613.491	0.0162989
613.569	0.0163106
613.647	0.0162383
613.725	0.0162548
613.803	0.0163518
613.881	0.0163331
613.959	0.0162513
614.038	0.0163521
614.116	0.0162477
614.194	0.0163779
614.272	0.0163132
614.350	0.0162328
614.428	0.0163403
614.506	0.0163209
614.584	0.0162795
614.663	0.0164455
614.741	0.0165153
614.819	0.0163367
614.897	0.0162480
614.975	0.0163397
615.053	0.0163835
615.131	0.0163670
615.209	0.0164339
615.288	0.0164294
615.366	0.0164800
615.444	0.0163042
615.522	0.0163874
615.600	0.0163269
615.678	0.0163801
615.756	0.0163482
615.834	0.0163578
615.913	0.0162502
615.991	0.0163625
616.069	0.0163733
616.147	0.0163503
616.225	0.0163841
616.303	0.0164507
616.381	0.0164472
616.459	0.0163490
616.538	0.0163662
616.616	0.0163574
616.694	0.0163305
616.772	0.0164709
616.850	0.0163546
616.928	0.0163271
617.006	0.0162476
617.084	0.0162549
617.163	0.0163945
617.241	0.0164315
617.319	0.0164581
617.397	0.0163705
617.475	0.0163123
617.553	0.0164046
617.631	0.0164150
617.709	0.0164623
617.788	0.0164532
617.866	0.0163229
617.944	0.0164365
618.022	0.0164495
618.100	0.0162650
618.178	0.0163940
618.256	0.0165005
618.334	0.0163927
618.413	0.0164063
618.491	0.0163669
618.569	0.0163673
618.647	0.0163261
618.725	0.0162486
618.803	0.0162592
618.881	0.0163416
618.959	0.0162583
619.038	0.0164246
619.116	0.0163556
619.194	0.0162634
619.272	0.0162732
619.350	0.0164392
619.428	0.0162451
619.506	0.0162364
619.584	0.0163584
619.663	0.0163224
619.741	0.0163321
619.819	0.0162994
619.897	0.0162422
619.975	0.0164420
620.053	0.0163940
620.131	0.0163810
620.209	0.0162598
620.288	0.0163428
620.366	0.0163499
620.444	0.0163613
620.522	0.0163362
620.600	0.0162771
620.678	0.0164018
620.756	0.0163738
620.834	0.0163068
620.913	0.0163300
620.991	0.0162438
621.069	0.0164652
621.147	0.0163109
621.225	0.0162617
621.303	0.0162486
621.381	0.0162992
621.459	0.0163492
621.538	0.0163663
621.616	0.0163788
621.694	0.0162469
621.772	0.0162575
621.850	0.0162460
621.928	0.0163615
622.006	0.0162518
622.084	0.0162781
622.163	0.0162784
622.241	0.0163634
622.319	0.0162461
622.397	0.0163106
622.475	0.0164201
622.553	0.0163036
622.631	0.0162115
622.709	0.0163502
622.788	0.0163908
622.866	0.0163113
622.944	0.0162902
623.022	0.0164229
623.100	0.0162617
623.178	0.0162247
623.256	0.0163406
623.334	0.0163950
623.413	0.0162849
623.491	0.0163825
623.569	0.0163182
623.647	0.0161836
623.725	0.0164893
623.803	0.0163190
623.881	0.0163812
623.959	0.0162527
624.038	0.0163998
624.116	0.0162715
624.194	0.0162875
624.272	0.0163710
624.350	0.0165047
624.428	0.0162969
624.506	0.0163174
624.584	0.0162172
624.663	0.0163599
624.741	0.0164476
624.819	0.0163281
624.897	0.0163124
624.975	0.0163027
625.053	0.0163873
625.131	0.0163237
625.209	0.0164304
625.288	0.0164767
625.366	0.0163960
625.444	0.0163267
625.522	0.0162861
625.600	0.0163586
625.678	0.0162534
625.756	0.0164077
625.834	0.0163198
625.913	0.0163522
625.991	0.0162758
626.069	0.0163207
626.147	0.0163161
626.225	0.0163269
626.303	0.0163286
626.381	0.0164325
626.459	0.0163491
626.538	0.0161625
626.616	0.0163988
626.694	0.0163328
626.772	0.0163245
626.850	0.0162953
626.928	0.0163107
627.006	0.0162437
627.084	0.0163134
627.163	0.0164040
627.241	0.0163226
627.319	0.0163433
627.397	0.0164066
627.475	0.0163712
627.553	0.0163061
627.631	0.0162921
627.709	0.0163645
627.788	0.0162694
627.866	0.0164030
627.944	0.0163590
628.022	0.0164501
628.100	0.0163528
628.178	0.0163775
628.256	0.0163069
628.334	0.0162352
628.413	0.0163669
628.491	0.0164498
628.569	0.0163121
628.647	0.0162260
628.725	0.0162356
628.803	0.0163744
628.881	0.0164134
628.959	0.0163735
629.038	0.0163580
629.116	0.0163929
629.194	0.0163184
629.272	0.0163259
629.350	0.0162514
629.428	0.0163922
629.506	0.0163245
629.584	0.0162448
629.663	0.0163203
629.741	0.0163161
629.819	0.0162976
629.897	0.0164188
629.975	0.0163729
630.053	0.0164244
630.131	0.0163828
630.209	0.0163985
630.288	0.0163634
630.366	0.0164590
630.444	0.0163417
630.522	0.0163566
630.600	0.0163584
630.678	0.0163523
630.756	0.0163566
630.834	0.0164258
630.913	0.0162746
630.991	0.0163802
631.069	0.0163393
631.147	0.0164455
631.225	0.0163707
631.303	0.0164285
631.381	0.0162479
631.459	0.0163659
631.538	0.0164370
631.616	0.0164534
631.694	0.0163850
631.772	0.0162518
631.850	0.0163546
631.928	0.0163234
632.006	0.0163062
632.084	0.0162704
632.163	0.0161147
632.241	0.0162534
632.319	0.0164793
632.397	0.0163525
632.475	0.0161765
632.553	0.0163150
632.631	0.0163133
632.709	0.0163721
632.788	0.0162775
632.866	0.0162550
632.944	0.0162443
633.022	0.0162372
633.100	0.0164377
633.178	0.0163530
633.256	0.0162549
633.334	0.0162699
633.413	0.0163519
633.491	0.0163295
633.569	0.0162280
633.647	0.0162481
633.725	0.0163309
633.803	0.0163066
633.881	0.0162907
633.959	0.0162776
634.038	0.0163847
634.116	0.0163551
634.194	0.0162675
634.272	0.0164102
634.350	0.0163013
634.428	0.0163699
634.506	0.0163246
634.584	0.0164542
634.663	0.0162751
634.741	0.0163780
634.819	0.0162833
634.897	0.0162591
634.975	0.0164406
635.053	0.0163455
635.131	0.0162634
635.209	0.0164651
635.288	0.0163596
635.366	0.0162424
635.444	0.0162102
635.522	0.0163602
635.600	0.0162829
635.678	0.0163576
635.756	0.0162572
635.834	0.0163020
635.913	0.0163184
635.991	0.0164223
636.069	0.0163981
636.147	0.0163705
636.225	0.0162829
636.303	0.0163252
636.381	0.0162596
636.459	0.0163769
636.538	0.0163742
636.616	0.0162785
636.694	0.0162986
636.772	0.0162968
636.850	0.0162444
636.928	0.0163660
637.006	0.0162421
637.084	0.0162627
637.163	0.0162947
637.241	0.0165029
637.319	0.0164304
637.397	0.0162962
637.475	0.0163772
637.553	0.0163409
637.631	0.0163422
637.709	0.0162270
637.788	0.0163924
637.866	0.0163864
637.944	0.0163026
638.022	0.0163506
638.100	0.0162845
638.178	0.0164570
638.256	0.0163371
638.334	0.0162231
638.413	0.0162411
638.491	0.0163723
638.569	0.0163527
638.647	0.0164362
638.725	0.0163006
638.803	0.0163245
638.881	0.0162861
638.959	0.0162833
639.038	0.0164793
639.116	0.0162397
639.194	0.0163875
639.272	0.0163831
639.350	0.0163959
639.428	0.0161891
639.506	0.0162971
639.584	0.0163948
639.663	0.0164053
639.741	0.0164113
639.819	0.0163190
639.897	0.0163980
639.975	0.0163600
640.053	0.0163112
640.131	0.0163328
640.209	0.0161674
640.288	0.0162384
640.366	0.0163696
640.444	0.0163007
640.522	0.0163329
640.600	0.0163626
640.678	0.0163303
640.756	0.0162749
640.834	0.0163217
640.913	0.0162785
640.991	0.0162495
641.069	0.0162600
641.147	0.0161735
641.225	0.0163393
641.303	0.0162666
641.381	0.0163813
641.459	0.0163278
641.538	0.0163768
641.616	0.0162148
641.694	0.0163551
641.772	0.0163329
641.850	0.0162558
641.928	0.0163400
642.006	0.0163929
642.084	0.0162028
642.163	0.0162558
642.241	0.0162199
642.319	0.0162814
642.397	0.0162708
642.475	0.0164118
642.553	0.0162852
642.631	0.0163817
642.709	0.0164098
642.788	0.0164094
642.866	0.0162639
642.944	0.0162690
643.022	0.0163643
643.100	0.0162605
643.178	0.0162365
643.256	0.0162689
643.334	0.0163348
643.413	0.0163058
643.491	0.0163548
643.569	0.0162254
643.647	0.0162069
643.725	0.0162597
643.803	0.0163306
643.881	0.0162991
643.959	0.0162682
644.038	0.0162949
644.116	0.0161846
644.194	0.0164119
644.272	0.0164174
644.350	0.0162922
644.428	0.0161678
644.506	0.0162897
644.584	0.0162664
644.663	0.0163722
644.741	0.0163280
644.819	0.0163599
644.897	0.0162499
644.975	0.0163258
645.053	0.0163651
645.131	0.0162988
645.209	0.0162373
645.288	0.0163904
645.366	0.0163140
645.444	0.0163435
645.522	0.0163341
645.600	0.0162521
645.678	0.0162840
645.756	0.0163876
645.834	0.0161443
645.913	0.0163400
645.991	0.0163468
646.069	0.0164918
646.147	0.0163970
646.225	0.0162971
646.303	0.0163841
646.381	0.0163731
646.459	0.0163113
646.538	0.0163371
646.616	0.0163278
646.694	0.0161723
646.772	0.0163057
646.850	0.0164147
646.928	0.0163148
647.006	0.0163203
647.084	0.0162699
647.163	0.0164528
647.241	0.0163328
647.319	0.0162657
647.397	0.0162733
647.475	0.0162007
647.553	0.0163556
647.631	0.0162982
647.709	0.0163651
647.788	0.0164287
647.866	0.0162749
647.944	0.0162622
648.022	0.0164011
648.100	0.0162280
648.178	0.0163544
648.256	0.0165001
648.334	0.0163232
648.413	0.0162730
648.491	0.0164384
648.569	0.0164171
648.647	0.0162838
648.725	0.0161560
648.803	0.0161883
648.881	0.0164626
648.959	0.0164336
649.038	0.0164141
649.116	0.0163098
649.194	0.0162881
649.272	0.0162471
649.350	0.0162282
649.428	0.0162286
649.506	0.0163920
649.584	0.0163230
649.663	0.0164087
649.741	0.0162767
649.819	0.0164323
649.897	0.0163541
649.975	0.0163447
650.053	0.0163031
650.131	0.0162393
650.209	0.0163210
650.288	0.0163186
650.366	0.0163023
650.444	0.0161724
650.522	0.0163994
650.600	0.0164011
650.678	0.0163696
650.756	0.0162173
650.834	0.0163133
650.913	0.0163604
650.991	0.0163622
651.069	0.0164478
651.147	0.0162991
651.225	0.0162894
651.303	0.0163485
651.381	0.0162096
651.459	0.0163505
651.538	0.0163357
651.616	0.0162871
651.694	0.0162975
651.772	0.0162815
651.850	0.0163229
651.928	0.0162751
652.006	0.0163565
652.084	0.0161834
652.163	0.0162840
652.241	0.0163416
652.319	0.0163456
652.397	0.0161169
652.475	0.0164220
652.553	0.0165048
652.631	0.0161204
652.709	0.0162923
652.788	0.0162872
652.866	0.0163401
652.944	0.0163416
653.022	0.0163113
653.100	0.0163538
653.178	0.0164070
653.256	0.0163197
653.334	0.0162611
653.413	0.0163236
653.491	0.0163717
653.569	0.0162761
653.647	0.0162383
653.725	0.0163849
653.803	0.0163871
653.881	0.0163594
653.959	0.0163377
654.038	0.0162299
654.116	0.0163384
654.194	0.0164869
654.272	0.0163393
654.350	0.0162818
654.428	0.0162713
654.506	0.0162328
654.584	0.0163101
654.663	0.0163038
654.741	0.0163273
654.819	0.0163248
654.897	0.0162747
654.975	0.0163223
655.053	0.0162386
655.131	0.0163054
655.209	0.0163688
655.288	0.0163160
655.366	0.0162350
655.444	0.0162451
655.522	0.0162848
655.600	0.0163500
655.678	0.0164628
655.756	0.0163118
655.834	0.0162374
655.913	0.0163087
655.991	0.0162838
656.069	0.0163652
656.147	0.0163564
656.225	0.0163542
656.303	0.0163065
656.381	0.0163151
656.459	0.0162683
656.538	0.0162518
656.616	0.0163539
656.694	0.0162823
656.772	0.0163787
656.850	0.0162400
656.928	0.0163553
657.006	0.0163109
657.084	0.0163058
657.163	0.0163183
657.241	0.0163806
657.319	0.0163180
657.397	0.0163487
657.475	0.0163835
657.553	0.0162845
657.631	0.0163061
657.709	0.0163411
657.788	0.0162457
657.866	0.0162412
657.944	0.0163813
658.022	0.0162864
658.100	0.0162260
658.178	0.0162891
658.256	0.0163496
658.334	0.0163988
658.413	0.0164352
658.491	0.0162959
658.569	0.0163613
658.647	0.0162998
658.725	0.0162205
658.803	0.0162634
658.881	0.0162843
658.959	0.0163145
659.038	0.0163155
659.116	0.0163326
659.194	0.0162676
659.272	0.0164395
659.350	0.0161670
659.428	0.0162928
659.506	0.0162443
659.584	0.0163074
659.663	0.0163587
659.741	0.0163031
659.819	0.0162901
659.897	0.0163560
659.975	0.0162933
660.053	0.0164014
660.131	0.0162755
660.209	0.0163918
660.288	0.0162568
660.366	0.0162796
660.444	0.0162864
660.522	0.0163325
660.600	0.0164186
660.678	0.0162652
660.756	0.0163345
660.834	0.0162682
660.913	0.0162500
660.991	0.0163306
661.069	0.0163514
661.147	0.0162640
661.225	0.0162584
661.303	0.0162344
661.381	0.0162545
661.459	0.0164705
661.538	0.0162983
661.616	0.0163314
661.694	0.0163710
661.772	0.0165022
661.850	0.0162763
661.928	0.0162361
662.006	0.0162984
662.084	0.0164233
662.163	0.0162821
662.241	0.0163018
662.319	0.0163104
662.397	0.0163810
662.475	0.0163439
662.553	0.0162070
662.631	0.0162901
662.709	0.0163679
662.788	0.0163564
662.866	0.0163565
662.944	0.0164665
663.022	0.0163649
663.100	0.0162969
663.178	0.0164222
663.256	0.0163735
663.334	0.0163033
663.413	0.0162405
663.491	0.0162917
663.569	0.0163653
663.647	0.0163765
663.725	0.0163007
663.803	0.0163395
663.881	0.0163480
663.959	0.0162516
664.038	0.0162872
664.116	0.0162878
664.194	0.0161855
664.272	0.0163474
664.350	0.0163142
664.428	0.0162663
664.506	0.0163755
664.584	0.0163303
664.663	0.0163763
664.741	0.0162155
664.819	0.0162237
664.897	0.0163525
664.975	0.0162831
665.053	0.0162106
665.131	0.0163196
665.209	0.0163085
665.288	0.0162427
665.366	0.0163099
665.444	0.0161723
665.522	0.0161535
665.600	0.0163630
665.678	0.0163992
665.756	0.0162412
665.834	0.0162643
665.913	0.0163351
665.991	0.0163934
666.069	0.0163342
666.147	0.0162742
666.225	0.0164184
666.303	0.0162776
666.381	0.0163488
666.459	0.0163436
666.538	0.0163017
666.616	0.0163918
666.694	0.0162790
666.772	0.0162459
666.850	0.0163589
666.928	0.0163047
667.006	0.0163236
667.084	0.0163768
667.163	0.0162328
667.241	0.0164106
667.319	0.0162923
667.397	0.0164050
667.475	0.0164407
667.553	0.0160870
667.631	0.0162263
667.709	0.0163689
667.788	0.0163471
667.866	0.0162757
667.944	0.0161739
668.022	0.0164316
668.100	0.0163124
668.178	0.0161736
668.256	0.0161906
668.334	0.0162590
668.413	0.0163039
668.491	0.0163619
668.569	0.0162537
668.647	0.0163436
668.725	0.0162731
668.803	0.0162363
668.881	0.0163892
668.959	0.0163305
669.038	0.0165087
669.116	0.0163115
669.194	0.0163396
669.272	0.0164565
669.350	0.0164626
669.428	0.0163763
669.506	0.0163043
669.584	0.0163613
669.663	0.0162917
669.741	0.0162740
669.819	0.0163820
669.897	0.0163550
669.975	0.0163354
670.053	0.0162920
670.131	0.0162316
670.209	0.0162453
670.288	0.0163226
670.366	0.0163029
670.444	0.0162955
670.522	0.0163946
670.600	0.0163715
670.678	0.0162321
670.756	0.0162579
670.834	0.0164491
670.913	0.0164157
670.991	0.0162103
671.069	0.0162001
671.147	0.0162785
671.225	0.0163529
671.303	0.0164024
671.381	0.0163837
671.459	0.0163228
671.538	0.0162608
671.616	0.0163560
671.694	0.0162224
671.772	0.0162324
671.850	0.0162461
671.928	0.0163390
672.006	0.0163663
672.084	0.0163260
672.163	0.0162075
672.241	0.0161900
672.319	0.0163644
672.397	0.0162110
672.475	0.0162977
672.553	0.0163638
672.631	0.0162303
672.709	0.0163811
672.788	0.0161526
672.866	0.0162659
672.944	0.0161924
673.022	0.0163049
673.100	0.0162421
673.178	0.0162507
673.256	0.0162026
673.334	0.0164569
673.413	0.0162614
673.491	0.0161936
673.569	0.0162783
673.647	0.0163309
673.725	0.0162892
673.803	0.0162561
673.881	0.0162521
673.959	0.0161781
674.038	0.0162300
674.116	0.0162638
674.194	0.0161905
674.272	0.0162681
674.350	0.0161314
674.428	0.0160206
674.506	0.0163615
674.584	0.0162700
674.663	0.0161996
674.741	0.0161317
674.819	0.0162418
674.897	0.0162329
674.975	0.0160855
675.053	0.0163223
675.131	0.0161943
675.209	0.0161030
675.288	0.0162440
675.366	0.0163461
675.444	0.0162164
675.522	0.0162209
675.600	0.0163380
675.678	0.0163432
675.756	0.0163752
675.834	0.0163297
675.913	0.0163107
675.991	0.0162414
676.069	0.0162479
676.147	0.0162521
676.225	0.0162560
676.303	0.0161839
676.381	0.0161884
676.459	0.0161999
676.538	0.0163544
676.616	0.0163611
676.694	0.0163526
676.772	0.0163385
676.850	0.0163807
676.928	0.0164412
677.006	0.0163706
677.084	0.0163573
677.163	0.0163069
677.241	0.0164259
677.319	0.0163348
677.397	0.0163354
677.475	0.0162882
677.553	0.0164809
677.631	0.0164048
677.709	0.0163621
677.788	0.0164131
677.866	0.0164919
677.944	0.0164188
678.022	0.0162685
678.100	0.0164606
678.178	0.0165095
678.256	0.0163387
678.334	0.0163415
678.413	0.0163924
678.491	0.0164024
678.569	0.0164359
678.647	0.0164586
678.725	0.0164262
678.803	0.0164095
678.881	0.0165548
678.959	0.0164505
679.038	0.0164341
679.116	0.0164177
679.194	0.0164087
679.272	0.0164051
679.350	0.0165562
679.428	0.0164146
679.506	0.0165234
679.584	0.0164682
679.663	0.0163283
679.741	0.0165148
679.819	0.0165108
679.897	0.0164397
679.975	0.0164729
680.053	0.0165908
680.131	0.0164492
680.209	0.0164481
680.288	0.0164513
680.366	0.0163448
680.444	0.0164624
680.522	0.0165253
680.600	0.0165121
680.678	0.0163651
680.756	0.0165038
680.834	0.0164820
680.913	0.0163311
680.991	0.0164925
681.069	0.0164545
681.147	0.0164016
681.225	0.0164500
681.303	0.0165317
681.381	0.0164037
681.459	0.0163112
681.538	0.0164628
681.616	0.0164787
681.694	0.0163615
681.772	0.0163398
681.850	0.0164459
681.928	0.0164138
682.006	0.0164046
682.084	0.0163567
682.163	0.0164430
682.241	0.0164989
682.319	0.0163006
682.397	0.0163623
682.475	0.0164362
682.553	0.0163708
682.631	0.0163336
682.709	0.0163403
682.788	0.0163583
682.866	0.0164047
682.944	0.0162640
683.022	0.0163794
683.100	0.0163077
683.178	0.0161277
683.256	0.0163098
683.334	0.0162829
683.413	0.0163096
683.491	0.0163294
683.569	0.0162704
683.647	0.0164267
683.725	0.0161864
683.803	0.0164038
683.881	0.0164081
683.959	0.0162405
684.038	0.0162116
684.116	0.0162038
684.194	0.0163585
684.272	0.0161635
684.350	0.0163037
684.428	0.0162561
684.506	0.0162230
684.584	0.0163082
684.663	0.0162174
684.741	0.0161320
684.819	0.0163385
684.897	0.0162598
684.975	0.0162302
685.053	0.0162682
685.131	0.0162180
685.209	0.0163454
685.288	0.0160653
685.366	0.0162427
685.444	0.0162143
685.522	0.0162784
685.600	0.0163345
685.678	0.0164002
685.756	0.0163338
685.834	0.0163249
685.913	0.0161794
685.991	0.0163185
686.069	0.0162571
686.147	0.0161771
686.225	0.0162139
686.303	0.0162491
686.381	0.0163639
686.459	0.0162180
686.538	0.0163728
686.616	0.0164538
686.694	0.0162881
686.772	0.0162864
686.850	0.0161440
686.928	0.0162361
687.006	0.0162492
687.084	0.0162395
687.163	0.0162405
687.241	0.0163389
687.319	0.0163264
687.397	0.0163690
687.475	0.0163504
687.553	0.0162785
687.631	0.0163941
687.709	0.0163425
687.788	0.0164262
687.866	0.0163495
687.944	0.0162610
688.022	0.0163801
688.100	0.0163940
688.178	0.0163659
688.256	0.0162555
688.334	0.0163201
688.413	0.0163666
688.491	0.0162104
688.569	0.0162943
688.647	0.0164263
688.725	0.0163863
688.803	0.0162620
688.881	0.0163316
688.959	0.0162660
689.038	0.0162617
689.116	0.0163618
689.194	0.0163089
689.272	0.0162849
689.350	0.0163800
689.428	0.0163403
689.506	0.0162951
689.584	0.0163074
689.663	0.0163793
689.741	0.0164162
689.819	0.0164346
689.897	0.0163317
689.975	0.0162289
690.053	0.0162404
690.131	0.0161018
690.209	0.0161974
690.288	0.0161031
690.366	0.0162556
690.444	0.0163235
690.522	0.0164425
690.600	0.0165055
690.678	0.0166987
690.756	0.0165541
690.834	0.0168226
690.913	0.0169122
690.991	0.0168604
691.069	0.0166892
691.147	0.0165361
691.225	0.0164159
691.303	0.0164179
691.381	0.0158591
691.459	0.0157907
691.538	0.0158981
691.616	0.0157904
691.694	0.0158377
691.772	0.0157799
691.850	0.0158643
691.928	0.0161194
692.006	0.0161903
692.084	0.0165836
692.163	0.0167383
692.241	0.0169554
692.319	0.0171657
692.397	0.0172338
692.475	0.0172767
692.553	0.0172311
692.631	0.0171917
692.709	0.0171130
692.788	0.0167518
692.866	0.0165639
692.944	0.0164130
693.022	0.0160575
693.100	0.0158288
693.178	0.0155343
693.256	0.0153875
693.334	0.0153416
693.413	0.0152249
693.491	0.0153065
693.569	0.0153836
693.647	0.0155463
693.725	0.0156709
693.803	0.0158447
693.881	0.0160596
693.959	0.0162605
694.038	0.0164867
694.116	0.0166621
694.194	0.0167471
694.272	0.0170191
694.350	0.0170583
694.428	0.0172244
694.506	0.0170615
694.584	0.0170380
694.663	0.0170203
694.741	0.0169801
694.819	0.0168147
694.897	0.0167728
694.975	0.0167366
695.053	0.0164632
695.131	0.0164127
695.209	0.0163284
695.288	0.0163802
695.366	0.0163605
695.444	0.0161183
695.522	0.0161840
695.600	0.0161757
695.678	0.0161420
695.756	0.0160523
695.834	0.0159940
695.913	0.0158207
695.991	0.0156863
696.069	0.0157264
696.147	0.0156691
696.225	0.0155747
696.303	0.0154479
696.381	0.0154641
696.459	0.0154314
696.538	0.0154293
696.616	0.0153185
696.694	0.0156608
696.772	0.0156341
696.850	0.0158551
696.928	0.0158578
697.006	0.0161038
697.084	0.0163672
697.163	0.0166853
697.241	0.0167619
697.319	0.0168279
697.397	0.0171596
697.475	0.0172333
697.553	0.0174644
697.631	0.0175779
697.709	0.0175331
697.788	0.0175336
697.866	0.0176057
697.944	0.0175714
698.022	0.0176900
698.100	0.0175537
698.178	0.0173954
698.256	0.0172208
698.334	0.0169460
698.413	0.0167635
698.491	0.0166095
698.569	0.0163005
698.647	0.0160708
698.725	0.0157539
698.803	0.0154953
698.881	0.0152893
698.959	0.0150607
699.038	0.0148998
699.116	0.0148776
699.194	0.0145899
699.272	0.0146822
699.350	0.0146980
699.428	0.0147530
699.506	0.0149373
699.584	0.0152699
699.663	0.0154757
699.741	0.0157571
699.819	0.0159489
699.897	0.0160798
699.975	0.0162122
700.053	0.0166088
700.131	0.0165991
700.209	0.0167930
700.288	0.0169440
700.366	0.0169395
700.444	0.0168643
700.522	0.0168916
700.600	0.0169054
700.678	0.0168549
700.756	0.0168700
700.834	0.0167944
700.913	0.0168124
700.991	0.0167930
701.069	0.0168365
701.147	0.0167152
701.225	0.0167198
701.303	0.0169704
701.381	0.0170377
701.459	0.0170473
701.538	0.0171905
701.616	0.0172492
701.694	0.0172975
701.772	0.0172555
701.850	0.0171184
701.928	0.0173019
702.006	0.0171237
702.084	0.0170084
702.163	0.0168681
702.241	0.0167178
702.319	0.0165462
702.397	0.0163895
702.475	0.0161321
702.553	0.0159314
702.631	0.0155425
702.709	0.0154287
702.788	0.0152994
702.866	0.0149663
702.944	0.0150043
703.022	0.0149100
703.100	0.0148764
703.178	0.0149815
703.256	0.0149098
703.334	0.0149348
703.413	0.0151379
703.491	0.0152585
703.569	0.0153579
703.647	0.0155782
703.725	0.0158601
703.803	0.0158897
703.881	0.0160055
703.959	0.0162321
704.038	0.0165146
704.116	0.0166474
704.194	0.0165957
704.272	0.0168623
704.350	0.0169542
704.428	0.0168578
704.506	0.0169926
704.584	0.0168547
704.663	0.0168773
704.741	0.0167254
704.819	0.0167611
704.897	0.0169244
704.975	0.0169038
705.053	0.0167466
705.131	0.0166438
705.209	0.0166969
705.288	0.0169351
705.366	0.0168697
705.444	0.0168900
705.522	0.0169376
705.600	0.0168481
705.678	0.0170808
705.756	0.0168604
705.834	0.0168282
705.913	0.0169041
705.991	0.0169347
706.069	0.0168248
706.147	0.0167365
706.225	0.0166057
706.303	0.0166338
706.381	0.0163996
706.459	0.0162327
706.538	0.0163219
706.616	0.0162828
706.694	0.0160845
706.772	0.0160957
706.850	0.0161576
706.928	0.0160741
707.006	0.0159883
707.084	0.0159216
707.163	0.0159216
707.241	0.0158613
707.319	0.0158650
707.397	0.0159480
707.475	0.0158994
707.553	0.0158847
707.631	0.0159092
707.709	0.0158029
707.788	0.0157994
707.866	0.0159301
707.944	0.0160407
708.022	0.0158178
708.100	0.0158307
708.178	0.0159189
708.256	0.0158807
708.334	0.0159742
708.413	0.0161321
708.491	0.0159467
708.569	0.0159605
708.647	0.0160889
708.725	0.0160179
708.803	0.0161457
708.881	0.0163288
708.959	0.0162669
709.038	0.0163008
709.116	0.0163165
709.194	0.0164945
709.272	0.0164475
709.350	0.0166225
709.428	0.0169107
709.506	0.0168256
709.584	0.0169462
709.663	0.0171024
709.741	0.0171390
709.819	0.0173334
709.897	0.0173218
709.975	0.0171658
710.053	0.0172993
710.131	0.0172398
710.209	0.0171711
710.288	0.0170155
710.366	0.0169621
710.444	0.0169243
710.522	0.0167449
710.600	0.0166827
710.678	0.0164900
710.756	0.0162582
710.834	0.0162189
710.913	0.0160883
710.991	0.0160857
711.069	0.0160060
711.147	0.0160075
711.225	0.0160492
711.303	0.0159824
711.381	0.0158604
711.459	0.0160139
711.538	0.0160689
711.616	0.0159136
711.694	0.0159177
711.772	0.0159706
711.850	0.0158285
711.928	0.0159072
712.006	0.0160603
712.084	0.0157932
712.163	0.0159080
712.241	0.0159143
712.319	0.0158877
712.397	0.0158723
712.475	0.0159412
712.553	0.0158967
712.631	0.0159741
712.709	0.0159268
712.788	0.0158495
712.866	0.0158359
712.944	0.0159499
713.022	0.0159169
713.100	0.0160909
713.178	0.0159309
713.256	0.0160767
713.334	0.0161678
713.413	0.0159258
713.491	0.0160173
713.569	0.0161778
713.647	0.0160882
713.725	0.0163484
713.803	0.0163987
713.881	0.0163481
713.959	0.0163529
714.038	0.0164430
714.116	0.0164834
714.194	0.0166448
714.272	0.0166692
714.350	0.0167463
714.428	0.0166470
714.506	0.0167565
714.584	0.0167378
714.663	0.0168770
714.741	0.0169350
714.819	0.0169127
714.897	0.0170670
714.975	0.0169331
715.053	0.0169891
715.131	0.0170557
715.209	0.0169247
715.288	0.0167938
715.366	0.0169413
715.444	0.0166996
715.522	0.0165762
715.600	0.0166711
715.678	0.0166228
715.756	0.0164891
715.834	0.0163237
715.913	0.0163421
715.991	0.0162807
716.069	0.0163253
716.147	0.0162570
716.225	0.0161315
716.303	0.0161015
716.381	0.0161562
716.459	0.0161678
716.538	0.0161131
716.616	0.0161558
716.694	0.0159966
716.772	0.0158862
716.850	0.0160772
716.928	0.0160776
717.006	0.0161310
717.084	0.0162102
717.163	0.0162373
717.241	0.0161385
717.319	0.0159950
717.397	0.0160465
717.475	0.0159634
717.553	0.0159641
717.631	0.0159175
717.709	0.0160205
717.788	0.0157450
717.866	0.0158491
717.944	0.0160000
718.022	0.0158324
718.100	0.0158131
718.178	0.0158714
718.256	0.0158997
718.334	0.0159052
718.413	0.0160471
718.491	0.0161024
718.569	0.0162797
718.647	0.0163044
718.725	0.0163265
718.803	0.0163075
718.881	0.0164058
718.959	0.0165417
719.038	0.0164337
719.116	0.0163837
719.194	0.0163745
719.272	0.0164569
719.350	0.0165004
719.428	0.0163593
719.506	0.0165345
719.584	0.0165669
719.663	0.0165505
719.741	0.0165287
719.819	0.0164867
719.897	0.0165788
719.975	0.0167115
720.053	0.0167808
720.131	0.0168262
720.209	0.0169250
720.288	0.0169131
720.366	0.0170695
720.444	0.0169888
720.522	0.0171870
720.600	0.0172508
720.678	0.0170268
720.756	0.0169041
720.834	0.0168878
720.913	0.0167368
720.991	0.0166998
721.069	0.0165153
721.147	0.0164340
721.225	0.0165046
721.303	0.0163179
721.381	0.0161262
721.459	0.0161900
721.538	0.0160018
721.616	0.0158749
721.694	0.0159264
721.772	0.0160933
721.850	0.0160308
721.928	0.0159749
722.006	0.0159293
722.084	0.0160585
722.163	0.0160554
722.241	0.0160436
722.319	0.0159451
722.397	0.0159949
722.475	0.0159128
722.553	0.0159952
722.631	0.0159276
722.709	0.0159739
722.788	0.0159383
722.866	0.0158517
722.944	0.0159378
723.022	0.0159935
723.100	0.0161001
723.178	0.0159832
723.256	0.0162209
723.334	0.0160885
723.413	0.0161491
723.491	0.0161563
723.569	0.0162834
723.647	0.0164039
723.725	0.0164122
723.803	0.0161899
723.881	0.0162531
723.959	0.0165114
724.038	0.0163909
724.116	0.0163373
724.194	0.0163224
724.272	0.0163685
724.350	0.0163661
724.428	0.0162917
724.506	0.0163689
724.584	0.0163969
724.663	0.0162677
724.741	0.0162784
724.819	0.0163992
724.897	0.0163818
724.975	0.0163027
725.053	0.0164355
725.131	0.0164869
725.209	0.0165893
725.288	0.0166515
725.366	0.0166259
725.444	0.0165679
725.522	0.0167397
725.600	0.0167200
725.678	0.0167133
725.756	0.0165850
725.834	0.0167272
725.913	0.0167781
725.991	0.0167387
726.069	0.0165147
726.147	0.0164362
726.225	0.0164240
726.303	0.0165526
726.381	0.0165210
726.459	0.0162672
726.538	0.0161658
726.616	0.0161562
726.694	0.0162385
726.772	0.0162425
726.850	0.0160155
726.928	0.0161137
727.006	0.0160279
727.084	0.0161404
727.163	0.0161425
727.241	0.0161151
727.319	0.0162093
727.397	0.0162452
727.475	0.0162361
727.553	0.0163195
727.631	0.0163442
727.709	0.0164334
727.788	0.0164296
727.866	0.0163937
727.944	0.0164003
728.022	0.0163222
728.100	0.0162680
728.178	0.0163408
728.256	0.0161713
728.334	0.0163400
728.413	0.0163299
728.491	0.0162138
728.569	0.0162775
728.647	0.0162794
728.725	0.0162106
728.803	0.0161195
728.881	0.0159691
728.959	0.0161484
729.038	0.0161265
729.116	0.0162822
729.194	0.0161484
729.272	0.0162174
729.350	0.0161232
729.428	0.0163590
729.506	0.0163802
729.584	0.0163846
729.663	0.0163660
729.741	0.0163300
729.819	0.0163736
729.897	0.0165113
729.975	0.0164880
730.053	0.0166238
730.131	0.0165569
730.209	0.0164950
730.288	0.0165173
730.366	0.0164906
730.444	0.0163738
730.522	0.0165385
730.600	0.0164259
730.678	0.0163393
730.756	0.0163906
730.834	0.0164294
730.913	0.0165106
730.991	0.0165745
731.069	0.0165483
731.147	0.0165076
731.225	0.0165209
731.303	0.0164188
731.381	0.0166074
731.459	0.0165509
731.538	0.0166698
731.616	0.0165115
731.694	0.0164322
731.772	0.0165469
731.850	0.0164679
731.928	0.0164567
732.006	0.0165196
732.084	0.0163209
732.163	0.0164893
732.241	0.0165530
732.319	0.0164917
732.397	0.0165198
732.475	0.0163857
732.553	0.0164703
732.631	0.0165717
732.709	0.0165295
732.788	0.0165512
732.866	0.0164538
732.944	0.0165597
733.022	0.0164417
733.100	0.0164921
733.178	0.0164665
733.256	0.0164229
733.334	0.0163311
733.413	0.0164111
733.491	0.0163892
733.569	0.0163351
733.647	0.0164091
733.725	0.0163182
733.803	0.0163164
733.881	0.0162079
733.959	0.0163114
734.038	0.0161626
734.116	0.0162125
734.194	0.0161755
734.272	0.0160382
734.350	0.0160336
734.428	0.0160400
734.506	0.0159885
734.584	0.0160126
734.663	0.0159966
734.741	0.0159416
734.819	0.0160608
734.897	0.0159498
734.975	0.0159184
735.053	0.0159808
735.131	0.0159222
735.209	0.0159875
735.288	0.0160086
735.366	0.0162104
735.444	0.0161206
735.522	0.0161452
735.600	0.0163304
735.678	0.0161709
735.756	0.0162672
735.834	0.0163860
735.913	0.0163731
735.991	0.0162643
736.069	0.0162929
736.147	0.0164589
736.225	0.0164631
736.303	0.0163247
736.381	0.0164935
736.459	0.0164467
736.538	0.0165309
736.616	0.0165546
736.694	0.0165118
736.772	0.0165163
736.850	0.0165023
736.928	0.0164989
737.006	0.0163840
737.084	0.0164316
737.163	0.0165024
737.241	0.0164380
737.319	0.0164645
737.397	0.0163191
737.475	0.0164402
737.553	0.0164897
737.631	0.0163063
737.709	0.0163609
737.788	0.0164549
737.866	0.0162178
737.944	0.0161713
738.022	0.0162440
738.100	0.0162482
738.178	0.0162673
738.256	0.0162630
738.334	0.0162551
738.413	0.0161956
738.491	0.0162702
738.569	0.0163735
738.647	0.0163483
738.725	0.0164006
738.803	0.0163451
738.881	0.0164135
738.959	0.0164135
739.038	0.0162410
739.116	0.0163301
739.194	0.0164420
739.272	0.0162970
739.350	0.0164140
739.428	0.0163721
739.506	0.0164463
739.584	0.0164310
739.663	0.0164181
739.741	0.0163346
739.819	0.0164600
739.897	0.0164233
739.975	0.0164023
740.053	0.0164233
740.131	0.0163814
740.209	0.0163361
740.288	0.0164431
740.366	0.0164317
740.444	0.0162901
740.522	0.0163774
740.600	0.0163235
740.678	0.0162161
740.756	0.0164032
740.834	0.0164417
740.913	0.0162608
740.991	0.0161555
741.069	0.0161974
741.147	0.0161636
741.225	0.0161466
741.303	0.0162606
741.381	0.0162255
741.459	0.0161827
741.538	0.0162305
741.616	0.0160654
741.694	0.0161958
741.772	0.0161188
741.850	0.0161257
741.928	0.0161301
742.006	0.0161454
742.084	0.0161533
742.163	0.0161099
742.241	0.0162086
742.319	0.0161247
742.397	0.0161113
742.475	0.0162063
742.553	0.0162411
742.631	0.0161950
742.709	0.0161768
742.788	0.0163504
742.866	0.0162032
742.944	0.0163188
743.022	0.0163149
743.100	0.0162736
743.178	0.0163748
743.256	0.0165316
743.334	0.0164397
743.413	0.0163921
743.491	0.0164288
743.569	0.0164244
743.647	0.0165429
743.725	0.0165045
743.803	0.0165034
743.881	0.0166076
743.959	0.0164790
744.038	0.0164809
744.116	0.0164201
744.194	0.0165970
744.272	0.0164188
744.350	0.0164727
744.428	0.0163487
744.506	0.0165180
744.584	0.0164980
744.663	0.0166047
744.741	0.0164922
744.819	0.0164061
744.897	0.0163851
744.975	0.0165272
745.053	0.0164359
745.131	0.0165147
745.209	0.0163491
745.288	0.0163062
745.366	0.0163474
745.444	0.0164204
745.522	0.0165732
745.600	0.0163204
745.678	0.0161626
745.756	0.0164209
745.834	0.0163470
745.913	0.0162822
745.991	0.0163977
746.069	0.0164217
746.147	0.0163784
746.225	0.0164725
746.303	0.0162738
746.381	0.0163976
746.459	0.0164140
746.538	0.0163467
746.616	0.0163557
746.694	0.0164606
746.772	0.0163506
746.850	0.0161497
746.928	0.0163393
747.006	0.0163178
747.084	0.0162494
747.163	0.0162807
747.241	0.0162988
747.319	0.0162037
747.397	0.0162856
747.475	0.0162192
747.553	0.0162521
747.631	0.0161562
747.709	0.0160883
747.788	0.0160327
747.866	0.0159902
747.944	0.0159693
748.022	0.0161805
748.100	0.0161291
748.178	0.0162074
748.256	0.0159913
748.334	0.0159948
748.413	0.0160264
748.491	0.0161183
748.569	0.0161641
748.647	0.0161732
748.725	0.0161807
748.803	0.0163485
748.881	0.0163541
748.959	0.0165017
749.038	0.0163363
749.116	0.0163968
749.194	0.0163931
749.272	0.0163502
749.350	0.0164825
749.428	0.0163309
749.506	0.0164183
749.584	0.0166270
749.663	0.0165691
749.741	0.0165209
749.819	0.0163322
749.897	0.0164165
749.975	0.0165592
750.053	0.0164336
750.131	0.0164118
750.209	0.0163362
750.288	0.0165144
750.366	0.0166033
750.444	0.0165220
750.522	0.0163628
750.600	0.0163932
750.678	0.0163985
750.756	0.0165425
750.834	0.0163671
750.913	0.0163876
750.991	0.0164545
751.069	0.0165144
751.147	0.0164383
751.225	0.0164912
751.303	0.0165100
751.381	0.0162935
751.459	0.0163033
751.538	0.0162042
751.616	0.0161134
751.694	0.0162510
751.772	0.0163519
751.850	0.0161601
751.928	0.0161340
752.006	0.0161624
752.084	0.0161761
752.163	0.0161706
752.241	0.0161446
752.319	0.0162152
752.397	0.0162495
752.475	0.0162669
752.553	0.0162848
752.631	0.0166077
752.709	0.0164410
752.788	0.0165032
752.866	0.0164880
752.944	0.0164839
753.022	0.0165048
753.100	0.0165839
753.178	0.0166992
753.256	0.0165642
753.334	0.0164748
753.413	0.0165527
753.491	0.0166032
753.569	0.0166071
753.647	0.0164481
753.725	0.0165395
753.803	0.0163419
753.881	0.0163943
753.959	0.0162895
754.038	0.0162981
754.116	0.0161951
754.194	0.0161133
754.272	0.0162022
754.350	0.0161931
754.428	0.0163129
754.506	0.0162785
754.584	0.0161671
754.663	0.0161716
754.741	0.0162790
754.819	0.0163148
754.897	0.0165103
754.975	0.0164960
755.053	0.0162669
755.131	0.0165311
755.209	0.0165130
755.288	0.0165081
755.366	0.0164493
755.444	0.0166253
755.522	0.0164413
755.600	0.0163689
755.678	0.0164452
755.756	0.0165248
755.834	0.0163766
755.913	0.0164918
755.991	0.0163728
756.069	0.0164528
756.147	0.0163556
756.225	0.0162854
756.303	0.0163245
756.381	0.0161269
756.459	0.0162193
756.538	0.0164033
756.616	0.0161528
756.694	0.0161121
756.772	0.0161758
756.850	0.0163374
756.928	0.0161768
757.006	0.0163054
757.084	0.0162954
757.163	0.0163140
757.241	0.0164326
757.319	0.0163469
757.397	0.0163745
757.475	0.0164188
757.553	0.0163203
757.631	0.0162228
757.709	0.0163277
757.788	0.0162711
757.866	0.0163310
757.944	0.0164414
758.022	0.0165302
758.100	0.0163559
758.178	0.0163996
758.256	0.0162865
758.334	0.0162943
758.413	0.0162988
758.491	0.0164331
758.569	0.0163149
758.647	0.0163899
758.725	0.0164745
758.803	0.0165071
758.881	0.0163185
758.959	0.0163449
759.038	0.0164112
759.116	0.0163313
759.194	0.0164316
759.272	0.0163461
759.350	0.0162186
759.428	0.0164438
759.506	0.0164605
759.584	0.0163089
759.663	0.0163215
759.741	0.0162759
759.819	0.0163937
759.897	0.0163961
759.975	0.0164223
760.053	0.0163602
760.131	0.0162299
760.209	0.0163688
760.288	0.0163734
760.366	0.0162884
760.444	0.0164433
760.522	0.0164442
760.600	0.0163982
760.678	0.0164008
760.756	0.0163409
760.834	0.0164518
760.913	0.0164028
760.991	0.0163323
761.069	0.0163227
761.147	0.0162946
761.225	0.0163737
761.303	0.0163013
761.381	0.0161882
761.459	0.0163130
761.538	0.0162473
761.616	0.0161652
761.694	0.0160417
761.772	0.0162355
761.850	0.0161158
761.928	0.0160987
762.006	0.0161816
762.084	0.0162263
762.163	0.0161506
762.241	0.0161723
762.319	0.0161964
762.397	0.0162707
762.475	0.0162360
762.553	0.0161919
762.631	0.0162191
762.709	0.0163708
762.788	0.0162000
762.866	0.0162731
762.944	0.0163710
763.022	0.0161974
763.100	0.0163898
763.178	0.0164014
763.256	0.0164304
763.334	0.0163351
763.413	0.0164120
763.491	0.0163797
763.569	0.0164270
763.647	0.0163815
763.725	0.0165298
763.803	0.0164937
763.881	0.0164843
763.959	0.0163840
764.038	0.0163226
764.116	0.0163008
764.194	0.0164489
764.272	0.0163747
764.350	0.0164597
764.428	0.0164313
764.506	0.0164236
764.584	0.0163210
764.663	0.0163061
764.741	0.0162310
764.819	0.0162971
764.897	0.0162725
764.975	0.0163715
765.053	0.0162694
765.131	0.0161004
765.209	0.0161915
765.288	0.0162053
765.366	0.0163762
765.444	0.0163514
765.522	0.0161935
765.600	0.0163107
765.678	0.0164066
765.756	0.0163675
765.834	0.0163797
765.913	0.0163674
765.991	0.0163045
766.069	0.0163448
766.147	0.0164946
766.225	0.0163159
766.303	0.0162614
766.381	0.0163343
766.459	0.0163980
766.538	0.0165209
766.616	0.0163115
766.694	0.0163511
766.772	0.0163541
766.850	0.0163128
766.928	0.0162558
767.006	0.0163056
767.084	0.0162738
767.163	0.0163168
767.241	0.0164132
767.319	0.0162963
767.397	0.0165302
767.475	0.0163271
767.553	0.0163949
767.631	0.0164452
767.709	0.0164136
767.788	0.0162892
767.866	0.0165309
767.944	0.0165466
768.022	0.0165945
768.100	0.0164289
768.178	0.0166301
768.256	0.0165691
768.334	0.0165795
768.413	0.0164581
768.491	0.0164806
768.569	0.0163946
768.647	0.0166778
768.725	0.0165503
768.803	0.0164819
768.881	0.0164235
768.959	0.0163609
769.038	0.0163113
769.116	0.0162665
769.194	0.0161375
769.272	0.0163114
769.350	0.0162550
769.428	0.0161367
769.506	0.0160802
769.584	0.0161205
769.663	0.0160329
769.741	0.0160609
769.819	0.0159904
769.897	0.0158920
769.975	0.0160839
770.053	0.0159799
770.131	0.0160865
770.209	0.0159779
770.288	0.0160466
770.366	0.0160969
770.444	0.0162532
770.522	0.0162469
770.600	0.0160793
770.678	0.0162281
770.756	0.0161587
770.834	0.0163194
770.913	0.0163247
770.991	0.0164593
771.069	0.0164211
771.147	0.0164164
771.225	0.0163425
771.303	0.0165195
771.381	0.0165015
771.459	0.0165585
771.538	0.0163412
771.616	0.0163734
771.694	0.0163696
771.772	0.0163149
771.850	0.0163760
771.928	0.0163013
772.006	0.0163412
772.084	0.0162622
772.163	0.0164000
772.241	0.0163190
772.319	0.0162522
772.397	0.0163294
772.475	0.0162315
772.553	0.0162454
772.631	0.0161657
772.709	0.0161456
772.788	0.0163560
772.866	0.0163955
772.944	0.0162383
773.022	0.0163575
773.100	0.0164832
773.178	0.0163622
773.256	0.0161964
773.334	0.0162626
773.413	0.0164011
773.491	0.0164385
773.569	0.0163773
773.647	0.0164641
773.725	0.0165941
773.803	0.0165953
773.881	0.0164613
773.959	0.0164343
774.038	0.0165870
774.116	0.0165216
774.194	0.0164392
774.272	0.0164291
774.350	0.0164645
774.428	0.0166213
774.506	0.0164903
774.584	0.0163530
774.663	0.0163391
774.741	0.0164136
774.819	0.0162292
774.897	0.0161861
774.975	0.0162904
775.053	0.0162843
775.131	0.0162404
775.209	0.0162489
775.288	0.0161527
775.366	0.0161065
775.444	0.0160544
775.522	0.0159738
775.600	0.0161099
775.678	0.0160301
775.756	0.0160982
775.834	0.0161211
775.913	0.0159846
775.991	0.0161671
776.069	0.0161196
776.147	0.0161701
776.225	0.0162259
776.303	0.0163534
776.381	0.0162915
776.459	0.0163764
776.538	0.0165210
776.616	0.0165416
776.694	0.0164827
776.772	0.0165701
776.850	0.0165595
776.928	0.0165985
777.006	0.0166898
777.084	0.0165124
777.163	0.0166476
777.241	0.0165820
777.319	0.0166760
777.397	0.0165978
777.475	0.0164865
777.553	0.0164030
777.631	0.0164546
777.709	0.0164776
777.788	0.0164480
777.866	0.0163831
777.944	0.0162400
778.022	0.0162082
778.100	0.0163194
778.178	0.0161919
778.256	0.0161602
778.334	0.0161626
778.413	0.0161226
778.491	0.0161801
778.569	0.0161445
778.647	0.0161555
778.725	0.0160630
778.803	0.0160966
778.881	0.0162973
778.959	0.0162064
779.038	0.0161476
779.116	0.0162760
779.194	0.0163617
779.272	0.0162589
779.350	0.0163739
779.428	0.0163490
779.506	0.0163759
779.584	0.0162968
779.663	0.0163702
779.741	0.0163757
779.819	0.0165736
779.897	0.0165206
779.975	0.0164962
780.053	0.0164928
780.131	0.0165310
780.209	0.0164864
780.288	0.0166721
780.366	0.0166054
780.444	0.0166294
780.522	0.0166287
780.600	0.0165891
780.678	0.0166084
780.756	0.0165999
780.834	0.0164434
780.913	0.0163960
780.991	0.0163770
781.069	0.0164711
781.147	0.0164361
781.225	0.0163590
781.303	0.0163531
781.381	0.0164004
781.459	0.0162165
781.538	0.0163225
781.616	0.0162547
781.694	0.0162149
781.772	0.0163924
781.850	0.0162955
781.928	0.0162893
782.006	0.0161804
782.084	0.0161610
782.163	0.0162413
782.241	0.0162885
782.319	0.0164193
782.397	0.0163716
782.475	0.0163032
782.553	0.0164848
782.631	0.0162907
782.709	0.0163597
782.788	0.0162923
782.866	0.0163596
782.944	0.0162314
783.022	0.0162922
783.100	0.0163478
783.178	0.0162285
783.256	0.0161332
783.334	0.0161169
783.413	0.0162441
783.491	0.0162304
783.569	0.0161829
783.647	0.0162744
783.725	0.0162665
783.803	0.0163379
783.881	0.0162872
783.959	0.0162385
784.038	0.0164100
784.116	0.0165044
784.194	0.0163069
784.272	0.0163157
784.350	0.0164352
784.428	0.0164352
784.506	0.0164046
784.584	0.0163580
784.663	0.0162708
784.741	0.0163643
784.819	0.0163844
784.897	0.0164081
784.975	0.0164383
785.053	0.0165278
785.131	0.0164100
785.209	0.0163033
785.288	0.0164108
785.366	0.0165053
785.444	0.0164681
785.522	0.0164022
785.600	0.0164008
785.678	0.0165442
785.756	0.0165059
785.834	0.0165761
785.913	0.0164084
785.991	0.0164756
786.069	0.0164786
786.147	0.0164374
786.225	0.0165172
786.303	0.0165319
786.381	0.0164601
786.459	0.0164795
786.538	0.0163239
786.616	0.0164468
786.694	0.0163793
786.772	0.0164059
786.850	0.0164263
786.928	0.0163887
787.006	0.0162806
787.084	0.0162691
787.163	0.0162723
787.241	0.0162625
787.319	0.0161951
787.397	0.0162415
787.475	0.0162419
787.553	0.0161652
787.631	0.0162739
787.709	0.0161930
787.788	0.0161932
787.866	0.0163102
787.944	0.0162099
788.022	0.0162743
788.100	0.0162325
788.178	0.0162719
788.256	0.0163292
788.334	0.0163271
788.413	0.0164648
788.491	0.0164336
788.569	0.0163148
788.647	0.0164381
788.725	0.0166376
788.803	0.0166222
788.881	0.0164574
788.959	0.0164708
789.038	0.0164818
789.116	0.0164682
789.194	0.0163719
789.272	0.0163209
789.350	0.0163933
789.428	0.0163102
789.506	0.0163620
789.584	0.0163516
789.663	0.0163246
789.741	0.0163512
789.819	0.0163827
789.897	0.0163493
789.975	0.0162808
790.053	0.0165186
790.131	0.0165287
790.209	0.0162545
790.288	0.0164678
790.366	0.0163702
790.444	0.0164478
790.522	0.0163878
790.600	0.0163319
790.678	0.0164302
790.756	0.0164360
790.834	0.0162025
790.913	0.0161230
790.991	0.0163543
791.069	0.0163050
791.147	0.0161343
791.225	0.0160857
791.303	0.0160824
791.381	0.0160832
791.459	0.0161865
791.538	0.0162702
791.616	0.0161914
791.694	0.0162791
791.772	0.0161745
791.850	0.0163347
791.928	0.0163620
792.006	0.0162079
792.084	0.0163849
792.163	0.0162556
792.241	0.0164027
792.319	0.0164256
792.397	0.0164070
792.475	0.0162901
792.553	0.0162899
792.631	0.0162894
792.709	0.0162336
792.788	0.0161918
792.866	0.0163410
792.944	0.0162585
793.022	0.0162044
793.100	0.0162569
793.178	0.0163087
793.256	0.0163490
793.334	0.0164046
793.413	0.0163963
793.491	0.0162537
793.569	0.0163132
793.647	0.0164499
793.725	0.0165709
793.803	0.0164411
793.881	0.0164216
793.959	0.0164188
794.038	0.0164502
794.116	0.0164626
794.194	0.0164479
794.272	0.0164530
794.350	0.0165170
794.428	0.0164502
794.506	0.0165004
794.584	0.0164523
794.663	0.0163970
794.741	0.0162757
794.819	0.0164484
794.897	0.0163606
794.975	0.0164159
795.053	0.0164108
795.131	0.0163526
795.209	0.0164034
795.288	0.0164004
795.366	0.0163227
795.444	0.0163766
795.522	0.0165176
795.600	0.0163683
795.678	0.0163409
795.756	0.0162090
795.834	0.0163551
795.913	0.0164229
795.991	0.0164103
796.069	0.0162445
796.147	0.0164368
796.225	0.0164110
796.303	0.0163812
796.381	0.0162582
796.459	0.0162244
796.538	0.0162321
796.616	0.0161604
796.694	0.0162847
796.772	0.0161422
796.850	0.0162850
796.928	0.0162444
797.006	0.0161607
797.084	0.0161039
797.163	0.0161548
797.241	0.0161658
797.319	0.0164320
797.397	0.0164491
797.475	0.0163726
797.553	0.0163921
797.631	0.0163525
797.709	0.0164330
797.788	0.0164203
797.866	0.0164618
797.944	0.0164267
798.022	0.0164741
798.100	0.0165125
798.178	0.0164542
798.256	0.0163154
798.334	0.0162530
798.413	0.0161890
798.491	0.0162758
798.569	0.0161678
798.647	0.0162263
798.725	0.0162090
798.803	0.0161753
798.881	0.0160430
798.959	0.0161415
799.038	0.0161831
799.116	0.0161566
799.194	0.0160770
799.272	0.0160722
799.350	0.0162056
799.428	0.0161847
799.506	0.0161629
799.584	0.0162545
799.663	0.0163592
799.741	0.0162226
799.819	0.0163441
799.897	0.0163478
799.975	0.0162537
800.053	0.0163360
800.131	0.0163511
800.209	0.0163541
800.288	0.0163806
800.366	0.0162592
800.444	0.0162512
800.522	0.0161946
800.600	0.0162048
800.678	0.0162736
800.756	0.0163383
800.834	0.0163025
800.913	0.0162182
800.991	0.0163949
801.069	0.0163725
801.147	0.0164663
801.225	0.0163642
801.303	0.0162664
801.381	0.0164394
801.459	0.0164931
801.538	0.0166055
801.616	0.0166228
801.694	0.0164719
801.772	0.0165739
801.850	0.0165689
801.928	0.0166512
802.006	0.0165961
802.084	0.0166051
802.163	0.0165269
802.241	0.0166219
802.319	0.0166609
802.397	0.0165292
802.475	0.0165343
802.553	0.0164775
802.631	0.0165359
802.709	0.0164108
802.788	0.0163242
802.866	0.0163548
802.944	0.0162791
803.022	0.0162957
803.100	0.0163815
803.178	0.0162762
803.256	0.0163685
803.334	0.0161866
803.413	0.0162052
803.491	0.0162257
803.569	0.0162974
803.647	0.0162462
803.725	0.0163081
803.803	0.0163371
803.881	0.0161906
803.959	0.0162100
804.038	0.0162588
804.116	0.0161637
804.194	0.0161572
804.272	0.0160974
804.350	0.0162737
804.428	0.0163486
804.506	0.0162640
804.584	0.0162756
804.663	0.0161809
804.741	0.0161734
804.819	0.0162321
804.897	0.0162470
804.975	0.0163011
805.053	0.0162959
805.131	0.0163349
805.209	0.0162973
805.288	0.0163078
805.366	0.0163651
805.444	0.0163529
805.522	0.0163272
805.600	0.0163872
805.678	0.0163366
805.756	0.0163532
805.834	0.0163528
805.913	0.0163030
805.991	0.0164244
806.069	0.0165642
806.147	0.0164866
806.225	0.0164503
806.303	0.0163996
806.381	0.0164858
806.459	0.0164388
806.538	0.0164371
806.616	0.0164360
806.694	0.0164999
806.772	0.0164636
806.850	0.0164832
806.928	0.0163340
807.006	0.0162595
807.084	0.0164520
807.163	0.0165095
807.241	0.0163457
807.319	0.0164303
807.397	0.0164188
807.475	0.0164783
807.553	0.0163464
807.631	0.0162965
807.709	0.0163203
807.788	0.0163168
807.866	0.0163712
807.944	0.0161760
808.022	0.0162679
808.100	0.0163376
808.178	0.0162357
808.256	0.0161610
808.334	0.0163133
808.413	0.0162984
808.491	0.0162738
808.569	0.0161588
808.647	0.0160860
808.725	0.0162019
808.803	0.0162204
808.881	0.0162356
808.959	0.0162547
809.038	0.0163484
809.116	0.0162513
809.194	0.0163028
809.272	0.0162930
809.350	0.0162956
809.428	0.0162080
809.506	0.0162950
809.584	0.0163434
809.663	0.0163738
809.741	0.0163486
809.819	0.0162704
809.897	0.0162927
809.975	0.0164308
810.053	0.0163211
810.131	0.0163445
810.209	0.0163412
810.288	0.0163008
810.366	0.0163845
810.444	0.0161835
810.522	0.0162532
810.600	0.0162128
810.678	0.0162112
810.756	0.0163516
810.834	0.0164256
810.913	0.0162040
810.991	0.0161218
811.069	0.0162466
811.147	0.0162783
811.225	0.0162200
811.303	0.0162631
811.381	0.0163113
811.459	0.0163398
811.538	0.0163156
811.616	0.0161996
811.694	0.0162922
811.772	0.0163261
811.850	0.0162172
811.928	0.0163956
812.006	0.0163199
812.084	0.0163077
812.163	0.0163409
812.241	0.0162804
812.319	0.0164101
812.397	0.0163936
812.475	0.0162838
812.553	0.0164111
812.631	0.0164165
812.709	0.0164459
812.788	0.0163019
812.866	0.0164104
812.944	0.0162985
813.022	0.0163703
813.100	0.0163411
813.178	0.0163939
813.256	0.0163725
813.334	0.0163532
813.413	0.0162463
813.491	0.0162427
813.569	0.0163933
813.647	0.0163873
813.725	0.0163593
813.803	0.0163968
813.881	0.0163264
813.959	0.0163665
814.038	0.0162985
814.116	0.0163859
814.194	0.0164807
814.272	0.0162871
814.350	0.0163357
814.428	0.0162947
814.506	0.0161262
814.584	0.0161237
814.663	0.0162926
814.741	0.0161297
814.819	0.0162440
814.897	0.0161752
814.975	0.0161371
815.053	0.0161936
815.131	0.0160172
815.209	0.0161492
815.288	0.0162031
815.366	0.0162421
815.444	0.0162592
815.522	0.0161127
815.600	0.0160621
815.678	0.0162111
815.756	0.0162442
815.834	0.0163190
815.913	0.0163237
815.991	0.0164281
816.069	0.0164454
816.147	0.0163333
816.225	0.0164196
816.303	0.0167077
816.381	0.0165041
816.459	0.0165769
816.538	0.0167039
816.616	0.0166134
816.694	0.0165474
816.772	0.0166249
816.850	0.0165030
816.928	0.0163502
817.006	0.0163764
817.084	0.0164561
817.163	0.0163535
817.241	0.0163186
817.319	0.0162236
817.397	0.0163223
817.475	0.0162509
817.553	0.0161674
817.631	0.0161635
817.709	0.0161993
817.788	0.0162051
817.866	0.0161446
817.944	0.0162084
818.022	0.0161799
818.100	0.0162285
818.178	0.0163333
818.256	0.0163520
818.334	0.0162622
818.413	0.0162223
818.491	0.0163137
818.569	0.0162836
818.647	0.0164100
818.725	0.0164381
818.803	0.0164532
818.881	0.0164319
818.959	0.0163754
819.038	0.0163807
819.116	0.0165462
819.194	0.0164711
819.272	0.0163912
819.350	0.0163985
819.428	0.0164727
819.506	0.0164204
819.584	0.0164928
819.663	0.0164965
819.741	0.0163681
819.819	0.0163398
819.897	0.0163261
819.975	0.0162413
820.053	0.0162614
820.131	0.0163533
820.209	0.0162440
820.288	0.0162835
820.366	0.0162028
820.444	0.0162453
820.522	0.0162418
820.600	0.0162669
820.678	0.0162553
820.756	0.0161147
820.834	0.0161494
820.913	0.0161328
820.991	0.0161916
821.069	0.0162144
821.147	0.0161977
821.225	0.0161266
821.303	0.0161227
821.381	0.0160880
821.459	0.0160921
821.538	0.0161269
821.616	0.0161699
821.694	0.0161601
821.772	0.0160920
821.850	0.0161359
821.928	0.0161251
822.006	0.0162572
822.084	0.0161472
822.163	0.0160767
822.241	0.0162914
822.319	0.0163737
822.397	0.0162841
822.475	0.0164022
822.553	0.0161747
822.631	0.0163803
822.709	0.0162810
822.788	0.0163286
822.866	0.0162643
822.944	0.0162553
823.022	0.0163281
823.100	0.0162903
823.178	0.0163655
823.256	0.0164276
823.334	0.0164353
823.413	0.0163660
823.491	0.0165404
823.569	0.0165437
823.647	0.0165737
823.725	0.0166280
823.803	0.0166025
823.881	0.0166026
823.959	0.0165574
824.038	0.0163798
824.116	0.0164604
824.194	0.0165044
824.272	0.0165936
824.350	0.0165007
824.428	0.0166051
824.506	0.0164767
824.584	0.0164163
824.663	0.0164929
824.741	0.0163254
824.819	0.0163326
824.897	0.0163575
824.975	0.0163526
825.053	0.0161558
825.131	0.0160778
825.209	0.0162016
825.288	0.0159251
825.366	0.0161704
825.444	0.0159802
825.522	0.0161112
825.600	0.0159754
825.678	0.0160487
825.756	0.0159518
825.834	0.0160825
825.913	0.0161318
825.991	0.0161298
826.069	0.0160545
826.147	0.0161336
826.225	0.0161138
826.303	0.0162534
826.381	0.0162907
826.459	0.0162733
826.538	0.0162340
826.616	0.0163650
826.694	0.0165045
826.772	0.0164539
826.850	0.0163872
826.928	0.0163532
827.006	0.0165041
827.084	0.0163595
827.163	0.0164273
827.241	0.0164011
827.319	0.0165154
827.397	0.0164822
827.475	0.0165791
827.553	0.0164799
827.631	0.0165607
827.709	0.0165349
827.788	0.0166229
827.866	0.0165197
827.944	0.0165701
828.022	0.0164413
828.100	0.0165646
828.178	0.0164185
828.256	0.0165441
828.334	0.0164888
828.413	0.0166428
828.491	0.0165208
828.569	0.0163916
828.647	0.0164902
828.725	0.0165442
828.803	0.0163496
828.881	0.0164833
828.959	0.0164565
829.038	0.0164700
829.116	0.0164604
829.194	0.0164077
829.272	0.0162759
829.350	0.0163596
829.428	0.0163759
829.506	0.0162103
829.584	0.0160751
829.663	0.0161965
829.741	0.0162162
829.819	0.0161620
829.897	0.0160725
829.975	0.0161858
830.053	0.0159922
830.131	0.0158989
830.209	0.0159616
830.288	0.0159483
830.366	0.0159132
830.444	0.0159351
830.522	0.0159892
830.600	0.0160955
830.678	0.0160406
830.756	0.0160371
830.834	0.0161443
830.913	0.0160717
830.991	0.0160719
831.069	0.0161756
831.147	0.0162878
831.225	0.0162650
831.303	0.0163460
831.381	0.0163625
831.459	0.0163194
831.538	0.0164320
831.616	0.0163756
831.694	0.0165646
831.772	0.0165303
831.850	0.0164333
831.928	0.0165120
832.006	0.0165590
832.084	0.0165060
832.163	0.0165417
832.241	0.0165665
832.319	0.0165105
832.397	0.0164536
832.475	0.0165018
832.553	0.0164041
832.631	0.0164809
832.709	0.0165305
832.788	0.0165475
832.866	0.0166017
832.944	0.0166241
833.022	0.0166004
833.100	0.0163495
833.178	0.0165910
833.256	0.0164659
833.334	0.0164750
833.413	0.0165356
833.491	0.0165016
833.569	0.0165362
833.647	0.0164056
833.725	0.0163126
833.803	0.0162708
833.881	0.0162915
833.959	0.0162452
834.038	0.0161975
834.116	0.0162907
834.194	0.0161115
834.272	0.0162263
834.350	0.0161756
834.428	0.0162256
834.506	0.0162190
834.584	0.0160102
834.663	0.0160405
834.741	0.0159774
834.819	0.0161709
834.897	0.0161047
834.975	0.0161660
835.053	0.0161378
835.131	0.0160107
835.209	0.0160810
835.288	0.0160440
835.366	0.0160563
835.444	0.0159022
835.522	0.0159773
835.600	0.0160076
835.678	0.0160688
835.756	0.0160539
835.834	0.0159908
835.913	0.0160115
835.991	0.0160323
836.069	0.0160583
836.147	0.0160031
836.225	0.0159869
836.303	0.0161156
836.381	0.0162041
836.459	0.0160535
836.538	0.0161967
836.616	0.0162879
836.694	0.0162086
836.772	0.0164339
836.850	0.0164683
836.928	0.0164118
837.006	0.0165520
837.084	0.0166275
837.163	0.0166589
837.241	0.0166824
837.319	0.0167150
837.397	0.0166074
837.475	0.0166727
837.553	0.0168425
837.631	0.0167866
837.709	0.0166738
837.788	0.0168913
837.866	0.0168559
837.944	0.0168132
838.022	0.0167828
838.100	0.0168925
838.178	0.0166863
838.256	0.0166604
838.334	0.0165269
838.413	0.0166404
838.491	0.0165220
838.569	0.0163740
838.647	0.0163074
838.725	0.0163052
838.803	0.0161214
838.881	0.0161040
838.959	0.0160463
839.038	0.0160989
839.116	0.0159332
839.194	0.0157809
839.272	0.0157427
839.350	0.0158028
839.428	0.0156985
839.506	0.0158179
839.584	0.0155418
839.663	0.0155742
839.741	0.0157862
839.819	0.0157980
839.897	0.0158797
839.975	0.0158467
840.053	0.0159450
840.131	0.0159573
840.209	0.0160340
840.288	0.0161430
840.366	0.0162833
840.444	0.0163303
840.522	0.0165399
840.600	0.0165787
840.678	0.0164519
840.756	0.0165005
840.834	0.0167225
840.913	0.0167230
840.991	0.0167258
841.069	0.0167249
841.147	0.0167360
841.225	0.0168008
841.303	0.0166904
841.381	0.0167812
841.459	0.0167684
841.538	0.0166916
841.616	0.0166620
841.694	0.0167390
841.772	0.0166579
841.850	0.0165998
841.928	0.0163818
842.006	0.0163426
842.084	0.0164487
842.163	0.0163235
842.241	0.0162708
842.319	0.0162404
842.397	0.0160723
842.475	0.0161478
842.553	0.0161156
842.631	0.0161121
842.709	0.0160783
842.788	0.0160661
842.866	0.0160748
842.944	0.0161552
843.022	0.0160696
843.100	0.0160104
843.178	0.0160697
843.256	0.0160907
843.334	0.0160631
843.413	0.0161209
843.491	0.0161444
843.569	0.0159819
843.647	0.0162242
843.725	0.0163743
843.803	0.0163379
843.881	0.0162281
843.959	0.0164802
844.038	0.0164893
844.116	0.0165009
844.194	0.0165720
844.272	0.0165956
844.350	0.0164670
844.428	0.0163546
844.506	0.0165616
844.584	0.0166109
844.663	0.0164697
844.741	0.0164619
844.819	0.0165552
844.897	0.0164664
844.975	0.0163682
845.053	0.0165356
845.131	0.0165464
845.209	0.0165451
845.288	0.0164186
845.366	0.0163812
845.444	0.0163611
845.522	0.0163126
845.600	0.0163303
845.678	0.0163968
845.756	0.0163110
845.834	0.0162885
845.913	0.0162193
845.991	0.0161319
846.069	0.0161936
846.147	0.0160110
846.225	0.0160627
846.303	0.0160964
846.381	0.0161134
846.459	0.0159817
846.538	0.0159348
846.616	0.0158656
846.694	0.0159479
846.772	0.0159659
846.850	0.0158344
846.928	0.0157235
847.006	0.0159157
847.084	0.0160725
847.163	0.0159395
847.241	0.0161163
847.319	0.0160178
847.397	0.0158969
847.475	0.0161528
847.553	0.0161878
847.631	0.0163271
847.709	0.0162571
847.788	0.0163719
847.866	0.0162981
847.944	0.0163455
848.022	0.0163828
848.100	0.0166133
848.178	0.0166030
848.256	0.0166084
848.334	0.0166900
848.413	0.0165850
848.491	0.0168256
848.569	0.0167956
848.647	0.0167799
848.725	0.0168306
848.803	0.0168697
848.881	0.0168504
848.959	0.0170103
849.038	0.0169938
849.116	0.0169976
849.194	0.0168597
849.272	0.0168484
849.350	0.0168663
849.428	0.0169286
849.506	0.0169396
849.584	0.0169317
849.663	0.0168056
849.741	0.0167083
849.819	0.0166383
849.897	0.0166008
849.975	0.0165835
850.053	0.0164527
850.131	0.0163031
850.209	0.0161219
850.288	0.0162883
850.366	0.0160798
850.444	0.0159518
850.522	0.0160111
850.600	0.0160242
850.678	0.0159453
850.756	0.0157460
850.834	0.0157972
850.913	0.0157020
850.991	0.0156205
851.069	0.0156748
851.147	0.0158085
851.225	0.0156788
851.303	0.0158372
851.381	0.0158604
851.459	0.0157913
851.538	0.0157252
851.616	0.0157533
851.694	0.0159515
851.772	0.0157955
851.850	0.0157704
851.928	0.0160149
852.006	0.0159520
852.084	0.0159322
852.163	0.0161333
852.241	0.0161790
852.319	0.0160535
852.397	0.0162109
852.475	0.0163380
852.553	0.0163043
852.631	0.0163632
852.709	0.0164184
852.788	0.0164769
852.866	0.0164108
852.944	0.0164301
853.022	0.0165724
853.100	0.0166100
853.178	0.0167424
853.256	0.0167145
853.334	0.0167944
853.413	0.0167694
853.491	0.0168198
853.569	0.0168458
853.647	0.0169202
853.725	0.0169446
853.803	0.0168177
853.881	0.0168666
853.959	0.0168420
854.038	0.0166804
854.116	0.0168005
854.194	0.0167646
854.272	0.0167055
854.350	0.0166370
854.428	0.0164911
854.506	0.0163949
854.584	0.0164890
854.663	0.0164060
854.741	0.0163438
854.819	0.0163239
854.897	0.0162402
854.975	0.0162954
855.053	0.0162578
855.131	0.0162841
855.209	0.0162852
855.288	0.0161679
855.366	0.0160992
855.444	0.0161147
855.522	0.0160842
855.600	0.0160546
855.678	0.0160607
855.756	0.0159949
855.834	0.0160969
855.913	0.0160146
855.991	0.0158440
856.069	0.0159483
856.147	0.0159406
856.225	0.0159594
856.303	0.0160447
856.381	0.0160117
856.459	0.0160963
856.538	0.0160137
856.616	0.0160970
856.694	0.0160982
856.772	0.0163392
856.850	0.0161742
856.928	0.0162910
857.006	0.0162582
857.084	0.0163029
857.163	0.0163234
857.241	0.0163459
857.319	0.0164921
857.397	0.0163895
857.475	0.0164494
857.553	0.0165251
857.631	0.0162527
857.709	0.0163632
857.788	0.0164490
857.866	0.0162955
857.944	0.0163704
858.022	0.0164020
858.100	0.0164380
858.178	0.0165265
858.256	0.0163474
858.334	0.0165080
858.413	0.0165016
858.491	0.0164043
858.569	0.0164574
858.647	0.0166116
858.725	0.0165678
858.803	0.0164083
858.881	0.0164521
858.959	0.0164500
859.038	0.0164719
859.116	0.0165848
859.194	0.0164935
859.272	0.0165530
859.350	0.0163657
859.428	0.0163928
859.506	0.0165118
859.584	0.0164468
859.663	0.0163860
859.741	0.0162991
859.819	0.0164318
859.897	0.0163966
859.975	0.0163343
860.053	0.0162702
860.131	0.0162569
860.209	0.0161340
860.288	0.0163412
860.366	0.0162547
860.444	0.0163012
860.522	0.0161869
860.600	0.0162804
860.678	0.0162009
860.756	0.0161464
860.834	0.0160525
860.913	0.0162770
860.991	0.0161272
861.069	0.0161259
861.147	0.0162739
861.225	0.0164528
861.303	0.0162428
861.381	0.0162966
861.459	0.0163558
861.538	0.0163512
861.616	0.0163631
861.694	0.0164484
861.772	0.0163956
861.850	0.0164066
861.928	0.0162431
862.006	0.0163247
862.084	0.0162830
862.163	0.0163833
862.241	0.0162392
862.319	0.0162270
862.397	0.0163647
862.475	0.0162477
862.553	0.0163875
862.631	0.0162149
862.709	0.0162852
862.788	0.0162914
862.866	0.0161230
862.944	0.0160464
863.022	0.0162961
863.100	0.0161333
863.178	0.0161803
863.256	0.0161436
863.334	0.0161610
863.413	0.0163280
863.491	0.0161456
863.569	0.0162433
863.647	0.0162637
863.725	0.0163201
863.803	0.0163432
863.881	0.0162708
863.959	0.0163951
864.038	0.0163675
864.116	0.0164513
864.194	0.0164033
864.272	0.0163897
864.350	0.0164966
864.428	0.0164236
864.506	0.0163992
864.584	0.0164753
864.663	0.0165505
864.741	0.0164909
864.819	0.0163626
864.897	0.0164880
864.975	0.0165184
865.053	0.0166290
865.131	0.0163853
865.209	0.0165572
865.288	0.0165929
865.366	0.0165397
865.444	0.0163845
865.522	0.0165234
865.600	0.0164306
865.678	0.0164459
865.756	0.0165660
865.834	0.0164669
865.913	0.0165002
865.991	0.0165937
866.069	0.0162038
866.147	0.0163750
866.225	0.0164339
866.303	0.0163680
866.381	0.0164596
866.459	0.0164061
866.538	0.0163784
866.616	0.0162868
866.694	0.0162933
866.772	0.0163739
866.850	0.0163373
866.928	0.0163008
867.006	0.0164398
867.084	0.0163027
867.163	0.0162772
867.241	0.0163100
867.319	0.0162132
867.397	0.0164150
867.475	0.0162095
867.553	0.0162529
867.631	0.0162533
867.709	0.0163123
867.788	0.0162605
867.866	0.0162830
867.944	0.0161055
868.022	0.0160940
868.100	0.0161782
868.178	0.0161738
868.256	0.0161461
868.334	0.0159436
868.413	0.0161263
868.491	0.0160114
868.569	0.0160031
868.647	0.0158755
868.725	0.0158459
868.803	0.0160702
868.881	0.0160342
868.959	0.0160300
869.038	0.0158527
869.116	0.0159705
869.194	0.0159791
869.272	0.0160804
869.350	0.0161131
869.428	0.0162064
869.506	0.0162492
869.584	0.0163718
869.663	0.0163751
869.741	0.0163921
869.819	0.0164628
869.897	0.0165626
869.975	0.0166559
870.053	0.0167690
870.131	0.0168185
870.209	0.0167676
870.288	0.0166970
870.366	0.0167470
870.444	0.0168108
870.522	0.0168851
870.600	0.0170068
870.678	0.0168592
870.756	0.0169178
870.834	0.0169083
870.913	0.0168198
870.991	0.0168629
871.069	0.0166879
871.147	0.0168361
871.225	0.0167128
871.303	0.0165963
871.381	0.0165477
871.459	0.0165004
871.538	0.0164680
871.616	0.0164930
871.694	0.0165154
871.772	0.0162719
871.850	0.0163604
871.928	0.0163253
872.006	0.0163364
872.084	0.0162923
872.163	0.0164669
872.241	0.0162615
872.319	0.0163197
872.397	0.0162337
872.475	0.0162358
872.553	0.0162717
872.631	0.0162974
872.709	0.0163342
872.788	0.0163374
872.866	0.0160998
872.944	0.0160162
873.022	0.0160489
873.100	0.0160767
873.178	0.0159624
873.256	0.0159385
873.334	0.0159785
873.413	0.0160260
873.491	0.0158224
873.569	0.0158054
873.647	0.0159608
873.725	0.0159665
873.803	0.0159467
873.881	0.0159134
873.959	0.0158131
874.038	0.0157669
874.116	0.0159485
874.194	0.0159841
874.272	0.0159467
874.350	0.0158991
874.428	0.0160077
874.506	0.0159514
874.584	0.0160272
874.663	0.0161166
874.741	0.0161938
874.819	0.0162819
874.897	0.0162640
874.975	0.0163813
875.053	0.0163704
875.131	0.0163743
875.209	0.0164548
875.288	0.0166937
875.366	0.0167261
875.444	0.0165918
875.522	0.0165520
875.600	0.0167211
875.678	0.0167274
875.756	0.0167165
875.834	0.0167397
875.913	0.0167892
875.991	0.0167759
876.069	0.0167157
876.147	0.0166261
876.225	0.0167148
876.303	0.0166120
876.381	0.0166759
876.459	0.0166458
876.538	0.0165411
876.616	0.0165931
876.694	0.0165015
876.772	0.0165994
876.850	0.0165524
876.928	0.0165129
877.006	0.0164466
877.084	0.0163299
877.163	0.0164551
877.241	0.0164277
877.319	0.0163238
877.397	0.0163583
877.475	0.0163412
877.553	0.0162485
877.631	0.0163097
877.709	0.0163313
877.788	0.0163207
877.866	0.0162640
877.944	0.0162617
878.022	0.0161922
878.100	0.0161945
878.178	0.0161745
878.256	0.0162287
878.334	0.0162310
878.413	0.0162912
878.491	0.0162356
878.569	0.0163084
878.647	0.0163462
878.725	0.0161546
878.803	0.0160768
878.881	0.0161270
878.959	0.0162323
879.038	0.0163001
879.116	0.0162454
879.194	0.0160998
879.272	0.0160818
879.350	0.0161505
879.428	0.0161805
879.506	0.0161707
879.584	0.0161486
879.663	0.0161517
879.741	0.0161013
879.819	0.0161360
879.897	0.0160571
879.975	0.0159651
880.053	0.0159714
880.131	0.0159622
880.209	0.0161169
880.288	0.0160472
880.366	0.0160134
880.444	0.0162321
880.522	0.0161342
880.600	0.0161666
880.678	0.0162996
880.756	0.0162640
880.834	0.0164549
880.913	0.0163477
880.991	0.0164357
881.069	0.0165182
881.147	0.0164479
881.225	0.0164554
881.303	0.0165599
881.381	0.0165791
881.459	0.0164279
881.538	0.0165788
881.616	0.0165401
881.694	0.0163577
881.772	0.0165042
881.850	0.0164603
881.928	0.0165284
882.006	0.0165040
882.084	0.0165919
882.163	0.0164361
882.241	0.0164643
882.319	0.0165134
882.397	0.0165610
882.475	0.0164204
882.553	0.0165268
882.631	0.0164176
882.709	0.0164204
882.788	0.0164637
882.866	0.0164330
882.944	0.0164346
883.022	0.0163580
883.100	0.0163086
883.178	0.0163589
883.256	0.0163542
883.334	0.0163628
883.413	0.0163771
883.491	0.0161919
883.569	0.0163866
883.647	0.0161999
883.725	0.0161259
883.803	0.0161042
883.881	0.0161492
883.959	0.0163143
884.038	0.0162851
884.116	0.0161385
884.194	0.0161901
884.272	0.0162324
884.350	0.0160576
884.428	0.0160361
884.506	0.0159432
884.584	0.0161149
884.663	0.0160358
884.741	0.0159554
884.819	0.0160519
884.897	0.0160706
884.975	0.0160889
885.053	0.0161726
885.131	0.0161410
885.209	0.0161912
885.288	0.0163694
885.366	0.0163759
885.444	0.0163903
885.522	0.0164639
885.600	0.0163693
885.678	0.0163361
885.756	0.0164677
885.834	0.0164920
885.913	0.0165370
885.991	0.0164764
886.069	0.0163990
886.147	0.0164001
886.225	0.0164524
886.303	0.0163412
886.381	0.0165356
886.459	0.0162715
886.538	0.0164744
886.616	0.0165495
886.694	0.0163747
886.772	0.0165717
886.850	0.0164394
886.928	0.0163001
887.006	0.0163550
887.084	0.0164433
887.163	0.0164695
887.241	0.0165179
887.319	0.0164646
887.397	0.0164326
887.475	0.0164016
887.553	0.0166604
887.631	0.0165458
887.709	0.0164085
887.788	0.0164246
887.866	0.0164160
887.944	0.0164686
888.022	0.0160894
888.100	0.0164861
888.178	0.0162725
888.256	0.0163580
888.334	0.0162789
888.413	0.0162623
888.491	0.0162940
888.569	0.0163548
888.647	0.0161064
888.725	0.0163553
888.803	0.0163100
888.881	0.0164491
888.959	0.0163257
889.038	0.0163396
889.116	0.0163145
889.194	0.0162505
889.272	0.0161946
889.350	0.0161838
889.428	0.0163687
889.506	0.0163501
889.584	0.0163567
889.663	0.0162766
889.741	0.0162715
889.819	0.0161585
889.897	0.0162602
889.975	0.0162975
890.053	0.0161516
890.131	0.0163082
890.209	0.0162372
890.288	0.0162029
890.366	0.0160927
890.444	0.0161806
890.522	0.0162465
890.600	0.0162426
890.678	0.0162283
890.756	0.0162791
890.834	0.0162514
890.913	0.0162086
890.991	0.0162981
891.069	0.0164015
891.147	0.0163651
891.225	0.0163229
891.303	0.0161925
891.381	0.0164554
891.459	0.0164101
891.538	0.0163815
891.616	0.0163824
891.694	0.0162276
891.772	0.0163982
891.850	0.0164420
891.928	0.0165428
892.006	0.0164894
892.084	0.0164767
892.163	0.0164912
892.241	0.0163901
892.319	0.0165691
892.397	0.0166661
892.475	0.0166825
892.553	0.0165484
892.631	0.0165710
892.709	0.0164968
892.788	0.0166699
892.866	0.0165459
892.944	0.0166178
893.022	0.0165228
893.100	0.0164291
893.178	0.0164093
893.256	0.0163604
893.334	0.0162254
893.413	0.0161713
893.491	0.0163885
893.569	0.0161543
893.647	0.0162304
893.725	0.0161542
893.803	0.0160108
893.881	0.0161363
893.959	0.0162452
894.038	0.0163239
894.116	0.0161781
894.194	0.0160982
894.272	0.0161391
894.350	0.0161755
894.428	0.0160361
894.506	0.0160551
894.584	0.0163132
894.663	0.0163012
894.741	0.0162906
894.819	0.0163010
894.897	0.0163851
894.975	0.0165330
895.053	0.0164204
895.131	0.0164902
895.209	0.0164352
895.288	0.0165569
895.366	0.0166472
895.444	0.0165972
895.522	0.0166019
895.600	0.0164710
895.678	0.0165373
895.756	0.0164636
895.834	0.0164751
895.913	0.0163397
895.991	0.0163172
896.069	0.0163416
896.147	0.0163314
896.225	0.0163026
896.303	0.0161645
896.381	0.0162287
896.459	0.0161024
896.538	0.0162601
896.616	0.0160474
896.694	0.0161131
896.772	0.0162373
896.850	0.0161285
896.928	0.0162006
897.006	0.0160192
897.084	0.0162995
897.163	0.0162514
897.241	0.0161717
897.319	0.0162363
897.397	0.0163641
897.475	0.0162932
897.553	0.0163464
897.631	0.0164187
897.709	0.0164059
897.788	0.0163078
897.866	0.0162362
897.944	0.0163074
898.022	0.0162260
898.100	0.0162337
898.178	0.0163734
898.256	0.0163864
898.334	0.0163376
898.413	0.0162050
898.491	0.0163089
898.569	0.0162548
898.647	0.0163822
898.725	0.0163495
898.803	0.0163378
898.881	0.0163226
898.959	0.0163263
899.038	0.0164843
899.116	0.0163161
899.194	0.0162484
899.272	0.0161914
899.350	0.0162571
899.428	0.0163041
899.506	0.0162185
899.584	0.0162061
899.663	0.0163804
899.741	0.0163440
899.819	0.0164178
899.897	0.0164606
899.975	0.0164555
900.053	0.0164481
900.131	0.0164833
900.209	0.0164106
900.288	0.0164500
900.366	0.0164217
900.444	0.0163163
900.522	0.0164419
900.600	0.0164896
900.678	0.0164451
900.756	0.0164952
900.834	0.0164089
900.913	0.0165153
900.991	0.0164097
901.069	0.0165147
901.147	0.0165037
901.225	0.0164327
901.303	0.0164672
901.381	0.0164166
901.459	0.0166088
901.538	0.0164809
901.616	0.0165076
901.694	0.0165146
901.772	0.0165330
901.850	0.0163728
901.928	0.0163807
902.006	0.0165213
902.084	0.0165204
902.163	0.0162923
902.241	0.0162769
902.319	0.0162773
902.397	0.0161652
902.475	0.0161592
902.553	0.0161018
902.631	0.0160601
902.709	0.0160273
902.788	0.0161404
902.866	0.0160155
902.944	0.0160802
903.022	0.0159790
903.100	0.0159128
903.178	0.0160560
903.256	0.0160432
903.334	0.0160868
903.413	0.0159401
903.491	0.0160530
903.569	0.0162165
903.647	0.0160632
903.725	0.0161661
903.803	0.0161302
903.881	0.0161996
903.959	0.0163173
904.038	0.0162659
904.116	0.0163255
904.194	0.0163030
904.272	0.0163306
904.350	0.0164361
904.428	0.0163743
904.506	0.0163898
904.584	0.0162849
904.663	0.0164077
904.741	0.0164277
904.819	0.0163139
904.897	0.0164825
904.975	0.0163763
905.053	0.0164030
905.131	0.0163516
905.209	0.0163470
905.288	0.0162453
905.366	0.0161375
905.444	0.0162781
905.522	0.0162828
905.600	0.0163000
905.678	0.0162720
905.756	0.0164355
905.834	0.0164510
905.913	0.0163408
905.991	0.0164816
906.069	0.0165029
906.147	0.0164560
906.225	0.0164812
906.303	0.0166048
906.381	0.0164756
906.459	0.0166705
906.538	0.0164872
906.616	0.0164875
906.694	0.0165612
906.772	0.0165788
906.850	0.0165154
906.928	0.0166337
907.006	0.0164863
907.084	0.0164250
907.163	0.0163329
907.241	0.0164183
907.319	0.0163833
907.397	0.0163957
907.475	0.0163683
907.553	0.0161945
907.631	0.0162148
907.709	0.0162220
907.788	0.0161563
907.866	0.0162114
907.944	0.0162016
908.022	0.0161691
908.100	0.0160228
908.178	0.0160813
908.256	0.0160529
908.334	0.0159099
908.413	0.0161295
908.491	0.0161291
908.569	0.0160887
908.647	0.0162356
908.725	0.0162772
908.803	0.0162356
908.881	0.0163277
908.959	0.0163145
909.038	0.0163847
909.116	0.0163596
909.194	0.0163865
909.272	0.0163683
909.350	0.0163026
909.428	0.0163805
909.506	0.0163810
909.584	0.0163292
909.663	0.0162947
909.741	0.0162599
909.819	0.0163908
909.897	0.0164506
909.975	0.0164362
910.053	0.0162707
910.131	0.0165359
910.209	0.0163921
910.288	0.0163369
910.366	0.0164324
910.444	0.0162098
910.522	0.0162868
910.600	0.0162099
910.678	0.0161323
910.756	0.0161833
910.834	0.0161584
910.913	0.0161684
910.991	0.0161380
911.069	0.0161500
911.147	0.0160979
911.225	0.0162081
911.303	0.0162512
911.381	0.0163156
911.459	0.0162647
911.538	0.0164240
911.616	0.0164430
911.694	0.0164945
911.772	0.0166442
911.850	0.0166945
911.928	0.0166132
912.006	0.0167880
912.084	0.0167367
912.163	0.0168922
912.241	0.0169256
912.319	0.0169202
912.397	0.0166639
912.475	0.0167702
912.553	0.0167743
912.631	0.0166472
912.709	0.0165254
912.788	0.0165736
912.866	0.0165838
912.944	0.0165836
913.022	0.0163586
913.100	0.0162189
913.178	0.0162395
913.256	0.0162946
913.334	0.0161639
913.413	0.0161675
913.491	0.0160297
913.569	0.0159909
913.647	0.0160770
913.725	0.0160332
913.803	0.0160701
913.881	0.0160663
913.959	0.0159088
914.038	0.0159711
914.116	0.0160625
914.194	0.0159169
914.272	0.0160413
914.350	0.0161933
914.428	0.0160814
914.506	0.0161554
914.584	0.0160581
914.663	0.0161127
914.741	0.0163012
914.819	0.0163016
914.897	0.0163181
914.975	0.0162931
915.053	0.0161788
915.131	0.0163458
915.209	0.0164252
915.288	0.0165703
915.366	0.0163635
915.444	0.0165173
915.522	0.0166166
915.600	0.0165302
915.678	0.0165878
915.756	0.0165444
915.834	0.0164900
915.913	0.0165523
915.991	0.0166254
916.069	0.0166125
916.147	0.0166482
916.225	0.0165903
916.303	0.0165456
916.381	0.0165154
916.459	0.0165855
916.538	0.0165276
916.616	0.0164417
916.694	0.0164252
916.772	0.0165841
916.850	0.0164254
916.928	0.0162946
917.006	0.0161210
917.084	0.0163300
917.163	0.0162429
917.241	0.0163295
917.319	0.0163267
917.397	0.0162020
917.475	0.0162306
917.553	0.0163264
917.631	0.0161622
917.709	0.0162593
917.788	0.0161858
917.866	0.0161645
917.944	0.0161205
918.022	0.0161818
918.100	0.0163402
918.178	0.0162242
918.256	0.0161583
918.334	0.0160393
918.413	0.0163219
918.491	0.0161692
918.569	0.0160469
918.647	0.0160545
918.725	0.0162554
918.803	0.0161916
918.881	0.0161438
918.959	0.0161021
919.038	0.0161918
919.116	0.0161337
919.194	0.0161892
919.272	0.0163128
919.350	0.0164541
919.428	0.0164571
919.506	0.0165184
919.584	0.0165885
919.663	0.0165762
919.741	0.0166933
919.819	0.0166767
919.897	0.0167189
