06/01/2022	17:56:58	Ver.	4.1	UNKNOWN
Optical Delay	539.993571	Delta X		0.078125	Sweeps	1	Scan Rate	0/0
Coordinates	Axis 1	NaN	Axis 2	NaN	Axis 3	NaN	Axis 4	NaN	Axis 5	NaN	Axis 6	0.000000
TX Power	0.000000	RX Power	0.000000

539.994	0.0175759
540.072	0.0176202
540.150	0.0175536
540.228	0.0175879
540.306	0.0176681
540.384	0.0176240
540.462	0.0175403
540.540	0.0176627
540.619	0.0176730
540.697	0.0176189
540.775	0.0176893
540.853	0.0175503
540.931	0.0176090
541.009	0.0176302
541.087	0.0176227
541.165	0.0177087
541.244	0.0176917
541.322	0.0176716
541.400	0.0176372
541.478	0.0176956
541.556	0.0176051
541.634	0.0175268
541.712	0.0176271
541.790	0.0175480
541.869	0.0173927
541.947	0.0175687
542.025	0.0173704
542.103	0.0174046
542.181	0.0176444
542.259	0.0175123
542.337	0.0174807
542.415	0.0175723
542.494	0.0176332
542.572	0.0174445
542.650	0.0175304
542.728	0.0176873
542.806	0.0174740
542.884	0.0175180
542.962	0.0175579
543.040	0.0176274
543.119	0.0175046
543.197	0.0173686
543.275	0.0175667
543.353	0.0175333
543.431	0.0174786
543.509	0.0174184
543.587	0.0174798
543.665	0.0174712
543.744	0.0175291
543.822	0.0175186
543.900	0.0174750
543.978	0.0175575
544.056	0.0175918
544.134	0.0177251
544.212	0.0176125
544.290	0.0174951
544.369	0.0176254
544.447	0.0177885
544.525	0.0176900
544.603	0.0176436
544.681	0.0176414
544.759	0.0175580
544.837	0.0175584
544.915	0.0176118
544.994	0.0176628
545.072	0.0177690
545.150	0.0176563
545.228	0.0176776
545.306	0.0177013
545.384	0.0175928
545.462	0.0176170
545.540	0.0177152
545.619	0.0175392
545.697	0.0175075
545.775	0.0177774
545.853	0.0176287
545.931	0.0175478
546.009	0.0175769
546.087	0.0175729
546.165	0.0175903
546.244	0.0174556
546.322	0.0174582
546.400	0.0176461
546.478	0.0175054
546.556	0.0174893
546.634	0.0174612
546.712	0.0174566
546.790	0.0175370
546.869	0.0175856
546.947	0.0175474
547.025	0.0175398
547.103	0.0175337
547.181	0.0176211
547.259	0.0174350
547.337	0.0175165
547.415	0.0174644
547.494	0.0175301
547.572	0.0172540
547.650	0.0174206
547.728	0.0175538
547.806	0.0174793
547.884	0.0174922
547.962	0.0174498
548.040	0.0174495
548.119	0.0175088
548.197	0.0174339
548.275	0.0174951
548.353	0.0174361
548.431	0.0174247
548.509	0.0175726
548.587	0.0173938
548.665	0.0172888
548.744	0.0175401
548.822	0.0176733
548.900	0.0175518
548.978	0.0174726
549.056	0.0175093
549.134	0.0174461
549.212	0.0175607
549.290	0.0175293
549.369	0.0173823
549.447	0.0174889
549.525	0.0176149
549.603	0.0174535
549.681	0.0174120
549.759	0.0174996
549.837	0.0175383
549.915	0.0174586
549.994	0.0175203
550.072	0.0175452
550.150	0.0176094
550.228	0.0174783
550.306	0.0174419
550.384	0.0174560
550.462	0.0175999
550.540	0.0174375
550.619	0.0174648
550.697	0.0173946
550.775	0.0174847
550.853	0.0176008
550.931	0.0175628
551.009	0.0175290
551.087	0.0174266
551.165	0.0176042
551.244	0.0175497
551.322	0.0174991
551.400	0.0175223
551.478	0.0176100
551.556	0.0174736
551.634	0.0175196
551.712	0.0175488
551.790	0.0174818
551.869	0.0174338
551.947	0.0176649
552.025	0.0175892
552.103	0.0174213
552.181	0.0175891
552.259	0.0175164
552.337	0.0174463
552.415	0.0174767
552.494	0.0173804
552.572	0.0173074
552.650	0.0173895
552.728	0.0173543
552.806	0.0173843
552.884	0.0173504
552.962	0.0173590
553.040	0.0173479
553.119	0.0174143
553.197	0.0173553
553.275	0.0174889
553.353	0.0175074
553.431	0.0175321
553.509	0.0174402
553.587	0.0174703
553.665	0.0175018
553.744	0.0174393
553.822	0.0175275
553.900	0.0175282
553.978	0.0175721
554.056	0.0176137
554.134	0.0176493
554.212	0.0175707
554.290	0.0176977
554.369	0.0177161
554.447	0.0177214
554.525	0.0176336
554.603	0.0176475
554.681	0.0177775
554.759	0.0177682
554.837	0.0176955
554.915	0.0177812
554.994	0.0177421
555.072	0.0177635
555.150	0.0176891
555.228	0.0176828
555.306	0.0176000
555.384	0.0176971
555.462	0.0177980
555.540	0.0177802
555.619	0.0176142
555.697	0.0177735
555.775	0.0177265
555.853	0.0177151
555.931	0.0175986
556.009	0.0177184
556.087	0.0176472
556.165	0.0176176
556.244	0.0176505
556.322	0.0176701
556.400	0.0177208
556.478	0.0175211
556.556	0.0176327
556.634	0.0175443
556.712	0.0176640
556.790	0.0177180
556.869	0.0177254
556.947	0.0177267
557.025	0.0175568
557.103	0.0175368
557.181	0.0175478
557.259	0.0175719
557.337	0.0174356
557.415	0.0175005
557.494	0.0174813
557.572	0.0172778
557.650	0.0175283
557.728	0.0175130
557.806	0.0174709
557.884	0.0174299
557.962	0.0174708
558.040	0.0173733
558.119	0.0173549
558.197	0.0174133
558.275	0.0174069
558.353	0.0174393
558.431	0.0175444
558.509	0.0175735
558.587	0.0175360
558.665	0.0175609
558.744	0.0174976
558.822	0.0176180
558.900	0.0176485
558.978	0.0176599
559.056	0.0177653
559.134	0.0176763
559.212	0.0175428
559.290	0.0176251
559.369	0.0177403
559.447	0.0176137
559.525	0.0178065
559.603	0.0177319
559.681	0.0175897
559.759	0.0177824
559.837	0.0176855
559.915	0.0177019
559.994	0.0176180
560.072	0.0176295
560.150	0.0175578
560.228	0.0176482
560.306	0.0177108
560.384	0.0176363
560.462	0.0176777
560.540	0.0177264
560.619	0.0175938
560.697	0.0176833
560.775	0.0176740
560.853	0.0176720
560.931	0.0175742
561.009	0.0175694
561.087	0.0177070
561.165	0.0177377
561.244	0.0177981
561.322	0.0176469
561.400	0.0177917
561.478	0.0177265
561.556	0.0175887
561.634	0.0177307
561.712	0.0175893
561.790	0.0177241
561.869	0.0178243
561.947	0.0177673
562.025	0.0176884
562.103	0.0176950
562.181	0.0177359
562.259	0.0175751
562.337	0.0176013
562.415	0.0175855
562.494	0.0175742
562.572	0.0175897
562.650	0.0175945
562.728	0.0176936
562.806	0.0175517
562.884	0.0173721
562.962	0.0174288
563.040	0.0173653
563.119	0.0174081
563.197	0.0173711
563.275	0.0174092
563.353	0.0173666
563.431	0.0173931
563.509	0.0175373
563.587	0.0175124
563.665	0.0176129
563.744	0.0176119
563.822	0.0174645
563.900	0.0175666
563.978	0.0174099
564.056	0.0175373
564.134	0.0174831
564.212	0.0175021
564.290	0.0175222
564.369	0.0174888
564.447	0.0173294
564.525	0.0174033
564.603	0.0174674
564.681	0.0174953
564.759	0.0173587
564.837	0.0175744
564.915	0.0175464
564.994	0.0174601
565.072	0.0175407
565.150	0.0177119
565.228	0.0176650
565.306	0.0177009
565.384	0.0178026
565.462	0.0177308
565.540	0.0179767
565.619	0.0178714
565.697	0.0179441
565.775	0.0181338
565.853	0.0179473
565.931	0.0180660
566.009	0.0180497
566.087	0.0180594
566.165	0.0178751
566.244	0.0179570
566.322	0.0178593
566.400	0.0176862
566.478	0.0176132
566.556	0.0176312
566.634	0.0173493
566.712	0.0174151
566.790	0.0171795
566.869	0.0171384
566.947	0.0171484
567.025	0.0169073
567.103	0.0167306
567.181	0.0168357
567.259	0.0168262
567.337	0.0167234
567.415	0.0167566
567.494	0.0169637
567.572	0.0169519
567.650	0.0170023
567.728	0.0170915
567.806	0.0173132
567.884	0.0174135
567.962	0.0176266
568.040	0.0178364
568.119	0.0177969
568.197	0.0179372
568.275	0.0181719
568.353	0.0182599
568.431	0.0183665
568.509	0.0185651
568.587	0.0184750
568.665	0.0185802
568.744	0.0186166
568.822	0.0186217
568.900	0.0187001
568.978	0.0185796
569.056	0.0183968
569.134	0.0184741
569.212	0.0183488
569.290	0.0181712
569.369	0.0180123
569.447	0.0178192
569.525	0.0177561
569.603	0.0173933
569.681	0.0173355
569.759	0.0171109
569.837	0.0169634
569.915	0.0167475
569.994	0.0165233
570.072	0.0163242
570.150	0.0163116
570.228	0.0161410
570.306	0.0161844
570.384	0.0161496
570.462	0.0160922
570.540	0.0160848
570.619	0.0161396
570.697	0.0162741
570.775	0.0162745
570.853	0.0164405
570.931	0.0166104
571.009	0.0167818
571.087	0.0168947
571.165	0.0172358
571.244	0.0175279
571.322	0.0177669
571.400	0.0180367
571.478	0.0182292
571.556	0.0184251
571.634	0.0187947
571.712	0.0190377
571.790	0.0191328
571.869	0.0192754
571.947	0.0192671
572.025	0.0193454
572.103	0.0194267
572.181	0.0192650
572.259	0.0192793
572.337	0.0192183
572.415	0.0189825
572.494	0.0188802
572.572	0.0188026
572.650	0.0186131
572.728	0.0182661
572.806	0.0181393
572.884	0.0178906
572.962	0.0177852
573.040	0.0175413
573.119	0.0174681
573.197	0.0173160
573.275	0.0170558
573.353	0.0168835
573.431	0.0170012
573.509	0.0167572
573.587	0.0166073
573.665	0.0167058
573.744	0.0165430
573.822	0.0165248
573.900	0.0165058
573.978	0.0164211
574.056	0.0165794
574.134	0.0164957
574.212	0.0166532
574.290	0.0165586
574.369	0.0166540
574.447	0.0168937
574.525	0.0168154
574.603	0.0167654
574.681	0.0170741
574.759	0.0170406
574.837	0.0170583
574.915	0.0172079
574.994	0.0174068
575.072	0.0173960
575.150	0.0174557
575.228	0.0176569
575.306	0.0176424
575.384	0.0177901
575.462	0.0179617
575.540	0.0178717
575.619	0.0179261
575.697	0.0181009
575.775	0.0181107
575.853	0.0183655
575.931	0.0184045
576.009	0.0184187
576.087	0.0184388
576.165	0.0184625
576.244	0.0185690
576.322	0.0186010
576.400	0.0186852
576.478	0.0187363
576.556	0.0185277
576.634	0.0185886
576.712	0.0186800
576.790	0.0185527
576.869	0.0185139
576.947	0.0184032
577.025	0.0183603
577.103	0.0181034
577.181	0.0180186
577.259	0.0179350
577.337	0.0178955
577.415	0.0178254
577.494	0.0176147
577.572	0.0176248
577.650	0.0174118
577.728	0.0173898
577.806	0.0173366
577.884	0.0172000
577.962	0.0173209
578.040	0.0171145
578.119	0.0168534
578.197	0.0168007
578.275	0.0167345
578.353	0.0168581
578.431	0.0167233
578.509	0.0166305
578.587	0.0166393
578.665	0.0166176
578.744	0.0166444
578.822	0.0165686
578.900	0.0166267
578.978	0.0167411
579.056	0.0169106
579.134	0.0168727
579.212	0.0169878
579.290	0.0170451
579.369	0.0171658
579.447	0.0172308
579.525	0.0173129
579.603	0.0172961
579.681	0.0173947
579.759	0.0176369
579.837	0.0176863
579.915	0.0177122
579.994	0.0178616
580.072	0.0177470
580.150	0.0179577
580.228	0.0180288
580.306	0.0178623
580.384	0.0180813
580.462	0.0181849
580.540	0.0181886
580.619	0.0181149
580.697	0.0181638
580.775	0.0183717
580.853	0.0184084
580.931	0.0185533
581.009	0.0185072
581.087	0.0185304
581.165	0.0187383
581.244	0.0185937
581.322	0.0186966
581.400	0.0186544
581.478	0.0188273
581.556	0.0187204
581.634	0.0185804
581.712	0.0185819
581.790	0.0184592
581.869	0.0185223
581.947	0.0180728
582.025	0.0181042
582.103	0.0179385
582.181	0.0179344
582.259	0.0178031
582.337	0.0174366
582.415	0.0173724
582.494	0.0172639
582.572	0.0172012
582.650	0.0170927
582.728	0.0169571
582.806	0.0168585
582.884	0.0168287
582.962	0.0168103
583.040	0.0168224
583.119	0.0168291
583.197	0.0167027
583.275	0.0168205
583.353	0.0168582
583.431	0.0169206
583.509	0.0169993
583.587	0.0169199
583.665	0.0169151
583.744	0.0170197
583.822	0.0171517
583.900	0.0171914
583.978	0.0171852
584.056	0.0171885
584.134	0.0173641
584.212	0.0173942
584.290	0.0175288
584.369	0.0173421
584.447	0.0173903
584.525	0.0174174
584.603	0.0177207
584.681	0.0177451
584.759	0.0176437
584.837	0.0177366
584.915	0.0177518
584.994	0.0177932
585.072	0.0178964
585.150	0.0181033
585.228	0.0180045
585.306	0.0180470
585.384	0.0182236
585.462	0.0181770
585.540	0.0182326
585.619	0.0181763
585.697	0.0182836
585.775	0.0182377
585.853	0.0184730
585.931	0.0184013
586.009	0.0184212
586.087	0.0185545
586.165	0.0184873
586.244	0.0185368
586.322	0.0185658
586.400	0.0184483
586.478	0.0184490
586.556	0.0185918
586.634	0.0183533
586.712	0.0183836
586.790	0.0184925
586.869	0.0185223
586.947	0.0183377
587.025	0.0182741
587.103	0.0182290
587.181	0.0181638
587.259	0.0180434
587.337	0.0180555
587.415	0.0179259
587.494	0.0177289
587.572	0.0176177
587.650	0.0176431
587.728	0.0172611
587.806	0.0172240
587.884	0.0171151
587.962	0.0169978
588.040	0.0167506
588.119	0.0165128
588.197	0.0164940
588.275	0.0164985
588.353	0.0164600
588.431	0.0164354
588.509	0.0163473
588.587	0.0163895
588.665	0.0162984
588.744	0.0165350
588.822	0.0165272
588.900	0.0164626
588.978	0.0165520
589.056	0.0167221
589.134	0.0168609
589.212	0.0169269
589.290	0.0172059
589.369	0.0173138
589.447	0.0175882
589.525	0.0177885
589.603	0.0179044
589.681	0.0181390
589.759	0.0181995
589.837	0.0183709
589.915	0.0185474
589.994	0.0185766
590.072	0.0186703
590.150	0.0185236
590.228	0.0185695
590.306	0.0186788
590.384	0.0186414
590.462	0.0186383
590.540	0.0185572
590.619	0.0182783
590.697	0.0182441
590.775	0.0182515
590.853	0.0181900
590.931	0.0180720
591.009	0.0180510
591.087	0.0178851
591.165	0.0178396
591.244	0.0178053
591.322	0.0176680
591.400	0.0174781
591.478	0.0175235
591.556	0.0173904
591.634	0.0172511
591.712	0.0173714
591.790	0.0172922
591.869	0.0171961
591.947	0.0172704
592.025	0.0172206
592.103	0.0173591
592.181	0.0172809
592.259	0.0173367
592.337	0.0175029
592.415	0.0174299
592.494	0.0175539
592.572	0.0175872
592.650	0.0176034
592.728	0.0174715
592.806	0.0174673
592.884	0.0175990
592.962	0.0175970
593.040	0.0175819
593.119	0.0176181
593.197	0.0174570
593.275	0.0176894
593.353	0.0176675
593.431	0.0175320
593.509	0.0175826
593.587	0.0174264
593.665	0.0176593
593.744	0.0177507
593.822	0.0177607
593.900	0.0177620
593.978	0.0177520
594.056	0.0175555
594.134	0.0177975
594.212	0.0177196
594.290	0.0175482
594.369	0.0175632
594.447	0.0176530
594.525	0.0176944
594.603	0.0176704
594.681	0.0176010
594.759	0.0177942
594.837	0.0177925
594.915	0.0177135
594.994	0.0176710
595.072	0.0178919
595.150	0.0179265
595.228	0.0178506
595.306	0.0179231
595.384	0.0178402
595.462	0.0181123
595.540	0.0180309
595.619	0.0181422
595.697	0.0180305
595.775	0.0180741
595.853	0.0179671
595.931	0.0180761
596.009	0.0179884
596.087	0.0178594
596.165	0.0178364
596.244	0.0177985
596.322	0.0176775
596.400	0.0176929
596.478	0.0175610
596.556	0.0175035
596.634	0.0174960
596.712	0.0172723
596.790	0.0173524
596.869	0.0172012
596.947	0.0173668
597.025	0.0172566
597.103	0.0171540
597.181	0.0169165
597.259	0.0171352
597.337	0.0170042
597.415	0.0169247
597.494	0.0171018
597.572	0.0170036
597.650	0.0169325
597.728	0.0169333
597.806	0.0170026
597.884	0.0169570
597.962	0.0171022
598.040	0.0171841
598.119	0.0171310
598.197	0.0172668
598.275	0.0174644
598.353	0.0176509
598.431	0.0176379
598.509	0.0176350
598.587	0.0179617
598.665	0.0182207
598.744	0.0182677
598.822	0.0183582
598.900	0.0183615
598.978	0.0186785
599.056	0.0186162
599.134	0.0187111
599.212	0.0186687
599.290	0.0187541
599.369	0.0187569
599.447	0.0186301
599.525	0.0185827
599.603	0.0185255
599.681	0.0184933
599.759	0.0183929
599.837	0.0183673
599.915	0.0183036
599.994	0.0182261
600.072	0.0181882
600.150	0.0180373
600.228	0.0181214
600.306	0.0178749
600.384	0.0178381
600.462	0.0177326
600.540	0.0176904
600.619	0.0175376
600.697	0.0173300
600.775	0.0172420
600.853	0.0173021
600.931	0.0173083
601.009	0.0170968
601.087	0.0168254
601.165	0.0169147
601.244	0.0168661
601.322	0.0169145
601.400	0.0167633
601.478	0.0169916
601.556	0.0168225
601.634	0.0169447
601.712	0.0169221
601.790	0.0171175
601.869	0.0171095
601.947	0.0171317
602.025	0.0172611
602.103	0.0172556
602.181	0.0174132
602.259	0.0172353
602.337	0.0173138
602.415	0.0174283
602.494	0.0175992
602.572	0.0176189
602.650	0.0176284
602.728	0.0176986
602.806	0.0177330
602.884	0.0177705
602.962	0.0176851
603.040	0.0178544
603.119	0.0177773
603.197	0.0176691
603.275	0.0176891
603.353	0.0177366
603.431	0.0176615
603.509	0.0174855
603.587	0.0175930
603.665	0.0176950
603.744	0.0175437
603.822	0.0174386
603.900	0.0176224
603.978	0.0176743
604.056	0.0175664
604.134	0.0173203
604.212	0.0173284
604.290	0.0176350
604.369	0.0175121
604.447	0.0175716
604.525	0.0176569
604.603	0.0176585
604.681	0.0178781
604.759	0.0178957
604.837	0.0180412
604.915	0.0180917
604.994	0.0181456
605.072	0.0182251
605.150	0.0183079
605.228	0.0182371
605.306	0.0184702
605.384	0.0183645
605.462	0.0185537
605.540	0.0182889
605.619	0.0183370
605.697	0.0183528
605.775	0.0183001
605.853	0.0182281
605.931	0.0182261
606.009	0.0181229
606.087	0.0181404
606.165	0.0180853
606.244	0.0180741
606.322	0.0179752
606.400	0.0179532
606.478	0.0178159
606.556	0.0178247
606.634	0.0177317
606.712	0.0173942
606.790	0.0173772
606.869	0.0174132
606.947	0.0172083
607.025	0.0172304
607.103	0.0169350
607.181	0.0168749
607.259	0.0165636
607.337	0.0166853
607.415	0.0164051
607.494	0.0164141
607.572	0.0163451
607.650	0.0163296
607.728	0.0162734
607.806	0.0163223
607.884	0.0163448
607.962	0.0162946
608.040	0.0164171
608.119	0.0166583
608.197	0.0169016
608.275	0.0169720
608.353	0.0169635
608.431	0.0171469
608.509	0.0173483
608.587	0.0173177
608.665	0.0175081
608.744	0.0176167
608.822	0.0175163
608.900	0.0176685
608.978	0.0177914
609.056	0.0178635
609.134	0.0179038
609.212	0.0179421
609.290	0.0180476
609.369	0.0181767
609.447	0.0182598
609.525	0.0183712
609.603	0.0184999
609.681	0.0184969
609.759	0.0187296
609.837	0.0186720
609.915	0.0187633
609.994	0.0186835
610.072	0.0187785
610.150	0.0187499
610.228	0.0186917
610.306	0.0185820
610.384	0.0185863
610.462	0.0185520
610.540	0.0183326
610.619	0.0182796
610.697	0.0181393
610.775	0.0180041
610.853	0.0180331
610.931	0.0180614
611.009	0.0179354
611.087	0.0177133
611.165	0.0175696
611.244	0.0174355
611.322	0.0174062
611.400	0.0173567
611.478	0.0172251
611.556	0.0171136
611.634	0.0169760
611.712	0.0169151
611.790	0.0168972
611.869	0.0169979
611.947	0.0169986
612.025	0.0170525
612.103	0.0171262
612.181	0.0170204
612.259	0.0170956
612.337	0.0172063
612.415	0.0172700
612.494	0.0173020
612.572	0.0175240
612.650	0.0175769
612.728	0.0175519
612.806	0.0176152
612.884	0.0177427
612.962	0.0177563
613.040	0.0177930
613.119	0.0176599
613.197	0.0177950
613.275	0.0177818
613.353	0.0177486
613.431	0.0177056
613.509	0.0176083
613.587	0.0176955
613.665	0.0176086
613.744	0.0174879
613.822	0.0175728
613.900	0.0174709
613.978	0.0174357
614.056	0.0175594
614.134	0.0175124
614.212	0.0175610
614.290	0.0173976
614.369	0.0175060
614.447	0.0174150
614.525	0.0174381
614.603	0.0174842
614.681	0.0175336
614.759	0.0173666
614.837	0.0176174
614.915	0.0174996
614.994	0.0176202
615.072	0.0174721
615.150	0.0175125
615.228	0.0175766
615.306	0.0175324
615.384	0.0173985
615.462	0.0174888
615.540	0.0176344
615.619	0.0173949
615.697	0.0174767
615.775	0.0174567
615.853	0.0176334
615.931	0.0177013
616.009	0.0174992
616.087	0.0175776
616.165	0.0178604
616.244	0.0178565
616.322	0.0178893
616.400	0.0176679
616.478	0.0178568
616.556	0.0179998
616.634	0.0180386
616.712	0.0180658
616.790	0.0178818
616.869	0.0178992
616.947	0.0178658
617.025	0.0178116
617.103	0.0179555
617.181	0.0179301
617.259	0.0178848
617.337	0.0179069
617.415	0.0178013
617.494	0.0177844
617.572	0.0176823
617.650	0.0177687
617.728	0.0178443
617.806	0.0177160
617.884	0.0176567
617.962	0.0176347
618.040	0.0177047
618.119	0.0177493
618.197	0.0176051
618.275	0.0176326
618.353	0.0174512
618.431	0.0176163
618.509	0.0175793
618.587	0.0176356
618.665	0.0177425
618.744	0.0176470
618.822	0.0175516
618.900	0.0178253
618.978	0.0177452
619.056	0.0178284
619.134	0.0176917
619.212	0.0179264
619.290	0.0177621
619.369	0.0176825
619.447	0.0177044
619.525	0.0179135
619.603	0.0179111
619.681	0.0178751
619.759	0.0177903
619.837	0.0177680
619.915	0.0175805
619.994	0.0175780
620.072	0.0173747
620.150	0.0174729
620.228	0.0173472
620.306	0.0174192
620.384	0.0174320
620.462	0.0174016
620.540	0.0172976
620.619	0.0173571
620.697	0.0174544
620.775	0.0173319
620.853	0.0173264
620.931	0.0173420
621.009	0.0172508
621.087	0.0172608
621.165	0.0172080
621.244	0.0171082
621.322	0.0171877
621.400	0.0171178
621.478	0.0171119
621.556	0.0170722
621.634	0.0172350
621.712	0.0172485
621.790	0.0172912
621.869	0.0173636
621.947	0.0173032
622.025	0.0174323
622.103	0.0175211
622.181	0.0175202
622.259	0.0175946
622.337	0.0176794
622.415	0.0176776
622.494	0.0178088
622.572	0.0178220
622.650	0.0179248
622.728	0.0179387
622.806	0.0179208
622.884	0.0180767
622.962	0.0181110
623.040	0.0181827
623.119	0.0181274
623.197	0.0181354
623.275	0.0180764
623.353	0.0182397
623.431	0.0183031
623.509	0.0181934
623.587	0.0181700
623.665	0.0182058
623.744	0.0182657
623.822	0.0181541
623.900	0.0180650
623.978	0.0183212
624.056	0.0181647
624.134	0.0180128
624.212	0.0179973
624.290	0.0179870
624.369	0.0178951
624.447	0.0177583
624.525	0.0178492
624.603	0.0176766
624.681	0.0176608
624.759	0.0174976
624.837	0.0173588
624.915	0.0174789
624.994	0.0174324
625.072	0.0174140
625.150	0.0172535
625.228	0.0173263
625.306	0.0173957
625.384	0.0171341
625.462	0.0172314
625.540	0.0173389
625.619	0.0173103
625.697	0.0172176
625.775	0.0171546
625.853	0.0172816
625.931	0.0173545
626.009	0.0173889
626.087	0.0171919
626.165	0.0173952
626.244	0.0174653
626.322	0.0174668
626.400	0.0174061
626.478	0.0174854
626.556	0.0174798
626.634	0.0173474
626.712	0.0176131
626.790	0.0175502
626.869	0.0174443
626.947	0.0172388
627.025	0.0173604
627.103	0.0174010
627.181	0.0173546
627.259	0.0173980
627.337	0.0174139
627.415	0.0174783
627.494	0.0174242
627.572	0.0172398
627.650	0.0173238
627.728	0.0172269
627.806	0.0172732
627.884	0.0173536
627.962	0.0171809
628.040	0.0172734
628.119	0.0173085
628.197	0.0172720
628.275	0.0170319
628.353	0.0172197
628.431	0.0172748
628.509	0.0171490
628.587	0.0171226
628.665	0.0172158
628.744	0.0172191
628.822	0.0173050
628.900	0.0172057
628.978	0.0172265
629.056	0.0173624
629.134	0.0172913
629.212	0.0175029
629.290	0.0174740
629.369	0.0174474
629.447	0.0174765
629.525	0.0177738
629.603	0.0178098
629.681	0.0178706
629.759	0.0178783
629.837	0.0179543
629.915	0.0179929
629.994	0.0179575
630.072	0.0181723
630.150	0.0182281
630.228	0.0180569
630.306	0.0181865
630.384	0.0181136
630.462	0.0181660
630.540	0.0181329
630.619	0.0181900
630.697	0.0181507
630.775	0.0179543
630.853	0.0180316
630.931	0.0180396
631.009	0.0180178
631.087	0.0178081
631.165	0.0179746
631.244	0.0178447
631.322	0.0179317
631.400	0.0179022
631.478	0.0178077
631.556	0.0178071
631.634	0.0178750
631.712	0.0177777
631.790	0.0177817
631.869	0.0177379
631.947	0.0175571
632.025	0.0175201
632.103	0.0174939
632.181	0.0174500
632.259	0.0174756
632.337	0.0174327
632.415	0.0173048
632.494	0.0171136
632.572	0.0172737
632.650	0.0173570
632.728	0.0172633
632.806	0.0173317
632.884	0.0173112
632.962	0.0173142
633.040	0.0172686
633.119	0.0170970
633.197	0.0171809
633.275	0.0172355
633.353	0.0171227
633.431	0.0170582
633.509	0.0171030
633.587	0.0169534
633.665	0.0170779
633.744	0.0172082
633.822	0.0170226
633.900	0.0170077
633.978	0.0171777
634.056	0.0172008
634.134	0.0172512
634.212	0.0172322
634.290	0.0172689
634.369	0.0172746
634.447	0.0173592
634.525	0.0174367
634.603	0.0174914
634.681	0.0174754
634.759	0.0175678
634.837	0.0176528
634.915	0.0176513
634.994	0.0176025
635.072	0.0177693
635.150	0.0176733
635.228	0.0178814
635.306	0.0176729
635.384	0.0177273
635.462	0.0176589
635.540	0.0176313
635.619	0.0175782
635.697	0.0175047
635.775	0.0175877
635.853	0.0174158
635.931	0.0175533
636.009	0.0175547
636.087	0.0174919
636.165	0.0175365
636.244	0.0175191
636.322	0.0176012
636.400	0.0176878
636.478	0.0175232
636.556	0.0175352
636.634	0.0175859
636.712	0.0177428
636.790	0.0175027
636.869	0.0176553
636.947	0.0177351
637.025	0.0176984
637.103	0.0175584
637.181	0.0176164
637.259	0.0178666
637.337	0.0176601
637.415	0.0176311
637.494	0.0177211
637.572	0.0177802
637.650	0.0176839
637.728	0.0178529
637.806	0.0178727
637.884	0.0176926
637.962	0.0178362
638.040	0.0179138
638.119	0.0178593
638.197	0.0178534
638.275	0.0178699
638.353	0.0177036
638.431	0.0178625
638.509	0.0179649
638.587	0.0178371
638.665	0.0178748
638.744	0.0177759
638.822	0.0175420
638.900	0.0175919
638.978	0.0176870
639.056	0.0174561
639.134	0.0174638
639.212	0.0175333
639.290	0.0174789
639.369	0.0174767
639.447	0.0172337
639.525	0.0174133
639.603	0.0175029
639.681	0.0174841
639.759	0.0174248
639.837	0.0173141
639.915	0.0173320
639.994	0.0174551
640.072	0.0173723
640.150	0.0174485
640.228	0.0175080
640.306	0.0174755
640.384	0.0174832
640.462	0.0174498
640.540	0.0174936
640.619	0.0174495
640.697	0.0175124
640.775	0.0175553
640.853	0.0175866
640.931	0.0176486
641.009	0.0176802
641.087	0.0174287
641.165	0.0175617
641.244	0.0175208
641.322	0.0176408
641.400	0.0176376
641.478	0.0174563
641.556	0.0176464
641.634	0.0175745
641.712	0.0175108
641.790	0.0174602
641.869	0.0176945
641.947	0.0175812
642.025	0.0173540
642.103	0.0175076
642.181	0.0174200
642.259	0.0175319
642.337	0.0174814
642.415	0.0174923
642.494	0.0174457
642.572	0.0173732
642.650	0.0174369
642.728	0.0174851
642.806	0.0174784
642.884	0.0174866
642.962	0.0175014
643.040	0.0174003
643.119	0.0175597
643.197	0.0175512
643.275	0.0175105
643.353	0.0175028
643.431	0.0176511
643.509	0.0176704
643.587	0.0176871
643.665	0.0176772
643.744	0.0176868
643.822	0.0177626
643.900	0.0178799
643.978	0.0177869
644.056	0.0177914
644.134	0.0177399
644.212	0.0177442
644.290	0.0177097
644.369	0.0176716
644.447	0.0176882
644.525	0.0177271
644.603	0.0176181
644.681	0.0177284
644.759	0.0177516
644.837	0.0177228
644.915	0.0176836
644.994	0.0177560
645.072	0.0179607
645.150	0.0179380
645.228	0.0178966
645.306	0.0178233
645.384	0.0180241
645.462	0.0180015
645.540	0.0179574
645.619	0.0178998
645.697	0.0180151
645.775	0.0180389
645.853	0.0178532
645.931	0.0177053
646.009	0.0178300
646.087	0.0176191
646.165	0.0176309
646.244	0.0175249
646.322	0.0174404
646.400	0.0172716
646.478	0.0171773
646.556	0.0174379
646.634	0.0171405
646.712	0.0171243
646.790	0.0172626
646.869	0.0171044
646.947	0.0172374
647.025	0.0172206
647.103	0.0173297
647.181	0.0172569
647.259	0.0172394
647.337	0.0172130
647.415	0.0172685
647.494	0.0172548
647.572	0.0171787
647.650	0.0173647
647.728	0.0174294
647.806	0.0172886
647.884	0.0172417
647.962	0.0174347
648.040	0.0174406
648.119	0.0174603
648.197	0.0174297
648.275	0.0176849
648.353	0.0176531
648.431	0.0176440
648.509	0.0177130
648.587	0.0176417
648.665	0.0178078
648.744	0.0177699
648.822	0.0178178
648.900	0.0179049
648.978	0.0178432
649.056	0.0178179
649.134	0.0178145
649.212	0.0178153
649.290	0.0176584
649.369	0.0177500
649.447	0.0176281
649.525	0.0176213
649.603	0.0175343
649.681	0.0174169
649.759	0.0174870
649.837	0.0174510
649.915	0.0175540
649.994	0.0176067
650.072	0.0173940
650.150	0.0174287
650.228	0.0175595
650.306	0.0174654
650.384	0.0175915
650.462	0.0174076
650.540	0.0173530
650.619	0.0175028
650.697	0.0174294
650.775	0.0174470
650.853	0.0174816
650.931	0.0175064
651.009	0.0175330
651.087	0.0174832
651.165	0.0174816
651.244	0.0175065
651.322	0.0175276
651.400	0.0174885
651.478	0.0174150
651.556	0.0175625
651.634	0.0175703
651.712	0.0175956
651.790	0.0175307
651.869	0.0175101
651.947	0.0175260
652.025	0.0175014
652.103	0.0176605
652.181	0.0176449
652.259	0.0176573
652.337	0.0176417
652.415	0.0176552
652.494	0.0177188
652.572	0.0178067
652.650	0.0177707
652.728	0.0176555
652.806	0.0179188
652.884	0.0178218
652.962	0.0176708
653.040	0.0176671
653.119	0.0178345
653.197	0.0175758
653.275	0.0177576
653.353	0.0178408
653.431	0.0176964
653.509	0.0176045
653.587	0.0175594
653.665	0.0176211
653.744	0.0176301
653.822	0.0174523
653.900	0.0174174
653.978	0.0174452
654.056	0.0174899
654.134	0.0174261
654.212	0.0173865
654.290	0.0173033
654.369	0.0172428
654.447	0.0171215
654.525	0.0172292
654.603	0.0173122
654.681	0.0172403
654.759	0.0173522
654.837	0.0171780
654.915	0.0172050
654.994	0.0171684
655.072	0.0173081
655.150	0.0173915
655.228	0.0172583
655.306	0.0173050
655.384	0.0172992
655.462	0.0175221
655.540	0.0176342
655.619	0.0175887
655.697	0.0175723
655.775	0.0177150
655.853	0.0177016
655.931	0.0177750
656.009	0.0178949
656.087	0.0178880
656.165	0.0178951
656.244	0.0178251
656.322	0.0177602
656.400	0.0178245
656.478	0.0178527
656.556	0.0177876
656.634	0.0178160
656.712	0.0179507
656.790	0.0179231
656.869	0.0178196
656.947	0.0178632
657.025	0.0178902
657.103	0.0179169
657.181	0.0177654
657.259	0.0178202
657.337	0.0178539
657.415	0.0178773
657.494	0.0178498
657.572	0.0178363
657.650	0.0177638
657.728	0.0177010
657.806	0.0178337
657.884	0.0178031
657.962	0.0176663
658.040	0.0176891
658.119	0.0176606
658.197	0.0176208
658.275	0.0176037
658.353	0.0176305
658.431	0.0177114
658.509	0.0175951
658.587	0.0176195
658.665	0.0175833
658.744	0.0175297
658.822	0.0176955
658.900	0.0177172
658.978	0.0176752
659.056	0.0175391
659.134	0.0176305
659.212	0.0175409
659.290	0.0176386
659.369	0.0175942
659.447	0.0174735
659.525	0.0175158
659.603	0.0175316
659.681	0.0176297
659.759	0.0176157
659.837	0.0176265
659.915	0.0176860
659.994	0.0177823
660.072	0.0177185
660.150	0.0176435
660.228	0.0175824
660.306	0.0177309
660.384	0.0176818
660.462	0.0176814
660.540	0.0176678
660.619	0.0175895
660.697	0.0177210
660.775	0.0176306
660.853	0.0175431
660.931	0.0177730
661.009	0.0176848
661.087	0.0176696
661.165	0.0175287
661.244	0.0175340
661.322	0.0175371
661.400	0.0176035
661.478	0.0175060
661.556	0.0175892
661.634	0.0173438
661.712	0.0174316
661.790	0.0173899
661.869	0.0174723
661.947	0.0174983
662.025	0.0174436
662.103	0.0174529
662.181	0.0173230
662.259	0.0173397
662.337	0.0172565
662.415	0.0174016
662.494	0.0173325
662.572	0.0173037
662.650	0.0174973
662.728	0.0174237
662.806	0.0172227
662.884	0.0173547
662.962	0.0171439
663.040	0.0171069
663.119	0.0172752
663.197	0.0173954
663.275	0.0173058
663.353	0.0172510
663.431	0.0172545
663.509	0.0172734
663.587	0.0173531
663.665	0.0174778
663.744	0.0174081
663.822	0.0173217
663.900	0.0174580
663.978	0.0174757
664.056	0.0173194
664.134	0.0174562
664.212	0.0173694
664.290	0.0175800
664.369	0.0176105
664.447	0.0175346
664.525	0.0175603
664.603	0.0177015
664.681	0.0176501
664.759	0.0176643
664.837	0.0177039
664.915	0.0175546
664.994	0.0175945
665.072	0.0176822
665.150	0.0178266
665.228	0.0177629
665.306	0.0177862
665.384	0.0177085
665.462	0.0178239
665.540	0.0178346
665.619	0.0178020
665.697	0.0179044
665.775	0.0175696
665.853	0.0176741
665.931	0.0177657
666.009	0.0176794
666.087	0.0175474
666.165	0.0175968
666.244	0.0175499
666.322	0.0174758
666.400	0.0174921
666.478	0.0176001
666.556	0.0175838
666.634	0.0175052
666.712	0.0176151
666.790	0.0175050
666.869	0.0174821
666.947	0.0174328
667.025	0.0174619
667.103	0.0175857
667.181	0.0174303
667.259	0.0174928
667.337	0.0174589
667.415	0.0174085
667.494	0.0175562
667.572	0.0175546
667.650	0.0176036
667.728	0.0176736
667.806	0.0177721
667.884	0.0176831
667.962	0.0178126
668.040	0.0178181
668.119	0.0177301
668.197	0.0177813
668.275	0.0179458
668.353	0.0179958
668.431	0.0180300
668.509	0.0179020
668.587	0.0179207
668.665	0.0179145
668.744	0.0179953
668.822	0.0179828
668.900	0.0179159
668.978	0.0180706
669.056	0.0179170
669.134	0.0177574
669.212	0.0178452
669.290	0.0177618
669.369	0.0178189
669.447	0.0177304
669.525	0.0176305
669.603	0.0177651
669.681	0.0177295
669.759	0.0176617
669.837	0.0175962
669.915	0.0176654
669.994	0.0175204
670.072	0.0176356
670.150	0.0176673
670.228	0.0174453
670.306	0.0173956
670.384	0.0173945
670.462	0.0173625
670.540	0.0174108
670.619	0.0172485
670.697	0.0173652
670.775	0.0173695
670.853	0.0173082
670.931	0.0174463
671.009	0.0173128
671.087	0.0174465
671.165	0.0174975
671.244	0.0176518
671.322	0.0176203
671.400	0.0175643
671.478	0.0175901
671.556	0.0176882
671.634	0.0178142
671.712	0.0179173
671.790	0.0176818
671.869	0.0176976
671.947	0.0180254
672.025	0.0179628
672.103	0.0179181
672.181	0.0179992
672.259	0.0179372
672.337	0.0179425
672.415	0.0180878
672.494	0.0179234
672.572	0.0180303
672.650	0.0180021
672.728	0.0179630
672.806	0.0178979
672.884	0.0180102
672.962	0.0178986
673.040	0.0179253
673.119	0.0177880
673.197	0.0177393
673.275	0.0177253
673.353	0.0176923
673.431	0.0177343
673.509	0.0176473
673.587	0.0175957
673.665	0.0175410
673.744	0.0175394
673.822	0.0175468
673.900	0.0176138
673.978	0.0174894
674.056	0.0175002
674.134	0.0174917
674.212	0.0174340
674.290	0.0174270
674.369	0.0175409
674.447	0.0175558
674.525	0.0175388
674.603	0.0174126
674.681	0.0173824
674.759	0.0174388
674.837	0.0175349
674.915	0.0174598
674.994	0.0174638
675.072	0.0174465
675.150	0.0175131
675.228	0.0175312
675.306	0.0175895
675.384	0.0175382
675.462	0.0175644
675.540	0.0176146
675.619	0.0175342
675.697	0.0175851
675.775	0.0175664
675.853	0.0175195
675.931	0.0175871
676.009	0.0176445
676.087	0.0176967
676.165	0.0174308
676.244	0.0175601
676.322	0.0177083
676.400	0.0176817
676.478	0.0175879
676.556	0.0175423
676.634	0.0177193
676.712	0.0177282
676.790	0.0175767
676.869	0.0175922
676.947	0.0176384
677.025	0.0177586
677.103	0.0176096
677.181	0.0178237
677.259	0.0177104
677.337	0.0176754
677.415	0.0176917
677.494	0.0177292
677.572	0.0178448
677.650	0.0178723
677.728	0.0176601
677.806	0.0176250
677.884	0.0177439
677.962	0.0178811
678.040	0.0177074
678.119	0.0175554
678.197	0.0176902
678.275	0.0178028
678.353	0.0178245
678.431	0.0176947
678.509	0.0178043
678.587	0.0177653
678.665	0.0176833
678.744	0.0177062
678.822	0.0176627
678.900	0.0177731
678.978	0.0177795
679.056	0.0178176
679.134	0.0177757
679.212	0.0176644
679.290	0.0178623
679.369	0.0178515
679.447	0.0177015
679.525	0.0178241
679.603	0.0177506
679.681	0.0178394
679.759	0.0177289
679.837	0.0177303
679.915	0.0179391
679.994	0.0176880
680.072	0.0176948
680.150	0.0176710
680.228	0.0177192
680.306	0.0178733
680.384	0.0177897
680.462	0.0176756
680.540	0.0177163
680.619	0.0178613
680.697	0.0177522
680.775	0.0175814
680.853	0.0177872
680.931	0.0175890
681.009	0.0176563
681.087	0.0175449
681.165	0.0176523
681.244	0.0177126
681.322	0.0176911
681.400	0.0175459
681.478	0.0174865
681.556	0.0175169
681.634	0.0174538
681.712	0.0176078
681.790	0.0175517
681.869	0.0174654
681.947	0.0175496
682.025	0.0175347
682.103	0.0174967
682.181	0.0175211
682.259	0.0176102
682.337	0.0176434
682.415	0.0176492
682.494	0.0174844
682.572	0.0176571
682.650	0.0177619
682.728	0.0176574
682.806	0.0177544
682.884	0.0177010
682.962	0.0177934
683.040	0.0178718
683.119	0.0178111
683.197	0.0176600
683.275	0.0176880
683.353	0.0177228
683.431	0.0177620
683.509	0.0177614
683.587	0.0177664
683.665	0.0179203
683.744	0.0177393
683.822	0.0177864
683.900	0.0177524
683.978	0.0176997
684.056	0.0176918
684.134	0.0176897
684.212	0.0175286
684.290	0.0175854
684.369	0.0177363
684.447	0.0176457
684.525	0.0174734
684.603	0.0175633
684.681	0.0175786
684.759	0.0174815
684.837	0.0175251
684.915	0.0174303
684.994	0.0174895
685.072	0.0174223
685.150	0.0173856
685.228	0.0175269
685.306	0.0173515
685.384	0.0175381
685.462	0.0175168
685.540	0.0176299
685.619	0.0174660
685.697	0.0176233
685.775	0.0174729
685.853	0.0176140
685.931	0.0176996
686.009	0.0175510
686.087	0.0176682
686.165	0.0176385
686.244	0.0177223
686.322	0.0175504
686.400	0.0176698
686.478	0.0178217
686.556	0.0176460
686.634	0.0177627
686.712	0.0176886
686.790	0.0175985
686.869	0.0177910
686.947	0.0177814
687.025	0.0176597
687.103	0.0177781
687.181	0.0177330
687.259	0.0179414
687.337	0.0178657
687.415	0.0176327
687.494	0.0176521
687.572	0.0176469
687.650	0.0177048
687.728	0.0177472
687.806	0.0177322
687.884	0.0177101
687.962	0.0177782
688.040	0.0176244
688.119	0.0177932
688.197	0.0178408
688.275	0.0176411
688.353	0.0178405
688.431	0.0177646
688.509	0.0176699
688.587	0.0177362
688.665	0.0177512
688.744	0.0178829
688.822	0.0177113
688.900	0.0176200
688.978	0.0178505
689.056	0.0178122
689.134	0.0177506
689.212	0.0176732
689.290	0.0174921
689.369	0.0177318
689.447	0.0177515
689.525	0.0176462
689.603	0.0176681
689.681	0.0177824
689.759	0.0176699
689.837	0.0176899
689.915	0.0176472
689.994	0.0175588
690.072	0.0175807
690.150	0.0178492
690.228	0.0175717
690.306	0.0176919
690.384	0.0177125
690.462	0.0176670
690.540	0.0177690
690.619	0.0177273
690.697	0.0176337
690.775	0.0177280
690.853	0.0177718
690.931	0.0176693
691.009	0.0175427
691.087	0.0176953
691.165	0.0176762
691.244	0.0176817
691.322	0.0176133
691.400	0.0175943
691.478	0.0176378
691.556	0.0176240
691.634	0.0175394
691.712	0.0175147
691.790	0.0175844
691.869	0.0174941
691.947	0.0175387
692.025	0.0176459
692.103	0.0175494
692.181	0.0177788
692.259	0.0175499
692.337	0.0176491
692.415	0.0175861
692.494	0.0175632
692.572	0.0174407
692.650	0.0175863
692.728	0.0176443
692.806	0.0175575
692.884	0.0176730
692.962	0.0176339
693.040	0.0175998
693.119	0.0175917
693.197	0.0175916
693.275	0.0176870
693.353	0.0175481
693.431	0.0175636
693.509	0.0176716
693.587	0.0176838
693.665	0.0176637
693.744	0.0176363
693.822	0.0176855
693.900	0.0177280
693.978	0.0175828
694.056	0.0177198
694.134	0.0177269
694.212	0.0177656
694.290	0.0177219
694.369	0.0176221
694.447	0.0177715
694.525	0.0176303
694.603	0.0177471
694.681	0.0178164
694.759	0.0178866
694.837	0.0179192
694.915	0.0178036
694.994	0.0179849
695.072	0.0179294
695.150	0.0178936
695.228	0.0179401
695.306	0.0178922
695.384	0.0178635
695.462	0.0178353
695.540	0.0178839
695.619	0.0178602
695.697	0.0177164
695.775	0.0177715
695.853	0.0179103
695.931	0.0178741
696.009	0.0177262
696.087	0.0176929
696.165	0.0176738
696.244	0.0177755
696.322	0.0175057
696.400	0.0175957
696.478	0.0175465
696.556	0.0174792
696.634	0.0176202
696.712	0.0174776
696.790	0.0173943
696.869	0.0175736
696.947	0.0174683
697.025	0.0175468
697.103	0.0175703
697.181	0.0174277
697.259	0.0174174
697.337	0.0174809
697.415	0.0174045
697.494	0.0174493
697.572	0.0174487
697.650	0.0174099
697.728	0.0174256
697.806	0.0173032
697.884	0.0174106
697.962	0.0173826
698.040	0.0175445
698.119	0.0174646
698.197	0.0175717
698.275	0.0176219
698.353	0.0174599
698.431	0.0175777
698.509	0.0176080
698.587	0.0176186
698.665	0.0177380
698.744	0.0175456
698.822	0.0178334
698.900	0.0176979
698.978	0.0176270
699.056	0.0177248
699.134	0.0177576
699.212	0.0177538
699.290	0.0178289
699.369	0.0177027
699.447	0.0178326
699.525	0.0179079
699.603	0.0179580
699.681	0.0178196
699.759	0.0178031
699.837	0.0177964
699.915	0.0177637
699.994	0.0177885
700.072	0.0178724
700.150	0.0178850
700.228	0.0177026
700.306	0.0176757
700.384	0.0176933
700.462	0.0177008
700.540	0.0176752
700.619	0.0178015
700.697	0.0176678
700.775	0.0176131
700.853	0.0177697
700.931	0.0175909
701.009	0.0175416
701.087	0.0175798
701.165	0.0177394
701.244	0.0176980
701.322	0.0177209
701.400	0.0176192
701.478	0.0176852
701.556	0.0177692
701.634	0.0177370
701.712	0.0176900
701.790	0.0177907
701.869	0.0176363
701.947	0.0176913
702.025	0.0177178
702.103	0.0176929
702.181	0.0176501
702.259	0.0177749
702.337	0.0177933
702.415	0.0177636
702.494	0.0176527
702.572	0.0176521
702.650	0.0177935
702.728	0.0176089
702.806	0.0177126
702.884	0.0175802
702.962	0.0176168
703.040	0.0177064
703.119	0.0176941
703.197	0.0175959
703.275	0.0175921
703.353	0.0175407
703.431	0.0176196
703.509	0.0175323
703.587	0.0175521
703.665	0.0176579
703.744	0.0176157
703.822	0.0175467
703.900	0.0175999
703.978	0.0176888
704.056	0.0175632
704.134	0.0175938
704.212	0.0174687
704.290	0.0174096
704.369	0.0174866
704.447	0.0174923
704.525	0.0175061
704.603	0.0175204
704.681	0.0174479
704.759	0.0174738
704.837	0.0175810
704.915	0.0174386
704.994	0.0175311
705.072	0.0176313
705.150	0.0174586
705.228	0.0176278
705.306	0.0176178
705.384	0.0174738
705.462	0.0176595
705.540	0.0176163
705.619	0.0176467
705.697	0.0175914
705.775	0.0177226
705.853	0.0178571
705.931	0.0176398
706.009	0.0178519
706.087	0.0178934
706.165	0.0177824
706.244	0.0176794
706.322	0.0178454
706.400	0.0177645
706.478	0.0177785
706.556	0.0177734
706.634	0.0178164
706.712	0.0177085
706.790	0.0176672
706.869	0.0176936
706.947	0.0178738
707.025	0.0177220
707.103	0.0176267
707.181	0.0176422
707.259	0.0177139
707.337	0.0176913
707.415	0.0176455
707.494	0.0175858
707.572	0.0175566
707.650	0.0175562
707.728	0.0175910
707.806	0.0174467
707.884	0.0175768
707.962	0.0175018
708.040	0.0174769
708.119	0.0174107
708.197	0.0174352
708.275	0.0175437
708.353	0.0173958
708.431	0.0174544
708.509	0.0175897
708.587	0.0173347
708.665	0.0173620
708.744	0.0174721
708.822	0.0174384
708.900	0.0173544
708.978	0.0173505
709.056	0.0174216
709.134	0.0174104
709.212	0.0174203
709.290	0.0174204
709.369	0.0173139
709.447	0.0175514
709.525	0.0174413
709.603	0.0174104
709.681	0.0174715
709.759	0.0174442
709.837	0.0175303
709.915	0.0174135
709.994	0.0175031
710.072	0.0174737
710.150	0.0175549
710.228	0.0174876
710.306	0.0175108
710.384	0.0174825
710.462	0.0175113
710.540	0.0173926
710.619	0.0176577
710.697	0.0175326
710.775	0.0175123
710.853	0.0176130
710.931	0.0176909
711.009	0.0176298
711.087	0.0177109
711.165	0.0175266
711.244	0.0175798
711.322	0.0176637
711.400	0.0174689
711.478	0.0175337
711.556	0.0176063
711.634	0.0175916
711.712	0.0173761
711.790	0.0175383
711.869	0.0175027
711.947	0.0174564
712.025	0.0175056
712.103	0.0173572
712.181	0.0174968
712.259	0.0175086
712.337	0.0175187
712.415	0.0175908
712.494	0.0174965
712.572	0.0173865
712.650	0.0175589
712.728	0.0175983
712.806	0.0176445
712.884	0.0176435
712.962	0.0176051
713.040	0.0177483
713.119	0.0176360
713.197	0.0176923
713.275	0.0176452
713.353	0.0175940
713.431	0.0176689
713.509	0.0177139
713.587	0.0176952
713.665	0.0176588
713.744	0.0176892
713.822	0.0177128
713.900	0.0177637
713.978	0.0176710
714.056	0.0176233
714.134	0.0176673
714.212	0.0176263
714.290	0.0177612
714.369	0.0176250
714.447	0.0177765
714.525	0.0177470
714.603	0.0178085
714.681	0.0177749
714.759	0.0177451
714.837	0.0177726
714.915	0.0176826
714.994	0.0176093
715.072	0.0177288
715.150	0.0176508
715.228	0.0176389
715.306	0.0177390
715.384	0.0177290
715.462	0.0176390
715.540	0.0176827
715.619	0.0175986
715.697	0.0176111
715.775	0.0174874
715.853	0.0175649
715.931	0.0176398
716.009	0.0175351
716.087	0.0175285
716.165	0.0175005
716.244	0.0175355
716.322	0.0174834
716.400	0.0175165
716.478	0.0175259
716.556	0.0175034
716.634	0.0174132
716.712	0.0173922
716.790	0.0174800
716.869	0.0175346
716.947	0.0174866
717.025	0.0175260
717.103	0.0175726
717.181	0.0174638
717.259	0.0173831
717.337	0.0174438
717.415	0.0175320
717.494	0.0174676
717.572	0.0174313
717.650	0.0175491
717.728	0.0175381
717.806	0.0174656
717.884	0.0174216
717.962	0.0174963
718.040	0.0175880
718.119	0.0175881
718.197	0.0174253
718.275	0.0175021
718.353	0.0175611
718.431	0.0173772
718.509	0.0174744
718.587	0.0174754
718.665	0.0174996
718.744	0.0174928
718.822	0.0175105
718.900	0.0175161
718.978	0.0175891
719.056	0.0176874
719.134	0.0177089
719.212	0.0175333
719.290	0.0175995
719.369	0.0175818
719.447	0.0176822
719.525	0.0176012
719.603	0.0176205
719.681	0.0178494
719.759	0.0176704
719.837	0.0176474
719.915	0.0177736
719.994	0.0176674
720.072	0.0176526
720.150	0.0175845
720.228	0.0176193
720.306	0.0176920
720.384	0.0177306
720.462	0.0177934
720.540	0.0177467
720.619	0.0176521
720.697	0.0176936
720.775	0.0177962
720.853	0.0178516
720.931	0.0178049
721.009	0.0176263
721.087	0.0176821
721.165	0.0176785
721.244	0.0177010
721.322	0.0177093
721.400	0.0177481
721.478	0.0176926
721.556	0.0177174
721.634	0.0177921
721.712	0.0176964
721.790	0.0178062
721.869	0.0176926
721.947	0.0176534
722.025	0.0176952
722.103	0.0177449
722.181	0.0177148
722.259	0.0176640
722.337	0.0175703
722.415	0.0176091
722.494	0.0177260
722.572	0.0176348
722.650	0.0176807
722.728	0.0176459
722.806	0.0176420
722.884	0.0174928
722.962	0.0175480
723.040	0.0174948
723.119	0.0175770
723.197	0.0175134
723.275	0.0175360
723.353	0.0176467
723.431	0.0175797
723.509	0.0175515
723.587	0.0176594
723.665	0.0175403
723.744	0.0175557
723.822	0.0176969
723.900	0.0176335
723.978	0.0175520
724.056	0.0175312
724.134	0.0175105
724.212	0.0175397
724.290	0.0175372
724.369	0.0175401
724.447	0.0174847
724.525	0.0175804
724.603	0.0175307
724.681	0.0175147
724.759	0.0175207
724.837	0.0175914
724.915	0.0174351
724.994	0.0173640
725.072	0.0173959
725.150	0.0174499
725.228	0.0174986
725.306	0.0173716
725.384	0.0174092
725.462	0.0175792
725.540	0.0175977
725.619	0.0175449
725.697	0.0175792
725.775	0.0173782
725.853	0.0175077
725.931	0.0175846
726.009	0.0174689
726.087	0.0176196
726.165	0.0176147
726.244	0.0175047
726.322	0.0175837
726.400	0.0175436
726.478	0.0176883
726.556	0.0175560
726.634	0.0176308
726.712	0.0175894
726.790	0.0175336
726.869	0.0176796
726.947	0.0175791
727.025	0.0176142
727.103	0.0175509
727.181	0.0175945
727.259	0.0177566
727.337	0.0175722
727.415	0.0175977
727.494	0.0176329
727.572	0.0175195
727.650	0.0176289
727.728	0.0175393
727.806	0.0177355
727.884	0.0176197
727.962	0.0175977
728.040	0.0176051
728.119	0.0174918
728.197	0.0175922
728.275	0.0175455
728.353	0.0176646
728.431	0.0176537
728.509	0.0176280
728.587	0.0176437
728.665	0.0175692
728.744	0.0175714
728.822	0.0176690
728.900	0.0177207
728.978	0.0174649
729.056	0.0175279
729.134	0.0176841
729.212	0.0176265
729.290	0.0177073
729.369	0.0176344
729.447	0.0175479
729.525	0.0176382
729.603	0.0177200
729.681	0.0175669
729.759	0.0175911
729.837	0.0176506
729.915	0.0175206
729.994	0.0175085
730.072	0.0176023
730.150	0.0175868
730.228	0.0174822
730.306	0.0175565
730.384	0.0175989
730.462	0.0175816
730.540	0.0176583
730.619	0.0175495
730.697	0.0175767
730.775	0.0175336
730.853	0.0174467
730.931	0.0176242
731.009	0.0175992
731.087	0.0174071
731.165	0.0175454
731.244	0.0173684
731.322	0.0174740
731.400	0.0175992
731.478	0.0175195
731.556	0.0173975
731.634	0.0174078
731.712	0.0175334
731.790	0.0175045
731.869	0.0175435
731.947	0.0174255
732.025	0.0173943
732.103	0.0174914
732.181	0.0175993
732.259	0.0175668
732.337	0.0174688
732.415	0.0175317
732.494	0.0175535
732.572	0.0173902
732.650	0.0174882
732.728	0.0176363
732.806	0.0175333
732.884	0.0175597
732.962	0.0175436
733.040	0.0176711
733.119	0.0175668
733.197	0.0174110
733.275	0.0174224
733.353	0.0174529
733.431	0.0176472
733.509	0.0175927
733.587	0.0176785
733.665	0.0175609
733.744	0.0174917
733.822	0.0173459
733.900	0.0175884
733.978	0.0175913
734.056	0.0175757
734.134	0.0175272
734.212	0.0176593
734.290	0.0175965
734.369	0.0176066
734.447	0.0175570
734.525	0.0176093
734.603	0.0176235
734.681	0.0175123
734.759	0.0176644
734.837	0.0175159
734.915	0.0175050
734.994	0.0174604
735.072	0.0174316
735.150	0.0175900
735.228	0.0175793
735.306	0.0174335
735.384	0.0174303
735.462	0.0174391
735.540	0.0174189
735.619	0.0174442
735.697	0.0174473
735.775	0.0174815
735.853	0.0175145
735.931	0.0174744
736.009	0.0173415
736.087	0.0174809
736.165	0.0175697
736.244	0.0175031
736.322	0.0173428
736.400	0.0174439
736.478	0.0175454
736.556	0.0175085
736.634	0.0174834
736.712	0.0173489
736.790	0.0175524
736.869	0.0175019
736.947	0.0174551
737.025	0.0176025
737.103	0.0175638
737.181	0.0174502
737.259	0.0174884
737.337	0.0175236
737.415	0.0174876
737.494	0.0174220
737.572	0.0174269
737.650	0.0175816
737.728	0.0175805
737.806	0.0176002
737.884	0.0174306
737.962	0.0176213
738.040	0.0175350
738.119	0.0175733
738.197	0.0175960
738.275	0.0176604
738.353	0.0175508
738.431	0.0175312
738.509	0.0175562
738.587	0.0176881
738.665	0.0178001
738.744	0.0176984
738.822	0.0175898
738.900	0.0176821
738.978	0.0175475
739.056	0.0177733
739.134	0.0176929
739.212	0.0176928
739.290	0.0176030
739.369	0.0177113
739.447	0.0178082
739.525	0.0176574
739.603	0.0176374
739.681	0.0176360
739.759	0.0177077
739.837	0.0178144
739.915	0.0176958
739.994	0.0177119
740.072	0.0177621
740.150	0.0178275
740.228	0.0177488
740.306	0.0177632
740.384	0.0176943
740.462	0.0178648
740.540	0.0176292
740.619	0.0177328
740.697	0.0178309
740.775	0.0176867
740.853	0.0176374
740.931	0.0176279
741.009	0.0178644
741.087	0.0176870
741.165	0.0177194
741.244	0.0178107
741.322	0.0176900
741.400	0.0176984
741.478	0.0177830
741.556	0.0177346
741.634	0.0176349
741.712	0.0177097
741.790	0.0177091
741.869	0.0177845
741.947	0.0176539
742.025	0.0176340
742.103	0.0176113
742.181	0.0177126
742.259	0.0176174
742.337	0.0176674
742.415	0.0174866
742.494	0.0176679
742.572	0.0178087
742.650	0.0176784
742.728	0.0175781
742.806	0.0176041
742.884	0.0176270
742.962	0.0176192
743.040	0.0174757
743.119	0.0175858
743.197	0.0176012
743.275	0.0175658
743.353	0.0175732
743.431	0.0175774
743.509	0.0176511
743.587	0.0175899
743.665	0.0175316
743.744	0.0176353
743.822	0.0176987
743.900	0.0175670
743.978	0.0175909
744.056	0.0176010
744.134	0.0176736
744.212	0.0174953
744.290	0.0174107
744.369	0.0176769
744.447	0.0175737
744.525	0.0177765
744.603	0.0176743
744.681	0.0176431
744.759	0.0177032
744.837	0.0175372
744.915	0.0175451
744.994	0.0175558
745.072	0.0174952
745.150	0.0176772
745.228	0.0175414
745.306	0.0176035
745.384	0.0176382
745.462	0.0176567
745.540	0.0175650
745.619	0.0176214
745.697	0.0174947
745.775	0.0175797
745.853	0.0175552
745.931	0.0174218
746.009	0.0176720
746.087	0.0174755
746.165	0.0174986
746.244	0.0174834
746.322	0.0175434
746.400	0.0174618
746.478	0.0176476
746.556	0.0174747
746.634	0.0174902
746.712	0.0175556
746.790	0.0175002
746.869	0.0174452
746.947	0.0174461
747.025	0.0175337
747.103	0.0177326
747.181	0.0174938
747.259	0.0174476
747.337	0.0175611
747.415	0.0174746
747.494	0.0175279
747.572	0.0174813
747.650	0.0174740
747.728	0.0176331
747.806	0.0174526
747.884	0.0176283
747.962	0.0173658
748.040	0.0176093
748.119	0.0174828
748.197	0.0175352
748.275	0.0176687
748.353	0.0175742
748.431	0.0174468
748.509	0.0175375
748.587	0.0176900
748.665	0.0177235
748.744	0.0175171
748.822	0.0175114
748.900	0.0175894
748.978	0.0175517
749.056	0.0175077
749.134	0.0175854
749.212	0.0174841
749.290	0.0175748
749.369	0.0175259
749.447	0.0175826
749.525	0.0176232
749.603	0.0176402
749.681	0.0176676
749.759	0.0175997
749.837	0.0175661
749.915	0.0176177
749.994	0.0175769
750.072	0.0175445
750.150	0.0175932
750.228	0.0175879
750.306	0.0175909
750.384	0.0175580
750.462	0.0176158
750.540	0.0176164
750.619	0.0176808
750.697	0.0176602
750.775	0.0176682
750.853	0.0176896
750.931	0.0175219
751.009	0.0175767
751.087	0.0176031
751.165	0.0175808
751.244	0.0176810
751.322	0.0176521
751.400	0.0176328
751.478	0.0177199
751.556	0.0176218
751.634	0.0176989
751.712	0.0177170
751.790	0.0176111
751.869	0.0175764
751.947	0.0178317
752.025	0.0177725
752.103	0.0176138
752.181	0.0176448
752.259	0.0176021
752.337	0.0177139
752.415	0.0176736
752.494	0.0176946
752.572	0.0176622
752.650	0.0177303
752.728	0.0177524
752.806	0.0177682
752.884	0.0178429
752.962	0.0177584
753.040	0.0177164
753.119	0.0176310
753.197	0.0177796
753.275	0.0176385
753.353	0.0176035
753.431	0.0178104
753.509	0.0177019
753.587	0.0176722
753.665	0.0177066
753.744	0.0178572
753.822	0.0177975
753.900	0.0177412
753.978	0.0177431
754.056	0.0176892
754.134	0.0177839
754.212	0.0176844
754.290	0.0177367
754.369	0.0177737
754.447	0.0176556
754.525	0.0177641
754.603	0.0176273
754.681	0.0175259
754.759	0.0177886
754.837	0.0176172
754.915	0.0176083
754.994	0.0177203
755.072	0.0176823
755.150	0.0176964
755.228	0.0176811
755.306	0.0176349
755.384	0.0176919
755.462	0.0175661
755.540	0.0175883
755.619	0.0176219
755.697	0.0175713
755.775	0.0175935
755.853	0.0175656
755.931	0.0175198
756.009	0.0175277
756.087	0.0176186
756.165	0.0174739
756.244	0.0174514
756.322	0.0175140
756.400	0.0174884
756.478	0.0175375
756.556	0.0174760
756.634	0.0176067
756.712	0.0175611
756.790	0.0175684
756.869	0.0175549
756.947	0.0175825
757.025	0.0176308
757.103	0.0175056
757.181	0.0175100
757.259	0.0176273
757.337	0.0175819
757.415	0.0174825
757.494	0.0176978
757.572	0.0175304
757.650	0.0175607
757.728	0.0176077
757.806	0.0175825
757.884	0.0176765
757.962	0.0175785
758.040	0.0175861
758.119	0.0175585
758.197	0.0176197
758.275	0.0175864
758.353	0.0175906
758.431	0.0176344
758.509	0.0175066
758.587	0.0175192
758.665	0.0175727
758.744	0.0175927
758.822	0.0176790
758.900	0.0176005
758.978	0.0175275
759.056	0.0175316
759.134	0.0175328
759.212	0.0175166
759.290	0.0176083
759.369	0.0177253
759.447	0.0175491
759.525	0.0175787
759.603	0.0176519
759.681	0.0176655
759.759	0.0176414
759.837	0.0176633
759.915	0.0175992
759.994	0.0175893
760.072	0.0177592
760.150	0.0177309
760.228	0.0176017
760.306	0.0176585
760.384	0.0176911
760.462	0.0176831
760.540	0.0178040
760.619	0.0176966
760.697	0.0177222
760.775	0.0175864
760.853	0.0177319
760.931	0.0176079
761.009	0.0177268
761.087	0.0177937
761.165	0.0176095
761.244	0.0176041
761.322	0.0176516
761.400	0.0177654
761.478	0.0178764
761.556	0.0177499
761.634	0.0175457
761.712	0.0175670
761.790	0.0176827
761.869	0.0177052
761.947	0.0176846
762.025	0.0176318
762.103	0.0174499
762.181	0.0175835
762.259	0.0177553
762.337	0.0177174
762.415	0.0176958
762.494	0.0178363
762.572	0.0178193
762.650	0.0176746
762.728	0.0176448
762.806	0.0177683
762.884	0.0177148
762.962	0.0178848
763.040	0.0178606
763.119	0.0178283
763.197	0.0178944
763.275	0.0178840
763.353	0.0177213
763.431	0.0177031
763.509	0.0177209
763.587	0.0178175
763.665	0.0178236
763.744	0.0177011
763.822	0.0176373
763.900	0.0176662
763.978	0.0177428
764.056	0.0177514
764.134	0.0177536
764.212	0.0175542
764.290	0.0175642
764.369	0.0176795
764.447	0.0175723
764.525	0.0175101
764.603	0.0175588
764.681	0.0176067
764.759	0.0175857
764.837	0.0176191
764.915	0.0174349
764.994	0.0175527
765.072	0.0176408
765.150	0.0177227
765.228	0.0175721
765.306	0.0176437
765.384	0.0176237
765.462	0.0176567
765.540	0.0177556
765.619	0.0175956
765.697	0.0176054
765.775	0.0176140
765.853	0.0177000
765.931	0.0176517
766.009	0.0177537
766.087	0.0175188
766.165	0.0176559
766.244	0.0176376
766.322	0.0176585
766.400	0.0176472
766.478	0.0176725
766.556	0.0177691
766.634	0.0177947
766.712	0.0176178
766.790	0.0178239
766.869	0.0177241
766.947	0.0177464
767.025	0.0176486
767.103	0.0178364
767.181	0.0177244
767.259	0.0177517
767.337	0.0177387
767.415	0.0176517
767.494	0.0177917
767.572	0.0177901
767.650	0.0177319
767.728	0.0176511
767.806	0.0177174
767.884	0.0176833
767.962	0.0176321
768.040	0.0174858
768.119	0.0175845
768.197	0.0177553
768.275	0.0177534
768.353	0.0176862
768.431	0.0176414
768.509	0.0175530
768.587	0.0175339
768.665	0.0176803
768.744	0.0175886
768.822	0.0176259
768.900	0.0175971
768.978	0.0175206
769.056	0.0176913
769.134	0.0176176
769.212	0.0176716
769.290	0.0176311
769.369	0.0176197
769.447	0.0174947
769.525	0.0175367
769.603	0.0177168
769.681	0.0175864
769.759	0.0176186
769.837	0.0176696
769.915	0.0176493
769.994	0.0175897
770.072	0.0175924
770.150	0.0174010
770.228	0.0175008
770.306	0.0174517
770.384	0.0175378
770.462	0.0174991
770.540	0.0174665
770.619	0.0174419
770.697	0.0175076
770.775	0.0174878
770.853	0.0173962
770.931	0.0174619
771.009	0.0172441
771.087	0.0173553
771.165	0.0174950
771.244	0.0174998
771.322	0.0175088
771.400	0.0172835
771.478	0.0173669
771.556	0.0174889
771.634	0.0175380
771.712	0.0174464
771.790	0.0174555
771.869	0.0175509
771.947	0.0175370
772.025	0.0174750
772.103	0.0176150
772.181	0.0175018
772.259	0.0176337
772.337	0.0175076
772.415	0.0174856
772.494	0.0176225
772.572	0.0175749
772.650	0.0175931
772.728	0.0176021
772.806	0.0176814
772.884	0.0177883
772.962	0.0176163
773.040	0.0177287
773.119	0.0176512
773.197	0.0176709
773.275	0.0176848
773.353	0.0177066
773.431	0.0175919
773.509	0.0177269
773.587	0.0177288
773.665	0.0176827
773.744	0.0177586
773.822	0.0177665
773.900	0.0176666
773.978	0.0175543
774.056	0.0175811
774.134	0.0177167
774.212	0.0178711
774.290	0.0175695
774.369	0.0174648
774.447	0.0176279
774.525	0.0175945
774.603	0.0176244
774.681	0.0176148
774.759	0.0177341
774.837	0.0175530
774.915	0.0174995
774.994	0.0175758
775.072	0.0175719
775.150	0.0175636
775.228	0.0176175
775.306	0.0175892
775.384	0.0176215
775.462	0.0175029
775.540	0.0175795
775.619	0.0175544
775.697	0.0175430
775.775	0.0175030
775.853	0.0176171
775.931	0.0177381
776.009	0.0175933
776.087	0.0175906
776.165	0.0177554
776.244	0.0176470
776.322	0.0175809
776.400	0.0176627
776.478	0.0175855
776.556	0.0175312
776.634	0.0175404
776.712	0.0176756
776.790	0.0176257
776.869	0.0175261
776.947	0.0176691
777.025	0.0177104
777.103	0.0176804
777.181	0.0176101
777.259	0.0176556
777.337	0.0177781
777.415	0.0176377
777.494	0.0177025
777.572	0.0175738
777.650	0.0176818
777.728	0.0176399
777.806	0.0176115
777.884	0.0176022
777.962	0.0174490
778.040	0.0175383
778.119	0.0175933
778.197	0.0176299
778.275	0.0175579
778.353	0.0174127
778.431	0.0174946
778.509	0.0175484
778.587	0.0176303
778.665	0.0173665
778.744	0.0175274
778.822	0.0175941
778.900	0.0175908
778.978	0.0175201
779.056	0.0175685
779.134	0.0173962
779.212	0.0174885
779.290	0.0174638
779.369	0.0174260
779.447	0.0176202
779.525	0.0176319
779.603	0.0175655
779.681	0.0174583
779.759	0.0175842
779.837	0.0175493
779.915	0.0176360
779.994	0.0175404
780.072	0.0176878
780.150	0.0176232
780.228	0.0175987
780.306	0.0175783
780.384	0.0175183
780.462	0.0176104
780.540	0.0176505
780.619	0.0176170
780.697	0.0175854
780.775	0.0176160
780.853	0.0176479
780.931	0.0177013
781.009	0.0177482
781.087	0.0176604
781.165	0.0175911
781.244	0.0176116
781.322	0.0177101
781.400	0.0177280
781.478	0.0177479
781.556	0.0177002
781.634	0.0176553
781.712	0.0176350
781.790	0.0176290
781.869	0.0176564
781.947	0.0175177
782.025	0.0177494
782.103	0.0177105
782.181	0.0175748
782.259	0.0176539
782.337	0.0175930
782.415	0.0174767
782.494	0.0176601
782.572	0.0176380
782.650	0.0176082
782.728	0.0175981
782.806	0.0174527
782.884	0.0174481
782.962	0.0175720
783.040	0.0176315
783.119	0.0175060
783.197	0.0174357
783.275	0.0176424
783.353	0.0176361
783.431	0.0175234
783.509	0.0174666
783.587	0.0175391
783.665	0.0175673
783.744	0.0177335
783.822	0.0174336
783.900	0.0175536
783.978	0.0176370
784.056	0.0175394
784.134	0.0175446
784.212	0.0176788
784.290	0.0176337
784.369	0.0176398
784.447	0.0176272
784.525	0.0177737
784.603	0.0177717
784.681	0.0176522
784.759	0.0176755
784.837	0.0176546
784.915	0.0176729
784.994	0.0177318
785.072	0.0176041
785.150	0.0176443
785.228	0.0177419
785.306	0.0176126
785.384	0.0175397
785.462	0.0175567
785.540	0.0176153
785.619	0.0175919
785.697	0.0177038
785.775	0.0178015
785.853	0.0175169
785.931	0.0174760
786.009	0.0177361
786.087	0.0176403
786.165	0.0176411
786.244	0.0175552
786.322	0.0176401
786.400	0.0177430
786.478	0.0175582
786.556	0.0176514
786.634	0.0176794
786.712	0.0174889
786.790	0.0176904
786.869	0.0176920
786.947	0.0176015
787.025	0.0176389
787.103	0.0176611
787.181	0.0176233
787.259	0.0176572
787.337	0.0177139
787.415	0.0176556
787.494	0.0177512
787.572	0.0177367
787.650	0.0177394
787.728	0.0176384
787.806	0.0175555
787.884	0.0176387
787.962	0.0175684
788.040	0.0176453
788.119	0.0175967
788.197	0.0175076
788.275	0.0177137
788.353	0.0177233
788.431	0.0176545
788.509	0.0176022
788.587	0.0176088
788.665	0.0177314
788.744	0.0174912
788.822	0.0175790
788.900	0.0175998
788.978	0.0176698
789.056	0.0177709
789.134	0.0177188
789.212	0.0176218
789.290	0.0176590
789.369	0.0175784
789.447	0.0176751
789.525	0.0175845
789.603	0.0176871
789.681	0.0176060
789.759	0.0175861
789.837	0.0177149
789.915	0.0176055
789.994	0.0177552
790.072	0.0176282
790.150	0.0177850
790.228	0.0176912
790.306	0.0175423
790.384	0.0177540
790.462	0.0177681
790.540	0.0177956
790.619	0.0176682
790.697	0.0176629
790.775	0.0177264
790.853	0.0176833
790.931	0.0176716
791.009	0.0177121
791.087	0.0177636
791.165	0.0176725
791.244	0.0177145
791.322	0.0176306
791.400	0.0174944
791.478	0.0177151
791.556	0.0175876
791.634	0.0176028
791.712	0.0175667
791.790	0.0176879
791.869	0.0175825
791.947	0.0175758
792.025	0.0174856
792.103	0.0175124
792.181	0.0175644
792.259	0.0176065
792.337	0.0174712
792.415	0.0175052
792.494	0.0174776
792.572	0.0175403
792.650	0.0176234
792.728	0.0175261
792.806	0.0175483
792.884	0.0173989
792.962	0.0174633
793.040	0.0175164
793.119	0.0173964
793.197	0.0175720
793.275	0.0174684
793.353	0.0173447
793.431	0.0174743
793.509	0.0174742
793.587	0.0174962
793.665	0.0174837
793.744	0.0173962
793.822	0.0174232
793.900	0.0173351
793.978	0.0175543
794.056	0.0175181
794.134	0.0175046
794.212	0.0174882
794.290	0.0175935
794.369	0.0176522
794.447	0.0175836
794.525	0.0176108
794.603	0.0176620
794.681	0.0176234
794.759	0.0176446
794.837	0.0175627
794.915	0.0176131
794.994	0.0175331
795.072	0.0175729
795.150	0.0176193
795.228	0.0176362
795.306	0.0175930
795.384	0.0174959
795.462	0.0174982
795.540	0.0174902
795.619	0.0173787
795.697	0.0175317
795.775	0.0176452
795.853	0.0175418
795.931	0.0175559
796.009	0.0176541
796.087	0.0176169
796.165	0.0175154
796.244	0.0175797
796.322	0.0176196
796.400	0.0176702
796.478	0.0176068
796.556	0.0175996
796.634	0.0177339
796.712	0.0177557
796.790	0.0176279
796.869	0.0178311
796.947	0.0177097
797.025	0.0176476
797.103	0.0177306
797.181	0.0176670
797.259	0.0177232
797.337	0.0176859
797.415	0.0178680
797.494	0.0178555
797.572	0.0176775
797.650	0.0176676
797.728	0.0178056
797.806	0.0177357
797.884	0.0175937
797.962	0.0177328
798.040	0.0177177
798.119	0.0176460
798.197	0.0177549
798.275	0.0176662
798.353	0.0175305
798.431	0.0175991
798.509	0.0176781
798.587	0.0175952
798.665	0.0176002
798.744	0.0175056
798.822	0.0176170
798.900	0.0175089
798.978	0.0174010
799.056	0.0174722
799.134	0.0174092
799.212	0.0173241
799.290	0.0174608
799.369	0.0173920
799.447	0.0174331
799.525	0.0174316
799.603	0.0174373
799.681	0.0173891
799.759	0.0174555
799.837	0.0174751
799.915	0.0172965
799.994	0.0174106
800.072	0.0175429
800.150	0.0177077
800.228	0.0174937
800.306	0.0174433
800.384	0.0174726
800.462	0.0177074
800.540	0.0175546
800.619	0.0175551
800.697	0.0176372
800.775	0.0175827
800.853	0.0175752
800.931	0.0176522
801.009	0.0174772
801.087	0.0175419
801.165	0.0176846
801.244	0.0177504
801.322	0.0175658
801.400	0.0177277
801.478	0.0176188
801.556	0.0175940
801.634	0.0178000
801.712	0.0177975
801.790	0.0176598
801.869	0.0177938
801.947	0.0176469
802.025	0.0175355
802.103	0.0176208
802.181	0.0176221
802.259	0.0176605
802.337	0.0176417
802.415	0.0173865
802.494	0.0175667
802.572	0.0176015
802.650	0.0173608
802.728	0.0175108
802.806	0.0175467
802.884	0.0174641
802.962	0.0174710
803.040	0.0174329
803.119	0.0175397
803.197	0.0175304
803.275	0.0173287
803.353	0.0174269
803.431	0.0174599
803.509	0.0173702
803.587	0.0174294
803.665	0.0174619
803.744	0.0175943
803.822	0.0174758
803.900	0.0173430
803.978	0.0173770
804.056	0.0174753
804.134	0.0176605
804.212	0.0175500
804.290	0.0174686
804.369	0.0175567
804.447	0.0176533
804.525	0.0176326
804.603	0.0175208
804.681	0.0175633
804.759	0.0175527
804.837	0.0175715
804.915	0.0176372
804.994	0.0175543
805.072	0.0175439
805.150	0.0176852
805.228	0.0176685
805.306	0.0175420
805.384	0.0176358
805.462	0.0174598
805.540	0.0176152
805.619	0.0177605
805.697	0.0175249
805.775	0.0176857
805.853	0.0176315
805.931	0.0176648
806.009	0.0177363
806.087	0.0176004
806.165	0.0175418
806.244	0.0176746
806.322	0.0175723
806.400	0.0177940
806.478	0.0177139
806.556	0.0176166
806.634	0.0176656
806.712	0.0175226
806.790	0.0177669
806.869	0.0176130
806.947	0.0175248
807.025	0.0176122
807.103	0.0177717
807.181	0.0175854
807.259	0.0176186
807.337	0.0176961
807.415	0.0177242
807.494	0.0177766
807.572	0.0176902
807.650	0.0174593
807.728	0.0175727
807.806	0.0176276
807.884	0.0175890
807.962	0.0176064
808.040	0.0176192
808.119	0.0176811
808.197	0.0175373
808.275	0.0177170
808.353	0.0175311
808.431	0.0176836
808.509	0.0176149
808.587	0.0175301
808.665	0.0175381
808.744	0.0176014
808.822	0.0175420
808.900	0.0175716
808.978	0.0174538
809.056	0.0174551
809.134	0.0175332
809.212	0.0174435
809.290	0.0175176
809.369	0.0174913
809.447	0.0174458
809.525	0.0174308
809.603	0.0175658
809.681	0.0175646
809.759	0.0175379
809.837	0.0175430
809.915	0.0175641
809.994	0.0176036
810.072	0.0177619
810.150	0.0177718
810.228	0.0176712
810.306	0.0177447
810.384	0.0177367
810.462	0.0175737
810.540	0.0176114
810.619	0.0177948
810.697	0.0176761
810.775	0.0177557
810.853	0.0177624
810.931	0.0176962
811.009	0.0176613
811.087	0.0176334
811.165	0.0176627
811.244	0.0176617
811.322	0.0175729
811.400	0.0175816
811.478	0.0176427
811.556	0.0175220
811.634	0.0175058
811.712	0.0176614
811.790	0.0176227
811.869	0.0176987
811.947	0.0176669
812.025	0.0176331
812.103	0.0175199
812.181	0.0175127
812.259	0.0176382
812.337	0.0175962
812.415	0.0175483
812.494	0.0176608
812.572	0.0177446
812.650	0.0176054
812.728	0.0174956
812.806	0.0175042
812.884	0.0176010
812.962	0.0174983
813.040	0.0176556
813.119	0.0176474
813.197	0.0176322
813.275	0.0175588
813.353	0.0175539
813.431	0.0176617
813.509	0.0177073
813.587	0.0175230
813.665	0.0175539
813.744	0.0177353
813.822	0.0176431
813.900	0.0176730
813.978	0.0175250
814.056	0.0175272
814.134	0.0175951
814.212	0.0176663
814.290	0.0175978
814.369	0.0175349
814.447	0.0175188
814.525	0.0174391
814.603	0.0175790
814.681	0.0176305
814.759	0.0175492
814.837	0.0175746
814.915	0.0174695
814.994	0.0176647
815.072	0.0175158
815.150	0.0175107
815.228	0.0175974
815.306	0.0176677
815.384	0.0175668
815.462	0.0176612
815.540	0.0175974
815.619	0.0176624
815.697	0.0176769
815.775	0.0175810
815.853	0.0176930
815.931	0.0177985
816.009	0.0174776
816.087	0.0176639
816.165	0.0176379
816.244	0.0174178
816.322	0.0175918
816.400	0.0177160
816.478	0.0177448
816.556	0.0174161
816.634	0.0175246
816.712	0.0176585
816.790	0.0175864
816.869	0.0175595
816.947	0.0174576
817.025	0.0174892
817.103	0.0175900
817.181	0.0175033
817.259	0.0176110
817.337	0.0176080
817.415	0.0176395
817.494	0.0176788
817.572	0.0176176
817.650	0.0175156
817.728	0.0177455
817.806	0.0177247
817.884	0.0177026
817.962	0.0178304
818.040	0.0177106
818.119	0.0177026
818.197	0.0176980
818.275	0.0176107
818.353	0.0178894
818.431	0.0177092
818.509	0.0176925
818.587	0.0177249
818.665	0.0177814
818.744	0.0175275
818.822	0.0177363
818.900	0.0176939
818.978	0.0176646
819.056	0.0176518
819.134	0.0176717
819.212	0.0176308
819.290	0.0176440
819.369	0.0177238
819.447	0.0176215
819.525	0.0177075
819.603	0.0176972
819.681	0.0176090
819.759	0.0177292
819.837	0.0175869
819.915	0.0177055
819.994	0.0176196
820.072	0.0177157
820.150	0.0176569
820.228	0.0175148
820.306	0.0175594
820.384	0.0175209
820.462	0.0176333
820.540	0.0176130
820.619	0.0174679
820.697	0.0175210
820.775	0.0175747
820.853	0.0175446
820.931	0.0175178
821.009	0.0175945
821.087	0.0175777
821.165	0.0175448
821.244	0.0175272
821.322	0.0175445
821.400	0.0175844
821.478	0.0176315
821.556	0.0176601
821.634	0.0176566
821.712	0.0175330
821.790	0.0176657
821.869	0.0177657
821.947	0.0177557
822.025	0.0176235
822.103	0.0176687
822.181	0.0177113
822.259	0.0175393
822.337	0.0176434
822.415	0.0177322
822.494	0.0175986
822.572	0.0175391
822.650	0.0176188
822.728	0.0175718
822.806	0.0176176
822.884	0.0175574
822.962	0.0176144
823.040	0.0175265
823.119	0.0175851
823.197	0.0176966
823.275	0.0175864
823.353	0.0176249
823.431	0.0175284
823.509	0.0176467
823.587	0.0176540
823.665	0.0178257
823.744	0.0176230
823.822	0.0176846
823.900	0.0177190
823.978	0.0177259
824.056	0.0177125
824.134	0.0177566
824.212	0.0176966
824.290	0.0177471
824.369	0.0175407
824.447	0.0177196
824.525	0.0177915
824.603	0.0177122
824.681	0.0177053
824.759	0.0177664
824.837	0.0176722
824.915	0.0177216
824.994	0.0176746
825.072	0.0177423
825.150	0.0176773
825.228	0.0177429
825.306	0.0177509
825.384	0.0176523
825.462	0.0176256
825.540	0.0177733
825.619	0.0177333
825.697	0.0176862
825.775	0.0178075
825.853	0.0178130
825.931	0.0177602
826.009	0.0176717
826.087	0.0176804
826.165	0.0177686
826.244	0.0177081
826.322	0.0177779
826.400	0.0176222
826.478	0.0177177
826.556	0.0177280
826.634	0.0176089
826.712	0.0175668
826.790	0.0176701
826.869	0.0176952
826.947	0.0176705
827.025	0.0176447
827.103	0.0177259
827.181	0.0176646
827.259	0.0174798
827.337	0.0174080
827.415	0.0175110
827.494	0.0176127
827.572	0.0175925
827.650	0.0174823
827.728	0.0175433
827.806	0.0174422
827.884	0.0175237
827.962	0.0174422
828.040	0.0175343
828.119	0.0174695
828.197	0.0174871
828.275	0.0175784
828.353	0.0175401
828.431	0.0174685
828.509	0.0174933
828.587	0.0174635
828.665	0.0175121
828.744	0.0174287
828.822	0.0174879
828.900	0.0174852
828.978	0.0174007
829.056	0.0175643
829.134	0.0175285
829.212	0.0175871
829.290	0.0174979
829.369	0.0175274
829.447	0.0175697
829.525	0.0174853
829.603	0.0175810
829.681	0.0175020
829.759	0.0174979
829.837	0.0174741
829.915	0.0175137
829.994	0.0175866
830.072	0.0176662
830.150	0.0176745
830.228	0.0177225
830.306	0.0177916
830.384	0.0177378
830.462	0.0177824
830.540	0.0176125
830.619	0.0176306
830.697	0.0177824
830.775	0.0177512
830.853	0.0176382
830.931	0.0177693
831.009	0.0176656
831.087	0.0178345
831.165	0.0178299
831.244	0.0177195
831.322	0.0179360
831.400	0.0179214
831.478	0.0177565
831.556	0.0177290
831.634	0.0177371
831.712	0.0179719
831.790	0.0177085
831.869	0.0177268
831.947	0.0178040
832.025	0.0177556
832.103	0.0178561
832.181	0.0178072
832.259	0.0178549
832.337	0.0178436
832.415	0.0177117
832.494	0.0175983
832.572	0.0175412
832.650	0.0177322
832.728	0.0176958
832.806	0.0176086
832.884	0.0176041
832.962	0.0175035
833.040	0.0174899
833.119	0.0176395
833.197	0.0175858
833.275	0.0175472
833.353	0.0176614
833.431	0.0176257
833.509	0.0175027
833.587	0.0175396
833.665	0.0175036
833.744	0.0175472
833.822	0.0175755
833.900	0.0176373
833.978	0.0177010
834.056	0.0175932
834.134	0.0176234
834.212	0.0175943
834.290	0.0177478
834.369	0.0176631
834.447	0.0176517
834.525	0.0177078
834.603	0.0177010
834.681	0.0175996
834.759	0.0177441
834.837	0.0177291
834.915	0.0177535
834.994	0.0176349
835.072	0.0177959
835.150	0.0176090
835.228	0.0175770
835.306	0.0178286
835.384	0.0177862
835.462	0.0177665
835.540	0.0176697
835.619	0.0178188
835.697	0.0176815
835.775	0.0177264
835.853	0.0177201
835.931	0.0178117
836.009	0.0177542
836.087	0.0177298
836.165	0.0175983
836.244	0.0176366
836.322	0.0176644
836.400	0.0177709
836.478	0.0178467
836.556	0.0177596
836.634	0.0176208
836.712	0.0176666
836.790	0.0177555
836.869	0.0177841
836.947	0.0178406
837.025	0.0177885
837.103	0.0177031
837.181	0.0177805
837.259	0.0176641
837.337	0.0177150
837.415	0.0176733
837.494	0.0176603
837.572	0.0177423
837.650	0.0176463
837.728	0.0177516
837.806	0.0177492
837.884	0.0177462
837.962	0.0176943
838.040	0.0176907
838.119	0.0176639
838.197	0.0177117
838.275	0.0178027
838.353	0.0178276
838.431	0.0177502
838.509	0.0177159
838.587	0.0176795
838.665	0.0176763
838.744	0.0177762
838.822	0.0175255
838.900	0.0177531
838.978	0.0176472
839.056	0.0176317
839.134	0.0176835
839.212	0.0175975
839.290	0.0176334
839.369	0.0176026
839.447	0.0177611
839.525	0.0176708
839.603	0.0175298
839.681	0.0175741
839.759	0.0176923
839.837	0.0176398
839.915	0.0175552
839.994	0.0176298
840.072	0.0176232
840.150	0.0175571
840.228	0.0177069
840.306	0.0175505
840.384	0.0177158
840.462	0.0175582
840.540	0.0176633
840.619	0.0176757
840.697	0.0176531
840.775	0.0176865
840.853	0.0176982
840.931	0.0177354
841.009	0.0176125
841.087	0.0175979
841.165	0.0176721
841.244	0.0176136
841.322	0.0176315
841.400	0.0176733
841.478	0.0175367
841.556	0.0176780
841.634	0.0176981
841.712	0.0176711
841.790	0.0177969
841.869	0.0177700
841.947	0.0178001
842.025	0.0177042
842.103	0.0176507
842.181	0.0176397
842.259	0.0178240
842.337	0.0178117
842.415	0.0178392
842.494	0.0178675
842.572	0.0176936
842.650	0.0177752
842.728	0.0178603
842.806	0.0177367
842.884	0.0178580
842.962	0.0177740
843.040	0.0177537
843.119	0.0178287
843.197	0.0177738
843.275	0.0177888
843.353	0.0178708
843.431	0.0177486
843.509	0.0177457
843.587	0.0177493
843.665	0.0177850
843.744	0.0177248
843.822	0.0177293
843.900	0.0177056
843.978	0.0176652
844.056	0.0177163
844.134	0.0176316
844.212	0.0177219
844.290	0.0176453
844.369	0.0177242
844.447	0.0176607
844.525	0.0176537
844.603	0.0177275
844.681	0.0177200
844.759	0.0176668
844.837	0.0176528
844.915	0.0177090
844.994	0.0177158
845.072	0.0177026
845.150	0.0177702
845.228	0.0176233
845.306	0.0178485
845.384	0.0177334
845.462	0.0177492
845.540	0.0178019
845.619	0.0177409
845.697	0.0176322
845.775	0.0176957
845.853	0.0176100
845.931	0.0176595
846.009	0.0176250
846.087	0.0178391
846.165	0.0175295
846.244	0.0176445
846.322	0.0177353
846.400	0.0176971
846.478	0.0176086
846.556	0.0175948
846.634	0.0177594
846.712	0.0176608
846.790	0.0176247
846.869	0.0175474
846.947	0.0175922
847.025	0.0176374
847.103	0.0174990
847.181	0.0176417
847.259	0.0175902
847.337	0.0175991
847.415	0.0177093
847.494	0.0176942
847.572	0.0175478
847.650	0.0177627
847.728	0.0177366
847.806	0.0177354
847.884	0.0177649
847.962	0.0177740
848.040	0.0176708
848.119	0.0176917
848.197	0.0177313
848.275	0.0176331
848.353	0.0177348
848.431	0.0176685
848.509	0.0176182
848.587	0.0176295
848.665	0.0176482
848.744	0.0175938
848.822	0.0176366
848.900	0.0176582
848.978	0.0175150
849.056	0.0175221
849.134	0.0176336
849.212	0.0175961
849.290	0.0177054
849.369	0.0176619
849.447	0.0175729
849.525	0.0177554
849.603	0.0178087
849.681	0.0176238
849.759	0.0176620
849.837	0.0176624
849.915	0.0176404
849.994	0.0176343
850.072	0.0177968
850.150	0.0176300
850.228	0.0176134
850.306	0.0176752
850.384	0.0177610
850.462	0.0177446
850.540	0.0177377
850.619	0.0177528
850.697	0.0176152
850.775	0.0175430
850.853	0.0176945
850.931	0.0176111
851.009	0.0177010
851.087	0.0174252
851.165	0.0176654
851.244	0.0176720
851.322	0.0176287
851.400	0.0176425
851.478	0.0175488
851.556	0.0176770
851.634	0.0176873
851.712	0.0176138
851.790	0.0176752
851.869	0.0177548
851.947	0.0178057
852.025	0.0177206
852.103	0.0176763
852.181	0.0176994
852.259	0.0176331
852.337	0.0176279
852.415	0.0176234
852.494	0.0176062
852.572	0.0177247
852.650	0.0175660
852.728	0.0177613
852.806	0.0177216
852.884	0.0177461
852.962	0.0177303
853.040	0.0177789
853.119	0.0175669
853.197	0.0177275
853.275	0.0177424
853.353	0.0175735
853.431	0.0176949
853.509	0.0177624
853.587	0.0177861
853.665	0.0176591
853.744	0.0177025
853.822	0.0177473
853.900	0.0177996
853.978	0.0176514
854.056	0.0176141
854.134	0.0177247
854.212	0.0177029
854.290	0.0174907
854.369	0.0177364
854.447	0.0176307
854.525	0.0176379
854.603	0.0176623
854.681	0.0175164
854.759	0.0176926
854.837	0.0176765
854.915	0.0177294
854.994	0.0177419
855.072	0.0176939
855.150	0.0177011
855.228	0.0178173
855.306	0.0176557
855.384	0.0177958
855.462	0.0178593
855.540	0.0177633
855.619	0.0177538
855.697	0.0177878
855.775	0.0177785
855.853	0.0177713
855.931	0.0178149
856.009	0.0177940
856.087	0.0178742
856.165	0.0177125
856.244	0.0177013
856.322	0.0176856
856.400	0.0177493
856.478	0.0176558
856.556	0.0177138
856.634	0.0177044
856.712	0.0177051
856.790	0.0178517
856.869	0.0176723
856.947	0.0176382
857.025	0.0176099
857.103	0.0176892
857.181	0.0177784
857.259	0.0177726
857.337	0.0176520
857.415	0.0176407
857.494	0.0175829
857.572	0.0176015
857.650	0.0176001
857.728	0.0176966
857.806	0.0177763
857.884	0.0176968
857.962	0.0176611
858.040	0.0176545
858.119	0.0177087
858.197	0.0175269
858.275	0.0176827
858.353	0.0176430
858.431	0.0176071
858.509	0.0174854
858.587	0.0177360
858.665	0.0176629
858.744	0.0176389
858.822	0.0176301
858.900	0.0176108
858.978	0.0175858
859.056	0.0175223
859.134	0.0174233
859.212	0.0175774
859.290	0.0176840
859.369	0.0174100
859.447	0.0175159
859.525	0.0176131
859.603	0.0174398
859.681	0.0175624
859.759	0.0175839
859.837	0.0176121
859.915	0.0175441
