06/01/2022	17:58:03	Ver.	4.1	UNKNOWN
Optical Delay	539.993571	Delta X		0.078125	Sweeps	1	Scan Rate	0/0
Coordinates	Axis 1	NaN	Axis 2	NaN	Axis 3	NaN	Axis 4	NaN	Axis 5	NaN	Axis 6	0.000000
TX Power	0.000000	RX Power	0.000000

539.994	0.0175732
540.072	0.0175290
540.150	0.0174860
540.228	0.0174564
540.306	0.0174947
540.384	0.0175763
540.462	0.0175318
540.540	0.0175069
540.619	0.0175119
540.697	0.0175074
540.775	0.0176212
540.853	0.0176055
540.931	0.0175705
541.009	0.0175027
541.087	0.0177025
541.165	0.0175890
541.244	0.0176401
541.322	0.0177003
541.400	0.0175933
541.478	0.0176708
541.556	0.0176596
541.634	0.0177110
541.712	0.0175571
541.790	0.0176167
541.869	0.0176467
541.947	0.0177266
542.025	0.0175366
542.103	0.0177424
542.181	0.0176605
542.259	0.0177229
542.337	0.0175601
542.415	0.0177837
542.494	0.0176347
542.572	0.0176784
542.650	0.0177579
542.728	0.0176934
542.806	0.0176842
542.884	0.0175905
542.962	0.0176636
543.040	0.0177866
543.119	0.0176936
543.197	0.0176519
543.275	0.0176344
543.353	0.0176467
543.431	0.0177145
543.509	0.0177493
543.587	0.0175997
543.665	0.0176995
543.744	0.0177444
543.822	0.0176685
543.900	0.0176990
543.978	0.0175275
544.056	0.0176738
544.134	0.0175723
544.212	0.0175041
544.290	0.0175762
544.369	0.0176356
544.447	0.0176049
544.525	0.0175924
544.603	0.0177648
544.681	0.0175137
544.759	0.0174498
544.837	0.0174943
544.915	0.0175581
544.994	0.0176652
545.072	0.0176401
545.150	0.0175549
545.228	0.0174470
545.306	0.0174303
545.384	0.0175072
545.462	0.0173325
545.540	0.0174959
545.619	0.0174184
545.697	0.0174162
545.775	0.0175195
545.853	0.0174568
545.931	0.0174268
546.009	0.0174647
546.087	0.0174409
546.165	0.0174239
546.244	0.0175510
546.322	0.0175196
546.400	0.0174068
546.478	0.0174919
546.556	0.0174483
546.634	0.0174914
546.712	0.0174657
546.790	0.0174530
546.869	0.0174033
546.947	0.0175149
547.025	0.0175746
547.103	0.0175097
547.181	0.0175066
547.259	0.0175217
547.337	0.0175546
547.415	0.0176723
547.494	0.0174370
547.572	0.0175307
547.650	0.0174622
547.728	0.0175220
547.806	0.0174841
547.884	0.0174783
547.962	0.0176063
548.040	0.0175570
548.119	0.0175330
548.197	0.0176065
548.275	0.0176553
548.353	0.0176508
548.431	0.0176153
548.509	0.0176622
548.587	0.0175298
548.665	0.0176026
548.744	0.0175702
548.822	0.0176443
548.900	0.0177702
548.978	0.0176682
549.056	0.0175259
549.134	0.0175440
549.212	0.0176365
549.290	0.0176453
549.369	0.0176231
549.447	0.0176331
549.525	0.0176449
549.603	0.0176378
549.681	0.0175163
549.759	0.0175362
549.837	0.0177279
549.915	0.0175006
549.994	0.0175801
550.072	0.0176094
550.150	0.0175338
550.228	0.0176037
550.306	0.0175502
550.384	0.0175710
550.462	0.0176016
550.540	0.0175407
550.619	0.0175156
550.697	0.0174108
550.775	0.0174599
550.853	0.0175834
550.931	0.0175203
551.009	0.0174283
551.087	0.0176704
551.165	0.0175670
551.244	0.0175035
551.322	0.0175703
551.400	0.0175108
551.478	0.0176805
551.556	0.0176116
551.634	0.0176240
551.712	0.0177641
551.790	0.0176617
551.869	0.0176483
551.947	0.0176871
552.025	0.0178106
552.103	0.0176055
552.181	0.0177321
552.259	0.0176645
552.337	0.0176589
552.415	0.0177385
552.494	0.0175494
552.572	0.0176128
552.650	0.0175483
552.728	0.0174892
552.806	0.0175359
552.884	0.0175770
552.962	0.0175607
553.040	0.0175793
553.119	0.0175292
553.197	0.0176335
553.275	0.0174094
553.353	0.0175119
553.431	0.0174602
553.509	0.0175819
553.587	0.0176122
553.665	0.0175590
553.744	0.0175855
553.822	0.0174447
553.900	0.0174879
553.978	0.0174503
554.056	0.0175694
554.134	0.0174831
554.212	0.0175772
554.290	0.0176499
554.369	0.0176302
554.447	0.0176806
554.525	0.0176904
554.603	0.0176881
554.681	0.0177842
554.759	0.0177210
554.837	0.0176569
554.915	0.0176241
554.994	0.0176795
555.072	0.0175921
555.150	0.0176329
555.228	0.0176930
555.306	0.0175751
555.384	0.0174761
555.462	0.0175610
555.540	0.0174950
555.619	0.0173825
555.697	0.0174509
555.775	0.0175711
555.853	0.0175649
555.931	0.0174471
556.009	0.0176289
556.087	0.0175227
556.165	0.0175791
556.244	0.0174377
556.322	0.0175542
556.400	0.0175263
556.478	0.0174839
556.556	0.0175247
556.634	0.0175667
556.712	0.0177590
556.790	0.0175274
556.869	0.0176202
556.947	0.0176429
557.025	0.0176000
557.103	0.0176732
557.181	0.0177038
557.259	0.0176967
557.337	0.0177200
557.415	0.0176870
557.494	0.0177977
557.572	0.0176160
557.650	0.0175488
557.728	0.0176367
557.806	0.0175460
557.884	0.0176451
557.962	0.0176245
558.040	0.0175691
558.119	0.0175124
558.197	0.0176030
558.275	0.0175485
558.353	0.0175494
558.431	0.0176188
558.509	0.0176479
558.587	0.0177292
558.665	0.0175890
558.744	0.0176987
558.822	0.0176738
558.900	0.0176037
558.978	0.0175935
559.056	0.0176410
559.134	0.0175748
559.212	0.0176823
559.290	0.0175499
559.369	0.0175863
559.447	0.0176039
559.525	0.0175955
559.603	0.0175961
559.681	0.0175511
559.759	0.0175573
559.837	0.0175745
559.915	0.0175552
559.994	0.0174889
560.072	0.0176468
560.150	0.0176370
560.228	0.0175504
560.306	0.0175644
560.384	0.0177045
560.462	0.0175881
560.540	0.0175351
560.619	0.0177080
560.697	0.0175488
560.775	0.0174821
560.853	0.0174699
560.931	0.0174251
561.009	0.0175063
561.087	0.0175176
561.165	0.0174211
561.244	0.0173486
561.322	0.0175303
561.400	0.0176423
561.478	0.0174989
561.556	0.0175261
561.634	0.0175248
561.712	0.0175613
561.790	0.0176271
561.869	0.0177209
561.947	0.0176851
562.025	0.0176741
562.103	0.0176502
562.181	0.0175611
562.259	0.0175486
562.337	0.0175447
562.415	0.0175465
562.494	0.0173922
562.572	0.0174468
562.650	0.0175558
562.728	0.0176870
562.806	0.0176092
562.884	0.0175060
562.962	0.0175984
563.040	0.0176257
563.119	0.0175301
563.197	0.0177319
563.275	0.0176448
563.353	0.0177532
563.431	0.0177973
563.509	0.0176772
563.587	0.0178666
563.665	0.0179114
563.744	0.0178875
563.822	0.0180328
563.900	0.0180151
563.978	0.0181449
564.056	0.0180410
564.134	0.0180437
564.212	0.0180891
564.290	0.0179738
564.369	0.0180827
564.447	0.0180362
564.525	0.0179401
564.603	0.0179323
564.681	0.0178176
564.759	0.0177172
564.837	0.0175545
564.915	0.0173611
564.994	0.0172713
565.072	0.0173641
565.150	0.0172588
565.228	0.0171313
565.306	0.0169988
565.384	0.0170655
565.462	0.0171210
565.540	0.0171146
565.619	0.0172048
565.697	0.0172082
565.775	0.0174369
565.853	0.0175111
565.931	0.0174918
566.009	0.0178053
566.087	0.0178852
566.165	0.0180759
566.244	0.0180322
566.322	0.0180611
566.400	0.0183221
566.478	0.0184480
566.556	0.0184299
566.634	0.0184096
566.712	0.0184445
566.790	0.0184030
566.869	0.0184763
566.947	0.0186147
567.025	0.0184158
567.103	0.0183475
567.181	0.0183089
567.259	0.0182211
567.337	0.0180765
567.415	0.0179500
567.494	0.0177419
567.572	0.0175763
567.650	0.0175134
567.728	0.0174070
567.806	0.0173276
567.884	0.0171357
567.962	0.0170924
568.040	0.0170636
568.119	0.0168193
568.197	0.0167545
568.275	0.0165349
568.353	0.0165601
568.431	0.0167263
568.509	0.0167245
568.587	0.0166090
568.665	0.0165963
568.744	0.0166405
568.822	0.0167641
568.900	0.0169483
568.978	0.0168447
569.056	0.0172104
569.134	0.0171044
569.212	0.0174107
569.290	0.0176428
569.369	0.0176079
569.447	0.0177977
569.525	0.0180366
569.603	0.0180894
569.681	0.0181920
569.759	0.0184583
569.837	0.0185957
569.915	0.0185287
569.994	0.0187183
570.072	0.0187883
570.150	0.0188546
570.228	0.0189968
570.306	0.0189774
570.384	0.0187471
570.462	0.0186462
570.540	0.0186878
570.619	0.0186460
570.697	0.0186160
570.775	0.0185804
570.853	0.0182201
570.931	0.0180420
571.009	0.0180893
571.087	0.0180180
571.165	0.0178040
571.244	0.0176740
571.322	0.0175524
571.400	0.0174388
571.478	0.0174693
571.556	0.0172679
571.634	0.0173207
571.712	0.0171817
571.790	0.0171017
571.869	0.0169453
571.947	0.0168333
572.025	0.0167832
572.103	0.0168037
572.181	0.0166806
572.259	0.0167432
572.337	0.0166858
572.415	0.0167182
572.494	0.0166837
572.572	0.0167160
572.650	0.0167841
572.728	0.0166661
572.806	0.0167174
572.884	0.0169501
572.962	0.0170649
573.040	0.0169849
573.119	0.0171349
573.197	0.0171719
573.275	0.0171688
573.353	0.0173372
573.431	0.0173940
573.509	0.0174055
573.587	0.0177202
573.665	0.0177548
573.744	0.0177761
573.822	0.0179169
573.900	0.0181444
573.978	0.0182102
574.056	0.0182687
574.134	0.0183680
574.212	0.0185313
574.290	0.0185183
574.369	0.0185464
574.447	0.0186427
574.525	0.0185676
574.603	0.0186525
574.681	0.0186802
574.759	0.0186793
574.837	0.0187228
574.915	0.0185400
574.994	0.0184336
575.072	0.0183543
575.150	0.0183939
575.228	0.0182917
575.306	0.0180561
575.384	0.0179343
575.462	0.0179562
575.540	0.0178867
575.619	0.0178158
575.697	0.0175991
575.775	0.0175787
575.853	0.0173956
575.931	0.0174223
576.009	0.0174769
576.087	0.0170124
576.165	0.0171601
576.244	0.0171930
576.322	0.0170729
576.400	0.0168681
576.478	0.0168696
576.556	0.0168861
576.634	0.0168063
576.712	0.0169339
576.790	0.0168493
576.869	0.0168884
576.947	0.0168361
577.025	0.0168917
577.103	0.0168501
577.181	0.0168259
577.259	0.0169009
577.337	0.0169608
577.415	0.0169251
577.494	0.0171375
577.572	0.0171088
577.650	0.0172234
577.728	0.0173019
577.806	0.0172047
577.884	0.0174238
577.962	0.0174955
578.040	0.0174170
578.119	0.0176148
578.197	0.0176723
578.275	0.0177101
578.353	0.0178569
578.431	0.0179482
578.509	0.0180460
578.587	0.0180874
578.665	0.0182387
578.744	0.0185095
578.822	0.0184317
578.900	0.0185596
578.978	0.0185749
579.056	0.0187450
579.134	0.0187724
579.212	0.0188323
579.290	0.0188517
579.369	0.0188670
579.447	0.0187867
579.525	0.0188823
579.603	0.0189128
579.681	0.0187546
579.759	0.0187834
579.837	0.0186896
579.915	0.0186508
579.994	0.0185754
580.072	0.0183897
580.150	0.0181571
580.228	0.0181302
580.306	0.0179038
580.384	0.0179514
580.462	0.0176468
580.540	0.0173902
580.619	0.0172308
580.697	0.0171032
580.775	0.0169381
580.853	0.0169003
580.931	0.0168624
581.009	0.0169870
581.087	0.0166712
581.165	0.0165398
581.244	0.0165873
581.322	0.0167889
581.400	0.0166776
581.478	0.0165945
581.556	0.0167751
581.634	0.0167027
581.712	0.0168280
581.790	0.0169901
581.869	0.0169435
581.947	0.0171567
582.025	0.0170924
582.103	0.0173071
582.181	0.0174512
582.259	0.0174259
582.337	0.0173404
582.415	0.0173850
582.494	0.0175146
582.572	0.0174262
582.650	0.0175684
582.728	0.0175617
582.806	0.0176376
582.884	0.0176275
582.962	0.0176563
583.040	0.0176291
583.119	0.0175610
583.197	0.0175477
583.275	0.0178503
583.353	0.0178582
583.431	0.0177934
583.509	0.0179569
583.587	0.0179425
583.665	0.0180980
583.744	0.0181022
583.822	0.0183055
583.900	0.0182577
583.978	0.0183127
584.056	0.0182947
584.134	0.0183002
584.212	0.0184987
584.290	0.0183855
584.369	0.0184397
584.447	0.0186308
584.525	0.0185402
584.603	0.0185019
584.681	0.0185877
584.759	0.0185490
584.837	0.0186140
584.915	0.0184865
584.994	0.0184553
585.072	0.0184502
585.150	0.0183486
585.228	0.0181522
585.306	0.0180827
585.384	0.0180377
585.462	0.0179611
585.540	0.0178944
585.619	0.0178268
585.697	0.0175596
585.775	0.0174995
585.853	0.0174026
585.931	0.0172761
586.009	0.0172048
586.087	0.0171507
586.165	0.0168544
586.244	0.0169338
586.322	0.0168530
586.400	0.0167158
586.478	0.0166686
586.556	0.0163377
586.634	0.0165528
586.712	0.0164819
586.790	0.0166478
586.869	0.0165700
586.947	0.0163523
587.025	0.0165537
587.103	0.0165944
587.181	0.0166714
587.259	0.0167694
587.337	0.0169323
587.415	0.0170002
587.494	0.0171893
587.572	0.0172266
587.650	0.0172811
587.728	0.0174471
587.806	0.0177589
587.884	0.0179448
587.962	0.0179180
588.040	0.0181329
588.119	0.0181644
588.197	0.0184530
588.275	0.0183764
588.353	0.0184813
588.431	0.0184892
588.509	0.0184988
588.587	0.0185000
588.665	0.0182291
588.744	0.0182466
588.822	0.0185330
588.900	0.0183920
588.978	0.0182663
589.056	0.0181937
589.134	0.0183443
589.212	0.0181375
589.290	0.0180515
589.369	0.0181470
589.447	0.0181021
589.525	0.0181452
589.603	0.0179821
589.681	0.0177865
589.759	0.0178288
589.837	0.0178200
589.915	0.0177749
589.994	0.0177805
590.072	0.0176514
590.150	0.0176550
590.228	0.0176344
590.306	0.0177209
590.384	0.0176514
590.462	0.0175932
590.540	0.0175574
590.619	0.0175140
590.697	0.0175349
590.775	0.0176569
590.853	0.0176406
590.931	0.0176515
591.009	0.0176122
591.087	0.0174204
591.165	0.0175462
591.244	0.0175991
591.322	0.0176389
591.400	0.0175123
591.478	0.0176192
591.556	0.0176141
591.634	0.0173212
591.712	0.0173905
591.790	0.0174664
591.869	0.0174280
591.947	0.0173803
592.025	0.0174145
592.103	0.0174525
592.181	0.0174680
592.259	0.0175488
592.337	0.0175233
592.415	0.0175714
592.494	0.0175617
592.572	0.0175973
592.650	0.0176345
592.728	0.0177690
592.806	0.0176825
592.884	0.0178249
592.962	0.0178229
593.040	0.0177856
593.119	0.0176917
593.197	0.0177599
593.275	0.0178185
593.353	0.0176825
593.431	0.0177139
593.509	0.0177041
593.587	0.0176109
593.665	0.0175877
593.744	0.0175437
593.822	0.0174916
593.900	0.0176025
593.978	0.0176286
594.056	0.0176138
594.134	0.0176607
594.212	0.0174344
594.290	0.0175399
594.369	0.0176785
594.447	0.0177448
594.525	0.0177073
594.603	0.0177319
594.681	0.0175957
594.759	0.0176648
594.837	0.0176061
594.915	0.0178049
594.994	0.0177160
595.072	0.0176428
595.150	0.0176605
595.228	0.0176692
595.306	0.0176974
595.384	0.0175948
595.462	0.0176009
595.540	0.0175876
595.619	0.0174748
595.697	0.0174068
595.775	0.0174484
595.853	0.0174400
595.931	0.0174822
596.009	0.0171138
596.087	0.0172020
596.165	0.0171854
596.244	0.0170840
596.322	0.0171513
596.400	0.0173767
596.478	0.0172672
596.556	0.0171666
596.634	0.0171796
596.712	0.0174513
596.790	0.0173064
596.869	0.0175076
596.947	0.0175997
597.025	0.0177727
597.103	0.0179518
597.181	0.0180067
597.259	0.0180713
597.337	0.0182425
597.415	0.0180949
597.494	0.0181881
597.572	0.0181006
597.650	0.0181017
597.728	0.0180272
597.806	0.0179879
597.884	0.0179791
597.962	0.0178967
598.040	0.0177429
598.119	0.0177475
598.197	0.0178394
598.275	0.0175720
598.353	0.0174900
598.431	0.0176249
598.509	0.0175766
598.587	0.0174421
598.665	0.0172834
598.744	0.0172882
598.822	0.0171616
598.900	0.0173190
598.978	0.0172674
599.056	0.0171305
599.134	0.0171140
599.212	0.0172436
599.290	0.0173880
599.369	0.0172071
599.447	0.0174020
599.525	0.0173387
599.603	0.0173546
599.681	0.0174313
599.759	0.0175045
599.837	0.0175038
599.915	0.0175071
599.994	0.0175565
600.072	0.0175883
600.150	0.0176301
600.228	0.0175375
600.306	0.0175929
600.384	0.0175823
600.462	0.0176884
600.540	0.0176480
600.619	0.0177500
600.697	0.0177526
600.775	0.0178056
600.853	0.0178482
600.931	0.0178149
601.009	0.0178109
601.087	0.0176652
601.165	0.0177160
601.244	0.0178562
601.322	0.0178586
601.400	0.0177050
601.478	0.0176208
601.556	0.0176125
601.634	0.0173836
601.712	0.0174352
601.790	0.0173199
601.869	0.0171474
601.947	0.0172015
602.025	0.0170559
602.103	0.0168530
602.181	0.0168916
602.259	0.0168623
602.337	0.0170052
602.415	0.0167446
602.494	0.0168714
602.572	0.0170103
602.650	0.0171761
602.728	0.0171786
602.806	0.0173850
602.884	0.0175449
602.962	0.0174935
603.040	0.0176260
603.119	0.0176582
603.197	0.0178991
603.275	0.0181610
603.353	0.0183242
603.431	0.0182620
603.509	0.0184846
603.587	0.0184978
603.665	0.0184866
603.744	0.0187339
603.822	0.0186385
603.900	0.0186362
603.978	0.0186585
604.056	0.0184924
604.134	0.0184216
604.212	0.0184290
604.290	0.0184959
604.369	0.0184939
604.447	0.0183732
604.525	0.0183494
604.603	0.0182922
604.681	0.0183594
604.759	0.0181730
604.837	0.0181581
604.915	0.0181708
604.994	0.0180177
605.072	0.0179188
605.150	0.0178366
605.228	0.0178271
605.306	0.0176933
605.384	0.0174094
605.462	0.0172969
605.540	0.0173042
605.619	0.0172836
605.697	0.0171082
605.775	0.0169302
605.853	0.0169425
605.931	0.0169481
606.009	0.0166930
606.087	0.0166724
606.165	0.0167261
606.244	0.0167213
606.322	0.0167251
606.400	0.0166409
606.478	0.0164880
606.556	0.0166721
606.634	0.0166733
606.712	0.0168034
606.790	0.0168363
606.869	0.0170259
606.947	0.0170490
607.025	0.0170892
607.103	0.0174307
607.181	0.0174581
607.259	0.0175104
607.337	0.0176689
607.415	0.0178312
607.494	0.0177474
607.572	0.0181894
607.650	0.0182710
607.728	0.0181699
607.806	0.0182182
607.884	0.0183468
607.962	0.0184669
608.040	0.0185126
608.119	0.0186167
608.197	0.0185924
608.275	0.0184904
608.353	0.0184560
608.431	0.0185387
608.509	0.0183920
608.587	0.0185496
608.665	0.0184934
608.744	0.0183936
608.822	0.0184294
608.900	0.0183476
608.978	0.0182331
609.056	0.0181758
609.134	0.0181069
609.212	0.0180692
609.290	0.0179164
609.369	0.0179251
609.447	0.0180524
609.525	0.0179086
609.603	0.0177675
609.681	0.0177304
609.759	0.0177168
609.837	0.0177261
609.915	0.0176002
609.994	0.0174831
610.072	0.0174443
610.150	0.0173753
610.228	0.0173470
610.306	0.0173756
610.384	0.0173100
610.462	0.0172936
610.540	0.0172459
610.619	0.0172726
610.697	0.0174268
610.775	0.0172227
610.853	0.0174525
610.931	0.0172976
611.009	0.0173412
611.087	0.0174265
611.165	0.0174603
611.244	0.0173629
611.322	0.0172456
611.400	0.0173477
611.478	0.0174085
611.556	0.0173295
611.634	0.0173627
611.712	0.0173435
611.790	0.0174052
611.869	0.0175032
611.947	0.0175026
612.025	0.0175274
612.103	0.0175676
612.181	0.0174854
612.259	0.0175416
612.337	0.0174655
612.415	0.0174841
612.494	0.0174016
612.572	0.0173897
612.650	0.0174036
612.728	0.0174079
612.806	0.0175293
612.884	0.0173447
612.962	0.0174950
613.040	0.0175201
613.119	0.0173985
613.197	0.0174500
613.275	0.0174842
613.353	0.0174542
613.431	0.0173820
613.509	0.0174806
613.587	0.0176236
613.665	0.0176965
613.744	0.0176652
613.822	0.0177395
613.900	0.0176617
613.978	0.0176599
614.056	0.0177054
614.134	0.0179213
614.212	0.0177528
614.290	0.0177712
614.369	0.0179044
614.447	0.0178017
614.525	0.0178689
614.603	0.0178840
614.681	0.0178416
614.759	0.0177796
614.837	0.0178613
614.915	0.0177122
614.994	0.0176494
615.072	0.0178305
615.150	0.0178818
615.228	0.0177651
615.306	0.0176711
615.384	0.0177561
615.462	0.0177396
615.540	0.0177343
615.619	0.0177174
615.697	0.0176163
615.775	0.0176844
615.853	0.0176719
615.931	0.0175645
616.009	0.0176058
616.087	0.0175605
616.165	0.0176008
616.244	0.0174988
616.322	0.0177332
616.400	0.0175755
616.478	0.0177472
616.556	0.0176454
616.634	0.0175881
616.712	0.0178098
616.790	0.0178465
616.869	0.0177958
616.947	0.0177187
617.025	0.0177335
617.103	0.0177249
617.181	0.0178142
617.259	0.0178281
617.337	0.0178468
617.415	0.0177876
617.494	0.0176893
617.572	0.0176203
617.650	0.0176524
617.728	0.0178267
617.806	0.0175991
617.884	0.0173761
617.962	0.0175044
618.040	0.0175310
618.119	0.0174572
618.197	0.0174026
618.275	0.0171503
618.353	0.0171999
618.431	0.0172552
618.509	0.0171415
618.587	0.0171697
618.665	0.0170262
618.744	0.0170064
618.822	0.0170776
618.900	0.0169514
618.978	0.0169269
619.056	0.0170215
619.134	0.0170441
619.212	0.0168822
619.290	0.0169409
619.369	0.0169902
619.447	0.0170670
619.525	0.0169660
619.603	0.0168472
619.681	0.0168610
619.759	0.0168449
619.837	0.0169222
619.915	0.0170251
619.994	0.0169248
620.072	0.0169695
620.150	0.0170868
620.228	0.0170962
620.306	0.0170855
620.384	0.0173176
620.462	0.0172742
620.540	0.0173061
620.619	0.0174516
620.697	0.0174732
620.775	0.0174583
620.853	0.0176285
620.931	0.0176630
621.009	0.0178262
621.087	0.0178771
621.165	0.0179050
621.244	0.0179967
621.322	0.0181029
621.400	0.0182706
621.478	0.0182762
621.556	0.0182407
621.634	0.0183398
621.712	0.0184116
621.790	0.0184810
621.869	0.0184275
621.947	0.0183720
622.025	0.0185288
622.103	0.0184541
622.181	0.0183224
622.259	0.0183437
622.337	0.0183053
622.415	0.0182955
622.494	0.0182561
622.572	0.0181937
622.650	0.0178068
622.728	0.0179232
622.806	0.0178030
622.884	0.0176466
622.962	0.0175970
623.040	0.0175452
623.119	0.0173928
623.197	0.0172335
623.275	0.0171879
623.353	0.0171828
623.431	0.0171987
623.509	0.0171154
623.587	0.0170026
623.665	0.0171636
623.744	0.0169704
623.822	0.0169578
623.900	0.0170072
623.978	0.0170638
624.056	0.0169531
624.134	0.0169869
624.212	0.0170661
624.290	0.0171424
624.369	0.0171561
624.447	0.0170541
624.525	0.0170784
624.603	0.0171695
624.681	0.0171726
624.759	0.0173009
624.837	0.0171591
624.915	0.0172000
624.994	0.0173344
625.072	0.0173914
625.150	0.0172607
625.228	0.0174265
625.306	0.0173286
625.384	0.0173275
625.462	0.0172948
625.540	0.0172744
625.619	0.0172528
625.697	0.0171751
625.775	0.0172942
625.853	0.0171757
625.931	0.0171423
626.009	0.0172586
626.087	0.0172698
626.165	0.0172287
626.244	0.0172369
626.322	0.0173586
626.400	0.0172530
626.478	0.0172830
626.556	0.0171856
626.634	0.0173180
626.712	0.0172234
626.790	0.0175420
626.869	0.0174639
626.947	0.0174500
627.025	0.0173801
627.103	0.0174096
627.181	0.0174326
627.259	0.0175688
627.337	0.0173999
627.415	0.0175146
627.494	0.0175577
627.572	0.0176016
627.650	0.0176061
627.728	0.0173789
627.806	0.0175666
627.884	0.0175826
627.962	0.0175629
628.040	0.0177716
628.119	0.0177982
628.197	0.0178324
628.275	0.0177095
628.353	0.0179770
628.431	0.0179876
628.509	0.0180263
628.587	0.0182530
628.665	0.0180284
628.744	0.0180761
628.822	0.0181163
628.900	0.0181595
628.978	0.0180866
629.056	0.0180950
629.134	0.0181254
629.212	0.0179864
629.290	0.0179318
629.369	0.0179371
629.447	0.0177737
629.525	0.0178461
629.603	0.0178683
629.681	0.0177880
629.759	0.0178789
629.837	0.0178670
629.915	0.0178861
629.994	0.0176999
630.072	0.0175962
630.150	0.0177180
630.228	0.0175815
630.306	0.0177049
630.384	0.0176900
630.462	0.0176235
630.540	0.0175391
630.619	0.0175572
630.697	0.0175522
630.775	0.0175566
630.853	0.0175742
630.931	0.0175391
631.009	0.0176204
631.087	0.0175432
631.165	0.0173657
631.244	0.0174641
631.322	0.0174312
631.400	0.0174880
631.478	0.0174699
631.556	0.0173524
631.634	0.0174049
631.712	0.0173747
631.790	0.0173655
631.869	0.0174509
631.947	0.0174467
632.025	0.0173171
632.103	0.0173528
632.181	0.0173734
632.259	0.0174226
632.337	0.0172527
632.415	0.0174702
632.494	0.0174548
632.572	0.0175183
632.650	0.0173465
632.728	0.0174782
632.806	0.0174537
632.884	0.0174708
632.962	0.0174067
633.040	0.0174246
633.119	0.0174078
633.197	0.0173833
633.275	0.0172831
633.353	0.0172932
633.431	0.0173894
633.509	0.0173309
633.587	0.0173922
633.665	0.0175401
633.744	0.0175078
633.822	0.0174592
633.900	0.0174319
633.978	0.0175978
634.056	0.0176465
634.134	0.0176466
634.212	0.0176436
634.290	0.0177300
634.369	0.0177245
634.447	0.0178100
634.525	0.0177852
634.603	0.0176687
634.681	0.0177745
634.759	0.0178962
634.837	0.0178802
634.915	0.0177680
634.994	0.0178355
635.072	0.0178553
635.150	0.0177420
635.228	0.0176800
635.306	0.0179377
635.384	0.0177862
635.462	0.0176339
635.540	0.0176391
635.619	0.0177979
635.697	0.0177612
635.775	0.0176768
635.853	0.0178040
635.931	0.0178492
636.009	0.0177051
636.087	0.0178345
636.165	0.0178703
636.244	0.0177571
636.322	0.0177526
636.400	0.0178550
636.478	0.0178777
636.556	0.0178951
636.634	0.0178596
636.712	0.0178332
636.790	0.0178056
636.869	0.0179478
636.947	0.0180103
637.025	0.0177621
637.103	0.0177921
637.181	0.0176597
637.259	0.0176803
637.337	0.0177341
637.415	0.0177657
637.494	0.0177248
637.572	0.0175729
637.650	0.0175546
637.728	0.0176298
637.806	0.0175138
637.884	0.0175291
637.962	0.0174048
638.040	0.0173048
638.119	0.0173164
638.197	0.0173446
638.275	0.0174074
638.353	0.0172748
638.431	0.0173339
638.509	0.0173607
638.587	0.0173152
638.665	0.0172500
638.744	0.0171351
638.822	0.0172392
638.900	0.0173238
638.978	0.0173881
639.056	0.0172530
639.134	0.0173016
639.212	0.0174680
639.290	0.0173131
639.369	0.0173571
639.447	0.0175132
639.525	0.0173462
639.603	0.0173745
639.681	0.0174471
639.759	0.0174445
639.837	0.0174366
639.915	0.0175034
639.994	0.0176143
640.072	0.0176466
640.150	0.0175179
640.228	0.0175179
640.306	0.0176234
640.384	0.0174614
640.462	0.0174847
640.540	0.0174832
640.619	0.0175843
640.697	0.0175380
640.775	0.0174521
640.853	0.0174493
640.931	0.0175430
641.009	0.0173685
641.087	0.0173236
641.165	0.0173373
641.244	0.0173847
641.322	0.0175178
641.400	0.0174061
641.478	0.0174171
641.556	0.0175625
641.634	0.0175500
641.712	0.0176093
641.790	0.0175252
641.869	0.0176423
641.947	0.0175970
642.025	0.0177278
642.103	0.0177208
642.181	0.0177127
642.259	0.0179401
642.337	0.0178209
642.415	0.0179008
642.494	0.0178135
642.572	0.0178463
642.650	0.0178635
642.728	0.0178912
642.806	0.0179018
642.884	0.0178046
642.962	0.0177319
643.040	0.0178259
643.119	0.0178589
643.197	0.0176492
643.275	0.0176215
643.353	0.0176876
643.431	0.0178127
643.509	0.0176820
643.587	0.0176904
643.665	0.0177011
643.744	0.0176385
643.822	0.0177572
643.900	0.0177549
643.978	0.0177428
644.056	0.0176570
644.134	0.0177559
644.212	0.0176665
644.290	0.0177109
644.369	0.0176880
644.447	0.0175416
644.525	0.0174821
644.603	0.0175490
644.681	0.0175641
644.759	0.0173763
644.837	0.0175044
644.915	0.0174765
644.994	0.0173090
645.072	0.0173468
645.150	0.0172018
645.228	0.0173094
645.306	0.0172689
645.384	0.0172984
645.462	0.0171597
645.540	0.0172478
645.619	0.0172260
645.697	0.0172501
645.775	0.0172639
645.853	0.0171902
645.931	0.0173796
646.009	0.0173725
646.087	0.0174379
646.165	0.0172740
646.244	0.0172808
646.322	0.0176515
646.400	0.0173941
646.478	0.0174207
646.556	0.0174485
646.634	0.0174742
646.712	0.0175681
646.790	0.0176257
646.869	0.0176189
646.947	0.0177897
647.025	0.0177826
647.103	0.0177953
647.181	0.0178446
647.259	0.0177684
647.337	0.0177834
647.415	0.0178123
647.494	0.0179840
647.572	0.0178860
647.650	0.0178922
647.728	0.0180579
647.806	0.0178773
647.884	0.0178504
647.962	0.0179724
648.040	0.0178088
648.119	0.0177522
648.197	0.0176729
648.275	0.0178233
648.353	0.0178128
648.431	0.0176295
648.509	0.0175249
648.587	0.0175535
648.665	0.0175475
648.744	0.0175005
648.822	0.0174687
648.900	0.0174636
648.978	0.0174149
649.056	0.0175129
649.134	0.0175314
649.212	0.0174766
649.290	0.0175246
649.369	0.0176318
649.447	0.0175507
649.525	0.0175636
649.603	0.0176746
649.681	0.0177096
649.759	0.0177488
649.837	0.0177197
649.915	0.0177234
649.994	0.0178018
650.072	0.0178810
650.150	0.0178355
650.228	0.0178929
650.306	0.0177975
650.384	0.0178612
650.462	0.0177783
650.540	0.0179153
650.619	0.0178738
650.697	0.0178276
650.775	0.0177628
650.853	0.0177257
650.931	0.0177087
651.009	0.0176214
651.087	0.0177731
651.165	0.0176029
651.244	0.0176624
651.322	0.0177032
651.400	0.0176424
651.478	0.0176023
651.556	0.0175732
651.634	0.0174200
651.712	0.0174925
651.790	0.0174494
651.869	0.0175025
651.947	0.0174187
652.025	0.0173150
652.103	0.0174406
652.181	0.0174332
652.259	0.0175682
652.337	0.0175272
652.415	0.0175638
652.494	0.0174721
652.572	0.0174709
652.650	0.0173800
652.728	0.0173061
652.806	0.0174253
652.884	0.0176344
652.962	0.0174905
653.040	0.0174701
653.119	0.0173655
653.197	0.0174356
653.275	0.0173730
653.353	0.0173943
653.431	0.0173110
653.509	0.0173050
653.587	0.0172840
653.665	0.0173342
653.744	0.0174422
653.822	0.0173487
653.900	0.0172233
653.978	0.0173472
654.056	0.0173760
654.134	0.0174045
654.212	0.0175280
654.290	0.0175311
654.369	0.0175871
654.447	0.0176519
654.525	0.0176836
654.603	0.0177166
654.681	0.0178053
654.759	0.0176512
654.837	0.0178072
654.915	0.0177775
654.994	0.0179752
655.072	0.0177452
655.150	0.0177257
655.228	0.0177526
655.306	0.0180074
655.384	0.0178641
655.462	0.0177525
655.540	0.0178433
655.619	0.0178762
655.697	0.0179414
655.775	0.0178103
655.853	0.0177728
655.931	0.0178831
656.009	0.0177872
656.087	0.0177278
656.165	0.0177195
656.244	0.0177355
656.322	0.0177110
656.400	0.0179095
656.478	0.0177565
656.556	0.0176084
656.634	0.0176766
656.712	0.0176032
656.790	0.0177000
656.869	0.0177176
656.947	0.0177450
657.025	0.0176239
657.103	0.0177052
657.181	0.0176634
657.259	0.0177152
657.337	0.0176262
657.415	0.0176381
657.494	0.0176705
657.572	0.0177286
657.650	0.0176155
657.728	0.0176015
657.806	0.0178212
657.884	0.0176966
657.962	0.0177232
658.040	0.0176479
658.119	0.0176532
658.197	0.0176386
658.275	0.0177315
658.353	0.0177686
658.431	0.0179062
658.509	0.0178772
658.587	0.0177234
658.665	0.0178415
658.744	0.0177611
658.822	0.0177718
658.900	0.0178609
658.978	0.0177945
659.056	0.0178485
659.134	0.0176272
659.212	0.0176947
659.290	0.0177668
659.369	0.0177151
659.447	0.0176000
659.525	0.0175962
659.603	0.0176743
659.681	0.0176529
659.759	0.0175267
659.837	0.0175940
659.915	0.0176121
659.994	0.0175826
660.072	0.0175825
660.150	0.0177303
660.228	0.0176794
660.306	0.0176031
660.384	0.0176351
660.462	0.0177979
660.540	0.0177422
660.619	0.0176112
660.697	0.0177177
660.775	0.0177193
660.853	0.0176446
660.931	0.0176274
661.009	0.0174498
661.087	0.0176365
661.165	0.0175622
661.244	0.0176115
661.322	0.0175491
661.400	0.0175081
661.478	0.0174327
661.556	0.0175040
661.634	0.0173833
661.712	0.0175613
661.790	0.0176231
661.869	0.0175349
661.947	0.0175707
662.025	0.0175064
662.103	0.0176034
662.181	0.0175784
662.259	0.0176071
662.337	0.0176457
662.415	0.0175582
662.494	0.0175755
662.572	0.0177506
662.650	0.0176602
662.728	0.0176192
662.806	0.0178072
662.884	0.0177730
662.962	0.0178280
663.040	0.0178172
663.119	0.0177647
663.197	0.0179741
663.275	0.0179685
663.353	0.0179831
663.431	0.0177924
663.509	0.0177881
663.587	0.0178354
663.665	0.0177219
663.744	0.0178510
663.822	0.0177438
663.900	0.0177290
663.978	0.0177453
664.056	0.0176561
664.134	0.0176257
664.212	0.0177744
664.290	0.0177164
664.369	0.0175521
664.447	0.0176505
664.525	0.0177139
664.603	0.0177380
664.681	0.0175716
664.759	0.0176047
664.837	0.0178053
664.915	0.0175539
664.994	0.0175764
665.072	0.0177424
665.150	0.0176568
665.228	0.0178050
665.306	0.0177400
665.384	0.0176711
665.462	0.0176749
665.540	0.0179012
665.619	0.0177795
665.697	0.0176625
665.775	0.0178180
665.853	0.0176639
665.931	0.0177060
666.009	0.0177224
666.087	0.0176516
666.165	0.0177717
666.244	0.0176961
666.322	0.0177608
666.400	0.0178113
666.478	0.0176960
666.556	0.0176078
666.634	0.0175252
666.712	0.0176752
666.790	0.0176870
666.869	0.0174585
666.947	0.0175288
667.025	0.0176096
667.103	0.0175994
667.181	0.0174211
667.259	0.0174361
667.337	0.0174807
667.415	0.0174746
667.494	0.0173893
667.572	0.0173668
667.650	0.0173785
667.728	0.0172952
667.806	0.0173751
667.884	0.0175041
667.962	0.0173151
668.040	0.0173914
668.119	0.0175092
668.197	0.0175048
668.275	0.0174395
668.353	0.0175913
668.431	0.0176252
668.509	0.0176233
668.587	0.0174989
668.665	0.0176036
668.744	0.0177079
668.822	0.0176045
668.900	0.0176408
668.978	0.0177383
669.056	0.0177863
669.134	0.0175971
669.212	0.0177079
669.290	0.0176833
669.369	0.0177616
669.447	0.0179191
669.525	0.0177704
669.603	0.0177944
669.681	0.0179060
669.759	0.0178348
669.837	0.0178600
669.915	0.0179113
669.994	0.0179084
670.072	0.0178596
670.150	0.0179112
670.228	0.0179940
670.306	0.0178156
670.384	0.0179484
670.462	0.0179540
670.540	0.0179150
670.619	0.0179943
670.697	0.0181454
670.775	0.0179855
670.853	0.0181091
670.931	0.0180663
671.009	0.0179517
671.087	0.0178854
671.165	0.0178630
671.244	0.0178406
671.322	0.0178934
671.400	0.0179298
671.478	0.0177398
671.556	0.0177372
671.634	0.0177569
671.712	0.0176266
671.790	0.0177246
671.869	0.0176265
671.947	0.0177370
672.025	0.0176620
672.103	0.0176458
672.181	0.0177934
672.259	0.0175401
672.337	0.0175512
672.415	0.0175413
672.494	0.0175977
672.572	0.0176305
672.650	0.0176675
672.728	0.0176982
672.806	0.0175959
672.884	0.0174937
672.962	0.0175255
673.040	0.0175548
673.119	0.0177341
673.197	0.0175672
673.275	0.0175005
673.353	0.0175357
673.431	0.0175716
673.509	0.0174456
673.587	0.0175511
673.665	0.0175461
673.744	0.0174366
673.822	0.0175140
673.900	0.0177147
673.978	0.0176329
674.056	0.0175296
674.134	0.0175140
674.212	0.0175536
674.290	0.0175217
674.369	0.0176734
674.447	0.0176332
674.525	0.0174943
674.603	0.0175304
674.681	0.0175937
674.759	0.0174880
674.837	0.0175829
674.915	0.0176112
674.994	0.0175216
675.072	0.0177396
675.150	0.0177401
675.228	0.0176466
675.306	0.0175726
675.384	0.0175888
675.462	0.0176812
675.540	0.0178413
675.619	0.0177818
675.697	0.0177875
675.775	0.0178130
675.853	0.0177477
675.931	0.0178426
676.009	0.0178297
676.087	0.0179022
676.165	0.0179069
676.244	0.0177631
676.322	0.0177740
676.400	0.0179137
676.478	0.0178811
676.556	0.0177754
676.634	0.0178510
676.712	0.0177539
676.790	0.0178764
676.869	0.0178503
676.947	0.0177285
677.025	0.0177625
677.103	0.0178235
677.181	0.0177340
677.259	0.0177361
677.337	0.0178123
677.415	0.0178802
677.494	0.0177548
677.572	0.0177518
677.650	0.0176761
677.728	0.0178027
677.806	0.0176644
677.884	0.0176243
677.962	0.0178764
678.040	0.0177146
678.119	0.0176932
678.197	0.0177450
678.275	0.0176729
678.353	0.0176345
678.431	0.0176082
678.509	0.0176289
678.587	0.0176365
678.665	0.0175882
678.744	0.0175584
678.822	0.0176093
678.900	0.0175322
678.978	0.0176569
679.056	0.0176059
679.134	0.0175764
679.212	0.0175774
679.290	0.0176479
679.369	0.0175990
679.447	0.0175017
679.525	0.0176242
679.603	0.0174562
679.681	0.0176559
679.759	0.0176131
679.837	0.0176412
679.915	0.0175718
679.994	0.0174699
680.072	0.0175703
680.150	0.0175922
680.228	0.0176201
680.306	0.0176051
680.384	0.0175629
680.462	0.0176643
680.540	0.0176855
680.619	0.0177017
680.697	0.0176918
680.775	0.0176045
680.853	0.0176154
680.931	0.0175961
681.009	0.0175806
681.087	0.0176825
681.165	0.0176986
681.244	0.0176885
681.322	0.0176659
681.400	0.0175732
681.478	0.0176727
681.556	0.0176379
681.634	0.0176224
681.712	0.0177737
681.790	0.0176244
681.869	0.0175865
681.947	0.0176841
682.025	0.0176292
682.103	0.0177473
682.181	0.0175639
682.259	0.0176878
682.337	0.0175517
682.415	0.0176114
682.494	0.0175788
682.572	0.0176358
682.650	0.0176488
682.728	0.0175829
682.806	0.0176727
682.884	0.0174815
682.962	0.0174934
683.040	0.0175153
683.119	0.0176080
683.197	0.0174547
683.275	0.0175938
683.353	0.0175485
683.431	0.0175108
683.509	0.0174874
683.587	0.0176604
683.665	0.0173854
683.744	0.0175060
683.822	0.0176237
683.900	0.0174814
683.978	0.0174383
684.056	0.0175493
684.134	0.0176089
684.212	0.0176488
684.290	0.0175404
684.369	0.0176049
684.447	0.0175923
684.525	0.0176056
684.603	0.0176711
684.681	0.0177323
684.759	0.0178461
684.837	0.0177826
684.915	0.0178461
684.994	0.0178640
685.072	0.0178161
685.150	0.0177244
685.228	0.0179373
685.306	0.0177370
685.384	0.0178889
685.462	0.0179604
685.540	0.0178743
685.619	0.0177840
685.697	0.0177131
685.775	0.0178169
685.853	0.0178973
685.931	0.0177636
686.009	0.0177469
686.087	0.0178580
686.165	0.0178437
686.244	0.0177959
686.322	0.0177962
686.400	0.0177904
686.478	0.0177526
686.556	0.0177793
686.634	0.0176635
686.712	0.0177728
686.790	0.0178056
686.869	0.0176318
686.947	0.0176579
687.025	0.0176377
687.103	0.0175849
687.181	0.0174881
687.259	0.0176688
687.337	0.0176579
687.415	0.0176306
687.494	0.0175183
687.572	0.0176167
687.650	0.0175880
687.728	0.0174053
687.806	0.0175420
687.884	0.0174493
687.962	0.0174646
688.040	0.0175307
688.119	0.0175436
688.197	0.0175465
688.275	0.0176373
688.353	0.0174488
688.431	0.0174165
688.509	0.0174273
688.587	0.0175797
688.665	0.0176369
688.744	0.0174429
688.822	0.0176241
688.900	0.0176398
688.978	0.0176587
689.056	0.0177498
689.134	0.0175488
689.212	0.0175854
689.290	0.0177203
689.369	0.0177408
689.447	0.0177628
689.525	0.0177546
689.603	0.0177117
689.681	0.0176620
689.759	0.0177470
689.837	0.0178130
689.915	0.0176677
689.994	0.0176701
690.072	0.0176766
690.150	0.0176220
690.228	0.0176969
690.306	0.0176167
690.384	0.0177051
690.462	0.0176939
690.540	0.0176677
690.619	0.0175369
690.697	0.0175554
690.775	0.0176128
690.853	0.0175674
690.931	0.0174680
691.009	0.0175854
691.087	0.0175352
691.165	0.0175578
691.244	0.0176303
691.322	0.0175177
691.400	0.0175887
691.478	0.0176003
691.556	0.0175853
691.634	0.0175459
691.712	0.0175207
691.790	0.0175085
691.869	0.0177068
691.947	0.0175909
692.025	0.0176815
692.103	0.0176760
692.181	0.0176975
692.259	0.0177421
692.337	0.0176207
692.415	0.0176120
692.494	0.0177227
692.572	0.0177020
692.650	0.0178262
692.728	0.0177792
692.806	0.0177254
692.884	0.0177956
692.962	0.0178118
693.040	0.0178288
693.119	0.0177464
693.197	0.0177827
693.275	0.0178759
693.353	0.0179163
693.431	0.0178896
693.509	0.0177425
693.587	0.0178308
693.665	0.0178518
693.744	0.0178781
693.822	0.0178923
693.900	0.0176698
693.978	0.0177184
694.056	0.0177853
694.134	0.0176410
694.212	0.0174644
694.290	0.0177005
694.369	0.0175188
694.447	0.0175329
694.525	0.0176662
694.603	0.0175370
694.681	0.0174472
694.759	0.0174516
694.837	0.0174023
694.915	0.0173667
694.994	0.0175121
695.072	0.0174855
695.150	0.0173294
695.228	0.0174236
695.306	0.0175481
695.384	0.0175185
695.462	0.0174830
695.540	0.0172353
695.619	0.0175995
695.697	0.0174812
695.775	0.0173480
695.853	0.0174809
695.931	0.0175719
696.009	0.0174961
696.087	0.0173603
696.165	0.0174267
696.244	0.0175535
696.322	0.0175308
696.400	0.0176865
696.478	0.0175867
696.556	0.0176583
696.634	0.0176231
696.712	0.0176189
696.790	0.0177320
696.869	0.0177126
696.947	0.0177092
697.025	0.0176012
697.103	0.0176758
697.181	0.0177538
697.259	0.0176859
697.337	0.0175844
697.415	0.0176360
697.494	0.0177451
697.572	0.0176812
697.650	0.0175307
697.728	0.0177006
697.806	0.0177545
697.884	0.0176374
697.962	0.0175349
698.040	0.0175459
698.119	0.0175984
698.197	0.0175361
698.275	0.0175838
698.353	0.0176013
698.431	0.0175402
698.509	0.0175713
698.587	0.0175941
698.665	0.0174959
698.744	0.0174949
698.822	0.0176738
698.900	0.0175771
698.978	0.0175136
699.056	0.0174885
699.134	0.0174979
699.212	0.0177415
699.290	0.0176486
699.369	0.0175263
699.447	0.0175420
699.525	0.0175546
699.603	0.0176518
699.681	0.0175789
699.759	0.0173358
699.837	0.0175265
699.915	0.0176742
699.994	0.0177067
700.072	0.0176557
700.150	0.0176367
700.228	0.0177260
700.306	0.0175797
700.384	0.0175003
700.462	0.0177414
700.540	0.0177257
700.619	0.0178057
700.697	0.0175573
700.775	0.0177448
700.853	0.0176450
700.931	0.0178639
701.009	0.0177542
701.087	0.0176246
701.165	0.0176947
701.244	0.0177099
701.322	0.0178463
701.400	0.0176404
701.478	0.0176968
701.556	0.0178161
701.634	0.0178185
701.712	0.0177151
701.790	0.0177470
701.869	0.0176134
701.947	0.0176734
702.025	0.0177043
702.103	0.0176112
702.181	0.0176730
702.259	0.0175522
702.337	0.0175404
702.415	0.0175828
702.494	0.0175753
702.572	0.0174790
702.650	0.0175451
702.728	0.0174303
702.806	0.0175652
702.884	0.0174974
702.962	0.0174379
703.040	0.0175018
703.119	0.0176077
703.197	0.0173792
703.275	0.0175686
703.353	0.0175175
703.431	0.0174869
703.509	0.0174809
703.587	0.0175676
703.665	0.0175080
703.744	0.0176323
703.822	0.0175771
703.900	0.0176601
703.978	0.0176734
704.056	0.0176436
704.134	0.0177158
704.212	0.0177968
704.290	0.0177643
704.369	0.0176022
704.447	0.0176337
704.525	0.0175820
704.603	0.0178245
704.681	0.0176990
704.759	0.0177734
704.837	0.0176837
704.915	0.0175816
704.994	0.0178003
705.072	0.0178700
705.150	0.0177424
705.228	0.0177731
705.306	0.0177132
705.384	0.0177998
705.462	0.0177104
705.540	0.0176921
705.619	0.0176545
705.697	0.0177896
705.775	0.0176955
705.853	0.0177363
705.931	0.0176324
706.009	0.0174872
706.087	0.0176366
706.165	0.0178457
706.244	0.0175925
706.322	0.0175732
706.400	0.0175528
706.478	0.0175858
706.556	0.0175542
706.634	0.0174596
706.712	0.0176151
706.790	0.0177169
706.869	0.0174770
706.947	0.0174944
707.025	0.0174993
707.103	0.0174768
707.181	0.0174753
707.259	0.0175491
707.337	0.0175867
707.415	0.0174844
707.494	0.0174683
707.572	0.0175219
707.650	0.0175194
707.728	0.0174656
707.806	0.0175226
707.884	0.0174249
707.962	0.0174827
708.040	0.0174902
708.119	0.0175214
708.197	0.0176137
708.275	0.0175265
708.353	0.0174995
708.431	0.0174737
708.509	0.0173462
708.587	0.0176029
708.665	0.0175790
708.744	0.0177019
708.822	0.0174504
708.900	0.0175135
708.978	0.0176364
709.056	0.0176261
709.134	0.0176637
709.212	0.0176330
709.290	0.0176772
709.369	0.0175581
709.447	0.0176364
709.525	0.0174508
709.603	0.0177176
709.681	0.0176080
709.759	0.0173986
709.837	0.0175109
709.915	0.0175235
709.994	0.0175596
710.072	0.0175043
710.150	0.0175267
710.228	0.0174960
710.306	0.0174088
710.384	0.0174529
710.462	0.0175564
710.540	0.0176202
710.619	0.0176167
710.697	0.0175213
710.775	0.0175509
710.853	0.0175732
710.931	0.0175568
711.009	0.0176858
711.087	0.0175655
711.165	0.0176489
711.244	0.0177634
711.322	0.0176021
711.400	0.0176346
711.478	0.0175999
711.556	0.0175568
711.634	0.0176936
711.712	0.0176894
711.790	0.0175386
711.869	0.0176163
711.947	0.0176133
712.025	0.0175730
712.103	0.0176649
712.181	0.0176704
712.259	0.0177477
712.337	0.0176535
712.415	0.0177492
712.494	0.0177905
712.572	0.0176710
712.650	0.0176971
712.728	0.0176006
712.806	0.0178231
712.884	0.0175539
712.962	0.0176552
713.040	0.0176133
713.119	0.0176766
713.197	0.0175583
713.275	0.0175962
713.353	0.0176679
713.431	0.0175912
713.509	0.0176383
713.587	0.0175613
713.665	0.0176072
713.744	0.0174652
713.822	0.0175577
713.900	0.0176044
713.978	0.0175071
714.056	0.0175520
714.134	0.0176077
714.212	0.0174297
714.290	0.0174525
714.369	0.0174632
714.447	0.0173882
714.525	0.0175086
714.603	0.0175838
714.681	0.0175422
714.759	0.0174541
714.837	0.0175609
714.915	0.0174136
714.994	0.0174229
715.072	0.0173581
715.150	0.0173861
715.228	0.0174892
715.306	0.0174119
715.384	0.0173089
715.462	0.0173616
715.540	0.0174456
715.619	0.0173349
715.697	0.0173857
715.775	0.0173569
715.853	0.0173370
715.931	0.0175128
716.009	0.0174926
716.087	0.0174316
716.165	0.0173570
716.244	0.0175938
716.322	0.0175388
716.400	0.0175570
716.478	0.0175928
716.556	0.0174847
716.634	0.0175429
716.712	0.0176105
716.790	0.0176057
716.869	0.0176667
716.947	0.0175614
717.025	0.0175240
717.103	0.0175434
717.181	0.0177628
717.259	0.0176535
717.337	0.0176763
717.415	0.0177057
717.494	0.0177023
717.572	0.0175854
717.650	0.0176316
717.728	0.0177795
717.806	0.0177629
717.884	0.0177625
717.962	0.0176643
718.040	0.0177478
718.119	0.0176814
718.197	0.0176540
718.275	0.0177589
718.353	0.0177766
718.431	0.0175784
718.509	0.0176694
718.587	0.0176913
718.665	0.0177527
718.744	0.0177532
718.822	0.0176779
718.900	0.0176313
718.978	0.0177225
719.056	0.0177422
719.134	0.0176969
719.212	0.0177467
719.290	0.0175548
719.369	0.0176250
719.447	0.0175949
719.525	0.0177242
719.603	0.0176714
719.681	0.0177597
719.759	0.0175211
719.837	0.0174853
719.915	0.0176382
719.994	0.0176998
720.072	0.0177370
720.150	0.0176709
720.228	0.0174648
720.306	0.0176704
720.384	0.0175668
720.462	0.0175057
720.540	0.0176319
720.619	0.0176520
720.697	0.0174807
720.775	0.0177267
720.853	0.0176109
720.931	0.0176638
721.009	0.0176935
721.087	0.0175864
721.165	0.0176333
721.244	0.0177168
721.322	0.0177446
721.400	0.0176864
721.478	0.0176032
721.556	0.0176399
721.634	0.0176769
721.712	0.0175946
721.790	0.0177663
721.869	0.0177083
721.947	0.0175495
722.025	0.0177104
722.103	0.0176775
722.181	0.0175864
722.259	0.0174709
722.337	0.0176970
722.415	0.0177187
722.494	0.0176091
722.572	0.0175925
722.650	0.0176930
722.728	0.0177219
722.806	0.0175675
722.884	0.0177372
722.962	0.0176719
723.040	0.0175854
723.119	0.0176180
723.197	0.0176745
723.275	0.0176670
723.353	0.0175142
723.431	0.0176437
723.509	0.0176470
723.587	0.0175982
723.665	0.0175766
723.744	0.0174968
723.822	0.0175214
723.900	0.0175713
723.978	0.0175014
724.056	0.0174545
724.134	0.0175455
724.212	0.0175314
724.290	0.0175648
724.369	0.0175819
724.447	0.0176182
724.525	0.0176846
724.603	0.0176376
724.681	0.0176630
724.759	0.0174891
724.837	0.0176040
724.915	0.0174708
724.994	0.0175504
725.072	0.0176874
725.150	0.0176312
725.228	0.0176590
725.306	0.0177740
725.384	0.0176611
725.462	0.0175297
725.540	0.0175956
725.619	0.0175172
725.697	0.0177074
725.775	0.0175582
725.853	0.0176242
725.931	0.0177448
726.009	0.0175445
726.087	0.0176099
726.165	0.0175914
726.244	0.0176264
726.322	0.0176308
726.400	0.0176604
726.478	0.0176466
726.556	0.0175236
726.634	0.0176595
726.712	0.0177057
726.790	0.0176188
726.869	0.0176234
726.947	0.0177840
727.025	0.0175026
727.103	0.0176153
727.181	0.0176246
727.259	0.0175602
727.337	0.0175628
727.415	0.0175502
727.494	0.0175117
727.572	0.0176498
727.650	0.0176378
727.728	0.0176952
727.806	0.0176449
727.884	0.0174409
727.962	0.0172974
728.040	0.0175745
728.119	0.0175535
728.197	0.0176357
728.275	0.0174872
728.353	0.0174441
728.431	0.0174786
728.509	0.0175974
728.587	0.0173460
728.665	0.0174551
728.744	0.0174978
728.822	0.0174207
728.900	0.0175930
728.978	0.0175201
729.056	0.0175059
729.134	0.0174371
729.212	0.0174527
729.290	0.0174658
729.369	0.0175440
729.447	0.0175580
729.525	0.0174566
729.603	0.0176688
729.681	0.0175444
729.759	0.0175039
729.837	0.0175777
729.915	0.0175040
729.994	0.0176615
730.072	0.0175417
730.150	0.0173122
730.228	0.0174895
730.306	0.0174841
730.384	0.0175964
730.462	0.0175597
730.540	0.0175393
730.619	0.0175658
730.697	0.0176242
730.775	0.0175657
730.853	0.0175108
730.931	0.0176073
731.009	0.0176610
731.087	0.0175793
731.165	0.0175559
731.244	0.0175357
731.322	0.0176952
731.400	0.0176054
731.478	0.0175419
731.556	0.0175089
731.634	0.0175858
731.712	0.0176234
731.790	0.0174995
731.869	0.0174968
731.947	0.0175739
732.025	0.0175805
732.103	0.0174758
732.181	0.0177401
732.259	0.0176182
732.337	0.0176790
732.415	0.0176939
732.494	0.0177883
732.572	0.0178078
732.650	0.0175943
732.728	0.0177116
732.806	0.0176565
732.884	0.0176529
732.962	0.0177172
733.040	0.0178305
733.119	0.0177411
733.197	0.0176849
733.275	0.0176296
733.353	0.0177180
733.431	0.0176336
733.509	0.0176698
733.587	0.0177048
733.665	0.0175903
733.744	0.0175827
733.822	0.0175294
733.900	0.0177026
733.978	0.0175967
734.056	0.0175648
734.134	0.0174713
734.212	0.0175386
734.290	0.0176513
734.369	0.0175592
734.447	0.0174235
734.525	0.0174480
734.603	0.0176517
734.681	0.0176243
734.759	0.0175682
734.837	0.0174790
734.915	0.0175460
734.994	0.0175991
735.072	0.0175163
735.150	0.0175265
735.228	0.0175380
735.306	0.0175562
735.384	0.0175896
735.462	0.0174442
735.540	0.0175505
735.619	0.0176102
735.697	0.0175723
735.775	0.0175791
735.853	0.0175450
735.931	0.0175167
736.009	0.0175262
736.087	0.0176248
736.165	0.0176096
736.244	0.0175267
736.322	0.0176289
736.400	0.0174171
736.478	0.0175234
736.556	0.0176382
736.634	0.0176108
736.712	0.0174972
736.790	0.0175657
736.869	0.0175193
736.947	0.0175157
737.025	0.0175376
737.103	0.0175337
737.181	0.0176402
737.259	0.0175275
737.337	0.0176035
737.415	0.0176128
737.494	0.0175924
737.572	0.0176056
737.650	0.0176004
737.728	0.0176431
737.806	0.0178082
737.884	0.0177760
737.962	0.0175863
738.040	0.0175602
738.119	0.0176113
738.197	0.0177382
738.275	0.0175916
738.353	0.0178445
738.431	0.0177260
738.509	0.0176086
738.587	0.0175928
738.665	0.0176479
738.744	0.0177148
738.822	0.0177044
738.900	0.0177026
738.978	0.0175787
739.056	0.0176041
739.134	0.0176797
739.212	0.0175967
739.290	0.0175478
739.369	0.0175751
739.447	0.0175826
739.525	0.0176136
739.603	0.0175114
739.681	0.0175325
739.759	0.0175600
739.837	0.0176935
739.915	0.0174777
739.994	0.0174874
740.072	0.0175410
740.150	0.0176566
740.228	0.0177230
740.306	0.0176411
740.384	0.0175924
740.462	0.0175176
740.540	0.0175317
740.619	0.0175906
740.697	0.0174808
740.775	0.0174701
740.853	0.0176604
740.931	0.0176128
741.009	0.0175677
741.087	0.0174223
741.165	0.0175057
741.244	0.0175846
741.322	0.0176460
741.400	0.0176355
741.478	0.0175088
741.556	0.0175175
741.634	0.0176338
741.712	0.0175569
741.790	0.0175424
741.869	0.0177303
741.947	0.0176821
742.025	0.0175924
742.103	0.0175032
742.181	0.0174728
742.259	0.0176841
742.337	0.0174720
742.415	0.0175526
742.494	0.0175953
742.572	0.0175966
742.650	0.0176342
742.728	0.0176697
742.806	0.0176572
742.884	0.0176292
742.962	0.0176306
743.040	0.0175776
743.119	0.0176955
743.197	0.0176575
743.275	0.0176024
743.353	0.0176718
743.431	0.0175715
743.509	0.0176014
743.587	0.0175988
743.665	0.0175433
743.744	0.0175540
743.822	0.0177158
743.900	0.0176482
743.978	0.0175009
744.056	0.0175133
744.134	0.0173152
744.212	0.0176587
744.290	0.0176785
744.369	0.0174922
744.447	0.0174801
744.525	0.0175850
744.603	0.0175583
744.681	0.0175982
744.759	0.0175475
744.837	0.0174898
744.915	0.0175443
744.994	0.0176690
745.072	0.0175063
745.150	0.0174951
745.228	0.0177037
745.306	0.0176249
745.384	0.0175432
745.462	0.0177077
745.540	0.0176039
745.619	0.0176181
745.697	0.0176690
745.775	0.0175022
745.853	0.0175584
745.931	0.0176997
746.009	0.0176667
746.087	0.0177383
746.165	0.0176228
746.244	0.0175368
746.322	0.0177284
746.400	0.0176055
746.478	0.0176907
746.556	0.0176668
746.634	0.0176907
746.712	0.0176336
746.790	0.0177134
746.869	0.0177142
746.947	0.0177682
747.025	0.0176770
747.103	0.0179096
747.181	0.0177101
747.259	0.0176775
747.337	0.0176910
747.415	0.0177414
747.494	0.0177850
747.572	0.0176337
747.650	0.0176868
747.728	0.0176594
747.806	0.0177460
747.884	0.0176608
747.962	0.0176251
748.040	0.0177028
748.119	0.0176379
748.197	0.0176309
748.275	0.0175622
748.353	0.0176624
748.431	0.0175391
748.509	0.0175350
748.587	0.0176376
748.665	0.0174976
748.744	0.0174959
748.822	0.0175773
748.900	0.0177143
748.978	0.0176279
749.056	0.0174821
749.134	0.0175832
749.212	0.0176508
749.290	0.0176926
749.369	0.0176553
749.447	0.0176954
749.525	0.0175491
749.603	0.0174886
749.681	0.0177050
749.759	0.0176519
749.837	0.0176389
749.915	0.0176735
749.994	0.0176827
750.072	0.0177457
750.150	0.0177351
750.228	0.0176011
750.306	0.0176759
750.384	0.0176295
750.462	0.0177031
750.540	0.0177338
750.619	0.0175308
750.697	0.0176780
750.775	0.0176767
750.853	0.0177225
750.931	0.0177004
751.009	0.0178528
751.087	0.0176572
751.165	0.0176318
751.244	0.0177621
751.322	0.0176558
751.400	0.0177625
751.478	0.0175491
751.556	0.0176643
751.634	0.0176634
751.712	0.0177264
751.790	0.0177708
751.869	0.0177105
751.947	0.0176556
752.025	0.0176958
752.103	0.0177060
752.181	0.0177647
752.259	0.0176639
752.337	0.0175474
752.415	0.0176745
752.494	0.0177021
752.572	0.0176712
752.650	0.0177966
752.728	0.0176904
752.806	0.0176505
752.884	0.0175618
752.962	0.0176801
753.040	0.0177793
753.119	0.0175479
753.197	0.0176109
753.275	0.0176085
753.353	0.0176614
753.431	0.0176868
753.509	0.0175687
753.587	0.0177264
753.665	0.0177409
753.744	0.0176622
753.822	0.0177010
753.900	0.0175386
753.978	0.0174274
754.056	0.0175989
754.134	0.0175083
754.212	0.0175358
754.290	0.0176154
754.369	0.0175509
754.447	0.0174995
754.525	0.0174831
754.603	0.0175414
754.681	0.0176264
754.759	0.0175539
754.837	0.0176640
754.915	0.0177490
754.994	0.0175563
755.072	0.0175395
755.150	0.0175341
755.228	0.0176185
755.306	0.0175439
755.384	0.0176110
755.462	0.0176456
755.540	0.0176538
755.619	0.0177901
755.697	0.0176517
755.775	0.0177139
755.853	0.0177729
755.931	0.0178130
756.009	0.0175973
756.087	0.0176740
756.165	0.0175614
756.244	0.0176956
756.322	0.0176991
756.400	0.0176903
756.478	0.0177104
756.556	0.0176911
756.634	0.0176396
756.712	0.0176099
756.790	0.0175479
756.869	0.0176544
756.947	0.0175742
757.025	0.0175269
757.103	0.0176730
757.181	0.0176585
757.259	0.0175359
757.337	0.0175157
757.415	0.0176826
757.494	0.0177065
757.572	0.0177354
757.650	0.0176675
757.728	0.0176582
757.806	0.0176231
757.884	0.0176994
757.962	0.0176547
758.040	0.0175671
758.119	0.0176284
758.197	0.0176439
758.275	0.0177338
758.353	0.0177187
758.431	0.0175250
758.509	0.0175368
758.587	0.0176355
758.665	0.0176904
758.744	0.0176736
758.822	0.0177068
758.900	0.0176971
758.978	0.0177080
759.056	0.0177473
759.134	0.0177331
759.212	0.0176563
759.290	0.0177772
759.369	0.0177267
759.447	0.0177740
759.525	0.0177748
759.603	0.0177718
759.681	0.0176488
759.759	0.0177625
759.837	0.0177151
759.915	0.0178156
759.994	0.0178153
760.072	0.0177087
760.150	0.0177381
760.228	0.0177292
760.306	0.0176949
760.384	0.0178477
760.462	0.0177374
760.540	0.0176935
760.619	0.0176440
760.697	0.0177871
760.775	0.0176884
760.853	0.0176016
760.931	0.0177453
761.009	0.0177055
761.087	0.0175945
761.165	0.0177257
761.244	0.0176529
761.322	0.0176509
761.400	0.0175915
761.478	0.0176102
761.556	0.0175888
761.634	0.0175957
761.712	0.0176231
761.790	0.0176170
761.869	0.0175550
761.947	0.0176635
762.025	0.0175553
762.103	0.0176399
762.181	0.0176402
762.259	0.0175783
762.337	0.0176574
762.415	0.0176707
762.494	0.0176759
762.572	0.0175837
762.650	0.0174229
762.728	0.0177016
762.806	0.0174066
762.884	0.0175928
762.962	0.0175787
763.040	0.0175606
763.119	0.0176366
763.197	0.0174037
763.275	0.0176273
763.353	0.0176511
763.431	0.0174598
763.509	0.0175088
763.587	0.0175316
763.665	0.0174334
763.744	0.0175500
763.822	0.0175497
763.900	0.0175938
763.978	0.0176705
764.056	0.0175340
764.134	0.0174899
764.212	0.0175826
764.290	0.0176242
764.369	0.0177345
764.447	0.0176089
764.525	0.0175376
764.603	0.0175886
764.681	0.0175959
764.759	0.0175240
764.837	0.0177323
764.915	0.0176903
764.994	0.0177261
765.072	0.0176566
765.150	0.0176815
765.228	0.0177069
765.306	0.0176619
765.384	0.0175989
765.462	0.0177412
765.540	0.0176723
765.619	0.0176265
765.697	0.0177939
765.775	0.0176333
765.853	0.0176248
765.931	0.0175655
766.009	0.0175507
766.087	0.0176546
766.165	0.0176620
766.244	0.0175295
766.322	0.0176439
766.400	0.0175941
766.478	0.0177615
766.556	0.0175454
766.634	0.0175514
766.712	0.0176160
766.790	0.0176232
766.869	0.0176224
766.947	0.0176186
767.025	0.0175893
767.103	0.0174057
767.181	0.0174594
767.259	0.0175040
767.337	0.0174724
767.415	0.0174749
767.494	0.0175356
767.572	0.0175067
767.650	0.0174818
767.728	0.0175353
767.806	0.0173354
767.884	0.0175779
767.962	0.0174706
768.040	0.0174607
768.119	0.0176650
768.197	0.0174635
768.275	0.0174564
768.353	0.0175863
768.431	0.0174329
768.509	0.0175407
768.587	0.0175313
768.665	0.0174658
768.744	0.0175941
768.822	0.0176405
768.900	0.0176342
768.978	0.0176046
769.056	0.0173794
769.134	0.0174004
769.212	0.0175114
769.290	0.0175932
769.369	0.0174157
769.447	0.0174656
769.525	0.0174203
769.603	0.0175769
769.681	0.0176340
769.759	0.0175307
769.837	0.0176348
769.915	0.0175144
769.994	0.0175755
770.072	0.0176340
770.150	0.0176453
770.228	0.0175493
770.306	0.0176100
770.384	0.0177146
770.462	0.0176789
770.540	0.0176585
770.619	0.0176513
770.697	0.0177702
770.775	0.0175300
770.853	0.0177079
770.931	0.0175596
771.009	0.0177936
771.087	0.0178014
771.165	0.0176586
771.244	0.0177148
771.322	0.0176910
771.400	0.0176491
771.478	0.0177106
771.556	0.0177736
771.634	0.0178440
771.712	0.0175726
771.790	0.0176624
771.869	0.0177376
771.947	0.0177629
772.025	0.0176781
772.103	0.0176991
772.181	0.0176492
772.259	0.0175809
772.337	0.0176908
772.415	0.0176862
772.494	0.0176775
772.572	0.0177032
772.650	0.0175349
772.728	0.0177126
772.806	0.0176920
772.884	0.0176633
772.962	0.0177056
773.040	0.0176642
773.119	0.0177261
773.197	0.0176135
773.275	0.0176009
773.353	0.0177926
773.431	0.0176765
773.509	0.0175156
773.587	0.0176896
773.665	0.0178289
773.744	0.0176213
773.822	0.0176905
773.900	0.0176665
773.978	0.0177310
774.056	0.0175671
774.134	0.0176231
774.212	0.0176831
774.290	0.0177405
774.369	0.0176983
774.447	0.0177272
774.525	0.0177743
774.603	0.0176411
774.681	0.0176763
774.759	0.0177992
774.837	0.0178825
774.915	0.0177286
774.994	0.0176197
775.072	0.0178777
775.150	0.0178448
775.228	0.0177725
775.306	0.0178537
775.384	0.0176811
775.462	0.0177548
775.540	0.0178676
775.619	0.0177490
775.697	0.0178001
775.775	0.0177549
775.853	0.0177113
775.931	0.0177789
776.009	0.0178197
776.087	0.0177513
776.165	0.0174536
776.244	0.0176513
776.322	0.0178028
776.400	0.0176141
776.478	0.0176434
776.556	0.0176180
776.634	0.0176472
776.712	0.0176624
776.790	0.0175409
776.869	0.0176910
776.947	0.0175500
777.025	0.0176218
777.103	0.0176241
777.181	0.0175595
777.259	0.0174628
777.337	0.0175725
777.415	0.0176933
777.494	0.0176685
777.572	0.0176435
777.650	0.0176881
777.728	0.0175807
777.806	0.0176011
777.884	0.0176593
777.962	0.0176221
778.040	0.0176996
778.119	0.0177080
778.197	0.0176604
778.275	0.0176263
778.353	0.0176634
778.431	0.0175397
778.509	0.0176699
778.587	0.0176939
778.665	0.0175108
778.744	0.0176702
778.822	0.0176202
778.900	0.0176353
778.978	0.0175364
779.056	0.0176827
779.134	0.0175277
779.212	0.0176432
779.290	0.0176856
779.369	0.0176436
779.447	0.0176312
779.525	0.0177331
779.603	0.0177280
779.681	0.0178209
779.759	0.0178056
779.837	0.0177837
779.915	0.0176493
779.994	0.0175559
780.072	0.0176614
780.150	0.0176742
780.228	0.0175539
780.306	0.0176162
780.384	0.0176573
780.462	0.0176101
780.540	0.0174802
780.619	0.0175526
780.697	0.0176340
780.775	0.0175207
780.853	0.0175626
780.931	0.0174951
781.009	0.0177070
781.087	0.0175010
781.165	0.0174474
781.244	0.0175144
781.322	0.0175628
781.400	0.0174674
781.478	0.0175542
781.556	0.0174508
781.634	0.0174181
781.712	0.0175674
781.790	0.0175188
781.869	0.0174570
781.947	0.0174559
782.025	0.0175044
782.103	0.0175093
782.181	0.0175877
782.259	0.0174946
782.337	0.0175112
782.415	0.0175710
782.494	0.0175684
782.572	0.0175288
782.650	0.0174030
782.728	0.0175015
782.806	0.0175668
782.884	0.0175500
782.962	0.0174102
783.040	0.0175452
783.119	0.0177080
783.197	0.0175898
783.275	0.0175643
783.353	0.0173650
783.431	0.0174317
783.509	0.0174633
783.587	0.0174045
783.665	0.0175977
783.744	0.0176319
783.822	0.0176535
783.900	0.0175815
783.978	0.0175126
784.056	0.0174329
784.134	0.0175470
784.212	0.0175851
784.290	0.0175314
784.369	0.0175397
784.447	0.0175800
784.525	0.0175209
784.603	0.0175348
784.681	0.0175863
784.759	0.0174422
784.837	0.0175664
784.915	0.0174313
784.994	0.0174690
785.072	0.0175668
785.150	0.0174182
785.228	0.0175751
785.306	0.0175912
785.384	0.0175495
785.462	0.0176299
785.540	0.0176900
785.619	0.0175408
785.697	0.0176594
785.775	0.0175460
785.853	0.0176957
785.931	0.0175723
786.009	0.0176250
786.087	0.0176418
786.165	0.0176324
786.244	0.0177590
786.322	0.0177652
786.400	0.0175349
786.478	0.0175742
786.556	0.0175977
786.634	0.0175905
786.712	0.0177038
786.790	0.0176404
786.869	0.0176398
786.947	0.0175287
787.025	0.0176473
787.103	0.0174484
787.181	0.0174690
787.259	0.0175424
787.337	0.0175996
787.415	0.0176500
787.494	0.0175383
787.572	0.0175195
787.650	0.0175241
787.728	0.0175420
787.806	0.0175591
787.884	0.0176762
787.962	0.0174307
788.040	0.0175107
788.119	0.0176527
788.197	0.0176001
788.275	0.0174797
788.353	0.0174855
788.431	0.0174885
788.509	0.0176170
788.587	0.0175840
788.665	0.0174543
788.744	0.0176258
788.822	0.0176002
788.900	0.0175286
788.978	0.0174511
789.056	0.0174185
789.134	0.0175705
789.212	0.0175886
789.290	0.0176087
789.369	0.0175085
789.447	0.0173523
789.525	0.0174095
789.603	0.0176570
789.681	0.0175452
789.759	0.0175362
789.837	0.0174809
789.915	0.0175550
789.994	0.0175388
790.072	0.0175108
790.150	0.0177212
790.228	0.0176511
790.306	0.0175138
790.384	0.0175268
790.462	0.0175160
790.540	0.0175466
790.619	0.0174464
790.697	0.0173891
790.775	0.0174462
790.853	0.0176710
790.931	0.0176291
791.009	0.0175980
791.087	0.0175942
791.165	0.0174509
791.244	0.0175794
791.322	0.0175757
791.400	0.0175529
791.478	0.0175943
791.556	0.0176589
791.634	0.0175488
791.712	0.0176479
791.790	0.0175809
791.869	0.0175668
791.947	0.0177251
792.025	0.0176806
792.103	0.0175594
792.181	0.0175892
792.259	0.0176621
792.337	0.0175491
792.415	0.0175026
792.494	0.0176682
792.572	0.0177029
792.650	0.0175782
792.728	0.0175996
792.806	0.0177377
792.884	0.0176488
792.962	0.0175271
793.040	0.0177174
793.119	0.0175349
793.197	0.0175866
793.275	0.0175703
793.353	0.0174659
793.431	0.0174387
793.509	0.0175758
793.587	0.0174442
793.665	0.0176762
793.744	0.0175048
793.822	0.0174092
793.900	0.0175594
793.978	0.0175006
794.056	0.0174884
794.134	0.0175884
794.212	0.0175703
794.290	0.0174468
794.369	0.0175330
794.447	0.0176460
794.525	0.0177010
794.603	0.0177299
794.681	0.0176115
794.759	0.0176617
794.837	0.0176087
794.915	0.0178249
794.994	0.0177103
795.072	0.0176453
795.150	0.0177316
795.228	0.0177487
795.306	0.0177321
795.384	0.0175388
795.462	0.0177596
795.540	0.0177687
795.619	0.0176830
795.697	0.0175861
795.775	0.0176217
795.853	0.0177322
795.931	0.0175977
796.009	0.0176842
796.087	0.0176514
796.165	0.0175748
796.244	0.0176091
796.322	0.0176218
796.400	0.0177505
796.478	0.0175409
796.556	0.0176255
796.634	0.0178149
796.712	0.0176958
796.790	0.0175913
796.869	0.0176982
796.947	0.0175243
797.025	0.0176049
797.103	0.0175394
797.181	0.0175326
797.259	0.0175937
797.337	0.0176608
797.415	0.0175303
797.494	0.0175261
797.572	0.0175386
797.650	0.0174576
797.728	0.0174846
797.806	0.0174355
797.884	0.0175648
797.962	0.0174792
798.040	0.0176144
798.119	0.0174589
798.197	0.0175542
798.275	0.0174617
798.353	0.0175620
798.431	0.0175415
798.509	0.0175964
798.587	0.0176935
798.665	0.0176356
798.744	0.0175725
798.822	0.0175305
798.900	0.0175956
798.978	0.0178019
799.056	0.0177119
799.134	0.0177596
799.212	0.0177573
799.290	0.0176730
799.369	0.0176241
799.447	0.0177917
799.525	0.0178953
799.603	0.0177134
799.681	0.0176318
799.759	0.0177506
799.837	0.0176019
799.915	0.0177059
799.994	0.0178572
800.072	0.0176819
800.150	0.0175382
800.228	0.0176634
800.306	0.0177274
800.384	0.0177274
800.462	0.0177876
800.540	0.0176740
800.619	0.0177644
800.697	0.0176648
800.775	0.0176971
800.853	0.0175289
800.931	0.0176044
801.009	0.0176164
801.087	0.0177197
801.165	0.0176881
801.244	0.0175412
801.322	0.0176551
801.400	0.0175986
801.478	0.0176051
801.556	0.0177187
801.634	0.0175189
801.712	0.0175774
801.790	0.0176780
801.869	0.0176380
801.947	0.0176564
802.025	0.0176163
802.103	0.0177746
802.181	0.0175317
802.259	0.0176281
802.337	0.0175330
802.415	0.0175481
802.494	0.0176788
802.572	0.0176154
802.650	0.0176184
802.728	0.0176549
802.806	0.0175334
802.884	0.0174929
802.962	0.0176891
803.040	0.0175343
803.119	0.0174873
803.197	0.0175913
803.275	0.0175984
803.353	0.0175767
803.431	0.0176504
803.509	0.0175702
803.587	0.0175373
803.665	0.0175648
803.744	0.0175430
803.822	0.0176077
803.900	0.0175433
803.978	0.0175565
804.056	0.0176982
804.134	0.0175421
804.212	0.0175317
804.290	0.0175043
804.369	0.0176426
804.447	0.0175867
804.525	0.0175499
804.603	0.0174655
804.681	0.0175728
804.759	0.0176230
804.837	0.0175218
804.915	0.0175581
804.994	0.0175497
805.072	0.0176182
805.150	0.0175157
805.228	0.0174395
805.306	0.0175831
805.384	0.0176034
805.462	0.0174793
805.540	0.0174622
805.619	0.0175129
805.697	0.0174861
805.775	0.0175440
805.853	0.0176042
805.931	0.0176168
806.009	0.0175220
806.087	0.0175592
806.165	0.0175810
806.244	0.0175400
806.322	0.0176405
806.400	0.0175199
806.478	0.0175822
806.556	0.0177139
806.634	0.0175790
806.712	0.0175961
806.790	0.0176423
806.869	0.0176159
806.947	0.0177080
807.025	0.0177622
807.103	0.0176804
807.181	0.0176532
807.259	0.0177604
807.337	0.0176488
807.415	0.0176031
807.494	0.0175834
807.572	0.0176567
807.650	0.0176648
807.728	0.0176009
807.806	0.0177569
807.884	0.0177115
807.962	0.0176353
808.040	0.0177356
808.119	0.0176362
808.197	0.0177496
808.275	0.0176822
808.353	0.0176437
808.431	0.0177645
808.509	0.0177710
808.587	0.0178209
808.665	0.0176688
808.744	0.0175697
808.822	0.0176610
808.900	0.0178236
808.978	0.0177019
809.056	0.0176482
809.134	0.0176997
809.212	0.0177058
809.290	0.0177045
809.369	0.0177245
809.447	0.0176987
809.525	0.0176604
809.603	0.0176146
809.681	0.0177385
809.759	0.0176345
809.837	0.0176289
809.915	0.0175796
809.994	0.0176316
810.072	0.0176372
810.150	0.0176300
810.228	0.0177874
810.306	0.0176772
810.384	0.0176121
810.462	0.0176742
810.540	0.0175053
810.619	0.0175654
810.697	0.0176749
810.775	0.0176140
810.853	0.0176707
810.931	0.0176230
811.009	0.0176089
811.087	0.0175077
811.165	0.0175672
811.244	0.0175278
811.322	0.0175289
811.400	0.0175616
811.478	0.0175514
811.556	0.0175090
811.634	0.0174833
811.712	0.0174727
811.790	0.0175610
811.869	0.0175401
811.947	0.0175489
812.025	0.0176781
812.103	0.0176007
812.181	0.0175841
812.259	0.0175171
812.337	0.0175481
812.415	0.0176732
812.494	0.0175867
812.572	0.0175341
812.650	0.0175880
812.728	0.0175741
812.806	0.0176151
812.884	0.0175567
812.962	0.0176284
813.040	0.0176886
813.119	0.0176735
813.197	0.0176480
813.275	0.0175993
813.353	0.0175368
813.431	0.0175111
813.509	0.0176504
813.587	0.0176288
813.665	0.0177348
813.744	0.0177271
813.822	0.0175832
813.900	0.0175952
813.978	0.0176964
814.056	0.0176245
814.134	0.0175887
814.212	0.0175965
814.290	0.0176422
814.369	0.0176379
814.447	0.0176365
814.525	0.0176556
814.603	0.0176122
814.681	0.0174975
814.759	0.0175712
814.837	0.0176996
814.915	0.0176304
814.994	0.0175674
815.072	0.0176913
815.150	0.0176403
815.228	0.0175748
815.306	0.0176503
815.384	0.0175761
815.462	0.0175488
815.540	0.0177174
815.619	0.0177180
815.697	0.0175675
815.775	0.0175852
815.853	0.0176981
815.931	0.0176751
816.009	0.0175766
816.087	0.0175414
816.165	0.0177244
816.244	0.0175427
816.322	0.0175990
816.400	0.0178101
816.478	0.0176807
816.556	0.0176453
816.634	0.0176816
816.712	0.0178252
816.790	0.0178443
816.869	0.0176979
816.947	0.0178882
817.025	0.0177181
817.103	0.0177936
817.181	0.0177461
817.259	0.0177839
817.337	0.0177309
817.415	0.0176913
817.494	0.0176040
817.572	0.0176762
817.650	0.0177721
817.728	0.0177548
817.806	0.0178270
817.884	0.0176657
817.962	0.0175021
818.040	0.0177081
818.119	0.0176382
818.197	0.0178526
818.275	0.0176551
818.353	0.0178030
818.431	0.0176937
818.509	0.0177270
818.587	0.0176479
818.665	0.0176846
818.744	0.0176922
818.822	0.0175585
818.900	0.0175122
818.978	0.0177113
819.056	0.0177332
819.134	0.0177264
819.212	0.0176653
819.290	0.0177289
819.369	0.0175788
819.447	0.0176093
819.525	0.0175980
819.603	0.0176410
819.681	0.0176460
819.759	0.0175658
819.837	0.0175886
819.915	0.0177376
819.994	0.0176707
820.072	0.0175613
820.150	0.0175613
820.228	0.0177693
820.306	0.0175265
820.384	0.0177209
820.462	0.0176661
820.540	0.0176490
820.619	0.0174880
820.697	0.0174838
820.775	0.0176461
820.853	0.0175751
820.931	0.0174223
821.009	0.0176685
821.087	0.0175919
821.165	0.0173293
821.244	0.0175047
821.322	0.0176746
821.400	0.0175049
821.478	0.0175934
821.556	0.0175360
821.634	0.0175260
821.712	0.0175629
821.790	0.0174303
821.869	0.0176044
821.947	0.0175285
822.025	0.0176369
822.103	0.0175056
822.181	0.0175593
822.259	0.0175298
822.337	0.0173991
822.415	0.0175342
822.494	0.0177347
822.572	0.0176620
822.650	0.0177579
822.728	0.0175813
822.806	0.0175745
822.884	0.0175893
822.962	0.0177241
823.040	0.0176818
823.119	0.0175724
823.197	0.0176117
823.275	0.0176693
823.353	0.0176167
823.431	0.0177245
823.509	0.0176684
823.587	0.0175647
823.665	0.0175395
823.744	0.0176064
823.822	0.0174755
823.900	0.0176035
823.978	0.0175754
824.056	0.0174573
824.134	0.0175399
824.212	0.0174899
824.290	0.0175383
824.369	0.0174993
824.447	0.0174954
824.525	0.0175517
824.603	0.0175349
824.681	0.0174416
824.759	0.0174770
824.837	0.0176199
824.915	0.0174866
824.994	0.0174878
825.072	0.0175377
825.150	0.0176785
825.228	0.0176546
825.306	0.0176568
825.384	0.0176392
825.462	0.0176593
825.540	0.0176157
825.619	0.0176491
825.697	0.0176909
825.775	0.0176642
825.853	0.0176480
825.931	0.0177109
826.009	0.0177537
826.087	0.0176859
826.165	0.0175745
826.244	0.0176483
826.322	0.0177420
826.400	0.0176404
826.478	0.0175147
826.556	0.0175761
826.634	0.0177283
826.712	0.0177148
826.790	0.0176785
826.869	0.0176747
826.947	0.0175695
827.025	0.0176031
827.103	0.0176228
827.181	0.0175490
827.259	0.0176749
827.337	0.0176799
827.415	0.0176263
827.494	0.0176113
827.572	0.0175462
827.650	0.0175180
827.728	0.0176416
827.806	0.0176470
827.884	0.0175060
827.962	0.0176953
828.040	0.0177126
828.119	0.0175739
828.197	0.0176382
828.275	0.0176261
828.353	0.0177198
828.431	0.0175823
828.509	0.0177088
828.587	0.0176581
828.665	0.0176625
828.744	0.0177297
828.822	0.0177328
828.900	0.0176962
828.978	0.0175567
829.056	0.0176095
829.134	0.0178184
829.212	0.0176377
829.290	0.0177654
829.369	0.0178884
829.447	0.0178045
829.525	0.0178057
829.603	0.0178139
829.681	0.0177264
829.759	0.0178227
829.837	0.0178658
829.915	0.0177018
829.994	0.0178283
830.072	0.0179530
830.150	0.0179604
830.228	0.0179343
830.306	0.0178106
830.384	0.0177397
830.462	0.0177975
830.540	0.0177144
830.619	0.0178622
830.697	0.0178248
830.775	0.0177335
830.853	0.0176970
830.931	0.0176649
831.009	0.0177112
831.087	0.0177425
831.165	0.0177959
831.244	0.0177167
831.322	0.0177798
831.400	0.0176956
831.478	0.0176601
831.556	0.0176624
831.634	0.0176086
831.712	0.0175134
831.790	0.0176683
831.869	0.0177016
831.947	0.0176433
832.025	0.0175607
832.103	0.0176682
832.181	0.0177055
832.259	0.0176018
832.337	0.0176398
832.415	0.0176089
832.494	0.0176799
832.572	0.0174216
832.650	0.0177527
832.728	0.0175828
832.806	0.0176768
832.884	0.0176038
832.962	0.0176142
833.040	0.0175909
833.119	0.0176709
833.197	0.0177560
833.275	0.0176656
833.353	0.0176321
833.431	0.0176975
833.509	0.0176982
833.587	0.0176847
833.665	0.0178217
833.744	0.0176938
833.822	0.0177763
833.900	0.0177232
833.978	0.0176448
834.056	0.0177747
834.134	0.0177605
834.212	0.0177033
834.290	0.0177033
834.369	0.0176665
834.447	0.0178007
834.525	0.0177509
834.603	0.0176196
834.681	0.0177604
834.759	0.0176216
834.837	0.0177630
834.915	0.0177773
834.994	0.0177248
835.072	0.0176477
835.150	0.0177341
835.228	0.0177570
835.306	0.0177035
835.384	0.0177650
835.462	0.0178455
835.540	0.0177190
835.619	0.0178296
835.697	0.0176749
835.775	0.0176998
835.853	0.0176922
835.931	0.0176714
836.009	0.0177836
836.087	0.0176360
836.165	0.0177827
836.244	0.0177036
836.322	0.0175652
836.400	0.0177705
836.478	0.0176537
836.556	0.0176711
836.634	0.0176206
836.712	0.0176228
836.790	0.0176768
836.869	0.0177234
836.947	0.0175584
837.025	0.0176453
837.103	0.0175980
837.181	0.0175554
837.259	0.0175477
837.337	0.0176288
837.415	0.0175163
837.494	0.0175515
837.572	0.0174976
837.650	0.0176072
837.728	0.0176372
837.806	0.0176114
837.884	0.0177094
837.962	0.0175076
838.040	0.0175934
838.119	0.0175890
838.197	0.0176902
838.275	0.0177430
838.353	0.0176870
838.431	0.0176703
838.509	0.0175716
838.587	0.0176684
838.665	0.0177335
838.744	0.0176635
838.822	0.0177157
838.900	0.0176847
838.978	0.0176736
839.056	0.0177405
839.134	0.0176977
839.212	0.0176424
839.290	0.0178114
839.369	0.0178383
839.447	0.0176709
839.525	0.0177074
839.603	0.0177501
839.681	0.0176998
839.759	0.0177859
839.837	0.0176775
839.915	0.0177176
839.994	0.0179070
840.072	0.0178506
840.150	0.0177014
840.228	0.0176582
840.306	0.0178157
840.384	0.0177525
840.462	0.0178449
840.540	0.0178117
840.619	0.0178937
840.697	0.0178014
840.775	0.0177817
840.853	0.0178177
840.931	0.0177670
841.009	0.0178188
841.087	0.0177723
841.165	0.0178465
841.244	0.0178772
841.322	0.0178487
841.400	0.0177718
841.478	0.0177617
841.556	0.0177934
841.634	0.0177192
841.712	0.0176646
841.790	0.0176441
841.869	0.0176527
841.947	0.0176557
842.025	0.0176871
842.103	0.0177122
842.181	0.0176855
842.259	0.0176753
842.337	0.0176022
842.415	0.0174760
842.494	0.0175842
842.572	0.0176113
842.650	0.0175772
842.728	0.0174384
842.806	0.0174863
842.884	0.0175795
842.962	0.0175848
843.040	0.0174979
843.119	0.0174478
843.197	0.0176974
843.275	0.0176268
843.353	0.0174272
843.431	0.0175056
843.509	0.0176031
843.587	0.0175725
843.665	0.0175230
843.744	0.0175113
843.822	0.0174205
843.900	0.0176102
843.978	0.0177477
844.056	0.0174770
844.134	0.0175156
844.212	0.0175903
844.290	0.0175784
844.369	0.0173917
844.447	0.0175127
844.525	0.0176162
844.603	0.0175465
844.681	0.0175385
844.759	0.0176216
844.837	0.0176777
844.915	0.0176151
844.994	0.0175291
845.072	0.0176879
845.150	0.0176367
845.228	0.0177074
845.306	0.0175974
845.384	0.0176181
845.462	0.0175462
845.540	0.0175909
845.619	0.0177332
845.697	0.0177554
845.775	0.0177235
845.853	0.0178034
845.931	0.0176603
846.009	0.0177380
846.087	0.0176483
846.165	0.0176987
846.244	0.0176942
846.322	0.0177554
846.400	0.0177753
846.478	0.0177045
846.556	0.0175992
846.634	0.0177219
846.712	0.0177077
846.790	0.0176978
846.869	0.0176005
846.947	0.0176453
847.025	0.0176251
847.103	0.0176270
847.181	0.0175680
847.259	0.0176504
847.337	0.0176653
847.415	0.0175913
847.494	0.0176376
847.572	0.0176727
847.650	0.0176694
847.728	0.0176926
847.806	0.0177317
847.884	0.0176788
847.962	0.0177365
848.040	0.0176156
848.119	0.0178027
848.197	0.0177399
848.275	0.0177080
848.353	0.0176495
848.431	0.0176255
848.509	0.0176723
848.587	0.0176826
848.665	0.0175513
848.744	0.0176607
848.822	0.0176740
848.900	0.0176960
848.978	0.0176797
849.056	0.0176412
849.134	0.0177486
849.212	0.0176492
849.290	0.0176834
849.369	0.0176305
849.447	0.0176009
849.525	0.0176565
849.603	0.0176995
849.681	0.0176324
849.759	0.0176563
849.837	0.0176713
849.915	0.0177139
849.994	0.0175906
850.072	0.0177606
850.150	0.0178651
850.228	0.0176255
850.306	0.0177500
850.384	0.0178617
850.462	0.0177471
850.540	0.0175797
850.619	0.0177319
850.697	0.0178260
850.775	0.0178046
850.853	0.0177812
850.931	0.0176775
851.009	0.0177602
851.087	0.0176968
851.165	0.0176286
851.244	0.0178219
851.322	0.0178160
851.400	0.0176840
851.478	0.0177551
851.556	0.0176855
851.634	0.0176732
851.712	0.0177759
851.790	0.0178886
851.869	0.0177761
851.947	0.0176831
852.025	0.0176727
852.103	0.0178133
852.181	0.0177070
852.259	0.0176357
852.337	0.0176553
852.415	0.0177532
852.494	0.0177108
852.572	0.0176181
852.650	0.0176477
852.728	0.0176846
852.806	0.0175469
852.884	0.0177036
852.962	0.0176639
853.040	0.0174922
853.119	0.0177122
853.197	0.0177144
853.275	0.0176815
853.353	0.0176632
853.431	0.0176324
853.509	0.0176079
853.587	0.0175915
853.665	0.0177873
853.744	0.0177829
853.822	0.0177681
853.900	0.0177417
853.978	0.0177502
854.056	0.0177983
854.134	0.0178371
854.212	0.0176539
854.290	0.0177651
854.369	0.0178098
854.447	0.0176117
854.525	0.0177982
854.603	0.0176896
854.681	0.0178055
854.759	0.0177837
854.837	0.0176443
854.915	0.0177296
854.994	0.0178074
855.072	0.0177507
855.150	0.0178164
855.228	0.0176924
855.306	0.0178095
855.384	0.0177020
855.462	0.0177229
855.540	0.0177577
855.619	0.0177238
855.697	0.0177020
855.775	0.0176766
855.853	0.0177167
855.931	0.0175967
856.009	0.0176855
856.087	0.0176098
856.165	0.0176653
856.244	0.0176710
856.322	0.0176257
856.400	0.0176105
856.478	0.0176842
856.556	0.0175719
856.634	0.0176652
856.712	0.0176405
856.790	0.0175552
856.869	0.0175658
856.947	0.0175999
857.025	0.0176870
857.103	0.0176025
857.181	0.0177724
857.259	0.0178042
857.337	0.0176140
857.415	0.0177235
857.494	0.0176354
857.572	0.0176101
857.650	0.0176528
857.728	0.0175510
857.806	0.0177323
857.884	0.0176178
857.962	0.0175021
858.040	0.0175905
858.119	0.0175679
858.197	0.0175068
858.275	0.0176656
858.353	0.0175858
858.431	0.0175011
858.509	0.0174520
858.587	0.0174963
858.665	0.0175054
858.744	0.0174952
858.822	0.0176697
858.900	0.0175359
858.978	0.0173164
859.056	0.0174836
859.134	0.0173622
859.212	0.0175296
859.290	0.0175997
859.369	0.0175815
859.447	0.0175602
859.525	0.0175247
859.603	0.0175105
859.681	0.0175750
859.759	0.0175564
859.837	0.0175602
859.915	0.0175640
