06/01/2022	18:02:09	Ver.	4.1	UNKNOWN
Optical Delay	539.993571	Delta X		0.078125	Sweeps	1	Scan Rate	0/0
Coordinates	Axis 1	NaN	Axis 2	NaN	Axis 3	NaN	Axis 4	NaN	Axis 5	NaN	Axis 6	0.000000
TX Power	0.000000	RX Power	0.000000

539.994	0.0170672
540.072	0.0164883
540.150	0.0165675
540.228	0.0166516
540.306	0.0166037
540.384	0.0165029
540.462	0.0165581
540.540	0.0166577
540.619	0.0165620
540.697	0.0165981
540.775	0.0165443
540.853	0.0166558
540.931	0.0166194
541.009	0.0165682
541.087	0.0166560
541.165	0.0168542
541.244	0.0168082
541.322	0.0167757
541.400	0.0169115
541.478	0.0169175
541.556	0.0168884
541.634	0.0168806
541.712	0.0168288
541.790	0.0169607
541.869	0.0168588
541.947	0.0169845
542.025	0.0169460
542.103	0.0168315
542.181	0.0171505
542.259	0.0170450
542.337	0.0170514
542.415	0.0170699
542.494	0.0169582
542.572	0.0170869
542.650	0.0170342
542.728	0.0170547
542.806	0.0170215
542.884	0.0171001
542.962	0.0172137
543.040	0.0171061
543.119	0.0173064
543.197	0.0172907
543.275	0.0171408
543.353	0.0171806
543.431	0.0172243
543.509	0.0171687
543.587	0.0169920
543.665	0.0172106
543.744	0.0171470
543.822	0.0171599
543.900	0.0171509
543.978	0.0170905
544.056	0.0170972
544.134	0.0170741
544.212	0.0170309
544.290	0.0171562
544.369	0.0170004
544.447	0.0171027
544.525	0.0171489
544.603	0.0169891
544.681	0.0169484
544.759	0.0170315
544.837	0.0169261
544.915	0.0170061
544.994	0.0170088
545.072	0.0171505
545.150	0.0170068
545.228	0.0169264
545.306	0.0168912
545.384	0.0171765
545.462	0.0170744
545.540	0.0170335
545.619	0.0170612
545.697	0.0170578
545.775	0.0172095
545.853	0.0169772
545.931	0.0172316
546.009	0.0170985
546.087	0.0171578
546.165	0.0171471
546.244	0.0171807
546.322	0.0172102
546.400	0.0170377
546.478	0.0170641
546.556	0.0171081
546.634	0.0170367
546.712	0.0170869
546.790	0.0171970
546.869	0.0171176
546.947	0.0171358
547.025	0.0173086
547.103	0.0173085
547.181	0.0172414
547.259	0.0172204
547.337	0.0172765
547.415	0.0173795
547.494	0.0174126
547.572	0.0174149
547.650	0.0174242
547.728	0.0173757
547.806	0.0175155
547.884	0.0175561
547.962	0.0174878
548.040	0.0176476
548.119	0.0175757
548.197	0.0175381
548.275	0.0173457
548.353	0.0174198
548.431	0.0174648
548.509	0.0174093
548.587	0.0174048
548.665	0.0172849
548.744	0.0171171
548.822	0.0171867
548.900	0.0172238
548.978	0.0170892
549.056	0.0172050
549.134	0.0170312
549.212	0.0169687
549.290	0.0170793
549.369	0.0169234
549.447	0.0169814
549.525	0.0168121
549.603	0.0168622
549.681	0.0168527
549.759	0.0168527
549.837	0.0168352
549.915	0.0167963
549.994	0.0168653
550.072	0.0168222
550.150	0.0169303
550.228	0.0167641
550.306	0.0169099
550.384	0.0167956
550.462	0.0169458
550.540	0.0168666
550.619	0.0168106
550.697	0.0169415
550.775	0.0167979
550.853	0.0167164
550.931	0.0169128
551.009	0.0166684
551.087	0.0167634
551.165	0.0167790
551.244	0.0168907
551.322	0.0168640
551.400	0.0167508
551.478	0.0166628
551.556	0.0167837
551.634	0.0168104
551.712	0.0167209
551.790	0.0166650
551.869	0.0166039
551.947	0.0166432
552.025	0.0169228
552.103	0.0169130
552.181	0.0168594
552.259	0.0168986
552.337	0.0169631
552.415	0.0171488
552.494	0.0172092
552.572	0.0171868
552.650	0.0172299
552.728	0.0171333
552.806	0.0171291
552.884	0.0171796
552.962	0.0169302
553.040	0.0167871
553.119	0.0167714
553.197	0.0168056
553.275	0.0167594
553.353	0.0165996
553.431	0.0167282
553.509	0.0167942
553.587	0.0168103
553.665	0.0167589
553.744	0.0166849
553.822	0.0169058
553.900	0.0170452
553.978	0.0169860
554.056	0.0170609
554.134	0.0170554
554.212	0.0171925
554.290	0.0171712
554.369	0.0171716
554.447	0.0172346
554.525	0.0171958
554.603	0.0172447
554.681	0.0173296
554.759	0.0173393
554.837	0.0173405
554.915	0.0173328
554.994	0.0173635
555.072	0.0175123
555.150	0.0173843
555.228	0.0173312
555.306	0.0172276
555.384	0.0173569
555.462	0.0173690
555.540	0.0171997
555.619	0.0172523
555.697	0.0170361
555.775	0.0171767
555.853	0.0171185
555.931	0.0170644
556.009	0.0170058
556.087	0.0169852
556.165	0.0171622
556.244	0.0170580
556.322	0.0170146
556.400	0.0170382
556.478	0.0170844
556.556	0.0171569
556.634	0.0171955
556.712	0.0171634
556.790	0.0173098
556.869	0.0171282
556.947	0.0169958
557.025	0.0172782
557.103	0.0170791
557.181	0.0170237
557.259	0.0169812
557.337	0.0169488
557.415	0.0169969
557.494	0.0168206
557.572	0.0167983
557.650	0.0167150
557.728	0.0166444
557.806	0.0167123
557.884	0.0167255
557.962	0.0166726
558.040	0.0166465
558.119	0.0167398
558.197	0.0166219
558.275	0.0166418
558.353	0.0167439
558.431	0.0168938
558.509	0.0168350
558.587	0.0168032
558.665	0.0169882
558.744	0.0169510
558.822	0.0167912
558.900	0.0168264
558.978	0.0168194
559.056	0.0167787
559.134	0.0165347
559.212	0.0166254
559.290	0.0164111
559.369	0.0165176
559.447	0.0164486
559.525	0.0162194
559.603	0.0160883
559.681	0.0161607
559.759	0.0160997
559.837	0.0160500
559.915	0.0159976
559.994	0.0160332
560.072	0.0159780
560.150	0.0160054
560.228	0.0163055
560.306	0.0162570
560.384	0.0162062
560.462	0.0163633
560.540	0.0163189
560.619	0.0163820
560.697	0.0166332
560.775	0.0166973
560.853	0.0167390
560.931	0.0166939
561.009	0.0166743
561.087	0.0167515
561.165	0.0167944
561.244	0.0167202
561.322	0.0167109
561.400	0.0166536
561.478	0.0165089
561.556	0.0164557
561.634	0.0164098
561.712	0.0164543
561.790	0.0165777
561.869	0.0164565
561.947	0.0165329
562.025	0.0166177
562.103	0.0165918
562.181	0.0165369
562.259	0.0164820
562.337	0.0164667
562.415	0.0165304
562.494	0.0166227
562.572	0.0167181
562.650	0.0166726
562.728	0.0167062
562.806	0.0166325
562.884	0.0167947
562.962	0.0167658
563.040	0.0167868
563.119	0.0168243
563.197	0.0168452
563.275	0.0167626
563.353	0.0166972
563.431	0.0170726
563.509	0.0170333
563.587	0.0168652
563.665	0.0169473
563.744	0.0170477
563.822	0.0170512
563.900	0.0171562
563.978	0.0171816
564.056	0.0171435
564.134	0.0170778
564.212	0.0170929
564.290	0.0172643
564.369	0.0174394
564.447	0.0172826
564.525	0.0173525
564.603	0.0173634
564.681	0.0174105
564.759	0.0174113
564.837	0.0173264
564.915	0.0172512
564.994	0.0173750
565.072	0.0172469
565.150	0.0171523
565.228	0.0170736
565.306	0.0169643
565.384	0.0171568
565.462	0.0170357
565.540	0.0167762
565.619	0.0166780
565.697	0.0166707
565.775	0.0168517
565.853	0.0168226
565.931	0.0167315
566.009	0.0166787
566.087	0.0167765
566.165	0.0167892
566.244	0.0168255
566.322	0.0168317
566.400	0.0168007
566.478	0.0168934
566.556	0.0166848
566.634	0.0168495
566.712	0.0168469
566.790	0.0168222
566.869	0.0169183
566.947	0.0169003
567.025	0.0167615
567.103	0.0168045
567.181	0.0167657
567.259	0.0168829
567.337	0.0170087
567.415	0.0168060
567.494	0.0167513
567.572	0.0168027
567.650	0.0168766
567.728	0.0168179
567.806	0.0168192
567.884	0.0167410
567.962	0.0168094
568.040	0.0169241
568.119	0.0168822
568.197	0.0169364
568.275	0.0169598
568.353	0.0171117
568.431	0.0169778
568.509	0.0170637
568.587	0.0170164
568.665	0.0170357
568.744	0.0170760
568.822	0.0169344
568.900	0.0171571
568.978	0.0170469
569.056	0.0169269
569.134	0.0168501
569.212	0.0169141
569.290	0.0169486
569.369	0.0169808
569.447	0.0168023
569.525	0.0166625
569.603	0.0167650
569.681	0.0166143
569.759	0.0165539
569.837	0.0165813
569.915	0.0164511
569.994	0.0163820
570.072	0.0165612
570.150	0.0163823
570.228	0.0163149
570.306	0.0164705
570.384	0.0161932
570.462	0.0162917
570.540	0.0163783
570.619	0.0163717
570.697	0.0162462
570.775	0.0163808
570.853	0.0163850
570.931	0.0161681
571.009	0.0159695
571.087	0.0159328
571.165	0.0157769
571.244	0.0159695
571.322	0.0157383
571.400	0.0156869
571.478	0.0155622
571.556	0.0155373
571.634	0.0155379
571.712	0.0156916
571.790	0.0156500
571.869	0.0157070
571.947	0.0160233
572.025	0.0159346
572.103	0.0160368
572.181	0.0163271
572.259	0.0164096
572.337	0.0164505
572.415	0.0165377
572.494	0.0164294
572.572	0.0165890
572.650	0.0167986
572.728	0.0166714
572.806	0.0167107
572.884	0.0167778
572.962	0.0168455
573.040	0.0168532
573.119	0.0169955
573.197	0.0169997
573.275	0.0170960
573.353	0.0172536
573.431	0.0171777
573.509	0.0173612
573.587	0.0174849
573.665	0.0174430
573.744	0.0175642
573.822	0.0177245
573.900	0.0175993
573.978	0.0177135
574.056	0.0178459
574.134	0.0177765
574.212	0.0177257
574.290	0.0177845
574.369	0.0178345
574.447	0.0176655
574.525	0.0175843
574.603	0.0174901
574.681	0.0173624
574.759	0.0173409
574.837	0.0172804
574.915	0.0171443
574.994	0.0171128
575.072	0.0171723
575.150	0.0171287
575.228	0.0169915
575.306	0.0169478
575.384	0.0167950
575.462	0.0169855
575.540	0.0169653
575.619	0.0168822
575.697	0.0170266
575.775	0.0169507
575.853	0.0168843
575.931	0.0169850
576.009	0.0169822
576.087	0.0169957
576.165	0.0169130
576.244	0.0170276
576.322	0.0170432
576.400	0.0169369
576.478	0.0170570
576.556	0.0170070
576.634	0.0169343
576.712	0.0170036
576.790	0.0169970
576.869	0.0169312
576.947	0.0170804
577.025	0.0171370
577.103	0.0172530
577.181	0.0172254
577.259	0.0172300
577.337	0.0173615
577.415	0.0173266
577.494	0.0173499
577.572	0.0175639
577.650	0.0174561
577.728	0.0175563
577.806	0.0175805
577.884	0.0177051
577.962	0.0175954
578.040	0.0174440
578.119	0.0176009
578.197	0.0176170
578.275	0.0176331
578.353	0.0177959
578.431	0.0176606
578.509	0.0175502
578.587	0.0174744
578.665	0.0174220
578.744	0.0175436
578.822	0.0174301
578.900	0.0172421
578.978	0.0172163
579.056	0.0172581
579.134	0.0172799
579.212	0.0171381
579.290	0.0171539
579.369	0.0169034
579.447	0.0170174
579.525	0.0168681
579.603	0.0169544
579.681	0.0169161
579.759	0.0168028
579.837	0.0168834
579.915	0.0168244
579.994	0.0167823
580.072	0.0168576
580.150	0.0167924
580.228	0.0166001
580.306	0.0167344
580.384	0.0165710
580.462	0.0165585
580.540	0.0164669
580.619	0.0164583
580.697	0.0164285
580.775	0.0162606
580.853	0.0161884
580.931	0.0160392
581.009	0.0160196
581.087	0.0159217
581.165	0.0158559
581.244	0.0159086
581.322	0.0157856
581.400	0.0158319
581.478	0.0158391
581.556	0.0156770
581.634	0.0158292
581.712	0.0157824
581.790	0.0155258
581.869	0.0156282
581.947	0.0156871
582.025	0.0157720
582.103	0.0158961
582.181	0.0157865
582.259	0.0159054
582.337	0.0160584
582.415	0.0160061
582.494	0.0161127
582.572	0.0163152
582.650	0.0162351
582.728	0.0161971
582.806	0.0163531
582.884	0.0164489
582.962	0.0164058
583.040	0.0163609
583.119	0.0161329
583.197	0.0160834
583.275	0.0159229
583.353	0.0160729
583.431	0.0159414
583.509	0.0159183
583.587	0.0159260
583.665	0.0158510
583.744	0.0159438
583.822	0.0159746
583.900	0.0160333
583.978	0.0162177
584.056	0.0161529
584.134	0.0163260
584.212	0.0163202
584.290	0.0163393
584.369	0.0166850
584.447	0.0166318
584.525	0.0167580
584.603	0.0169920
584.681	0.0169902
584.759	0.0170145
584.837	0.0172327
584.915	0.0172916
584.994	0.0174143
585.072	0.0174307
585.150	0.0174797
585.228	0.0176311
585.306	0.0176376
585.384	0.0175893
585.462	0.0176467
585.540	0.0176438
585.619	0.0177756
585.697	0.0174552
585.775	0.0173066
585.853	0.0172779
585.931	0.0171827
586.009	0.0171595
586.087	0.0168986
586.165	0.0165998
586.244	0.0166129
586.322	0.0166127
586.400	0.0163887
586.478	0.0163792
586.556	0.0161572
586.634	0.0161528
586.712	0.0159557
586.790	0.0158219
586.869	0.0158398
586.947	0.0155769
587.025	0.0155331
587.103	0.0157059
587.181	0.0156593
587.259	0.0156339
587.337	0.0155955
587.415	0.0157403
587.494	0.0157808
587.572	0.0156901
587.650	0.0157175
587.728	0.0160565
587.806	0.0159681
587.884	0.0161488
587.962	0.0163372
588.040	0.0163470
588.119	0.0165205
588.197	0.0164930
588.275	0.0168134
588.353	0.0169090
588.431	0.0168806
588.509	0.0171304
588.587	0.0171902
588.665	0.0170951
588.744	0.0172906
588.822	0.0173897
588.900	0.0172912
588.978	0.0175051
589.056	0.0173582
589.134	0.0173389
589.212	0.0174928
589.290	0.0174456
589.369	0.0174505
589.447	0.0174558
589.525	0.0174322
589.603	0.0174786
589.681	0.0177938
589.759	0.0175466
589.837	0.0177633
589.915	0.0179305
589.994	0.0180133
590.072	0.0178980
590.150	0.0180571
590.228	0.0178955
590.306	0.0177248
590.384	0.0176202
590.462	0.0175468
590.540	0.0173687
590.619	0.0172359
590.697	0.0171700
590.775	0.0171777
590.853	0.0170525
590.931	0.0170733
591.009	0.0170249
591.087	0.0168443
591.165	0.0169816
591.244	0.0170376
591.322	0.0171024
591.400	0.0171767
591.478	0.0170992
591.556	0.0171223
591.634	0.0172247
591.712	0.0172630
591.790	0.0171093
591.869	0.0172395
591.947	0.0173083
592.025	0.0172502
592.103	0.0172414
592.181	0.0172817
592.259	0.0174790
592.337	0.0173548
592.415	0.0174128
592.494	0.0173825
592.572	0.0173009
592.650	0.0173478
592.728	0.0173710
592.806	0.0174012
592.884	0.0173100
592.962	0.0172960
593.040	0.0171930
593.119	0.0172249
593.197	0.0170996
593.275	0.0169589
593.353	0.0169065
593.431	0.0167574
593.509	0.0166015
593.587	0.0165882
593.665	0.0165553
593.744	0.0164540
593.822	0.0166390
593.900	0.0166979
593.978	0.0166905
594.056	0.0166196
594.134	0.0167032
594.212	0.0166475
594.290	0.0168637
594.369	0.0165395
594.447	0.0166335
594.525	0.0166395
594.603	0.0165079
594.681	0.0164581
594.759	0.0163283
594.837	0.0162556
594.915	0.0161904
594.994	0.0161630
595.072	0.0164050
595.150	0.0161726
595.228	0.0162118
595.306	0.0163461
595.384	0.0166317
595.462	0.0166264
595.540	0.0165938
595.619	0.0167363
595.697	0.0168440
595.775	0.0169205
595.853	0.0169731
595.931	0.0168998
596.009	0.0166236
596.087	0.0167365
596.165	0.0166887
596.244	0.0166764
596.322	0.0165391
596.400	0.0164108
596.478	0.0164738
596.556	0.0165321
596.634	0.0164483
596.712	0.0164155
596.790	0.0163103
596.869	0.0163749
596.947	0.0163921
597.025	0.0164609
597.103	0.0165541
597.181	0.0164635
597.259	0.0163715
597.337	0.0165990
597.415	0.0165685
597.494	0.0167062
597.572	0.0169220
597.650	0.0170698
597.728	0.0168542
597.806	0.0169553
597.884	0.0171155
597.962	0.0170692
598.040	0.0172077
598.119	0.0173678
598.197	0.0174097
598.275	0.0174477
598.353	0.0176074
598.431	0.0175463
598.509	0.0174909
598.587	0.0177473
598.665	0.0177180
598.744	0.0178987
598.822	0.0176267
598.900	0.0176954
598.978	0.0179461
599.056	0.0178404
599.134	0.0175465
599.212	0.0176622
599.290	0.0177785
599.369	0.0176443
599.447	0.0176269
599.525	0.0177214
599.603	0.0176528
599.681	0.0175362
599.759	0.0175897
599.837	0.0175182
599.915	0.0173300
599.994	0.0174472
600.072	0.0174139
600.150	0.0172852
600.228	0.0173251
600.306	0.0173152
600.384	0.0173334
600.462	0.0173772
600.540	0.0172861
600.619	0.0173868
600.697	0.0174755
600.775	0.0173706
600.853	0.0174496
600.931	0.0174644
601.009	0.0174113
601.087	0.0174995
601.165	0.0172910
601.244	0.0173972
601.322	0.0173577
601.400	0.0173688
601.478	0.0172699
601.556	0.0172427
601.634	0.0171810
601.712	0.0172672
601.790	0.0170637
601.869	0.0168959
601.947	0.0169431
602.025	0.0167603
602.103	0.0166497
602.181	0.0167182
602.259	0.0167298
602.337	0.0166839
602.415	0.0166619
602.494	0.0167113
602.572	0.0166817
602.650	0.0166605
602.728	0.0166843
602.806	0.0165272
602.884	0.0165829
602.962	0.0166595
603.040	0.0166945
603.119	0.0165587
603.197	0.0166291
603.275	0.0166653
603.353	0.0166412
603.431	0.0166567
603.509	0.0165810
603.587	0.0167034
603.665	0.0164961
603.744	0.0165275
603.822	0.0165543
603.900	0.0165231
603.978	0.0164470
604.056	0.0164235
604.134	0.0165619
604.212	0.0165623
604.290	0.0165273
604.369	0.0165550
604.447	0.0165861
604.525	0.0166860
604.603	0.0166948
604.681	0.0168457
604.759	0.0168842
604.837	0.0169775
604.915	0.0169706
604.994	0.0171431
605.072	0.0173191
605.150	0.0172407
605.228	0.0173306
605.306	0.0174374
605.384	0.0175692
605.462	0.0177849
605.540	0.0178082
605.619	0.0177772
605.697	0.0178155
605.775	0.0177615
605.853	0.0176805
605.931	0.0178732
606.009	0.0177931
606.087	0.0177303
606.165	0.0176354
606.244	0.0175277
606.322	0.0175115
606.400	0.0172394
606.478	0.0171171
606.556	0.0171225
606.634	0.0169474
606.712	0.0167988
606.790	0.0167535
606.869	0.0167924
606.947	0.0167510
607.025	0.0167139
607.103	0.0166635
607.181	0.0165844
607.259	0.0167091
607.337	0.0166660
607.415	0.0167547
607.494	0.0165491
607.572	0.0165736
607.650	0.0164833
607.728	0.0164063
607.806	0.0164883
607.884	0.0164164
607.962	0.0163018
608.040	0.0163428
608.119	0.0162458
608.197	0.0162621
608.275	0.0161937
608.353	0.0160614
608.431	0.0162608
608.509	0.0161968
608.587	0.0161804
608.665	0.0163546
608.744	0.0163422
608.822	0.0165346
608.900	0.0165683
608.978	0.0166643
609.056	0.0167104
609.134	0.0167729
609.212	0.0169537
609.290	0.0170392
609.369	0.0170368
609.447	0.0170019
609.525	0.0168679
609.603	0.0168298
609.681	0.0169338
609.759	0.0167000
609.837	0.0165958
609.915	0.0164958
609.994	0.0165810
610.072	0.0165350
610.150	0.0165150
610.228	0.0163813
610.306	0.0163873
610.384	0.0164635
610.462	0.0165303
610.540	0.0165517
610.619	0.0166008
610.697	0.0167409
610.775	0.0167584
610.853	0.0168850
610.931	0.0168277
611.009	0.0168162
611.087	0.0170094
611.165	0.0169275
611.244	0.0169917
611.322	0.0170024
611.400	0.0168687
611.478	0.0168761
611.556	0.0168939
611.634	0.0167358
611.712	0.0168483
611.790	0.0167660
611.869	0.0168836
611.947	0.0168855
612.025	0.0168331
612.103	0.0168680
612.181	0.0169524
612.259	0.0169965
612.337	0.0167308
612.415	0.0167994
612.494	0.0168584
612.572	0.0170612
612.650	0.0169988
612.728	0.0169487
612.806	0.0169827
612.884	0.0171458
612.962	0.0171311
613.040	0.0169904
613.119	0.0172559
613.197	0.0170296
613.275	0.0171864
613.353	0.0172922
613.431	0.0173721
613.509	0.0173199
613.587	0.0173688
613.665	0.0173566
613.744	0.0173975
613.822	0.0175607
613.900	0.0175091
613.978	0.0176134
614.056	0.0175996
614.134	0.0176211
614.212	0.0176245
614.290	0.0176729
614.369	0.0175263
614.447	0.0174207
614.525	0.0174902
614.603	0.0175883
614.681	0.0175064
614.759	0.0174363
614.837	0.0174418
614.915	0.0174329
614.994	0.0173110
615.072	0.0173705
615.150	0.0171424
615.228	0.0173284
615.306	0.0172623
615.384	0.0173142
615.462	0.0175332
615.540	0.0175198
615.619	0.0174416
615.697	0.0176340
615.775	0.0177988
615.853	0.0178985
615.931	0.0180340
616.009	0.0179311
616.087	0.0180818
616.165	0.0181130
616.244	0.0180886
616.322	0.0183087
616.400	0.0181520
616.478	0.0181719
616.556	0.0182014
616.634	0.0180957
616.712	0.0180781
616.790	0.0179475
616.869	0.0180729
616.947	0.0177799
617.025	0.0177099
617.103	0.0177318
617.181	0.0178032
617.259	0.0176538
617.337	0.0175855
617.415	0.0175247
617.494	0.0175957
617.572	0.0172650
617.650	0.0170861
617.728	0.0171970
617.806	0.0169983
617.884	0.0169881
617.962	0.0168208
618.040	0.0165955
618.119	0.0164716
618.197	0.0163232
618.275	0.0162999
618.353	0.0162258
618.431	0.0161887
618.509	0.0163698
618.587	0.0165236
618.665	0.0167141
618.744	0.0168499
618.822	0.0170545
618.900	0.0171772
618.978	0.0173415
619.056	0.0175132
619.134	0.0176553
619.212	0.0176260
619.290	0.0176771
619.369	0.0175891
619.447	0.0177589
619.525	0.0178253
619.603	0.0177623
619.681	0.0178304
619.759	0.0176965
619.837	0.0177283
619.915	0.0178910
619.994	0.0178019
620.072	0.0176269
620.150	0.0176634
620.228	0.0175260
620.306	0.0173135
620.384	0.0172515
620.462	0.0171564
620.540	0.0169379
620.619	0.0168841
620.697	0.0167382
620.775	0.0165759
620.853	0.0165466
620.931	0.0165094
621.009	0.0164894
621.087	0.0164836
621.165	0.0165723
621.244	0.0166074
621.322	0.0164751
621.400	0.0165230
621.478	0.0165845
621.556	0.0165638
621.634	0.0163853
621.712	0.0165403
621.790	0.0165292
621.869	0.0163833
621.947	0.0162424
622.025	0.0162312
622.103	0.0162940
622.181	0.0161717
622.259	0.0161719
622.337	0.0160860
622.415	0.0161442
622.494	0.0161296
622.572	0.0161057
622.650	0.0162291
622.728	0.0162407
622.806	0.0163873
622.884	0.0164817
622.962	0.0164648
623.040	0.0166486
623.119	0.0166610
623.197	0.0167285
623.275	0.0166245
623.353	0.0168329
623.431	0.0167900
623.509	0.0167481
623.587	0.0166110
623.665	0.0166165
623.744	0.0164913
623.822	0.0165099
623.900	0.0165121
623.978	0.0165015
624.056	0.0165051
624.134	0.0165182
624.212	0.0165411
624.290	0.0167358
624.369	0.0167474
624.447	0.0167663
624.525	0.0169876
624.603	0.0170228
624.681	0.0169173
624.759	0.0170853
624.837	0.0171848
624.915	0.0173556
624.994	0.0174830
625.072	0.0175506
625.150	0.0175209
625.228	0.0175163
625.306	0.0175757
625.384	0.0174454
625.462	0.0176145
625.540	0.0178421
625.619	0.0176474
625.697	0.0175992
625.775	0.0176569
625.853	0.0175972
625.931	0.0176202
626.009	0.0177308
626.087	0.0176315
626.165	0.0174526
626.244	0.0174436
626.322	0.0175598
626.400	0.0173339
626.478	0.0171982
626.556	0.0173500
626.634	0.0172639
626.712	0.0172559
626.790	0.0171236
626.869	0.0171153
626.947	0.0171411
627.025	0.0170985
627.103	0.0171416
627.181	0.0172296
627.259	0.0171591
627.337	0.0172269
627.415	0.0173366
627.494	0.0173280
627.572	0.0173110
627.650	0.0171276
627.728	0.0173219
627.806	0.0173602
627.884	0.0174626
627.962	0.0173999
628.040	0.0172993
628.119	0.0171893
628.197	0.0171770
628.275	0.0170870
628.353	0.0168715
628.431	0.0168333
628.509	0.0167470
628.587	0.0167667
628.665	0.0168642
628.744	0.0167462
628.822	0.0165661
628.900	0.0167404
628.978	0.0164687
629.056	0.0166252
629.134	0.0167942
629.212	0.0167168
629.290	0.0168293
629.369	0.0168485
629.447	0.0166595
629.525	0.0168350
629.603	0.0169172
629.681	0.0170338
629.759	0.0169293
629.837	0.0168081
629.915	0.0168015
629.994	0.0168382
630.072	0.0169490
630.150	0.0169342
630.228	0.0168732
630.306	0.0168435
630.384	0.0170364
630.462	0.0168354
630.540	0.0167953
630.619	0.0168066
630.697	0.0167564
630.775	0.0166183
630.853	0.0167426
630.931	0.0167599
631.009	0.0166768
631.087	0.0166511
631.165	0.0166264
631.244	0.0168195
631.322	0.0166415
631.400	0.0167532
631.478	0.0168016
631.556	0.0167517
631.634	0.0167318
631.712	0.0166791
631.790	0.0167540
631.869	0.0166895
631.947	0.0167312
632.025	0.0169197
632.103	0.0169136
632.181	0.0168333
632.259	0.0170744
632.337	0.0169099
632.415	0.0168486
632.494	0.0169261
632.572	0.0169875
632.650	0.0169292
632.728	0.0167643
632.806	0.0168034
632.884	0.0167776
632.962	0.0169003
633.040	0.0168755
633.119	0.0168932
633.197	0.0168686
633.275	0.0169146
633.353	0.0168661
633.431	0.0167884
633.509	0.0169027
633.587	0.0169083
633.665	0.0168800
633.744	0.0167330
633.822	0.0168191
633.900	0.0169790
633.978	0.0169285
634.056	0.0168040
634.134	0.0168762
634.212	0.0168605
634.290	0.0168021
634.369	0.0169115
634.447	0.0169112
634.525	0.0167782
634.603	0.0167638
634.681	0.0169246
634.759	0.0169971
634.837	0.0171237
634.915	0.0171021
634.994	0.0171494
635.072	0.0172481
635.150	0.0171533
635.228	0.0171394
635.306	0.0172607
635.384	0.0173914
635.462	0.0171960
635.540	0.0171982
635.619	0.0171857
635.697	0.0171350
635.775	0.0170460
635.853	0.0170159
635.931	0.0170157
636.009	0.0170731
636.087	0.0168814
636.165	0.0169126
636.244	0.0169447
636.322	0.0169591
636.400	0.0169724
636.478	0.0168495
636.556	0.0169402
636.634	0.0168552
636.712	0.0169733
636.790	0.0169789
636.869	0.0169112
636.947	0.0169196
637.025	0.0168820
637.103	0.0170305
637.181	0.0168977
637.259	0.0169628
637.337	0.0171316
637.415	0.0169724
637.494	0.0171884
637.572	0.0171413
637.650	0.0170743
637.728	0.0170836
637.806	0.0171936
637.884	0.0172133
637.962	0.0170937
638.040	0.0169707
638.119	0.0170264
638.197	0.0170943
638.275	0.0170782
638.353	0.0170718
638.431	0.0169881
638.509	0.0169073
638.587	0.0168008
638.665	0.0168088
638.744	0.0167867
638.822	0.0167411
638.900	0.0168119
638.978	0.0167468
639.056	0.0167921
639.134	0.0168365
639.212	0.0168392
639.290	0.0168582
639.369	0.0169743
639.447	0.0170333
639.525	0.0170869
639.603	0.0173352
639.681	0.0173771
639.759	0.0176246
639.837	0.0177553
639.915	0.0178481
639.994	0.0178851
640.072	0.0178560
640.150	0.0179115
640.228	0.0178604
640.306	0.0178505
640.384	0.0178946
640.462	0.0176801
640.540	0.0177219
640.619	0.0176747
640.697	0.0177989
640.775	0.0176801
640.853	0.0176881
640.931	0.0176408
641.009	0.0176382
641.087	0.0176690
641.165	0.0174924
641.244	0.0174798
641.322	0.0174271
641.400	0.0172929
641.478	0.0173559
641.556	0.0173238
641.634	0.0172161
641.712	0.0171303
641.790	0.0169220
641.869	0.0168820
641.947	0.0167518
642.025	0.0168336
642.103	0.0166956
642.181	0.0166855
642.259	0.0165828
642.337	0.0168346
642.415	0.0166138
642.494	0.0165621
642.572	0.0166279
642.650	0.0166096
642.728	0.0166846
642.806	0.0167020
642.884	0.0169093
642.962	0.0167525
643.040	0.0166616
643.119	0.0167438
643.197	0.0167177
643.275	0.0168932
643.353	0.0168452
643.431	0.0167841
643.509	0.0168151
643.587	0.0168552
643.665	0.0167503
643.744	0.0167707
643.822	0.0168758
643.900	0.0168193
643.978	0.0168641
644.056	0.0169089
644.134	0.0169966
644.212	0.0168239
644.290	0.0168226
644.369	0.0170959
644.447	0.0171165
644.525	0.0169812
644.603	0.0169657
644.681	0.0170261
644.759	0.0169954
644.837	0.0169043
644.915	0.0169059
644.994	0.0168561
645.072	0.0168388
645.150	0.0167426
645.228	0.0167047
645.306	0.0165455
645.384	0.0164327
645.462	0.0165089
645.540	0.0164294
645.619	0.0162948
645.697	0.0162730
645.775	0.0162180
645.853	0.0160508
645.931	0.0160488
646.009	0.0160593
646.087	0.0161407
646.165	0.0160310
646.244	0.0161681
646.322	0.0160168
646.400	0.0161148
646.478	0.0161835
646.556	0.0162839
646.634	0.0163926
646.712	0.0163251
646.790	0.0160961
646.869	0.0161626
646.947	0.0161388
647.025	0.0161750
647.103	0.0163095
647.181	0.0162951
647.259	0.0161392
647.337	0.0162395
647.415	0.0162429
647.494	0.0163161
647.572	0.0162289
647.650	0.0161705
647.728	0.0162451
647.806	0.0162090
647.884	0.0161765
647.962	0.0163830
648.040	0.0164405
648.119	0.0165515
648.197	0.0163728
648.275	0.0165221
648.353	0.0165329
648.431	0.0166648
648.509	0.0166732
648.587	0.0167986
648.665	0.0167330
648.744	0.0169630
648.822	0.0169291
648.900	0.0169427
648.978	0.0170661
649.056	0.0173124
649.134	0.0171066
649.212	0.0170556
649.290	0.0171841
649.369	0.0170052
649.447	0.0169479
649.525	0.0167009
649.603	0.0166498
649.681	0.0165223
649.759	0.0165604
649.837	0.0163777
649.915	0.0163888
649.994	0.0163057
650.072	0.0163390
650.150	0.0165310
650.228	0.0164848
650.306	0.0165604
650.384	0.0166215
650.462	0.0166294
650.540	0.0168932
650.619	0.0168755
650.697	0.0170047
650.775	0.0170293
650.853	0.0168865
650.931	0.0170531
651.009	0.0171722
651.087	0.0171748
651.165	0.0171064
651.244	0.0172419
651.322	0.0171671
651.400	0.0172134
651.478	0.0172473
651.556	0.0170274
651.634	0.0171428
651.712	0.0171826
651.790	0.0172008
651.869	0.0172633
651.947	0.0171234
652.025	0.0171107
652.103	0.0172678
652.181	0.0172712
652.259	0.0173096
652.337	0.0172465
652.415	0.0171848
652.494	0.0171209
652.572	0.0171690
652.650	0.0172385
652.728	0.0171705
652.806	0.0171622
652.884	0.0171212
652.962	0.0172015
653.040	0.0171511
653.119	0.0170409
653.197	0.0170516
653.275	0.0172105
653.353	0.0171873
653.431	0.0172172
653.509	0.0171657
653.587	0.0170506
653.665	0.0172025
653.744	0.0171162
653.822	0.0170986
653.900	0.0173091
653.978	0.0172250
654.056	0.0172986
654.134	0.0172049
654.212	0.0171458
654.290	0.0171294
654.369	0.0172916
654.447	0.0170878
654.525	0.0170686
654.603	0.0170525
654.681	0.0172555
654.759	0.0170821
654.837	0.0170938
654.915	0.0171316
654.994	0.0171000
655.072	0.0171367
655.150	0.0171419
655.228	0.0170829
655.306	0.0170124
655.384	0.0169480
655.462	0.0169337
655.540	0.0169833
655.619	0.0169183
655.697	0.0167725
655.775	0.0166909
655.853	0.0167146
655.931	0.0166429
656.009	0.0167480
656.087	0.0167049
656.165	0.0166744
656.244	0.0166804
656.322	0.0167681
656.400	0.0168385
656.478	0.0167815
656.556	0.0167889
656.634	0.0168152
656.712	0.0169414
656.790	0.0168860
656.869	0.0169122
656.947	0.0170370
657.025	0.0169694
657.103	0.0169365
657.181	0.0169029
657.259	0.0169782
657.337	0.0169636
657.415	0.0170375
657.494	0.0170991
657.572	0.0170393
657.650	0.0169901
657.728	0.0169660
657.806	0.0170869
657.884	0.0169949
657.962	0.0170298
658.040	0.0171278
658.119	0.0170502
658.197	0.0170703
658.275	0.0169934
658.353	0.0171169
658.431	0.0171483
658.509	0.0170802
658.587	0.0172282
658.665	0.0171877
658.744	0.0170204
658.822	0.0170284
658.900	0.0171212
658.978	0.0170538
659.056	0.0170388
659.134	0.0170139
659.212	0.0170013
659.290	0.0169810
659.369	0.0171548
659.447	0.0170712
659.525	0.0171351
659.603	0.0171630
659.681	0.0171675
659.759	0.0171895
659.837	0.0172593
659.915	0.0173238
659.994	0.0174878
660.072	0.0173466
660.150	0.0172981
660.228	0.0174042
660.306	0.0173438
660.384	0.0173867
660.462	0.0173630
660.540	0.0172955
660.619	0.0173275
660.697	0.0174033
660.775	0.0172321
660.853	0.0171732
660.931	0.0171217
661.009	0.0170222
661.087	0.0169765
661.165	0.0169505
661.244	0.0168335
661.322	0.0168716
661.400	0.0167903
661.478	0.0167643
661.556	0.0167342
661.634	0.0166665
661.712	0.0165549
661.790	0.0165113
661.869	0.0167875
661.947	0.0167233
662.025	0.0165970
662.103	0.0166474
662.181	0.0166707
662.259	0.0167589
662.337	0.0168291
662.415	0.0167970
662.494	0.0167160
662.572	0.0168674
662.650	0.0167350
662.728	0.0166087
662.806	0.0167653
662.884	0.0166985
662.962	0.0166874
663.040	0.0165636
663.119	0.0165405
663.197	0.0164268
663.275	0.0164323
663.353	0.0165439
663.431	0.0165134
663.509	0.0164776
663.587	0.0165996
663.665	0.0165974
663.744	0.0165842
663.822	0.0166211
663.900	0.0165376
663.978	0.0165038
664.056	0.0166460
664.134	0.0166592
664.212	0.0167142
664.290	0.0166065
664.369	0.0166030
664.447	0.0166758
664.525	0.0166319
664.603	0.0167197
664.681	0.0166487
664.759	0.0166532
664.837	0.0167617
664.915	0.0168568
664.994	0.0168059
665.072	0.0169293
665.150	0.0169316
665.228	0.0170319
665.306	0.0171893
665.384	0.0173183
665.462	0.0172533
665.540	0.0172581
665.619	0.0172549
665.697	0.0171671
665.775	0.0171160
665.853	0.0171517
665.931	0.0172455
666.009	0.0171938
666.087	0.0169119
666.165	0.0170171
666.244	0.0168623
666.322	0.0169251
666.400	0.0165760
666.478	0.0165796
666.556	0.0166531
666.634	0.0165598
666.712	0.0164307
666.790	0.0165311
666.869	0.0165778
666.947	0.0165350
667.025	0.0165413
667.103	0.0165890
667.181	0.0165289
667.259	0.0166983
667.337	0.0166930
667.415	0.0165509
667.494	0.0166183
667.572	0.0165743
667.650	0.0165683
667.728	0.0164184
667.806	0.0164140
667.884	0.0162928
667.962	0.0161005
668.040	0.0162207
668.119	0.0159801
668.197	0.0158982
668.275	0.0159884
668.353	0.0159383
668.431	0.0158801
668.509	0.0158895
668.587	0.0160420
668.665	0.0160015
668.744	0.0160813
668.822	0.0161523
668.900	0.0162061
668.978	0.0163032
669.056	0.0163251
669.134	0.0165137
669.212	0.0163951
669.290	0.0165024
669.369	0.0166740
669.447	0.0166994
669.525	0.0166463
669.603	0.0168221
669.681	0.0169134
669.759	0.0168481
669.837	0.0168053
669.915	0.0168033
669.994	0.0169183
670.072	0.0168898
670.150	0.0169000
670.228	0.0169736
670.306	0.0170316
670.384	0.0170728
670.462	0.0170522
670.540	0.0170026
670.619	0.0171204
670.697	0.0171017
670.775	0.0171525
670.853	0.0173309
670.931	0.0172352
671.009	0.0171268
671.087	0.0171538
671.165	0.0170181
671.244	0.0170181
671.322	0.0172154
671.400	0.0171163
671.478	0.0172909
671.556	0.0171661
671.634	0.0171181
671.712	0.0172460
671.790	0.0172395
671.869	0.0171977
671.947	0.0169903
672.025	0.0172189
672.103	0.0170416
672.181	0.0169933
672.259	0.0169915
672.337	0.0169159
672.415	0.0169586
672.494	0.0167931
672.572	0.0170109
672.650	0.0169352
672.728	0.0168452
672.806	0.0169147
672.884	0.0168376
672.962	0.0167507
673.040	0.0167834
673.119	0.0167319
673.197	0.0167982
673.275	0.0168098
673.353	0.0167744
673.431	0.0167041
673.509	0.0168491
673.587	0.0168343
673.665	0.0168288
673.744	0.0168809
673.822	0.0168497
673.900	0.0170254
673.978	0.0169775
674.056	0.0171028
674.134	0.0171225
674.212	0.0171886
674.290	0.0171639
674.369	0.0171872
674.447	0.0172039
674.525	0.0172381
674.603	0.0171735
674.681	0.0174088
674.759	0.0174178
674.837	0.0172964
674.915	0.0173451
674.994	0.0173630
675.072	0.0172288
675.150	0.0173293
675.228	0.0174674
675.306	0.0173991
675.384	0.0174054
675.462	0.0173480
675.540	0.0174937
675.619	0.0172855
675.697	0.0174171
675.775	0.0174857
675.853	0.0173316
675.931	0.0173718
676.009	0.0173430
676.087	0.0173194
676.165	0.0172204
676.244	0.0172818
676.322	0.0172304
676.400	0.0172523
676.478	0.0173307
676.556	0.0172072
676.634	0.0171185
676.712	0.0172540
676.790	0.0171515
676.869	0.0171735
676.947	0.0170719
677.025	0.0170503
677.103	0.0171389
677.181	0.0168605
677.259	0.0170189
677.337	0.0169724
677.415	0.0168845
677.494	0.0168583
677.572	0.0167699
677.650	0.0167276
677.728	0.0166660
677.806	0.0167458
677.884	0.0166296
677.962	0.0167538
678.040	0.0168042
678.119	0.0166776
678.197	0.0166944
678.275	0.0167743
678.353	0.0166853
678.431	0.0168276
678.509	0.0169045
678.587	0.0169667
678.665	0.0169462
678.744	0.0169577
678.822	0.0169888
678.900	0.0169644
678.978	0.0170165
679.056	0.0170347
679.134	0.0171208
679.212	0.0170798
679.290	0.0171889
679.369	0.0171731
679.447	0.0172567
679.525	0.0172639
679.603	0.0173594
679.681	0.0172558
679.759	0.0172146
679.837	0.0171823
679.915	0.0172869
679.994	0.0172612
680.072	0.0171867
680.150	0.0172532
680.228	0.0171207
680.306	0.0170208
680.384	0.0169638
680.462	0.0169177
680.540	0.0170835
680.619	0.0170847
680.697	0.0169886
680.775	0.0169466
680.853	0.0169926
680.931	0.0169556
681.009	0.0169559
681.087	0.0168524
681.165	0.0168768
681.244	0.0169740
681.322	0.0168884
681.400	0.0168822
681.478	0.0167944
681.556	0.0168385
681.634	0.0168074
681.712	0.0167756
681.790	0.0168539
681.869	0.0165587
681.947	0.0166380
682.025	0.0165746
682.103	0.0164799
682.181	0.0165726
682.259	0.0164857
682.337	0.0165138
682.415	0.0166734
682.494	0.0165788
682.572	0.0166727
682.650	0.0165453
682.728	0.0166841
682.806	0.0166035
682.884	0.0166663
682.962	0.0167255
683.040	0.0166692
683.119	0.0165765
683.197	0.0164835
683.275	0.0166666
683.353	0.0167506
683.431	0.0164957
683.509	0.0166289
683.587	0.0167252
683.665	0.0166537
683.744	0.0165331
683.822	0.0166377
683.900	0.0168387
683.978	0.0167628
684.056	0.0168134
684.134	0.0167293
684.212	0.0169633
684.290	0.0168423
684.369	0.0168661
684.447	0.0171079
684.525	0.0171051
684.603	0.0171650
684.681	0.0169118
684.759	0.0169279
684.837	0.0169520
684.915	0.0170173
684.994	0.0171933
685.072	0.0170128
685.150	0.0169820
685.228	0.0171690
685.306	0.0169985
685.384	0.0170712
685.462	0.0170638
685.540	0.0170284
685.619	0.0170876
685.697	0.0171288
685.775	0.0172159
685.853	0.0170198
685.931	0.0170702
686.009	0.0171120
686.087	0.0170921
686.165	0.0170469
686.244	0.0170974
686.322	0.0169530
686.400	0.0169877
686.478	0.0168861
686.556	0.0167262
686.634	0.0166397
686.712	0.0165815
686.790	0.0166323
686.869	0.0165105
686.947	0.0163699
687.025	0.0164851
687.103	0.0164458
687.181	0.0162923
687.259	0.0164439
687.337	0.0165047
687.415	0.0163692
687.494	0.0165604
687.572	0.0162599
687.650	0.0163233
687.728	0.0162545
687.806	0.0163818
687.884	0.0163365
687.962	0.0162856
688.040	0.0163821
688.119	0.0163398
688.197	0.0164929
688.275	0.0162830
688.353	0.0162904
688.431	0.0163266
688.509	0.0163243
688.587	0.0161719
688.665	0.0162688
688.744	0.0163032
688.822	0.0162321
688.900	0.0162234
688.978	0.0160326
689.056	0.0161318
689.134	0.0161739
689.212	0.0162018
689.290	0.0161576
689.369	0.0162987
689.447	0.0162655
689.525	0.0162268
689.603	0.0164246
689.681	0.0163636
689.759	0.0164110
689.837	0.0164826
689.915	0.0164374
689.994	0.0167084
690.072	0.0167073
690.150	0.0166717
690.228	0.0167796
690.306	0.0167699
690.384	0.0169334
690.462	0.0170477
690.540	0.0170459
690.619	0.0169431
690.697	0.0170606
690.775	0.0170791
690.853	0.0171978
690.931	0.0173249
691.009	0.0173013
691.087	0.0173146
691.165	0.0173111
691.244	0.0173598
691.322	0.0174422
691.400	0.0175834
691.478	0.0175842
691.556	0.0176771
691.634	0.0177393
691.712	0.0177292
691.790	0.0177817
691.869	0.0177827
691.947	0.0177176
692.025	0.0178756
692.103	0.0179340
692.181	0.0177595
692.259	0.0178409
692.337	0.0178678
692.415	0.0178848
692.494	0.0178150
692.572	0.0179546
692.650	0.0178834
692.728	0.0178234
692.806	0.0179298
692.884	0.0180085
692.962	0.0178821
693.040	0.0180537
693.119	0.0180725
693.197	0.0179040
693.275	0.0179893
693.353	0.0179771
693.431	0.0178355
693.509	0.0178818
693.587	0.0178333
693.665	0.0177688
693.744	0.0175939
693.822	0.0175300
693.900	0.0175256
693.978	0.0175665
694.056	0.0173819
694.134	0.0172997
694.212	0.0171616
694.290	0.0170155
694.369	0.0168860
694.447	0.0167947
694.525	0.0167380
694.603	0.0166003
694.681	0.0165263
694.759	0.0165761
694.837	0.0165244
694.915	0.0163605
694.994	0.0164008
695.072	0.0164372
695.150	0.0163369
695.228	0.0164939
695.306	0.0165516
695.384	0.0163461
695.462	0.0164194
695.540	0.0163600
695.619	0.0164272
695.697	0.0164725
695.775	0.0165297
695.853	0.0164120
695.931	0.0163430
696.009	0.0164597
696.087	0.0165585
696.165	0.0163828
696.244	0.0164661
696.322	0.0165437
696.400	0.0166476
696.478	0.0166252
696.556	0.0164824
696.634	0.0166979
696.712	0.0166300
696.790	0.0168013
696.869	0.0169461
696.947	0.0169936
697.025	0.0169321
697.103	0.0170667
697.181	0.0170390
697.259	0.0171350
697.337	0.0172141
697.415	0.0171946
697.494	0.0170604
697.572	0.0170322
697.650	0.0171997
697.728	0.0171671
697.806	0.0172323
697.884	0.0171850
697.962	0.0170435
698.040	0.0170702
698.119	0.0172144
698.197	0.0171011
698.275	0.0171443
698.353	0.0171784
698.431	0.0170969
698.509	0.0170412
698.587	0.0171355
698.665	0.0169968
698.744	0.0171435
698.822	0.0169563
698.900	0.0169108
698.978	0.0169331
699.056	0.0171806
699.134	0.0170819
699.212	0.0170611
699.290	0.0172260
699.369	0.0172771
699.447	0.0172614
699.525	0.0172475
699.603	0.0174861
699.681	0.0175121
699.759	0.0175268
699.837	0.0175237
699.915	0.0175664
699.994	0.0175736
700.072	0.0175533
700.150	0.0176582
700.228	0.0175317
700.306	0.0176966
700.384	0.0176639
700.462	0.0175691
700.540	0.0177116
700.619	0.0177143
700.697	0.0176724
700.775	0.0178251
700.853	0.0177515
700.931	0.0177023
701.009	0.0178634
701.087	0.0178626
701.165	0.0179337
701.244	0.0178292
701.322	0.0177580
701.400	0.0178736
701.478	0.0179578
701.556	0.0178474
701.634	0.0178514
701.712	0.0177750
701.790	0.0179007
701.869	0.0178060
701.947	0.0176274
702.025	0.0176071
702.103	0.0175233
702.181	0.0175227
702.259	0.0173685
702.337	0.0173244
702.415	0.0170796
702.494	0.0170742
702.572	0.0171481
702.650	0.0170387
702.728	0.0168616
702.806	0.0168295
702.884	0.0167628
702.962	0.0166930
703.040	0.0166570
703.119	0.0166351
703.197	0.0164198
703.275	0.0165004
703.353	0.0163244
703.431	0.0165359
703.509	0.0165421
703.587	0.0162597
703.665	0.0164114
703.744	0.0164108
703.822	0.0163795
703.900	0.0163357
703.978	0.0164048
704.056	0.0165285
704.134	0.0165346
704.212	0.0164505
704.290	0.0165694
704.369	0.0164834
704.447	0.0167118
704.525	0.0166190
704.603	0.0167348
704.681	0.0168429
704.759	0.0166436
704.837	0.0166554
704.915	0.0168791
704.994	0.0168958
705.072	0.0169876
705.150	0.0169404
705.228	0.0169783
705.306	0.0170174
705.384	0.0170366
705.462	0.0172178
705.540	0.0171222
705.619	0.0172732
705.697	0.0172691
705.775	0.0171204
705.853	0.0170985
705.931	0.0170112
706.009	0.0170338
706.087	0.0169293
706.165	0.0167875
706.244	0.0165978
706.322	0.0165369
706.400	0.0165363
706.478	0.0163718
706.556	0.0161771
706.634	0.0162470
706.712	0.0161704
706.790	0.0161605
706.869	0.0161680
706.947	0.0163561
707.025	0.0163610
707.103	0.0164346
707.181	0.0164896
707.259	0.0165941
707.337	0.0165482
707.415	0.0167729
707.494	0.0166885
707.572	0.0168956
707.650	0.0168404
707.728	0.0168002
707.806	0.0166413
707.884	0.0165051
707.962	0.0167269
708.040	0.0165091
708.119	0.0164410
708.197	0.0163447
708.275	0.0163884
708.353	0.0163902
708.431	0.0163430
708.509	0.0164944
708.587	0.0163734
708.665	0.0162851
708.744	0.0164498
708.822	0.0164216
708.900	0.0162521
708.978	0.0162746
709.056	0.0162484
709.134	0.0162717
709.212	0.0163523
709.290	0.0163311
709.369	0.0163725
709.447	0.0165221
709.525	0.0164619
709.603	0.0164919
709.681	0.0164965
709.759	0.0166412
709.837	0.0168677
709.915	0.0168020
709.994	0.0167439
710.072	0.0168179
710.150	0.0167931
710.228	0.0167278
710.306	0.0167965
710.384	0.0168429
710.462	0.0168129
710.540	0.0168346
710.619	0.0168974
710.697	0.0167100
710.775	0.0165940
710.853	0.0164410
710.931	0.0165898
711.009	0.0164230
711.087	0.0163194
711.165	0.0161913
711.244	0.0161475
711.322	0.0161401
711.400	0.0159998
711.478	0.0159881
711.556	0.0158707
711.634	0.0159375
711.712	0.0160631
711.790	0.0160226
711.869	0.0163081
711.947	0.0163486
712.025	0.0165820
712.103	0.0168679
712.181	0.0169431
712.259	0.0171918
712.337	0.0172474
712.415	0.0173951
712.494	0.0175948
712.572	0.0178138
712.650	0.0177433
712.728	0.0176772
712.806	0.0175391
712.884	0.0174728
712.962	0.0174379
713.040	0.0173304
713.119	0.0170486
713.197	0.0169409
713.275	0.0168432
713.353	0.0168866
713.431	0.0167953
713.509	0.0166331
713.587	0.0167830
713.665	0.0168040
713.744	0.0167773
713.822	0.0169009
713.900	0.0170998
713.978	0.0173444
714.056	0.0174129
714.134	0.0174269
714.212	0.0175326
714.290	0.0176268
714.369	0.0177985
714.447	0.0176138
714.525	0.0175510
714.603	0.0176919
714.681	0.0176888
714.759	0.0176615
714.837	0.0173785
714.915	0.0175443
714.994	0.0173100
715.072	0.0173417
715.150	0.0172126
715.228	0.0172388
715.306	0.0171736
715.384	0.0172484
715.462	0.0173574
715.540	0.0171862
715.619	0.0173885
715.697	0.0174361
715.775	0.0174844
715.853	0.0174767
715.931	0.0175633
716.009	0.0174472
716.087	0.0177075
716.165	0.0175767
716.244	0.0177760
716.322	0.0176952
716.400	0.0176898
716.478	0.0178238
716.556	0.0178809
716.634	0.0177257
716.712	0.0176701
716.790	0.0178902
716.869	0.0179463
716.947	0.0178548
717.025	0.0177878
717.103	0.0178738
717.181	0.0179559
717.259	0.0180066
717.337	0.0180185
717.415	0.0179129
717.494	0.0180128
717.572	0.0178803
717.650	0.0178458
717.728	0.0178148
717.806	0.0178063
717.884	0.0178104
717.962	0.0178510
718.040	0.0179106
718.119	0.0176901
718.197	0.0177660
718.275	0.0178268
718.353	0.0176741
718.431	0.0177692
718.509	0.0176904
718.587	0.0174844
718.665	0.0173692
718.744	0.0175432
718.822	0.0174203
718.900	0.0171471
718.978	0.0171423
719.056	0.0169705
719.134	0.0169752
719.212	0.0166830
719.290	0.0166267
719.369	0.0165617
719.447	0.0164931
719.525	0.0164555
719.603	0.0164527
719.681	0.0163503
719.759	0.0162099
719.837	0.0162048
719.915	0.0163186
719.994	0.0161906
720.072	0.0161924
720.150	0.0161813
720.228	0.0163113
720.306	0.0162331
720.384	0.0164023
720.462	0.0163141
720.540	0.0161439
720.619	0.0161829
720.697	0.0163034
720.775	0.0163274
720.853	0.0162838
720.931	0.0162534
721.009	0.0163696
721.087	0.0163774
721.165	0.0163497
721.244	0.0163879
721.322	0.0164694
721.400	0.0164254
721.478	0.0163795
721.556	0.0164529
721.634	0.0165173
721.712	0.0164671
721.790	0.0163330
721.869	0.0165089
721.947	0.0164318
722.025	0.0164594
722.103	0.0164249
722.181	0.0164771
722.259	0.0164227
722.337	0.0163440
722.415	0.0163699
722.494	0.0162955
722.572	0.0162812
722.650	0.0163831
722.728	0.0165354
722.806	0.0166148
722.884	0.0166357
722.962	0.0166353
723.040	0.0166970
723.119	0.0168058
723.197	0.0168207
723.275	0.0168747
723.353	0.0169838
723.431	0.0169878
723.509	0.0170661
723.587	0.0169931
723.665	0.0170206
723.744	0.0171964
723.822	0.0172044
723.900	0.0171983
723.978	0.0171700
724.056	0.0171521
724.134	0.0171940
724.212	0.0171738
724.290	0.0172696
724.369	0.0173067
724.447	0.0173382
724.525	0.0172593
724.603	0.0172890
724.681	0.0174781
724.759	0.0173803
724.837	0.0174624
724.915	0.0172484
724.994	0.0174463
725.072	0.0173395
725.150	0.0173848
725.228	0.0173506
725.306	0.0172440
725.384	0.0172643
725.462	0.0174142
725.540	0.0173038
725.619	0.0171897
725.697	0.0173158
725.775	0.0173241
725.853	0.0173267
725.931	0.0174139
726.009	0.0173819
726.087	0.0174096
726.165	0.0174290
726.244	0.0174378
726.322	0.0174033
726.400	0.0174679
726.478	0.0173434
726.556	0.0174296
726.634	0.0173732
726.712	0.0171918
726.790	0.0172356
726.869	0.0171180
726.947	0.0170746
727.025	0.0171181
727.103	0.0170419
727.181	0.0169977
727.259	0.0170770
727.337	0.0169351
727.415	0.0170077
727.494	0.0170710
727.572	0.0170300
727.650	0.0169316
727.728	0.0169511
727.806	0.0168999
727.884	0.0167435
727.962	0.0168486
728.040	0.0167613
728.119	0.0169271
728.197	0.0167117
728.275	0.0166737
728.353	0.0166274
728.431	0.0166087
728.509	0.0165514
728.587	0.0165418
728.665	0.0165469
728.744	0.0163394
728.822	0.0163799
728.900	0.0164800
728.978	0.0163396
729.056	0.0164173
729.134	0.0163547
729.212	0.0163609
729.290	0.0165263
729.369	0.0164938
729.447	0.0163895
729.525	0.0163999
729.603	0.0164997
729.681	0.0163266
729.759	0.0165089
729.837	0.0164764
729.915	0.0164185
729.994	0.0164709
730.072	0.0164059
730.150	0.0163107
730.228	0.0164001
730.306	0.0165060
730.384	0.0164056
730.462	0.0165289
730.540	0.0165968
730.619	0.0164545
730.697	0.0164954
730.775	0.0166410
730.853	0.0166026
730.931	0.0166953
731.009	0.0166544
731.087	0.0166659
731.165	0.0167368
731.244	0.0167210
731.322	0.0166910
731.400	0.0167072
731.478	0.0167918
731.556	0.0168177
731.634	0.0168776
731.712	0.0167770
731.790	0.0166884
731.869	0.0166936
731.947	0.0168388
732.025	0.0168320
732.103	0.0166869
732.181	0.0168214
732.259	0.0168560
732.337	0.0168415
732.415	0.0168740
732.494	0.0168658
732.572	0.0170364
732.650	0.0169432
732.728	0.0170184
732.806	0.0170058
732.884	0.0170143
732.962	0.0170940
733.040	0.0172107
733.119	0.0172772
733.197	0.0172048
733.275	0.0173944
733.353	0.0173605
733.431	0.0173470
733.509	0.0174813
733.587	0.0173624
733.665	0.0172475
733.744	0.0172568
733.822	0.0173735
733.900	0.0173267
733.978	0.0172819
734.056	0.0172192
734.134	0.0173827
734.212	0.0174343
734.290	0.0173164
734.369	0.0173434
734.447	0.0171554
734.525	0.0173009
734.603	0.0174154
734.681	0.0172913
734.759	0.0172812
734.837	0.0174899
734.915	0.0174586
734.994	0.0172765
735.072	0.0173810
735.150	0.0172882
735.228	0.0172221
735.306	0.0172910
735.384	0.0172495
735.462	0.0173601
735.540	0.0172327
735.619	0.0171938
735.697	0.0172659
735.775	0.0172633
735.853	0.0170965
735.931	0.0171854
736.009	0.0170807
736.087	0.0171694
736.165	0.0170659
736.244	0.0171224
736.322	0.0171297
736.400	0.0170234
736.478	0.0169155
736.556	0.0170004
736.634	0.0168803
736.712	0.0168055
736.790	0.0167573
736.869	0.0168861
736.947	0.0168669
737.025	0.0167559
737.103	0.0166827
737.181	0.0167702
737.259	0.0166417
737.337	0.0165173
737.415	0.0165742
737.494	0.0164677
737.572	0.0165493
737.650	0.0165939
737.728	0.0166109
737.806	0.0165003
737.884	0.0164931
737.962	0.0166295
738.040	0.0168179
738.119	0.0168358
738.197	0.0168019
738.275	0.0168546
738.353	0.0167616
738.431	0.0167603
738.509	0.0168283
738.587	0.0169160
738.665	0.0170303
738.744	0.0169549
738.822	0.0169643
738.900	0.0169354
738.978	0.0168877
739.056	0.0169281
739.134	0.0168479
739.212	0.0169525
739.290	0.0168781
739.369	0.0169587
739.447	0.0170130
739.525	0.0170007
739.603	0.0170206
739.681	0.0170996
739.759	0.0169523
739.837	0.0171490
739.915	0.0171393
739.994	0.0169968
740.072	0.0172112
740.150	0.0171877
740.228	0.0172263
740.306	0.0173048
740.384	0.0171001
740.462	0.0170928
740.540	0.0172540
740.619	0.0172673
740.697	0.0170278
740.775	0.0172493
740.853	0.0170557
740.931	0.0171427
741.009	0.0171972
741.087	0.0170372
741.165	0.0171407
741.244	0.0171114
741.322	0.0171538
741.400	0.0171686
741.478	0.0172462
741.556	0.0172470
741.634	0.0171431
741.712	0.0171193
741.790	0.0172126
741.869	0.0171448
741.947	0.0171684
742.025	0.0171593
742.103	0.0173605
742.181	0.0170479
742.259	0.0169939
742.337	0.0169528
742.415	0.0170591
742.494	0.0169234
742.572	0.0170442
742.650	0.0168661
742.728	0.0168346
742.806	0.0169024
742.884	0.0168954
742.962	0.0166705
743.040	0.0166920
743.119	0.0167848
743.197	0.0168190
743.275	0.0165182
743.353	0.0165274
743.431	0.0166101
743.509	0.0165794
743.587	0.0167014
743.665	0.0166399
743.744	0.0165643
743.822	0.0165303
743.900	0.0165752
743.978	0.0165720
744.056	0.0164676
744.134	0.0163706
744.212	0.0164008
744.290	0.0164215
744.369	0.0163225
744.447	0.0162172
744.525	0.0162601
744.603	0.0161708
744.681	0.0160754
744.759	0.0160159
744.837	0.0160320
744.915	0.0161181
744.994	0.0161274
745.072	0.0160874
745.150	0.0159853
745.228	0.0160390
745.306	0.0160631
745.384	0.0161109
745.462	0.0160599
745.540	0.0162456
745.619	0.0163508
745.697	0.0163831
745.775	0.0163462
745.853	0.0163696
745.931	0.0164719
746.009	0.0165471
746.087	0.0165790
746.165	0.0166003
746.244	0.0166731
746.322	0.0166431
746.400	0.0168007
746.478	0.0168932
746.556	0.0167760
746.634	0.0168362
746.712	0.0166747
746.790	0.0166751
746.869	0.0168183
746.947	0.0168703
747.025	0.0166916
747.103	0.0166989
747.181	0.0166688
747.259	0.0166045
747.337	0.0167088
747.415	0.0167580
747.494	0.0167772
747.572	0.0168662
747.650	0.0167996
747.728	0.0167391
747.806	0.0168217
747.884	0.0167420
747.962	0.0167565
748.040	0.0168539
748.119	0.0168994
748.197	0.0168983
748.275	0.0169250
748.353	0.0168314
748.431	0.0168735
748.509	0.0169468
748.587	0.0169317
748.665	0.0167902
748.744	0.0168012
748.822	0.0168208
748.900	0.0168046
748.978	0.0168132
749.056	0.0167513
749.134	0.0170097
749.212	0.0168407
749.290	0.0168487
749.369	0.0168533
749.447	0.0169181
749.525	0.0168879
749.603	0.0169405
749.681	0.0167506
749.759	0.0169310
749.837	0.0168658
749.915	0.0169618
749.994	0.0168377
750.072	0.0168266
750.150	0.0169377
750.228	0.0169117
750.306	0.0168883
750.384	0.0168985
750.462	0.0168858
750.540	0.0168695
750.619	0.0169531
750.697	0.0168941
750.775	0.0169133
750.853	0.0169769
750.931	0.0169617
751.009	0.0168699
751.087	0.0168672
751.165	0.0168287
751.244	0.0168563
751.322	0.0167858
751.400	0.0168188
751.478	0.0168571
751.556	0.0166845
751.634	0.0167448
751.712	0.0168652
751.790	0.0169077
751.869	0.0168810
751.947	0.0168367
752.025	0.0168433
752.103	0.0169155
752.181	0.0169490
752.259	0.0169845
752.337	0.0169287
752.415	0.0169955
752.494	0.0171120
752.572	0.0171207
752.650	0.0170777
752.728	0.0171503
752.806	0.0172089
752.884	0.0172881
752.962	0.0172896
753.040	0.0173289
753.119	0.0173715
753.197	0.0173479
753.275	0.0172968
753.353	0.0173758
753.431	0.0172787
753.509	0.0170889
753.587	0.0170509
753.665	0.0172873
753.744	0.0171551
753.822	0.0169940
753.900	0.0169170
753.978	0.0167639
754.056	0.0165466
754.134	0.0166911
754.212	0.0166866
754.290	0.0165994
754.369	0.0164983
754.447	0.0166641
754.525	0.0166623
754.603	0.0165675
754.681	0.0167255
754.759	0.0168556
754.837	0.0167867
754.915	0.0167682
754.994	0.0169860
755.072	0.0169988
755.150	0.0170336
755.228	0.0171993
755.306	0.0171970
755.384	0.0174016
755.462	0.0175308
755.540	0.0175174
755.619	0.0173824
755.697	0.0175740
755.775	0.0177565
755.853	0.0176250
755.931	0.0175562
756.009	0.0175050
756.087	0.0175761
756.165	0.0173761
756.244	0.0174596
756.322	0.0173286
756.400	0.0172482
756.478	0.0172274
756.556	0.0170914
756.634	0.0170264
756.712	0.0172283
756.790	0.0170686
756.869	0.0171110
756.947	0.0169173
757.025	0.0169718
757.103	0.0170532
757.181	0.0170658
757.259	0.0171467
757.337	0.0171068
757.415	0.0171220
757.494	0.0171764
757.572	0.0172517
757.650	0.0173694
757.728	0.0173996
757.806	0.0173662
757.884	0.0174018
757.962	0.0173842
758.040	0.0175137
758.119	0.0174355
758.197	0.0172776
758.275	0.0176405
758.353	0.0174497
758.431	0.0173984
758.509	0.0174104
758.587	0.0171653
758.665	0.0172860
758.744	0.0173228
758.822	0.0174063
758.900	0.0172596
758.978	0.0172472
759.056	0.0172372
759.134	0.0172597
759.212	0.0171822
759.290	0.0172970
759.369	0.0171605
759.447	0.0172493
759.525	0.0172320
759.603	0.0173730
759.681	0.0172084
759.759	0.0171353
759.837	0.0173126
759.915	0.0173472
759.994	0.0172662
760.072	0.0173290
760.150	0.0173586
760.228	0.0172924
760.306	0.0172564
760.384	0.0172730
760.462	0.0172766
760.540	0.0172896
760.619	0.0171076
760.697	0.0171424
760.775	0.0169936
760.853	0.0170068
760.931	0.0169840
761.009	0.0167757
761.087	0.0167500
761.165	0.0167611
761.244	0.0166296
761.322	0.0164967
761.400	0.0163954
761.478	0.0163309
761.556	0.0162890
761.634	0.0162264
761.712	0.0160603
761.790	0.0160440
761.869	0.0161711
761.947	0.0162179
762.025	0.0162226
762.103	0.0161994
762.181	0.0163892
762.259	0.0162700
762.337	0.0164168
762.415	0.0164897
762.494	0.0165520
762.572	0.0165385
762.650	0.0166071
762.728	0.0166706
762.806	0.0168435
762.884	0.0167858
762.962	0.0166811
763.040	0.0167693
763.119	0.0168993
763.197	0.0168679
763.275	0.0168307
763.353	0.0169608
763.431	0.0169357
763.509	0.0169369
763.587	0.0168336
763.665	0.0170262
763.744	0.0169330
763.822	0.0167330
763.900	0.0169338
763.978	0.0168301
764.056	0.0168163
764.134	0.0166648
764.212	0.0166529
764.290	0.0165754
764.369	0.0165069
764.447	0.0164812
764.525	0.0162816
764.603	0.0163110
764.681	0.0163844
764.759	0.0163415
764.837	0.0162275
764.915	0.0163084
764.994	0.0163210
765.072	0.0162718
765.150	0.0162717
765.228	0.0162089
765.306	0.0162779
765.384	0.0161642
765.462	0.0163532
765.540	0.0163134
765.619	0.0161401
765.697	0.0160935
765.775	0.0161590
765.853	0.0162144
765.931	0.0161625
766.009	0.0162530
766.087	0.0161948
766.165	0.0162815
766.244	0.0163606
766.322	0.0163245
766.400	0.0163052
766.478	0.0164370
766.556	0.0164249
766.634	0.0165786
766.712	0.0167580
766.790	0.0169152
766.869	0.0169244
766.947	0.0169881
767.025	0.0168494
767.103	0.0170253
767.181	0.0170467
767.259	0.0170826
767.337	0.0171477
767.415	0.0172367
767.494	0.0172916
767.572	0.0172456
767.650	0.0172086
767.728	0.0172108
767.806	0.0171366
767.884	0.0171852
767.962	0.0172237
768.040	0.0171275
768.119	0.0172684
768.197	0.0172337
768.275	0.0172425
768.353	0.0171852
768.431	0.0172615
768.509	0.0173277
768.587	0.0173555
768.665	0.0172896
768.744	0.0172134
768.822	0.0172717
768.900	0.0174275
768.978	0.0173257
769.056	0.0173771
769.134	0.0174399
769.212	0.0172702
769.290	0.0173846
769.369	0.0174040
769.447	0.0172923
769.525	0.0173504
769.603	0.0173365
769.681	0.0173223
769.759	0.0172859
769.837	0.0171026
769.915	0.0171444
769.994	0.0169953
770.072	0.0169873
770.150	0.0170967
770.228	0.0171416
770.306	0.0169336
770.384	0.0167664
770.462	0.0169456
770.540	0.0168340
770.619	0.0168638
770.697	0.0169003
770.775	0.0167627
770.853	0.0169366
770.931	0.0169324
771.009	0.0167972
771.087	0.0169897
771.165	0.0168968
771.244	0.0168807
771.322	0.0168771
771.400	0.0168595
771.478	0.0167831
771.556	0.0169167
771.634	0.0168530
771.712	0.0169335
771.790	0.0168718
771.869	0.0169039
771.947	0.0169065
772.025	0.0168795
772.103	0.0169928
772.181	0.0168206
772.259	0.0170695
772.337	0.0170412
772.415	0.0170438
772.494	0.0169646
772.572	0.0169138
772.650	0.0169588
772.728	0.0168900
772.806	0.0168146
772.884	0.0168964
772.962	0.0169145
773.040	0.0169954
773.119	0.0169672
773.197	0.0168615
773.275	0.0168865
773.353	0.0168430
773.431	0.0167365
773.509	0.0167896
773.587	0.0167897
773.665	0.0167513
773.744	0.0167814
773.822	0.0167429
773.900	0.0168147
773.978	0.0168167
774.056	0.0167229
774.134	0.0167859
774.212	0.0167690
774.290	0.0165764
774.369	0.0166247
774.447	0.0164899
774.525	0.0164352
774.603	0.0163835
774.681	0.0163284
774.759	0.0164638
774.837	0.0164262
774.915	0.0164081
774.994	0.0163647
775.072	0.0164777
775.150	0.0166225
775.228	0.0166140
775.306	0.0166510
775.384	0.0167844
775.462	0.0167561
775.540	0.0168041
775.619	0.0170493
775.697	0.0170903
775.775	0.0172320
775.853	0.0173049
775.931	0.0171785
776.009	0.0173136
776.087	0.0173167
776.165	0.0174337
776.244	0.0173930
776.322	0.0174874
776.400	0.0175146
776.478	0.0174825
776.556	0.0174249
776.634	0.0174345
776.712	0.0174174
776.790	0.0175143
776.869	0.0173230
776.947	0.0172746
777.025	0.0172874
777.103	0.0171562
777.181	0.0171056
777.259	0.0171189
777.337	0.0169688
777.415	0.0169083
777.494	0.0168651
777.572	0.0168728
777.650	0.0168172
777.728	0.0168805
777.806	0.0168327
777.884	0.0169244
777.962	0.0169744
778.040	0.0169312
778.119	0.0169718
778.197	0.0170245
778.275	0.0170404
778.353	0.0172247
778.431	0.0172882
778.509	0.0172283
778.587	0.0172315
778.665	0.0172781
778.744	0.0173571
778.822	0.0174536
778.900	0.0174152
778.978	0.0174879
779.056	0.0174633
779.134	0.0174388
779.212	0.0175866
779.290	0.0175687
779.369	0.0176933
779.447	0.0176531
779.525	0.0176955
779.603	0.0174948
779.681	0.0176748
779.759	0.0177134
779.837	0.0175594
779.915	0.0175511
779.994	0.0176470
780.072	0.0174994
780.150	0.0175402
780.228	0.0174554
780.306	0.0175373
780.384	0.0175539
780.462	0.0174330
780.540	0.0173875
780.619	0.0173491
780.697	0.0171767
780.775	0.0172758
780.853	0.0172227
780.931	0.0172240
781.009	0.0171616
781.087	0.0169912
781.165	0.0170579
781.244	0.0170217
781.322	0.0170402
781.400	0.0169543
781.478	0.0169670
781.556	0.0169785
781.634	0.0169415
781.712	0.0169186
781.790	0.0170000
781.869	0.0169597
781.947	0.0169568
782.025	0.0170196
782.103	0.0168380
782.181	0.0169032
782.259	0.0167980
782.337	0.0167826
782.415	0.0166360
782.494	0.0167504
782.572	0.0167429
782.650	0.0166907
782.728	0.0166004
782.806	0.0166474
782.884	0.0165637
782.962	0.0165417
783.040	0.0165479
783.119	0.0163718
783.197	0.0165376
783.275	0.0164182
783.353	0.0164223
783.431	0.0163425
783.509	0.0163701
783.587	0.0165620
783.665	0.0164523
783.744	0.0165179
783.822	0.0165189
783.900	0.0166978
783.978	0.0167991
784.056	0.0168118
784.134	0.0169336
784.212	0.0169416
784.290	0.0171149
784.369	0.0170572
784.447	0.0170857
784.525	0.0171545
784.603	0.0172970
784.681	0.0172358
784.759	0.0172463
784.837	0.0173304
784.915	0.0172982
784.994	0.0174049
785.072	0.0172594
785.150	0.0172924
785.228	0.0173807
785.306	0.0173158
785.384	0.0174403
785.462	0.0174455
785.540	0.0174638
785.619	0.0174381
785.697	0.0175289
785.775	0.0175551
785.853	0.0176217
785.931	0.0175619
786.009	0.0174829
786.087	0.0175777
786.165	0.0175228
786.244	0.0175241
786.322	0.0174665
786.400	0.0174422
786.478	0.0174271
786.556	0.0173214
786.634	0.0171587
786.712	0.0172739
786.790	0.0170895
786.869	0.0170436
786.947	0.0171380
787.025	0.0168936
787.103	0.0169559
787.181	0.0170206
787.259	0.0169819
787.337	0.0169048
787.415	0.0169349
787.494	0.0169417
787.572	0.0169566
787.650	0.0171381
787.728	0.0171448
787.806	0.0170946
787.884	0.0171419
787.962	0.0170912
788.040	0.0172932
788.119	0.0173081
788.197	0.0173303
788.275	0.0174106
788.353	0.0172701
788.431	0.0172299
788.509	0.0171735
788.587	0.0173071
788.665	0.0172891
788.744	0.0172491
788.822	0.0172840
788.900	0.0172948
788.978	0.0171375
789.056	0.0171741
789.134	0.0172363
789.212	0.0171237
789.290	0.0171532
789.369	0.0169887
789.447	0.0170276
789.525	0.0169482
789.603	0.0170829
789.681	0.0169293
789.759	0.0169292
789.837	0.0167523
789.915	0.0168886
789.994	0.0167928
790.072	0.0168397
790.150	0.0168008
790.228	0.0167087
790.306	0.0166500
790.384	0.0166791
790.462	0.0166729
790.540	0.0165635
790.619	0.0163033
790.697	0.0165279
790.775	0.0164076
790.853	0.0163973
790.931	0.0165005
791.009	0.0164729
791.087	0.0164677
791.165	0.0164927
791.244	0.0164785
791.322	0.0165530
791.400	0.0165540
791.478	0.0165069
791.556	0.0164817
791.634	0.0165612
791.712	0.0165708
791.790	0.0164867
791.869	0.0165379
791.947	0.0165401
792.025	0.0164801
792.103	0.0163524
792.181	0.0162205
792.259	0.0163960
792.337	0.0165348
792.415	0.0163767
792.494	0.0164895
792.572	0.0165005
792.650	0.0164653
792.728	0.0163249
792.806	0.0163214
792.884	0.0164144
792.962	0.0164545
793.040	0.0164086
793.119	0.0166094
793.197	0.0166203
793.275	0.0167146
793.353	0.0167494
793.431	0.0168820
793.509	0.0169272
793.587	0.0168671
793.665	0.0168908
793.744	0.0169350
793.822	0.0171181
793.900	0.0172225
793.978	0.0171535
794.056	0.0172989
794.134	0.0173222
794.212	0.0174837
794.290	0.0174225
794.369	0.0173955
794.447	0.0172362
794.525	0.0176293
794.603	0.0176065
794.681	0.0175564
794.759	0.0175723
794.837	0.0178108
794.915	0.0176837
794.994	0.0177362
795.072	0.0178280
795.150	0.0178486
795.228	0.0177516
795.306	0.0178645
795.384	0.0177134
795.462	0.0179020
795.540	0.0177832
795.619	0.0178446
795.697	0.0177396
795.775	0.0175709
795.853	0.0175780
795.931	0.0174601
796.009	0.0175156
796.087	0.0176546
796.165	0.0174132
796.244	0.0173973
796.322	0.0173779
796.400	0.0175076
796.478	0.0173870
796.556	0.0172986
796.634	0.0172299
796.712	0.0172330
796.790	0.0174203
796.869	0.0173539
796.947	0.0171590
797.025	0.0172425
797.103	0.0173090
797.181	0.0172552
797.259	0.0170512
797.337	0.0170383
797.415	0.0170795
797.494	0.0171217
797.572	0.0169795
797.650	0.0171381
797.728	0.0170990
797.806	0.0170673
797.884	0.0170271
797.962	0.0169926
798.040	0.0169199
798.119	0.0169710
798.197	0.0169380
798.275	0.0169918
798.353	0.0170419
798.431	0.0170008
798.509	0.0167873
798.587	0.0168287
798.665	0.0170894
798.744	0.0169371
798.822	0.0169020
798.900	0.0168546
798.978	0.0169092
799.056	0.0170657
799.134	0.0169460
799.212	0.0169017
799.290	0.0167649
799.369	0.0166640
799.447	0.0165766
799.525	0.0168122
799.603	0.0167634
799.681	0.0167571
799.759	0.0167173
799.837	0.0166101
799.915	0.0166733
799.994	0.0164328
800.072	0.0164333
800.150	0.0162810
800.228	0.0162850
800.306	0.0163039
800.384	0.0162704
800.462	0.0161511
800.540	0.0161756
800.619	0.0161765
800.697	0.0161574
800.775	0.0161539
800.853	0.0162195
800.931	0.0162150
801.009	0.0163045
801.087	0.0165066
801.165	0.0165260
801.244	0.0166371
801.322	0.0166357
801.400	0.0166839
801.478	0.0168765
801.556	0.0169355
801.634	0.0168848
801.712	0.0168442
801.790	0.0168610
801.869	0.0170279
801.947	0.0170611
802.025	0.0171052
802.103	0.0171030
802.181	0.0172202
802.259	0.0173657
802.337	0.0174472
802.415	0.0174270
802.494	0.0175875
802.572	0.0175755
802.650	0.0174593
802.728	0.0175400
802.806	0.0176669
802.884	0.0177538
802.962	0.0176785
803.040	0.0175833
803.119	0.0176978
803.197	0.0176755
803.275	0.0178478
803.353	0.0178535
803.431	0.0178062
803.509	0.0176554
803.587	0.0177135
803.665	0.0178001
803.744	0.0178941
803.822	0.0178840
803.900	0.0178190
803.978	0.0177985
804.056	0.0180312
804.134	0.0179461
804.212	0.0178843
804.290	0.0179347
804.369	0.0178583
804.447	0.0179145
804.525	0.0179826
804.603	0.0178022
804.681	0.0178373
804.759	0.0176649
804.837	0.0177152
804.915	0.0175264
804.994	0.0174986
805.072	0.0174037
805.150	0.0174900
805.228	0.0173806
805.306	0.0174274
805.384	0.0175824
805.462	0.0173466
805.540	0.0173197
805.619	0.0174724
805.697	0.0174620
805.775	0.0175835
805.853	0.0174901
805.931	0.0173202
806.009	0.0173408
806.087	0.0173734
806.165	0.0172750
806.244	0.0171761
806.322	0.0171599
806.400	0.0170766
806.478	0.0170004
806.556	0.0168912
806.634	0.0168252
806.712	0.0169547
806.790	0.0168937
806.869	0.0167516
806.947	0.0169593
807.025	0.0168775
807.103	0.0168917
807.181	0.0169950
807.259	0.0170825
807.337	0.0170814
807.415	0.0171637
807.494	0.0170986
807.572	0.0171985
807.650	0.0172166
807.728	0.0172422
807.806	0.0171227
807.884	0.0172871
807.962	0.0170834
808.040	0.0170899
808.119	0.0169173
808.197	0.0170670
808.275	0.0172706
808.353	0.0171179
808.431	0.0170564
808.509	0.0170966
808.587	0.0169804
808.665	0.0170496
808.744	0.0169117
808.822	0.0168089
808.900	0.0169049
808.978	0.0169793
809.056	0.0169325
809.134	0.0169084
809.212	0.0168797
809.290	0.0166619
809.369	0.0166305
809.447	0.0166792
809.525	0.0166695
809.603	0.0164256
809.681	0.0164092
809.759	0.0164569
809.837	0.0164421
809.915	0.0162139
809.994	0.0160375
810.072	0.0159673
810.150	0.0159285
810.228	0.0159458
810.306	0.0158477
810.384	0.0157623
810.462	0.0156273
810.540	0.0155773
810.619	0.0157212
810.697	0.0156705
810.775	0.0155577
810.853	0.0155824
810.931	0.0154215
811.009	0.0153661
811.087	0.0153415
811.165	0.0153397
811.244	0.0153332
811.322	0.0154668
811.400	0.0154278
811.478	0.0155677
811.556	0.0156071
811.634	0.0156629
811.712	0.0157163
811.790	0.0156743
811.869	0.0159895
811.947	0.0159731
812.025	0.0159705
812.103	0.0160002
812.181	0.0161195
812.259	0.0161391
812.337	0.0162784
812.415	0.0163994
812.494	0.0164009
812.572	0.0164023
812.650	0.0165538
812.728	0.0164401
812.806	0.0164707
812.884	0.0164814
812.962	0.0166878
813.040	0.0166362
813.119	0.0167970
813.197	0.0167080
813.275	0.0167626
813.353	0.0167863
813.431	0.0167657
813.509	0.0167899
813.587	0.0167850
813.665	0.0168994
813.744	0.0169363
813.822	0.0171092
813.900	0.0170434
813.978	0.0171957
814.056	0.0171274
814.134	0.0172810
814.212	0.0172260
814.290	0.0171272
814.369	0.0172910
814.447	0.0171773
814.525	0.0170808
814.603	0.0171252
814.681	0.0170512
814.759	0.0170997
814.837	0.0170138
814.915	0.0170975
814.994	0.0169805
815.072	0.0170912
815.150	0.0170920
815.228	0.0170943
815.306	0.0170678
815.384	0.0169814
815.462	0.0170268
815.540	0.0171247
815.619	0.0171139
815.697	0.0174482
815.775	0.0172562
815.853	0.0175012
815.931	0.0173832
816.009	0.0174339
816.087	0.0174726
816.165	0.0175072
816.244	0.0174371
816.322	0.0172471
816.400	0.0174494
816.478	0.0174744
816.556	0.0173212
816.634	0.0171418
816.712	0.0172833
816.790	0.0172407
816.869	0.0171616
816.947	0.0170557
817.025	0.0172585
817.103	0.0172149
817.181	0.0171870
817.259	0.0172472
817.337	0.0173471
817.415	0.0174184
817.494	0.0171448
817.572	0.0173420
817.650	0.0174667
817.728	0.0173905
817.806	0.0172925
817.884	0.0172707
817.962	0.0173014
818.040	0.0172469
818.119	0.0174345
818.197	0.0172685
818.275	0.0171737
818.353	0.0172319
818.431	0.0172041
818.509	0.0170795
818.587	0.0170925
818.665	0.0170294
818.744	0.0170125
818.822	0.0170003
818.900	0.0168976
818.978	0.0168438
819.056	0.0168811
819.134	0.0169897
819.212	0.0168528
819.290	0.0168272
819.369	0.0166409
819.447	0.0167010
819.525	0.0166125
819.603	0.0166525
819.681	0.0166455
819.759	0.0165752
819.837	0.0165063
819.915	0.0165546
819.994	0.0165062
820.072	0.0164729
820.150	0.0163013
820.228	0.0162411
820.306	0.0163992
820.384	0.0164628
820.462	0.0164406
820.540	0.0163960
820.619	0.0164316
820.697	0.0164621
820.775	0.0164261
820.853	0.0162763
820.931	0.0161974
821.009	0.0163220
821.087	0.0161938
821.165	0.0162946
821.244	0.0160747
821.322	0.0160367
821.400	0.0160368
821.478	0.0158965
821.556	0.0157574
821.634	0.0161012
821.712	0.0161392
821.790	0.0159475
821.869	0.0159823
821.947	0.0161716
822.025	0.0160337
822.103	0.0161702
822.181	0.0162460
822.259	0.0163689
822.337	0.0165469
822.415	0.0164328
822.494	0.0165314
822.572	0.0165068
822.650	0.0165454
822.728	0.0166551
822.806	0.0167589
822.884	0.0167691
822.962	0.0167996
823.040	0.0168904
823.119	0.0168961
823.197	0.0169173
823.275	0.0170111
823.353	0.0171407
823.431	0.0171677
823.509	0.0171418
823.587	0.0172115
823.665	0.0171278
823.744	0.0171727
823.822	0.0171523
823.900	0.0169205
823.978	0.0170611
824.056	0.0172364
824.134	0.0168698
824.212	0.0169006
824.290	0.0169673
824.369	0.0168532
824.447	0.0168389
824.525	0.0166582
824.603	0.0167413
824.681	0.0167271
824.759	0.0165954
824.837	0.0165099
824.915	0.0165724
824.994	0.0167031
825.072	0.0165306
825.150	0.0166130
825.228	0.0165292
825.306	0.0165443
825.384	0.0167297
825.462	0.0167274
825.540	0.0166266
825.619	0.0167722
825.697	0.0167090
825.775	0.0168400
825.853	0.0168054
825.931	0.0169228
826.009	0.0168771
826.087	0.0169379
826.165	0.0169044
826.244	0.0168302
826.322	0.0169157
826.400	0.0170954
826.478	0.0168944
826.556	0.0169830
826.634	0.0170303
826.712	0.0169624
826.790	0.0171486
826.869	0.0172138
826.947	0.0172133
827.025	0.0171687
827.103	0.0172635
827.181	0.0171970
827.259	0.0171793
827.337	0.0171453
827.415	0.0172099
827.494	0.0172926
827.572	0.0173204
827.650	0.0173022
827.728	0.0173170
827.806	0.0175121
827.884	0.0174581
827.962	0.0173985
828.040	0.0174973
828.119	0.0174791
828.197	0.0174098
828.275	0.0173503
828.353	0.0173932
828.431	0.0173874
828.509	0.0173333
828.587	0.0172632
828.665	0.0170928
828.744	0.0170026
828.822	0.0168582
828.900	0.0167871
828.978	0.0166756
829.056	0.0167326
829.134	0.0166497
829.212	0.0166154
829.290	0.0166969
829.369	0.0166871
829.447	0.0166556
829.525	0.0164510
829.603	0.0165868
829.681	0.0167290
829.759	0.0167601
829.837	0.0166736
829.915	0.0167413
829.994	0.0167562
830.072	0.0165770
830.150	0.0166264
830.228	0.0167963
830.306	0.0166767
830.384	0.0166872
830.462	0.0166401
830.540	0.0167509
830.619	0.0166432
830.697	0.0166476
830.775	0.0166718
830.853	0.0167434
830.931	0.0167990
831.009	0.0166689
831.087	0.0167497
831.165	0.0166405
831.244	0.0167938
831.322	0.0167509
831.400	0.0168652
831.478	0.0168497
831.556	0.0166833
831.634	0.0166290
831.712	0.0166855
831.790	0.0165421
831.869	0.0165183
831.947	0.0163280
832.025	0.0163356
832.103	0.0162150
832.181	0.0161906
832.259	0.0161225
832.337	0.0161340
832.415	0.0160752
832.494	0.0160590
832.572	0.0160877
832.650	0.0160511
832.728	0.0161770
832.806	0.0160529
832.884	0.0162606
832.962	0.0162653
833.040	0.0163665
833.119	0.0162808
833.197	0.0162349
833.275	0.0162593
833.353	0.0163443
833.431	0.0164254
833.509	0.0163538
833.587	0.0163144
833.665	0.0165112
833.744	0.0164499
833.822	0.0163400
833.900	0.0164516
833.978	0.0164720
834.056	0.0163186
834.134	0.0164144
834.212	0.0163882
834.290	0.0164735
834.369	0.0165235
834.447	0.0164717
834.525	0.0165069
834.603	0.0165755
834.681	0.0165292
834.759	0.0164555
834.837	0.0165642
834.915	0.0165006
834.994	0.0164646
835.072	0.0165318
835.150	0.0165031
835.228	0.0164395
835.306	0.0162447
835.384	0.0163678
835.462	0.0164289
835.540	0.0163989
835.619	0.0162825
835.697	0.0163055
835.775	0.0164737
835.853	0.0163168
835.931	0.0162526
836.009	0.0163244
836.087	0.0164410
836.165	0.0166003
836.244	0.0165514
836.322	0.0166680
836.400	0.0165965
836.478	0.0167384
836.556	0.0168984
836.634	0.0168917
836.712	0.0169016
836.790	0.0171588
836.869	0.0169540
836.947	0.0170935
837.025	0.0170781
837.103	0.0171809
837.181	0.0169663
837.259	0.0170645
837.337	0.0172498
837.415	0.0171053
837.494	0.0171342
837.572	0.0170332
837.650	0.0170567
837.728	0.0170224
837.806	0.0171645
837.884	0.0170535
837.962	0.0169440
838.040	0.0169785
838.119	0.0167670
838.197	0.0169068
838.275	0.0168835
838.353	0.0171111
838.431	0.0169398
838.509	0.0168838
838.587	0.0169122
838.665	0.0169897
838.744	0.0172254
838.822	0.0170493
838.900	0.0170819
838.978	0.0171896
839.056	0.0171098
839.134	0.0170923
839.212	0.0170573
839.290	0.0169820
839.369	0.0170476
839.447	0.0170037
839.525	0.0169292
839.603	0.0169129
839.681	0.0169477
839.759	0.0169302
839.837	0.0167479
839.915	0.0169199
839.994	0.0168436
840.072	0.0166433
840.150	0.0165197
840.228	0.0166220
840.306	0.0165554
840.384	0.0165161
840.462	0.0165154
840.540	0.0163235
840.619	0.0162666
840.697	0.0163766
840.775	0.0163783
840.853	0.0162473
840.931	0.0162846
841.009	0.0164155
841.087	0.0163034
841.165	0.0163821
841.244	0.0164503
841.322	0.0164693
841.400	0.0164540
841.478	0.0166730
841.556	0.0166233
841.634	0.0166558
841.712	0.0167679
841.790	0.0169604
841.869	0.0168716
841.947	0.0167316
842.025	0.0169643
842.103	0.0170886
842.181	0.0171697
842.259	0.0170337
842.337	0.0170470
842.415	0.0171363
842.494	0.0171676
842.572	0.0170762
842.650	0.0171091
842.728	0.0171310
842.806	0.0172009
842.884	0.0171568
842.962	0.0170155
843.040	0.0170398
843.119	0.0169177
843.197	0.0168690
843.275	0.0169227
843.353	0.0167152
843.431	0.0168179
843.509	0.0166930
843.587	0.0166818
843.665	0.0167030
843.744	0.0167075
843.822	0.0166114
843.900	0.0165213
843.978	0.0165163
844.056	0.0167690
844.134	0.0165689
844.212	0.0167113
844.290	0.0166367
844.369	0.0167343
844.447	0.0168321
844.525	0.0169084
844.603	0.0167962
844.681	0.0170412
844.759	0.0169361
844.837	0.0168959
844.915	0.0169421
844.994	0.0169833
845.072	0.0169760
845.150	0.0169347
845.228	0.0169678
845.306	0.0169083
845.384	0.0169944
845.462	0.0169134
845.540	0.0170219
845.619	0.0170766
845.697	0.0170611
845.775	0.0170634
845.853	0.0172064
845.931	0.0171412
846.009	0.0170992
846.087	0.0171600
846.165	0.0171024
846.244	0.0172943
846.322	0.0172248
846.400	0.0171506
846.478	0.0170833
846.556	0.0171095
846.634	0.0171166
846.712	0.0171500
846.790	0.0169968
846.869	0.0170233
846.947	0.0170811
847.025	0.0170481
847.103	0.0170390
847.181	0.0169823
847.259	0.0169660
847.337	0.0170631
847.415	0.0171883
847.494	0.0170299
847.572	0.0170429
847.650	0.0170628
847.728	0.0169228
847.806	0.0170486
847.884	0.0169853
847.962	0.0170171
848.040	0.0171339
848.119	0.0170792
848.197	0.0168555
848.275	0.0169090
848.353	0.0170244
848.431	0.0170499
848.509	0.0168732
848.587	0.0169712
848.665	0.0169584
848.744	0.0171012
848.822	0.0169730
848.900	0.0169273
848.978	0.0170774
849.056	0.0171658
849.134	0.0172173
849.212	0.0171658
849.290	0.0171210
849.369	0.0172932
849.447	0.0173531
849.525	0.0173629
849.603	0.0173222
849.681	0.0173957
849.759	0.0173263
849.837	0.0173747
849.915	0.0173685
849.994	0.0172763
850.072	0.0172850
850.150	0.0171583
850.228	0.0171601
850.306	0.0168878
850.384	0.0169136
850.462	0.0168449
850.540	0.0167737
850.619	0.0166962
850.697	0.0166877
850.775	0.0166338
850.853	0.0165430
850.931	0.0166951
851.009	0.0164392
851.087	0.0164790
851.165	0.0164557
851.244	0.0163795
851.322	0.0161948
851.400	0.0162469
851.478	0.0163326
851.556	0.0163065
851.634	0.0163956
851.712	0.0163499
851.790	0.0162842
851.869	0.0163581
851.947	0.0163866
852.025	0.0166032
852.103	0.0165962
852.181	0.0166364
852.259	0.0167314
852.337	0.0168174
852.415	0.0168650
852.494	0.0169418
852.572	0.0169510
852.650	0.0169662
852.728	0.0169838
852.806	0.0170190
852.884	0.0170692
852.962	0.0169961
853.040	0.0171713
853.119	0.0170554
853.197	0.0170811
853.275	0.0171593
853.353	0.0170776
853.431	0.0172072
853.509	0.0172365
853.587	0.0170969
853.665	0.0172369
853.744	0.0173130
853.822	0.0172318
853.900	0.0172153
853.978	0.0172725
854.056	0.0172459
854.134	0.0172123
854.212	0.0172847
854.290	0.0173720
854.369	0.0172652
854.447	0.0173212
854.525	0.0172801
854.603	0.0173049
854.681	0.0172061
854.759	0.0173604
854.837	0.0173291
854.915	0.0174780
854.994	0.0173312
855.072	0.0171983
855.150	0.0173021
855.228	0.0173949
855.306	0.0173363
855.384	0.0172623
855.462	0.0172491
855.540	0.0171820
855.619	0.0172511
855.697	0.0170635
855.775	0.0170956
855.853	0.0170152
855.931	0.0170417
856.009	0.0170441
856.087	0.0169918
856.165	0.0169230
856.244	0.0169563
856.322	0.0169714
856.400	0.0168767
856.478	0.0169350
856.556	0.0168003
856.634	0.0167843
856.712	0.0167760
856.790	0.0168665
856.869	0.0168642
856.947	0.0167313
857.025	0.0168036
857.103	0.0168200
857.181	0.0167097
857.259	0.0167297
857.337	0.0168200
857.415	0.0169576
857.494	0.0169000
857.572	0.0167809
857.650	0.0168948
857.728	0.0168033
857.806	0.0167597
857.884	0.0168634
857.962	0.0168391
858.040	0.0167609
858.119	0.0168701
858.197	0.0169358
858.275	0.0168814
858.353	0.0170311
858.431	0.0169125
858.509	0.0169025
858.587	0.0169123
858.665	0.0168578
858.744	0.0168333
858.822	0.0168133
858.900	0.0168417
858.978	0.0169370
859.056	0.0169466
859.134	0.0168343
859.212	0.0168131
859.290	0.0169057
859.369	0.0167043
859.447	0.0169668
859.525	0.0169636
859.603	0.0169321
859.681	0.0170069
859.759	0.0170880
859.837	0.0172181
859.915	0.0171693
