06/01/2022	17:16:48	Ver.	4.1	UNKNOWN
Optical Delay	599.975067	Delta X		0.078125	Sweeps	1	Scan Rate	0/0
Coordinates	Axis 1	NaN	Axis 2	NaN	Axis 3	NaN	Axis 4	NaN	Axis 5	NaN	Axis 6	0.000000
TX Power	0.000000	RX Power	0.000000

599.975	0.0165617
600.053	0.0164165
600.131	0.0164854
600.209	0.0164783
600.288	0.0164739
600.366	0.0164874
600.444	0.0165118
600.522	0.0165823
600.600	0.0166097
600.678	0.0165768
600.756	0.0165957
600.834	0.0166756
600.913	0.0165827
600.991	0.0165588
601.069	0.0165153
601.147	0.0167291
601.225	0.0165537
601.303	0.0165187
601.381	0.0165213
601.459	0.0165128
601.538	0.0164786
601.616	0.0165673
601.694	0.0164217
601.772	0.0164976
601.850	0.0165244
601.928	0.0165535
602.006	0.0165961
602.084	0.0165411
602.163	0.0165545
602.241	0.0164309
602.319	0.0164488
602.397	0.0164702
602.475	0.0164555
602.553	0.0165525
602.631	0.0166023
602.709	0.0163707
602.788	0.0164502
602.866	0.0165997
602.944	0.0165311
603.022	0.0165982
603.100	0.0166138
603.178	0.0165507
603.256	0.0165013
603.334	0.0165533
603.413	0.0165834
603.491	0.0164794
603.569	0.0165659
603.647	0.0166119
603.725	0.0166478
603.803	0.0164610
603.881	0.0166321
603.959	0.0165348
604.038	0.0165370
604.116	0.0165662
604.194	0.0166643
604.272	0.0165725
604.350	0.0165950
604.428	0.0164639
604.506	0.0164851
604.584	0.0163795
604.663	0.0165623
604.741	0.0167021
604.819	0.0165172
604.897	0.0166509
604.975	0.0165377
605.053	0.0164864
605.131	0.0168821
605.209	0.0165873
605.288	0.0164503
605.366	0.0165403
605.444	0.0166718
605.522	0.0166016
605.600	0.0165285
605.678	0.0166202
605.756	0.0165840
605.834	0.0164989
605.913	0.0164263
605.991	0.0165083
606.069	0.0165414
606.147	0.0165932
606.225	0.0165066
606.303	0.0166618
606.381	0.0166379
606.459	0.0165198
606.538	0.0165536
606.616	0.0165142
606.694	0.0164430
606.772	0.0165550
606.850	0.0165921
606.928	0.0166666
607.006	0.0165934
607.084	0.0166081
607.163	0.0165512
607.241	0.0164949
607.319	0.0165654
607.397	0.0165469
607.475	0.0164654
607.553	0.0164645
607.631	0.0164382
607.709	0.0165365
607.788	0.0165337
607.866	0.0164936
607.944	0.0166795
608.022	0.0164543
608.100	0.0165591
608.178	0.0165096
608.256	0.0166566
608.334	0.0166580
608.413	0.0164561
608.491	0.0165088
608.569	0.0164974
608.647	0.0164960
608.725	0.0165637
608.803	0.0166121
608.881	0.0166190
608.959	0.0165929
609.038	0.0165332
609.116	0.0164430
609.194	0.0165485
609.272	0.0165773
609.350	0.0166054
609.428	0.0164855
609.506	0.0164045
609.584	0.0165647
609.663	0.0165330
609.741	0.0165913
609.819	0.0165787
609.897	0.0164645
609.975	0.0166172
610.053	0.0165428
610.131	0.0163600
610.209	0.0164182
610.288	0.0164811
610.366	0.0164169
610.444	0.0166336
610.522	0.0166178
610.600	0.0165663
610.678	0.0166338
610.756	0.0166597
610.834	0.0165348
610.913	0.0164524
610.991	0.0166602
611.069	0.0164798
611.147	0.0166269
611.225	0.0165820
611.303	0.0165657
611.381	0.0166102
611.459	0.0165443
611.538	0.0165611
611.616	0.0165864
611.694	0.0166564
611.772	0.0165680
611.850	0.0165409
611.928	0.0164735
612.006	0.0165872
612.084	0.0165836
612.163	0.0166734
612.241	0.0165327
612.319	0.0165874
612.397	0.0165747
612.475	0.0164335
612.553	0.0165407
612.631	0.0165847
612.709	0.0166462
612.788	0.0166028
612.866	0.0165820
612.944	0.0165448
613.022	0.0164851
613.100	0.0165302
613.178	0.0166815
613.256	0.0165528
613.334	0.0165582
613.413	0.0165226
613.491	0.0165542
613.569	0.0164478
613.647	0.0165018
613.725	0.0165271
613.803	0.0165193
613.881	0.0164887
613.959	0.0165773
614.038	0.0163231
614.116	0.0165381
614.194	0.0164474
614.272	0.0165663
614.350	0.0165006
614.428	0.0166136
614.506	0.0164896
614.584	0.0166382
614.663	0.0165913
614.741	0.0165298
614.819	0.0166634
614.897	0.0164141
614.975	0.0165224
615.053	0.0165875
615.131	0.0165040
615.209	0.0165874
615.288	0.0166055
615.366	0.0165684
615.444	0.0165293
615.522	0.0164495
615.600	0.0165900
615.678	0.0166935
615.756	0.0163480
615.834	0.0166508
615.913	0.0165575
615.991	0.0165945
616.069	0.0165158
616.147	0.0165981
616.225	0.0164668
616.303	0.0166249
616.381	0.0165694
616.459	0.0164814
616.538	0.0165882
616.616	0.0165011
616.694	0.0163924
616.772	0.0164777
616.850	0.0165604
616.928	0.0164736
617.006	0.0165229
617.084	0.0164671
617.163	0.0165241
617.241	0.0166283
617.319	0.0165699
617.397	0.0165757
617.475	0.0164177
617.553	0.0165163
617.631	0.0165184
617.709	0.0164413
617.788	0.0165042
617.866	0.0164941
617.944	0.0166891
618.022	0.0165758
618.100	0.0165054
618.178	0.0164214
618.256	0.0164958
618.334	0.0165906
618.413	0.0164626
618.491	0.0165979
618.569	0.0166617
618.647	0.0165726
618.725	0.0164714
618.803	0.0165631
618.881	0.0165537
618.959	0.0165641
619.038	0.0166289
619.116	0.0165687
619.194	0.0165518
619.272	0.0165411
619.350	0.0164970
619.428	0.0165441
619.506	0.0165275
619.584	0.0164346
619.663	0.0165949
619.741	0.0165040
619.819	0.0165699
619.897	0.0166553
619.975	0.0165092
620.053	0.0165533
620.131	0.0165387
620.209	0.0165382
620.288	0.0165495
620.366	0.0164580
620.444	0.0164590
620.522	0.0164979
620.600	0.0165936
620.678	0.0166999
620.756	0.0164882
620.834	0.0164135
620.913	0.0165636
620.991	0.0166434
621.069	0.0164707
621.147	0.0165805
621.225	0.0164558
621.303	0.0165921
621.381	0.0166405
621.459	0.0165303
621.538	0.0166010
621.616	0.0165741
621.694	0.0165890
621.772	0.0165809
621.850	0.0166708
621.928	0.0165651
622.006	0.0166068
622.084	0.0166764
622.163	0.0165902
622.241	0.0164376
622.319	0.0164159
622.397	0.0165927
622.475	0.0165380
622.553	0.0166178
622.631	0.0166203
622.709	0.0165697
622.788	0.0165982
622.866	0.0165237
622.944	0.0164462
623.022	0.0166058
623.100	0.0164311
623.178	0.0166132
623.256	0.0165192
623.334	0.0165611
623.413	0.0166631
623.491	0.0165289
623.569	0.0165034
623.647	0.0164414
623.725	0.0166177
623.803	0.0165576
623.881	0.0165094
623.959	0.0164824
624.038	0.0164582
624.116	0.0165346
624.194	0.0165249
624.272	0.0164467
624.350	0.0166207
624.428	0.0165482
624.506	0.0165788
624.584	0.0165340
624.663	0.0165845
624.741	0.0166716
624.819	0.0165450
624.897	0.0164579
624.975	0.0165802
625.053	0.0165049
625.131	0.0165252
625.209	0.0165282
625.288	0.0165164
625.366	0.0165038
625.444	0.0165227
625.522	0.0166438
625.600	0.0165971
625.678	0.0165412
625.756	0.0163957
625.834	0.0164629
625.913	0.0164691
625.991	0.0166005
626.069	0.0165779
626.147	0.0166206
626.225	0.0164654
626.303	0.0165638
626.381	0.0165588
626.459	0.0165035
626.538	0.0163964
626.616	0.0164017
626.694	0.0165929
626.772	0.0165325
626.850	0.0164662
626.928	0.0165173
627.006	0.0165105
627.084	0.0165246
627.163	0.0165759
627.241	0.0166199
627.319	0.0165842
627.397	0.0165056
627.475	0.0164748
627.553	0.0165702
627.631	0.0166013
627.709	0.0164958
627.788	0.0166349
627.866	0.0166953
627.944	0.0165585
628.022	0.0165055
628.100	0.0164536
628.178	0.0165263
628.256	0.0167016
628.334	0.0165243
628.413	0.0165325
628.491	0.0164871
628.569	0.0164885
628.647	0.0164409
628.725	0.0167043
628.803	0.0165793
628.881	0.0164246
628.959	0.0166474
629.038	0.0164835
629.116	0.0165182
629.194	0.0165461
629.272	0.0165402
629.350	0.0164217
629.428	0.0165679
629.506	0.0164251
629.584	0.0164639
629.663	0.0166130
629.741	0.0165254
629.819	0.0164443
629.897	0.0165645
629.975	0.0166316
630.053	0.0165589
630.131	0.0165166
630.209	0.0165784
630.288	0.0164147
630.366	0.0165704
630.444	0.0165290
630.522	0.0165109
630.600	0.0164806
630.678	0.0165021
630.756	0.0165271
630.834	0.0165359
630.913	0.0164391
630.991	0.0164623
631.069	0.0165237
631.147	0.0166099
631.225	0.0166496
631.303	0.0165260
631.381	0.0165750
631.459	0.0164564
631.538	0.0164907
631.616	0.0165705
631.694	0.0165140
631.772	0.0165633
631.850	0.0166090
631.928	0.0164632
632.006	0.0165712
632.084	0.0164896
632.163	0.0165853
632.241	0.0163792
632.319	0.0164895
632.397	0.0165366
632.475	0.0164762
632.553	0.0164741
632.631	0.0166222
632.709	0.0165926
632.788	0.0165251
632.866	0.0166051
632.944	0.0165540
633.022	0.0164540
633.100	0.0164424
633.178	0.0164813
633.256	0.0164749
633.334	0.0165040
633.413	0.0165779
633.491	0.0165907
633.569	0.0165047
633.647	0.0165099
633.725	0.0167390
633.803	0.0164455
633.881	0.0164511
633.959	0.0165424
634.038	0.0166071
634.116	0.0164700
634.194	0.0164986
634.272	0.0164169
634.350	0.0166418
634.428	0.0165907
634.506	0.0165976
634.584	0.0165820
634.663	0.0165883
634.741	0.0165187
634.819	0.0165800
634.897	0.0166486
634.975	0.0165016
635.053	0.0165508
635.131	0.0165810
635.209	0.0166126
635.288	0.0166214
635.366	0.0165327
635.444	0.0164940
635.522	0.0165779
635.600	0.0166269
635.678	0.0165308
635.756	0.0164909
635.834	0.0166011
635.913	0.0165880
635.991	0.0165406
636.069	0.0165948
636.147	0.0165142
636.225	0.0166041
636.303	0.0166557
636.381	0.0165073
636.459	0.0164773
636.538	0.0164638
636.616	0.0165196
636.694	0.0165350
636.772	0.0165610
636.850	0.0164130
636.928	0.0165588
637.006	0.0166199
637.084	0.0165662
637.163	0.0166567
637.241	0.0166159
637.319	0.0163702
637.397	0.0165869
637.475	0.0165524
637.553	0.0165588
637.631	0.0166080
637.709	0.0167188
637.788	0.0165833
637.866	0.0165566
637.944	0.0164899
638.022	0.0166786
638.100	0.0166351
638.178	0.0165586
638.256	0.0166331
638.334	0.0164722
638.413	0.0165606
638.491	0.0165705
638.569	0.0164692
638.647	0.0166029
638.725	0.0166044
638.803	0.0166335
638.881	0.0166765
638.959	0.0164890
639.038	0.0164358
639.116	0.0165707
639.194	0.0164478
639.272	0.0165633
639.350	0.0165501
639.428	0.0165738
639.506	0.0166142
639.584	0.0165502
639.663	0.0166277
639.741	0.0166316
639.819	0.0166912
639.897	0.0165954
639.975	0.0165200
640.053	0.0164726
640.131	0.0165481
640.209	0.0166244
640.288	0.0164507
640.366	0.0166073
640.444	0.0166533
640.522	0.0166270
640.600	0.0165530
640.678	0.0165727
640.756	0.0166430
640.834	0.0165186
640.913	0.0164607
640.991	0.0164919
641.069	0.0165534
641.147	0.0166992
641.225	0.0164220
641.303	0.0166053
641.381	0.0166422
641.459	0.0166566
641.538	0.0165480
641.616	0.0164700
641.694	0.0166496
641.772	0.0165415
641.850	0.0166645
641.928	0.0166161
642.006	0.0165184
642.084	0.0165891
642.163	0.0165739
642.241	0.0165855
642.319	0.0164468
642.397	0.0166920
642.475	0.0164478
642.553	0.0165247
642.631	0.0165436
642.709	0.0165079
642.788	0.0165469
642.866	0.0166541
642.944	0.0165109
643.022	0.0163481
643.100	0.0164844
643.178	0.0165266
643.256	0.0165576
643.334	0.0165723
643.413	0.0164675
643.491	0.0164555
643.569	0.0164725
643.647	0.0166007
643.725	0.0164574
643.803	0.0164894
643.881	0.0165186
643.959	0.0166160
644.038	0.0165698
644.116	0.0165550
644.194	0.0166211
644.272	0.0165185
644.350	0.0164940
644.428	0.0165408
644.506	0.0165611
644.584	0.0165926
644.663	0.0166314
644.741	0.0165634
644.819	0.0165816
644.897	0.0166149
644.975	0.0166085
645.053	0.0165619
645.131	0.0165385
645.209	0.0165389
645.288	0.0166293
645.366	0.0164794
645.444	0.0165925
645.522	0.0165695
645.600	0.0166764
645.678	0.0165044
645.756	0.0166273
645.834	0.0165248
645.913	0.0165786
645.991	0.0165461
646.069	0.0165029
646.147	0.0165594
646.225	0.0165336
646.303	0.0164730
646.381	0.0166033
646.459	0.0165691
646.538	0.0164523
646.616	0.0165508
646.694	0.0165616
646.772	0.0166063
646.850	0.0165919
646.928	0.0165074
647.006	0.0165588
647.084	0.0165654
647.163	0.0164034
647.241	0.0165617
647.319	0.0165215
647.397	0.0166132
647.475	0.0164977
647.553	0.0165578
647.631	0.0167184
647.709	0.0165427
647.788	0.0165166
647.866	0.0166098
647.944	0.0166096
648.022	0.0166112
648.100	0.0165790
648.178	0.0164699
648.256	0.0165005
648.334	0.0165526
648.413	0.0165055
648.491	0.0164789
648.569	0.0165162
648.647	0.0166321
648.725	0.0165556
648.803	0.0164465
648.881	0.0164021
648.959	0.0164785
649.038	0.0165891
649.116	0.0166893
649.194	0.0165351
649.272	0.0166051
649.350	0.0165233
649.428	0.0165720
649.506	0.0166663
649.584	0.0167619
649.663	0.0166465
649.741	0.0165823
649.819	0.0166217
649.897	0.0166040
649.975	0.0165466
650.053	0.0167025
650.131	0.0166378
650.209	0.0164256
650.288	0.0166152
650.366	0.0166215
650.444	0.0166193
650.522	0.0165469
650.600	0.0164832
650.678	0.0165754
650.756	0.0165019
650.834	0.0165178
650.913	0.0165911
650.991	0.0166422
651.069	0.0164681
651.147	0.0165211
651.225	0.0165360
651.303	0.0166759
651.381	0.0166077
651.459	0.0164929
651.538	0.0164617
651.616	0.0165508
651.694	0.0165500
651.772	0.0165891
651.850	0.0164960
651.928	0.0165492
652.006	0.0164642
652.084	0.0166108
652.163	0.0164817
652.241	0.0164651
652.319	0.0164603
652.397	0.0165585
652.475	0.0166225
652.553	0.0164473
652.631	0.0163922
652.709	0.0165398
652.788	0.0165533
652.866	0.0166695
652.944	0.0164539
653.022	0.0164781
653.100	0.0165134
653.178	0.0165595
653.256	0.0166427
653.334	0.0165755
653.413	0.0166011
653.491	0.0166109
653.569	0.0165410
653.647	0.0164866
653.725	0.0165001
653.803	0.0165047
653.881	0.0166605
653.959	0.0165103
654.038	0.0165240
654.116	0.0165728
654.194	0.0164892
654.272	0.0165642
654.350	0.0167044
654.428	0.0165701
654.506	0.0165702
654.584	0.0167004
654.663	0.0166132
654.741	0.0165639
654.819	0.0165586
654.897	0.0165231
654.975	0.0166173
655.053	0.0166545
655.131	0.0164898
655.209	0.0165208
655.288	0.0165544
655.366	0.0165726
655.444	0.0165692
655.522	0.0166081
655.600	0.0165500
655.678	0.0165105
655.756	0.0165076
655.834	0.0165570
655.913	0.0164208
655.991	0.0164960
656.069	0.0164486
656.147	0.0164738
656.225	0.0165455
656.303	0.0165101
656.381	0.0164616
656.459	0.0167233
656.538	0.0165163
656.616	0.0164957
656.694	0.0165253
656.772	0.0165524
656.850	0.0166114
656.928	0.0164343
657.006	0.0164865
657.084	0.0166952
657.163	0.0165889
657.241	0.0165513
657.319	0.0166310
657.397	0.0166047
657.475	0.0164483
657.553	0.0164301
657.631	0.0165655
657.709	0.0166400
657.788	0.0164933
657.866	0.0165583
657.944	0.0164996
658.022	0.0165809
658.100	0.0164572
658.178	0.0166019
658.256	0.0165712
658.334	0.0165498
658.413	0.0165054
658.491	0.0165483
658.569	0.0164758
658.647	0.0165984
658.725	0.0166061
658.803	0.0164940
658.881	0.0165344
658.959	0.0165539
659.038	0.0166543
659.116	0.0165999
659.194	0.0166094
659.272	0.0165390
659.350	0.0165615
659.428	0.0165972
659.506	0.0165764
659.584	0.0165414
659.663	0.0165986
659.741	0.0165102
659.819	0.0165438
659.897	0.0165536
659.975	0.0166213
660.053	0.0165563
660.131	0.0165436
660.209	0.0166895
660.288	0.0165269
660.366	0.0164709
660.444	0.0166856
660.522	0.0164330
660.600	0.0165280
660.678	0.0164867
660.756	0.0165570
660.834	0.0165121
660.913	0.0164063
660.991	0.0164187
661.069	0.0164876
661.147	0.0165728
661.225	0.0165114
661.303	0.0167410
661.381	0.0165689
661.459	0.0165201
661.538	0.0164781
661.616	0.0165411
661.694	0.0165658
661.772	0.0165359
661.850	0.0166272
661.928	0.0166615
662.006	0.0165552
662.084	0.0166740
662.163	0.0165482
662.241	0.0165890
662.319	0.0165892
662.397	0.0165374
662.475	0.0165260
662.553	0.0166624
662.631	0.0166911
662.709	0.0164674
662.788	0.0166107
662.866	0.0165119
662.944	0.0165898
663.022	0.0166276
663.100	0.0165802
663.178	0.0165514
663.256	0.0165173
663.334	0.0165538
663.413	0.0165105
663.491	0.0167262
663.569	0.0165499
663.647	0.0164642
663.725	0.0164996
663.803	0.0166430
663.881	0.0165801
663.959	0.0166599
664.038	0.0165621
664.116	0.0164484
664.194	0.0164973
664.272	0.0166480
664.350	0.0165081
664.428	0.0164272
664.506	0.0165035
664.584	0.0165357
664.663	0.0164657
664.741	0.0165295
664.819	0.0166131
664.897	0.0164088
664.975	0.0163625
665.053	0.0165076
665.131	0.0165123
665.209	0.0166225
665.288	0.0164743
665.366	0.0165128
665.444	0.0164771
665.522	0.0165894
665.600	0.0164984
665.678	0.0164468
665.756	0.0164745
665.834	0.0164186
665.913	0.0166218
665.991	0.0164247
666.069	0.0165359
666.147	0.0164994
666.225	0.0164339
666.303	0.0165066
666.381	0.0164561
666.459	0.0164806
666.538	0.0164508
666.616	0.0164639
666.694	0.0165307
666.772	0.0164086
666.850	0.0165197
666.928	0.0165015
667.006	0.0163675
667.084	0.0165742
667.163	0.0164233
667.241	0.0163322
667.319	0.0165145
667.397	0.0165098
667.475	0.0163571
667.553	0.0164048
667.631	0.0164956
667.709	0.0164079
667.788	0.0165821
667.866	0.0163452
667.944	0.0165005
668.022	0.0164124
668.100	0.0165568
668.178	0.0164899
668.256	0.0163582
668.334	0.0164451
668.413	0.0164937
668.491	0.0164979
668.569	0.0165005
668.647	0.0163841
668.725	0.0164124
668.803	0.0165745
668.881	0.0165834
668.959	0.0164708
669.038	0.0164528
669.116	0.0164233
669.194	0.0164675
669.272	0.0164247
669.350	0.0163602
669.428	0.0164441
669.506	0.0165245
669.584	0.0165745
669.663	0.0165188
669.741	0.0165717
669.819	0.0165075
669.897	0.0165623
669.975	0.0164941
670.053	0.0164832
670.131	0.0165387
670.209	0.0163370
670.288	0.0164774
670.366	0.0164986
670.444	0.0166041
670.522	0.0163995
670.600	0.0163929
670.678	0.0164711
670.756	0.0165308
670.834	0.0165919
670.913	0.0165203
670.991	0.0166028
671.069	0.0164932
671.147	0.0165405
671.225	0.0165291
671.303	0.0164809
671.381	0.0164111
671.459	0.0164277
671.538	0.0165995
671.616	0.0165466
671.694	0.0164330
671.772	0.0165493
671.850	0.0165423
671.928	0.0165114
672.006	0.0166508
672.084	0.0166576
672.163	0.0166480
672.241	0.0166030
672.319	0.0166106
672.397	0.0164539
672.475	0.0166403
672.553	0.0166208
672.631	0.0166180
672.709	0.0166744
672.788	0.0165846
672.866	0.0165929
672.944	0.0166982
673.022	0.0165042
673.100	0.0166219
673.178	0.0165790
673.256	0.0167297
673.334	0.0166262
673.413	0.0166425
673.491	0.0167989
673.569	0.0167147
673.647	0.0166176
673.725	0.0166792
673.803	0.0167438
673.881	0.0167316
673.959	0.0166561
674.038	0.0164473
674.116	0.0166932
674.194	0.0167270
674.272	0.0169415
674.350	0.0166142
674.428	0.0167352
674.506	0.0166719
674.584	0.0167482
674.663	0.0167494
674.741	0.0166883
674.819	0.0165969
674.897	0.0167947
674.975	0.0168148
675.053	0.0167234
675.131	0.0166850
675.209	0.0166496
675.288	0.0167750
675.366	0.0167401
675.444	0.0167082
675.522	0.0167667
675.600	0.0167489
675.678	0.0167360
675.756	0.0168012
675.834	0.0167096
675.913	0.0165876
675.991	0.0166061
676.069	0.0166408
676.147	0.0166615
676.225	0.0166079
676.303	0.0168533
676.381	0.0168631
676.459	0.0166366
676.538	0.0165232
676.616	0.0167488
676.694	0.0168381
676.772	0.0167318
676.850	0.0166418
676.928	0.0166148
677.006	0.0166628
677.084	0.0166599
677.163	0.0166850
677.241	0.0165382
677.319	0.0166012
677.397	0.0166609
677.475	0.0165954
677.553	0.0166766
677.631	0.0165805
677.709	0.0165286
677.788	0.0166859
677.866	0.0165079
677.944	0.0165258
678.022	0.0165381
678.100	0.0166200
678.178	0.0165607
678.256	0.0164971
678.334	0.0165317
678.413	0.0166144
678.491	0.0164994
678.569	0.0165044
678.647	0.0165233
678.725	0.0164914
678.803	0.0164027
678.881	0.0164625
678.959	0.0165025
679.038	0.0164965
679.116	0.0164050
679.194	0.0163881
679.272	0.0164842
679.350	0.0164882
679.428	0.0164182
679.506	0.0164381
679.584	0.0163947
679.663	0.0165559
679.741	0.0165225
679.819	0.0164169
679.897	0.0163326
679.975	0.0165309
680.053	0.0165242
680.131	0.0163365
680.209	0.0165830
680.288	0.0164467
680.366	0.0163686
680.444	0.0163910
680.522	0.0164961
680.600	0.0164061
680.678	0.0164375
680.756	0.0163683
680.834	0.0164150
680.913	0.0164096
680.991	0.0165079
681.069	0.0163633
681.147	0.0164786
681.225	0.0164241
681.303	0.0164146
681.381	0.0165441
681.459	0.0163821
681.538	0.0163232
681.616	0.0164379
681.694	0.0164756
681.772	0.0165501
681.850	0.0163137
681.928	0.0163779
682.006	0.0164285
682.084	0.0164668
682.163	0.0164796
682.241	0.0163725
682.319	0.0164664
682.397	0.0164670
682.475	0.0164769
682.553	0.0164773
682.631	0.0165475
682.709	0.0164436
682.788	0.0164328
682.866	0.0164411
682.944	0.0164571
683.022	0.0165808
683.100	0.0163894
683.178	0.0164928
683.256	0.0165488
683.334	0.0165691
683.413	0.0163626
683.491	0.0164883
683.569	0.0165276
683.647	0.0165042
683.725	0.0164494
683.803	0.0163798
683.881	0.0164189
683.959	0.0166518
684.038	0.0165804
684.116	0.0166775
684.194	0.0166182
684.272	0.0166611
684.350	0.0164680
684.428	0.0165327
684.506	0.0165937
684.584	0.0164360
684.663	0.0164495
684.741	0.0167008
684.819	0.0166658
684.897	0.0165473
684.975	0.0166167
685.053	0.0164418
685.131	0.0165356
685.209	0.0165432
685.288	0.0164145
685.366	0.0164085
685.444	0.0165709
685.522	0.0165685
685.600	0.0165233
685.678	0.0165647
685.756	0.0164847
685.834	0.0166016
685.913	0.0165070
685.991	0.0166490
686.069	0.0165861
686.147	0.0165929
686.225	0.0165479
686.303	0.0164668
686.381	0.0165233
686.459	0.0166420
686.538	0.0167129
686.616	0.0165520
686.694	0.0166495
686.772	0.0165294
686.850	0.0165687
686.928	0.0165749
687.006	0.0166825
687.084	0.0164618
687.163	0.0164418
687.241	0.0162760
687.319	0.0162190
687.397	0.0161996
687.475	0.0159811
687.553	0.0159930
687.631	0.0162820
687.709	0.0164974
687.788	0.0166208
687.866	0.0168743
687.944	0.0173143
688.022	0.0174448
688.100	0.0178451
688.178	0.0179660
688.256	0.0181209
688.334	0.0178123
688.413	0.0174284
688.491	0.0170135
688.569	0.0163074
688.647	0.0154634
688.725	0.0148744
688.803	0.0142565
688.881	0.0137385
688.959	0.0134759
689.038	0.0137026
689.116	0.0141155
689.194	0.0147890
689.272	0.0155888
689.350	0.0167049
689.428	0.0174881
689.506	0.0185244
689.584	0.0195389
689.663	0.0201719
689.741	0.0205754
689.819	0.0207047
689.897	0.0204355
689.975	0.0199611
690.053	0.0193958
690.131	0.0185814
690.209	0.0173869
690.288	0.0162034
690.366	0.0151376
690.444	0.0141922
690.522	0.0132037
690.600	0.0123049
690.678	0.0118411
690.756	0.0118397
690.834	0.0116546
690.913	0.0120472
690.991	0.0126022
691.069	0.0133728
691.147	0.0143316
691.225	0.0154575
691.303	0.0166861
691.381	0.0178492
691.459	0.0188409
691.538	0.0197630
691.616	0.0206524
691.694	0.0212473
691.772	0.0213835
691.850	0.0214239
691.928	0.0213234
692.006	0.0207997
692.084	0.0203125
692.163	0.0195516
692.241	0.0185626
692.319	0.0177631
692.397	0.0165584
692.475	0.0155461
692.553	0.0148832
692.631	0.0141563
692.709	0.0136930
692.788	0.0131886
692.866	0.0129109
692.944	0.0128609
693.022	0.0130217
693.100	0.0132071
693.178	0.0134374
693.256	0.0137268
693.334	0.0141084
693.413	0.0144463
693.491	0.0147698
693.569	0.0151176
693.647	0.0155029
693.725	0.0158429
693.803	0.0160929
693.881	0.0165033
693.959	0.0168163
694.038	0.0171951
694.116	0.0175101
694.194	0.0178946
694.272	0.0183195
694.350	0.0187853
694.428	0.0190081
694.506	0.0192785
694.584	0.0193217
694.663	0.0195490
694.741	0.0194484
694.819	0.0193668
694.897	0.0191208
694.975	0.0188224
695.053	0.0186514
695.131	0.0181919
695.209	0.0179091
695.288	0.0174824
695.366	0.0171799
695.444	0.0167473
695.522	0.0164561
695.600	0.0160589
695.678	0.0157745
695.756	0.0155509
695.834	0.0153188
695.913	0.0150051
695.991	0.0146349
696.069	0.0144254
696.147	0.0142894
696.225	0.0140603
696.303	0.0137956
696.381	0.0137422
696.459	0.0136659
696.538	0.0134887
696.616	0.0134993
696.694	0.0137312
696.772	0.0139485
696.850	0.0142729
696.928	0.0145283
697.006	0.0147883
697.084	0.0152390
697.163	0.0156747
697.241	0.0163103
697.319	0.0165089
697.397	0.0170394
697.475	0.0175416
697.553	0.0179422
697.631	0.0182187
697.709	0.0186042
697.788	0.0190877
697.866	0.0192232
697.944	0.0194696
698.022	0.0195625
698.100	0.0196978
698.178	0.0198709
698.256	0.0197655
698.334	0.0196108
698.413	0.0196250
698.491	0.0193976
698.569	0.0191160
698.647	0.0188045
698.725	0.0183972
698.803	0.0179877
698.881	0.0177372
698.959	0.0172174
699.038	0.0166974
699.116	0.0165327
699.194	0.0159832
699.272	0.0157098
699.350	0.0153956
699.428	0.0152018
699.506	0.0149500
699.584	0.0146817
699.663	0.0145746
699.741	0.0144582
699.819	0.0143063
699.897	0.0141154
699.975	0.0140829
700.053	0.0141229
700.131	0.0139655
700.209	0.0138699
700.288	0.0140565
700.366	0.0141693
700.444	0.0140923
700.522	0.0143494
700.600	0.0144519
700.678	0.0145492
700.756	0.0150260
700.834	0.0152409
700.913	0.0156298
700.991	0.0160170
701.069	0.0163177
701.147	0.0168074
701.225	0.0172490
701.303	0.0174583
701.381	0.0179153
701.459	0.0181590
701.538	0.0184370
701.616	0.0186980
701.694	0.0188861
701.772	0.0189028
701.850	0.0189159
701.928	0.0189948
702.006	0.0189441
702.084	0.0188708
702.163	0.0186530
702.241	0.0187016
702.319	0.0183807
702.397	0.0182234
702.475	0.0182596
702.553	0.0179391
702.631	0.0177332
702.709	0.0175504
702.788	0.0173508
702.866	0.0170428
702.944	0.0170659
703.022	0.0167859
703.100	0.0164944
703.178	0.0163025
703.256	0.0161589
703.334	0.0159380
703.413	0.0158994
703.491	0.0157640
703.569	0.0157716
703.647	0.0155698
703.725	0.0156991
703.803	0.0156876
703.881	0.0157713
703.959	0.0158190
704.038	0.0159241
704.116	0.0159344
704.194	0.0159706
704.272	0.0161200
704.350	0.0158490
704.428	0.0158502
704.506	0.0158776
704.584	0.0156693
704.663	0.0155980
704.741	0.0154405
704.819	0.0154502
704.897	0.0153352
704.975	0.0152844
705.053	0.0152618
705.131	0.0152155
705.209	0.0151101
705.288	0.0151298
705.366	0.0153064
705.444	0.0153951
705.522	0.0153172
705.600	0.0154881
705.678	0.0156955
705.756	0.0160126
705.834	0.0160479
705.913	0.0162552
705.991	0.0165833
706.069	0.0165812
706.147	0.0168333
706.225	0.0171338
706.303	0.0173024
706.381	0.0175334
706.459	0.0176532
706.538	0.0178920
706.616	0.0179728
706.694	0.0183356
706.772	0.0184167
706.850	0.0184829
706.928	0.0185520
707.006	0.0186767
707.084	0.0187340
707.163	0.0185796
707.241	0.0184101
707.319	0.0183012
707.397	0.0180184
707.475	0.0175540
707.553	0.0172868
707.631	0.0170941
707.709	0.0165913
707.788	0.0161813
707.866	0.0158797
707.944	0.0155898
708.022	0.0155304
708.100	0.0154462
708.178	0.0152648
708.256	0.0152184
708.334	0.0153565
708.413	0.0154358
708.491	0.0156386
708.569	0.0158119
708.647	0.0160757
708.725	0.0161587
708.803	0.0161469
708.881	0.0161456
708.959	0.0162491
709.038	0.0162176
709.116	0.0160351
709.194	0.0160147
709.272	0.0159071
709.350	0.0157035
709.428	0.0153938
709.506	0.0153251
709.584	0.0153466
709.663	0.0151331
709.741	0.0152530
709.819	0.0151328
709.897	0.0153607
709.975	0.0155068
710.053	0.0155025
710.131	0.0155437
710.209	0.0159058
710.288	0.0160346
710.366	0.0163215
710.444	0.0163649
710.522	0.0164952
710.600	0.0167387
710.678	0.0167838
710.756	0.0169316
710.834	0.0168236
710.913	0.0168577
710.991	0.0169762
711.069	0.0169205
711.147	0.0169493
711.225	0.0170078
711.303	0.0172626
711.381	0.0173084
711.459	0.0174174
711.538	0.0174451
711.616	0.0176548
711.694	0.0179490
711.772	0.0179154
711.850	0.0180587
711.928	0.0180029
712.006	0.0180367
712.084	0.0179613
712.163	0.0179822
712.241	0.0178749
712.319	0.0177116
712.397	0.0175872
712.475	0.0175939
712.553	0.0174564
712.631	0.0173473
712.709	0.0171035
712.788	0.0168225
712.866	0.0169321
712.944	0.0167657
713.022	0.0165224
713.100	0.0164645
713.178	0.0163633
713.256	0.0163354
713.334	0.0160969
713.413	0.0159769
713.491	0.0161189
713.569	0.0158662
713.647	0.0160233
713.725	0.0159145
713.803	0.0159148
713.881	0.0159941
713.959	0.0160160
714.038	0.0159618
714.116	0.0160267
714.194	0.0159927
714.272	0.0160447
714.350	0.0159901
714.428	0.0158739
714.506	0.0160072
714.584	0.0159390
714.663	0.0158028
714.741	0.0157451
714.819	0.0155607
714.897	0.0154912
714.975	0.0156495
715.053	0.0155438
715.131	0.0155603
715.209	0.0155634
715.288	0.0155962
715.366	0.0158213
715.444	0.0159190
715.522	0.0161783
715.600	0.0162077
715.678	0.0164355
715.756	0.0165876
715.834	0.0166750
715.913	0.0168649
715.991	0.0169319
716.069	0.0172463
716.147	0.0171783
716.225	0.0170631
716.303	0.0170991
716.381	0.0169382
716.459	0.0169318
716.538	0.0166305
716.616	0.0166778
716.694	0.0166812
716.772	0.0166750
716.850	0.0167588
716.928	0.0167310
717.006	0.0170126
717.084	0.0170759
717.163	0.0172869
717.241	0.0176401
717.319	0.0178489
717.397	0.0179321
717.475	0.0180395
717.553	0.0182524
717.631	0.0183691
717.709	0.0183253
717.788	0.0183678
717.866	0.0183055
717.944	0.0180768
718.022	0.0177833
718.100	0.0175711
718.178	0.0172072
718.256	0.0169538
718.334	0.0164625
718.413	0.0163112
718.491	0.0160674
718.569	0.0156952
718.647	0.0155761
718.725	0.0154609
718.803	0.0152579
718.881	0.0152830
718.959	0.0152956
719.038	0.0152847
719.116	0.0153223
719.194	0.0153033
719.272	0.0154433
719.350	0.0156025
719.428	0.0155540
719.506	0.0156281
719.584	0.0156281
719.663	0.0156842
719.741	0.0157499
719.819	0.0156712
719.897	0.0157020
719.975	0.0157623
720.053	0.0156246
720.131	0.0156938
720.209	0.0157820
720.288	0.0158332
720.366	0.0158352
720.444	0.0159364
720.522	0.0160654
720.600	0.0162058
720.678	0.0165265
720.756	0.0164938
720.834	0.0165762
720.913	0.0165900
720.991	0.0168680
721.069	0.0168716
721.147	0.0169885
721.225	0.0170135
721.303	0.0170341
721.381	0.0169505
721.459	0.0170039
721.538	0.0170670
721.616	0.0169094
721.694	0.0168679
721.772	0.0169199
721.850	0.0168456
721.928	0.0169298
722.006	0.0168066
722.084	0.0167017
722.163	0.0167618
722.241	0.0166013
722.319	0.0169112
722.397	0.0168330
722.475	0.0168129
722.553	0.0170963
722.631	0.0170889
722.709	0.0170859
722.788	0.0170469
722.866	0.0172456
722.944	0.0173245
723.022	0.0172841
723.100	0.0172282
723.178	0.0172226
723.256	0.0172287
723.334	0.0172835
723.413	0.0170689
723.491	0.0169446
723.569	0.0167467
723.647	0.0165794
723.725	0.0165838
723.803	0.0164408
723.881	0.0164040
723.959	0.0162521
724.038	0.0161908
724.116	0.0161378
724.194	0.0160178
724.272	0.0160645
724.350	0.0160471
724.428	0.0162177
724.506	0.0162037
724.584	0.0161993
724.663	0.0163835
724.741	0.0165611
724.819	0.0165479
724.897	0.0165438
724.975	0.0166549
725.053	0.0166058
725.131	0.0167041
725.209	0.0166290
725.288	0.0164140
725.366	0.0164329
725.444	0.0163969
725.522	0.0162904
725.600	0.0162124
725.678	0.0159920
725.756	0.0160326
725.834	0.0159129
725.913	0.0159095
725.991	0.0159239
726.069	0.0159030
726.147	0.0159293
726.225	0.0159499
726.303	0.0160043
726.381	0.0160600
726.459	0.0160616
726.538	0.0163361
726.616	0.0164089
726.694	0.0164898
726.772	0.0166393
726.850	0.0167702
726.928	0.0167182
727.006	0.0167747
727.084	0.0168326
727.163	0.0169505
727.241	0.0171246
727.319	0.0170213
727.397	0.0170226
727.475	0.0170779
727.553	0.0170200
727.631	0.0169530
727.709	0.0168707
727.788	0.0168591
727.866	0.0168687
727.944	0.0167368
728.022	0.0166955
728.100	0.0166789
728.178	0.0168076
728.256	0.0166344
728.334	0.0167589
728.413	0.0168663
728.491	0.0166408
728.569	0.0164790
728.647	0.0165532
728.725	0.0165553
728.803	0.0167638
728.881	0.0166997
728.959	0.0166477
729.038	0.0167780
729.116	0.0166649
729.194	0.0168420
729.272	0.0169859
729.350	0.0167712
729.428	0.0169005
729.506	0.0170512
729.584	0.0170020
729.663	0.0170207
729.741	0.0169080
729.819	0.0169092
729.897	0.0168871
729.975	0.0169019
730.053	0.0167805
730.131	0.0166057
730.209	0.0165089
730.288	0.0163897
730.366	0.0164238
730.444	0.0163101
730.522	0.0162866
730.600	0.0162453
730.678	0.0161408
730.756	0.0161633
730.834	0.0160886
730.913	0.0160716
730.991	0.0162495
731.069	0.0162597
731.147	0.0161256
731.225	0.0160796
731.303	0.0160076
731.381	0.0159148
731.459	0.0158003
731.538	0.0160109
731.616	0.0159792
731.694	0.0159229
731.772	0.0158147
731.850	0.0158164
731.928	0.0156601
732.006	0.0157067
732.084	0.0156821
732.163	0.0158695
732.241	0.0158746
732.319	0.0159595
732.397	0.0160156
732.475	0.0159969
732.553	0.0161559
732.631	0.0164248
732.709	0.0163815
732.788	0.0164314
732.866	0.0164340
732.944	0.0165746
733.022	0.0166605
733.100	0.0168166
733.178	0.0167367
733.256	0.0167644
733.334	0.0168399
733.413	0.0167895
733.491	0.0168295
733.569	0.0168354
733.647	0.0169537
733.725	0.0170670
733.803	0.0169663
733.881	0.0170289
733.959	0.0170554
734.038	0.0171156
734.116	0.0169430
734.194	0.0168434
734.272	0.0170464
734.350	0.0168810
734.428	0.0168641
734.506	0.0167874
734.584	0.0168311
734.663	0.0166109
734.741	0.0164808
734.819	0.0164687
734.897	0.0164664
734.975	0.0162804
735.053	0.0163096
735.131	0.0163574
735.209	0.0165217
735.288	0.0163203
735.366	0.0163356
735.444	0.0165491
735.522	0.0166753
735.600	0.0165145
735.678	0.0166638
735.756	0.0166537
735.834	0.0166145
735.913	0.0167397
735.991	0.0167013
736.069	0.0167485
736.147	0.0167484
736.225	0.0165923
736.303	0.0166636
736.381	0.0165427
736.459	0.0165063
736.538	0.0166352
736.616	0.0165861
736.694	0.0164313
736.772	0.0165243
736.850	0.0166350
736.928	0.0166461
737.006	0.0167640
737.084	0.0167020
737.163	0.0167824
737.241	0.0168016
737.319	0.0167488
737.397	0.0167168
737.475	0.0167818
737.553	0.0167002
737.631	0.0168679
737.709	0.0166160
737.788	0.0164912
737.866	0.0165179
737.944	0.0163637
738.022	0.0163355
738.100	0.0162007
738.178	0.0162045
738.256	0.0160698
738.334	0.0159991
738.413	0.0161190
738.491	0.0161028
738.569	0.0161442
738.647	0.0160320
738.725	0.0160748
738.803	0.0162144
738.881	0.0161969
738.959	0.0163160
739.038	0.0161858
739.116	0.0163490
739.194	0.0163738
739.272	0.0165553
739.350	0.0163777
739.428	0.0164168
739.506	0.0163545
739.584	0.0164406
739.663	0.0164207
739.741	0.0163757
739.819	0.0163445
739.897	0.0164197
739.975	0.0162325
740.053	0.0164232
740.131	0.0165147
740.209	0.0165121
740.288	0.0165344
740.366	0.0166894
740.444	0.0166870
740.522	0.0165590
740.600	0.0167491
740.678	0.0167471
740.756	0.0169717
740.834	0.0167699
740.913	0.0169382
740.991	0.0169003
741.069	0.0169731
741.147	0.0168526
741.225	0.0169380
741.303	0.0169322
741.381	0.0168835
741.459	0.0169604
741.538	0.0169591
741.616	0.0168967
741.694	0.0168826
741.772	0.0169149
741.850	0.0167708
741.928	0.0167464
742.006	0.0167476
742.084	0.0167493
742.163	0.0165451
742.241	0.0165788
742.319	0.0166776
742.397	0.0165893
742.475	0.0166042
742.553	0.0165304
742.631	0.0165113
742.709	0.0164655
742.788	0.0165704
742.866	0.0166220
742.944	0.0165810
743.022	0.0165967
743.100	0.0165627
743.178	0.0165503
743.256	0.0165009
743.334	0.0167004
743.413	0.0165914
743.491	0.0166080
743.569	0.0166400
743.647	0.0165980
743.725	0.0163758
743.803	0.0164422
743.881	0.0164103
743.959	0.0165784
744.038	0.0163236
744.116	0.0162770
744.194	0.0161779
744.272	0.0161901
744.350	0.0162516
744.428	0.0162278
744.506	0.0162041
744.584	0.0160413
744.663	0.0161387
744.741	0.0160114
744.819	0.0159898
744.897	0.0160771
744.975	0.0161504
745.053	0.0160716
745.131	0.0159949
745.209	0.0159293
745.288	0.0160048
745.366	0.0158498
745.444	0.0159431
745.522	0.0160541
745.600	0.0159997
745.678	0.0161320
745.756	0.0162653
745.834	0.0163968
745.913	0.0163670
745.991	0.0163831
746.069	0.0163731
746.147	0.0165342
746.225	0.0166156
746.303	0.0166999
746.381	0.0166271
746.459	0.0167689
746.538	0.0167530
746.616	0.0167580
746.694	0.0167348
746.772	0.0167320
746.850	0.0168794
746.928	0.0167987
747.006	0.0168900
747.084	0.0168221
747.163	0.0171025
747.241	0.0169603
747.319	0.0169818
747.397	0.0169273
747.475	0.0169058
747.553	0.0171465
747.631	0.0169622
747.709	0.0168642
747.788	0.0169055
747.866	0.0167313
747.944	0.0166515
748.022	0.0165371
748.100	0.0166072
748.178	0.0164822
748.256	0.0163739
748.334	0.0163580
748.413	0.0163439
748.491	0.0164043
748.569	0.0163116
748.647	0.0163598
748.725	0.0162214
748.803	0.0162550
748.881	0.0163385
748.959	0.0164087
749.038	0.0163621
749.116	0.0163199
749.194	0.0165051
749.272	0.0165653
749.350	0.0165301
749.428	0.0164148
749.506	0.0165463
749.584	0.0167648
749.663	0.0167639
749.741	0.0169283
749.819	0.0168422
749.897	0.0168443
749.975	0.0168077
750.053	0.0168731
750.131	0.0167123
750.209	0.0166440
750.288	0.0165548
750.366	0.0166244
750.444	0.0165395
750.522	0.0164922
750.600	0.0164693
750.678	0.0163845
750.756	0.0162987
750.834	0.0163686
750.913	0.0163889
750.991	0.0163761
751.069	0.0163402
751.147	0.0164719
751.225	0.0165344
751.303	0.0167045
751.381	0.0166615
751.459	0.0166277
751.538	0.0166521
751.616	0.0166181
751.694	0.0167370
751.772	0.0167428
751.850	0.0166299
751.928	0.0167490
752.006	0.0167229
752.084	0.0166917
752.163	0.0166703
752.241	0.0166016
752.319	0.0166644
752.397	0.0164376
752.475	0.0163959
752.553	0.0164748
752.631	0.0163420
752.709	0.0163554
752.788	0.0163738
752.866	0.0162271
752.944	0.0163384
753.022	0.0162869
753.100	0.0162385
753.178	0.0162458
753.256	0.0162099
753.334	0.0161562
753.413	0.0163103
753.491	0.0164341
753.569	0.0162560
753.647	0.0162238
753.725	0.0163400
753.803	0.0164007
753.881	0.0165035
753.959	0.0164509
754.038	0.0165290
754.116	0.0165639
754.194	0.0166945
754.272	0.0167422
754.350	0.0167748
754.428	0.0166726
754.506	0.0167954
754.584	0.0167471
754.663	0.0167175
754.741	0.0167490
754.819	0.0167379
754.897	0.0166884
754.975	0.0166821
755.053	0.0167369
755.131	0.0168126
755.209	0.0166521
755.288	0.0166242
755.366	0.0167153
755.444	0.0166428
755.522	0.0167683
755.600	0.0167659
755.678	0.0165504
755.756	0.0165475
755.834	0.0166982
755.913	0.0165417
755.991	0.0165482
756.069	0.0164569
756.147	0.0165845
756.225	0.0165740
756.303	0.0165026
756.381	0.0164998
756.459	0.0163641
756.538	0.0164791
756.616	0.0165801
756.694	0.0166462
756.772	0.0165607
756.850	0.0165287
756.928	0.0165212
757.006	0.0165407
757.084	0.0166048
757.163	0.0165635
757.241	0.0165725
757.319	0.0166531
757.397	0.0166404
757.475	0.0166043
757.553	0.0167038
757.631	0.0166703
757.709	0.0165731
757.788	0.0165715
757.866	0.0166307
757.944	0.0167011
758.022	0.0164760
758.100	0.0163982
758.178	0.0165423
758.256	0.0162616
758.334	0.0163449
758.413	0.0162273
758.491	0.0162290
758.569	0.0162894
758.647	0.0161805
758.725	0.0161688
758.803	0.0162315
758.881	0.0162141
758.959	0.0162023
759.038	0.0163238
759.116	0.0163203
759.194	0.0161468
759.272	0.0164832
759.350	0.0165833
759.428	0.0166010
759.506	0.0165989
759.584	0.0165411
759.663	0.0165504
759.741	0.0166747
759.819	0.0166518
759.897	0.0168031
759.975	0.0167179
760.053	0.0165084
760.131	0.0165665
760.209	0.0168222
760.288	0.0168285
760.366	0.0166428
760.444	0.0168302
760.522	0.0167090
760.600	0.0167991
760.678	0.0167847
760.756	0.0167561
760.834	0.0167062
760.913	0.0167119
760.991	0.0167383
761.069	0.0166386
761.147	0.0164672
761.225	0.0166103
761.303	0.0165607
761.381	0.0165099
761.459	0.0164790
761.538	0.0164273
761.616	0.0164928
761.694	0.0164596
761.772	0.0164316
761.850	0.0165630
761.928	0.0166240
762.006	0.0165703
762.084	0.0166233
762.163	0.0164609
762.241	0.0165611
762.319	0.0166880
762.397	0.0166056
762.475	0.0165469
762.553	0.0165753
762.631	0.0165984
762.709	0.0164214
762.788	0.0165197
762.866	0.0164725
762.944	0.0164024
763.022	0.0164703
763.100	0.0165237
763.178	0.0164141
763.256	0.0164581
763.334	0.0165693
763.413	0.0164880
763.491	0.0164209
763.569	0.0165238
763.647	0.0166702
763.725	0.0166890
763.803	0.0165823
763.881	0.0165273
763.959	0.0166396
764.038	0.0165277
764.116	0.0166277
764.194	0.0166730
764.272	0.0167830
764.350	0.0165829
764.428	0.0167609
764.506	0.0167750
764.584	0.0169225
764.663	0.0169109
764.741	0.0168902
764.819	0.0168874
764.897	0.0168806
764.975	0.0168736
765.053	0.0169445
765.131	0.0168924
765.209	0.0169381
765.288	0.0168375
765.366	0.0167918
765.444	0.0167832
765.522	0.0167390
765.600	0.0166605
765.678	0.0166031
765.756	0.0166347
765.834	0.0165783
765.913	0.0164591
765.991	0.0163251
766.069	0.0162446
766.147	0.0161887
766.225	0.0161087
766.303	0.0159440
766.381	0.0160744
766.459	0.0160856
766.538	0.0160609
766.616	0.0158524
766.694	0.0159351
766.772	0.0159237
766.850	0.0158303
766.928	0.0161534
767.006	0.0160407
767.084	0.0161103
767.163	0.0161841
767.241	0.0162064
767.319	0.0162368
767.397	0.0162924
767.475	0.0162677
767.553	0.0164235
767.631	0.0164053
767.709	0.0165314
767.788	0.0164378
767.866	0.0166003
767.944	0.0164019
768.022	0.0164946
768.100	0.0166692
768.178	0.0165216
768.256	0.0166348
768.334	0.0165113
768.413	0.0165665
768.491	0.0165444
768.569	0.0165800
768.647	0.0165857
768.725	0.0166921
768.803	0.0166368
768.881	0.0166550
768.959	0.0164915
769.038	0.0166016
769.116	0.0165919
769.194	0.0166201
769.272	0.0167610
769.350	0.0166003
769.428	0.0164756
769.506	0.0165659
769.584	0.0166433
769.663	0.0167316
769.741	0.0166496
769.819	0.0166432
769.897	0.0167120
769.975	0.0168323
770.053	0.0167753
770.131	0.0167031
770.209	0.0167468
770.288	0.0168449
770.366	0.0167815
770.444	0.0167719
770.522	0.0169427
770.600	0.0168538
770.678	0.0170260
770.756	0.0167892
770.834	0.0167835
770.913	0.0170082
770.991	0.0169017
771.069	0.0168056
771.147	0.0168694
771.225	0.0165855
771.303	0.0165849
771.381	0.0166942
771.459	0.0165002
771.538	0.0161972
771.616	0.0162670
771.694	0.0162202
771.772	0.0162940
771.850	0.0159935
771.928	0.0160558
772.006	0.0159625
772.084	0.0159972
772.163	0.0160036
772.241	0.0160814
772.319	0.0161486
772.397	0.0159946
772.475	0.0160829
772.553	0.0161653
772.631	0.0163243
772.709	0.0162766
772.788	0.0164729
772.866	0.0167104
772.944	0.0167318
773.022	0.0166906
773.100	0.0167112
773.178	0.0168471
773.256	0.0168739
773.334	0.0168575
773.413	0.0169544
773.491	0.0168480
773.569	0.0170196
773.647	0.0171035
773.725	0.0169807
773.803	0.0168278
773.881	0.0169624
773.959	0.0167553
774.038	0.0166910
774.116	0.0167035
774.194	0.0166512
774.272	0.0164838
774.350	0.0164722
774.428	0.0164272
774.506	0.0161810
774.584	0.0162285
774.663	0.0162113
774.741	0.0162356
774.819	0.0163031
774.897	0.0161877
774.975	0.0161748
775.053	0.0163425
775.131	0.0162341
775.209	0.0162083
775.288	0.0163167
775.366	0.0162947
775.444	0.0163175
775.522	0.0163789
775.600	0.0164152
775.678	0.0165312
775.756	0.0165673
775.834	0.0165327
775.913	0.0164175
775.991	0.0165182
776.069	0.0166795
776.147	0.0166989
776.225	0.0167322
776.303	0.0166801
776.381	0.0168101
776.459	0.0167580
776.538	0.0169187
776.616	0.0168950
776.694	0.0168213
776.772	0.0169396
776.850	0.0170033
776.928	0.0169619
777.006	0.0170115
777.084	0.0169947
777.163	0.0168864
777.241	0.0169600
777.319	0.0168784
777.397	0.0168052
777.475	0.0168229
777.553	0.0167417
777.631	0.0166975
777.709	0.0166011
777.788	0.0167258
777.866	0.0166030
777.944	0.0164998
778.022	0.0164007
778.100	0.0165295
778.178	0.0165350
778.256	0.0165415
778.334	0.0162963
778.413	0.0163739
778.491	0.0163184
778.569	0.0163463
778.647	0.0164224
778.725	0.0162614
778.803	0.0162250
778.881	0.0162772
778.959	0.0160854
779.038	0.0162101
779.116	0.0163100
779.194	0.0163300
779.272	0.0163531
779.350	0.0162216
779.428	0.0163148
779.506	0.0163566
779.584	0.0163151
779.663	0.0163132
779.741	0.0164422
779.819	0.0163209
779.897	0.0164520
779.975	0.0163386
780.053	0.0164553
780.131	0.0163783
780.209	0.0163633
780.288	0.0164170
780.366	0.0163682
780.444	0.0163713
780.522	0.0165843
780.600	0.0164098
780.678	0.0165704
780.756	0.0164833
780.834	0.0165401
780.913	0.0164742
780.991	0.0164216
781.069	0.0165037
781.147	0.0165392
781.225	0.0165418
781.303	0.0165115
781.381	0.0165778
781.459	0.0165495
781.538	0.0164348
781.616	0.0165891
781.694	0.0166301
781.772	0.0167019
781.850	0.0166389
781.928	0.0165738
782.006	0.0166135
782.084	0.0166515
782.163	0.0165637
782.241	0.0166310
782.319	0.0165842
782.397	0.0164811
782.475	0.0165935
782.553	0.0166043
782.631	0.0166637
782.709	0.0166149
782.788	0.0166003
782.866	0.0167023
782.944	0.0166245
783.022	0.0165729
783.100	0.0166556
783.178	0.0166144
783.256	0.0165167
783.334	0.0166157
783.413	0.0165543
783.491	0.0164872
783.569	0.0164404
783.647	0.0163409
783.725	0.0164263
783.803	0.0165960
783.881	0.0164194
783.959	0.0164127
784.038	0.0164095
784.116	0.0163715
784.194	0.0163476
784.272	0.0164164
784.350	0.0163906
784.428	0.0164571
784.506	0.0166514
784.584	0.0165603
784.663	0.0164617
784.741	0.0165260
784.819	0.0166155
784.897	0.0166322
784.975	0.0165702
785.053	0.0165619
785.131	0.0167371
785.209	0.0166118
785.288	0.0164578
785.366	0.0166236
785.444	0.0167499
785.522	0.0167756
785.600	0.0167989
785.678	0.0167558
785.756	0.0169621
785.834	0.0168797
785.913	0.0169438
785.991	0.0169070
786.069	0.0168811
786.147	0.0170117
786.225	0.0169014
786.303	0.0168777
786.381	0.0167938
786.459	0.0166508
786.538	0.0166212
786.616	0.0165774
786.694	0.0165154
786.772	0.0163152
786.850	0.0163274
786.928	0.0163239
787.006	0.0163332
787.084	0.0163014
787.163	0.0163068
787.241	0.0162736
787.319	0.0163753
787.397	0.0163438
787.475	0.0164197
787.553	0.0164902
787.631	0.0165933
787.709	0.0165683
787.788	0.0164847
787.866	0.0165456
787.944	0.0166924
788.022	0.0166978
788.100	0.0165821
788.178	0.0165016
788.256	0.0165150
788.334	0.0164671
788.413	0.0164172
788.491	0.0164449
788.569	0.0163153
788.647	0.0163284
788.725	0.0162870
788.803	0.0163219
788.881	0.0162926
788.959	0.0164013
789.038	0.0164894
789.116	0.0161967
789.194	0.0162981
789.272	0.0163126
789.350	0.0163834
789.428	0.0163715
789.506	0.0164031
789.584	0.0164972
789.663	0.0165839
789.741	0.0166390
789.819	0.0166740
789.897	0.0164931
789.975	0.0166504
790.053	0.0163686
790.131	0.0165404
790.209	0.0165758
790.288	0.0165327
790.366	0.0165865
790.444	0.0165012
790.522	0.0164610
790.600	0.0164570
790.678	0.0164030
790.756	0.0165839
790.834	0.0166222
790.913	0.0167046
790.991	0.0167036
791.069	0.0166626
791.147	0.0168055
791.225	0.0168735
791.303	0.0169321
791.381	0.0169334
791.459	0.0170451
791.538	0.0169046
791.616	0.0169329
791.694	0.0168935
791.772	0.0169862
791.850	0.0167719
791.928	0.0169212
792.006	0.0168141
792.084	0.0167684
792.163	0.0166833
792.241	0.0166497
792.319	0.0167735
792.397	0.0165987
792.475	0.0164975
792.553	0.0164165
792.631	0.0164804
792.709	0.0163510
792.788	0.0163361
792.866	0.0162204
792.944	0.0162959
793.022	0.0162445
793.100	0.0162631
793.178	0.0162476
793.256	0.0161526
793.334	0.0161828
793.413	0.0161398
793.491	0.0162592
793.569	0.0162437
793.647	0.0162189
793.725	0.0164188
793.803	0.0163100
793.881	0.0165762
793.959	0.0165602
794.038	0.0165559
794.116	0.0167339
794.194	0.0165128
794.272	0.0166792
794.350	0.0166469
794.428	0.0165921
794.506	0.0167967
794.584	0.0166194
794.663	0.0167665
794.741	0.0168002
794.819	0.0166851
794.897	0.0166475
794.975	0.0166685
795.053	0.0167471
795.131	0.0166730
795.209	0.0165498
795.288	0.0166072
795.366	0.0165745
795.444	0.0164433
795.522	0.0164658
795.600	0.0163517
795.678	0.0164396
795.756	0.0163597
795.834	0.0162901
795.913	0.0163343
795.991	0.0164439
796.069	0.0162980
796.147	0.0163808
796.225	0.0163884
796.303	0.0165306
796.381	0.0163411
796.459	0.0162343
796.538	0.0163520
796.616	0.0165318
796.694	0.0165083
796.772	0.0163313
796.850	0.0164314
796.928	0.0163950
797.006	0.0164098
797.084	0.0165190
797.163	0.0165614
797.241	0.0165096
797.319	0.0164037
797.397	0.0165002
797.475	0.0164914
797.553	0.0164213
797.631	0.0165157
797.709	0.0164165
797.788	0.0164391
797.866	0.0164960
797.944	0.0164650
798.022	0.0165520
798.100	0.0166760
798.178	0.0167604
798.256	0.0167590
798.334	0.0168324
798.413	0.0168465
798.491	0.0168872
798.569	0.0170187
798.647	0.0171600
798.725	0.0170548
798.803	0.0170617
798.881	0.0170707
798.959	0.0171519
799.038	0.0170473
799.116	0.0170279
799.194	0.0170290
799.272	0.0169575
799.350	0.0168354
799.428	0.0168559
799.506	0.0166607
799.584	0.0166116
799.663	0.0165821
799.741	0.0165051
799.819	0.0165434
799.897	0.0165805
799.975	0.0164027
800.053	0.0163909
800.131	0.0163638
800.209	0.0163004
800.288	0.0162241
800.366	0.0162341
800.444	0.0162334
800.522	0.0160760
800.600	0.0162982
800.678	0.0162607
800.756	0.0161156
800.834	0.0162002
800.913	0.0162153
800.991	0.0161400
801.069	0.0160572
801.147	0.0160248
801.225	0.0161096
801.303	0.0162392
801.381	0.0162111
801.459	0.0161811
801.538	0.0162782
801.616	0.0162164
801.694	0.0161800
801.772	0.0162946
801.850	0.0162887
801.928	0.0164423
802.006	0.0164619
802.084	0.0165585
802.163	0.0165142
802.241	0.0166335
802.319	0.0165996
802.397	0.0165670
802.475	0.0166309
802.553	0.0166602
802.631	0.0166759
802.709	0.0167077
802.788	0.0168307
802.866	0.0166541
802.944	0.0166814
803.022	0.0167949
803.100	0.0168689
803.178	0.0167817
803.256	0.0168116
803.334	0.0167554
803.413	0.0167703
803.491	0.0167474
803.569	0.0168597
803.647	0.0166746
803.725	0.0166682
803.803	0.0165377
803.881	0.0166472
803.959	0.0167355
804.038	0.0165777
804.116	0.0164981
804.194	0.0166080
804.272	0.0166500
804.350	0.0165423
804.428	0.0166190
804.506	0.0165222
804.584	0.0165064
804.663	0.0165615
804.741	0.0164289
804.819	0.0165629
804.897	0.0165898
804.975	0.0164014
805.053	0.0162988
805.131	0.0164946
805.209	0.0164507
805.288	0.0164218
805.366	0.0163656
805.444	0.0163335
805.522	0.0162236
805.600	0.0163177
805.678	0.0162296
805.756	0.0164169
805.834	0.0163692
805.913	0.0161568
805.991	0.0162067
806.069	0.0163424
806.147	0.0162879
806.225	0.0163152
806.303	0.0164714
806.381	0.0164101
806.459	0.0165091
806.538	0.0166445
806.616	0.0165184
806.694	0.0164883
806.772	0.0166096
806.850	0.0164816
806.928	0.0168069
807.006	0.0167101
807.084	0.0166451
807.163	0.0166780
807.241	0.0165765
807.319	0.0165957
807.397	0.0166154
807.475	0.0166138
807.553	0.0165489
807.631	0.0165084
807.709	0.0164765
807.788	0.0166114
807.866	0.0166001
807.944	0.0164533
808.022	0.0164838
808.100	0.0166031
808.178	0.0165598
808.256	0.0166895
808.334	0.0167404
808.413	0.0166446
808.491	0.0167044
808.569	0.0168150
808.647	0.0167324
808.725	0.0169309
808.803	0.0167886
808.881	0.0168812
808.959	0.0169885
809.038	0.0167387
809.116	0.0166610
809.194	0.0168204
809.272	0.0165405
809.350	0.0166264
809.428	0.0166581
809.506	0.0165198
809.584	0.0162627
809.663	0.0163214
809.741	0.0163976
809.819	0.0163297
809.897	0.0163980
809.975	0.0162457
810.053	0.0164110
810.131	0.0162626
810.209	0.0164590
810.288	0.0164582
810.366	0.0164219
810.444	0.0165742
810.522	0.0166220
810.600	0.0165881
810.678	0.0165700
810.756	0.0166679
810.834	0.0165341
810.913	0.0165055
810.991	0.0165913
811.069	0.0166535
811.147	0.0165163
811.225	0.0165956
811.303	0.0164527
811.381	0.0163459
811.459	0.0163954
811.538	0.0162563
811.616	0.0161794
811.694	0.0161142
811.772	0.0161485
811.850	0.0161115
811.928	0.0160699
812.006	0.0160412
812.084	0.0161521
812.163	0.0160671
812.241	0.0160470
812.319	0.0160847
812.397	0.0160597
812.475	0.0161551
812.553	0.0161977
812.631	0.0162629
812.709	0.0162682
812.788	0.0165501
812.866	0.0165659
812.944	0.0166151
813.022	0.0168344
813.100	0.0167923
813.178	0.0169449
813.256	0.0171606
813.334	0.0171100
813.413	0.0171030
813.491	0.0171373
813.569	0.0172700
813.647	0.0173187
813.725	0.0172430
813.803	0.0172922
813.881	0.0173649
813.959	0.0173290
814.038	0.0170876
814.116	0.0170280
814.194	0.0170245
814.272	0.0168937
814.350	0.0170022
814.428	0.0167973
814.506	0.0167021
814.584	0.0166325
814.663	0.0164122
814.741	0.0164221
814.819	0.0164439
814.897	0.0163085
814.975	0.0163276
815.053	0.0161370
815.131	0.0163045
815.209	0.0161948
815.288	0.0161254
815.366	0.0162029
815.444	0.0161510
815.522	0.0160022
815.600	0.0161257
815.678	0.0161378
815.756	0.0161456
815.834	0.0161811
815.913	0.0161729
815.991	0.0161647
816.069	0.0162170
816.147	0.0162341
816.225	0.0163439
816.303	0.0163972
816.381	0.0164558
816.459	0.0165194
816.538	0.0165880
816.616	0.0165405
816.694	0.0165381
816.772	0.0166256
816.850	0.0163945
816.928	0.0165614
817.006	0.0166291
817.084	0.0165770
817.163	0.0165636
817.241	0.0165068
817.319	0.0165091
817.397	0.0164246
817.475	0.0165701
817.553	0.0165164
817.631	0.0166045
817.709	0.0166214
817.788	0.0165121
817.866	0.0164357
817.944	0.0166219
818.022	0.0164696
818.100	0.0164720
818.178	0.0164523
818.256	0.0165127
818.334	0.0165778
818.413	0.0165989
818.491	0.0165873
818.569	0.0166207
818.647	0.0166455
818.725	0.0166030
818.803	0.0165907
818.881	0.0165839
818.959	0.0166292
819.038	0.0165243
819.116	0.0165552
819.194	0.0166033
819.272	0.0164659
819.350	0.0165494
819.428	0.0163807
819.506	0.0163770
819.584	0.0163555
819.663	0.0161340
819.741	0.0162166
819.819	0.0160792
819.897	0.0161786
819.975	0.0161038
820.053	0.0161163
820.131	0.0161877
820.209	0.0161497
820.288	0.0163018
820.366	0.0163692
820.444	0.0163712
820.522	0.0163653
820.600	0.0164818
820.678	0.0164902
820.756	0.0165934
820.834	0.0167951
820.913	0.0167352
820.991	0.0168911
821.069	0.0168432
821.147	0.0170594
821.225	0.0170068
821.303	0.0172489
821.381	0.0169295
821.459	0.0169830
821.538	0.0170937
821.616	0.0170326
821.694	0.0169957
821.772	0.0169024
821.850	0.0168836
821.928	0.0169423
822.006	0.0168096
822.084	0.0167175
822.163	0.0167266
822.241	0.0166567
822.319	0.0166040
822.397	0.0163996
822.475	0.0164764
822.553	0.0165743
822.631	0.0164181
822.709	0.0163387
822.788	0.0161725
822.866	0.0163036
822.944	0.0163187
823.022	0.0163813
823.100	0.0163003
823.178	0.0163262
823.256	0.0162873
823.334	0.0163206
823.413	0.0164061
823.491	0.0162876
823.569	0.0163807
823.647	0.0164289
823.725	0.0162892
823.803	0.0163154
823.881	0.0164933
823.959	0.0164558
824.038	0.0165227
824.116	0.0162121
824.194	0.0163876
824.272	0.0165922
824.350	0.0164580
824.428	0.0164448
824.506	0.0163924
824.584	0.0163215
824.663	0.0163587
824.741	0.0163425
824.819	0.0162540
824.897	0.0161927
824.975	0.0161626
825.053	0.0163924
825.131	0.0163503
825.209	0.0162171
825.288	0.0163699
825.366	0.0164868
825.444	0.0164143
825.522	0.0165685
825.600	0.0165379
825.678	0.0165915
825.756	0.0166350
825.834	0.0167616
825.913	0.0167047
825.991	0.0166021
826.069	0.0168256
826.147	0.0169917
826.225	0.0169469
826.303	0.0169776
826.381	0.0170073
826.459	0.0169494
826.538	0.0169835
826.616	0.0168586
826.694	0.0169322
826.772	0.0168298
826.850	0.0168635
826.928	0.0168635
827.006	0.0168710
827.084	0.0167926
827.163	0.0167188
827.241	0.0168123
827.319	0.0166187
827.397	0.0166058
827.475	0.0166378
827.553	0.0164999
827.631	0.0164449
827.709	0.0164253
827.788	0.0165011
827.866	0.0163811
827.944	0.0163311
828.022	0.0163172
828.100	0.0163560
828.178	0.0163215
828.256	0.0163845
828.334	0.0162070
828.413	0.0162879
828.491	0.0162824
828.569	0.0163287
828.647	0.0164967
828.725	0.0163930
828.803	0.0164600
828.881	0.0164740
828.959	0.0163950
829.038	0.0164485
829.116	0.0164016
829.194	0.0164352
829.272	0.0163241
829.350	0.0164754
829.428	0.0163216
829.506	0.0164266
829.584	0.0163586
829.663	0.0163362
829.741	0.0162577
829.819	0.0163406
829.897	0.0163670
829.975	0.0162936
830.053	0.0162873
830.131	0.0164307
830.209	0.0164361
830.288	0.0167280
830.366	0.0164935
830.444	0.0164268
830.522	0.0166822
830.600	0.0164991
830.678	0.0165565
830.756	0.0167319
830.834	0.0166380
830.913	0.0167651
830.991	0.0167373
831.069	0.0167274
831.147	0.0167603
831.225	0.0168867
831.303	0.0168388
831.381	0.0170019
831.459	0.0168314
831.538	0.0168540
831.616	0.0170546
831.694	0.0170108
831.772	0.0169231
831.850	0.0171189
831.928	0.0170508
832.006	0.0170844
832.084	0.0171047
832.163	0.0171803
832.241	0.0170688
832.319	0.0169659
832.397	0.0168253
832.475	0.0168140
832.553	0.0168627
832.631	0.0167252
832.709	0.0164626
832.788	0.0164426
832.866	0.0162274
832.944	0.0161375
833.022	0.0160256
833.100	0.0160076
833.178	0.0156733
833.256	0.0156851
833.334	0.0155930
833.413	0.0154877
833.491	0.0155351
833.569	0.0155223
833.647	0.0155359
833.725	0.0156379
833.803	0.0158421
833.881	0.0158720
833.959	0.0158873
834.038	0.0160464
834.116	0.0162434
834.194	0.0164226
834.272	0.0165612
834.350	0.0166502
834.428	0.0170245
834.506	0.0170515
834.584	0.0171543
834.663	0.0172713
834.741	0.0173377
834.819	0.0174760
834.897	0.0177148
834.975	0.0175399
835.053	0.0175240
835.131	0.0176456
835.209	0.0175864
835.288	0.0174548
835.366	0.0174443
835.444	0.0172442
835.522	0.0170539
835.600	0.0170863
835.678	0.0168729
835.756	0.0167131
835.834	0.0166549
835.913	0.0165181
835.991	0.0162934
836.069	0.0162608
836.147	0.0161263
836.225	0.0160281
836.303	0.0158229
836.381	0.0158488
836.459	0.0159281
836.538	0.0156602
836.616	0.0157233
836.694	0.0157053
836.772	0.0157934
836.850	0.0157576
836.928	0.0157658
837.006	0.0160484
837.084	0.0160613
837.163	0.0160201
837.241	0.0160102
837.319	0.0162520
837.397	0.0163405
837.475	0.0162389
837.553	0.0164671
837.631	0.0164270
837.709	0.0165617
837.788	0.0166374
837.866	0.0167710
837.944	0.0169597
838.022	0.0168983
838.100	0.0168839
838.178	0.0170872
838.256	0.0170058
838.334	0.0171267
838.413	0.0172500
838.491	0.0171436
838.569	0.0171456
838.647	0.0171498
838.725	0.0171792
838.803	0.0171325
838.881	0.0170166
838.959	0.0169934
839.038	0.0170801
839.116	0.0169683
839.194	0.0168373
839.272	0.0167727
839.350	0.0168879
839.428	0.0166973
839.506	0.0166074
839.584	0.0167342
839.663	0.0166973
839.741	0.0165640
839.819	0.0165500
839.897	0.0165940
839.975	0.0165044
840.053	0.0163468
840.131	0.0163017
840.209	0.0163629
840.288	0.0164012
840.366	0.0162537
840.444	0.0161712
840.522	0.0161954
840.600	0.0162124
840.678	0.0162204
840.756	0.0161704
840.834	0.0160675
840.913	0.0161115
840.991	0.0160292
841.069	0.0159383
841.147	0.0157922
841.225	0.0157904
841.303	0.0157944
841.381	0.0156829
841.459	0.0158408
841.538	0.0159161
841.616	0.0158270
841.694	0.0159107
841.772	0.0158592
841.850	0.0160339
841.928	0.0161337
842.006	0.0162299
842.084	0.0163315
842.163	0.0164253
842.241	0.0165388
842.319	0.0166609
842.397	0.0167414
842.475	0.0168118
842.553	0.0169260
842.631	0.0168225
842.709	0.0170982
842.788	0.0170846
842.866	0.0171406
842.944	0.0170143
843.022	0.0169743
843.100	0.0171375
843.178	0.0171470
843.256	0.0170419
843.334	0.0171790
843.413	0.0171504
843.491	0.0170731
843.569	0.0170596
843.647	0.0170564
843.725	0.0168790
843.803	0.0169055
843.881	0.0170375
843.959	0.0168280
844.038	0.0166824
844.116	0.0168511
844.194	0.0168303
844.272	0.0167428
844.350	0.0165229
844.428	0.0164836
844.506	0.0164977
844.584	0.0165448
844.663	0.0164676
844.741	0.0163886
844.819	0.0164025
844.897	0.0162811
844.975	0.0163013
845.053	0.0163010
845.131	0.0162132
845.209	0.0161894
845.288	0.0162593
845.366	0.0162237
845.444	0.0160223
845.522	0.0161387
845.600	0.0161095
845.678	0.0162133
845.756	0.0160260
845.834	0.0161285
845.913	0.0161400
845.991	0.0160661
846.069	0.0161940
846.147	0.0163400
846.225	0.0161768
846.303	0.0162476
846.381	0.0163462
846.459	0.0163097
846.538	0.0164597
846.616	0.0165118
846.694	0.0164967
846.772	0.0165297
846.850	0.0165578
846.928	0.0166287
847.006	0.0166843
847.084	0.0167472
847.163	0.0167900
847.241	0.0167155
847.319	0.0168734
847.397	0.0170707
847.475	0.0169869
847.553	0.0171938
847.631	0.0172596
847.709	0.0172253
847.788	0.0171922
847.866	0.0172862
847.944	0.0171813
848.022	0.0172273
848.100	0.0170230
848.178	0.0171515
848.256	0.0170522
848.334	0.0169268
848.413	0.0167077
848.491	0.0166843
848.569	0.0164867
848.647	0.0164322
848.725	0.0162267
848.803	0.0160719
848.881	0.0159456
848.959	0.0160077
849.038	0.0158270
849.116	0.0159166
849.194	0.0159114
849.272	0.0156072
849.350	0.0158936
849.428	0.0158607
849.506	0.0157559
849.584	0.0158066
849.663	0.0159598
849.741	0.0159935
849.819	0.0160203
849.897	0.0161539
849.975	0.0162170
850.053	0.0161975
850.131	0.0162948
850.209	0.0162441
850.288	0.0163930
850.366	0.0165228
850.444	0.0164789
850.522	0.0164330
850.600	0.0166425
850.678	0.0165618
850.756	0.0167034
850.834	0.0165586
850.913	0.0167793
850.991	0.0167731
851.069	0.0168025
851.147	0.0168922
851.225	0.0168739
851.303	0.0170138
851.381	0.0169611
851.459	0.0171003
851.538	0.0169353
851.616	0.0168212
851.694	0.0168249
851.772	0.0168787
851.850	0.0168726
851.928	0.0169096
852.006	0.0169592
852.084	0.0168129
852.163	0.0168256
852.241	0.0168625
852.319	0.0168042
852.397	0.0168799
852.475	0.0167698
852.553	0.0168867
852.631	0.0168190
852.709	0.0167448
852.788	0.0168915
852.866	0.0167068
852.944	0.0168207
853.022	0.0168304
853.100	0.0166385
853.178	0.0166673
853.256	0.0166201
853.334	0.0165417
853.413	0.0165233
853.491	0.0164475
853.569	0.0163744
853.647	0.0164098
853.725	0.0164577
853.803	0.0163737
853.881	0.0164473
853.959	0.0165534
854.038	0.0162402
854.116	0.0164257
854.194	0.0162765
854.272	0.0163089
854.350	0.0163574
854.428	0.0162776
854.506	0.0163412
854.584	0.0164488
854.663	0.0164384
854.741	0.0162757
854.819	0.0163931
854.897	0.0163119
854.975	0.0163994
855.053	0.0164648
855.131	0.0165308
855.209	0.0163956
855.288	0.0165660
855.366	0.0165504
855.444	0.0164967
855.522	0.0166125
855.600	0.0166446
855.678	0.0167027
855.756	0.0167061
855.834	0.0166968
855.913	0.0168270
855.991	0.0169043
856.069	0.0167352
856.147	0.0167806
856.225	0.0166280
856.303	0.0167722
856.381	0.0165928
856.459	0.0165856
856.538	0.0166469
856.616	0.0165342
856.694	0.0164529
856.772	0.0164590
856.850	0.0164113
856.928	0.0164644
857.006	0.0163953
857.084	0.0162832
857.163	0.0162939
857.241	0.0164922
857.319	0.0163921
857.397	0.0163893
857.475	0.0164944
857.553	0.0162773
857.631	0.0162977
857.709	0.0163895
857.788	0.0164501
857.866	0.0165746
857.944	0.0166193
858.022	0.0164223
858.100	0.0166177
858.178	0.0167007
858.256	0.0166354
858.334	0.0167788
858.413	0.0165643
858.491	0.0167355
858.569	0.0166474
858.647	0.0166028
858.725	0.0165936
858.803	0.0166677
858.881	0.0166345
858.959	0.0165570
859.038	0.0163651
859.116	0.0166376
859.194	0.0167563
859.272	0.0165407
859.350	0.0164416
859.428	0.0165837
859.506	0.0168661
859.584	0.0166788
859.663	0.0165170
859.741	0.0167816
859.819	0.0167482
859.897	0.0168456
859.975	0.0167126
860.053	0.0167626
860.131	0.0167699
860.209	0.0168285
860.288	0.0167908
860.366	0.0169359
860.444	0.0168669
860.522	0.0168948
860.600	0.0168610
860.678	0.0169633
860.756	0.0168237
860.834	0.0168230
860.913	0.0167708
860.991	0.0167106
861.069	0.0168248
861.147	0.0167609
861.225	0.0168697
861.303	0.0168071
861.381	0.0166165
861.459	0.0164952
861.538	0.0166503
861.616	0.0166628
861.694	0.0164470
861.772	0.0164357
861.850	0.0164234
861.928	0.0163823
862.006	0.0164442
862.084	0.0162816
862.163	0.0160173
862.241	0.0162403
862.319	0.0161213
862.397	0.0160342
862.475	0.0160181
862.553	0.0158716
862.631	0.0159360
862.709	0.0157952
862.788	0.0158110
862.866	0.0157197
862.944	0.0157592
863.022	0.0157137
863.100	0.0158516
863.178	0.0158078
863.256	0.0158008
863.334	0.0159303
863.413	0.0160632
863.491	0.0161275
863.569	0.0160656
863.647	0.0162820
863.725	0.0163969
863.803	0.0164902
863.881	0.0163717
863.959	0.0165417
864.038	0.0167660
864.116	0.0168180
864.194	0.0168349
864.272	0.0170445
864.350	0.0169678
864.428	0.0170531
864.506	0.0170908
864.584	0.0172710
864.663	0.0171309
864.741	0.0171095
864.819	0.0172923
864.897	0.0172614
864.975	0.0171184
865.053	0.0171401
865.131	0.0173157
865.209	0.0172307
865.288	0.0171073
865.366	0.0171621
865.444	0.0170567
865.522	0.0168595
865.600	0.0170882
865.678	0.0170692
865.756	0.0170071
865.834	0.0168295
865.913	0.0168509
865.991	0.0167651
866.069	0.0167188
866.147	0.0166652
866.225	0.0165935
866.303	0.0165502
866.381	0.0165186
866.459	0.0165440
866.538	0.0164162
866.616	0.0164248
866.694	0.0163525
866.772	0.0163999
866.850	0.0162581
866.928	0.0161448
867.006	0.0161816
867.084	0.0163041
867.163	0.0160863
867.241	0.0160493
867.319	0.0161375
867.397	0.0161058
867.475	0.0158713
867.553	0.0159657
867.631	0.0159375
867.709	0.0159693
867.788	0.0160065
867.866	0.0160816
867.944	0.0161547
868.022	0.0162172
868.100	0.0163198
868.178	0.0161361
868.256	0.0162723
868.334	0.0162986
868.413	0.0164199
868.491	0.0163373
868.569	0.0162360
868.647	0.0163026
868.725	0.0163360
868.803	0.0163433
868.881	0.0164122
868.959	0.0162782
869.038	0.0163480
869.116	0.0163393
869.194	0.0164552
869.272	0.0165611
869.350	0.0167549
869.428	0.0167769
869.506	0.0166763
869.584	0.0169186
869.663	0.0169119
869.741	0.0169156
869.819	0.0168817
869.897	0.0169922
869.975	0.0170636
870.053	0.0169033
870.131	0.0169602
870.209	0.0169378
870.288	0.0168747
870.366	0.0168165
870.444	0.0168670
870.522	0.0169715
870.600	0.0167238
870.678	0.0167857
870.756	0.0168267
870.834	0.0167964
870.913	0.0166705
870.991	0.0166936
871.069	0.0167689
871.147	0.0167393
871.225	0.0167657
871.303	0.0166983
871.381	0.0166782
871.459	0.0165453
871.538	0.0164896
871.616	0.0164513
871.694	0.0165157
871.772	0.0164983
871.850	0.0165184
871.928	0.0164733
872.006	0.0165120
872.084	0.0163952
872.163	0.0163451
872.241	0.0163468
872.319	0.0162934
872.397	0.0163901
872.475	0.0163694
872.553	0.0163226
872.631	0.0164257
872.709	0.0164519
872.788	0.0163668
872.866	0.0165300
872.944	0.0165541
873.022	0.0165702
873.100	0.0165288
873.178	0.0164492
873.256	0.0165978
873.334	0.0166154
873.413	0.0165611
873.491	0.0165057
873.569	0.0166593
873.647	0.0164140
873.725	0.0164324
873.803	0.0165788
873.881	0.0164429
873.959	0.0166439
874.038	0.0164133
874.116	0.0163303
874.194	0.0164085
874.272	0.0163293
874.350	0.0165219
874.428	0.0163363
874.506	0.0163247
874.584	0.0163171
874.663	0.0162974
874.741	0.0165401
874.819	0.0165594
874.897	0.0165247
874.975	0.0164140
875.053	0.0164812
875.131	0.0165166
875.209	0.0165388
875.288	0.0164909
875.366	0.0166482
875.444	0.0166827
875.522	0.0165580
875.600	0.0163284
875.678	0.0164541
875.756	0.0166452
875.834	0.0164818
875.913	0.0164314
875.991	0.0164438
876.069	0.0163844
876.147	0.0164974
876.225	0.0166227
876.303	0.0163770
876.381	0.0165535
876.459	0.0163993
876.538	0.0165393
876.616	0.0166042
876.694	0.0164754
876.772	0.0165458
876.850	0.0166116
876.928	0.0166808
877.006	0.0167125
877.084	0.0166017
877.163	0.0166286
877.241	0.0167901
877.319	0.0165594
877.397	0.0166995
877.475	0.0168055
877.553	0.0167104
877.631	0.0168048
877.709	0.0167177
877.788	0.0166254
877.866	0.0167014
877.944	0.0167367
878.022	0.0165959
878.100	0.0166415
878.178	0.0166351
878.256	0.0165779
878.334	0.0166846
878.413	0.0164636
878.491	0.0165073
878.569	0.0165359
878.647	0.0165575
878.725	0.0164424
878.803	0.0165063
878.881	0.0164649
878.959	0.0165273
879.038	0.0163572
879.116	0.0165337
879.194	0.0163963
879.272	0.0164647
879.350	0.0162844
879.428	0.0163715
879.506	0.0163182
879.584	0.0165136
879.663	0.0164320
879.741	0.0164629
879.819	0.0164149
879.897	0.0164830
879.975	0.0164557
880.053	0.0164106
880.131	0.0163450
880.209	0.0163980
880.288	0.0163197
880.366	0.0161678
880.444	0.0160110
880.522	0.0160210
880.600	0.0160320
880.678	0.0161752
880.756	0.0161854
880.834	0.0162348
880.913	0.0163280
880.991	0.0163781
881.069	0.0165559
881.147	0.0167790
881.225	0.0168919
881.303	0.0170409
881.381	0.0171110
881.459	0.0170142
881.538	0.0169282
881.616	0.0168646
881.694	0.0167152
881.772	0.0166226
881.850	0.0166324
881.928	0.0165140
882.006	0.0163789
882.084	0.0161008
882.163	0.0161685
882.241	0.0161842
882.319	0.0161926
882.397	0.0162210
882.475	0.0161539
882.553	0.0163095
882.631	0.0165080
882.709	0.0165767
882.788	0.0167004
882.866	0.0167937
882.944	0.0169002
883.022	0.0167834
883.100	0.0168204
883.178	0.0169069
883.256	0.0169985
883.334	0.0169305
883.413	0.0169034
883.491	0.0169567
883.569	0.0167402
883.647	0.0166660
883.725	0.0166705
883.803	0.0166420
883.881	0.0165448
883.959	0.0164268
884.038	0.0164424
884.116	0.0164465
884.194	0.0164268
884.272	0.0163397
884.350	0.0162646
884.428	0.0163883
884.506	0.0163844
884.584	0.0164715
884.663	0.0163940
884.741	0.0165166
884.819	0.0165453
884.897	0.0165411
884.975	0.0165050
885.053	0.0164922
885.131	0.0164856
885.209	0.0164526
885.288	0.0162827
885.366	0.0163474
885.444	0.0164287
885.522	0.0164383
885.600	0.0163666
885.678	0.0165191
885.756	0.0164498
885.834	0.0166756
885.913	0.0167680
885.991	0.0166490
886.069	0.0167112
886.147	0.0170182
886.225	0.0169849
886.303	0.0170049
886.381	0.0169662
886.459	0.0169930
886.538	0.0170102
886.616	0.0169723
886.694	0.0167473
886.772	0.0167396
886.850	0.0167404
886.928	0.0165466
887.006	0.0165187
887.084	0.0163407
887.163	0.0163808
887.241	0.0163700
887.319	0.0161859
887.397	0.0162078
887.475	0.0160540
887.553	0.0160884
887.631	0.0160638
887.709	0.0161961
887.788	0.0161179
887.866	0.0163438
887.944	0.0162003
888.022	0.0163369
888.100	0.0161919
888.178	0.0163290
888.256	0.0162830
888.334	0.0164993
888.413	0.0165770
888.491	0.0165646
888.569	0.0167546
888.647	0.0167815
888.725	0.0167921
888.803	0.0168763
888.881	0.0168874
888.959	0.0168735
889.038	0.0169154
889.116	0.0169881
889.194	0.0168601
889.272	0.0169817
889.350	0.0168878
889.428	0.0168346
889.506	0.0168535
889.584	0.0167981
889.663	0.0168697
889.741	0.0167106
889.819	0.0166667
889.897	0.0165961
889.975	0.0167654
890.053	0.0166566
890.131	0.0166685
890.209	0.0165973
890.288	0.0163774
890.366	0.0163165
890.444	0.0163649
890.522	0.0163064
890.600	0.0162550
890.678	0.0163065
890.756	0.0162798
890.834	0.0161940
890.913	0.0163680
890.991	0.0163841
891.069	0.0162626
891.147	0.0163371
891.225	0.0163226
891.303	0.0163789
891.381	0.0164366
891.459	0.0165214
891.538	0.0165266
891.616	0.0165575
891.694	0.0166493
891.772	0.0165685
891.850	0.0165774
891.928	0.0168449
892.006	0.0167598
892.084	0.0165857
892.163	0.0168069
892.241	0.0167108
892.319	0.0166560
892.397	0.0167995
892.475	0.0168616
892.553	0.0166495
892.631	0.0168537
892.709	0.0166662
892.788	0.0166814
892.866	0.0166117
892.944	0.0165255
893.022	0.0165833
893.100	0.0165431
893.178	0.0165332
893.256	0.0164159
893.334	0.0163863
893.413	0.0164811
893.491	0.0164223
893.569	0.0163435
893.647	0.0164892
893.725	0.0164946
893.803	0.0165623
893.881	0.0164715
893.959	0.0165806
894.038	0.0166720
894.116	0.0168037
894.194	0.0166722
894.272	0.0166912
894.350	0.0167375
894.428	0.0167208
894.506	0.0168420
894.584	0.0168467
894.663	0.0167429
894.741	0.0167294
894.819	0.0167131
894.897	0.0166259
894.975	0.0165907
895.053	0.0166460
895.131	0.0166718
895.209	0.0165655
895.288	0.0165280
895.366	0.0167041
895.444	0.0163995
895.522	0.0164607
895.600	0.0164027
895.678	0.0163609
895.756	0.0163647
895.834	0.0163212
895.913	0.0163593
895.991	0.0163132
896.069	0.0164019
896.147	0.0164812
896.225	0.0163232
896.303	0.0162875
896.381	0.0161768
896.459	0.0163523
896.538	0.0163450
896.616	0.0164161
896.694	0.0163728
896.772	0.0163778
896.850	0.0164809
896.928	0.0164482
897.006	0.0165216
897.084	0.0164156
897.163	0.0165302
897.241	0.0165273
897.319	0.0166072
897.397	0.0166324
897.475	0.0167077
897.553	0.0164761
897.631	0.0164974
897.709	0.0166946
897.788	0.0167157
897.866	0.0166756
897.944	0.0168000
898.022	0.0169022
898.100	0.0168504
898.178	0.0167907
898.256	0.0167470
898.334	0.0168594
898.413	0.0167566
898.491	0.0167496
898.569	0.0168726
898.647	0.0167548
898.725	0.0167203
898.803	0.0166743
898.881	0.0167197
898.959	0.0166840
899.038	0.0166404
899.116	0.0166038
899.194	0.0164004
899.272	0.0165542
899.350	0.0163960
899.428	0.0162500
899.506	0.0163172
899.584	0.0163976
899.663	0.0163213
899.741	0.0163569
899.819	0.0163705
899.897	0.0163745
899.975	0.0162676
900.053	0.0164489
900.131	0.0163890
900.209	0.0165669
900.288	0.0165076
900.366	0.0165520
900.444	0.0165283
900.522	0.0165524
900.600	0.0166003
900.678	0.0164751
900.756	0.0164557
900.834	0.0165569
900.913	0.0163960
900.991	0.0164548
901.069	0.0163210
901.147	0.0164567
901.225	0.0164346
901.303	0.0162840
901.381	0.0162975
901.459	0.0165162
901.538	0.0162557
901.616	0.0163628
901.694	0.0163397
901.772	0.0164164
901.850	0.0163939
901.928	0.0165692
902.006	0.0165944
902.084	0.0164537
902.163	0.0165551
902.241	0.0163981
902.319	0.0165356
902.397	0.0164179
902.475	0.0165835
902.553	0.0165905
902.631	0.0165285
902.709	0.0164674
902.788	0.0164785
902.866	0.0166672
902.944	0.0167119
903.022	0.0165033
903.100	0.0165714
903.178	0.0166057
903.256	0.0166433
903.334	0.0167012
903.413	0.0167548
903.491	0.0166671
903.569	0.0165441
903.647	0.0166263
903.725	0.0165220
903.803	0.0164506
903.881	0.0165892
903.959	0.0163728
904.038	0.0165328
904.116	0.0163565
904.194	0.0163937
904.272	0.0162569
904.350	0.0163361
904.428	0.0164493
904.506	0.0162450
904.584	0.0163763
904.663	0.0163781
904.741	0.0163953
904.819	0.0165717
904.897	0.0164081
904.975	0.0164192
905.053	0.0165730
905.131	0.0164076
905.209	0.0166148
905.288	0.0167120
905.366	0.0167434
905.444	0.0165224
905.522	0.0166061
905.600	0.0166677
905.678	0.0167879
905.756	0.0169042
905.834	0.0167294
905.913	0.0168114
905.991	0.0169096
906.069	0.0167665
906.147	0.0168368
906.225	0.0167773
906.303	0.0169217
906.381	0.0168060
906.459	0.0168665
906.538	0.0167333
906.616	0.0167597
906.694	0.0169109
906.772	0.0168273
906.850	0.0168434
906.928	0.0167743
907.006	0.0167944
907.084	0.0166266
907.163	0.0167343
907.241	0.0167296
907.319	0.0167060
907.397	0.0167441
907.475	0.0167223
907.553	0.0165412
907.631	0.0166678
907.709	0.0167168
907.788	0.0167136
907.866	0.0166561
907.944	0.0165386
908.022	0.0164541
908.100	0.0164696
908.178	0.0164412
908.256	0.0164461
908.334	0.0162841
908.413	0.0162888
908.491	0.0162888
908.569	0.0162625
908.647	0.0161937
908.725	0.0163708
908.803	0.0164766
908.881	0.0162250
908.959	0.0164412
909.038	0.0165406
909.116	0.0164211
909.194	0.0163352
909.272	0.0165110
909.350	0.0163359
909.428	0.0163434
909.506	0.0165735
909.584	0.0166107
909.663	0.0164722
909.741	0.0166751
909.819	0.0167201
909.897	0.0166532
909.975	0.0165646
910.053	0.0167065
910.131	0.0166286
910.209	0.0166337
910.288	0.0166211
910.366	0.0167038
910.444	0.0166650
910.522	0.0166743
910.600	0.0165424
910.678	0.0165070
910.756	0.0166035
910.834	0.0165582
910.913	0.0167073
910.991	0.0164590
911.069	0.0164986
911.147	0.0164980
911.225	0.0165324
911.303	0.0163622
911.381	0.0163901
911.459	0.0164667
911.538	0.0164321
911.616	0.0165302
911.694	0.0163008
911.772	0.0163486
911.850	0.0164810
911.928	0.0165565
912.006	0.0164559
912.084	0.0165966
912.163	0.0164404
912.241	0.0164716
912.319	0.0165327
912.397	0.0164420
912.475	0.0165333
912.553	0.0165412
912.631	0.0164528
912.709	0.0164991
912.788	0.0166465
912.866	0.0166373
912.944	0.0166006
913.022	0.0165736
913.100	0.0165631
913.178	0.0166307
913.256	0.0164742
913.334	0.0166000
913.413	0.0165637
913.491	0.0166529
913.569	0.0166299
913.647	0.0165397
913.725	0.0165427
913.803	0.0166924
913.881	0.0166556
913.959	0.0165349
914.038	0.0166963
914.116	0.0167378
914.194	0.0167827
914.272	0.0165783
914.350	0.0168633
914.428	0.0166544
914.506	0.0166663
914.584	0.0167872
914.663	0.0167778
914.741	0.0166483
914.819	0.0164495
914.897	0.0163933
914.975	0.0164793
915.053	0.0165733
915.131	0.0163766
915.209	0.0163989
915.288	0.0164220
915.366	0.0162125
915.444	0.0162428
915.522	0.0162975
915.600	0.0163992
915.678	0.0161649
915.756	0.0163461
915.834	0.0163018
915.913	0.0162576
915.991	0.0164198
916.069	0.0164077
916.147	0.0164056
916.225	0.0164008
916.303	0.0164474
916.381	0.0162986
916.459	0.0164265
916.538	0.0164684
916.616	0.0164841
916.694	0.0164796
916.772	0.0164637
916.850	0.0166014
916.928	0.0166411
917.006	0.0164654
917.084	0.0165321
917.163	0.0165520
917.241	0.0165163
917.319	0.0165121
917.397	0.0164587
917.475	0.0165315
917.553	0.0165702
917.631	0.0166541
917.709	0.0165929
917.788	0.0165662
917.866	0.0166636
917.944	0.0165285
918.022	0.0165205
918.100	0.0167188
918.178	0.0166087
918.256	0.0165197
918.334	0.0164452
918.413	0.0166415
918.491	0.0167532
918.569	0.0165610
918.647	0.0166013
918.725	0.0164940
918.803	0.0165767
918.881	0.0164851
918.959	0.0165137
919.038	0.0166208
919.116	0.0166240
919.194	0.0166181
919.272	0.0166814
919.350	0.0165940
919.428	0.0166580
919.506	0.0167786
919.584	0.0166696
919.663	0.0166049
919.741	0.0166090
919.819	0.0166414
919.897	0.0166011
