06/01/2022	17:18:38	Ver.	4.1	UNKNOWN
Optical Delay	599.981738	Delta X		0.078125	Sweeps	1	Scan Rate	0/0
Coordinates	Axis 1	NaN	Axis 2	NaN	Axis 3	NaN	Axis 4	NaN	Axis 5	NaN	Axis 6	0.000000
TX Power	0.000000	RX Power	0.000000

599.982	0.0168898
600.060	0.0169210
600.138	0.0169459
600.216	0.0167844
600.294	0.0168401
600.372	0.0168890
600.450	0.0168272
600.529	0.0170797
600.607	0.0168254
600.685	0.0169241
600.763	0.0169384
600.841	0.0168914
600.919	0.0169067
600.997	0.0169276
601.075	0.0169566
601.154	0.0169659
601.232	0.0168664
601.310	0.0169212
601.388	0.0169295
601.466	0.0169902
601.544	0.0169991
601.622	0.0167754
601.700	0.0169237
601.779	0.0168708
601.857	0.0168043
601.935	0.0168629
602.013	0.0168964
602.091	0.0168755
602.169	0.0168823
602.247	0.0168740
602.325	0.0170718
602.404	0.0168225
602.482	0.0169315
602.560	0.0169276
602.638	0.0168153
602.716	0.0169036
602.794	0.0168685
602.872	0.0168340
602.950	0.0168914
603.029	0.0169086
603.107	0.0169582
603.185	0.0169258
603.263	0.0168719
603.341	0.0169615
603.419	0.0169808
603.497	0.0167751
603.575	0.0168252
603.654	0.0169351
603.732	0.0169443
603.810	0.0168478
603.888	0.0169466
603.966	0.0168499
604.044	0.0168771
604.122	0.0167266
604.200	0.0167662
604.279	0.0169160
604.357	0.0168705
604.435	0.0168660
604.513	0.0168100
604.591	0.0169019
604.669	0.0168853
604.747	0.0168467
604.825	0.0168844
604.904	0.0168973
604.982	0.0168047
605.060	0.0169128
605.138	0.0167542
605.216	0.0169605
605.294	0.0169276
605.372	0.0169624
605.450	0.0168682
605.529	0.0168137
605.607	0.0168940
605.685	0.0168823
605.763	0.0169098
605.841	0.0168877
605.919	0.0168887
605.997	0.0169550
606.075	0.0168419
606.154	0.0169004
606.232	0.0168686
606.310	0.0169952
606.388	0.0168665
606.466	0.0168606
606.544	0.0167934
606.622	0.0168150
606.700	0.0167982
606.779	0.0168214
606.857	0.0167464
606.935	0.0168143
607.013	0.0168906
607.091	0.0167774
607.169	0.0167822
607.247	0.0167494
607.325	0.0168609
607.404	0.0168279
607.482	0.0167993
607.560	0.0168882
607.638	0.0168932
607.716	0.0169392
607.794	0.0170119
607.872	0.0168697
607.950	0.0168542
608.029	0.0169156
608.107	0.0168336
608.185	0.0169670
608.263	0.0168797
608.341	0.0168419
608.419	0.0169147
608.497	0.0168729
608.575	0.0168256
608.654	0.0170531
608.732	0.0168345
608.810	0.0168198
608.888	0.0168948
608.966	0.0168938
609.044	0.0168507
609.122	0.0167682
609.200	0.0168957
609.279	0.0168138
609.357	0.0168972
609.435	0.0169323
609.513	0.0168932
609.591	0.0168264
609.669	0.0168527
609.747	0.0167919
609.825	0.0168844
609.904	0.0168447
609.982	0.0169695
610.060	0.0170700
610.138	0.0167719
610.216	0.0168468
610.294	0.0169872
610.372	0.0169967
610.450	0.0169101
610.529	0.0167950
610.607	0.0169257
610.685	0.0170236
610.763	0.0169501
610.841	0.0168163
610.919	0.0168315
610.997	0.0169432
611.075	0.0169135
611.154	0.0169812
611.232	0.0169769
611.310	0.0168298
611.388	0.0168634
611.466	0.0168035
611.544	0.0168426
611.622	0.0168922
611.700	0.0169815
611.779	0.0168458
611.857	0.0168880
611.935	0.0168256
612.013	0.0168000
612.091	0.0168922
612.169	0.0168826
612.247	0.0170287
612.325	0.0167828
612.404	0.0168494
612.482	0.0169512
612.560	0.0168720
612.638	0.0170856
612.716	0.0169605
612.794	0.0168392
612.872	0.0169585
612.950	0.0170194
613.029	0.0169603
613.107	0.0168951
613.185	0.0168173
613.263	0.0169018
613.341	0.0168383
613.419	0.0169439
613.497	0.0168905
613.575	0.0169240
613.654	0.0169782
613.732	0.0169146
613.810	0.0167220
613.888	0.0168880
613.966	0.0168680
614.044	0.0168649
614.122	0.0169696
614.200	0.0167730
614.279	0.0168326
614.357	0.0169047
614.435	0.0169247
614.513	0.0169559
614.591	0.0169054
614.669	0.0168714
614.747	0.0168120
614.825	0.0168412
614.904	0.0168802
614.982	0.0168898
615.060	0.0168415
615.138	0.0169327
615.216	0.0167332
615.294	0.0169038
615.372	0.0167682
615.450	0.0169239
615.529	0.0169061
615.607	0.0169059
615.685	0.0168990
615.763	0.0168637
615.841	0.0169279
615.919	0.0168525
615.997	0.0168416
616.075	0.0168761
616.154	0.0168696
616.232	0.0170788
616.310	0.0169146
616.388	0.0168363
616.466	0.0167687
616.544	0.0170188
616.622	0.0168160
616.700	0.0169563
616.779	0.0169527
616.857	0.0167330
616.935	0.0169909
617.013	0.0170103
617.091	0.0168011
617.169	0.0168749
617.247	0.0170760
617.325	0.0170367
617.404	0.0167749
617.482	0.0169492
617.560	0.0168797
617.638	0.0167912
617.716	0.0167324
617.794	0.0169311
617.872	0.0168975
617.950	0.0170332
618.029	0.0170392
618.107	0.0168676
618.185	0.0168762
618.263	0.0168238
618.341	0.0169402
618.419	0.0170225
618.497	0.0169435
618.575	0.0169203
618.654	0.0168739
618.732	0.0169276
618.810	0.0169425
618.888	0.0169027
618.966	0.0168931
619.044	0.0169821
619.122	0.0168249
619.200	0.0169534
619.279	0.0168724
619.357	0.0169027
619.435	0.0169363
619.513	0.0168760
619.591	0.0168563
619.669	0.0168484
619.747	0.0169236
619.825	0.0168838
619.904	0.0168748
619.982	0.0168719
620.060	0.0168823
620.138	0.0167572
620.216	0.0167274
620.294	0.0168925
620.372	0.0168406
620.450	0.0167254
620.529	0.0168918
620.607	0.0169780
620.685	0.0169561
620.763	0.0168240
620.841	0.0168882
620.919	0.0169947
620.997	0.0168742
621.075	0.0168159
621.154	0.0168806
621.232	0.0168825
621.310	0.0169762
621.388	0.0169994
621.466	0.0168528
621.544	0.0167609
621.622	0.0168035
621.700	0.0168665
621.779	0.0169807
621.857	0.0168210
621.935	0.0168562
622.013	0.0169314
622.091	0.0168084
622.169	0.0170087
622.247	0.0168331
622.325	0.0168440
622.404	0.0169685
622.482	0.0169762
622.560	0.0168685
622.638	0.0168201
622.716	0.0167012
622.794	0.0168563
622.872	0.0169651
622.950	0.0169772
623.029	0.0168941
623.107	0.0169192
623.185	0.0169261
623.263	0.0167991
623.341	0.0169158
623.419	0.0168894
623.497	0.0167960
623.575	0.0168891
623.654	0.0168501
623.732	0.0167805
623.810	0.0169054
623.888	0.0170209
623.966	0.0168122
624.044	0.0168638
624.122	0.0169209
624.200	0.0168672
624.279	0.0169675
624.357	0.0168343
624.435	0.0168073
624.513	0.0168750
624.591	0.0169299
624.669	0.0168493
624.747	0.0169047
624.825	0.0169932
624.904	0.0167576
624.982	0.0168967
625.060	0.0169401
625.138	0.0169999
625.216	0.0170182
625.294	0.0168777
625.372	0.0169212
625.450	0.0168457
625.529	0.0170095
625.607	0.0169010
625.685	0.0168858
625.763	0.0168465
625.841	0.0169116
625.919	0.0169308
625.997	0.0169265
626.075	0.0169083
626.154	0.0168581
626.232	0.0169159
626.310	0.0169185
626.388	0.0168894
626.466	0.0169067
626.544	0.0168935
626.622	0.0169551
626.700	0.0169363
626.779	0.0168945
626.857	0.0167782
626.935	0.0168430
627.013	0.0169142
627.091	0.0168324
627.169	0.0168993
627.247	0.0169510
627.325	0.0169427
627.404	0.0169385
627.482	0.0168855
627.560	0.0169630
627.638	0.0169777
627.716	0.0168739
627.794	0.0169035
627.872	0.0168451
627.950	0.0169369
628.029	0.0170330
628.107	0.0168649
628.185	0.0168504
628.263	0.0167945
628.341	0.0167725
628.419	0.0169285
628.497	0.0169767
628.575	0.0170220
628.654	0.0168204
628.732	0.0169528
628.810	0.0168800
628.888	0.0168278
628.966	0.0168529
629.044	0.0168718
629.122	0.0168730
629.200	0.0169329
629.279	0.0169205
629.357	0.0168789
629.435	0.0169357
629.513	0.0168676
629.591	0.0168125
629.669	0.0168787
629.747	0.0169920
629.825	0.0169915
629.904	0.0169205
629.982	0.0168250
630.060	0.0169296
630.138	0.0168981
630.216	0.0167712
630.294	0.0169347
630.372	0.0169267
630.450	0.0166975
630.529	0.0169041
630.607	0.0168993
630.685	0.0168356
630.763	0.0168026
630.841	0.0168909
630.919	0.0168379
630.997	0.0169533
631.075	0.0169098
631.154	0.0169817
631.232	0.0167258
631.310	0.0168089
631.388	0.0168816
631.466	0.0168000
631.544	0.0169490
631.622	0.0170132
631.700	0.0168178
631.779	0.0169005
631.857	0.0168439
631.935	0.0168495
632.013	0.0169147
632.091	0.0168887
632.169	0.0168410
632.247	0.0168053
632.325	0.0168478
632.404	0.0168808
632.482	0.0168978
632.560	0.0170033
632.638	0.0168083
632.716	0.0168707
632.794	0.0168581
632.872	0.0169510
632.950	0.0169222
633.029	0.0168551
633.107	0.0169729
633.185	0.0170012
633.263	0.0167881
633.341	0.0168555
633.419	0.0168845
633.497	0.0169484
633.575	0.0167723
633.654	0.0168407
633.732	0.0169775
633.810	0.0168220
633.888	0.0168399
633.966	0.0168976
634.044	0.0168749
634.122	0.0169136
634.200	0.0168865
634.279	0.0168322
634.357	0.0169817
634.435	0.0167821
634.513	0.0168550
634.591	0.0168565
634.669	0.0167113
634.747	0.0169731
634.825	0.0169041
634.904	0.0168865
634.982	0.0168821
635.060	0.0168925
635.138	0.0168083
635.216	0.0169366
635.294	0.0170067
635.372	0.0168279
635.450	0.0169390
635.529	0.0168384
635.607	0.0169427
635.685	0.0168994
635.763	0.0167543
635.841	0.0169207
635.919	0.0168471
635.997	0.0167652
636.075	0.0169476
636.154	0.0169420
636.232	0.0169653
636.310	0.0169713
636.388	0.0168716
636.466	0.0167942
636.544	0.0169149
636.622	0.0168755
636.700	0.0168999
636.779	0.0168266
636.857	0.0170192
636.935	0.0167904
637.013	0.0169411
637.091	0.0168954
637.169	0.0169006
637.247	0.0170140
637.325	0.0168732
637.404	0.0170204
637.482	0.0168954
637.560	0.0169317
637.638	0.0169311
637.716	0.0167672
637.794	0.0170115
637.872	0.0169830
637.950	0.0168031
638.029	0.0167760
638.107	0.0169611
638.185	0.0169794
638.263	0.0169126
638.341	0.0167680
638.419	0.0168212
638.497	0.0167783
638.575	0.0169137
638.654	0.0170020
638.732	0.0169804
638.810	0.0169125
638.888	0.0169232
638.966	0.0168505
639.044	0.0168931
639.122	0.0168418
639.200	0.0169813
639.279	0.0169132
639.357	0.0169254
639.435	0.0170194
639.513	0.0168256
639.591	0.0167406
639.669	0.0168826
639.747	0.0169014
639.825	0.0169137
639.904	0.0168765
639.982	0.0168849
640.060	0.0169790
640.138	0.0169671
640.216	0.0168635
640.294	0.0168892
640.372	0.0168822
640.450	0.0169124
640.529	0.0170139
640.607	0.0167693
640.685	0.0167985
640.763	0.0169608
640.841	0.0168774
640.919	0.0169512
640.997	0.0168172
641.075	0.0169428
641.154	0.0169332
641.232	0.0169051
641.310	0.0168711
641.388	0.0169580
641.466	0.0169523
641.544	0.0167596
641.622	0.0167995
641.700	0.0169441
641.779	0.0169975
641.857	0.0168916
641.935	0.0168349
642.013	0.0168141
642.091	0.0166885
642.169	0.0168027
642.247	0.0169239
642.325	0.0169964
642.404	0.0170018
642.482	0.0166890
642.560	0.0169942
642.638	0.0169202
642.716	0.0167867
642.794	0.0168699
642.872	0.0168857
642.950	0.0168653
643.029	0.0169134
643.107	0.0168947
643.185	0.0169748
643.263	0.0168244
643.341	0.0168627
643.419	0.0169832
643.497	0.0167726
643.575	0.0168358
643.654	0.0168343
643.732	0.0169984
643.810	0.0169965
643.888	0.0169882
643.966	0.0168354
644.044	0.0168998
644.122	0.0168713
644.200	0.0170114
644.279	0.0169795
644.357	0.0168384
644.435	0.0167803
644.513	0.0168156
644.591	0.0168134
644.669	0.0169216
644.747	0.0168163
644.825	0.0169534
644.904	0.0169463
644.982	0.0168684
645.060	0.0168787
645.138	0.0169422
645.216	0.0168405
645.294	0.0169337
645.372	0.0170425
645.450	0.0169524
645.529	0.0168733
645.607	0.0168798
645.685	0.0168645
645.763	0.0168929
645.841	0.0167797
645.919	0.0168010
645.997	0.0168826
646.075	0.0168292
646.154	0.0168804
646.232	0.0168703
646.310	0.0168288
646.388	0.0169855
646.466	0.0168696
646.544	0.0169278
646.622	0.0167596
646.700	0.0168707
646.779	0.0168346
646.857	0.0169415
646.935	0.0169635
647.013	0.0169112
647.091	0.0168932
647.169	0.0168591
647.247	0.0168475
647.325	0.0167993
647.404	0.0168937
647.482	0.0170007
647.560	0.0169076
647.638	0.0168140
647.716	0.0169104
647.794	0.0168874
647.872	0.0168354
647.950	0.0169580
648.029	0.0168260
648.107	0.0168002
648.185	0.0168147
648.263	0.0168839
648.341	0.0169402
648.419	0.0169270
648.497	0.0166863
648.575	0.0167342
648.654	0.0169228
648.732	0.0168034
648.810	0.0169418
648.888	0.0169846
648.966	0.0168730
649.044	0.0168684
649.122	0.0169293
649.200	0.0169077
649.279	0.0169160
649.357	0.0168412
649.435	0.0168658
649.513	0.0168549
649.591	0.0167983
649.669	0.0168494
649.747	0.0169372
649.825	0.0168459
649.904	0.0168784
649.982	0.0170274
650.060	0.0168526
650.138	0.0167720
650.216	0.0169250
650.294	0.0168922
650.372	0.0170160
650.450	0.0169284
650.529	0.0169411
650.607	0.0169502
650.685	0.0168431
650.763	0.0169623
650.841	0.0168571
650.919	0.0168487
650.997	0.0168913
651.075	0.0168897
651.154	0.0169467
651.232	0.0169065
651.310	0.0167957
651.388	0.0169495
651.466	0.0168423
651.544	0.0168937
651.622	0.0169222
651.700	0.0169508
651.779	0.0168664
651.857	0.0169472
651.935	0.0168341
652.013	0.0169454
652.091	0.0167274
652.169	0.0169177
652.247	0.0169231
652.325	0.0168351
652.404	0.0170257
652.482	0.0167448
652.560	0.0168732
652.638	0.0169291
652.716	0.0170357
652.794	0.0169117
652.872	0.0168587
652.950	0.0168639
653.029	0.0169481
653.107	0.0167995
653.185	0.0167812
653.263	0.0168745
653.341	0.0167997
653.419	0.0167689
653.497	0.0168441
653.575	0.0170620
653.654	0.0167899
653.732	0.0167731
653.810	0.0168513
653.888	0.0169176
653.966	0.0169163
654.044	0.0168690
654.122	0.0168955
654.200	0.0169631
654.279	0.0168039
654.357	0.0167506
654.435	0.0167499
654.513	0.0168820
654.591	0.0169324
654.669	0.0168185
654.747	0.0168253
654.825	0.0169813
654.904	0.0169082
654.982	0.0168777
655.060	0.0167979
655.138	0.0168909
655.216	0.0170428
655.294	0.0168317
655.372	0.0167753
655.450	0.0167793
655.529	0.0168760
655.607	0.0168538
655.685	0.0168804
655.763	0.0167679
655.841	0.0169721
655.919	0.0168769
655.997	0.0169912
656.075	0.0168491
656.154	0.0168227
656.232	0.0169006
656.310	0.0169020
656.388	0.0169244
656.466	0.0168090
656.544	0.0169326
656.622	0.0169120
656.700	0.0168451
656.779	0.0168700
656.857	0.0167694
656.935	0.0168627
657.013	0.0169470
657.091	0.0169196
657.169	0.0167893
657.247	0.0168935
657.325	0.0170553
657.404	0.0168592
657.482	0.0168994
657.560	0.0168037
657.638	0.0168764
657.716	0.0168307
657.794	0.0168591
657.872	0.0168736
657.950	0.0169109
658.029	0.0169493
658.107	0.0168615
658.185	0.0167227
658.263	0.0169307
658.341	0.0169211
658.419	0.0167889
658.497	0.0169131
658.575	0.0167354
658.654	0.0167850
658.732	0.0169885
658.810	0.0167864
658.888	0.0169159
658.966	0.0168846
659.044	0.0167364
659.122	0.0169341
659.200	0.0169386
659.279	0.0169418
659.357	0.0168546
659.435	0.0167812
659.513	0.0169193
659.591	0.0167772
659.669	0.0168047
659.747	0.0166904
659.825	0.0167928
659.904	0.0167725
659.982	0.0170197
660.060	0.0168669
660.138	0.0168967
660.216	0.0167654
660.294	0.0168070
660.372	0.0167891
660.450	0.0168520
660.529	0.0168882
660.607	0.0168405
660.685	0.0169067
660.763	0.0169554
660.841	0.0168976
660.919	0.0170045
660.997	0.0168626
661.075	0.0170242
661.154	0.0167503
661.232	0.0167961
661.310	0.0168903
661.388	0.0167554
661.466	0.0169659
661.544	0.0169382
661.622	0.0170449
661.700	0.0167666
661.779	0.0168501
661.857	0.0169817
661.935	0.0168892
662.013	0.0169733
662.091	0.0168621
662.169	0.0168865
662.247	0.0168300
662.325	0.0169592
662.404	0.0168102
662.482	0.0169718
662.560	0.0168945
662.638	0.0168508
662.716	0.0169183
662.794	0.0168343
662.872	0.0168134
662.950	0.0169865
663.029	0.0168113
663.107	0.0167945
663.185	0.0169006
663.263	0.0169765
663.341	0.0169833
663.419	0.0168885
663.497	0.0168959
663.575	0.0169025
663.654	0.0169218
663.732	0.0169089
663.810	0.0169162
663.888	0.0168407
663.966	0.0168487
664.044	0.0168676
664.122	0.0168878
664.200	0.0170493
664.279	0.0169753
664.357	0.0169423
664.435	0.0168361
664.513	0.0167759
664.591	0.0169593
664.669	0.0170338
664.747	0.0169640
664.825	0.0167978
664.904	0.0169497
664.982	0.0169946
665.060	0.0169653
665.138	0.0170335
665.216	0.0170551
665.294	0.0170264
665.372	0.0168990
665.450	0.0168590
665.529	0.0169760
665.607	0.0169795
665.685	0.0168491
665.763	0.0170171
665.841	0.0170518
665.919	0.0169918
665.997	0.0169427
666.075	0.0170000
666.154	0.0169990
666.232	0.0169270
666.310	0.0169444
666.388	0.0169614
666.466	0.0170721
666.544	0.0170316
666.622	0.0169396
666.700	0.0168332
666.779	0.0169276
666.857	0.0169930
666.935	0.0169588
667.013	0.0169650
667.091	0.0170207
667.169	0.0170322
667.247	0.0169292
667.325	0.0169399
667.404	0.0168916
667.482	0.0169343
667.560	0.0169848
667.638	0.0169771
667.716	0.0171186
667.794	0.0168880
667.872	0.0169741
667.950	0.0169588
668.029	0.0171218
668.107	0.0171066
668.185	0.0169154
668.263	0.0169373
668.341	0.0170691
668.419	0.0168265
668.497	0.0171848
668.575	0.0169457
668.654	0.0169950
668.732	0.0169367
668.810	0.0170150
668.888	0.0170482
668.966	0.0168337
669.044	0.0169816
669.122	0.0169162
669.200	0.0169828
669.279	0.0170752
669.357	0.0170155
669.435	0.0169894
669.513	0.0169129
669.591	0.0169153
669.669	0.0169693
669.747	0.0170649
669.825	0.0169555
669.904	0.0169648
669.982	0.0169125
670.060	0.0169909
670.138	0.0168754
670.216	0.0170184
670.294	0.0170750
670.372	0.0170466
670.450	0.0168386
670.529	0.0169617
670.607	0.0169318
670.685	0.0167589
670.763	0.0169536
670.841	0.0169750
670.919	0.0168708
670.997	0.0169933
671.075	0.0167221
671.154	0.0170338
671.232	0.0170013
671.310	0.0169086
671.388	0.0170058
671.466	0.0169300
671.544	0.0169673
671.622	0.0170081
671.700	0.0169032
671.779	0.0168755
671.857	0.0169359
671.935	0.0168419
672.013	0.0168884
672.091	0.0169933
672.169	0.0170322
672.247	0.0168189
672.325	0.0169389
672.404	0.0168236
672.482	0.0168212
672.560	0.0168507
672.638	0.0167424
672.716	0.0169720
672.794	0.0168692
672.872	0.0168826
672.950	0.0168617
673.029	0.0169210
673.107	0.0169190
673.185	0.0169784
673.263	0.0168938
673.341	0.0167999
673.419	0.0169846
673.497	0.0168118
673.575	0.0169342
673.654	0.0169389
673.732	0.0168865
673.810	0.0168232
673.888	0.0167719
673.966	0.0168506
674.044	0.0167979
674.122	0.0169460
674.200	0.0168238
674.279	0.0168254
674.357	0.0168423
674.435	0.0168551
674.513	0.0167995
674.591	0.0167043
674.669	0.0168351
674.747	0.0167410
674.825	0.0168603
674.904	0.0168446
674.982	0.0168742
675.060	0.0168328
675.138	0.0167873
675.216	0.0167937
675.294	0.0167795
675.372	0.0168591
675.450	0.0168880
675.529	0.0169159
675.607	0.0167539
675.685	0.0168745
675.763	0.0169300
675.841	0.0168119
675.919	0.0167741
675.997	0.0167691
676.075	0.0167931
676.154	0.0167635
676.232	0.0168172
676.310	0.0167585
676.388	0.0168416
676.466	0.0168649
676.544	0.0168604
676.622	0.0168188
676.700	0.0168542
676.779	0.0167664
676.857	0.0167578
676.935	0.0168440
677.013	0.0167592
677.091	0.0169856
677.169	0.0170135
677.247	0.0167588
677.325	0.0166887
677.404	0.0168899
677.482	0.0170071
677.560	0.0167964
677.638	0.0167553
677.716	0.0169930
677.794	0.0168503
677.872	0.0168546
677.950	0.0169093
678.029	0.0168118
678.107	0.0168742
678.185	0.0169651
678.263	0.0168480
678.341	0.0168374
678.419	0.0168549
678.497	0.0169089
678.575	0.0168364
678.654	0.0167716
678.732	0.0169666
678.810	0.0169531
678.888	0.0168637
678.966	0.0168174
679.044	0.0169691
679.122	0.0169487
679.200	0.0169212
679.279	0.0168297
679.357	0.0170271
679.435	0.0169601
679.513	0.0169038
679.591	0.0168702
679.669	0.0169210
679.747	0.0169293
679.825	0.0168484
679.904	0.0168573
679.982	0.0170175
680.060	0.0169205
680.138	0.0169334
680.216	0.0169848
680.294	0.0169356
680.372	0.0169405
680.450	0.0167618
680.529	0.0169336
680.607	0.0169345
680.685	0.0168149
680.763	0.0168800
680.841	0.0169518
680.919	0.0168623
680.997	0.0169732
681.075	0.0169267
681.154	0.0170238
681.232	0.0169592
681.310	0.0171464
681.388	0.0169809
681.466	0.0168701
681.544	0.0168612
681.622	0.0169513
681.700	0.0169397
681.779	0.0169080
681.857	0.0168467
681.935	0.0168408
682.013	0.0167198
682.091	0.0167715
682.169	0.0168832
682.247	0.0167289
682.325	0.0167410
682.404	0.0167186
682.482	0.0168703
682.560	0.0168468
682.638	0.0168923
682.716	0.0168653
682.794	0.0167933
682.872	0.0167442
682.950	0.0167934
683.029	0.0169633
683.107	0.0170444
683.185	0.0172710
683.263	0.0173576
683.341	0.0176734
683.419	0.0177299
683.497	0.0177745
683.575	0.0178323
683.654	0.0179112
683.732	0.0177062
683.810	0.0175395
683.888	0.0170998
683.966	0.0167082
684.044	0.0161593
684.122	0.0155315
684.200	0.0149416
684.279	0.0145539
684.357	0.0141816
684.435	0.0140020
684.513	0.0142013
684.591	0.0145343
684.669	0.0150289
684.747	0.0158319
684.825	0.0168519
684.904	0.0179403
684.982	0.0187646
685.060	0.0197694
685.138	0.0206937
685.216	0.0212906
685.294	0.0218660
685.372	0.0220757
685.450	0.0219570
685.529	0.0218382
685.607	0.0213417
685.685	0.0206446
685.763	0.0194218
685.841	0.0181252
685.919	0.0168388
685.997	0.0151101
686.075	0.0134215
686.154	0.0117726
686.232	0.0102975
686.310	0.00913055
686.388	0.00800949
686.466	0.00732651
686.544	0.00736015
686.622	0.00791954
686.700	0.00867439
686.779	0.0103920
686.857	0.0124255
686.935	0.0146259
687.013	0.0174971
687.091	0.0201756
687.169	0.0228410
687.247	0.0254254
687.325	0.0272459
687.404	0.0288758
687.482	0.0297055
687.560	0.0298962
687.638	0.0296105
687.716	0.0285493
687.794	0.0268051
687.872	0.0247649
687.950	0.0223331
688.029	0.0195354
688.107	0.0164442
688.185	0.0136432
688.263	0.0109828
688.341	0.00856514
688.419	0.00661842
688.497	0.00503700
688.575	0.00414001
688.654	0.00417099
688.732	0.00411148
688.810	0.00490700
688.888	0.00622826
688.966	0.00772186
689.044	0.00978310
689.122	0.0115408
689.200	0.0138003
689.279	0.0159058
689.357	0.0180766
689.435	0.0200548
689.513	0.0217190
689.591	0.0234011
689.669	0.0247063
689.747	0.0258207
689.825	0.0264294
689.904	0.0266593
689.982	0.0265625
690.060	0.0264365
690.138	0.0259307
690.216	0.0250339
690.294	0.0239172
690.372	0.0225569
690.450	0.0211989
690.529	0.0198573
690.607	0.0182493
690.685	0.0169539
690.763	0.0155446
690.841	0.0142657
690.919	0.0132818
690.997	0.0123626
691.075	0.0119601
691.154	0.0115429
691.232	0.0112226
691.310	0.0111420
691.388	0.0111980
691.466	0.0115168
691.544	0.0118343
691.622	0.0122479
691.700	0.0126691
691.779	0.0131873
691.857	0.0136977
691.935	0.0142558
692.013	0.0146577
692.091	0.0151211
692.169	0.0154422
692.247	0.0158743
692.325	0.0161651
692.404	0.0165592
692.482	0.0169061
692.560	0.0170893
692.638	0.0174570
692.716	0.0178576
692.794	0.0180611
692.872	0.0184211
692.950	0.0189034
693.029	0.0193024
693.107	0.0195506
693.185	0.0198695
693.263	0.0202093
693.341	0.0206566
693.419	0.0208763
693.497	0.0209608
693.575	0.0211171
693.654	0.0211189
693.732	0.0211205
693.810	0.0209042
693.888	0.0204665
693.966	0.0201862
694.044	0.0197803
694.122	0.0191338
694.200	0.0184657
694.279	0.0177280
694.357	0.0171957
694.435	0.0165442
694.513	0.0161399
694.591	0.0155276
694.669	0.0149582
694.747	0.0147360
694.825	0.0144191
694.904	0.0141456
694.982	0.0142140
695.060	0.0141757
695.138	0.0143048
695.216	0.0143452
695.294	0.0145177
695.372	0.0146408
695.450	0.0147546
695.529	0.0149377
695.607	0.0149701
695.685	0.0151299
695.763	0.0151025
695.841	0.0151339
695.919	0.0151302
695.997	0.0149484
696.075	0.0149734
696.154	0.0150654
696.232	0.0150594
696.310	0.0150418
696.388	0.0151743
696.466	0.0154241
696.544	0.0156619
696.622	0.0159501
696.700	0.0160989
696.779	0.0164516
696.857	0.0170162
696.935	0.0173710
697.013	0.0178349
697.091	0.0184135
697.169	0.0187731
697.247	0.0193334
697.325	0.0196916
697.404	0.0202040
697.482	0.0204485
697.560	0.0208149
697.638	0.0207788
697.716	0.0210583
697.794	0.0213049
697.872	0.0212759
697.950	0.0212428
698.029	0.0209975
698.107	0.0208572
698.185	0.0203561
698.263	0.0199597
698.341	0.0192242
698.419	0.0186690
698.497	0.0181477
698.575	0.0175860
698.654	0.0167863
698.732	0.0161625
698.810	0.0155577
698.888	0.0149973
698.966	0.0144572
699.044	0.0140527
699.122	0.0138641
699.200	0.0136218
699.279	0.0135592
699.357	0.0134926
699.435	0.0135060
699.513	0.0138372
699.591	0.0138789
699.669	0.0142515
699.747	0.0144721
699.825	0.0146470
699.904	0.0150634
699.982	0.0153252
700.060	0.0155317
700.138	0.0156055
700.216	0.0156822
700.294	0.0159042
700.372	0.0158901
700.450	0.0158875
700.529	0.0159353
700.607	0.0159726
700.685	0.0160057
700.763	0.0160852
700.841	0.0159894
700.919	0.0160084
700.997	0.0161177
701.075	0.0163095
701.154	0.0163558
701.232	0.0165072
701.310	0.0166534
701.388	0.0167142
701.466	0.0171204
701.544	0.0173523
701.622	0.0176689
701.700	0.0178355
701.779	0.0179618
701.857	0.0183096
701.935	0.0186632
702.013	0.0189665
702.091	0.0190517
702.169	0.0193014
702.247	0.0195925
702.325	0.0196915
702.404	0.0198007
702.482	0.0198347
702.560	0.0201024
702.638	0.0201425
702.716	0.0200763
702.794	0.0197624
702.872	0.0194838
702.950	0.0192609
703.029	0.0188357
703.107	0.0182810
703.185	0.0176678
703.263	0.0174162
703.341	0.0166198
703.419	0.0161670
703.497	0.0157024
703.575	0.0153923
703.654	0.0152087
703.732	0.0148817
703.810	0.0148309
703.888	0.0148132
703.966	0.0149328
704.044	0.0148645
704.122	0.0151585
704.200	0.0153069
704.279	0.0154322
704.357	0.0158211
704.435	0.0159605
704.513	0.0160330
704.591	0.0160274
704.669	0.0159679
704.747	0.0160946
704.825	0.0160345
704.904	0.0159373
704.982	0.0157167
705.060	0.0156489
705.138	0.0155710
705.216	0.0153994
705.294	0.0153462
705.372	0.0153448
705.450	0.0153803
705.529	0.0155769
705.607	0.0156544
705.685	0.0158012
705.763	0.0160975
705.841	0.0163092
705.919	0.0164907
705.997	0.0168813
706.075	0.0170484
706.154	0.0172472
706.232	0.0174091
706.310	0.0175992
706.388	0.0177869
706.466	0.0178270
706.544	0.0177885
706.622	0.0182098
706.700	0.0180352
706.779	0.0180011
706.857	0.0181583
706.935	0.0182134
707.013	0.0180156
707.091	0.0181017
707.169	0.0183554
707.247	0.0183923
707.325	0.0185570
707.404	0.0185835
707.482	0.0187854
707.560	0.0188626
707.638	0.0188697
707.716	0.0188371
707.794	0.0188154
707.872	0.0187914
707.950	0.0185984
708.029	0.0185757
708.107	0.0183590
708.185	0.0181410
708.263	0.0180527
708.341	0.0179497
708.419	0.0174234
708.497	0.0171332
708.575	0.0168575
708.654	0.0166466
708.732	0.0163837
708.810	0.0160485
708.888	0.0158751
708.966	0.0156798
709.044	0.0153285
709.122	0.0154207
709.200	0.0153844
709.279	0.0153162
709.357	0.0152390
709.435	0.0152717
709.513	0.0153882
709.591	0.0155586
709.669	0.0154675
709.747	0.0153061
709.825	0.0154061
709.904	0.0155180
709.982	0.0155977
710.060	0.0154573
710.138	0.0154214
710.216	0.0155209
710.294	0.0155941
710.372	0.0156016
710.450	0.0157590
710.529	0.0158055
710.607	0.0161317
710.685	0.0161839
710.763	0.0162252
710.841	0.0165649
710.919	0.0166100
710.997	0.0168151
711.075	0.0167032
711.154	0.0168717
711.232	0.0168002
711.310	0.0168127
711.388	0.0167789
711.466	0.0169659
711.544	0.0167776
711.622	0.0168141
711.700	0.0168063
711.779	0.0167413
711.857	0.0167035
711.935	0.0166620
712.013	0.0168115
712.091	0.0169631
712.169	0.0171179
712.247	0.0173280
712.325	0.0176171
712.404	0.0177331
712.482	0.0181635
712.560	0.0184081
712.638	0.0186754
712.716	0.0189667
712.794	0.0192205
712.872	0.0194060
712.950	0.0196673
713.029	0.0195353
713.107	0.0195771
713.185	0.0195895
713.263	0.0193372
713.341	0.0192470
713.419	0.0190716
713.497	0.0186232
713.575	0.0184592
713.654	0.0179045
713.732	0.0176618
713.810	0.0172296
713.888	0.0168018
713.966	0.0164763
714.044	0.0161227
714.122	0.0157176
714.200	0.0153977
714.279	0.0152201
714.357	0.0150558
714.435	0.0148154
714.513	0.0147471
714.591	0.0148289
714.669	0.0149039
714.747	0.0149043
714.825	0.0149267
714.904	0.0150640
714.982	0.0151597
715.060	0.0152991
715.138	0.0156658
715.216	0.0157306
715.294	0.0158125
715.372	0.0158723
715.450	0.0161103
715.529	0.0159623
715.607	0.0161708
715.685	0.0163934
715.763	0.0162138
715.841	0.0162107
715.919	0.0162459
715.997	0.0164033
716.075	0.0163967
716.154	0.0164880
716.232	0.0164595
716.310	0.0166081
716.388	0.0166734
716.466	0.0167631
716.544	0.0168411
716.622	0.0169207
716.700	0.0170985
716.779	0.0170999
716.857	0.0171939
716.935	0.0173253
717.013	0.0173975
717.091	0.0176237
717.169	0.0177157
717.247	0.0178120
717.325	0.0179851
717.404	0.0178314
717.482	0.0179664
717.560	0.0179066
717.638	0.0179282
717.716	0.0179844
717.794	0.0177994
717.872	0.0179999
717.950	0.0178254
718.029	0.0177559
718.107	0.0178050
718.185	0.0177361
718.263	0.0178857
718.341	0.0178487
718.419	0.0178806
718.497	0.0176589
718.575	0.0178885
718.654	0.0180040
718.732	0.0178693
718.810	0.0177671
718.888	0.0178922
718.966	0.0177377
719.044	0.0176075
719.122	0.0174673
719.200	0.0172611
719.279	0.0170265
719.357	0.0167819
719.435	0.0166840
719.513	0.0163796
719.591	0.0162476
719.669	0.0159340
719.747	0.0158798
719.825	0.0158981
719.904	0.0158378
719.982	0.0159088
720.060	0.0159930
720.138	0.0160323
720.216	0.0162969
720.294	0.0162994
720.372	0.0165353
720.450	0.0166470
720.529	0.0168372
720.607	0.0166694
720.685	0.0169460
720.763	0.0169103
720.841	0.0168827
720.919	0.0168037
720.997	0.0166764
721.075	0.0166049
721.154	0.0163455
721.232	0.0161055
721.310	0.0160877
721.388	0.0160594
721.466	0.0159857
721.544	0.0157448
721.622	0.0157391
721.700	0.0157501
721.779	0.0157346
721.857	0.0159422
721.935	0.0159971
722.013	0.0160033
722.091	0.0160996
722.169	0.0163618
722.247	0.0165260
722.325	0.0166324
722.404	0.0168458
722.482	0.0170748
722.560	0.0170815
722.638	0.0171691
722.716	0.0173580
722.794	0.0173804
722.872	0.0175848
722.950	0.0175974
723.029	0.0175389
723.107	0.0176210
723.185	0.0176727
723.263	0.0176363
723.341	0.0175137
723.419	0.0175260
723.497	0.0175121
723.575	0.0173588
723.654	0.0174405
723.732	0.0173380
723.810	0.0173780
723.888	0.0172614
723.966	0.0173869
724.044	0.0172919
724.122	0.0173436
724.200	0.0172353
724.279	0.0173377
724.357	0.0173486
724.435	0.0173495
724.513	0.0172250
724.591	0.0173177
724.669	0.0173261
724.747	0.0172734
724.825	0.0173264
724.904	0.0172408
724.982	0.0171994
725.060	0.0172057
725.138	0.0172603
725.216	0.0172523
725.294	0.0171014
725.372	0.0170355
725.450	0.0170716
725.529	0.0169804
725.607	0.0169830
725.685	0.0171526
725.763	0.0169895
725.841	0.0170322
725.919	0.0170678
725.997	0.0170988
726.075	0.0171567
726.154	0.0171600
726.232	0.0172434
726.310	0.0171770
726.388	0.0170379
726.466	0.0170296
726.544	0.0168967
726.622	0.0165848
726.700	0.0164117
726.779	0.0162144
726.857	0.0160851
726.935	0.0158498
727.013	0.0156693
727.091	0.0154662
727.169	0.0154321
727.247	0.0153187
727.325	0.0152481
727.404	0.0150933
727.482	0.0153802
727.560	0.0154008
727.638	0.0155134
727.716	0.0158094
727.794	0.0160551
727.872	0.0162562
727.950	0.0163784
728.029	0.0166510
728.107	0.0168479
728.185	0.0170863
728.263	0.0172021
728.341	0.0173082
728.419	0.0174323
728.497	0.0176281
728.575	0.0175891
728.654	0.0176575
728.732	0.0177029
728.810	0.0176664
728.888	0.0175804
728.966	0.0176208
729.044	0.0176470
729.122	0.0176071
729.200	0.0176723
729.279	0.0176363
729.357	0.0176941
729.435	0.0174596
729.513	0.0174924
729.591	0.0175009
729.669	0.0175344
729.747	0.0173798
729.825	0.0172507
729.904	0.0171513
729.982	0.0169888
730.060	0.0171053
730.138	0.0169135
730.216	0.0167271
730.294	0.0166638
730.372	0.0167366
730.450	0.0166409
730.529	0.0166404
730.607	0.0165430
730.685	0.0167480
730.763	0.0167165
730.841	0.0167338
730.919	0.0169058
730.997	0.0169837
731.075	0.0169355
731.154	0.0171031
731.232	0.0172738
731.310	0.0173000
731.388	0.0173412
731.466	0.0174014
731.544	0.0173109
731.622	0.0173181
731.700	0.0172926
731.779	0.0171449
731.857	0.0173690
731.935	0.0175279
732.013	0.0173344
732.091	0.0171490
732.169	0.0171525
732.247	0.0171133
732.325	0.0171603
732.404	0.0171364
732.482	0.0170290
732.560	0.0170942
732.638	0.0169895
732.716	0.0170645
732.794	0.0169605
732.872	0.0169307
732.950	0.0170677
733.029	0.0168546
733.107	0.0166758
733.185	0.0166480
733.263	0.0166445
733.341	0.0165001
733.419	0.0164433
733.497	0.0163120
733.575	0.0161098
733.654	0.0160322
733.732	0.0160995
733.810	0.0160296
733.888	0.0161396
733.966	0.0161270
734.044	0.0160492
734.122	0.0161731
734.200	0.0164634
734.279	0.0164289
734.357	0.0165217
734.435	0.0165654
734.513	0.0166411
734.591	0.0168452
734.669	0.0167968
734.747	0.0167832
734.825	0.0168718
734.904	0.0169254
734.982	0.0169150
735.060	0.0170264
735.138	0.0168092
735.216	0.0168894
735.294	0.0169962
735.372	0.0169321
735.450	0.0168095
735.529	0.0166627
735.607	0.0167481
735.685	0.0167867
735.763	0.0168960
735.841	0.0166514
735.919	0.0166514
735.997	0.0165990
736.075	0.0167014
736.154	0.0167499
736.232	0.0168070
736.310	0.0169206
736.388	0.0168871
736.466	0.0170400
736.544	0.0173119
736.622	0.0175430
736.700	0.0176499
736.779	0.0175724
736.857	0.0177445
736.935	0.0178411
737.013	0.0178132
737.091	0.0178310
737.169	0.0177201
737.247	0.0177053
737.325	0.0176546
737.404	0.0176370
737.482	0.0174253
737.560	0.0172350
737.638	0.0171880
737.716	0.0170592
737.794	0.0169906
737.872	0.0169926
737.950	0.0167674
738.029	0.0166706
738.107	0.0167426
738.185	0.0168133
738.263	0.0166370
738.341	0.0166668
738.419	0.0169037
738.497	0.0167879
738.575	0.0166962
738.654	0.0170041
738.732	0.0168482
738.810	0.0169675
738.888	0.0169686
738.966	0.0169570
739.044	0.0169180
739.122	0.0168275
739.200	0.0167661
739.279	0.0167521
739.357	0.0165297
739.435	0.0166092
739.513	0.0167083
739.591	0.0164870
739.669	0.0167546
739.747	0.0165833
739.825	0.0164159
739.904	0.0164702
739.982	0.0164291
740.060	0.0164561
740.138	0.0164632
740.216	0.0164856
740.294	0.0164933
740.372	0.0161919
740.450	0.0162014
740.529	0.0163112
740.607	0.0161975
740.685	0.0161056
740.763	0.0159775
740.841	0.0161581
740.919	0.0160945
740.997	0.0162555
741.075	0.0162007
741.154	0.0164035
741.232	0.0163826
741.310	0.0165084
741.388	0.0166994
741.466	0.0166336
741.544	0.0167745
741.622	0.0169542
741.700	0.0168362
741.779	0.0169834
741.857	0.0170924
741.935	0.0172088
742.013	0.0172735
742.091	0.0172167
742.169	0.0173394
742.247	0.0172604
742.325	0.0173759
742.404	0.0174383
742.482	0.0174310
742.560	0.0176257
742.638	0.0176618
742.716	0.0174932
742.794	0.0175064
742.872	0.0175831
742.950	0.0175941
743.029	0.0174259
743.107	0.0174630
743.185	0.0174316
743.263	0.0173969
743.341	0.0172585
743.419	0.0172453
743.497	0.0172846
743.575	0.0172401
743.654	0.0171516
743.732	0.0171935
743.810	0.0172060
743.888	0.0171376
743.966	0.0170593
744.044	0.0168317
744.122	0.0167618
744.200	0.0168996
744.279	0.0165995
744.357	0.0166669
744.435	0.0164681
744.513	0.0164362
744.591	0.0165289
744.669	0.0164857
744.747	0.0164890
744.825	0.0164596
744.904	0.0163665
744.982	0.0164874
745.060	0.0165759
745.138	0.0166225
745.216	0.0165948
745.294	0.0166552
745.372	0.0168214
745.450	0.0169439
745.529	0.0171281
745.607	0.0171655
745.685	0.0172056
745.763	0.0172150
745.841	0.0173218
745.919	0.0175296
745.997	0.0173724
746.075	0.0175903
746.154	0.0175019
746.232	0.0174779
746.310	0.0173654
746.388	0.0173203
746.466	0.0172653
746.544	0.0171155
746.622	0.0170508
746.700	0.0169439
746.779	0.0169539
746.857	0.0166440
746.935	0.0166303
747.013	0.0165385
747.091	0.0164619
747.169	0.0164902
747.247	0.0165926
747.325	0.0165652
747.404	0.0165060
747.482	0.0164124
747.560	0.0163270
747.638	0.0163461
747.716	0.0164185
747.794	0.0162959
747.872	0.0163453
747.950	0.0163791
748.029	0.0164272
748.107	0.0164247
748.185	0.0164944
748.263	0.0164828
748.341	0.0164780
748.419	0.0166580
748.497	0.0166211
748.575	0.0166318
748.654	0.0166457
748.732	0.0167503
748.810	0.0169605
748.888	0.0169118
748.966	0.0169803
749.044	0.0170282
749.122	0.0170797
749.200	0.0171252
749.279	0.0171323
749.357	0.0172399
749.435	0.0171649
749.513	0.0173734
749.591	0.0172823
749.669	0.0172155
749.747	0.0172129
749.825	0.0170477
749.904	0.0171722
749.982	0.0169135
750.060	0.0170217
750.138	0.0169530
750.216	0.0170245
750.294	0.0170110
750.372	0.0169408
750.450	0.0171359
750.529	0.0168829
750.607	0.0170266
750.685	0.0170392
750.763	0.0170703
750.841	0.0172015
750.919	0.0170301
750.997	0.0170926
751.075	0.0173470
751.154	0.0172263
751.232	0.0170914
751.310	0.0171647
751.388	0.0171439
751.466	0.0172430
751.544	0.0171418
751.622	0.0170159
751.700	0.0170795
751.779	0.0168974
751.857	0.0169493
751.935	0.0167416
752.013	0.0167982
752.091	0.0168544
752.169	0.0167979
752.247	0.0166116
752.325	0.0167382
752.404	0.0167574
752.482	0.0166093
752.560	0.0166526
752.638	0.0166835
752.716	0.0166776
752.794	0.0166991
752.872	0.0167138
752.950	0.0168001
753.029	0.0168854
753.107	0.0169822
753.185	0.0168610
753.263	0.0169357
753.341	0.0170390
753.419	0.0169028
753.497	0.0168496
753.575	0.0170033
753.654	0.0169178
753.732	0.0168945
753.810	0.0170013
753.888	0.0168736
753.966	0.0166553
754.044	0.0167889
754.122	0.0167949
754.200	0.0166853
754.279	0.0168000
754.357	0.0167580
754.435	0.0165369
754.513	0.0166445
754.591	0.0167067
754.669	0.0168163
754.747	0.0166740
754.825	0.0165759
754.904	0.0166523
754.982	0.0166952
755.060	0.0166910
755.138	0.0165674
755.216	0.0165388
755.294	0.0165472
755.372	0.0166669
755.450	0.0167305
755.529	0.0168263
755.607	0.0168288
755.685	0.0166703
755.763	0.0168036
755.841	0.0167856
755.919	0.0167911
755.997	0.0169429
756.075	0.0170847
756.154	0.0172006
756.232	0.0170977
756.310	0.0169945
756.388	0.0171835
756.466	0.0173842
756.544	0.0172696
756.622	0.0171779
756.700	0.0174002
756.779	0.0172474
756.857	0.0172214
756.935	0.0173414
757.013	0.0172883
757.091	0.0171439
757.169	0.0170957
757.247	0.0171309
757.325	0.0171597
757.404	0.0170232
757.482	0.0169650
757.560	0.0169108
757.638	0.0168829
757.716	0.0169224
757.794	0.0169901
757.872	0.0168225
757.950	0.0169315
758.029	0.0169296
758.107	0.0167027
758.185	0.0167290
758.263	0.0168966
758.341	0.0167955
758.419	0.0168674
758.497	0.0169158
758.575	0.0170325
758.654	0.0170377
758.732	0.0170399
758.810	0.0170320
758.888	0.0170379
758.966	0.0169511
759.044	0.0171117
759.122	0.0172154
759.200	0.0171152
759.279	0.0171413
759.357	0.0171745
759.435	0.0170036
759.513	0.0170892
759.591	0.0170921
759.669	0.0171381
759.747	0.0171257
759.825	0.0170844
759.904	0.0170067
759.982	0.0169658
760.060	0.0170176
760.138	0.0169762
760.216	0.0170782
760.294	0.0170381
760.372	0.0170493
760.450	0.0170315
760.529	0.0169399
760.607	0.0168510
760.685	0.0168050
760.763	0.0169122
760.841	0.0168739
760.919	0.0168078
760.997	0.0169468
761.075	0.0168150
761.154	0.0169034
761.232	0.0168880
761.310	0.0167435
761.388	0.0167831
761.466	0.0167264
761.544	0.0167722
761.622	0.0166724
761.700	0.0166798
761.779	0.0165308
761.857	0.0164922
761.935	0.0165744
762.013	0.0165923
762.091	0.0165935
762.169	0.0165421
762.247	0.0164835
762.325	0.0164303
762.404	0.0164172
762.482	0.0163739
762.560	0.0164736
762.638	0.0163448
762.716	0.0164294
762.794	0.0165111
762.872	0.0164726
762.950	0.0164406
763.029	0.0165137
763.107	0.0167413
763.185	0.0168691
763.263	0.0167117
763.341	0.0168093
763.419	0.0169294
763.497	0.0169595
763.575	0.0170852
763.654	0.0169310
763.732	0.0171475
763.810	0.0171706
763.888	0.0171156
763.966	0.0173511
764.044	0.0171953
764.122	0.0171828
764.200	0.0171842
764.279	0.0172517
764.357	0.0173323
764.435	0.0171976
764.513	0.0172575
764.591	0.0171513
764.669	0.0172730
764.747	0.0172365
764.825	0.0170945
764.904	0.0170845
764.982	0.0171262
765.060	0.0172124
765.138	0.0170033
765.216	0.0169303
765.294	0.0170071
765.372	0.0170385
765.450	0.0169712
765.529	0.0170364
765.607	0.0169539
765.685	0.0170418
765.763	0.0169518
765.841	0.0169570
765.919	0.0168508
765.997	0.0168961
766.075	0.0169958
766.154	0.0168816
766.232	0.0168820
766.310	0.0169650
766.388	0.0167420
766.466	0.0168656
766.544	0.0168220
766.622	0.0168193
766.700	0.0168297
766.779	0.0169105
766.857	0.0168224
766.935	0.0168332
767.013	0.0167238
767.091	0.0167370
767.169	0.0168548
767.247	0.0167843
767.325	0.0168087
767.404	0.0167669
767.482	0.0168793
767.560	0.0169772
767.638	0.0170341
767.716	0.0169134
767.794	0.0168292
767.872	0.0168977
767.950	0.0169438
768.029	0.0168600
768.107	0.0170943
768.185	0.0170275
768.263	0.0168755
768.341	0.0169157
768.419	0.0167400
768.497	0.0167571
768.575	0.0168163
768.654	0.0168611
768.732	0.0167470
768.810	0.0168345
768.888	0.0167093
768.966	0.0165687
769.044	0.0166715
769.122	0.0166950
769.200	0.0167948
769.279	0.0165313
769.357	0.0165958
769.435	0.0166773
769.513	0.0166627
769.591	0.0165246
769.669	0.0166009
769.747	0.0166441
769.825	0.0165718
769.904	0.0164391
769.982	0.0165382
770.060	0.0166135
770.138	0.0166923
770.216	0.0166386
770.294	0.0166079
770.372	0.0166903
770.450	0.0167243
770.529	0.0169094
770.607	0.0168644
770.685	0.0171330
770.763	0.0170210
770.841	0.0170341
770.919	0.0171255
770.997	0.0172099
771.075	0.0169834
771.154	0.0171441
771.232	0.0171423
771.310	0.0171360
771.388	0.0172282
771.466	0.0171474
771.544	0.0171056
771.622	0.0169525
771.700	0.0171336
771.779	0.0169402
771.857	0.0170573
771.935	0.0169939
772.013	0.0170401
772.091	0.0169374
772.169	0.0169514
772.247	0.0169520
772.325	0.0169633
772.404	0.0169844
772.482	0.0167383
772.560	0.0168030
772.638	0.0169415
772.716	0.0169823
772.794	0.0169209
772.872	0.0168977
772.950	0.0168816
773.029	0.0168914
773.107	0.0169047
773.185	0.0168814
773.263	0.0170124
773.341	0.0169225
773.419	0.0168027
773.497	0.0169369
773.575	0.0168358
773.654	0.0168369
773.732	0.0167574
773.810	0.0166622
773.888	0.0166488
773.966	0.0167661
774.044	0.0167925
774.122	0.0167036
774.200	0.0166650
774.279	0.0166396
774.357	0.0166705
774.435	0.0165950
774.513	0.0167308
774.591	0.0167825
774.669	0.0168344
774.747	0.0167516
774.825	0.0168270
774.904	0.0168845
774.982	0.0168620
775.060	0.0167910
775.138	0.0168726
775.216	0.0171470
775.294	0.0169917
775.372	0.0169011
775.450	0.0169781
775.529	0.0169489
775.607	0.0169279
775.685	0.0169419
775.763	0.0168579
775.841	0.0170518
775.919	0.0169878
775.997	0.0169193
776.075	0.0168982
776.154	0.0167395
776.232	0.0167123
776.310	0.0168947
776.388	0.0167390
776.466	0.0167434
776.544	0.0167300
776.622	0.0167515
776.700	0.0166933
776.779	0.0168037
776.857	0.0168164
776.935	0.0168956
777.013	0.0167795
777.091	0.0167664
777.169	0.0167977
777.247	0.0167718
777.325	0.0168274
777.404	0.0167184
777.482	0.0167809
777.560	0.0167935
777.638	0.0168355
777.716	0.0167668
777.794	0.0167878
777.872	0.0168096
777.950	0.0166941
778.029	0.0166328
778.107	0.0166125
778.185	0.0168782
778.263	0.0166514
778.341	0.0166346
778.419	0.0167645
778.497	0.0167297
778.575	0.0168140
778.654	0.0169294
778.732	0.0169653
778.810	0.0169562
778.888	0.0169968
778.966	0.0171087
779.044	0.0170610
779.122	0.0171671
779.200	0.0171381
779.279	0.0172195
779.357	0.0171535
779.435	0.0172095
779.513	0.0172263
779.591	0.0172681
779.669	0.0172961
779.747	0.0173132
779.825	0.0172528
779.904	0.0172895
779.982	0.0172837
780.060	0.0172692
780.138	0.0171547
780.216	0.0170692
780.294	0.0171209
780.372	0.0171996
780.450	0.0170580
780.529	0.0169933
780.607	0.0170210
780.685	0.0168718
780.763	0.0168192
780.841	0.0169063
780.919	0.0170310
780.997	0.0170090
781.075	0.0168974
781.154	0.0169845
781.232	0.0172146
781.310	0.0171068
781.388	0.0171576
781.466	0.0172424
781.544	0.0172128
781.622	0.0172115
781.700	0.0171394
781.779	0.0172607
781.857	0.0170321
781.935	0.0171449
782.013	0.0169758
782.091	0.0168530
782.169	0.0167534
782.247	0.0165860
782.325	0.0167068
782.404	0.0163521
782.482	0.0163795
782.560	0.0163558
782.638	0.0161494
782.716	0.0162062
782.794	0.0163139
782.872	0.0163241
782.950	0.0162115
783.029	0.0163852
783.107	0.0165519
783.185	0.0166187
783.263	0.0166972
783.341	0.0168282
783.419	0.0170264
783.497	0.0169933
783.575	0.0173436
783.654	0.0174538
783.732	0.0174957
783.810	0.0174760
783.888	0.0175044
783.966	0.0173395
784.044	0.0172530
784.122	0.0172464
784.200	0.0170841
784.279	0.0168176
784.357	0.0166792
784.435	0.0165036
784.513	0.0165328
784.591	0.0163359
784.669	0.0160808
784.747	0.0159415
784.825	0.0160480
784.904	0.0160786
784.982	0.0161600
785.060	0.0160859
785.138	0.0162675
785.216	0.0164400
785.294	0.0165131
785.372	0.0166508
785.450	0.0166938
785.529	0.0169443
785.607	0.0169473
785.685	0.0170654
785.763	0.0172032
785.841	0.0172935
785.919	0.0173102
785.997	0.0173718
786.075	0.0172985
786.154	0.0171886
786.232	0.0174245
786.310	0.0173872
786.388	0.0175401
786.466	0.0174293
786.544	0.0171928
786.622	0.0173430
786.700	0.0174937
786.779	0.0172359
786.857	0.0173356
786.935	0.0172536
787.013	0.0173468
787.091	0.0171753
787.169	0.0172230
787.247	0.0171841
787.325	0.0172672
787.404	0.0172375
787.482	0.0171721
787.560	0.0171146
787.638	0.0171085
787.716	0.0171777
787.794	0.0171105
787.872	0.0170860
787.950	0.0170780
788.029	0.0168343
788.107	0.0168250
788.185	0.0166625
788.263	0.0167920
788.341	0.0165530
788.419	0.0164186
788.497	0.0165291
788.575	0.0165261
788.654	0.0164185
788.732	0.0165387
788.810	0.0163963
788.888	0.0163987
788.966	0.0165103
789.044	0.0165297
789.122	0.0166051
789.200	0.0167108
789.279	0.0167425
789.357	0.0168210
789.435	0.0168346
789.513	0.0169180
789.591	0.0170083
789.669	0.0172626
789.747	0.0171134
789.825	0.0171860
789.904	0.0173791
789.982	0.0173853
790.060	0.0173560
790.138	0.0173678
790.216	0.0173212
790.294	0.0172602
790.372	0.0173476
790.450	0.0173022
790.529	0.0174313
790.607	0.0171865
790.685	0.0172396
790.763	0.0170277
790.841	0.0170114
790.919	0.0169958
790.997	0.0167328
791.075	0.0166768
791.154	0.0168131
791.232	0.0166078
791.310	0.0165155
791.388	0.0164225
791.466	0.0165097
791.544	0.0164705
791.622	0.0163679
791.700	0.0163272
791.779	0.0163428
791.857	0.0164927
791.935	0.0163388
792.013	0.0163541
792.091	0.0164755
792.169	0.0165024
792.247	0.0165154
792.325	0.0164517
792.404	0.0164468
792.482	0.0164946
792.560	0.0166237
792.638	0.0166883
792.716	0.0167019
792.794	0.0166711
792.872	0.0169074
792.950	0.0167713
793.029	0.0169489
793.107	0.0171068
793.185	0.0171210
793.263	0.0172855
793.341	0.0173100
793.419	0.0172153
793.497	0.0173951
793.575	0.0173877
793.654	0.0174715
793.732	0.0174358
793.810	0.0174326
793.888	0.0174564
793.966	0.0176049
794.044	0.0175416
794.122	0.0175351
794.200	0.0175451
794.279	0.0175088
794.357	0.0174725
794.435	0.0174201
794.513	0.0174925
794.591	0.0173101
794.669	0.0172852
794.747	0.0172049
794.825	0.0172990
794.904	0.0171208
794.982	0.0169821
795.060	0.0169511
795.138	0.0167294
795.216	0.0167575
795.294	0.0168473
795.372	0.0166489
795.450	0.0165307
795.529	0.0165007
795.607	0.0164986
795.685	0.0165105
795.763	0.0164178
795.841	0.0164108
795.919	0.0164467
795.997	0.0165198
796.075	0.0164149
796.154	0.0164816
796.232	0.0164760
796.310	0.0163789
796.388	0.0164326
796.466	0.0162744
796.544	0.0164436
796.622	0.0163638
796.700	0.0166097
796.779	0.0164993
796.857	0.0164563
796.935	0.0166611
797.013	0.0166034
797.091	0.0167134
797.169	0.0167837
797.247	0.0168105
797.325	0.0166942
797.404	0.0169334
797.482	0.0169238
797.560	0.0169949
797.638	0.0170671
797.716	0.0171014
797.794	0.0171313
797.872	0.0171442
797.950	0.0171398
798.029	0.0170753
798.107	0.0172626
798.185	0.0171223
798.263	0.0171275
798.341	0.0171456
798.419	0.0170377
798.497	0.0170767
798.575	0.0170736
798.654	0.0171368
798.732	0.0171208
798.810	0.0171053
798.888	0.0169947
798.966	0.0169965
799.044	0.0170557
799.122	0.0169788
799.200	0.0168937
799.279	0.0168757
799.357	0.0169086
799.435	0.0169454
799.513	0.0171015
799.591	0.0168002
799.669	0.0167596
799.747	0.0168019
799.825	0.0167927
799.904	0.0167253
799.982	0.0166778
800.060	0.0167786
800.138	0.0168018
800.216	0.0167238
800.294	0.0166765
800.372	0.0166260
800.450	0.0167492
800.529	0.0167709
800.607	0.0168382
800.685	0.0169637
800.763	0.0169187
800.841	0.0167986
800.919	0.0167648
800.997	0.0168124
801.075	0.0167094
801.154	0.0167535
801.232	0.0167963
801.310	0.0167306
801.388	0.0167464
801.466	0.0165985
801.544	0.0164595
801.622	0.0166705
801.700	0.0166185
801.779	0.0165685
801.857	0.0165588
801.935	0.0166391
802.013	0.0166366
802.091	0.0165874
802.169	0.0166249
802.247	0.0168365
802.325	0.0168983
802.404	0.0168869
802.482	0.0170008
802.560	0.0170433
802.638	0.0171554
802.716	0.0171854
802.794	0.0171895
802.872	0.0172221
802.950	0.0175385
803.029	0.0174741
803.107	0.0174014
803.185	0.0173699
803.263	0.0174551
803.341	0.0173569
803.419	0.0173793
803.497	0.0173103
803.575	0.0174102
803.654	0.0173740
803.732	0.0172424
803.810	0.0171018
803.888	0.0170541
803.966	0.0171220
804.044	0.0169184
804.122	0.0169557
804.200	0.0169161
804.279	0.0167841
804.357	0.0167570
804.435	0.0167281
804.513	0.0167380
804.591	0.0166926
804.669	0.0166383
804.747	0.0166037
804.825	0.0166257
804.904	0.0167546
804.982	0.0164935
805.060	0.0166962
805.138	0.0166231
805.216	0.0166556
805.294	0.0167595
805.372	0.0167112
805.450	0.0167393
805.529	0.0168053
805.607	0.0168439
805.685	0.0167934
805.763	0.0166452
805.841	0.0168471
805.919	0.0169354
805.997	0.0169482
806.075	0.0168540
806.154	0.0167470
806.232	0.0169061
806.310	0.0167886
806.388	0.0167036
806.466	0.0167540
806.544	0.0166517
806.622	0.0168436
806.700	0.0167111
806.779	0.0165397
806.857	0.0163837
806.935	0.0163247
807.013	0.0164617
807.091	0.0163589
807.169	0.0164996
807.247	0.0165614
807.325	0.0164581
807.404	0.0164246
807.482	0.0165685
807.560	0.0165500
807.638	0.0165745
807.716	0.0165462
807.794	0.0166244
807.872	0.0167822
807.950	0.0167507
808.029	0.0168382
808.107	0.0169118
808.185	0.0169568
808.263	0.0169358
808.341	0.0170191
808.419	0.0171745
808.497	0.0170286
808.575	0.0171043
808.654	0.0172918
808.732	0.0172899
808.810	0.0171207
808.888	0.0173252
808.966	0.0172724
809.044	0.0172708
809.122	0.0171703
809.200	0.0173854
809.279	0.0174559
809.357	0.0173982
809.435	0.0174398
809.513	0.0174123
809.591	0.0174489
809.669	0.0174850
809.747	0.0173878
809.825	0.0174329
809.904	0.0175737
809.982	0.0173882
810.060	0.0174123
810.138	0.0175732
810.216	0.0172920
810.294	0.0173257
810.372	0.0171821
810.450	0.0171368
810.529	0.0171862
810.607	0.0170144
810.685	0.0170888
810.763	0.0169688
810.841	0.0168477
810.919	0.0169386
810.997	0.0168391
811.075	0.0167548
811.154	0.0168108
811.232	0.0167499
811.310	0.0167019
811.388	0.0166008
811.466	0.0165769
811.544	0.0165949
811.622	0.0166309
811.700	0.0164873
811.779	0.0163694
811.857	0.0163505
811.935	0.0162986
812.013	0.0162875
812.091	0.0162186
812.169	0.0163705
812.247	0.0162992
812.325	0.0162531
812.404	0.0163015
812.482	0.0163237
812.560	0.0162099
812.638	0.0163253
812.716	0.0164148
812.794	0.0162760
812.872	0.0163383
812.950	0.0165174
813.029	0.0165884
813.107	0.0165864
813.185	0.0167776
813.263	0.0167645
813.341	0.0167084
813.419	0.0169020
813.497	0.0169753
813.575	0.0171353
813.654	0.0171748
813.732	0.0171028
813.810	0.0172766
813.888	0.0173560
813.966	0.0173199
814.044	0.0172939
814.122	0.0174408
814.200	0.0173505
814.279	0.0173273
814.357	0.0173430
814.435	0.0174205
814.513	0.0174172
814.591	0.0174109
814.669	0.0172263
814.747	0.0171725
814.825	0.0172854
814.904	0.0171870
814.982	0.0171531
815.060	0.0170885
815.138	0.0170257
815.216	0.0169630
815.294	0.0168526
815.372	0.0167702
815.450	0.0168371
815.529	0.0167989
815.607	0.0167339
815.685	0.0168079
815.763	0.0168428
815.841	0.0168752
815.919	0.0168098
815.997	0.0167577
816.075	0.0169219
816.154	0.0168286
816.232	0.0166553
816.310	0.0167246
816.388	0.0169466
816.466	0.0169848
816.544	0.0170064
816.622	0.0168854
816.700	0.0169547
816.779	0.0168920
816.857	0.0168700
816.935	0.0168616
817.013	0.0167984
817.091	0.0169112
817.169	0.0167950
817.247	0.0167586
817.325	0.0166420
817.404	0.0167960
817.482	0.0168163
817.560	0.0167107
817.638	0.0167776
817.716	0.0168127
817.794	0.0167326
817.872	0.0168936
817.950	0.0168202
818.029	0.0168022
818.107	0.0168901
818.185	0.0169976
818.263	0.0170082
818.341	0.0169955
818.419	0.0169882
818.497	0.0169907
818.575	0.0171352
818.654	0.0170911
818.732	0.0170025
818.810	0.0168852
818.888	0.0169498
818.966	0.0169099
819.044	0.0170626
819.122	0.0171389
819.200	0.0170122
819.279	0.0169784
819.357	0.0170304
819.435	0.0170410
819.513	0.0171423
819.591	0.0171169
819.669	0.0170651
819.747	0.0171672
819.825	0.0170119
819.904	0.0169373
819.982	0.0169311
820.060	0.0169627
820.138	0.0170172
820.216	0.0170438
820.294	0.0169285
820.372	0.0169809
820.450	0.0169572
820.529	0.0169191
820.607	0.0168519
820.685	0.0167332
820.763	0.0169053
820.841	0.0168874
820.919	0.0167261
820.997	0.0167587
821.075	0.0168819
821.154	0.0166486
821.232	0.0166439
821.310	0.0165433
821.388	0.0167333
821.466	0.0164941
821.544	0.0163966
821.622	0.0164542
821.700	0.0164608
821.779	0.0165144
821.857	0.0163659
821.935	0.0164540
822.013	0.0164726
822.091	0.0165701
822.169	0.0164850
822.247	0.0165493
822.325	0.0166736
822.404	0.0167829
822.482	0.0168447
822.560	0.0168192
822.638	0.0168019
822.716	0.0169572
822.794	0.0169293
822.872	0.0170177
822.950	0.0171370
823.029	0.0170955
823.107	0.0171379
823.185	0.0172179
823.263	0.0171652
823.341	0.0171458
823.419	0.0172739
823.497	0.0173000
823.575	0.0172936
823.654	0.0173001
823.732	0.0173938
823.810	0.0171955
823.888	0.0172469
823.966	0.0173046
824.044	0.0172934
824.122	0.0170785
824.200	0.0173374
824.279	0.0172559
824.357	0.0169873
824.435	0.0170827
824.513	0.0170173
824.591	0.0169855
824.669	0.0168594
824.747	0.0169401
824.825	0.0168453
824.904	0.0169156
824.982	0.0168977
825.060	0.0168740
825.138	0.0167299
825.216	0.0166169
825.294	0.0166926
825.372	0.0165257
825.450	0.0165581
825.529	0.0164758
825.607	0.0165540
825.685	0.0166251
825.763	0.0166512
825.841	0.0165480
825.919	0.0164336
825.997	0.0165414
826.075	0.0166567
826.154	0.0166845
826.232	0.0166581
826.310	0.0166241
826.388	0.0169305
826.466	0.0168202
826.544	0.0168787
826.622	0.0168440
826.700	0.0168691
826.779	0.0170223
826.857	0.0170491
826.935	0.0169405
827.013	0.0170538
827.091	0.0170671
827.169	0.0170536
827.247	0.0171189
827.325	0.0171925
827.404	0.0170869
827.482	0.0171213
827.560	0.0170480
827.638	0.0170947
827.716	0.0170176
827.794	0.0170246
827.872	0.0169872
827.950	0.0170224
828.029	0.0170975
828.107	0.0170012
828.185	0.0170496
828.263	0.0170161
828.341	0.0170103
828.419	0.0169053
828.497	0.0168273
828.575	0.0169192
828.654	0.0167519
828.732	0.0165371
828.810	0.0165012
828.888	0.0165973
828.966	0.0164933
829.044	0.0164317
829.122	0.0165385
829.200	0.0163855
829.279	0.0164307
829.357	0.0164727
829.435	0.0164496
829.513	0.0165110
829.591	0.0165626
829.669	0.0164877
829.747	0.0165591
829.825	0.0165939
829.904	0.0166143
829.982	0.0168380
830.060	0.0167966
830.138	0.0168682
830.216	0.0169627
830.294	0.0169269
830.372	0.0169759
830.450	0.0172063
830.529	0.0171342
830.607	0.0171928
830.685	0.0174190
830.763	0.0173889
830.841	0.0172807
830.919	0.0172068
830.997	0.0174208
831.075	0.0173645
831.154	0.0173541
831.232	0.0172527
831.310	0.0171901
831.388	0.0172830
831.466	0.0171914
831.544	0.0171301
831.622	0.0169608
831.700	0.0171790
831.779	0.0171368
831.857	0.0170706
831.935	0.0171219
832.013	0.0169719
832.091	0.0169079
832.169	0.0168220
832.247	0.0169057
832.325	0.0168916
832.404	0.0169652
832.482	0.0165852
832.560	0.0167800
832.638	0.0167660
832.716	0.0168085
832.794	0.0166074
832.872	0.0165444
832.950	0.0166537
833.029	0.0166848
833.107	0.0164756
833.185	0.0165236
833.263	0.0163660
833.341	0.0164013
833.419	0.0165354
833.497	0.0164907
833.575	0.0164894
833.654	0.0163994
833.732	0.0165280
833.810	0.0165265
833.888	0.0167465
833.966	0.0166354
834.044	0.0165710
834.122	0.0167403
834.200	0.0168220
834.279	0.0168091
834.357	0.0167975
834.435	0.0169181
834.513	0.0169413
834.591	0.0168360
834.669	0.0167889
834.747	0.0170984
834.825	0.0169324
834.904	0.0171275
834.982	0.0172305
835.060	0.0170503
835.138	0.0170273
835.216	0.0171508
835.294	0.0171003
835.372	0.0171295
835.450	0.0172166
835.529	0.0171169
835.607	0.0171243
835.685	0.0171999
835.763	0.0172211
835.841	0.0172380
835.919	0.0173819
835.997	0.0174962
836.075	0.0173289
836.154	0.0172164
836.232	0.0171449
836.310	0.0171671
836.388	0.0171664
836.466	0.0171886
836.544	0.0171029
836.622	0.0170250
836.700	0.0169722
836.779	0.0169710
836.857	0.0166494
836.935	0.0166975
837.013	0.0166087
837.091	0.0165871
837.169	0.0165151
837.247	0.0162640
837.325	0.0162867
837.404	0.0163293
837.482	0.0161730
837.560	0.0162090
837.638	0.0162955
837.716	0.0162579
837.794	0.0161840
837.872	0.0162298
837.950	0.0162894
838.029	0.0163036
838.107	0.0163559
838.185	0.0162563
838.263	0.0165900
838.341	0.0166601
838.419	0.0165463
838.497	0.0167690
838.575	0.0168043
838.654	0.0167109
838.732	0.0168415
838.810	0.0170610
838.888	0.0170000
838.966	0.0171059
839.044	0.0171747
839.122	0.0171467
839.200	0.0171798
839.279	0.0173198
839.357	0.0171738
839.435	0.0172935
839.513	0.0173474
839.591	0.0173110
839.669	0.0173299
839.747	0.0173660
839.825	0.0171995
839.904	0.0173008
839.982	0.0174839
840.060	0.0175727
840.138	0.0174955
840.216	0.0175175
840.294	0.0174218
840.372	0.0175494
840.450	0.0173200
840.529	0.0173200
840.607	0.0173979
840.685	0.0172713
840.763	0.0172173
840.841	0.0171524
840.919	0.0171343
840.997	0.0170759
841.075	0.0170443
841.154	0.0169324
841.232	0.0168810
841.310	0.0167774
841.388	0.0167348
841.466	0.0166037
841.544	0.0167389
841.622	0.0166647
841.700	0.0164738
841.779	0.0166021
841.857	0.0166007
841.935	0.0166730
842.013	0.0165004
842.091	0.0165603
842.169	0.0165868
842.247	0.0165913
842.325	0.0166149
842.404	0.0166128
842.482	0.0165597
842.560	0.0166171
842.638	0.0166524
842.716	0.0165876
842.794	0.0167377
842.872	0.0165874
842.950	0.0166263
843.029	0.0166325
843.107	0.0164816
843.185	0.0166608
843.263	0.0167321
843.341	0.0166649
843.419	0.0166560
843.497	0.0167146
843.575	0.0167521
843.654	0.0168501
843.732	0.0169463
843.810	0.0169727
843.888	0.0170373
843.966	0.0169347
844.044	0.0169906
844.122	0.0170826
844.200	0.0170782
844.279	0.0170428
844.357	0.0171508
844.435	0.0172904
844.513	0.0171640
844.591	0.0170837
844.669	0.0171139
844.747	0.0171491
844.825	0.0172450
844.904	0.0171521
844.982	0.0170676
845.060	0.0170330
845.138	0.0170278
845.216	0.0168712
845.294	0.0168233
845.372	0.0167745
845.450	0.0167840
845.529	0.0168393
845.607	0.0167253
845.685	0.0166600
845.763	0.0165370
845.841	0.0166834
845.919	0.0167496
845.997	0.0167073
846.075	0.0167401
846.154	0.0168584
846.232	0.0168581
846.310	0.0168995
846.388	0.0167284
846.466	0.0169882
846.544	0.0170399
846.622	0.0170276
846.700	0.0170887
846.779	0.0171626
846.857	0.0170952
846.935	0.0169426
847.013	0.0170724
847.091	0.0170661
847.169	0.0171690
847.247	0.0170570
847.325	0.0172165
847.404	0.0171627
847.482	0.0171378
847.560	0.0170356
847.638	0.0170031
847.716	0.0171077
847.794	0.0169656
847.872	0.0171857
847.950	0.0170628
848.029	0.0170434
848.107	0.0170413
848.185	0.0169147
848.263	0.0168948
848.341	0.0171456
848.419	0.0169422
848.497	0.0168919
848.575	0.0170238
848.654	0.0170062
848.732	0.0168338
848.810	0.0169200
848.888	0.0167332
848.966	0.0167730
849.044	0.0166526
849.122	0.0165789
849.200	0.0165683
849.279	0.0165604
849.357	0.0166069
849.435	0.0165260
849.513	0.0166064
849.591	0.0165212
849.669	0.0164719
849.747	0.0166879
849.825	0.0166785
849.904	0.0166155
849.982	0.0167080
850.060	0.0167867
850.138	0.0170016
850.216	0.0169756
850.294	0.0169505
850.372	0.0169678
850.450	0.0171811
850.529	0.0170358
850.607	0.0170956
850.685	0.0171740
850.763	0.0171289
850.841	0.0173952
850.919	0.0173555
850.997	0.0173357
851.075	0.0172569
851.154	0.0171803
851.232	0.0171572
851.310	0.0172569
851.388	0.0172560
851.466	0.0171473
851.544	0.0171896
851.622	0.0170125
851.700	0.0171571
851.779	0.0170545
851.857	0.0170467
851.935	0.0169978
852.013	0.0169949
852.091	0.0169343
852.169	0.0170373
852.247	0.0168244
852.325	0.0169623
852.404	0.0169578
852.482	0.0169353
852.560	0.0169538
852.638	0.0168968
852.716	0.0169553
852.794	0.0168888
852.872	0.0167943
852.950	0.0168305
853.029	0.0170109
853.107	0.0167911
853.185	0.0168752
853.263	0.0169461
853.341	0.0169253
853.419	0.0168517
853.497	0.0169135
853.575	0.0167629
853.654	0.0167656
853.732	0.0166811
853.810	0.0167641
853.888	0.0168211
853.966	0.0166010
854.044	0.0166635
854.122	0.0166823
854.200	0.0165723
854.279	0.0167280
854.357	0.0167368
854.435	0.0165218
854.513	0.0164371
854.591	0.0163978
854.669	0.0164521
854.747	0.0165031
854.825	0.0163235
854.904	0.0165135
854.982	0.0165865
855.060	0.0164737
855.138	0.0166458
855.216	0.0164423
855.294	0.0166014
855.372	0.0167227
855.450	0.0168085
855.529	0.0168505
855.607	0.0169844
855.685	0.0168180
855.763	0.0170014
855.841	0.0171981
855.919	0.0172092
855.997	0.0172414
856.075	0.0172906
856.154	0.0173159
856.232	0.0174102
856.310	0.0173186
856.388	0.0174816
856.466	0.0174818
856.544	0.0174761
856.622	0.0174155
856.700	0.0174389
856.779	0.0175684
856.857	0.0175449
856.935	0.0174474
857.013	0.0174138
857.091	0.0174716
857.169	0.0172939
857.247	0.0173958
857.325	0.0172717
857.404	0.0173022
857.482	0.0174317
857.560	0.0171291
857.638	0.0171279
857.716	0.0171262
857.794	0.0171305
857.872	0.0170109
857.950	0.0169284
858.029	0.0169528
858.107	0.0168652
858.185	0.0167290
858.263	0.0166772
858.341	0.0167149
858.419	0.0167228
858.497	0.0166296
858.575	0.0166158
858.654	0.0165285
858.732	0.0166098
858.810	0.0166311
858.888	0.0164438
858.966	0.0164037
859.044	0.0163915
859.122	0.0164310
859.200	0.0162708
859.279	0.0163226
859.357	0.0164443
859.435	0.0163702
859.513	0.0162430
859.591	0.0164249
859.669	0.0163235
859.747	0.0164223
859.825	0.0164364
859.904	0.0163890
859.982	0.0166171
860.060	0.0165558
860.138	0.0164942
860.216	0.0167049
860.294	0.0167544
860.372	0.0167686
860.450	0.0169006
860.529	0.0169234
860.607	0.0170554
860.685	0.0170115
860.763	0.0170123
860.841	0.0171533
860.919	0.0171837
860.997	0.0171956
861.075	0.0172472
861.154	0.0173582
861.232	0.0175436
861.310	0.0173335
861.388	0.0173808
861.466	0.0174208
861.544	0.0173452
861.622	0.0173924
861.700	0.0173315
861.779	0.0172449
861.857	0.0173056
861.935	0.0173408
862.013	0.0171947
862.091	0.0172082
862.169	0.0170764
862.247	0.0170884
862.325	0.0171309
862.404	0.0171231
862.482	0.0170782
862.560	0.0168654
862.638	0.0169245
862.716	0.0169398
862.794	0.0168106
862.872	0.0169016
862.950	0.0168893
863.029	0.0171162
863.107	0.0168417
863.185	0.0168922
863.263	0.0169268
863.341	0.0169627
863.419	0.0170034
863.497	0.0169199
863.575	0.0170277
863.654	0.0169613
863.732	0.0170085
863.810	0.0170741
863.888	0.0171201
863.966	0.0170152
864.044	0.0170715
864.122	0.0171153
864.200	0.0169726
864.279	0.0168982
864.357	0.0167960
864.435	0.0170700
864.513	0.0169736
864.591	0.0168631
864.669	0.0167520
864.747	0.0167159
864.825	0.0167857
864.904	0.0167406
864.982	0.0167767
865.060	0.0166337
865.138	0.0166169
865.216	0.0167464
865.294	0.0167110
865.372	0.0165349
865.450	0.0166374
865.529	0.0165556
865.607	0.0166778
865.685	0.0167669
865.763	0.0165997
865.841	0.0166807
865.919	0.0165283
865.997	0.0166154
866.075	0.0167160
866.154	0.0165599
866.232	0.0167995
866.310	0.0166280
866.388	0.0165849
866.466	0.0165806
866.544	0.0166525
866.622	0.0166567
866.700	0.0167123
866.779	0.0167196
866.857	0.0167934
866.935	0.0166866
867.013	0.0166141
867.091	0.0167727
867.169	0.0167260
867.247	0.0167790
867.325	0.0167746
867.404	0.0166277
867.482	0.0168284
867.560	0.0169806
867.638	0.0167943
867.716	0.0167440
867.794	0.0168098
867.872	0.0169427
867.950	0.0168459
868.029	0.0169537
868.107	0.0169508
868.185	0.0169267
868.263	0.0170394
868.341	0.0172355
868.419	0.0170885
868.497	0.0169761
868.575	0.0170781
868.654	0.0172065
868.732	0.0171075
868.810	0.0169880
868.888	0.0171053
868.966	0.0171430
869.044	0.0171885
869.122	0.0171112
869.200	0.0169887
869.279	0.0172408
869.357	0.0169302
869.435	0.0170059
869.513	0.0170595
869.591	0.0170844
869.669	0.0169080
869.747	0.0169453
869.825	0.0169639
869.904	0.0168402
869.982	0.0169490
870.060	0.0170183
870.138	0.0167787
870.216	0.0167891
870.294	0.0167936
870.372	0.0168246
870.450	0.0168771
870.529	0.0166584
870.607	0.0166951
870.685	0.0168001
870.763	0.0168173
870.841	0.0166369
870.919	0.0166411
870.997	0.0166580
871.075	0.0166091
871.154	0.0166507
871.232	0.0167393
871.310	0.0167770
871.388	0.0166159
871.466	0.0166025
871.544	0.0166887
871.622	0.0166812
871.700	0.0166842
871.779	0.0166736
871.857	0.0166968
871.935	0.0165399
872.013	0.0166404
872.091	0.0167181
872.169	0.0166461
872.247	0.0167388
872.325	0.0167030
872.404	0.0166910
872.482	0.0168824
872.560	0.0168002
872.638	0.0169013
872.716	0.0169228
872.794	0.0170240
872.872	0.0170476
872.950	0.0170041
873.029	0.0169904
873.107	0.0169635
873.185	0.0170985
873.263	0.0171679
873.341	0.0171358
873.419	0.0170915
873.497	0.0170674
873.575	0.0170390
873.654	0.0169513
873.732	0.0170290
873.810	0.0169751
873.888	0.0168874
873.966	0.0169035
874.044	0.0168842
874.122	0.0169035
874.200	0.0168227
874.279	0.0168425
874.357	0.0168261
874.435	0.0168221
874.513	0.0168491
874.591	0.0167924
874.669	0.0166244
874.747	0.0166577
874.825	0.0169026
874.904	0.0167659
874.982	0.0168368
875.060	0.0166869
875.138	0.0167401
875.216	0.0167297
875.294	0.0167574
875.372	0.0167977
875.450	0.0166694
875.529	0.0166535
875.607	0.0168390
875.685	0.0165710
875.763	0.0165347
875.841	0.0165276
875.919	0.0164278
875.997	0.0164957
876.075	0.0164047
876.154	0.0165038
876.232	0.0166108
876.310	0.0166589
876.388	0.0168230
876.466	0.0169630
876.544	0.0170016
876.622	0.0172145
876.700	0.0172771
876.779	0.0175436
876.857	0.0174807
876.935	0.0175536
877.013	0.0176662
877.091	0.0176897
877.169	0.0174383
877.247	0.0174063
877.325	0.0173305
877.404	0.0170880
877.482	0.0169257
877.560	0.0168402
877.638	0.0166465
877.716	0.0163638
877.794	0.0164342
877.872	0.0163930
877.950	0.0161961
878.029	0.0160864
878.107	0.0161110
878.185	0.0162786
878.263	0.0164793
878.341	0.0164701
878.419	0.0166677
878.497	0.0170082
878.575	0.0171600
878.654	0.0174835
878.732	0.0178385
878.810	0.0179852
878.888	0.0182170
878.966	0.0182598
879.044	0.0183657
879.122	0.0183363
879.200	0.0182708
879.279	0.0181332
879.357	0.0179465
879.435	0.0176427
879.513	0.0173622
879.591	0.0169541
879.669	0.0165603
879.747	0.0162525
879.825	0.0160504
879.904	0.0157043
879.982	0.0157099
880.060	0.0155824
880.138	0.0156322
880.216	0.0156031
880.294	0.0156958
880.372	0.0158254
880.450	0.0159895
880.529	0.0162114
880.607	0.0164462
880.685	0.0165215
880.763	0.0166969
880.841	0.0169932
880.919	0.0169888
880.997	0.0170897
881.075	0.0172353
881.154	0.0172075
881.232	0.0172310
881.310	0.0172600
881.388	0.0173521
881.466	0.0172998
881.544	0.0173848
881.622	0.0174406
881.700	0.0172507
881.779	0.0172307
881.857	0.0172313
881.935	0.0171595
882.013	0.0170962
882.091	0.0170126
882.169	0.0170922
882.247	0.0169243
882.325	0.0167457
882.404	0.0167136
882.482	0.0163997
882.560	0.0166092
882.638	0.0164613
882.716	0.0163380
882.794	0.0164326
882.872	0.0163737
882.950	0.0162708
883.029	0.0162933
883.107	0.0163246
883.185	0.0163874
883.263	0.0165246
883.341	0.0165986
883.419	0.0164173
883.497	0.0165705
883.575	0.0167834
883.654	0.0168551
883.732	0.0170548
883.810	0.0170037
883.888	0.0171664
883.966	0.0172749
884.044	0.0174145
884.122	0.0174882
884.200	0.0174873
884.279	0.0176272
884.357	0.0176778
884.435	0.0177161
884.513	0.0177134
884.591	0.0176919
884.669	0.0176836
884.747	0.0177718
884.825	0.0175963
884.904	0.0175658
884.982	0.0174908
885.060	0.0174612
885.138	0.0171657
885.216	0.0171597
885.294	0.0170161
885.372	0.0168853
885.450	0.0167345
885.529	0.0166169
885.607	0.0165880
885.685	0.0166300
885.763	0.0163116
885.841	0.0162247
885.919	0.0162132
885.997	0.0163945
886.075	0.0161332
886.154	0.0162365
886.232	0.0163677
886.310	0.0163547
886.388	0.0164374
886.466	0.0165791
886.544	0.0165869
886.622	0.0166949
886.700	0.0167473
886.779	0.0168533
886.857	0.0170181
886.935	0.0170691
887.013	0.0171484
887.091	0.0172169
887.169	0.0173129
887.247	0.0172122
887.325	0.0170563
887.404	0.0171574
887.482	0.0170682
887.560	0.0171754
887.638	0.0170572
887.716	0.0168941
887.794	0.0169958
887.872	0.0168337
887.950	0.0167175
888.029	0.0167371
888.107	0.0167424
888.185	0.0166004
888.263	0.0168438
888.341	0.0166778
888.419	0.0166581
888.497	0.0166490
888.575	0.0165997
888.654	0.0166721
888.732	0.0165650
888.810	0.0165067
888.888	0.0166762
888.966	0.0167067
889.044	0.0167849
889.122	0.0168000
889.200	0.0169211
889.279	0.0169131
889.357	0.0169029
889.435	0.0170472
889.513	0.0171029
889.591	0.0169869
889.669	0.0170263
889.747	0.0170038
889.825	0.0170796
889.904	0.0170123
889.982	0.0171909
890.060	0.0168517
890.138	0.0169998
890.216	0.0169505
890.294	0.0168325
890.372	0.0167760
890.450	0.0167804
890.529	0.0166815
890.607	0.0168201
890.685	0.0167208
890.763	0.0166929
890.841	0.0168458
890.919	0.0167745
890.997	0.0166731
891.075	0.0166957
891.154	0.0167013
891.232	0.0166858
891.310	0.0168063
891.388	0.0167905
891.466	0.0166250
891.544	0.0167085
891.622	0.0168504
891.700	0.0167484
891.779	0.0167278
891.857	0.0168308
891.935	0.0167450
892.013	0.0168012
892.091	0.0168858
892.169	0.0169894
892.247	0.0168248
892.325	0.0168091
892.404	0.0167281
892.482	0.0168045
892.560	0.0168304
892.638	0.0169010
892.716	0.0169882
892.794	0.0170294
892.872	0.0169611
892.950	0.0170713
893.029	0.0170860
893.107	0.0171066
893.185	0.0171584
893.263	0.0171230
893.341	0.0172257
893.419	0.0172208
893.497	0.0171952
893.575	0.0173640
893.654	0.0173082
893.732	0.0172581
893.810	0.0172961
893.888	0.0172357
893.966	0.0172276
894.044	0.0172830
894.122	0.0170634
894.200	0.0170750
894.279	0.0170584
894.357	0.0170991
894.435	0.0170374
894.513	0.0167893
894.591	0.0166830
894.669	0.0166745
894.747	0.0166267
894.825	0.0165520
894.904	0.0162713
894.982	0.0163916
895.060	0.0164098
895.138	0.0163481
895.216	0.0161797
895.294	0.0163330
895.372	0.0163122
895.450	0.0162514
895.529	0.0164078
895.607	0.0163997
895.685	0.0165422
895.763	0.0165526
895.841	0.0165220
895.919	0.0166877
895.997	0.0168694
896.075	0.0167815
896.154	0.0167299
896.232	0.0168528
896.310	0.0168711
896.388	0.0167289
896.466	0.0167743
896.544	0.0168765
896.622	0.0167279
896.700	0.0164905
896.779	0.0165405
896.857	0.0166121
896.935	0.0167690
897.013	0.0165023
897.091	0.0166511
897.169	0.0165324
897.247	0.0166957
897.325	0.0168172
897.404	0.0169121
897.482	0.0169212
897.560	0.0168613
897.638	0.0170192
897.716	0.0170493
897.794	0.0171219
897.872	0.0170847
897.950	0.0172337
898.029	0.0171654
898.107	0.0172089
898.185	0.0172383
898.263	0.0172318
898.341	0.0171873
898.419	0.0172656
898.497	0.0171642
898.575	0.0173031
898.654	0.0172079
898.732	0.0172868
898.810	0.0173361
898.888	0.0172332
898.966	0.0172656
899.044	0.0172241
899.122	0.0171552
899.200	0.0172948
899.279	0.0170735
899.357	0.0172631
899.435	0.0171532
899.513	0.0172388
899.591	0.0171318
899.669	0.0170892
899.747	0.0170074
899.825	0.0169466
899.904	0.0169230
899.982	0.0169468
900.060	0.0167895
900.138	0.0167142
900.216	0.0167140
900.294	0.0167619
900.372	0.0168147
900.450	0.0167486
900.529	0.0167051
900.607	0.0166647
900.685	0.0167020
900.763	0.0165733
900.841	0.0167988
900.919	0.0168187
900.997	0.0166853
901.075	0.0167108
901.154	0.0167011
901.232	0.0167075
901.310	0.0166125
901.388	0.0166703
901.466	0.0167026
901.544	0.0167033
901.622	0.0166434
901.700	0.0166896
901.779	0.0168015
901.857	0.0168563
901.935	0.0167780
902.013	0.0166880
902.091	0.0167364
902.169	0.0170578
902.247	0.0170202
902.325	0.0170299
902.404	0.0169283
902.482	0.0169637
902.560	0.0170676
902.638	0.0170614
902.716	0.0170507
902.794	0.0170338
902.872	0.0170338
902.950	0.0170223
903.029	0.0170244
903.107	0.0171236
903.185	0.0170853
903.263	0.0169329
903.341	0.0168907
903.419	0.0168493
903.497	0.0166606
903.575	0.0168324
903.654	0.0168409
903.732	0.0166759
903.810	0.0166213
903.888	0.0166309
903.966	0.0166807
904.044	0.0167597
904.122	0.0166229
904.200	0.0169171
904.279	0.0165357
904.357	0.0167729
904.435	0.0165884
904.513	0.0166898
904.591	0.0167204
904.669	0.0167912
904.747	0.0168951
904.825	0.0168858
904.904	0.0167546
904.982	0.0167174
905.060	0.0167122
905.138	0.0167188
905.216	0.0168561
905.294	0.0167715
905.372	0.0168600
905.450	0.0169069
905.529	0.0169740
905.607	0.0171143
905.685	0.0170080
905.763	0.0169688
905.841	0.0169489
905.919	0.0171793
905.997	0.0171935
906.075	0.0170559
906.154	0.0171915
906.232	0.0172249
906.310	0.0173475
906.388	0.0171078
906.466	0.0171333
906.544	0.0172980
906.622	0.0171118
906.700	0.0171476
906.779	0.0171237
906.857	0.0171332
906.935	0.0170461
907.013	0.0169730
907.091	0.0169260
907.169	0.0168115
907.247	0.0168522
907.325	0.0167869
907.404	0.0167821
907.482	0.0168607
907.560	0.0166669
907.638	0.0168237
907.716	0.0168472
907.794	0.0165688
907.872	0.0167865
907.950	0.0167358
908.029	0.0166765
908.107	0.0165376
908.185	0.0166249
908.263	0.0167452
908.341	0.0165979
908.419	0.0165637
908.497	0.0166207
908.575	0.0166246
908.654	0.0166603
908.732	0.0166106
908.810	0.0166019
908.888	0.0166654
908.966	0.0166972
909.044	0.0167743
909.122	0.0166002
909.200	0.0166674
909.279	0.0167161
909.357	0.0166135
909.435	0.0167202
909.513	0.0167120
909.591	0.0168022
909.669	0.0167390
909.747	0.0168215
909.825	0.0169122
909.904	0.0168238
909.982	0.0168473
910.060	0.0169244
910.138	0.0169520
910.216	0.0171117
910.294	0.0170630
910.372	0.0169450
910.450	0.0169878
910.529	0.0170115
910.607	0.0171513
910.685	0.0172302
910.763	0.0170575
910.841	0.0169626
910.919	0.0170389
910.997	0.0170500
911.075	0.0169331
911.154	0.0169111
911.232	0.0169968
911.310	0.0168195
911.388	0.0168550
911.466	0.0168455
911.544	0.0168747
911.622	0.0168575
911.700	0.0169196
911.779	0.0169181
911.857	0.0169229
911.935	0.0168033
912.013	0.0168005
912.091	0.0169989
912.169	0.0169386
912.247	0.0169608
912.325	0.0169981
912.404	0.0169311
912.482	0.0168613
912.560	0.0169128
912.638	0.0170114
912.716	0.0168161
912.794	0.0168092
912.872	0.0168540
912.950	0.0167184
913.029	0.0168270
913.107	0.0166629
913.185	0.0168015
913.263	0.0167906
913.341	0.0167854
913.419	0.0168735
913.497	0.0169991
913.575	0.0170316
913.654	0.0169699
913.732	0.0170018
913.810	0.0169730
913.888	0.0169580
913.966	0.0170194
914.044	0.0170319
914.122	0.0170116
914.200	0.0171291
914.279	0.0169376
914.357	0.0171113
914.435	0.0170949
914.513	0.0170559
914.591	0.0170443
914.669	0.0171824
914.747	0.0170903
914.825	0.0171329
914.904	0.0172049
914.982	0.0169201
915.060	0.0169608
915.138	0.0170381
915.216	0.0169240
915.294	0.0170957
915.372	0.0167395
915.450	0.0169291
915.529	0.0167847
915.607	0.0168898
915.685	0.0171066
915.763	0.0169806
915.841	0.0167974
915.919	0.0168073
915.997	0.0168537
916.075	0.0168395
916.154	0.0169467
916.232	0.0167370
916.310	0.0168007
916.388	0.0166959
916.466	0.0168071
916.544	0.0166336
916.622	0.0167276
916.700	0.0167583
916.779	0.0166675
916.857	0.0167147
916.935	0.0168086
917.013	0.0166415
917.091	0.0166795
917.169	0.0166830
917.247	0.0168006
917.325	0.0166891
917.404	0.0166795
917.482	0.0167757
917.560	0.0167551
917.638	0.0167811
917.716	0.0167887
917.794	0.0167979
917.872	0.0168961
917.950	0.0168702
918.029	0.0168305
918.107	0.0168418
918.185	0.0168192
918.263	0.0167305
918.341	0.0167369
918.419	0.0168145
918.497	0.0167168
918.575	0.0167127
918.654	0.0167375
918.732	0.0167152
918.810	0.0167786
918.888	0.0165903
918.966	0.0166559
919.044	0.0166730
919.122	0.0167931
919.200	0.0166969
919.279	0.0169006
919.357	0.0169743
919.435	0.0169483
919.513	0.0169079
919.591	0.0170420
919.669	0.0169014
919.747	0.0169132
919.825	0.0169804
919.904	0.0169013
