06/01/2022	17:18:58	Ver.	4.1	UNKNOWN
Optical Delay	599.981738	Delta X		0.078125	Sweeps	1	Scan Rate	0/0
Coordinates	Axis 1	NaN	Axis 2	NaN	Axis 3	NaN	Axis 4	NaN	Axis 5	NaN	Axis 6	0.000000
TX Power	0.000000	RX Power	0.000000

599.982	0.0166657
600.060	0.0167560
600.138	0.0166600
600.216	0.0166481
600.294	0.0166391
600.372	0.0166898
600.450	0.0167074
600.529	0.0167541
600.607	0.0166164
600.685	0.0166896
600.763	0.0166856
600.841	0.0166724
600.919	0.0166978
600.997	0.0167205
601.075	0.0166631
601.154	0.0166895
601.232	0.0167349
601.310	0.0165841
601.388	0.0166315
601.466	0.0167023
601.544	0.0166357
601.622	0.0167198
601.700	0.0166945
601.779	0.0167496
601.857	0.0167904
601.935	0.0165707
602.013	0.0166499
602.091	0.0165182
602.169	0.0167438
602.247	0.0166666
602.325	0.0166709
602.404	0.0166386
602.482	0.0165212
602.560	0.0166649
602.638	0.0166429
602.716	0.0165796
602.794	0.0166638
602.872	0.0167680
602.950	0.0167975
603.029	0.0167175
603.107	0.0165856
603.185	0.0167146
603.263	0.0166901
603.341	0.0167091
603.419	0.0166901
603.497	0.0165948
603.575	0.0166966
603.654	0.0167036
603.732	0.0167812
603.810	0.0167450
603.888	0.0166460
603.966	0.0165675
604.044	0.0165887
604.122	0.0166888
604.200	0.0166596
604.279	0.0166774
604.357	0.0167264
604.435	0.0167246
604.513	0.0166161
604.591	0.0164647
604.669	0.0167001
604.747	0.0167671
604.825	0.0167508
604.904	0.0167767
604.982	0.0166512
605.060	0.0168344
605.138	0.0167435
605.216	0.0166821
605.294	0.0166869
605.372	0.0167020
605.450	0.0167704
605.529	0.0167994
605.607	0.0167902
605.685	0.0167021
605.763	0.0165710
605.841	0.0165401
605.919	0.0167397
605.997	0.0165738
606.075	0.0164670
606.154	0.0166198
606.232	0.0165968
606.310	0.0167136
606.388	0.0166054
606.466	0.0166024
606.544	0.0167657
606.622	0.0165574
606.700	0.0167286
606.779	0.0167110
606.857	0.0167398
606.935	0.0166833
607.013	0.0167506
607.091	0.0166409
607.169	0.0166585
607.247	0.0167869
607.325	0.0166566
607.404	0.0167273
607.482	0.0166660
607.560	0.0166788
607.638	0.0166563
607.716	0.0166695
607.794	0.0166588
607.872	0.0166343
607.950	0.0166670
608.029	0.0166408
608.107	0.0166900
608.185	0.0166487
608.263	0.0165816
608.341	0.0164520
608.419	0.0164656
608.497	0.0166802
608.575	0.0166404
608.654	0.0164960
608.732	0.0166912
608.810	0.0165038
608.888	0.0165357
608.966	0.0166352
609.044	0.0167409
609.122	0.0165491
609.200	0.0166335
609.279	0.0166897
609.357	0.0167109
609.435	0.0166096
609.513	0.0166473
609.591	0.0167113
609.669	0.0167652
609.747	0.0167245
609.825	0.0167046
609.904	0.0167404
609.982	0.0165594
610.060	0.0167037
610.138	0.0166315
610.216	0.0166982
610.294	0.0166895
610.372	0.0165991
610.450	0.0165731
610.529	0.0166594
610.607	0.0165478
610.685	0.0166506
610.763	0.0166989
610.841	0.0167298
610.919	0.0166147
610.997	0.0164763
611.075	0.0165865
611.154	0.0166936
611.232	0.0165591
611.310	0.0165664
611.388	0.0166192
611.466	0.0165978
611.544	0.0166339
611.622	0.0166008
611.700	0.0165903
611.779	0.0168260
611.857	0.0165605
611.935	0.0166586
612.013	0.0166982
612.091	0.0167248
612.169	0.0167578
612.247	0.0166350
612.325	0.0167361
612.404	0.0167452
612.482	0.0166173
612.560	0.0167429
612.638	0.0167853
612.716	0.0166329
612.794	0.0165694
612.872	0.0166994
612.950	0.0167518
613.029	0.0168051
613.107	0.0166142
613.185	0.0166352
613.263	0.0165663
613.341	0.0166436
613.419	0.0167139
613.497	0.0167878
613.575	0.0167941
613.654	0.0167300
613.732	0.0166296
613.810	0.0166132
613.888	0.0167651
613.966	0.0166396
614.044	0.0166348
614.122	0.0166419
614.200	0.0165785
614.279	0.0165503
614.357	0.0165816
614.435	0.0167300
614.513	0.0166373
614.591	0.0166299
614.669	0.0166506
614.747	0.0166125
614.825	0.0166174
614.904	0.0166696
614.982	0.0166224
615.060	0.0168556
615.138	0.0167307
615.216	0.0165540
615.294	0.0166792
615.372	0.0166531
615.450	0.0166353
615.529	0.0166257
615.607	0.0165258
615.685	0.0167115
615.763	0.0166083
615.841	0.0164145
615.919	0.0165645
615.997	0.0166951
616.075	0.0165807
616.154	0.0166866
616.232	0.0167189
616.310	0.0166207
616.388	0.0167000
616.466	0.0167570
616.544	0.0167081
616.622	0.0167082
616.700	0.0165884
616.779	0.0167069
616.857	0.0167243
616.935	0.0166788
617.013	0.0165936
617.091	0.0165954
617.169	0.0165804
617.247	0.0165393
617.325	0.0167485
617.404	0.0166915
617.482	0.0166589
617.560	0.0166923
617.638	0.0167506
617.716	0.0165619
617.794	0.0166975
617.872	0.0166090
617.950	0.0166309
618.029	0.0167358
618.107	0.0165643
618.185	0.0167451
618.263	0.0164970
618.341	0.0166867
618.419	0.0165567
618.497	0.0165440
618.575	0.0166601
618.654	0.0165231
618.732	0.0165461
618.810	0.0166059
618.888	0.0167468
618.966	0.0165995
619.044	0.0165813
619.122	0.0164687
619.200	0.0165997
619.279	0.0167352
619.357	0.0166605
619.435	0.0165842
619.513	0.0166030
619.591	0.0167224
619.669	0.0167190
619.747	0.0166988
619.825	0.0166828
619.904	0.0165414
619.982	0.0166186
620.060	0.0167298
620.138	0.0168378
620.216	0.0166448
620.294	0.0165041
620.372	0.0165584
620.450	0.0165697
620.529	0.0167842
620.607	0.0167895
620.685	0.0166239
620.763	0.0166122
620.841	0.0168507
620.919	0.0166661
620.997	0.0167190
621.075	0.0167152
621.154	0.0167185
621.232	0.0166047
621.310	0.0166826
621.388	0.0167548
621.466	0.0166133
621.544	0.0166896
621.622	0.0166654
621.700	0.0166196
621.779	0.0166047
621.857	0.0167059
621.935	0.0169356
622.013	0.0166537
622.091	0.0166497
622.169	0.0166943
622.247	0.0167168
622.325	0.0165722
622.404	0.0166380
622.482	0.0165795
622.560	0.0165897
622.638	0.0166393
622.716	0.0166750
622.794	0.0165449
622.872	0.0164751
622.950	0.0166489
623.029	0.0165096
623.107	0.0167951
623.185	0.0166267
623.263	0.0166339
623.341	0.0166207
623.419	0.0165821
623.497	0.0166803
623.575	0.0167097
623.654	0.0165362
623.732	0.0165974
623.810	0.0167094
623.888	0.0167557
623.966	0.0168259
624.044	0.0167570
624.122	0.0166152
624.200	0.0166453
624.279	0.0166255
624.357	0.0165837
624.435	0.0166358
624.513	0.0166165
624.591	0.0167120
624.669	0.0165369
624.747	0.0166490
624.825	0.0167949
624.904	0.0166838
624.982	0.0166072
625.060	0.0167644
625.138	0.0168530
625.216	0.0165226
625.294	0.0164425
625.372	0.0166637
625.450	0.0167767
625.529	0.0167131
625.607	0.0166016
625.685	0.0167431
625.763	0.0166367
625.841	0.0165812
625.919	0.0165134
625.997	0.0165381
626.075	0.0167429
626.154	0.0166711
626.232	0.0165139
626.310	0.0166813
626.388	0.0166702
626.466	0.0165260
626.544	0.0166835
626.622	0.0166267
626.700	0.0166661
626.779	0.0167447
626.857	0.0166251
626.935	0.0165024
627.013	0.0166481
627.091	0.0168066
627.169	0.0165933
627.247	0.0166916
627.325	0.0166637
627.404	0.0166006
627.482	0.0165215
627.560	0.0167103
627.638	0.0166308
627.716	0.0167226
627.794	0.0166212
627.872	0.0166199
627.950	0.0165662
628.029	0.0166834
628.107	0.0167126
628.185	0.0165670
628.263	0.0165830
628.341	0.0166901
628.419	0.0166483
628.497	0.0166236
628.575	0.0166015
628.654	0.0167152
628.732	0.0166125
628.810	0.0165648
628.888	0.0166422
628.966	0.0165458
629.044	0.0165022
629.122	0.0165628
629.200	0.0166196
629.279	0.0165083
629.357	0.0165536
629.435	0.0166570
629.513	0.0166024
629.591	0.0166531
629.669	0.0165450
629.747	0.0165032
629.825	0.0166162
629.904	0.0167142
629.982	0.0166427
630.060	0.0166206
630.138	0.0165057
630.216	0.0166764
630.294	0.0164932
630.372	0.0165788
630.450	0.0166305
630.529	0.0165821
630.607	0.0166008
630.685	0.0167258
630.763	0.0167403
630.841	0.0165327
630.919	0.0165889
630.997	0.0165901
631.075	0.0165611
631.154	0.0167167
631.232	0.0167175
631.310	0.0165186
631.388	0.0165604
631.466	0.0165810
631.544	0.0165618
631.622	0.0166283
631.700	0.0165447
631.779	0.0167108
631.857	0.0166529
631.935	0.0165865
632.013	0.0166888
632.091	0.0165845
632.169	0.0164839
632.247	0.0165515
632.325	0.0165501
632.404	0.0167897
632.482	0.0165576
632.560	0.0165301
632.638	0.0166739
632.716	0.0165594
632.794	0.0166869
632.872	0.0165257
632.950	0.0165529
633.029	0.0166074
633.107	0.0166438
633.185	0.0166441
633.263	0.0166955
633.341	0.0166801
633.419	0.0165932
633.497	0.0164788
633.575	0.0166023
633.654	0.0166294
633.732	0.0165856
633.810	0.0166093
633.888	0.0166729
633.966	0.0165492
634.044	0.0166927
634.122	0.0166321
634.200	0.0165356
634.279	0.0165823
634.357	0.0165248
634.435	0.0166165
634.513	0.0164989
634.591	0.0166309
634.669	0.0166838
634.747	0.0167207
634.825	0.0166412
634.904	0.0165026
634.982	0.0167242
635.060	0.0167490
635.138	0.0164857
635.216	0.0165092
635.294	0.0166008
635.372	0.0167422
635.450	0.0166418
635.529	0.0165163
635.607	0.0166295
635.685	0.0167149
635.763	0.0167046
635.841	0.0165733
635.919	0.0165778
635.997	0.0166946
636.075	0.0166782
636.154	0.0166306
636.232	0.0166212
636.310	0.0165203
636.388	0.0167780
636.466	0.0168015
636.544	0.0166174
636.622	0.0165290
636.700	0.0166409
636.779	0.0167072
636.857	0.0166900
636.935	0.0167572
637.013	0.0167017
637.091	0.0167184
637.169	0.0167469
637.247	0.0166859
637.325	0.0166597
637.404	0.0165990
637.482	0.0167402
637.560	0.0167071
637.638	0.0164845
637.716	0.0166859
637.794	0.0168092
637.872	0.0167231
637.950	0.0165822
638.029	0.0165985
638.107	0.0166015
638.185	0.0166618
638.263	0.0166419
638.341	0.0167657
638.419	0.0167039
638.497	0.0166666
638.575	0.0166501
638.654	0.0166936
638.732	0.0167128
638.810	0.0166088
638.888	0.0166827
638.966	0.0167257
639.044	0.0165992
639.122	0.0165437
639.200	0.0166827
639.279	0.0166425
639.357	0.0166663
639.435	0.0165768
639.513	0.0165788
639.591	0.0166798
639.669	0.0167754
639.747	0.0166281
639.825	0.0166147
639.904	0.0166533
639.982	0.0167281
640.060	0.0167323
640.138	0.0166087
640.216	0.0166370
640.294	0.0166781
640.372	0.0165987
640.450	0.0165919
640.529	0.0166618
640.607	0.0166034
640.685	0.0166738
640.763	0.0166241
640.841	0.0165402
640.919	0.0166457
640.997	0.0167611
641.075	0.0165842
641.154	0.0165975
641.232	0.0166613
641.310	0.0164834
641.388	0.0167097
641.466	0.0166286
641.544	0.0165829
641.622	0.0166377
641.700	0.0166123
641.779	0.0167073
641.857	0.0166485
641.935	0.0166131
642.013	0.0167766
642.091	0.0166800
642.169	0.0167506
642.247	0.0166777
642.325	0.0167017
642.404	0.0167199
642.482	0.0166229
642.560	0.0165894
642.638	0.0165554
642.716	0.0167448
642.794	0.0167048
642.872	0.0165531
642.950	0.0166406
643.029	0.0166609
643.107	0.0166483
643.185	0.0165504
643.263	0.0166534
643.341	0.0166570
643.419	0.0165735
643.497	0.0166949
643.575	0.0166945
643.654	0.0166352
643.732	0.0166459
643.810	0.0166709
643.888	0.0166911
643.966	0.0167664
644.044	0.0166534
644.122	0.0167056
644.200	0.0166352
644.279	0.0165576
644.357	0.0165347
644.435	0.0167381
644.513	0.0166981
644.591	0.0167967
644.669	0.0166573
644.747	0.0165842
644.825	0.0165202
644.904	0.0166010
644.982	0.0167300
645.060	0.0166994
645.138	0.0166788
645.216	0.0167122
645.294	0.0166821
645.372	0.0166138
645.450	0.0166663
645.529	0.0166351
645.607	0.0165646
645.685	0.0167143
645.763	0.0167777
645.841	0.0167215
645.919	0.0166193
645.997	0.0166383
646.075	0.0165952
646.154	0.0166199
646.232	0.0166949
646.310	0.0165794
646.388	0.0165497
646.466	0.0167193
646.544	0.0166853
646.622	0.0165746
646.700	0.0165501
646.779	0.0167271
646.857	0.0166924
646.935	0.0167458
647.013	0.0165818
647.091	0.0166237
647.169	0.0166087
647.247	0.0167667
647.325	0.0167106
647.404	0.0166747
647.482	0.0165686
647.560	0.0166480
647.638	0.0168168
647.716	0.0165305
647.794	0.0167245
647.872	0.0165945
647.950	0.0166146
648.029	0.0166660
648.107	0.0166988
648.185	0.0167224
648.263	0.0166426
648.341	0.0167352
648.419	0.0166718
648.497	0.0166405
648.575	0.0167952
648.654	0.0166625
648.732	0.0166505
648.810	0.0166497
648.888	0.0167332
648.966	0.0166333
649.044	0.0166283
649.122	0.0167236
649.200	0.0167269
649.279	0.0166095
649.357	0.0167625
649.435	0.0167134
649.513	0.0166798
649.591	0.0165144
649.669	0.0167033
649.747	0.0166784
649.825	0.0166317
649.904	0.0167334
649.982	0.0166041
650.060	0.0166533
650.138	0.0167678
650.216	0.0166295
650.294	0.0166702
650.372	0.0166720
650.450	0.0167184
650.529	0.0166683
650.607	0.0166577
650.685	0.0167361
650.763	0.0166924
650.841	0.0166311
650.919	0.0166103
650.997	0.0167235
651.075	0.0166715
651.154	0.0167304
651.232	0.0167625
651.310	0.0167724
651.388	0.0166314
651.466	0.0167113
651.544	0.0165743
651.622	0.0166705
651.700	0.0166376
651.779	0.0166425
651.857	0.0166922
651.935	0.0166279
652.013	0.0166734
652.091	0.0167049
652.169	0.0167661
652.247	0.0166470
652.325	0.0166596
652.404	0.0167735
652.482	0.0166519
652.560	0.0167014
652.638	0.0166251
652.716	0.0166061
652.794	0.0165603
652.872	0.0165448
652.950	0.0167282
653.029	0.0166435
653.107	0.0165719
653.185	0.0166969
653.263	0.0166947
653.341	0.0167126
653.419	0.0165493
653.497	0.0165366
653.575	0.0166180
653.654	0.0168201
653.732	0.0166988
653.810	0.0165397
653.888	0.0166660
653.966	0.0167960
654.044	0.0166148
654.122	0.0165263
654.200	0.0165401
654.279	0.0166122
654.357	0.0167606
654.435	0.0166800
654.513	0.0166765
654.591	0.0166415
654.669	0.0166840
654.747	0.0165889
654.825	0.0165123
654.904	0.0165722
654.982	0.0166215
655.060	0.0166360
655.138	0.0165895
655.216	0.0166023
655.294	0.0166155
655.372	0.0165691
655.450	0.0166525
655.529	0.0166317
655.607	0.0166247
655.685	0.0166615
655.763	0.0167610
655.841	0.0166754
655.919	0.0165847
655.997	0.0163883
656.075	0.0167316
656.154	0.0167440
656.232	0.0165639
656.310	0.0166025
656.388	0.0165963
656.466	0.0165475
656.544	0.0166103
656.622	0.0165694
656.700	0.0165612
656.779	0.0165591
656.857	0.0165888
656.935	0.0165798
657.013	0.0166142
657.091	0.0167439
657.169	0.0165930
657.247	0.0165981
657.325	0.0166292
657.404	0.0166390
657.482	0.0167430
657.560	0.0166753
657.638	0.0165437
657.716	0.0165854
657.794	0.0167017
657.872	0.0166096
657.950	0.0166088
658.029	0.0166282
658.107	0.0167487
658.185	0.0165984
658.263	0.0165517
658.341	0.0165930
658.419	0.0168191
658.497	0.0165321
658.575	0.0165060
658.654	0.0165616
658.732	0.0166956
658.810	0.0166872
658.888	0.0166581
658.966	0.0165536
659.044	0.0165070
659.122	0.0165171
659.200	0.0166753
659.279	0.0166047
659.357	0.0166242
659.435	0.0166766
659.513	0.0166050
659.591	0.0165462
659.669	0.0165463
659.747	0.0167884
659.825	0.0166685
659.904	0.0165352
659.982	0.0167431
660.060	0.0167766
660.138	0.0165453
660.216	0.0166618
660.294	0.0166507
660.372	0.0165721
660.450	0.0165622
660.529	0.0166534
660.607	0.0165351
660.685	0.0165934
660.763	0.0166987
660.841	0.0166454
660.919	0.0166906
660.997	0.0164617
661.075	0.0165717
661.154	0.0167139
661.232	0.0167221
661.310	0.0166565
661.388	0.0165173
661.466	0.0165935
661.544	0.0165862
661.622	0.0167390
661.700	0.0166470
661.779	0.0165867
661.857	0.0167215
661.935	0.0167190
662.013	0.0167259
662.091	0.0167342
662.169	0.0165332
662.247	0.0167088
662.325	0.0165755
662.404	0.0166577
662.482	0.0168707
662.560	0.0167507
662.638	0.0166780
662.716	0.0166452
662.794	0.0166513
662.872	0.0167609
662.950	0.0167417
663.029	0.0166617
663.107	0.0165993
663.185	0.0167321
663.263	0.0167616
663.341	0.0167107
663.419	0.0166908
663.497	0.0166886
663.575	0.0167815
663.654	0.0165814
663.732	0.0167361
663.810	0.0166183
663.888	0.0166052
663.966	0.0168221
664.044	0.0167616
664.122	0.0166849
664.200	0.0166972
664.279	0.0167326
664.357	0.0168130
664.435	0.0168167
664.513	0.0167064
664.591	0.0167284
664.669	0.0167760
664.747	0.0167596
664.825	0.0168140
664.904	0.0166668
664.982	0.0166489
665.060	0.0166845
665.138	0.0168016
665.216	0.0166139
665.294	0.0167106
665.372	0.0168023
665.450	0.0167673
665.529	0.0167172
665.607	0.0166941
665.685	0.0167917
665.763	0.0168167
665.841	0.0168025
665.919	0.0167141
665.997	0.0166381
666.075	0.0168277
666.154	0.0168849
666.232	0.0166862
666.310	0.0167871
666.388	0.0168285
666.466	0.0167335
666.544	0.0166867
666.622	0.0167155
666.700	0.0167522
666.779	0.0166961
666.857	0.0168266
666.935	0.0167464
667.013	0.0166828
667.091	0.0166142
667.169	0.0166461
667.247	0.0168207
667.325	0.0167716
667.404	0.0166873
667.482	0.0166368
667.560	0.0167918
667.638	0.0167305
667.716	0.0166579
667.794	0.0167455
667.872	0.0168125
667.950	0.0166627
668.029	0.0167242
668.107	0.0166845
668.185	0.0166752
668.263	0.0167044
668.341	0.0167371
668.419	0.0167099
668.497	0.0166509
668.575	0.0167406
668.654	0.0168016
668.732	0.0168176
668.810	0.0166312
668.888	0.0166763
668.966	0.0166981
669.044	0.0166742
669.122	0.0166875
669.200	0.0165998
669.279	0.0167642
669.357	0.0167971
669.435	0.0166619
669.513	0.0165660
669.591	0.0166553
669.669	0.0166243
669.747	0.0167362
669.825	0.0165542
669.904	0.0166367
669.982	0.0166222
670.060	0.0166958
670.138	0.0166972
670.216	0.0166895
670.294	0.0166936
670.372	0.0165361
670.450	0.0167448
670.529	0.0166914
670.607	0.0166290
670.685	0.0166991
670.763	0.0165482
670.841	0.0167618
670.919	0.0165573
670.997	0.0164875
671.075	0.0164075
671.154	0.0165517
671.232	0.0165771
671.310	0.0166901
671.388	0.0165723
671.466	0.0165629
671.544	0.0165206
671.622	0.0163851
671.700	0.0165836
671.779	0.0165148
671.857	0.0166362
671.935	0.0166398
672.013	0.0165072
672.091	0.0165205
672.169	0.0164780
672.247	0.0165324
672.325	0.0165553
672.404	0.0166873
672.482	0.0165521
672.560	0.0164965
672.638	0.0164871
672.716	0.0165063
672.794	0.0166766
672.872	0.0165527
672.950	0.0165670
673.029	0.0167055
673.107	0.0165684
673.185	0.0165897
673.263	0.0163763
673.341	0.0167571
673.419	0.0166537
673.497	0.0164463
673.575	0.0164529
673.654	0.0164670
673.732	0.0165594
673.810	0.0164530
673.888	0.0164709
673.966	0.0164586
674.044	0.0164938
674.122	0.0165617
674.200	0.0164509
674.279	0.0165379
674.357	0.0166497
674.435	0.0165721
674.513	0.0165792
674.591	0.0167176
674.669	0.0166162
674.747	0.0166266
674.825	0.0166751
674.904	0.0165776
674.982	0.0165485
675.060	0.0167538
675.138	0.0166363
675.216	0.0166221
675.294	0.0165893
675.372	0.0166017
675.450	0.0167029
675.529	0.0165448
675.607	0.0165282
675.685	0.0165312
675.763	0.0163917
675.841	0.0166630
675.919	0.0165613
675.997	0.0165444
676.075	0.0165701
676.154	0.0166198
676.232	0.0166937
676.310	0.0165668
676.388	0.0165823
676.466	0.0165508
676.544	0.0166769
676.622	0.0166405
676.700	0.0166634
676.779	0.0165519
676.857	0.0165776
676.935	0.0165266
677.013	0.0167729
677.091	0.0165485
677.169	0.0166843
677.247	0.0166632
677.325	0.0165575
677.404	0.0164649
677.482	0.0165628
677.560	0.0167020
677.638	0.0166514
677.716	0.0166207
677.794	0.0166534
677.872	0.0166890
677.950	0.0166300
678.029	0.0166945
678.107	0.0166136
678.185	0.0166507
678.263	0.0166860
678.341	0.0167220
678.419	0.0165782
678.497	0.0167423
678.575	0.0167039
678.654	0.0166810
678.732	0.0166727
678.810	0.0167750
678.888	0.0167166
678.966	0.0166161
679.044	0.0165611
679.122	0.0167457
679.200	0.0165028
679.279	0.0167782
679.357	0.0167934
679.435	0.0165523
679.513	0.0165902
679.591	0.0166055
679.669	0.0165805
679.747	0.0167098
679.825	0.0165758
679.904	0.0165931
679.982	0.0167784
680.060	0.0167843
680.138	0.0166283
680.216	0.0167760
680.294	0.0167574
680.372	0.0166117
680.450	0.0167224
680.529	0.0166907
680.607	0.0165905
680.685	0.0165244
680.763	0.0165826
680.841	0.0166196
680.919	0.0166660
680.997	0.0164646
681.075	0.0165073
681.154	0.0165929
681.232	0.0165138
681.310	0.0166246
681.388	0.0166602
681.466	0.0166651
681.544	0.0166132
681.622	0.0166107
681.700	0.0166375
681.779	0.0167350
681.857	0.0166645
681.935	0.0166732
682.013	0.0167477
682.091	0.0168209
682.169	0.0170112
682.247	0.0168526
682.325	0.0171438
682.404	0.0171913
682.482	0.0174181
682.560	0.0174095
682.638	0.0174898
682.716	0.0173249
682.794	0.0171015
682.872	0.0168751
682.950	0.0163271
683.029	0.0158162
683.107	0.0154754
683.185	0.0149578
683.263	0.0145753
683.341	0.0141151
683.419	0.0140945
683.497	0.0141407
683.575	0.0145508
683.654	0.0148962
683.732	0.0156728
683.810	0.0165884
683.888	0.0176538
683.966	0.0185923
684.044	0.0194511
684.122	0.0203974
684.200	0.0208719
684.279	0.0214868
684.357	0.0216172
684.435	0.0216026
684.513	0.0212878
684.591	0.0207745
684.669	0.0201688
684.747	0.0191034
684.825	0.0180719
684.904	0.0168748
684.982	0.0154330
685.060	0.0140923
685.138	0.0125539
685.216	0.0111210
685.294	0.00970322
685.372	0.00867485
685.450	0.00793434
685.529	0.00747002
685.607	0.00737236
685.685	0.00779503
685.763	0.00871277
685.841	0.0102427
685.919	0.0120869
685.997	0.0144773
686.075	0.0172385
686.154	0.0202302
686.232	0.0230096
686.310	0.0255079
686.388	0.0277309
686.466	0.0294171
686.544	0.0305891
686.622	0.0309586
686.700	0.0305333
686.779	0.0295810
686.857	0.0278703
686.935	0.0256212
687.013	0.0230820
687.091	0.0197655
687.169	0.0166633
687.247	0.0134973
687.325	0.0104106
687.404	0.00762482
687.482	0.00550003
687.560	0.00353081
687.638	0.00243378
687.716	0.00177643
687.794	0.00188896
687.872	0.00260017
687.950	0.00355515
688.029	0.00519073
688.107	0.00729492
688.185	0.00942345
688.263	0.0118584
688.341	0.0143873
688.419	0.0169930
688.497	0.0196802
688.575	0.0221954
688.654	0.0242018
688.732	0.0260595
688.810	0.0276643
688.888	0.0289069
688.966	0.0295063
689.044	0.0298029
689.122	0.0295644
689.200	0.0290028
689.279	0.0278876
689.357	0.0264162
689.435	0.0246093
689.513	0.0226659
689.591	0.0205093
689.669	0.0184462
689.747	0.0164326
689.825	0.0143709
689.904	0.0125471
689.982	0.0110908
690.060	0.00977303
690.138	0.00891609
690.216	0.00846680
690.294	0.00804550
690.372	0.00792168
690.450	0.00805779
690.529	0.00871124
690.607	0.00928627
690.685	0.0100048
690.763	0.0107282
690.841	0.0116493
690.919	0.0126260
690.997	0.0136155
691.075	0.0145455
691.154	0.0152233
691.232	0.0161219
691.310	0.0168008
691.388	0.0175645
691.466	0.0180627
691.544	0.0186459
691.622	0.0191734
691.700	0.0193624
691.779	0.0198846
691.857	0.0201730
691.935	0.0202305
692.013	0.0204166
692.091	0.0205396
692.169	0.0206767
692.247	0.0206108
692.325	0.0205491
692.404	0.0205345
692.482	0.0203253
692.560	0.0203149
692.638	0.0201888
692.716	0.0200626
692.794	0.0198703
692.872	0.0195515
692.950	0.0192670
693.029	0.0187192
693.107	0.0183183
693.185	0.0177807
693.263	0.0173310
693.341	0.0166737
693.419	0.0159399
693.497	0.0153436
693.575	0.0151639
693.654	0.0145367
693.732	0.0141563
693.810	0.0139297
693.888	0.0138217
693.966	0.0136762
694.044	0.0137463
694.122	0.0139979
694.200	0.0141505
694.279	0.0141660
694.357	0.0144639
694.435	0.0146164
694.513	0.0148013
694.591	0.0149506
694.669	0.0149799
694.747	0.0149949
694.825	0.0152711
694.904	0.0153318
694.982	0.0151646
695.060	0.0151857
695.138	0.0151853
695.216	0.0151201
695.294	0.0151656
695.372	0.0151563
695.450	0.0152907
695.529	0.0153996
695.607	0.0155177
695.685	0.0157463
695.763	0.0159924
695.841	0.0162970
695.919	0.0168781
695.997	0.0171458
696.075	0.0175792
696.154	0.0180177
696.232	0.0184756
696.310	0.0187646
696.388	0.0194421
696.466	0.0195181
696.544	0.0198950
696.622	0.0203786
696.700	0.0205559
696.779	0.0207849
696.857	0.0209797
696.935	0.0209764
697.013	0.0210789
697.091	0.0207751
697.169	0.0206947
697.247	0.0203634
697.325	0.0198921
697.404	0.0192865
697.482	0.0186634
697.560	0.0180469
697.638	0.0173627
697.716	0.0164619
697.794	0.0158385
697.872	0.0152882
697.950	0.0146020
698.029	0.0140239
698.107	0.0136257
698.185	0.0132117
698.263	0.0129036
698.341	0.0126559
698.419	0.0127987
698.497	0.0128073
698.575	0.0128905
698.654	0.0129957
698.732	0.0134512
698.810	0.0137214
698.888	0.0139620
698.966	0.0143917
699.044	0.0146417
699.122	0.0148917
699.200	0.0151276
699.279	0.0153876
699.357	0.0156236
699.435	0.0157666
699.513	0.0158671
699.591	0.0159663
699.669	0.0159406
699.747	0.0159591
699.825	0.0159373
699.904	0.0160609
699.982	0.0160455
700.060	0.0162403
700.138	0.0161378
700.216	0.0163522
700.294	0.0165322
700.372	0.0167779
700.450	0.0169269
700.529	0.0172371
700.607	0.0175139
700.685	0.0177127
700.763	0.0178977
700.841	0.0182501
700.919	0.0184138
700.997	0.0186285
701.075	0.0189201
701.154	0.0192077
701.232	0.0194398
701.310	0.0195591
701.388	0.0198763
701.466	0.0199006
701.544	0.0200338
701.622	0.0200677
701.700	0.0200603
701.779	0.0199292
701.857	0.0195318
701.935	0.0192635
702.013	0.0189236
702.091	0.0184721
702.169	0.0179503
702.247	0.0173627
702.325	0.0168216
702.404	0.0162463
702.482	0.0158761
702.560	0.0152732
702.638	0.0148325
702.716	0.0145206
702.794	0.0145135
702.872	0.0142178
702.950	0.0143341
703.029	0.0142617
703.107	0.0144176
703.185	0.0144620
703.263	0.0146660
703.341	0.0150887
703.419	0.0149953
703.497	0.0151791
703.575	0.0154681
703.654	0.0153764
703.732	0.0155347
703.810	0.0154921
703.888	0.0156070
703.966	0.0153476
704.044	0.0155129
704.122	0.0153991
704.200	0.0154291
704.279	0.0152990
704.357	0.0152903
704.435	0.0153472
704.513	0.0156464
704.591	0.0155836
704.669	0.0156675
704.747	0.0157269
704.825	0.0159439
704.904	0.0162467
704.982	0.0164005
705.060	0.0167011
705.138	0.0167062
705.216	0.0168008
705.294	0.0171457
705.372	0.0172901
705.450	0.0174579
705.529	0.0175867
705.607	0.0175561
705.685	0.0179020
705.763	0.0179681
705.841	0.0178081
705.919	0.0180478
705.997	0.0181862
706.075	0.0182135
706.154	0.0183492
706.232	0.0184404
706.310	0.0186005
706.388	0.0187042
706.466	0.0187701
706.544	0.0188499
706.622	0.0188345
706.700	0.0187402
706.779	0.0187974
706.857	0.0186993
706.935	0.0188462
707.013	0.0185077
707.091	0.0180976
707.169	0.0181333
707.247	0.0179687
707.325	0.0175258
707.404	0.0173079
707.482	0.0170448
707.560	0.0165929
707.638	0.0162364
707.716	0.0158924
707.794	0.0155881
707.872	0.0153531
707.950	0.0150629
708.029	0.0148618
708.107	0.0148084
708.185	0.0147545
708.263	0.0146638
708.341	0.0147186
708.419	0.0149662
708.497	0.0148457
708.575	0.0148226
708.654	0.0149516
708.732	0.0150184
708.810	0.0151516
708.888	0.0150787
708.966	0.0151551
709.044	0.0152439
709.122	0.0151703
709.200	0.0150758
709.279	0.0153419
709.357	0.0153603
709.435	0.0154452
709.513	0.0157146
709.591	0.0158353
709.669	0.0159575
709.747	0.0161489
709.825	0.0162488
709.904	0.0164773
709.982	0.0166071
710.060	0.0167508
710.138	0.0165882
710.216	0.0167037
710.294	0.0166937
710.372	0.0166221
710.450	0.0164781
710.529	0.0163696
710.607	0.0162153
710.685	0.0161273
710.763	0.0162389
710.841	0.0162772
710.919	0.0162349
710.997	0.0162560
711.075	0.0165756
711.154	0.0166136
711.232	0.0169361
711.310	0.0170492
711.388	0.0175831
711.466	0.0179669
711.544	0.0180931
711.622	0.0185815
711.700	0.0188750
711.779	0.0191362
711.857	0.0193368
711.935	0.0195682
712.013	0.0197367
712.091	0.0197444
712.169	0.0197156
712.247	0.0194006
712.325	0.0192723
712.404	0.0189931
712.482	0.0185844
712.560	0.0183765
712.638	0.0179675
712.716	0.0174736
712.794	0.0169487
712.872	0.0166475
712.950	0.0160777
713.029	0.0156908
713.107	0.0154189
713.185	0.0151608
713.263	0.0148756
713.341	0.0146173
713.419	0.0144117
713.497	0.0144736
713.575	0.0144066
713.654	0.0144430
713.732	0.0144965
713.810	0.0147769
713.888	0.0147790
713.966	0.0148865
714.044	0.0149897
714.122	0.0150799
714.200	0.0152628
714.279	0.0152302
714.357	0.0155219
714.435	0.0154925
714.513	0.0156963
714.591	0.0157859
714.669	0.0158492
714.747	0.0158449
714.825	0.0160574
714.904	0.0163892
714.982	0.0162051
715.060	0.0162505
715.138	0.0161933
715.216	0.0162150
715.294	0.0164655
715.372	0.0164281
715.450	0.0163025
715.529	0.0163853
715.607	0.0164754
715.685	0.0163978
715.763	0.0165402
715.841	0.0166533
715.919	0.0166739
715.997	0.0168919
716.075	0.0169845
716.154	0.0171864
716.232	0.0172807
716.310	0.0173560
716.388	0.0175842
716.466	0.0177748
716.544	0.0178402
716.622	0.0177466
716.700	0.0177898
716.779	0.0179623
716.857	0.0179921
716.935	0.0180165
717.013	0.0179491
717.091	0.0177077
717.169	0.0178843
717.247	0.0179245
717.325	0.0178469
717.404	0.0179071
717.482	0.0177727
717.560	0.0177228
717.638	0.0177480
717.716	0.0178168
717.794	0.0176962
717.872	0.0174955
717.950	0.0174102
718.029	0.0174094
718.107	0.0171461
718.185	0.0170782
718.263	0.0169453
718.341	0.0166639
718.419	0.0163660
718.497	0.0161156
718.575	0.0159663
718.654	0.0157676
718.732	0.0156157
718.810	0.0154298
718.888	0.0154588
718.966	0.0154723
719.044	0.0155819
719.122	0.0156953
719.200	0.0158474
719.279	0.0160182
719.357	0.0162332
719.435	0.0161276
719.513	0.0163792
719.591	0.0164091
719.669	0.0164680
719.747	0.0166491
719.825	0.0166579
719.904	0.0165481
719.982	0.0163562
720.060	0.0164082
720.138	0.0162864
720.216	0.0160629
720.294	0.0159268
720.372	0.0158068
720.450	0.0157162
720.529	0.0156219
720.607	0.0155225
720.685	0.0154070
720.763	0.0154101
720.841	0.0153551
720.919	0.0155672
720.997	0.0156013
721.075	0.0157352
721.154	0.0158553
721.232	0.0158930
721.310	0.0161536
721.388	0.0163597
721.466	0.0164950
721.544	0.0166319
721.622	0.0167786
721.700	0.0169283
721.779	0.0172289
721.857	0.0173073
721.935	0.0172459
722.013	0.0174616
722.091	0.0176063
722.169	0.0175227
722.247	0.0175544
722.325	0.0175772
722.404	0.0174018
722.482	0.0175299
722.560	0.0175375
722.638	0.0173037
722.716	0.0172208
722.794	0.0171699
722.872	0.0172313
722.950	0.0172922
723.029	0.0171394
723.107	0.0170245
723.185	0.0171839
723.263	0.0171783
723.341	0.0170512
723.419	0.0170068
723.497	0.0172864
723.575	0.0170808
723.654	0.0170925
723.732	0.0168952
723.810	0.0170496
723.888	0.0171697
723.966	0.0169693
724.044	0.0169189
724.122	0.0168701
724.200	0.0168826
724.279	0.0167492
724.357	0.0166257
724.435	0.0166912
724.513	0.0167458
724.591	0.0165597
724.669	0.0166509
724.747	0.0168148
724.825	0.0166807
724.904	0.0167770
724.982	0.0169418
725.060	0.0170213
725.138	0.0169814
725.216	0.0169840
725.294	0.0170064
725.372	0.0169800
725.450	0.0168552
725.529	0.0167012
725.607	0.0166180
725.685	0.0163735
725.763	0.0161217
725.841	0.0159914
725.919	0.0156328
725.997	0.0153943
726.075	0.0151891
726.154	0.0150431
726.232	0.0149471
726.310	0.0148401
726.388	0.0147681
726.466	0.0148635
726.544	0.0148254
726.622	0.0149315
726.700	0.0151009
726.779	0.0153136
726.857	0.0157778
726.935	0.0158964
727.013	0.0161884
727.091	0.0165219
727.169	0.0166305
727.247	0.0169246
727.325	0.0172301
727.404	0.0174208
727.482	0.0174396
727.560	0.0174805
727.638	0.0176735
727.716	0.0176685
727.794	0.0176007
727.872	0.0175154
727.950	0.0174882
728.029	0.0175343
728.107	0.0175590
728.185	0.0175783
728.263	0.0175601
728.341	0.0173392
728.419	0.0173179
728.497	0.0174086
728.575	0.0172985
728.654	0.0171733
728.732	0.0171258
728.810	0.0169696
728.888	0.0169271
728.966	0.0167834
729.044	0.0164909
729.122	0.0166193
729.200	0.0164646
729.279	0.0164153
729.357	0.0162786
729.435	0.0161991
729.513	0.0162325
729.591	0.0162301
729.669	0.0163761
729.747	0.0162630
729.825	0.0163360
729.904	0.0166692
729.982	0.0165280
730.060	0.0168875
730.138	0.0168986
730.216	0.0169611
730.294	0.0170880
730.372	0.0170882
730.450	0.0171907
730.529	0.0171526
730.607	0.0171897
730.685	0.0173034
730.763	0.0172219
730.841	0.0171882
730.919	0.0172200
730.997	0.0171855
731.075	0.0171523
731.154	0.0171146
731.232	0.0169011
731.310	0.0169144
731.388	0.0169178
731.466	0.0168179
731.544	0.0166271
731.622	0.0166657
731.700	0.0165747
731.779	0.0166677
731.857	0.0165835
731.935	0.0163821
732.013	0.0162992
732.091	0.0162411
732.169	0.0163619
732.247	0.0162331
732.325	0.0159585
732.404	0.0160215
732.482	0.0158143
732.560	0.0158876
732.638	0.0158820
732.716	0.0157581
732.794	0.0158535
732.872	0.0158862
732.950	0.0158702
733.029	0.0159636
733.107	0.0161646
733.185	0.0160927
733.263	0.0162569
733.341	0.0163667
733.419	0.0164756
733.497	0.0163651
733.575	0.0165740
733.654	0.0165415
733.732	0.0166053
733.810	0.0167370
733.888	0.0166922
733.966	0.0166680
734.044	0.0167143
734.122	0.0166019
734.200	0.0165372
734.279	0.0165871
734.357	0.0165697
734.435	0.0165351
734.513	0.0165898
734.591	0.0164965
734.669	0.0164434
734.747	0.0165652
734.825	0.0164514
734.904	0.0164535
734.982	0.0165900
735.060	0.0165113
735.138	0.0164529
735.216	0.0166872
735.294	0.0166022
735.372	0.0166444
735.450	0.0169502
735.529	0.0169432
735.607	0.0170347
735.685	0.0171928
735.763	0.0173578
735.841	0.0173654
735.919	0.0175142
735.997	0.0176839
736.075	0.0176367
736.154	0.0176241
736.232	0.0175956
736.310	0.0175047
736.388	0.0175607
736.466	0.0174759
736.544	0.0172098
736.622	0.0170412
736.700	0.0169595
736.779	0.0167029
736.857	0.0166838
736.935	0.0167123
737.013	0.0164860
737.091	0.0166117
737.169	0.0165651
737.247	0.0163840
737.325	0.0164785
737.404	0.0166050
737.482	0.0165345
737.560	0.0164722
737.638	0.0167626
737.716	0.0166151
737.794	0.0166074
737.872	0.0167713
737.950	0.0167247
738.029	0.0166177
738.107	0.0167137
738.185	0.0166460
738.263	0.0165717
738.341	0.0164753
738.419	0.0164187
738.497	0.0163895
738.575	0.0163921
738.654	0.0163287
738.732	0.0161842
738.810	0.0163039
738.888	0.0163436
738.966	0.0162460
739.044	0.0162889
739.122	0.0160970
739.200	0.0160509
739.279	0.0161572
739.357	0.0161057
739.435	0.0160424
739.513	0.0159057
739.591	0.0159738
739.669	0.0159772
739.747	0.0158693
739.825	0.0158620
739.904	0.0159092
739.982	0.0160728
740.060	0.0161018
740.138	0.0161459
740.216	0.0161409
740.294	0.0161964
740.372	0.0163031
740.450	0.0163112
740.529	0.0164104
740.607	0.0164113
740.685	0.0165546
740.763	0.0165462
740.841	0.0164976
740.919	0.0165675
740.997	0.0166956
741.075	0.0166789
741.154	0.0168745
741.232	0.0170044
741.310	0.0171143
741.388	0.0172878
741.466	0.0172301
741.544	0.0173798
741.622	0.0173820
741.700	0.0175165
741.779	0.0175294
741.857	0.0175555
741.935	0.0175554
742.013	0.0174636
742.091	0.0176197
742.169	0.0175507
742.247	0.0173586
742.325	0.0173942
742.404	0.0171360
742.482	0.0171099
742.560	0.0172530
742.638	0.0170866
742.716	0.0168111
742.794	0.0167962
742.872	0.0167918
742.950	0.0165889
743.029	0.0164782
743.107	0.0163708
743.185	0.0163860
743.263	0.0163420
743.341	0.0161813
743.419	0.0161143
743.497	0.0161385
743.575	0.0161629
743.654	0.0161170
743.732	0.0161805
743.810	0.0161163
743.888	0.0162829
743.966	0.0163229
744.044	0.0163454
744.122	0.0164485
744.200	0.0166879
744.279	0.0166005
744.357	0.0168514
744.435	0.0168935
744.513	0.0168938
744.591	0.0170303
744.669	0.0169828
744.747	0.0170638
744.825	0.0172202
744.904	0.0172411
744.982	0.0172293
745.060	0.0171210
745.138	0.0172824
745.216	0.0170887
745.294	0.0170317
745.372	0.0171549
745.450	0.0169745
745.529	0.0169368
745.607	0.0167147
745.685	0.0165490
745.763	0.0165983
745.841	0.0164243
745.919	0.0164270
745.997	0.0162207
746.075	0.0161662
746.154	0.0160819
746.232	0.0160065
746.310	0.0160281
746.388	0.0161018
746.466	0.0161761
746.544	0.0160848
746.622	0.0161583
746.700	0.0161580
746.779	0.0161089
746.857	0.0162480
746.935	0.0162858
747.013	0.0162784
747.091	0.0163930
747.169	0.0163979
747.247	0.0163831
747.325	0.0164275
747.404	0.0164627
747.482	0.0164446
747.560	0.0163652
747.638	0.0166411
747.716	0.0165764
747.794	0.0166556
747.872	0.0167746
747.950	0.0166407
748.029	0.0167327
748.107	0.0169196
748.185	0.0167977
748.263	0.0168659
748.341	0.0169086
748.419	0.0169498
748.497	0.0169846
748.575	0.0169728
748.654	0.0168410
748.732	0.0168684
748.810	0.0169202
748.888	0.0169225
748.966	0.0167677
749.044	0.0168164
749.122	0.0168172
749.200	0.0167464
749.279	0.0166886
749.357	0.0167083
749.435	0.0167713
749.513	0.0166797
749.591	0.0167537
749.669	0.0167605
749.747	0.0169571
749.825	0.0168656
749.904	0.0168666
749.982	0.0168986
750.060	0.0168166
750.138	0.0167455
750.216	0.0169324
750.294	0.0169210
750.372	0.0170840
750.450	0.0168636
750.529	0.0169592
750.607	0.0168903
750.685	0.0168049
750.763	0.0168237
750.841	0.0167199
750.919	0.0166445
750.997	0.0165125
751.075	0.0165113
751.154	0.0163989
751.232	0.0164639
751.310	0.0164027
751.388	0.0164468
751.466	0.0165009
751.544	0.0163526
751.622	0.0165314
751.700	0.0164783
751.779	0.0163757
751.857	0.0165684
751.935	0.0165078
752.013	0.0165585
752.091	0.0167697
752.169	0.0167678
752.247	0.0167694
752.325	0.0167289
752.404	0.0168584
752.482	0.0168496
752.560	0.0168740
752.638	0.0167920
752.716	0.0167747
752.794	0.0167770
752.872	0.0167878
752.950	0.0167363
753.029	0.0165260
753.107	0.0167069
753.185	0.0166579
753.263	0.0164781
753.341	0.0165507
753.419	0.0166295
753.497	0.0164223
753.575	0.0163773
753.654	0.0164088
753.732	0.0163374
753.810	0.0163833
753.888	0.0163721
753.966	0.0164096
754.044	0.0164261
754.122	0.0162547
754.200	0.0162892
754.279	0.0163342
754.357	0.0163346
754.435	0.0163977
754.513	0.0164395
754.591	0.0164306
754.669	0.0164632
754.747	0.0165359
754.825	0.0163843
754.904	0.0165252
754.982	0.0166944
755.060	0.0167236
755.138	0.0168012
755.216	0.0169030
755.294	0.0168672
755.372	0.0170783
755.450	0.0170584
755.529	0.0169269
755.607	0.0170850
755.685	0.0170674
755.763	0.0170995
755.841	0.0170145
755.919	0.0170613
755.997	0.0169382
756.075	0.0169555
756.154	0.0170598
756.232	0.0170122
756.310	0.0169958
756.388	0.0167681
756.466	0.0166596
756.544	0.0167390
756.622	0.0167464
756.700	0.0166318
756.779	0.0165776
756.857	0.0165520
756.935	0.0164651
757.013	0.0165063
757.091	0.0165164
757.169	0.0164346
757.247	0.0166016
757.325	0.0165788
757.404	0.0166997
757.482	0.0166765
757.560	0.0167145
757.638	0.0167313
757.716	0.0166988
757.794	0.0167332
757.872	0.0168981
757.950	0.0169614
758.029	0.0167942
758.107	0.0167897
758.185	0.0170159
758.263	0.0166700
758.341	0.0167097
758.419	0.0168365
758.497	0.0168468
758.575	0.0167029
758.654	0.0168427
758.732	0.0168694
758.810	0.0166603
758.888	0.0167484
758.966	0.0166066
759.044	0.0167137
759.122	0.0168195
759.200	0.0166747
759.279	0.0166998
759.357	0.0166675
759.435	0.0167794
759.513	0.0168531
759.591	0.0166658
759.669	0.0166910
759.747	0.0167586
759.825	0.0166437
759.904	0.0166103
759.982	0.0165878
760.060	0.0165076
760.138	0.0165329
760.216	0.0166182
760.294	0.0165233
760.372	0.0165053
760.450	0.0164385
760.529	0.0164208
760.607	0.0163567
760.685	0.0162339
760.763	0.0162998
760.841	0.0162549
760.919	0.0163207
760.997	0.0162595
761.075	0.0161933
761.154	0.0162561
761.232	0.0162685
761.310	0.0161623
761.388	0.0161277
761.466	0.0162192
761.544	0.0162546
761.622	0.0161103
761.700	0.0161478
761.779	0.0162335
761.857	0.0164106
761.935	0.0163863
762.013	0.0163564
762.091	0.0165502
762.169	0.0165900
762.247	0.0166084
762.325	0.0165952
762.404	0.0167757
762.482	0.0168175
762.560	0.0168867
762.638	0.0168814
762.716	0.0169930
762.794	0.0170717
762.872	0.0170161
762.950	0.0169627
763.029	0.0169785
763.107	0.0171140
763.185	0.0171962
763.263	0.0171069
763.341	0.0170385
763.419	0.0170399
763.497	0.0171235
763.575	0.0169205
763.654	0.0169369
763.732	0.0169644
763.810	0.0167375
763.888	0.0168417
763.966	0.0167236
764.044	0.0169395
764.122	0.0168237
764.200	0.0168573
764.279	0.0169592
764.357	0.0167794
764.435	0.0168071
764.513	0.0167271
764.591	0.0168758
764.669	0.0167800
764.747	0.0167295
764.825	0.0167342
764.904	0.0167376
764.982	0.0167229
765.060	0.0166894
765.138	0.0166777
765.216	0.0166223
765.294	0.0167324
765.372	0.0166678
765.450	0.0167809
765.529	0.0166164
765.607	0.0167528
765.685	0.0166764
765.763	0.0166679
765.841	0.0167879
765.919	0.0167989
765.997	0.0168341
766.075	0.0166642
766.154	0.0167343
766.232	0.0168853
766.310	0.0168353
766.388	0.0167004
766.466	0.0167577
766.544	0.0168226
766.622	0.0167181
766.700	0.0168045
766.779	0.0167505
766.857	0.0167159
766.935	0.0166872
767.013	0.0167925
767.091	0.0166778
767.169	0.0165505
767.247	0.0166103
767.325	0.0165258
767.404	0.0165653
767.482	0.0164369
767.560	0.0164688
767.638	0.0164562
767.716	0.0164757
767.794	0.0163284
767.872	0.0163767
767.950	0.0162839
768.029	0.0164053
768.107	0.0163822
768.185	0.0163551
768.263	0.0164226
768.341	0.0164121
768.419	0.0164048
768.497	0.0165128
768.575	0.0162524
768.654	0.0162689
768.732	0.0164402
768.810	0.0163110
768.888	0.0163425
768.966	0.0163478
769.044	0.0165839
769.122	0.0166761
769.200	0.0164691
769.279	0.0163963
769.357	0.0164716
769.435	0.0166171
769.513	0.0166544
769.591	0.0167629
769.669	0.0167141
769.747	0.0167136
769.825	0.0170149
769.904	0.0169140
769.982	0.0169311
770.060	0.0168828
770.138	0.0169905
770.216	0.0169449
770.294	0.0169930
770.372	0.0169940
770.450	0.0167912
770.529	0.0169147
770.607	0.0168074
770.685	0.0168053
770.763	0.0167995
770.841	0.0168647
770.919	0.0166637
770.997	0.0166920
771.075	0.0168317
771.154	0.0165500
771.232	0.0166882
771.310	0.0166681
771.388	0.0168309
771.466	0.0167336
771.544	0.0167713
771.622	0.0166718
771.700	0.0167373
771.779	0.0165687
771.857	0.0165964
771.935	0.0167516
772.013	0.0167241
772.091	0.0166541
772.169	0.0167939
772.247	0.0168031
772.325	0.0169753
772.404	0.0165495
772.482	0.0168079
772.560	0.0166953
772.638	0.0166618
772.716	0.0166312
772.794	0.0166003
772.872	0.0165205
772.950	0.0166515
773.029	0.0165723
773.107	0.0165832
773.185	0.0165958
773.263	0.0164957
773.341	0.0166209
773.419	0.0165514
773.497	0.0165826
773.575	0.0167532
773.654	0.0166665
773.732	0.0166873
773.810	0.0167342
773.888	0.0166052
773.966	0.0167803
774.044	0.0168302
774.122	0.0167534
774.200	0.0167294
774.279	0.0167429
774.357	0.0167156
774.435	0.0166906
774.513	0.0167402
774.591	0.0167551
774.669	0.0166114
774.747	0.0167264
774.825	0.0166848
774.904	0.0166732
774.982	0.0165453
775.060	0.0166073
775.138	0.0165588
775.216	0.0164299
775.294	0.0165332
775.372	0.0166027
775.450	0.0163729
775.529	0.0165459
775.607	0.0165265
775.685	0.0164626
775.763	0.0166135
775.841	0.0165338
775.919	0.0164585
775.997	0.0165070
776.075	0.0164763
776.154	0.0166216
776.232	0.0164323
776.310	0.0165550
776.388	0.0164093
776.466	0.0163738
776.544	0.0164017
776.622	0.0164038
776.700	0.0164583
776.779	0.0163639
776.857	0.0163332
776.935	0.0164243
777.013	0.0164359
777.091	0.0165044
777.169	0.0165118
777.247	0.0164739
777.325	0.0166656
777.404	0.0167196
777.482	0.0165463
777.560	0.0166420
777.638	0.0167010
777.716	0.0167158
777.794	0.0167788
777.872	0.0168722
777.950	0.0169396
778.029	0.0169882
778.107	0.0170432
778.185	0.0170585
778.263	0.0171119
778.341	0.0170980
778.419	0.0170894
778.497	0.0170441
778.575	0.0170995
778.654	0.0171348
778.732	0.0172852
778.810	0.0172066
778.888	0.0170934
778.966	0.0170124
779.044	0.0170372
779.122	0.0170707
779.200	0.0169523
779.279	0.0169031
779.357	0.0168716
779.435	0.0167546
779.513	0.0167780
779.591	0.0166647
779.669	0.0166100
779.747	0.0167297
779.825	0.0166173
779.904	0.0165394
779.982	0.0166235
780.060	0.0166155
780.138	0.0166765
780.216	0.0167100
780.294	0.0168121
780.372	0.0168900
780.450	0.0168028
780.529	0.0168893
780.607	0.0168693
780.685	0.0169652
780.763	0.0169272
780.841	0.0168800
780.919	0.0169232
780.997	0.0168995
781.075	0.0168073
781.154	0.0165908
781.232	0.0165070
781.310	0.0164421
781.388	0.0164957
781.466	0.0162258
781.544	0.0162606
781.622	0.0161136
781.700	0.0160543
781.779	0.0159387
781.857	0.0159005
781.935	0.0160139
782.013	0.0160695
782.091	0.0160384
782.169	0.0160696
782.247	0.0163481
782.325	0.0163663
782.404	0.0165852
782.482	0.0167744
782.560	0.0169453
782.638	0.0171391
782.716	0.0172388
782.794	0.0173392
782.872	0.0173383
782.950	0.0174665
783.029	0.0172114
783.107	0.0172376
783.185	0.0170854
783.263	0.0169169
783.341	0.0166701
783.419	0.0165708
783.497	0.0164091
783.575	0.0162632
783.654	0.0159761
783.732	0.0158204
783.810	0.0156953
783.888	0.0156615
783.966	0.0156862
784.044	0.0157084
784.122	0.0157146
784.200	0.0159364
784.279	0.0159324
784.357	0.0161056
784.435	0.0161825
784.513	0.0162212
784.591	0.0165478
784.669	0.0167343
784.747	0.0167554
784.825	0.0169138
784.904	0.0169674
784.982	0.0171062
785.060	0.0171907
785.138	0.0173196
785.216	0.0173356
785.294	0.0174459
785.372	0.0175378
785.450	0.0174267
785.529	0.0175311
785.607	0.0175011
785.685	0.0174776
785.763	0.0173615
785.841	0.0174292
785.919	0.0172195
785.997	0.0171297
786.075	0.0169777
786.154	0.0170141
786.232	0.0170779
786.310	0.0168654
786.388	0.0168627
786.466	0.0168598
786.544	0.0167642
786.622	0.0167937
786.700	0.0168716
786.779	0.0169007
786.857	0.0168021
786.935	0.0167005
787.013	0.0166251
787.091	0.0165933
787.169	0.0164932
787.247	0.0165063
787.325	0.0165208
787.404	0.0164326
787.482	0.0163820
787.560	0.0162143
787.638	0.0162945
787.716	0.0162752
787.794	0.0162196
787.872	0.0163300
787.950	0.0161085
788.029	0.0163076
788.107	0.0163271
788.185	0.0163289
788.263	0.0163182
788.341	0.0163834
788.419	0.0164626
788.497	0.0166174
788.575	0.0166409
788.654	0.0168629
788.732	0.0169138
788.810	0.0168736
788.888	0.0170754
788.966	0.0171944
789.044	0.0170812
789.122	0.0171378
789.200	0.0172787
789.279	0.0172482
789.357	0.0172179
789.435	0.0170260
789.513	0.0169873
789.591	0.0171163
789.669	0.0170917
789.747	0.0168262
789.825	0.0168261
789.904	0.0166740
789.982	0.0166271
790.060	0.0164565
790.138	0.0164185
790.216	0.0163842
790.294	0.0162269
790.372	0.0161692
790.450	0.0160708
790.529	0.0160715
790.607	0.0159779
790.685	0.0159218
790.763	0.0159361
790.841	0.0160636
790.919	0.0159750
790.997	0.0159803
791.075	0.0159792
791.154	0.0160046
791.232	0.0160672
791.310	0.0160914
791.388	0.0160072
791.466	0.0161348
791.544	0.0161977
791.622	0.0163583
791.700	0.0165044
791.779	0.0165349
791.857	0.0166821
791.935	0.0166771
792.013	0.0167495
792.091	0.0169161
792.169	0.0168289
792.247	0.0169469
792.325	0.0171265
792.404	0.0172588
792.482	0.0172190
792.560	0.0172971
792.638	0.0172189
792.716	0.0173618
792.794	0.0173795
792.872	0.0173178
792.950	0.0174075
793.029	0.0174035
793.107	0.0175312
793.185	0.0173029
793.263	0.0173402
793.341	0.0173590
793.419	0.0172182
793.497	0.0172682
793.575	0.0170942
793.654	0.0171481
793.732	0.0167854
793.810	0.0167577
793.888	0.0168331
793.966	0.0165664
794.044	0.0165558
794.122	0.0165100
794.200	0.0163116
794.279	0.0162587
794.357	0.0161658
794.435	0.0162769
794.513	0.0161184
794.591	0.0162508
794.669	0.0160867
794.747	0.0161776
794.825	0.0161948
794.904	0.0162486
794.982	0.0162637
795.060	0.0163789
795.138	0.0163430
795.216	0.0163727
795.294	0.0165060
795.372	0.0164095
795.450	0.0164127
795.529	0.0163962
795.607	0.0165055
795.685	0.0165871
795.763	0.0165479
795.841	0.0163790
795.919	0.0165477
795.997	0.0165197
796.075	0.0165473
796.154	0.0165076
796.232	0.0164763
796.310	0.0165589
796.388	0.0166467
796.466	0.0167705
796.544	0.0166155
796.622	0.0166209
796.700	0.0166328
796.779	0.0167950
796.857	0.0168391
796.935	0.0168087
797.013	0.0167204
797.091	0.0169159
797.169	0.0169183
797.247	0.0168906
797.325	0.0169749
797.404	0.0171181
797.482	0.0170039
797.560	0.0167717
797.638	0.0169187
797.716	0.0169585
797.794	0.0169168
797.872	0.0166982
797.950	0.0167011
798.029	0.0166592
798.107	0.0166637
798.185	0.0167373
798.263	0.0166394
798.341	0.0165731
798.419	0.0166290
798.497	0.0166618
798.575	0.0165148
798.654	0.0166597
798.732	0.0166505
798.810	0.0164795
798.888	0.0164970
798.966	0.0165851
799.044	0.0164946
799.122	0.0165820
799.200	0.0165707
799.279	0.0166020
799.357	0.0166546
799.435	0.0165116
799.513	0.0166305
799.591	0.0164922
799.669	0.0165882
799.747	0.0165609
799.825	0.0164850
799.904	0.0164574
799.982	0.0164619
800.060	0.0164012
800.138	0.0164028
800.216	0.0164532
800.294	0.0162370
800.372	0.0163460
800.450	0.0165744
800.529	0.0164046
800.607	0.0162920
800.685	0.0164008
800.763	0.0163598
800.841	0.0165250
800.919	0.0167155
800.997	0.0166463
801.075	0.0167828
801.154	0.0168082
801.232	0.0168549
801.310	0.0169552
801.388	0.0169576
801.466	0.0170457
801.544	0.0172076
801.622	0.0173706
801.700	0.0171416
801.779	0.0171409
801.857	0.0171031
801.935	0.0171619
802.013	0.0170921
802.091	0.0171351
802.169	0.0170322
802.247	0.0169376
802.325	0.0168327
802.404	0.0167624
802.482	0.0167292
802.560	0.0167605
802.638	0.0165470
802.716	0.0166835
802.794	0.0166194
802.872	0.0168128
802.950	0.0166691
803.029	0.0166018
803.107	0.0166808
803.185	0.0168283
803.263	0.0167770
803.341	0.0167604
803.419	0.0168130
803.497	0.0168091
803.575	0.0168703
803.654	0.0166801
803.732	0.0166918
803.810	0.0168658
803.888	0.0167286
803.966	0.0167368
804.044	0.0166927
804.122	0.0165068
804.200	0.0164518
804.279	0.0165185
804.357	0.0165498
804.435	0.0164147
804.513	0.0163063
804.591	0.0163963
804.669	0.0162709
804.747	0.0163083
804.825	0.0163264
804.904	0.0161885
804.982	0.0161316
805.060	0.0161805
805.138	0.0162969
805.216	0.0162191
805.294	0.0161264
805.372	0.0161918
805.450	0.0161935
805.529	0.0161778
805.607	0.0161008
805.685	0.0161986
805.763	0.0161116
805.841	0.0160899
805.919	0.0159581
805.997	0.0160736
806.075	0.0160910
806.154	0.0160512
806.232	0.0161860
806.310	0.0162897
806.388	0.0161746
806.466	0.0161974
806.544	0.0162737
806.622	0.0164105
806.700	0.0166217
806.779	0.0165736
806.857	0.0167688
806.935	0.0167783
807.013	0.0168880
807.091	0.0170580
807.169	0.0171149
807.247	0.0170921
807.325	0.0172537
807.404	0.0172208
807.482	0.0171977
807.560	0.0172176
807.638	0.0173440
807.716	0.0173141
807.794	0.0172874
807.872	0.0172544
807.950	0.0171980
808.029	0.0172166
808.107	0.0174029
808.185	0.0171252
808.263	0.0172434
808.341	0.0170960
808.419	0.0171282
808.497	0.0169515
808.575	0.0170856
808.654	0.0170844
808.732	0.0169366
808.810	0.0170681
808.888	0.0171182
808.966	0.0170648
809.044	0.0171134
809.122	0.0169115
809.200	0.0168916
809.279	0.0168829
809.357	0.0169285
809.435	0.0168788
809.513	0.0168107
809.591	0.0167480
809.669	0.0167327
809.747	0.0166800
809.825	0.0166784
809.904	0.0164374
809.982	0.0164143
810.060	0.0163528
810.138	0.0163927
810.216	0.0162161
810.294	0.0163488
810.372	0.0161215
810.450	0.0161313
810.529	0.0160239
810.607	0.0161136
810.685	0.0160484
810.763	0.0159496
810.841	0.0161506
810.919	0.0161623
810.997	0.0161645
811.075	0.0162051
811.154	0.0160360
811.232	0.0161768
811.310	0.0161889
811.388	0.0163361
811.466	0.0164099
811.544	0.0164165
811.622	0.0164154
811.700	0.0164623
811.779	0.0164920
811.857	0.0165468
811.935	0.0164133
812.013	0.0165874
812.091	0.0165784
812.169	0.0166073
812.247	0.0166065
812.325	0.0167227
812.404	0.0166846
812.482	0.0167986
812.560	0.0167559
812.638	0.0167896
812.716	0.0167078
812.794	0.0169003
812.872	0.0168697
812.950	0.0170067
813.029	0.0169215
813.107	0.0169730
813.185	0.0169044
813.263	0.0168439
813.341	0.0169864
813.419	0.0169889
813.497	0.0167708
813.575	0.0168524
813.654	0.0170164
813.732	0.0167934
813.810	0.0168742
813.888	0.0168059
813.966	0.0167542
814.044	0.0167915
814.122	0.0168007
814.200	0.0166074
814.279	0.0167193
814.357	0.0165606
814.435	0.0166541
814.513	0.0164819
814.591	0.0165684
814.669	0.0164638
814.747	0.0164955
814.825	0.0166547
814.904	0.0164804
814.982	0.0165005
815.060	0.0164880
815.138	0.0165842
815.216	0.0164849
815.294	0.0166173
815.372	0.0166102
815.450	0.0165689
815.529	0.0166302
815.607	0.0167475
815.685	0.0169238
815.763	0.0168438
815.841	0.0167252
815.919	0.0170184
815.997	0.0169044
816.075	0.0170265
816.154	0.0169650
816.232	0.0170423
816.310	0.0170612
816.388	0.0169843
816.466	0.0168919
816.544	0.0168266
816.622	0.0168768
816.700	0.0168532
816.779	0.0168304
816.857	0.0167188
816.935	0.0166256
817.013	0.0166985
817.091	0.0164968
817.169	0.0165746
817.247	0.0165915
817.325	0.0164593
817.404	0.0164863
817.482	0.0165504
817.560	0.0164314
817.638	0.0163004
817.716	0.0163573
817.794	0.0164135
817.872	0.0163572
817.950	0.0164597
818.029	0.0164989
818.107	0.0164352
818.185	0.0164749
818.263	0.0165919
818.341	0.0165277
818.419	0.0166401
818.497	0.0166286
818.575	0.0165675
818.654	0.0166244
818.732	0.0169549
818.810	0.0167672
818.888	0.0168378
818.966	0.0168447
819.044	0.0168121
819.122	0.0167132
819.200	0.0168342
819.279	0.0168543
819.357	0.0167962
819.435	0.0167009
819.513	0.0166889
819.591	0.0166112
819.669	0.0166177
819.747	0.0167270
819.825	0.0165997
819.904	0.0166628
819.982	0.0164615
820.060	0.0164176
820.138	0.0163707
820.216	0.0165250
820.294	0.0164239
820.372	0.0164191
820.450	0.0162966
820.529	0.0162383
820.607	0.0162337
820.685	0.0163188
820.763	0.0164160
820.841	0.0162078
820.919	0.0163693
820.997	0.0163417
821.075	0.0163908
821.154	0.0163988
821.232	0.0166129
821.310	0.0165925
821.388	0.0166682
821.466	0.0166518
821.544	0.0168715
821.622	0.0168478
821.700	0.0169817
821.779	0.0170573
821.857	0.0170322
821.935	0.0171875
822.013	0.0170819
822.091	0.0172278
822.169	0.0173318
822.247	0.0170605
822.325	0.0172292
822.404	0.0172282
822.482	0.0173356
822.560	0.0171518
822.638	0.0170644
822.716	0.0170033
822.794	0.0169580
822.872	0.0168593
822.950	0.0168083
823.029	0.0165730
823.107	0.0165222
823.185	0.0165124
823.263	0.0163145
823.341	0.0163074
823.419	0.0164218
823.497	0.0161501
823.575	0.0161024
823.654	0.0161624
823.732	0.0160231
823.810	0.0158937
823.888	0.0160379
823.966	0.0161114
824.044	0.0160661
824.122	0.0160294
824.200	0.0160558
824.279	0.0161634
824.357	0.0163408
824.435	0.0163394
824.513	0.0165530
824.591	0.0164883
824.669	0.0168076
824.747	0.0168613
824.825	0.0169915
824.904	0.0170951
824.982	0.0171549
825.060	0.0171278
825.138	0.0171120
825.216	0.0173824
825.294	0.0173205
825.372	0.0173141
825.450	0.0173646
825.529	0.0172082
825.607	0.0171806
825.685	0.0171088
825.763	0.0169987
825.841	0.0168945
825.919	0.0169680
825.997	0.0168000
826.075	0.0167470
826.154	0.0167648
826.232	0.0167982
826.310	0.0165446
826.388	0.0165496
826.466	0.0164090
826.544	0.0164825
826.622	0.0164172
826.700	0.0163798
826.779	0.0163995
826.857	0.0162752
826.935	0.0164516
827.013	0.0165273
827.091	0.0165618
827.169	0.0165353
827.247	0.0165231
827.325	0.0165891
827.404	0.0167029
827.482	0.0165964
827.560	0.0166126
827.638	0.0164212
827.716	0.0165230
827.794	0.0167794
827.872	0.0164177
827.950	0.0163939
828.029	0.0163895
828.107	0.0164802
828.185	0.0164258
828.263	0.0165063
828.341	0.0165211
828.419	0.0164168
828.497	0.0164698
828.575	0.0165697
828.654	0.0167059
828.732	0.0167131
828.810	0.0167448
828.888	0.0168027
828.966	0.0168262
829.044	0.0168478
829.122	0.0169286
829.200	0.0169416
829.279	0.0170135
829.357	0.0169656
829.435	0.0168707
829.513	0.0170177
829.591	0.0170692
829.669	0.0169476
829.747	0.0169524
829.825	0.0168810
829.904	0.0169503
829.982	0.0170612
830.060	0.0168841
830.138	0.0168768
830.216	0.0166476
830.294	0.0167751
830.372	0.0167855
830.450	0.0166714
830.529	0.0165759
830.607	0.0165928
830.685	0.0166171
830.763	0.0165629
830.841	0.0164533
830.919	0.0164828
830.997	0.0163956
831.075	0.0164429
831.154	0.0165300
831.232	0.0164661
831.310	0.0163274
831.388	0.0165154
831.466	0.0163998
831.544	0.0163584
831.622	0.0164018
831.700	0.0164664
831.779	0.0163372
831.857	0.0163732
831.935	0.0162729
832.013	0.0165810
832.091	0.0165210
832.169	0.0166381
832.247	0.0165878
832.325	0.0166777
832.404	0.0166154
832.482	0.0166525
832.560	0.0167992
832.638	0.0167361
832.716	0.0168030
832.794	0.0168450
832.872	0.0168580
832.950	0.0169174
833.029	0.0168621
833.107	0.0168876
833.185	0.0168959
833.263	0.0168720
833.341	0.0168127
833.419	0.0167273
833.497	0.0167992
833.575	0.0168292
833.654	0.0168367
833.732	0.0168002
833.810	0.0166807
833.888	0.0168063
833.966	0.0168748
834.044	0.0166660
834.122	0.0166770
834.200	0.0168691
834.279	0.0168088
834.357	0.0168491
834.435	0.0167502
834.513	0.0167835
834.591	0.0167604
834.669	0.0168674
834.747	0.0167448
834.825	0.0168414
834.904	0.0167242
834.982	0.0167313
835.060	0.0168035
835.138	0.0167729
835.216	0.0167548
835.294	0.0168301
835.372	0.0166438
835.450	0.0167242
835.529	0.0166164
835.607	0.0165379
835.685	0.0165102
835.763	0.0162517
835.841	0.0162721
835.919	0.0162519
835.997	0.0161133
836.075	0.0161443
836.154	0.0160294
836.232	0.0162127
836.310	0.0161931
836.388	0.0160611
836.466	0.0159542
836.544	0.0161138
836.622	0.0160935
836.700	0.0160667
836.779	0.0162513
836.857	0.0161851
836.935	0.0161475
837.013	0.0163264
837.091	0.0164394
837.169	0.0165566
837.247	0.0164969
837.325	0.0166312
837.404	0.0166219
837.482	0.0167265
837.560	0.0169258
837.638	0.0168494
837.716	0.0170232
837.794	0.0169649
837.872	0.0170025
837.950	0.0171581
838.029	0.0172598
838.107	0.0172860
838.185	0.0172904
838.263	0.0174091
838.341	0.0174062
838.419	0.0173653
838.497	0.0172158
838.575	0.0172344
838.654	0.0172172
838.732	0.0170380
838.810	0.0169107
838.888	0.0169623
838.966	0.0169336
839.044	0.0167903
839.122	0.0168919
839.200	0.0166422
839.279	0.0168266
839.357	0.0169009
839.435	0.0168307
839.513	0.0166644
839.591	0.0167706
839.669	0.0166856
839.747	0.0167458
839.825	0.0166733
839.904	0.0167413
839.982	0.0167971
840.060	0.0166576
840.138	0.0166486
840.216	0.0167246
840.294	0.0167245
840.372	0.0166314
840.450	0.0166089
840.529	0.0166980
840.607	0.0164959
840.685	0.0166209
840.763	0.0165286
840.841	0.0162917
840.919	0.0165321
840.997	0.0164084
841.075	0.0164817
841.154	0.0163653
841.232	0.0163992
841.310	0.0163647
841.388	0.0164906
841.466	0.0163576
841.544	0.0163763
841.622	0.0163672
841.700	0.0163689
841.779	0.0164664
841.857	0.0165202
841.935	0.0163908
842.013	0.0163779
842.091	0.0163549
842.169	0.0163819
842.247	0.0164086
842.325	0.0165339
842.404	0.0165015
842.482	0.0165891
842.560	0.0165851
842.638	0.0166125
842.716	0.0166118
842.794	0.0167152
842.872	0.0167125
842.950	0.0167005
843.029	0.0169437
843.107	0.0168180
843.185	0.0168959
843.263	0.0169608
843.341	0.0170274
843.419	0.0169848
843.497	0.0169206
843.575	0.0169556
843.654	0.0169660
843.732	0.0169199
843.810	0.0168452
843.888	0.0168634
843.966	0.0167221
844.044	0.0166325
844.122	0.0166885
844.200	0.0166455
844.279	0.0166011
844.357	0.0164633
844.435	0.0165468
844.513	0.0165125
844.591	0.0164391
844.669	0.0164382
844.747	0.0164204
844.825	0.0164426
844.904	0.0163718
844.982	0.0163349
845.060	0.0164349
845.138	0.0164700
845.216	0.0165654
845.294	0.0165409
845.372	0.0166953
845.450	0.0166814
845.529	0.0168164
845.607	0.0166978
845.685	0.0168050
845.763	0.0169324
845.841	0.0170319
845.919	0.0169070
845.997	0.0170287
846.075	0.0171413
846.154	0.0170665
846.232	0.0171777
846.310	0.0170514
846.388	0.0170855
846.466	0.0170625
846.544	0.0170377
846.622	0.0169112
846.700	0.0168879
846.779	0.0167010
846.857	0.0166588
846.935	0.0168121
847.013	0.0167110
847.091	0.0167119
847.169	0.0165900
847.247	0.0165435
847.325	0.0166261
847.404	0.0165108
847.482	0.0165659
847.560	0.0166939
847.638	0.0166640
847.716	0.0166625
847.794	0.0167053
847.872	0.0165445
847.950	0.0166370
848.029	0.0167640
848.107	0.0166910
848.185	0.0164688
848.263	0.0165028
848.341	0.0166161
848.419	0.0165852
848.497	0.0164062
848.575	0.0163597
848.654	0.0163961
848.732	0.0165118
848.810	0.0163619
848.888	0.0165149
848.966	0.0164808
849.044	0.0164709
849.122	0.0165057
849.200	0.0164761
849.279	0.0165995
849.357	0.0167015
849.435	0.0166087
849.513	0.0166579
849.591	0.0168522
849.669	0.0166866
849.747	0.0167328
849.825	0.0168799
849.904	0.0169817
849.982	0.0169774
850.060	0.0170461
850.138	0.0170277
850.216	0.0169604
850.294	0.0170306
850.372	0.0169908
850.450	0.0170116
850.529	0.0169182
850.607	0.0168534
850.685	0.0169311
850.763	0.0168947
850.841	0.0168961
850.919	0.0168271
850.997	0.0168633
851.075	0.0167903
851.154	0.0165759
851.232	0.0166138
851.310	0.0167214
851.388	0.0167306
851.466	0.0167339
851.544	0.0167118
851.622	0.0166882
851.700	0.0168015
851.779	0.0167205
851.857	0.0167092
851.935	0.0166793
852.013	0.0167243
852.091	0.0167005
852.169	0.0166785
852.247	0.0166818
852.325	0.0165919
852.404	0.0166662
852.482	0.0165094
852.560	0.0165208
852.638	0.0166435
852.716	0.0166471
852.794	0.0165342
852.872	0.0164000
852.950	0.0163485
853.029	0.0164820
853.107	0.0163206
853.185	0.0163985
853.263	0.0164233
853.341	0.0162691
853.419	0.0163401
853.497	0.0164458
853.575	0.0162473
853.654	0.0163101
853.732	0.0164160
853.810	0.0164045
853.888	0.0163892
853.966	0.0163486
854.044	0.0165321
854.122	0.0166846
854.200	0.0167055
854.279	0.0164421
854.357	0.0168472
854.435	0.0166385
854.513	0.0168944
854.591	0.0169048
854.669	0.0168846
854.747	0.0170410
854.825	0.0171175
854.904	0.0171031
854.982	0.0171942
855.060	0.0172336
855.138	0.0171101
855.216	0.0172390
855.294	0.0173576
855.372	0.0173578
855.450	0.0172887
855.529	0.0171611
855.607	0.0172222
855.685	0.0173303
855.763	0.0173058
855.841	0.0173133
855.919	0.0171449
855.997	0.0171427
856.075	0.0171600
856.154	0.0171498
856.232	0.0169724
856.310	0.0168745
856.388	0.0167461
856.466	0.0168173
856.544	0.0168202
856.622	0.0168014
856.700	0.0167626
856.779	0.0165961
856.857	0.0164247
856.935	0.0163367
857.013	0.0162909
857.091	0.0163342
857.169	0.0162565
857.247	0.0161193
857.325	0.0160888
857.404	0.0161542
857.482	0.0160235
857.560	0.0160213
857.638	0.0160020
857.716	0.0159975
857.794	0.0159369
857.872	0.0159529
857.950	0.0159751
858.029	0.0159531
858.107	0.0160418
858.185	0.0160058
858.263	0.0159787
858.341	0.0161523
858.419	0.0160893
858.497	0.0161272
858.575	0.0162402
858.654	0.0162131
858.732	0.0162592
858.810	0.0163142
858.888	0.0164115
858.966	0.0164368
859.044	0.0164140
859.122	0.0165385
859.200	0.0165663
859.279	0.0166951
859.357	0.0166457
859.435	0.0167756
859.513	0.0169305
859.591	0.0168591
859.669	0.0170169
859.747	0.0170709
859.825	0.0170708
859.904	0.0170216
859.982	0.0171162
860.060	0.0172115
860.138	0.0171543
860.216	0.0172901
860.294	0.0173035
860.372	0.0173447
860.450	0.0172743
860.529	0.0172509
860.607	0.0171086
860.685	0.0171297
860.763	0.0171777
860.841	0.0170435
860.919	0.0169543
860.997	0.0169280
861.075	0.0168795
861.154	0.0169313
861.232	0.0168337
861.310	0.0166911
861.388	0.0166953
861.466	0.0165990
861.544	0.0166389
861.622	0.0165530
861.700	0.0166087
861.779	0.0165637
861.857	0.0163978
861.935	0.0164633
862.013	0.0164378
862.091	0.0165405
862.169	0.0165814
862.247	0.0167591
862.325	0.0167278
862.404	0.0165957
862.482	0.0165446
862.560	0.0166980
862.638	0.0168147
862.716	0.0166766
862.794	0.0166159
862.872	0.0167345
862.950	0.0167443
863.029	0.0167516
863.107	0.0165624
863.185	0.0167194
863.263	0.0167870
863.341	0.0167186
863.419	0.0165220
863.497	0.0165464
863.575	0.0165825
863.654	0.0166281
863.732	0.0166287
863.810	0.0166200
863.888	0.0165530
863.966	0.0165607
864.044	0.0163839
864.122	0.0165000
864.200	0.0164285
864.279	0.0163932
864.357	0.0164878
864.435	0.0163379
864.513	0.0165136
864.591	0.0163528
864.669	0.0161763
864.747	0.0162685
864.825	0.0162914
864.904	0.0163632
864.982	0.0164897
865.060	0.0165457
865.138	0.0163715
865.216	0.0164993
865.294	0.0165644
865.372	0.0164869
865.450	0.0166331
865.529	0.0166319
865.607	0.0165284
865.685	0.0168169
865.763	0.0166781
865.841	0.0166815
865.919	0.0166769
865.997	0.0166103
866.075	0.0166225
866.154	0.0166823
866.232	0.0165784
866.310	0.0168065
866.388	0.0167731
866.466	0.0165520
866.544	0.0167108
866.622	0.0167879
866.700	0.0168447
866.779	0.0167989
866.857	0.0166861
866.935	0.0168475
867.013	0.0168436
867.091	0.0167541
867.169	0.0166756
867.247	0.0168430
867.325	0.0168520
867.404	0.0167475
867.482	0.0168789
867.560	0.0169592
867.638	0.0168238
867.716	0.0168417
867.794	0.0168316
867.872	0.0168077
867.950	0.0166965
868.029	0.0168044
868.107	0.0168602
868.185	0.0167468
868.263	0.0168588
868.341	0.0166655
868.419	0.0167294
868.497	0.0168639
868.575	0.0165923
868.654	0.0167301
868.732	0.0167833
868.810	0.0166367
868.888	0.0166871
868.966	0.0166070
869.044	0.0165944
869.122	0.0167191
869.200	0.0165321
869.279	0.0165923
869.357	0.0166891
869.435	0.0166296
869.513	0.0165087
869.591	0.0165787
869.669	0.0165377
869.747	0.0164900
869.825	0.0165575
869.904	0.0164274
869.982	0.0164112
870.060	0.0164988
870.138	0.0163174
870.216	0.0162978
870.294	0.0164310
870.372	0.0162302
870.450	0.0162708
870.529	0.0163378
870.607	0.0163073
870.685	0.0165208
870.763	0.0164201
870.841	0.0163364
870.919	0.0162977
870.997	0.0163876
871.075	0.0164437
871.154	0.0165053
871.232	0.0165733
871.310	0.0165295
871.388	0.0164166
871.466	0.0166476
871.544	0.0167746
871.622	0.0166991
871.700	0.0166660
871.779	0.0167577
871.857	0.0168552
871.935	0.0169268
872.013	0.0167918
872.091	0.0169100
872.169	0.0169498
872.247	0.0169276
872.325	0.0169228
872.404	0.0169961
872.482	0.0167603
872.560	0.0168922
872.638	0.0169151
872.716	0.0168681
872.794	0.0167149
872.872	0.0168351
872.950	0.0167091
873.029	0.0168197
873.107	0.0166141
873.185	0.0167089
873.263	0.0166627
873.341	0.0165926
873.419	0.0166664
873.497	0.0165618
873.575	0.0165430
873.654	0.0164697
873.732	0.0163960
873.810	0.0166629
873.888	0.0165353
873.966	0.0166196
874.044	0.0166143
874.122	0.0166077
874.200	0.0166380
874.279	0.0166760
874.357	0.0164978
874.435	0.0165597
874.513	0.0166447
874.591	0.0165468
874.669	0.0165807
874.747	0.0165537
874.825	0.0165148
874.904	0.0164647
874.982	0.0164584
875.060	0.0162402
875.138	0.0163195
875.216	0.0163881
875.294	0.0166507
875.372	0.0165761
875.450	0.0166172
875.529	0.0168642
875.607	0.0169455
875.685	0.0170256
875.763	0.0170609
875.841	0.0172316
875.919	0.0172646
875.997	0.0172680
876.075	0.0173119
876.154	0.0173047
876.232	0.0171050
876.310	0.0171043
876.388	0.0169058
876.466	0.0168024
876.544	0.0166520
876.622	0.0164123
876.700	0.0163708
876.779	0.0162594
876.857	0.0162256
876.935	0.0160302
877.013	0.0161240
877.091	0.0161098
877.169	0.0160056
877.247	0.0159734
877.325	0.0160609
877.404	0.0163809
877.482	0.0164619
877.560	0.0166534
877.638	0.0169106
877.716	0.0172861
877.794	0.0172805
877.872	0.0176692
877.950	0.0178600
878.029	0.0180070
878.107	0.0181424
878.185	0.0182127
878.263	0.0182031
878.341	0.0178474
878.419	0.0176567
878.497	0.0175148
878.575	0.0172087
878.654	0.0165001
878.732	0.0162023
878.810	0.0158409
878.888	0.0155783
878.966	0.0154166
879.044	0.0150968
879.122	0.0151099
879.200	0.0150386
879.279	0.0150575
879.357	0.0150833
879.435	0.0153137
879.513	0.0155959
879.591	0.0156361
879.669	0.0159166
879.747	0.0163670
879.825	0.0165234
879.904	0.0166643
879.982	0.0168843
880.060	0.0171253
880.138	0.0172760
880.216	0.0173576
880.294	0.0173769
880.372	0.0174509
880.450	0.0174529
880.529	0.0176299
880.607	0.0175861
880.685	0.0173917
880.763	0.0173348
880.841	0.0173688
880.919	0.0171260
880.997	0.0168951
881.075	0.0168915
881.154	0.0167504
881.232	0.0166120
881.310	0.0164357
881.388	0.0162386
881.466	0.0160513
881.544	0.0160300
881.622	0.0159621
881.700	0.0160480
881.779	0.0159363
881.857	0.0159972
881.935	0.0158225
882.013	0.0159418
882.091	0.0159908
882.169	0.0161405
882.247	0.0161997
882.325	0.0162045
882.404	0.0161653
882.482	0.0163453
882.560	0.0164364
882.638	0.0164765
882.716	0.0166788
882.794	0.0166898
882.872	0.0169607
882.950	0.0169761
883.029	0.0171064
883.107	0.0172597
883.185	0.0174432
883.263	0.0173712
883.341	0.0174200
883.419	0.0175113
883.497	0.0175697
883.575	0.0175980
883.654	0.0176228
883.732	0.0174199
883.810	0.0174249
883.888	0.0173656
883.966	0.0172981
884.044	0.0171359
884.122	0.0170650
884.200	0.0169860
884.279	0.0166948
884.357	0.0166187
884.435	0.0166034
884.513	0.0162903
884.591	0.0161939
884.669	0.0161333
884.747	0.0158403
884.825	0.0160126
884.904	0.0159864
884.982	0.0158158
885.060	0.0158296
885.138	0.0158504
885.216	0.0157950
885.294	0.0160017
885.372	0.0161115
885.450	0.0161527
885.529	0.0162257
885.607	0.0163065
885.685	0.0163593
885.763	0.0164382
885.841	0.0166889
885.919	0.0167632
885.997	0.0168758
886.075	0.0168458
886.154	0.0169118
886.232	0.0170235
886.310	0.0170336
886.388	0.0171200
886.466	0.0170483
886.544	0.0169439
886.622	0.0168367
886.700	0.0168592
886.779	0.0167306
886.857	0.0166264
886.935	0.0166601
887.013	0.0165112
887.091	0.0165041
887.169	0.0164478
887.247	0.0163338
887.325	0.0164405
887.404	0.0164689
887.482	0.0163280
887.560	0.0163901
887.638	0.0164017
887.716	0.0164046
887.794	0.0164249
887.872	0.0163697
887.950	0.0165168
888.029	0.0165622
888.107	0.0166924
888.185	0.0167006
888.263	0.0167397
888.341	0.0168163
888.419	0.0169542
888.497	0.0169977
888.575	0.0169479
888.654	0.0170498
888.732	0.0170886
888.810	0.0169843
888.888	0.0169775
888.966	0.0169775
889.044	0.0168797
889.122	0.0168517
889.200	0.0169096
889.279	0.0166593
889.357	0.0166948
889.435	0.0166531
889.513	0.0165202
889.591	0.0164472
889.669	0.0163851
889.747	0.0163403
889.825	0.0162300
889.904	0.0163950
889.982	0.0164043
890.060	0.0163660
890.138	0.0164301
890.216	0.0165077
890.294	0.0163962
890.372	0.0164376
890.450	0.0166159
890.529	0.0166320
890.607	0.0164324
890.685	0.0166082
890.763	0.0165339
890.841	0.0166455
890.919	0.0165392
890.997	0.0165759
891.075	0.0166428
891.154	0.0166715
891.232	0.0166346
891.310	0.0166225
891.388	0.0165770
891.466	0.0166163
891.544	0.0165580
891.622	0.0166628
891.700	0.0165828
891.779	0.0165878
891.857	0.0165200
891.935	0.0166443
892.013	0.0166606
892.091	0.0166914
892.169	0.0168433
892.247	0.0168040
892.325	0.0168072
892.404	0.0169120
892.482	0.0170084
892.560	0.0170930
892.638	0.0171159
892.716	0.0168576
892.794	0.0171036
892.872	0.0171257
892.950	0.0170190
893.029	0.0170595
893.107	0.0170067
893.185	0.0169092
893.263	0.0170271
893.341	0.0169193
893.419	0.0168362
893.497	0.0166449
893.575	0.0167136
893.654	0.0165170
893.732	0.0164561
893.810	0.0164234
893.888	0.0162122
893.966	0.0161401
894.044	0.0160662
894.122	0.0160560
894.200	0.0160709
894.279	0.0160268
894.357	0.0159031
894.435	0.0159830
894.513	0.0161507
894.591	0.0161400
894.669	0.0161488
894.747	0.0161967
894.825	0.0162638
894.904	0.0164144
894.982	0.0163896
895.060	0.0165163
895.138	0.0167733
895.216	0.0167466
895.294	0.0166759
895.372	0.0166538
895.450	0.0166566
895.529	0.0165970
895.607	0.0166344
895.685	0.0166637
895.763	0.0165929
895.841	0.0165552
895.919	0.0166939
895.997	0.0165859
896.075	0.0167680
896.154	0.0165171
896.232	0.0166622
896.310	0.0165694
896.388	0.0166010
896.466	0.0167170
896.544	0.0166883
896.622	0.0167159
896.700	0.0167725
896.779	0.0168569
896.857	0.0170098
896.935	0.0171009
897.013	0.0169405
897.091	0.0169830
897.169	0.0169647
897.247	0.0169871
897.325	0.0171286
897.404	0.0170821
897.482	0.0171027
897.560	0.0169717
897.638	0.0169349
897.716	0.0169785
897.794	0.0168915
897.872	0.0169252
897.950	0.0168660
898.029	0.0169259
898.107	0.0169421
898.185	0.0167726
898.263	0.0167348
898.341	0.0167728
898.419	0.0166887
898.497	0.0167060
898.575	0.0167501
898.654	0.0167502
898.732	0.0167841
898.810	0.0166815
898.888	0.0165973
898.966	0.0165778
899.044	0.0166462
899.122	0.0165186
899.200	0.0165063
899.279	0.0164614
899.357	0.0163776
899.435	0.0164265
899.513	0.0164381
899.591	0.0165103
899.669	0.0165351
899.747	0.0165039
899.825	0.0165733
899.904	0.0166344
899.982	0.0164492
900.060	0.0165549
900.138	0.0165299
900.216	0.0164594
900.294	0.0166379
900.372	0.0165930
900.450	0.0165493
900.529	0.0164838
900.607	0.0163735
900.685	0.0166284
900.763	0.0164828
900.841	0.0165522
900.919	0.0164920
900.997	0.0165907
901.075	0.0165416
901.154	0.0166507
901.232	0.0166775
901.310	0.0165833
901.388	0.0168529
901.466	0.0168451
901.544	0.0169436
901.622	0.0169066
901.700	0.0168624
901.779	0.0169158
901.857	0.0169720
901.935	0.0170226
902.013	0.0167364
902.091	0.0169180
902.169	0.0169312
902.247	0.0167800
902.325	0.0167035
902.404	0.0164478
902.482	0.0165656
902.560	0.0164755
902.638	0.0164743
902.716	0.0164386
902.794	0.0165525
902.872	0.0164621
902.950	0.0163888
903.029	0.0163770
903.107	0.0164169
903.185	0.0164548
903.263	0.0164206
903.341	0.0165240
903.419	0.0166975
903.497	0.0168111
903.575	0.0166803
903.654	0.0168054
903.732	0.0166644
903.810	0.0168069
903.888	0.0168392
903.966	0.0167571
904.044	0.0167515
904.122	0.0166442
904.200	0.0166930
904.279	0.0168917
904.357	0.0167812
904.435	0.0167918
904.513	0.0167560
904.591	0.0168605
904.669	0.0167802
904.747	0.0168586
904.825	0.0168506
904.904	0.0168307
904.982	0.0168946
905.060	0.0168323
905.138	0.0168849
905.216	0.0169202
905.294	0.0168536
905.372	0.0169639
905.450	0.0169160
905.529	0.0169730
905.607	0.0169173
905.685	0.0168490
905.763	0.0169347
905.841	0.0169366
905.919	0.0168222
905.997	0.0167297
906.075	0.0165148
906.154	0.0166129
906.232	0.0166801
906.310	0.0165613
906.388	0.0166127
906.466	0.0166031
906.544	0.0164297
906.622	0.0163831
906.700	0.0164199
906.779	0.0163054
906.857	0.0164883
906.935	0.0163779
907.013	0.0166087
907.091	0.0164219
907.169	0.0163954
907.247	0.0163029
907.325	0.0163038
907.404	0.0164189
907.482	0.0164719
907.560	0.0164484
907.638	0.0164991
907.716	0.0164827
907.794	0.0164388
907.872	0.0165788
907.950	0.0163824
908.029	0.0165641
908.107	0.0166042
908.185	0.0166766
908.263	0.0167131
908.341	0.0165556
908.419	0.0165948
908.497	0.0165803
908.575	0.0165996
908.654	0.0167264
908.732	0.0165747
908.810	0.0166318
908.888	0.0167072
908.966	0.0167130
909.044	0.0166806
909.122	0.0166808
909.200	0.0166305
909.279	0.0168186
909.357	0.0168035
909.435	0.0167382
909.513	0.0168701
909.591	0.0167853
909.669	0.0168999
909.747	0.0169564
909.825	0.0168913
909.904	0.0169809
909.982	0.0169724
910.060	0.0168566
910.138	0.0167709
910.216	0.0168651
910.294	0.0167979
910.372	0.0166320
910.450	0.0165395
910.529	0.0167322
910.607	0.0167588
910.685	0.0165675
910.763	0.0166511
910.841	0.0165919
910.919	0.0165504
910.997	0.0167002
911.075	0.0167645
911.154	0.0167193
911.232	0.0167227
911.310	0.0166640
911.388	0.0166772
911.466	0.0167361
911.544	0.0166521
911.622	0.0165749
911.700	0.0167682
911.779	0.0165278
911.857	0.0166387
911.935	0.0165681
912.013	0.0166393
912.091	0.0165948
912.169	0.0165338
912.247	0.0165777
912.325	0.0164909
912.404	0.0165437
912.482	0.0165955
912.560	0.0166257
912.638	0.0167071
912.716	0.0168288
912.794	0.0167471
912.872	0.0166658
912.950	0.0168827
913.029	0.0167365
913.107	0.0169268
913.185	0.0168702
913.263	0.0168479
913.341	0.0168410
913.419	0.0169537
913.497	0.0170094
913.575	0.0168634
913.654	0.0170023
913.732	0.0169685
913.810	0.0168508
913.888	0.0168202
913.966	0.0168072
914.044	0.0168440
914.122	0.0167709
914.200	0.0167094
914.279	0.0168343
914.357	0.0168005
914.435	0.0166137
914.513	0.0166617
914.591	0.0166492
914.669	0.0165559
914.747	0.0166667
914.825	0.0166144
914.904	0.0165423
914.982	0.0166302
915.060	0.0165785
915.138	0.0166559
915.216	0.0166441
915.294	0.0166121
915.372	0.0166055
915.450	0.0164915
915.529	0.0165138
915.607	0.0165129
915.685	0.0163480
915.763	0.0167058
915.841	0.0164886
915.919	0.0162605
915.997	0.0164814
916.075	0.0165359
916.154	0.0166415
916.232	0.0164561
916.310	0.0164719
916.388	0.0164936
916.466	0.0166316
916.544	0.0166995
916.622	0.0165352
916.700	0.0164813
916.779	0.0166533
916.857	0.0166518
916.935	0.0166457
917.013	0.0166308
917.091	0.0165486
917.169	0.0165049
917.247	0.0166646
917.325	0.0167062
917.404	0.0165333
917.482	0.0166425
917.560	0.0165807
917.638	0.0165395
917.716	0.0166767
917.794	0.0165320
917.872	0.0167183
917.950	0.0165274
918.029	0.0168015
918.107	0.0167799
918.185	0.0166608
918.263	0.0166138
918.341	0.0166665
918.419	0.0169359
918.497	0.0168273
918.575	0.0169300
918.654	0.0168686
918.732	0.0169888
918.810	0.0169588
918.888	0.0168918
918.966	0.0168277
919.044	0.0169405
919.122	0.0168324
919.200	0.0167286
919.279	0.0168089
919.357	0.0166901
919.435	0.0166784
919.513	0.0167151
919.591	0.0166953
919.669	0.0167101
919.747	0.0167306
919.825	0.0167331
919.904	0.0167394
