06/01/2022	17:19:18	Ver.	4.1	UNKNOWN
Optical Delay	599.975067	Delta X		0.078125	Sweeps	1	Scan Rate	0/0
Coordinates	Axis 1	NaN	Axis 2	NaN	Axis 3	NaN	Axis 4	NaN	Axis 5	NaN	Axis 6	0.000000
TX Power	0.000000	RX Power	0.000000

599.975	0.0169753
600.053	0.0169260
600.131	0.0170028
600.209	0.0170946
600.288	0.0170881
600.366	0.0168700
600.444	0.0167513
600.522	0.0170505
600.600	0.0170412
600.678	0.0170130
600.756	0.0169427
600.834	0.0169599
600.913	0.0169670
600.991	0.0169566
601.069	0.0170684
601.147	0.0170074
601.225	0.0170100
601.303	0.0170098
601.381	0.0170094
601.459	0.0169416
601.538	0.0169155
601.616	0.0170258
601.694	0.0168735
601.772	0.0170406
601.850	0.0168954
601.928	0.0168581
602.006	0.0169902
602.084	0.0170556
602.163	0.0169528
602.241	0.0169579
602.319	0.0169397
602.397	0.0169509
602.475	0.0168195
602.553	0.0169929
602.631	0.0169627
602.709	0.0169638
602.788	0.0169897
602.866	0.0169963
602.944	0.0169424
603.022	0.0169432
603.100	0.0169431
603.178	0.0169063
603.256	0.0169083
603.334	0.0168920
603.413	0.0170036
603.491	0.0168549
603.569	0.0169129
603.647	0.0169083
603.725	0.0169693
603.803	0.0170090
603.881	0.0170420
603.959	0.0170970
604.038	0.0169897
604.116	0.0168481
604.194	0.0169775
604.272	0.0169389
604.350	0.0170351
604.428	0.0170988
604.506	0.0170478
604.584	0.0170197
604.663	0.0170633
604.741	0.0169318
604.819	0.0169237
604.897	0.0169212
604.975	0.0170463
605.053	0.0169220
605.131	0.0170325
605.209	0.0169586
605.288	0.0169616
605.366	0.0169600
605.444	0.0168847
605.522	0.0169717
605.600	0.0168658
605.678	0.0169449
605.756	0.0170461
605.834	0.0169772
605.913	0.0170322
605.991	0.0170197
606.069	0.0169290
606.147	0.0170098
606.225	0.0170495
606.303	0.0170674
606.381	0.0170490
606.459	0.0170107
606.538	0.0170744
606.616	0.0170933
606.694	0.0170161
606.772	0.0172613
606.850	0.0170779
606.928	0.0168597
607.006	0.0169111
607.084	0.0170348
607.163	0.0170272
607.241	0.0169448
607.319	0.0168702
607.397	0.0169090
607.475	0.0169165
607.553	0.0169590
607.631	0.0168799
607.709	0.0169054
607.788	0.0169236
607.866	0.0169688
607.944	0.0168668
608.022	0.0169716
608.100	0.0168444
608.178	0.0168449
608.256	0.0169933
608.334	0.0171088
608.413	0.0169700
608.491	0.0169730
608.569	0.0170532
608.647	0.0169719
608.725	0.0172095
608.803	0.0170094
608.881	0.0170872
608.959	0.0170800
609.038	0.0170447
609.116	0.0171333
609.194	0.0171230
609.272	0.0170911
609.350	0.0169958
609.428	0.0172603
609.506	0.0169703
609.584	0.0170387
609.663	0.0169962
609.741	0.0170322
609.819	0.0169915
609.897	0.0168954
609.975	0.0169979
610.053	0.0170203
610.131	0.0168415
610.209	0.0168244
610.288	0.0168592
610.366	0.0168633
610.444	0.0170267
610.522	0.0169235
610.600	0.0169316
610.678	0.0169366
610.756	0.0168740
610.834	0.0169756
610.913	0.0169402
610.991	0.0169845
611.069	0.0169985
611.147	0.0170637
611.225	0.0170434
611.303	0.0170975
611.381	0.0170410
611.459	0.0169772
611.538	0.0171288
611.616	0.0170657
611.694	0.0169949
611.772	0.0170795
611.850	0.0170102
611.928	0.0172160
612.006	0.0169352
612.084	0.0169745
612.163	0.0170164
612.241	0.0170701
612.319	0.0170445
612.397	0.0169160
612.475	0.0169827
612.553	0.0169806
612.631	0.0169894
612.709	0.0169756
612.788	0.0171915
612.866	0.0169979
612.944	0.0170329
613.022	0.0171641
613.100	0.0169930
613.178	0.0170351
613.256	0.0170065
613.334	0.0170764
613.413	0.0169917
613.491	0.0169074
613.569	0.0168354
613.647	0.0169535
613.725	0.0171053
613.803	0.0169482
613.881	0.0168940
613.959	0.0169267
614.038	0.0170456
614.116	0.0170631
614.194	0.0169240
614.272	0.0169206
614.350	0.0169665
614.428	0.0170121
614.506	0.0169604
614.584	0.0169028
614.663	0.0169266
614.741	0.0170763
614.819	0.0169805
614.897	0.0169785
614.975	0.0169489
615.053	0.0169473
615.131	0.0169025
615.209	0.0168648
615.288	0.0170348
615.366	0.0170070
615.444	0.0169640
615.522	0.0169513
615.600	0.0168989
615.678	0.0169466
615.756	0.0170471
615.834	0.0170000
615.913	0.0169249
615.991	0.0170193
616.069	0.0171229
616.147	0.0169592
616.225	0.0170740
616.303	0.0170280
616.381	0.0170093
616.459	0.0169396
616.538	0.0170889
616.616	0.0170975
616.694	0.0169933
616.772	0.0169892
616.850	0.0170440
616.928	0.0171452
617.006	0.0170065
617.084	0.0169974
617.163	0.0170828
617.241	0.0169608
617.319	0.0170135
617.397	0.0171034
617.475	0.0170723
617.553	0.0169039
617.631	0.0168778
617.709	0.0169305
617.788	0.0169836
617.866	0.0169591
617.944	0.0169604
618.022	0.0169869
618.100	0.0170236
618.178	0.0170123
618.256	0.0169738
618.334	0.0169559
618.413	0.0169071
618.491	0.0170399
618.569	0.0170394
618.647	0.0169453
618.725	0.0169402
618.803	0.0169673
618.881	0.0170055
618.959	0.0170530
619.038	0.0169890
619.116	0.0169616
619.194	0.0170431
619.272	0.0169581
619.350	0.0169485
619.428	0.0168427
619.506	0.0170580
619.584	0.0169724
619.663	0.0169888
619.741	0.0169267
619.819	0.0170602
619.897	0.0169638
619.975	0.0170187
620.053	0.0169611
620.131	0.0169928
620.209	0.0169328
620.288	0.0169099
620.366	0.0169727
620.444	0.0171061
620.522	0.0171021
620.600	0.0169349
620.678	0.0168583
620.756	0.0169493
620.834	0.0169688
620.913	0.0170113
620.991	0.0170390
621.069	0.0170676
621.147	0.0170154
621.225	0.0169479
621.303	0.0171298
621.381	0.0170248
621.459	0.0169659
621.538	0.0169703
621.616	0.0169263
621.694	0.0169923
621.772	0.0169717
621.850	0.0169431
621.928	0.0170679
622.006	0.0168546
622.084	0.0169710
622.163	0.0169771
622.241	0.0169283
622.319	0.0169635
622.397	0.0169942
622.475	0.0170229
622.553	0.0169951
622.631	0.0168285
622.709	0.0169685
622.788	0.0170607
622.866	0.0169621
622.944	0.0169302
623.022	0.0169363
623.100	0.0170917
623.178	0.0169261
623.256	0.0169812
623.334	0.0170023
623.413	0.0170017
623.491	0.0170282
623.569	0.0169408
623.647	0.0168179
623.725	0.0169592
623.803	0.0170297
623.881	0.0169385
623.959	0.0170076
624.038	0.0169565
624.116	0.0170634
624.194	0.0170422
624.272	0.0169695
624.350	0.0169711
624.428	0.0169669
624.506	0.0169659
624.584	0.0169758
624.663	0.0169909
624.741	0.0168821
624.819	0.0170296
624.897	0.0170698
624.975	0.0169649
625.053	0.0170158
625.131	0.0169962
625.209	0.0169016
625.288	0.0168841
625.366	0.0169580
625.444	0.0170209
625.522	0.0169695
625.600	0.0169196
625.678	0.0169281
625.756	0.0167893
625.834	0.0171745
625.913	0.0171478
625.991	0.0169080
626.069	0.0170648
626.147	0.0169852
626.225	0.0170461
626.303	0.0169374
626.381	0.0169503
626.459	0.0168929
626.538	0.0169157
626.616	0.0171699
626.694	0.0170268
626.772	0.0169358
626.850	0.0168696
626.928	0.0171492
627.006	0.0169932
627.084	0.0169710
627.163	0.0170132
627.241	0.0170166
627.319	0.0169680
627.397	0.0170193
627.475	0.0170350
627.553	0.0170032
627.631	0.0167681
627.709	0.0170676
627.788	0.0170099
627.866	0.0169470
627.944	0.0169280
628.022	0.0169585
628.100	0.0169814
628.178	0.0169087
628.256	0.0168982
628.334	0.0169161
628.413	0.0170558
628.491	0.0168710
628.569	0.0168427
628.647	0.0169228
628.725	0.0169345
628.803	0.0170399
628.881	0.0169662
628.959	0.0170168
629.038	0.0169376
629.116	0.0169330
629.194	0.0169236
629.272	0.0170271
629.350	0.0169521
629.428	0.0169160
629.506	0.0169323
629.584	0.0169116
629.663	0.0170436
629.741	0.0168392
629.819	0.0169587
629.897	0.0169339
629.975	0.0169727
630.053	0.0169933
630.131	0.0168490
630.209	0.0169444
630.288	0.0171413
630.366	0.0168988
630.444	0.0170473
630.522	0.0170216
630.600	0.0170686
630.678	0.0170239
630.756	0.0170340
630.834	0.0169763
630.913	0.0167834
630.991	0.0168549
631.069	0.0170555
631.147	0.0170375
631.225	0.0169444
631.303	0.0169687
631.381	0.0169550
631.459	0.0170689
631.538	0.0170240
631.616	0.0170825
631.694	0.0168856
631.772	0.0169766
631.850	0.0169659
631.928	0.0169647
632.006	0.0170284
632.084	0.0170181
632.163	0.0169183
632.241	0.0169836
632.319	0.0168363
632.397	0.0170811
632.475	0.0169570
632.553	0.0168958
632.631	0.0169134
632.709	0.0169820
632.788	0.0169448
632.866	0.0170746
632.944	0.0169936
633.022	0.0168317
633.100	0.0169125
633.178	0.0170018
633.256	0.0169759
633.334	0.0170147
633.413	0.0169147
633.491	0.0169632
633.569	0.0168867
633.647	0.0169674
633.725	0.0169112
633.803	0.0168383
633.881	0.0169995
633.959	0.0170116
634.038	0.0168585
634.116	0.0169514
634.194	0.0169669
634.272	0.0169193
634.350	0.0169169
634.428	0.0169585
634.506	0.0169399
634.584	0.0169003
634.663	0.0170222
634.741	0.0169785
634.819	0.0169561
634.897	0.0169713
634.975	0.0169176
635.053	0.0169715
635.131	0.0169965
635.209	0.0171820
635.288	0.0169881
635.366	0.0169820
635.444	0.0170473
635.522	0.0169393
635.600	0.0169261
635.678	0.0169870
635.756	0.0169621
635.834	0.0170065
635.913	0.0169365
635.991	0.0169183
636.069	0.0170741
636.147	0.0169681
636.225	0.0169091
636.303	0.0170387
636.381	0.0170383
636.459	0.0170572
636.538	0.0170688
636.616	0.0170246
636.694	0.0170893
636.772	0.0170464
636.850	0.0170132
636.928	0.0168653
637.006	0.0168982
637.084	0.0169903
637.163	0.0169552
637.241	0.0170863
637.319	0.0169968
637.397	0.0170235
637.475	0.0171329
637.553	0.0170750
637.631	0.0170585
637.709	0.0168891
637.788	0.0169426
637.866	0.0170452
637.944	0.0169349
638.022	0.0169053
638.100	0.0169738
638.178	0.0169261
638.256	0.0169400
638.334	0.0169773
638.413	0.0170025
638.491	0.0168883
638.569	0.0170509
638.647	0.0170338
638.725	0.0169771
638.803	0.0169292
638.881	0.0170190
638.959	0.0170071
639.038	0.0170332
639.116	0.0169501
639.194	0.0169487
639.272	0.0169740
639.350	0.0169716
639.428	0.0170733
639.506	0.0169201
639.584	0.0170277
639.663	0.0168437
639.741	0.0168245
639.819	0.0169475
639.897	0.0170589
639.975	0.0171667
640.053	0.0170600
640.131	0.0170879
640.209	0.0169776
640.288	0.0169645
640.366	0.0169936
640.444	0.0169764
640.522	0.0169861
640.600	0.0169707
640.678	0.0169812
640.756	0.0169650
640.834	0.0170184
640.913	0.0169431
640.991	0.0169766
641.069	0.0169073
641.147	0.0169664
641.225	0.0170127
641.303	0.0170175
641.381	0.0170359
641.459	0.0169184
641.538	0.0168336
641.616	0.0168329
641.694	0.0169072
641.772	0.0169898
641.850	0.0169133
641.928	0.0170329
642.006	0.0170460
642.084	0.0169942
642.163	0.0169467
642.241	0.0169991
642.319	0.0170513
642.397	0.0171165
642.475	0.0170306
642.553	0.0170472
642.631	0.0170381
642.709	0.0169825
642.788	0.0170047
642.866	0.0170230
642.944	0.0169937
643.022	0.0167884
643.100	0.0170338
643.178	0.0169592
643.256	0.0168712
643.334	0.0170161
643.413	0.0169758
643.491	0.0169230
643.569	0.0169386
643.647	0.0169489
643.725	0.0170628
643.803	0.0169553
643.881	0.0170448
643.959	0.0169477
644.038	0.0168335
644.116	0.0169411
644.194	0.0169897
644.272	0.0169880
644.350	0.0168975
644.428	0.0169822
644.506	0.0170408
644.584	0.0169872
644.663	0.0168728
644.741	0.0170065
644.819	0.0170972
644.897	0.0170709
644.975	0.0170126
645.053	0.0170504
645.131	0.0170131
645.209	0.0170185
645.288	0.0169353
645.366	0.0169791
645.444	0.0168404
645.522	0.0170366
645.600	0.0170265
645.678	0.0169614
645.756	0.0172135
645.834	0.0169925
645.913	0.0170506
645.991	0.0170435
646.069	0.0169907
646.147	0.0170497
646.225	0.0170026
646.303	0.0170206
646.381	0.0169741
646.459	0.0170174
646.538	0.0168935
646.616	0.0169859
646.694	0.0169768
646.772	0.0170486
646.850	0.0169725
646.928	0.0169168
647.006	0.0170577
647.084	0.0170123
647.163	0.0169916
647.241	0.0169599
647.319	0.0170196
647.397	0.0169556
647.475	0.0170478
647.553	0.0170108
647.631	0.0170564
647.709	0.0169579
647.788	0.0169920
647.866	0.0169454
647.944	0.0171139
648.022	0.0168933
648.100	0.0167655
648.178	0.0169627
648.256	0.0169885
648.334	0.0170565
648.413	0.0169672
648.491	0.0170368
648.569	0.0169955
648.647	0.0169198
648.725	0.0170022
648.803	0.0169376
648.881	0.0168708
648.959	0.0168439
649.038	0.0169833
649.116	0.0171162
649.194	0.0170605
649.272	0.0168604
649.350	0.0168624
649.428	0.0170257
649.506	0.0169653
649.584	0.0169047
649.663	0.0169585
649.741	0.0169151
649.819	0.0169596
649.897	0.0169736
649.975	0.0169857
650.053	0.0170181
650.131	0.0168855
650.209	0.0169401
650.288	0.0168905
650.366	0.0169563
650.444	0.0170065
650.522	0.0169437
650.600	0.0169898
650.678	0.0169576
650.756	0.0168697
650.834	0.0169186
650.913	0.0169515
650.991	0.0171133
651.069	0.0169506
651.147	0.0170624
651.225	0.0169403
651.303	0.0169281
651.381	0.0168457
651.459	0.0169609
651.538	0.0170437
651.616	0.0169509
651.694	0.0169141
651.772	0.0169762
651.850	0.0168998
651.928	0.0169461
652.006	0.0169083
652.084	0.0170023
652.163	0.0170572
652.241	0.0169540
652.319	0.0169080
652.397	0.0169188
652.475	0.0169724
652.553	0.0169009
652.631	0.0170492
652.709	0.0170104
652.788	0.0170397
652.866	0.0169086
652.944	0.0169068
653.022	0.0169460
653.100	0.0170802
653.178	0.0169703
653.256	0.0169652
653.334	0.0169473
653.413	0.0168777
653.491	0.0170038
653.569	0.0170355
653.647	0.0168877
653.725	0.0168974
653.803	0.0169363
653.881	0.0169813
653.959	0.0169633
654.038	0.0170368
654.116	0.0170202
654.194	0.0169623
654.272	0.0169749
654.350	0.0169301
654.428	0.0171307
654.506	0.0170483
654.584	0.0170078
654.663	0.0168981
654.741	0.0169510
654.819	0.0168506
654.897	0.0169663
654.975	0.0169952
655.053	0.0170661
655.131	0.0171085
655.209	0.0170647
655.288	0.0169720
655.366	0.0168410
655.444	0.0169529
655.522	0.0171595
655.600	0.0170156
655.678	0.0170589
655.756	0.0170782
655.834	0.0170148
655.913	0.0170409
655.991	0.0168934
656.069	0.0167991
656.147	0.0169890
656.225	0.0171066
656.303	0.0169864
656.381	0.0168748
656.459	0.0170028
656.538	0.0168953
656.616	0.0170486
656.694	0.0168925
656.772	0.0169279
656.850	0.0170018
656.928	0.0169605
657.006	0.0169393
657.084	0.0168620
657.163	0.0169254
657.241	0.0169193
657.319	0.0169070
657.397	0.0169320
657.475	0.0170190
657.553	0.0169727
657.631	0.0169374
657.709	0.0170097
657.788	0.0169003
657.866	0.0169975
657.944	0.0169822
658.022	0.0170570
658.100	0.0168791
658.178	0.0170042
658.256	0.0169396
658.334	0.0169765
658.413	0.0169843
658.491	0.0169562
658.569	0.0171167
658.647	0.0168954
658.725	0.0169053
658.803	0.0169843
658.881	0.0169729
658.959	0.0169674
659.038	0.0170240
659.116	0.0169640
659.194	0.0168446
659.272	0.0168453
659.350	0.0169061
659.428	0.0169051
659.506	0.0170072
659.584	0.0170270
659.663	0.0169476
659.741	0.0169788
659.819	0.0169245
659.897	0.0168951
659.975	0.0169490
660.053	0.0170244
660.131	0.0169085
660.209	0.0168355
660.288	0.0169203
660.366	0.0170363
660.444	0.0168963
660.522	0.0169198
660.600	0.0169507
660.678	0.0168542
660.756	0.0169900
660.834	0.0169827
660.913	0.0170177
660.991	0.0168788
661.069	0.0170312
661.147	0.0170560
661.225	0.0170192
661.303	0.0170964
661.381	0.0169584
661.459	0.0170706
661.538	0.0169753
661.616	0.0169437
661.694	0.0170240
661.772	0.0170747
661.850	0.0169673
661.928	0.0169303
662.006	0.0170296
662.084	0.0170975
662.163	0.0169950
662.241	0.0168600
662.319	0.0169730
662.397	0.0170970
662.475	0.0169892
662.553	0.0170000
662.631	0.0170348
662.709	0.0169355
662.788	0.0169378
662.866	0.0169315
662.944	0.0170967
663.022	0.0170109
663.100	0.0169241
663.178	0.0170094
663.256	0.0172195
663.334	0.0170528
663.413	0.0170029
663.491	0.0169760
663.569	0.0170706
663.647	0.0169061
663.725	0.0169438
663.803	0.0170538
663.881	0.0169871
663.959	0.0170806
664.038	0.0169341
664.116	0.0170570
664.194	0.0169873
664.272	0.0171022
664.350	0.0170508
664.428	0.0167928
664.506	0.0169792
664.584	0.0171322
664.663	0.0171008
664.741	0.0169634
664.819	0.0170760
664.897	0.0170177
664.975	0.0170045
665.053	0.0169958
665.131	0.0170087
665.209	0.0169396
665.288	0.0169808
665.366	0.0170515
665.444	0.0171220
665.522	0.0171217
665.600	0.0171571
665.678	0.0169926
665.756	0.0169844
665.834	0.0171091
665.913	0.0170947
665.991	0.0171695
666.069	0.0169884
666.147	0.0170103
666.225	0.0170000
666.303	0.0171109
666.381	0.0170501
666.459	0.0170350
666.538	0.0169740
666.616	0.0169699
666.694	0.0170025
666.772	0.0170078
666.850	0.0169919
666.928	0.0169498
667.006	0.0171217
667.084	0.0172122
667.163	0.0170624
667.241	0.0171257
667.319	0.0170788
667.397	0.0170575
667.475	0.0169286
667.553	0.0169131
667.631	0.0170818
667.709	0.0170486
667.788	0.0169827
667.866	0.0170621
667.944	0.0170879
668.022	0.0168865
668.100	0.0169871
668.178	0.0169473
668.256	0.0170771
668.334	0.0169903
668.413	0.0170306
668.491	0.0169366
668.569	0.0169365
668.647	0.0170229
668.725	0.0170602
668.803	0.0170025
668.881	0.0169504
668.959	0.0169444
669.038	0.0169833
669.116	0.0169778
669.194	0.0168941
669.272	0.0169945
669.350	0.0169951
669.428	0.0168805
669.506	0.0169070
669.584	0.0169826
669.663	0.0169019
669.741	0.0167907
669.819	0.0169090
669.897	0.0169715
669.975	0.0169469
670.053	0.0168923
670.131	0.0169920
670.209	0.0170226
670.288	0.0169325
670.366	0.0169920
670.444	0.0169457
670.522	0.0168934
670.600	0.0169562
670.678	0.0169019
670.756	0.0168815
670.834	0.0169088
670.913	0.0168573
670.991	0.0170419
671.069	0.0169738
671.147	0.0168984
671.225	0.0169481
671.303	0.0170292
671.381	0.0170216
671.459	0.0168858
671.538	0.0168148
671.616	0.0169063
671.694	0.0169635
671.772	0.0169797
671.850	0.0169186
671.928	0.0168641
672.006	0.0168786
672.084	0.0168504
672.163	0.0169759
672.241	0.0169458
672.319	0.0169241
672.397	0.0168301
672.475	0.0166766
672.553	0.0168600
672.631	0.0168978
672.709	0.0169056
672.788	0.0169115
672.866	0.0169528
672.944	0.0169802
673.022	0.0168300
673.100	0.0168726
673.178	0.0168495
673.256	0.0168483
673.334	0.0168666
673.413	0.0168546
673.491	0.0169991
673.569	0.0168111
673.647	0.0168285
673.725	0.0168357
673.803	0.0169931
673.881	0.0170018
673.959	0.0168300
674.038	0.0169319
674.116	0.0168732
674.194	0.0169848
674.272	0.0169078
674.350	0.0168805
674.428	0.0168384
674.506	0.0170441
674.584	0.0168604
674.663	0.0168502
674.741	0.0169429
674.819	0.0169942
674.897	0.0170706
674.975	0.0168790
675.053	0.0168449
675.131	0.0167844
675.209	0.0168459
675.288	0.0167518
675.366	0.0170399
675.444	0.0169752
675.522	0.0167565
675.600	0.0168401
675.678	0.0168759
675.756	0.0168018
675.834	0.0169259
675.913	0.0169016
675.991	0.0168115
676.069	0.0169511
676.147	0.0170337
676.225	0.0170291
676.303	0.0169108
676.381	0.0169975
676.459	0.0169649
676.538	0.0169748
676.616	0.0169026
676.694	0.0170225
676.772	0.0170613
676.850	0.0169441
676.928	0.0168566
677.006	0.0170153
677.084	0.0170308
677.163	0.0171452
677.241	0.0169779
677.319	0.0169637
677.397	0.0169784
677.475	0.0169476
677.553	0.0170414
677.631	0.0168851
677.709	0.0170057
677.788	0.0170535
677.866	0.0169929
677.944	0.0168750
678.022	0.0168493
678.100	0.0168875
678.178	0.0169456
678.256	0.0170209
678.334	0.0169855
678.413	0.0170787
678.491	0.0169180
678.569	0.0168172
678.647	0.0168629
678.725	0.0169705
678.803	0.0170244
678.881	0.0168238
678.959	0.0168037
679.038	0.0170041
679.116	0.0169972
679.194	0.0169335
679.272	0.0169749
679.350	0.0171513
679.428	0.0169725
679.506	0.0169472
679.584	0.0168770
679.663	0.0169031
679.741	0.0168365
679.819	0.0169335
679.897	0.0169608
679.975	0.0168129
680.053	0.0170444
680.131	0.0168250
680.209	0.0169880
680.288	0.0169576
680.366	0.0170126
680.444	0.0171130
680.522	0.0171723
680.600	0.0171625
680.678	0.0171229
680.756	0.0171138
680.834	0.0171767
680.913	0.0170609
680.991	0.0170236
681.069	0.0170809
681.147	0.0170279
681.225	0.0171208
681.303	0.0171547
681.381	0.0172169
681.459	0.0172820
681.538	0.0174849
681.616	0.0175106
681.694	0.0174938
681.772	0.0176013
681.850	0.0174014
681.928	0.0171929
682.006	0.0169722
682.084	0.0167509
682.163	0.0163644
682.241	0.0159425
682.319	0.0155539
682.397	0.0151192
682.475	0.0149172
682.553	0.0148112
682.631	0.0147685
682.709	0.0149849
682.788	0.0155151
682.866	0.0161938
682.944	0.0169450
683.022	0.0177736
683.100	0.0187431
683.178	0.0196461
683.256	0.0203021
683.334	0.0209398
683.413	0.0214661
683.491	0.0216018
683.569	0.0216061
683.647	0.0216223
683.725	0.0210399
683.803	0.0203214
683.881	0.0194491
683.959	0.0183705
684.038	0.0173430
684.116	0.0160049
684.194	0.0146938
684.272	0.0134877
684.350	0.0120842
684.428	0.0108987
684.506	0.00996948
684.584	0.00917007
684.663	0.00850288
684.741	0.00833183
684.819	0.00846199
684.897	0.00903969
684.975	0.0100381
685.053	0.0114768
685.131	0.0132188
685.209	0.0155045
685.288	0.0181060
685.366	0.0205707
685.444	0.0231608
685.522	0.0256550
685.600	0.0278047
685.678	0.0295905
685.756	0.0307362
685.834	0.0310891
685.913	0.0309856
685.991	0.0299682
686.069	0.0285654
686.147	0.0264924
686.225	0.0238322
686.303	0.0209245
686.381	0.0177506
686.459	0.0144460
686.538	0.0113476
686.616	0.00854630
686.694	0.00594276
686.772	0.00400826
686.850	0.00263145
686.928	0.00166306
687.006	0.00135773
687.084	0.00163513
687.163	0.00236656
687.241	0.00358383
687.319	0.00532578
687.397	0.00759972
687.475	0.0101833
687.553	0.0128895
687.631	0.0155332
687.709	0.0184209
687.788	0.0215127
687.866	0.0240523
687.944	0.0265667
688.022	0.0289243
688.100	0.0305417
688.178	0.0318336
688.256	0.0327257
688.334	0.0328835
688.413	0.0324112
688.491	0.0316302
688.569	0.0300671
688.647	0.0280700
688.725	0.0258351
688.803	0.0234507
688.881	0.0206358
688.959	0.0177049
689.038	0.0151848
689.116	0.0126321
689.194	0.0103638
689.272	0.00850441
689.350	0.00722275
689.428	0.00607162
689.506	0.00539299
689.584	0.00524292
689.663	0.00528954
689.741	0.00592552
689.819	0.00673172
689.897	0.00762527
689.975	0.00893791
690.053	0.0101413
690.131	0.0114405
690.209	0.0127391
690.288	0.0140932
690.366	0.0154443
690.444	0.0166977
690.522	0.0178975
690.600	0.0189706
690.678	0.0198948
690.756	0.0207291
690.834	0.0215155
690.913	0.0221754
690.991	0.0226929
691.069	0.0231460
691.147	0.0233342
691.225	0.0232391
691.303	0.0232893
691.381	0.0229083
691.459	0.0225241
691.538	0.0220241
691.616	0.0214816
691.694	0.0209982
691.772	0.0204637
691.850	0.0199737
691.928	0.0193121
692.006	0.0188712
692.084	0.0183012
692.163	0.0179863
692.241	0.0175117
692.319	0.0171289
692.397	0.0166602
692.475	0.0161197
692.553	0.0156391
692.631	0.0151938
692.709	0.0150257
692.788	0.0144253
692.866	0.0142965
692.944	0.0139924
693.022	0.0138378
693.100	0.0137799
693.178	0.0138132
693.256	0.0139786
693.334	0.0142282
693.413	0.0144180
693.491	0.0147683
693.569	0.0151077
693.647	0.0152900
693.725	0.0155967
693.803	0.0156903
693.881	0.0159110
693.959	0.0160398
694.038	0.0161354
694.116	0.0161765
694.194	0.0160734
694.272	0.0160012
694.350	0.0160119
694.428	0.0160529
694.506	0.0159228
694.584	0.0159281
694.663	0.0160510
694.741	0.0160320
694.819	0.0161944
694.897	0.0162391
694.975	0.0164543
695.053	0.0167031
695.131	0.0169927
695.209	0.0174381
695.288	0.0177353
695.366	0.0180355
695.444	0.0185126
695.522	0.0189996
695.600	0.0192269
695.678	0.0195719
695.756	0.0199552
695.834	0.0202488
695.913	0.0207327
695.991	0.0209753
696.069	0.0211042
696.147	0.0213042
696.225	0.0214154
696.303	0.0213495
696.381	0.0211314
696.459	0.0207724
696.538	0.0203784
696.616	0.0199279
696.694	0.0192490
696.772	0.0184631
696.850	0.0179329
696.928	0.0172894
697.006	0.0164257
697.084	0.0157437
697.163	0.0150619
697.241	0.0144888
697.319	0.0140813
697.397	0.0137366
697.475	0.0133537
697.553	0.0130277
697.631	0.0129520
697.709	0.0129813
697.788	0.0130231
697.866	0.0130961
697.944	0.0133724
698.022	0.0135992
698.100	0.0139057
698.178	0.0143193
698.256	0.0144833
698.334	0.0148639
698.413	0.0152270
698.491	0.0154628
698.569	0.0157845
698.647	0.0160603
698.725	0.0162717
698.803	0.0162456
698.881	0.0162563
698.959	0.0164407
699.038	0.0164815
699.116	0.0164359
699.194	0.0165505
699.272	0.0168306
699.350	0.0169916
699.428	0.0170272
699.506	0.0172489
699.584	0.0174141
699.663	0.0178043
699.741	0.0179112
699.819	0.0181850
699.897	0.0184518
699.975	0.0186437
700.053	0.0190238
700.131	0.0191164
700.209	0.0193895
700.288	0.0196320
700.366	0.0197723
700.444	0.0198716
700.522	0.0203307
700.600	0.0204150
700.678	0.0204954
700.756	0.0205167
700.834	0.0205254
700.913	0.0204343
700.991	0.0203361
701.069	0.0200179
701.147	0.0196085
701.225	0.0192394
701.303	0.0186530
701.381	0.0180775
701.459	0.0175489
701.538	0.0170204
701.616	0.0165441
701.694	0.0158718
701.772	0.0155155
701.850	0.0152061
701.928	0.0147016
702.006	0.0145488
702.084	0.0143424
702.163	0.0143083
702.241	0.0143449
702.319	0.0145076
702.397	0.0145169
702.475	0.0145847
702.553	0.0147464
702.631	0.0150014
702.709	0.0152615
702.788	0.0151553
702.866	0.0154134
702.944	0.0156494
703.022	0.0156258
703.100	0.0157240
703.178	0.0158229
703.256	0.0157133
703.334	0.0157990
703.413	0.0158585
703.491	0.0158495
703.569	0.0161349
703.647	0.0160886
703.725	0.0160069
703.803	0.0161646
703.881	0.0162915
703.959	0.0162724
704.038	0.0165871
704.116	0.0167803
704.194	0.0167742
704.272	0.0169678
704.350	0.0171077
704.428	0.0171375
704.506	0.0172421
704.584	0.0174879
704.663	0.0176308
704.741	0.0179092
704.819	0.0180997
704.897	0.0180003
704.975	0.0182128
705.053	0.0183629
705.131	0.0186340
705.209	0.0187585
705.288	0.0189167
705.366	0.0190704
705.444	0.0191404
705.522	0.0193875
705.600	0.0195667
705.678	0.0195425
705.756	0.0196327
705.834	0.0197200
705.913	0.0196887
705.991	0.0194573
706.069	0.0192803
706.147	0.0192224
706.225	0.0191177
706.303	0.0188519
706.381	0.0184183
706.459	0.0180350
706.538	0.0176575
706.616	0.0172400
706.694	0.0169545
706.772	0.0164651
706.850	0.0161435
706.928	0.0157643
707.006	0.0154062
707.084	0.0152578
707.163	0.0150111
707.241	0.0149351
707.319	0.0148598
707.397	0.0146874
707.475	0.0147960
707.553	0.0149757
707.631	0.0150616
707.709	0.0150748
707.788	0.0152536
707.866	0.0152339
707.944	0.0152989
708.022	0.0154385
708.100	0.0154267
708.178	0.0155180
708.256	0.0155112
708.334	0.0156806
708.413	0.0157571
708.491	0.0157492
708.569	0.0157158
708.647	0.0159361
708.725	0.0161301
708.803	0.0162592
708.881	0.0165189
708.959	0.0167397
709.038	0.0170249
709.116	0.0170902
709.194	0.0171275
709.272	0.0172289
709.350	0.0172712
709.428	0.0173861
709.506	0.0171934
709.584	0.0170897
709.663	0.0170051
709.741	0.0167822
709.819	0.0167011
709.897	0.0164993
709.975	0.0165007
710.053	0.0163011
710.131	0.0164621
710.209	0.0165073
710.288	0.0165257
710.366	0.0169872
710.444	0.0171738
710.522	0.0174582
710.600	0.0179155
710.678	0.0183601
710.756	0.0187222
710.834	0.0191902
710.913	0.0195502
710.991	0.0198670
711.069	0.0201522
711.147	0.0203120
711.225	0.0203965
711.303	0.0203700
711.381	0.0202368
711.459	0.0200018
711.538	0.0197823
711.616	0.0193790
711.694	0.0191735
711.772	0.0186072
711.850	0.0181939
711.928	0.0177047
712.006	0.0171587
712.084	0.0165665
712.163	0.0162000
712.241	0.0157882
712.319	0.0154366
712.397	0.0152732
712.475	0.0149574
712.553	0.0147271
712.631	0.0147050
712.709	0.0147570
712.788	0.0147511
712.866	0.0149548
712.944	0.0148751
713.022	0.0150547
713.100	0.0152765
713.178	0.0154549
713.256	0.0153948
713.334	0.0154153
713.413	0.0154181
713.491	0.0157887
713.569	0.0157529
713.647	0.0158585
713.725	0.0159586
713.803	0.0160842
713.881	0.0161495
713.959	0.0161296
714.038	0.0163564
714.116	0.0164867
714.194	0.0164934
714.272	0.0167732
714.350	0.0167615
714.428	0.0169404
714.506	0.0168148
714.584	0.0168520
714.663	0.0168812
714.741	0.0168085
714.819	0.0167806
714.897	0.0168448
714.975	0.0167902
715.053	0.0168723
715.131	0.0169323
715.209	0.0170074
715.288	0.0171824
715.366	0.0173671
715.444	0.0174989
715.522	0.0175940
715.600	0.0177219
715.678	0.0180132
715.756	0.0181212
715.834	0.0182324
715.913	0.0183763
715.991	0.0184945
716.069	0.0185573
716.147	0.0187067
716.225	0.0186370
716.303	0.0186002
716.381	0.0186584
716.459	0.0186034
716.538	0.0185631
716.616	0.0186055
716.694	0.0185438
716.772	0.0182001
716.850	0.0182959
716.928	0.0182465
717.006	0.0180331
717.084	0.0179246
717.163	0.0176804
717.241	0.0175100
717.319	0.0172923
717.397	0.0171746
717.475	0.0169022
717.553	0.0166882
717.631	0.0164350
717.709	0.0161815
717.788	0.0161584
717.866	0.0160197
717.944	0.0157758
718.022	0.0158657
718.100	0.0157728
718.178	0.0158135
718.256	0.0160062
718.334	0.0162070
718.413	0.0162045
718.491	0.0164588
718.569	0.0166778
718.647	0.0167458
718.725	0.0168632
718.803	0.0171135
718.881	0.0168415
718.959	0.0168700
719.038	0.0169726
719.116	0.0169970
719.194	0.0166466
719.272	0.0167095
719.350	0.0164531
719.428	0.0162656
719.506	0.0162065
719.584	0.0161059
719.663	0.0160389
719.741	0.0157587
719.819	0.0157878
719.897	0.0158728
719.975	0.0158253
720.053	0.0156634
720.131	0.0157365
720.209	0.0157948
720.288	0.0160088
720.366	0.0160722
720.444	0.0161375
720.522	0.0164004
720.600	0.0165592
720.678	0.0168418
720.756	0.0170551
720.834	0.0170957
720.913	0.0174384
720.991	0.0176537
721.069	0.0177914
721.147	0.0178043
721.225	0.0179601
721.303	0.0180653
721.381	0.0182611
721.459	0.0181196
721.538	0.0180784
721.616	0.0180247
721.694	0.0181954
721.772	0.0179630
721.850	0.0178637
721.928	0.0179429
722.006	0.0176010
722.084	0.0176950
722.163	0.0177016
722.241	0.0175097
722.319	0.0174391
722.397	0.0174567
722.475	0.0174200
722.553	0.0175762
722.631	0.0174403
722.709	0.0174863
722.788	0.0175537
722.866	0.0173692
722.944	0.0173868
723.022	0.0174677
723.100	0.0173817
723.178	0.0172269
723.256	0.0171604
723.334	0.0172558
723.413	0.0171304
723.491	0.0170644
723.569	0.0169881
723.647	0.0169615
723.725	0.0170045
723.803	0.0170725
723.881	0.0169493
723.959	0.0170581
724.038	0.0171261
724.116	0.0173813
724.194	0.0172924
724.272	0.0173255
724.350	0.0175497
724.428	0.0174998
724.506	0.0175130
724.584	0.0175387
724.663	0.0172622
724.741	0.0170939
724.819	0.0171861
724.897	0.0168588
724.975	0.0164008
725.053	0.0163137
725.131	0.0159532
725.209	0.0157269
725.288	0.0154729
725.366	0.0152558
725.444	0.0151200
725.522	0.0148579
725.600	0.0148897
725.678	0.0148627
725.756	0.0149954
725.834	0.0150883
725.913	0.0152701
725.991	0.0155875
726.069	0.0158691
726.147	0.0160690
726.225	0.0164230
726.303	0.0168225
726.381	0.0171955
726.459	0.0173528
726.538	0.0174265
726.616	0.0177558
726.694	0.0179625
726.772	0.0180152
726.850	0.0181059
726.928	0.0180812
727.006	0.0181418
727.084	0.0181149
727.163	0.0180178
727.241	0.0181209
727.319	0.0180743
727.397	0.0179610
727.475	0.0179853
727.553	0.0178638
727.631	0.0177330
727.709	0.0176656
727.788	0.0176109
727.866	0.0176078
727.944	0.0174953
728.022	0.0171577
728.100	0.0171033
728.178	0.0169497
728.256	0.0168687
728.334	0.0166125
728.413	0.0164021
728.491	0.0164759
728.569	0.0162830
728.647	0.0164663
728.725	0.0164827
728.803	0.0164205
728.881	0.0165792
728.959	0.0166488
729.038	0.0166998
729.116	0.0168890
729.194	0.0169765
729.272	0.0169654
729.350	0.0171884
729.428	0.0173978
729.506	0.0174927
729.584	0.0175850
729.663	0.0175932
729.741	0.0175770
729.819	0.0178608
729.897	0.0179008
729.975	0.0177766
730.053	0.0177954
730.131	0.0177287
730.209	0.0177154
730.288	0.0176021
730.366	0.0175645
730.444	0.0174243
730.522	0.0174107
730.600	0.0172809
730.678	0.0170831
730.756	0.0170664
730.834	0.0170233
730.913	0.0167651
730.991	0.0167741
731.069	0.0165220
731.147	0.0165132
731.225	0.0163577
731.303	0.0164289
731.381	0.0162506
731.459	0.0162373
731.538	0.0160584
731.616	0.0162292
731.694	0.0161823
731.772	0.0162315
731.850	0.0161086
731.928	0.0161339
732.006	0.0162842
732.084	0.0162094
732.163	0.0162822
732.241	0.0163323
732.319	0.0164391
732.397	0.0165759
732.475	0.0167355
732.553	0.0168296
732.631	0.0168219
732.709	0.0169440
732.788	0.0170914
732.866	0.0169133
732.944	0.0170860
733.022	0.0169072
733.100	0.0170021
733.178	0.0170719
733.256	0.0169405
733.334	0.0168046
733.413	0.0167038
733.491	0.0167336
733.569	0.0166302
733.647	0.0167708
733.725	0.0166118
733.803	0.0166605
733.881	0.0166402
733.959	0.0165746
734.038	0.0166910
734.116	0.0166074
734.194	0.0168745
734.272	0.0168269
734.350	0.0167268
734.428	0.0170038
734.506	0.0171369
734.584	0.0172111
734.663	0.0172871
734.741	0.0174877
734.819	0.0176041
734.897	0.0176183
734.975	0.0176749
735.053	0.0177967
735.131	0.0179839
735.209	0.0179485
735.288	0.0180046
735.366	0.0179424
735.444	0.0179298
735.522	0.0180013
735.600	0.0178224
735.678	0.0175470
735.756	0.0175735
735.834	0.0174523
735.913	0.0173396
735.991	0.0172071
736.069	0.0170020
736.147	0.0170051
736.225	0.0169492
736.303	0.0169491
736.381	0.0168257
736.459	0.0167704
736.538	0.0169025
736.616	0.0167281
736.694	0.0167215
736.772	0.0167669
736.850	0.0168666
736.928	0.0169193
737.006	0.0169102
737.084	0.0169501
737.163	0.0170159
737.241	0.0170255
737.319	0.0169914
737.397	0.0167907
737.475	0.0168560
737.553	0.0167678
737.631	0.0167152
737.709	0.0166040
737.788	0.0167295
737.866	0.0164552
737.944	0.0166659
738.022	0.0166256
738.100	0.0164442
738.178	0.0164857
738.256	0.0164167
738.334	0.0165161
738.413	0.0164529
738.491	0.0163618
738.569	0.0163228
738.647	0.0162834
738.725	0.0164529
738.803	0.0163152
738.881	0.0163167
738.959	0.0163574
739.038	0.0163963
739.116	0.0164780
739.194	0.0163221
739.272	0.0162640
739.350	0.0164505
739.428	0.0166666
739.506	0.0167570
739.584	0.0167430
739.663	0.0166876
739.741	0.0168298
739.819	0.0166853
739.897	0.0168460
739.975	0.0168535
740.053	0.0169493
740.131	0.0170169
740.209	0.0171008
740.288	0.0171345
740.366	0.0171632
740.444	0.0172726
740.522	0.0174337
740.600	0.0176974
740.678	0.0176869
740.756	0.0179160
740.834	0.0179958
740.913	0.0180737
740.991	0.0180125
741.069	0.0181718
741.147	0.0181674
741.225	0.0181143
741.303	0.0180769
741.381	0.0178836
741.459	0.0178535
741.538	0.0177961
741.616	0.0176122
741.694	0.0175052
741.772	0.0173116
741.850	0.0171781
741.928	0.0170844
742.006	0.0168870
742.084	0.0168368
742.163	0.0167451
742.241	0.0165514
742.319	0.0165109
742.397	0.0164424
742.475	0.0163733
742.553	0.0163882
742.631	0.0164751
742.709	0.0165400
742.788	0.0162971
742.866	0.0163882
742.944	0.0165315
743.022	0.0164983
743.100	0.0166356
743.178	0.0168575
743.256	0.0167828
743.334	0.0170652
743.413	0.0172131
743.491	0.0171710
743.569	0.0172778
743.647	0.0174432
743.725	0.0174473
743.803	0.0174503
743.881	0.0174376
743.959	0.0176151
744.038	0.0174490
744.116	0.0175705
744.194	0.0174153
744.272	0.0175404
744.350	0.0174477
744.428	0.0173663
744.506	0.0173772
744.584	0.0171967
744.663	0.0169764
744.741	0.0169972
744.819	0.0169767
744.897	0.0166692
744.975	0.0167754
745.053	0.0164939
745.131	0.0164762
745.209	0.0163448
745.288	0.0162430
745.366	0.0163454
745.444	0.0162566
745.522	0.0163139
745.600	0.0164028
745.678	0.0164002
745.756	0.0164449
745.834	0.0165224
745.913	0.0165656
745.991	0.0165764
746.069	0.0167447
746.147	0.0166022
746.225	0.0166110
746.303	0.0166763
746.381	0.0168372
746.459	0.0168137
746.538	0.0167506
746.616	0.0168279
746.694	0.0168259
746.772	0.0169260
746.850	0.0169122
746.928	0.0168249
747.006	0.0169711
747.084	0.0169236
747.163	0.0170096
747.241	0.0170116
747.319	0.0170599
747.397	0.0171519
747.475	0.0172463
747.553	0.0172756
747.631	0.0173548
747.709	0.0173686
747.788	0.0172753
747.866	0.0172420
747.944	0.0173739
748.022	0.0172149
748.100	0.0171192
748.178	0.0171343
748.256	0.0171430
748.334	0.0171080
748.413	0.0169485
748.491	0.0170829
748.569	0.0170647
748.647	0.0171067
748.725	0.0171715
748.803	0.0171007
748.881	0.0170322
748.959	0.0169453
749.038	0.0171156
749.116	0.0171763
749.194	0.0170938
749.272	0.0171685
749.350	0.0172128
749.428	0.0172727
749.506	0.0173259
749.584	0.0173965
749.663	0.0171753
749.741	0.0171423
749.819	0.0171709
749.897	0.0172261
749.975	0.0171861
750.053	0.0169257
750.131	0.0170946
750.209	0.0168768
750.288	0.0169424
750.366	0.0167388
750.444	0.0167742
750.522	0.0167578
750.600	0.0167179
750.678	0.0168559
750.756	0.0168047
750.834	0.0167892
750.913	0.0168467
750.991	0.0170016
751.069	0.0169971
751.147	0.0170528
751.225	0.0169463
751.303	0.0171982
751.381	0.0171745
751.459	0.0170812
751.538	0.0172213
751.616	0.0172017
751.694	0.0171237
751.772	0.0171966
751.850	0.0171872
751.928	0.0171729
752.006	0.0171047
752.084	0.0169682
752.163	0.0170076
752.241	0.0169712
752.319	0.0168836
752.397	0.0168297
752.475	0.0169454
752.553	0.0168405
752.631	0.0168788
752.709	0.0167773
752.788	0.0165965
752.866	0.0166347
752.944	0.0166775
753.022	0.0165554
753.100	0.0165859
753.178	0.0166019
753.256	0.0164237
753.334	0.0165870
753.413	0.0165887
753.491	0.0166235
753.569	0.0164629
753.647	0.0165973
753.725	0.0167216
753.803	0.0168054
753.881	0.0167671
753.959	0.0168695
754.038	0.0169248
754.116	0.0169582
754.194	0.0169589
754.272	0.0171368
754.350	0.0172035
754.428	0.0172626
754.506	0.0173123
754.584	0.0173530
754.663	0.0172583
754.741	0.0171641
754.819	0.0173293
754.897	0.0175326
754.975	0.0172811
755.053	0.0173906
755.131	0.0173819
755.209	0.0174491
755.288	0.0171844
755.366	0.0174339
755.444	0.0173174
755.522	0.0172459
755.600	0.0172242
755.678	0.0171204
755.756	0.0171474
755.834	0.0171040
755.913	0.0170364
755.991	0.0170419
756.069	0.0170075
756.147	0.0170872
756.225	0.0170035
756.303	0.0168710
756.381	0.0170392
756.459	0.0171029
756.538	0.0170638
756.616	0.0170365
756.694	0.0170703
756.772	0.0170785
756.850	0.0171511
756.928	0.0170218
757.006	0.0171931
757.084	0.0170609
757.163	0.0171455
757.241	0.0171844
757.319	0.0172053
757.397	0.0170352
757.475	0.0170868
757.553	0.0171124
757.631	0.0169737
757.709	0.0170023
757.788	0.0170898
757.866	0.0170960
757.944	0.0171259
758.022	0.0170827
758.100	0.0170271
758.178	0.0170833
758.256	0.0170822
758.334	0.0169590
758.413	0.0170862
758.491	0.0171179
758.569	0.0171259
758.647	0.0170986
758.725	0.0171136
758.803	0.0170862
758.881	0.0170677
758.959	0.0170594
759.038	0.0170433
759.116	0.0169656
759.194	0.0171468
759.272	0.0169457
759.350	0.0168686
759.428	0.0170205
759.506	0.0168301
759.584	0.0167329
759.663	0.0167056
759.741	0.0167525
759.819	0.0166599
759.897	0.0166396
759.975	0.0166676
760.053	0.0166525
760.131	0.0166273
760.209	0.0165027
760.288	0.0164951
760.366	0.0166567
760.444	0.0164426
760.522	0.0165455
760.600	0.0165600
760.678	0.0165314
760.756	0.0166602
760.834	0.0166473
760.913	0.0166422
760.991	0.0167289
761.069	0.0167619
761.147	0.0169389
761.225	0.0168152
761.303	0.0169612
761.381	0.0170805
761.459	0.0171336
761.538	0.0170411
761.616	0.0172736
761.694	0.0174257
761.772	0.0173911
761.850	0.0173672
761.928	0.0174361
762.006	0.0174693
762.084	0.0176138
762.163	0.0175634
762.241	0.0174357
762.319	0.0175119
762.397	0.0175578
762.475	0.0173573
762.553	0.0173360
762.631	0.0173291
762.709	0.0172455
762.788	0.0173158
762.866	0.0172539
762.944	0.0173071
763.022	0.0171523
763.100	0.0170328
763.178	0.0171468
763.256	0.0170914
763.334	0.0170127
763.413	0.0169993
763.491	0.0169155
763.569	0.0169402
763.647	0.0168349
763.725	0.0169231
763.803	0.0170719
763.881	0.0169122
763.959	0.0169438
764.038	0.0170067
764.116	0.0169817
764.194	0.0169062
764.272	0.0169326
764.350	0.0170919
764.428	0.0171279
764.506	0.0171805
764.584	0.0171963
764.663	0.0171200
764.741	0.0171780
764.819	0.0171921
764.897	0.0171479
764.975	0.0171317
765.053	0.0172585
765.131	0.0171426
765.209	0.0173554
765.288	0.0171271
765.366	0.0170611
765.444	0.0169728
765.522	0.0171275
765.600	0.0170050
765.678	0.0170436
765.756	0.0170117
765.834	0.0169419
765.913	0.0168332
765.991	0.0168877
766.069	0.0168218
766.147	0.0168470
766.225	0.0167650
766.303	0.0167124
766.381	0.0167266
766.459	0.0166291
766.538	0.0165632
766.616	0.0166322
766.694	0.0167106
766.772	0.0166442
766.850	0.0164879
766.928	0.0166161
767.006	0.0165742
767.084	0.0165788
767.163	0.0165695
767.241	0.0166048
767.319	0.0167399
767.397	0.0167350
767.475	0.0168983
767.553	0.0168680
767.631	0.0167879
767.709	0.0168224
767.788	0.0169202
767.866	0.0168970
767.944	0.0168630
768.022	0.0168277
768.100	0.0169113
768.178	0.0168303
768.256	0.0168472
768.334	0.0168611
768.413	0.0169579
768.491	0.0168568
768.569	0.0169383
768.647	0.0171017
768.725	0.0171274
768.803	0.0172040
768.881	0.0171888
768.959	0.0173402
769.038	0.0172946
769.116	0.0172479
769.194	0.0172720
769.272	0.0173801
769.350	0.0173053
769.428	0.0173665
769.506	0.0172234
769.584	0.0172408
769.663	0.0173155
769.741	0.0172189
769.819	0.0172936
769.897	0.0172076
769.975	0.0170848
770.053	0.0171591
770.131	0.0170193
770.209	0.0170618
770.288	0.0170394
770.366	0.0171288
770.444	0.0169437
770.522	0.0170318
770.600	0.0169567
770.678	0.0169431
770.756	0.0169580
770.834	0.0168503
770.913	0.0170988
770.991	0.0169553
771.069	0.0169199
771.147	0.0170103
771.225	0.0168925
771.303	0.0169083
771.381	0.0169985
771.459	0.0169795
771.538	0.0169644
771.616	0.0169958
771.694	0.0170259
771.772	0.0170429
771.850	0.0169566
771.928	0.0168919
772.006	0.0169268
772.084	0.0169900
772.163	0.0168985
772.241	0.0169624
772.319	0.0169721
772.397	0.0169191
772.475	0.0169052
772.553	0.0170202
772.631	0.0171810
772.709	0.0170322
772.788	0.0170564
772.866	0.0170992
772.944	0.0170016
773.022	0.0170191
773.100	0.0171727
773.178	0.0172459
773.256	0.0170296
773.334	0.0170240
773.413	0.0170023
773.491	0.0170092
773.569	0.0170692
773.647	0.0169742
773.725	0.0170340
773.803	0.0171532
773.881	0.0170271
773.959	0.0168359
774.038	0.0167657
774.116	0.0169989
774.194	0.0168586
774.272	0.0169710
774.350	0.0168175
774.428	0.0168729
774.506	0.0167445
774.584	0.0168244
774.663	0.0168141
774.741	0.0166763
774.819	0.0166879
774.897	0.0166795
774.975	0.0167466
775.053	0.0167715
775.131	0.0167165
775.209	0.0166975
775.288	0.0167536
775.366	0.0166706
775.444	0.0165755
775.522	0.0167013
775.600	0.0166936
775.678	0.0165968
775.756	0.0164925
775.834	0.0168233
775.913	0.0167222
775.991	0.0167094
776.069	0.0166879
776.147	0.0166932
776.225	0.0168112
776.303	0.0168995
776.381	0.0167252
776.459	0.0168536
776.538	0.0170136
776.616	0.0171079
776.694	0.0170353
776.772	0.0171420
776.850	0.0172247
776.928	0.0172781
777.006	0.0173151
777.084	0.0174480
777.163	0.0174695
777.241	0.0174341
777.319	0.0175417
777.397	0.0175218
777.475	0.0174934
777.553	0.0174801
777.631	0.0175640
777.709	0.0175689
777.788	0.0177059
777.866	0.0175529
777.944	0.0174932
778.022	0.0174697
778.100	0.0173871
778.178	0.0174055
778.256	0.0173798
778.334	0.0172627
778.413	0.0171554
778.491	0.0171877
778.569	0.0171471
778.647	0.0170404
778.725	0.0170284
778.803	0.0168796
778.881	0.0168193
778.959	0.0168121
779.038	0.0169339
779.116	0.0168863
779.194	0.0167736
779.272	0.0169325
779.350	0.0168990
779.428	0.0169392
779.506	0.0170432
779.584	0.0170488
779.663	0.0169913
779.741	0.0171526
779.819	0.0173311
779.897	0.0172869
779.975	0.0172367
780.053	0.0171311
780.131	0.0171286
780.209	0.0172034
780.288	0.0169913
780.366	0.0171722
780.444	0.0168642
780.522	0.0167615
780.600	0.0168314
780.678	0.0167100
780.756	0.0166621
780.834	0.0163793
780.913	0.0163569
780.991	0.0163526
781.069	0.0164066
781.147	0.0162091
781.225	0.0163713
781.303	0.0164193
781.381	0.0164833
781.459	0.0166357
781.538	0.0167336
781.616	0.0169567
781.694	0.0169688
781.772	0.0169749
781.850	0.0172939
781.928	0.0174331
782.006	0.0175948
782.084	0.0177628
782.163	0.0175280
782.241	0.0175442
782.319	0.0176687
782.397	0.0174957
782.475	0.0174371
782.553	0.0171490
782.631	0.0169057
782.709	0.0168434
782.788	0.0167108
782.866	0.0164414
782.944	0.0163174
783.022	0.0160459
783.100	0.0160947
783.178	0.0160220
783.256	0.0161189
783.334	0.0161280
783.413	0.0160860
783.491	0.0161008
783.569	0.0162986
783.647	0.0164629
783.725	0.0164434
783.803	0.0167880
783.881	0.0168437
783.959	0.0170308
784.038	0.0171349
784.116	0.0173273
784.194	0.0176084
784.272	0.0175954
784.350	0.0178181
784.428	0.0178120
784.506	0.0180065
784.584	0.0181100
784.663	0.0181385
784.741	0.0180656
784.819	0.0180457
784.897	0.0180701
784.975	0.0178822
785.053	0.0178134
785.131	0.0175711
785.209	0.0175879
785.288	0.0176427
785.366	0.0173733
785.444	0.0171993
785.522	0.0171001
785.600	0.0171065
785.678	0.0170110
785.756	0.0169238
785.834	0.0169581
785.913	0.0168572
785.991	0.0168649
786.069	0.0168902
786.147	0.0167896
786.225	0.0167762
786.303	0.0168758
786.381	0.0167954
786.459	0.0168338
786.538	0.0166784
786.616	0.0167985
786.694	0.0167025
786.772	0.0166101
786.850	0.0166130
786.928	0.0166336
787.006	0.0166801
787.084	0.0164944
787.163	0.0165356
787.241	0.0166670
787.319	0.0167117
787.397	0.0166531
787.475	0.0167400
787.553	0.0168453
787.631	0.0167292
787.709	0.0169630
787.788	0.0170639
787.866	0.0170056
787.944	0.0172350
788.022	0.0172561
788.100	0.0172914
788.178	0.0173908
788.256	0.0175430
788.334	0.0174455
788.413	0.0173803
788.491	0.0174256
788.569	0.0175768
788.647	0.0174598
788.725	0.0175051
788.803	0.0173363
788.881	0.0173037
788.959	0.0172834
789.038	0.0172488
789.116	0.0171876
789.194	0.0170539
789.272	0.0169227
789.350	0.0166295
789.428	0.0166628
789.506	0.0164961
789.584	0.0164658
789.663	0.0164747
789.741	0.0162041
789.819	0.0163364
789.897	0.0163589
789.975	0.0161655
790.053	0.0162564
790.131	0.0162147
790.209	0.0162963
790.288	0.0162939
790.366	0.0161141
790.444	0.0163563
790.522	0.0162897
790.600	0.0164171
790.678	0.0165000
790.756	0.0166579
790.834	0.0167102
790.913	0.0167808
790.991	0.0168587
791.069	0.0170039
791.147	0.0171922
791.225	0.0170702
791.303	0.0172154
791.381	0.0174146
791.459	0.0175320
791.538	0.0176256
791.616	0.0177660
791.694	0.0176740
791.772	0.0177427
791.850	0.0177551
791.928	0.0177370
792.006	0.0178921
792.084	0.0180067
792.163	0.0177818
792.241	0.0176822
792.319	0.0176650
792.397	0.0176138
792.475	0.0176022
792.553	0.0174456
792.631	0.0173748
792.709	0.0173460
792.788	0.0173350
792.866	0.0171238
792.944	0.0169846
793.022	0.0170152
793.100	0.0169003
793.178	0.0167959
793.256	0.0167699
793.334	0.0166302
793.413	0.0167259
793.491	0.0163667
793.569	0.0165401
793.647	0.0166871
793.725	0.0164946
793.803	0.0165850
793.881	0.0165088
793.959	0.0166052
794.038	0.0165402
794.116	0.0166819
794.194	0.0166382
794.272	0.0166541
794.350	0.0167299
794.428	0.0166753
794.506	0.0167975
794.584	0.0168576
794.663	0.0167758
794.741	0.0168407
794.819	0.0168530
794.897	0.0167898
794.975	0.0169716
795.053	0.0169559
795.131	0.0169160
795.209	0.0169710
795.288	0.0171008
795.366	0.0171320
795.444	0.0171855
795.522	0.0171207
795.600	0.0170757
795.678	0.0172118
795.756	0.0171509
795.834	0.0171268
795.913	0.0171265
795.991	0.0169938
796.069	0.0170958
796.147	0.0170434
796.225	0.0170773
796.303	0.0171172
796.381	0.0169804
796.459	0.0170213
796.538	0.0170930
796.616	0.0170810
796.694	0.0172680
796.772	0.0169818
796.850	0.0170338
796.928	0.0171603
797.006	0.0171085
797.084	0.0171051
797.163	0.0172747
797.241	0.0171651
797.319	0.0172514
797.397	0.0170567
797.475	0.0171085
797.553	0.0170928
797.631	0.0170706
797.709	0.0170517
797.788	0.0169822
797.866	0.0169669
797.944	0.0169686
798.022	0.0169481
798.100	0.0167382
798.178	0.0168185
798.256	0.0166640
798.334	0.0167590
798.413	0.0166422
798.491	0.0168040
798.569	0.0166666
798.647	0.0166107
798.725	0.0165403
798.803	0.0166319
798.881	0.0166727
798.959	0.0165061
799.038	0.0167833
799.116	0.0167850
799.194	0.0167878
799.272	0.0168059
799.350	0.0169129
799.428	0.0169433
799.506	0.0168512
799.584	0.0170561
799.663	0.0170084
799.741	0.0170983
799.819	0.0171085
799.897	0.0170113
799.975	0.0171933
800.053	0.0171304
800.131	0.0171381
800.209	0.0171276
800.288	0.0170735
800.366	0.0171869
800.444	0.0172295
800.522	0.0172316
800.600	0.0170245
800.678	0.0170264
800.756	0.0171481
800.834	0.0172383
800.913	0.0170324
800.991	0.0170780
801.069	0.0172054
801.147	0.0172046
801.225	0.0172282
801.303	0.0172063
801.381	0.0172882
801.459	0.0172192
801.538	0.0171806
801.616	0.0173834
801.694	0.0172613
801.772	0.0174912
801.850	0.0173632
801.928	0.0172594
802.006	0.0173719
802.084	0.0172875
802.163	0.0171961
802.241	0.0172923
802.319	0.0171962
802.397	0.0172949
802.475	0.0171918
802.553	0.0170839
802.631	0.0172221
802.709	0.0171064
802.788	0.0169757
802.866	0.0168644
802.944	0.0167851
803.022	0.0168331
803.100	0.0168422
803.178	0.0167114
803.256	0.0167892
803.334	0.0167975
803.413	0.0167031
803.491	0.0165306
803.569	0.0165395
803.647	0.0165320
803.725	0.0166178
803.803	0.0164780
803.881	0.0166406
803.959	0.0164784
804.038	0.0164605
804.116	0.0164480
804.194	0.0164557
804.272	0.0164029
804.350	0.0165109
804.428	0.0164128
804.506	0.0164378
804.584	0.0164405
804.663	0.0164381
804.741	0.0164645
804.819	0.0165310
804.897	0.0164819
804.975	0.0165123
805.053	0.0165256
805.131	0.0164970
805.209	0.0165088
805.288	0.0167023
805.366	0.0165925
805.444	0.0166650
805.522	0.0169051
805.600	0.0168318
805.678	0.0168761
805.756	0.0169413
805.834	0.0169646
805.913	0.0170112
805.991	0.0170187
806.069	0.0171133
806.147	0.0172787
806.225	0.0173224
806.303	0.0173711
806.381	0.0174908
806.459	0.0175284
806.538	0.0176303
806.616	0.0176447
806.694	0.0174973
806.772	0.0176299
806.850	0.0176028
806.928	0.0175999
807.006	0.0177457
807.084	0.0175892
807.163	0.0175924
807.241	0.0175932
807.319	0.0176485
807.397	0.0175697
807.475	0.0176054
807.553	0.0175283
807.631	0.0174689
807.709	0.0173120
807.788	0.0175358
807.866	0.0173442
807.944	0.0172675
808.022	0.0173564
808.100	0.0171989
808.178	0.0170827
808.256	0.0171275
808.334	0.0171175
808.413	0.0170669
808.491	0.0170236
808.569	0.0170288
808.647	0.0168627
808.725	0.0169441
808.803	0.0168792
808.881	0.0168115
808.959	0.0168127
809.038	0.0167408
809.116	0.0168722
809.194	0.0167964
809.272	0.0166159
809.350	0.0166724
809.428	0.0167064
809.506	0.0166962
809.584	0.0167750
809.663	0.0167043
809.741	0.0167225
809.819	0.0167072
809.897	0.0166078
809.975	0.0165521
810.053	0.0167917
810.131	0.0167534
810.209	0.0166208
810.288	0.0166240
810.366	0.0166202
810.444	0.0167565
810.522	0.0167430
810.600	0.0166588
810.678	0.0165987
810.756	0.0166962
810.834	0.0166605
810.913	0.0167970
810.991	0.0167799
811.069	0.0167343
811.147	0.0168206
811.225	0.0167596
811.303	0.0167451
811.381	0.0166712
811.459	0.0167435
811.538	0.0168523
811.616	0.0168898
811.694	0.0168040
811.772	0.0168894
811.850	0.0168657
811.928	0.0168774
812.006	0.0170151
812.084	0.0171386
812.163	0.0170718
812.241	0.0170661
812.319	0.0171677
812.397	0.0172198
812.475	0.0172009
812.553	0.0173267
812.631	0.0173362
812.709	0.0172998
812.788	0.0173508
812.866	0.0174725
812.944	0.0173196
813.022	0.0172895
813.100	0.0171982
813.178	0.0171306
813.256	0.0170011
813.334	0.0169055
813.413	0.0168946
813.491	0.0170941
813.569	0.0168456
813.647	0.0168658
813.725	0.0166907
813.803	0.0167467
813.881	0.0168154
813.959	0.0169190
814.038	0.0169695
814.116	0.0169050
814.194	0.0167637
814.272	0.0169608
814.350	0.0170955
814.428	0.0171847
814.506	0.0171111
814.584	0.0172388
814.663	0.0173024
814.741	0.0173532
814.819	0.0173620
814.897	0.0175701
814.975	0.0174595
815.053	0.0174719
815.131	0.0175277
815.209	0.0174699
815.288	0.0175394
815.366	0.0173341
815.444	0.0171916
815.522	0.0173532
815.600	0.0173145
815.678	0.0171458
815.756	0.0172018
815.834	0.0170139
815.913	0.0171401
815.991	0.0169396
816.069	0.0168507
816.147	0.0167126
816.225	0.0166827
816.303	0.0167268
816.381	0.0166975
816.459	0.0166151
816.538	0.0165704
816.616	0.0166261
816.694	0.0164092
816.772	0.0165987
816.850	0.0165842
816.928	0.0166807
817.006	0.0166457
817.084	0.0165944
817.163	0.0167120
817.241	0.0167404
817.319	0.0167017
817.397	0.0168694
817.475	0.0170498
817.553	0.0169437
817.631	0.0170277
817.709	0.0171935
817.788	0.0171947
817.866	0.0172550
817.944	0.0172932
818.022	0.0173058
818.100	0.0172994
818.178	0.0173298
818.256	0.0171635
818.334	0.0171020
818.413	0.0173109
818.491	0.0171284
818.569	0.0172044
818.647	0.0171869
818.725	0.0171535
818.803	0.0168720
818.881	0.0170346
818.959	0.0169975
819.038	0.0168497
819.116	0.0169185
819.194	0.0168786
819.272	0.0167786
819.350	0.0167759
819.428	0.0166634
819.506	0.0168426
819.584	0.0168340
819.663	0.0168090
819.741	0.0167832
819.819	0.0167553
819.897	0.0168209
819.975	0.0168011
820.053	0.0168582
820.131	0.0169128
820.209	0.0169650
820.288	0.0170268
820.366	0.0171710
820.444	0.0171440
820.522	0.0171815
820.600	0.0173096
820.678	0.0173078
820.756	0.0171276
820.834	0.0174152
820.913	0.0172640
820.991	0.0173717
821.069	0.0174248
821.147	0.0174597
821.225	0.0172543
821.303	0.0173484
821.381	0.0174322
821.459	0.0171507
821.538	0.0172392
821.616	0.0172019
821.694	0.0170445
821.772	0.0170180
821.850	0.0169685
821.928	0.0169524
822.006	0.0168934
822.084	0.0167199
822.163	0.0165710
822.241	0.0165940
822.319	0.0165495
822.397	0.0165104
822.475	0.0163528
822.553	0.0163489
822.631	0.0163346
822.709	0.0163208
822.788	0.0164870
822.866	0.0164881
822.944	0.0165979
823.022	0.0166148
823.100	0.0166194
823.178	0.0167478
823.256	0.0168359
823.334	0.0170086
823.413	0.0170131
823.491	0.0172950
823.569	0.0172784
823.647	0.0174461
823.725	0.0175816
823.803	0.0175932
823.881	0.0175619
823.959	0.0177800
824.038	0.0177226
824.116	0.0178533
824.194	0.0179072
824.272	0.0177637
824.350	0.0178156
824.428	0.0177320
824.506	0.0176528
824.584	0.0174325
824.663	0.0174504
824.741	0.0174789
824.819	0.0173053
824.897	0.0172261
824.975	0.0171361
825.053	0.0170741
825.131	0.0169061
825.209	0.0167351
825.288	0.0167108
825.366	0.0166810
825.444	0.0167852
825.522	0.0166764
825.600	0.0166713
825.678	0.0165606
825.756	0.0166214
825.834	0.0167855
825.913	0.0168298
825.991	0.0167048
826.069	0.0166487
826.147	0.0167037
826.225	0.0168532
826.303	0.0169278
826.381	0.0168638
826.459	0.0169433
826.538	0.0170428
826.616	0.0169252
826.694	0.0170622
826.772	0.0170995
826.850	0.0171138
826.928	0.0171101
827.006	0.0171720
827.084	0.0171545
827.163	0.0170930
827.241	0.0171418
827.319	0.0170908
827.397	0.0170792
827.475	0.0171178
827.553	0.0170844
827.631	0.0169956
827.709	0.0170962
827.788	0.0169948
827.866	0.0169686
827.944	0.0170899
828.022	0.0171693
828.100	0.0170954
828.178	0.0170019
828.256	0.0170303
828.334	0.0170663
828.413	0.0171165
828.491	0.0170970
828.569	0.0170747
828.647	0.0171242
828.725	0.0170625
828.803	0.0169825
828.881	0.0169789
828.959	0.0171222
829.038	0.0169230
829.116	0.0169957
829.194	0.0169900
829.272	0.0170016
829.350	0.0168309
829.428	0.0167854
829.506	0.0166882
829.584	0.0167102
829.663	0.0166378
829.741	0.0166111
829.819	0.0166216
829.897	0.0167348
829.975	0.0166762
830.053	0.0166893
830.131	0.0167370
830.209	0.0168250
830.288	0.0167311
830.366	0.0169919
830.444	0.0169138
830.522	0.0169100
830.600	0.0169326
830.678	0.0171470
830.756	0.0169846
830.834	0.0171432
830.913	0.0171933
830.991	0.0172321
831.069	0.0172446
831.147	0.0172906
831.225	0.0173145
831.303	0.0173404
831.381	0.0174329
831.459	0.0174081
831.538	0.0172607
831.616	0.0172565
831.694	0.0173222
831.772	0.0173602
831.850	0.0171539
831.928	0.0171701
832.006	0.0170943
832.084	0.0171682
832.163	0.0171346
832.241	0.0170782
832.319	0.0169688
832.397	0.0170257
832.475	0.0171011
832.553	0.0170850
832.631	0.0171866
832.709	0.0171209
832.788	0.0168948
832.866	0.0170801
832.944	0.0170251
833.022	0.0170464
833.100	0.0169436
833.178	0.0169631
833.256	0.0168063
833.334	0.0169576
833.413	0.0168937
833.491	0.0168002
833.569	0.0168272
833.647	0.0168294
833.725	0.0168272
833.803	0.0168588
833.881	0.0168768
833.959	0.0166694
834.038	0.0167126
834.116	0.0169171
834.194	0.0169000
834.272	0.0169047
834.350	0.0168551
834.428	0.0168147
834.506	0.0168181
834.584	0.0169783
834.663	0.0168559
834.741	0.0168591
834.819	0.0168095
834.897	0.0168277
834.975	0.0168545
835.053	0.0169340
835.131	0.0168250
835.209	0.0168437
835.288	0.0166643
835.366	0.0167858
835.444	0.0168034
835.522	0.0167537
835.600	0.0166793
835.678	0.0167262
835.756	0.0166907
835.834	0.0167168
835.913	0.0167328
835.991	0.0167635
836.069	0.0167294
836.147	0.0169373
836.225	0.0169250
836.303	0.0169273
836.381	0.0168979
836.459	0.0170429
836.538	0.0170687
836.616	0.0172207
836.694	0.0172173
836.772	0.0173172
836.850	0.0174216
836.928	0.0174028
837.006	0.0173192
837.084	0.0173924
837.163	0.0174274
837.241	0.0173668
837.319	0.0173642
837.397	0.0172562
837.475	0.0174802
837.553	0.0172912
837.631	0.0174015
837.709	0.0172016
837.788	0.0171617
837.866	0.0171705
837.944	0.0172076
838.022	0.0172186
838.100	0.0172167
838.178	0.0170891
838.256	0.0172237
838.334	0.0172330
838.413	0.0171146
838.491	0.0170996
838.569	0.0172898
838.647	0.0170796
838.725	0.0171833
838.803	0.0171690
838.881	0.0171664
838.959	0.0171311
839.038	0.0171552
839.116	0.0171122
839.194	0.0172023
839.272	0.0171328
839.350	0.0171142
839.428	0.0169310
839.506	0.0169654
839.584	0.0169975
839.663	0.0170617
839.741	0.0169463
839.819	0.0169054
839.897	0.0169386
839.975	0.0168465
840.053	0.0168320
840.131	0.0167288
840.209	0.0166993
840.288	0.0168963
840.366	0.0167868
840.444	0.0166901
840.522	0.0168140
840.600	0.0168201
840.678	0.0166866
840.756	0.0165569
840.834	0.0166939
840.913	0.0166922
840.991	0.0168028
841.069	0.0168114
841.147	0.0167213
841.225	0.0166879
841.303	0.0168082
841.381	0.0167621
841.459	0.0168182
841.538	0.0168591
841.616	0.0168636
841.694	0.0169504
841.772	0.0169010
841.850	0.0169979
841.928	0.0169587
842.006	0.0169913
842.084	0.0171641
842.163	0.0171134
842.241	0.0169868
842.319	0.0171233
842.397	0.0171766
842.475	0.0170781
842.553	0.0172118
842.631	0.0172645
842.709	0.0172398
842.788	0.0173504
842.866	0.0172215
842.944	0.0171918
843.022	0.0172121
843.100	0.0171865
843.178	0.0171313
843.256	0.0171246
843.334	0.0170755
843.413	0.0170543
843.491	0.0168823
843.569	0.0168438
843.647	0.0167437
843.725	0.0167091
843.803	0.0166733
843.881	0.0167287
843.959	0.0167579
844.038	0.0167136
844.116	0.0167818
844.194	0.0167708
844.272	0.0167802
844.350	0.0168707
844.428	0.0169080
844.506	0.0169984
844.584	0.0170354
844.663	0.0169790
844.741	0.0170811
844.819	0.0172043
844.897	0.0172826
844.975	0.0171677
845.053	0.0172884
845.131	0.0172948
845.209	0.0173192
845.288	0.0172883
845.366	0.0172222
845.444	0.0171624
845.522	0.0172147
845.600	0.0171427
845.678	0.0170565
845.756	0.0170767
845.834	0.0171447
845.913	0.0171239
845.991	0.0169781
846.069	0.0170641
846.147	0.0169972
846.225	0.0170579
846.303	0.0170485
846.381	0.0170148
846.459	0.0169821
846.538	0.0171072
846.616	0.0170495
846.694	0.0170901
846.772	0.0169701
846.850	0.0172346
846.928	0.0171911
847.006	0.0171088
847.084	0.0170907
847.163	0.0171528
847.241	0.0171104
847.319	0.0170197
847.397	0.0170269
847.475	0.0169420
847.553	0.0168790
847.631	0.0168491
847.709	0.0169473
847.788	0.0167952
847.866	0.0167608
847.944	0.0167262
848.022	0.0165713
848.100	0.0168672
848.178	0.0164626
848.256	0.0167553
848.334	0.0169272
848.413	0.0168481
848.491	0.0168568
848.569	0.0168839
848.647	0.0169055
848.725	0.0169868
848.803	0.0170229
848.881	0.0170580
848.959	0.0170725
849.038	0.0171266
849.116	0.0172362
849.194	0.0172922
849.272	0.0172575
849.350	0.0172424
849.428	0.0174406
849.506	0.0172807
849.584	0.0173179
849.663	0.0173808
849.741	0.0173072
849.819	0.0173349
849.897	0.0171247
849.975	0.0172569
850.053	0.0173125
850.131	0.0170236
850.209	0.0170533
850.288	0.0170258
850.366	0.0169056
850.444	0.0169214
850.522	0.0170072
850.600	0.0168401
850.678	0.0170460
850.756	0.0168034
850.834	0.0168348
850.913	0.0170573
850.991	0.0170192
851.069	0.0168819
851.147	0.0169479
851.225	0.0168936
851.303	0.0168915
851.381	0.0170842
851.459	0.0169305
851.538	0.0170216
851.616	0.0169556
851.694	0.0169343
851.772	0.0170032
851.850	0.0168645
851.928	0.0168483
852.006	0.0168449
852.084	0.0170524
852.163	0.0168777
852.241	0.0168996
852.319	0.0168314
852.397	0.0168792
852.475	0.0168023
852.553	0.0168584
852.631	0.0169180
852.709	0.0167386
852.788	0.0169007
852.866	0.0168900
852.944	0.0168107
853.022	0.0167013
853.100	0.0167863
853.178	0.0169128
853.256	0.0170634
853.334	0.0168607
853.413	0.0170399
853.491	0.0170525
853.569	0.0171610
853.647	0.0171774
853.725	0.0171896
853.803	0.0171538
853.881	0.0173051
853.959	0.0173459
854.038	0.0172793
854.116	0.0172871
854.194	0.0173693
854.272	0.0175346
854.350	0.0173553
854.428	0.0174533
854.506	0.0174356
854.584	0.0176070
854.663	0.0174707
854.741	0.0175581
854.819	0.0174557
854.897	0.0174754
854.975	0.0173092
855.053	0.0172812
855.131	0.0172263
855.209	0.0173154
855.288	0.0172624
855.366	0.0171943
855.444	0.0171163
855.522	0.0170523
855.600	0.0169501
855.678	0.0168750
855.756	0.0168361
855.834	0.0166559
855.913	0.0166689
855.991	0.0167004
856.069	0.0165322
856.147	0.0164855
856.225	0.0164319
856.303	0.0164985
856.381	0.0163299
856.459	0.0164226
856.538	0.0164120
856.616	0.0163651
856.694	0.0163171
856.772	0.0164374
856.850	0.0163918
856.928	0.0165240
857.006	0.0164742
857.084	0.0163853
857.163	0.0165546
857.241	0.0165681
857.319	0.0164471
857.397	0.0165140
857.475	0.0166221
857.553	0.0167052
857.631	0.0167197
857.709	0.0166794
857.788	0.0168247
857.866	0.0168787
857.944	0.0168261
858.022	0.0169833
858.100	0.0170035
858.178	0.0170699
858.256	0.0169811
858.334	0.0172720
858.413	0.0173254
858.491	0.0171944
858.569	0.0172852
858.647	0.0173481
858.725	0.0173325
858.803	0.0173981
858.881	0.0174381
858.959	0.0174912
859.038	0.0174844
859.116	0.0173686
859.194	0.0174947
859.272	0.0175988
859.350	0.0176355
859.428	0.0175116
859.506	0.0175311
859.584	0.0174175
859.663	0.0173689
859.741	0.0174724
859.819	0.0174838
859.897	0.0174248
859.975	0.0173663
860.053	0.0174020
860.131	0.0172511
860.209	0.0173061
860.288	0.0172117
860.366	0.0171519
860.444	0.0170589
860.522	0.0170150
860.600	0.0168236
860.678	0.0169630
860.756	0.0168551
860.834	0.0166754
860.913	0.0167915
860.991	0.0166916
861.069	0.0166915
861.147	0.0165839
861.225	0.0165694
861.303	0.0165851
861.381	0.0167014
861.459	0.0167832
861.538	0.0168627
861.616	0.0166672
861.694	0.0167204
861.772	0.0169312
861.850	0.0169211
861.928	0.0168967
862.006	0.0169351
862.084	0.0169079
862.163	0.0170448
862.241	0.0170496
862.319	0.0169044
862.397	0.0170678
862.475	0.0171715
862.553	0.0170708
862.631	0.0171600
862.709	0.0170620
862.788	0.0170032
862.866	0.0169990
862.944	0.0170142
863.022	0.0169315
863.100	0.0168474
863.178	0.0168880
863.256	0.0169052
863.334	0.0167444
863.413	0.0167936
863.491	0.0168813
863.569	0.0168255
863.647	0.0167414
863.725	0.0167899
863.803	0.0167081
863.881	0.0166741
863.959	0.0168430
864.038	0.0167507
864.116	0.0165918
864.194	0.0169612
864.272	0.0168124
864.350	0.0168155
864.428	0.0168413
864.506	0.0168919
864.584	0.0169157
864.663	0.0170786
864.741	0.0169060
864.819	0.0168732
864.897	0.0170557
864.975	0.0170034
865.053	0.0169742
865.131	0.0171098
865.209	0.0168902
865.288	0.0170219
865.366	0.0170442
865.444	0.0171722
865.522	0.0171367
865.600	0.0170305
865.678	0.0171967
865.756	0.0170921
865.834	0.0170412
865.913	0.0170820
865.991	0.0171565
866.069	0.0169904
866.147	0.0170963
866.225	0.0171326
866.303	0.0170582
866.381	0.0170718
866.459	0.0170135
866.538	0.0171418
866.616	0.0170456
866.694	0.0169872
866.772	0.0169705
866.850	0.0171634
866.928	0.0172038
867.006	0.0170425
867.084	0.0170569
867.163	0.0171046
867.241	0.0171827
867.319	0.0169146
867.397	0.0170243
867.475	0.0172125
867.553	0.0170327
867.631	0.0170770
867.709	0.0170915
867.788	0.0170814
867.866	0.0170288
867.944	0.0170902
868.022	0.0169307
868.100	0.0169291
868.178	0.0170132
868.256	0.0169170
868.334	0.0169365
868.413	0.0169054
868.491	0.0168594
868.569	0.0169765
868.647	0.0168829
868.725	0.0168726
868.803	0.0168790
868.881	0.0168085
868.959	0.0167701
869.038	0.0167928
869.116	0.0167300
869.194	0.0167612
869.272	0.0168291
869.350	0.0167608
869.428	0.0166231
869.506	0.0167645
869.584	0.0167286
869.663	0.0167723
869.741	0.0167680
869.819	0.0168123
869.897	0.0167570
869.975	0.0167764
870.053	0.0168062
870.131	0.0167022
870.209	0.0166976
870.288	0.0166559
870.366	0.0168002
870.444	0.0167465
870.522	0.0168269
870.600	0.0169173
870.678	0.0170654
870.756	0.0171195
870.834	0.0170834
870.913	0.0171918
870.991	0.0172085
871.069	0.0173076
871.147	0.0172097
871.225	0.0172298
871.303	0.0173134
871.381	0.0173032
871.459	0.0173988
871.538	0.0173006
871.616	0.0171926
871.694	0.0171811
871.772	0.0171465
871.850	0.0171936
871.928	0.0170619
872.006	0.0169775
872.084	0.0170937
872.163	0.0170265
872.241	0.0169931
872.319	0.0169460
872.397	0.0169711
872.475	0.0169984
872.553	0.0170547
872.631	0.0169699
872.709	0.0169764
872.788	0.0168184
872.866	0.0168563
872.944	0.0170660
873.022	0.0168903
873.100	0.0169273
873.178	0.0169662
873.256	0.0170013
873.334	0.0170320
873.413	0.0169897
873.491	0.0170610
873.569	0.0169569
873.647	0.0168565
873.725	0.0169393
873.803	0.0169220
873.881	0.0168198
873.959	0.0167959
874.038	0.0168478
874.116	0.0166924
874.194	0.0166731
874.272	0.0167763
874.350	0.0167962
874.428	0.0167811
874.506	0.0169177
874.584	0.0169422
874.663	0.0171219
874.741	0.0172395
874.819	0.0173805
874.897	0.0171741
874.975	0.0174641
875.053	0.0175690
875.131	0.0174496
875.209	0.0174925
875.288	0.0173595
875.366	0.0173588
875.444	0.0172793
875.522	0.0171395
875.600	0.0170429
875.678	0.0168238
875.756	0.0167073
875.834	0.0166845
875.913	0.0165643
875.991	0.0164197
876.069	0.0163038
876.147	0.0163283
876.225	0.0163463
876.303	0.0164417
876.381	0.0164458
876.459	0.0164746
876.538	0.0166056
876.616	0.0167050
876.694	0.0167419
876.772	0.0171273
876.850	0.0172479
876.928	0.0174293
877.006	0.0176990
877.084	0.0179811
877.163	0.0181853
877.241	0.0182793
877.319	0.0183900
877.397	0.0184045
877.475	0.0184886
877.553	0.0182971
877.631	0.0181043
877.709	0.0177296
877.788	0.0175101
877.866	0.0172214
877.944	0.0166154
878.022	0.0162672
878.100	0.0159003
878.178	0.0157851
878.256	0.0155573
878.334	0.0153922
878.413	0.0152262
878.491	0.0152477
878.569	0.0152944
878.647	0.0154853
878.725	0.0158027
878.803	0.0158973
878.881	0.0162458
878.959	0.0165465
879.038	0.0167874
879.116	0.0169543
879.194	0.0173224
879.272	0.0175774
879.350	0.0176586
879.428	0.0178868
879.506	0.0179919
879.584	0.0179955
879.663	0.0181786
879.741	0.0181361
879.819	0.0181719
879.897	0.0182623
879.975	0.0180748
880.053	0.0179230
880.131	0.0178120
880.209	0.0176479
880.288	0.0173988
880.366	0.0172166
880.444	0.0169132
880.522	0.0167281
880.600	0.0165954
880.678	0.0162335
880.756	0.0161347
880.834	0.0160013
880.913	0.0159114
880.991	0.0159128
881.069	0.0157836
881.147	0.0159241
881.225	0.0160898
881.303	0.0160807
881.381	0.0163331
881.459	0.0163761
881.538	0.0165662
881.616	0.0166714
881.694	0.0167332
881.772	0.0168018
881.850	0.0169041
881.928	0.0170862
882.006	0.0172089
882.084	0.0172511
882.163	0.0174251
882.241	0.0175963
882.319	0.0176733
882.397	0.0178030
882.475	0.0177644
882.553	0.0177254
882.631	0.0179898
882.709	0.0178870
882.788	0.0178699
882.866	0.0178928
882.944	0.0178414
883.022	0.0178809
883.100	0.0176767
883.178	0.0176057
883.256	0.0173655
883.334	0.0172041
883.413	0.0170111
883.491	0.0168348
883.569	0.0167630
883.647	0.0165250
883.725	0.0165055
883.803	0.0164162
883.881	0.0163318
883.959	0.0161917
884.038	0.0162952
884.116	0.0162621
884.194	0.0163413
884.272	0.0161906
884.350	0.0161832
884.428	0.0161620
884.506	0.0162283
884.584	0.0163078
884.663	0.0164938
884.741	0.0165778
884.819	0.0165687
884.897	0.0166517
884.975	0.0167389
885.053	0.0168188
885.131	0.0169801
885.209	0.0171291
885.288	0.0171781
885.366	0.0173534
885.444	0.0174512
885.522	0.0172540
885.600	0.0173859
885.678	0.0173878
885.756	0.0172375
885.834	0.0173637
885.913	0.0172470
885.991	0.0170445
886.069	0.0171050
886.147	0.0170886
886.225	0.0170389
886.303	0.0168983
886.381	0.0168935
886.459	0.0168545
886.538	0.0167793
886.616	0.0167077
886.694	0.0167875
886.772	0.0167602
886.850	0.0169193
886.928	0.0167932
887.006	0.0168270
887.084	0.0168666
887.163	0.0168512
887.241	0.0170053
887.319	0.0170950
887.397	0.0171985
887.475	0.0170772
887.553	0.0172562
887.631	0.0173750
887.709	0.0173636
887.788	0.0173259
887.866	0.0172614
887.944	0.0172847
888.022	0.0171548
888.100	0.0172536
888.178	0.0173195
888.256	0.0171777
888.334	0.0172250
888.413	0.0169875
888.491	0.0170712
888.569	0.0170600
888.647	0.0168657
888.725	0.0168217
888.803	0.0167234
888.881	0.0167137
888.959	0.0166019
889.038	0.0165675
889.116	0.0165884
889.194	0.0165517
889.272	0.0165076
889.350	0.0166424
889.428	0.0165736
889.506	0.0166937
889.584	0.0168714
889.663	0.0167944
889.741	0.0168050
889.819	0.0168961
889.897	0.0170064
889.975	0.0170276
890.053	0.0169801
890.131	0.0170341
890.209	0.0169218
890.288	0.0171310
890.366	0.0170372
890.444	0.0169801
890.522	0.0169019
890.600	0.0169355
890.678	0.0167960
890.756	0.0167847
890.834	0.0168575
890.913	0.0170393
890.991	0.0169009
891.069	0.0168465
891.147	0.0169410
891.225	0.0170303
891.303	0.0169903
891.381	0.0169301
891.459	0.0170825
891.538	0.0173893
891.616	0.0171702
891.694	0.0172023
891.772	0.0173895
891.850	0.0173468
891.928	0.0174169
892.006	0.0174117
892.084	0.0174540
892.163	0.0173408
892.241	0.0175108
892.319	0.0173077
892.397	0.0172540
892.475	0.0173125
892.553	0.0172244
892.631	0.0171822
892.709	0.0171497
892.788	0.0169223
892.866	0.0168795
892.944	0.0167500
893.022	0.0168261
893.100	0.0166570
893.178	0.0165199
893.256	0.0165846
893.334	0.0163389
893.413	0.0163174
893.491	0.0162475
893.569	0.0162371
893.647	0.0163058
893.725	0.0163917
893.803	0.0165864
893.881	0.0167138
893.959	0.0165496
894.038	0.0168089
894.116	0.0167921
894.194	0.0167682
894.272	0.0170245
894.350	0.0171236
894.428	0.0170393
894.506	0.0170905
894.584	0.0170694
894.663	0.0170609
894.741	0.0171193
894.819	0.0171251
894.897	0.0171861
894.975	0.0172095
895.053	0.0170576
895.131	0.0170705
895.209	0.0170718
895.288	0.0169995
895.366	0.0169635
895.444	0.0169349
895.522	0.0169886
895.600	0.0168959
895.678	0.0169744
895.756	0.0171871
895.834	0.0171861
895.913	0.0170618
895.991	0.0170899
896.069	0.0171664
896.147	0.0171369
896.225	0.0171993
896.303	0.0171316
896.381	0.0172530
896.459	0.0172444
896.538	0.0172021
896.616	0.0170841
896.694	0.0173692
896.772	0.0172462
896.850	0.0171290
896.928	0.0172605
897.006	0.0173618
897.084	0.0173359
897.163	0.0172104
897.241	0.0172227
897.319	0.0170698
897.397	0.0170356
897.475	0.0171549
897.553	0.0170217
897.631	0.0170300
897.709	0.0170979
897.788	0.0171478
897.866	0.0170517
897.944	0.0170914
898.022	0.0169830
898.100	0.0171128
898.178	0.0170250
898.256	0.0169904
898.334	0.0167484
898.413	0.0168571
898.491	0.0168401
898.569	0.0167693
898.647	0.0169002
898.725	0.0169209
898.803	0.0168450
898.881	0.0167206
898.959	0.0167400
899.038	0.0166383
899.116	0.0168771
899.194	0.0168726
899.272	0.0168087
899.350	0.0168037
899.428	0.0168275
899.506	0.0168489
899.584	0.0167412
899.663	0.0168750
899.741	0.0169199
899.819	0.0167918
899.897	0.0168353
899.975	0.0168614
900.053	0.0169997
900.131	0.0169228
900.209	0.0168920
900.288	0.0169713
900.366	0.0170532
900.444	0.0168847
900.522	0.0170184
900.600	0.0170367
900.678	0.0171862
900.756	0.0171854
900.834	0.0172322
900.913	0.0172992
900.991	0.0171867
901.069	0.0172536
901.147	0.0172398
901.225	0.0172141
901.303	0.0171499
901.381	0.0170036
901.459	0.0170040
901.538	0.0170068
901.616	0.0170789
901.694	0.0168699
901.772	0.0170092
901.850	0.0169417
901.928	0.0167974
902.006	0.0167986
902.084	0.0168895
902.163	0.0168449
902.241	0.0168279
902.319	0.0168761
902.397	0.0168806
902.475	0.0168677
902.553	0.0169731
902.631	0.0169883
902.709	0.0170531
902.788	0.0169725
902.866	0.0171449
902.944	0.0171062
903.022	0.0171912
903.100	0.0171607
903.178	0.0170391
903.256	0.0170211
903.334	0.0171650
903.413	0.0171983
903.491	0.0170808
903.569	0.0169965
903.647	0.0169619
903.725	0.0169863
903.803	0.0169221
903.881	0.0169398
903.959	0.0170264
904.038	0.0170511
904.116	0.0169666
904.194	0.0168887
904.272	0.0171230
904.350	0.0171497
904.428	0.0169786
904.506	0.0170245
904.584	0.0169900
904.663	0.0172345
904.741	0.0171580
904.819	0.0171193
904.897	0.0171144
904.975	0.0171114
905.053	0.0170960
905.131	0.0170442
905.209	0.0172277
905.288	0.0171489
905.366	0.0169408
905.444	0.0170282
905.522	0.0169325
905.600	0.0168790
905.678	0.0169611
905.756	0.0167825
905.834	0.0168234
905.913	0.0168479
905.991	0.0167525
906.069	0.0166785
906.147	0.0167436
906.225	0.0167263
906.303	0.0167943
906.381	0.0168217
906.459	0.0168062
906.538	0.0167017
906.616	0.0166072
906.694	0.0168659
906.772	0.0169193
906.850	0.0168887
906.928	0.0167993
907.006	0.0168120
907.084	0.0169444
907.163	0.0168507
907.241	0.0168644
907.319	0.0170024
907.397	0.0169357
907.475	0.0170219
907.553	0.0168516
907.631	0.0169963
907.709	0.0169254
907.788	0.0168864
907.866	0.0169605
907.944	0.0168982
908.022	0.0169127
908.100	0.0170799
908.178	0.0170478
908.256	0.0169953
908.334	0.0170862
908.413	0.0170876
908.491	0.0170607
908.569	0.0171779
908.647	0.0170419
908.725	0.0170164
908.803	0.0171815
908.881	0.0171748
908.959	0.0172795
909.038	0.0172051
909.116	0.0172137
909.194	0.0171433
909.272	0.0170594
909.350	0.0170850
909.428	0.0171487
909.506	0.0171164
909.584	0.0169949
909.663	0.0170939
909.741	0.0169762
909.819	0.0170303
909.897	0.0170362
909.975	0.0169960
910.053	0.0170503
910.131	0.0170829
910.209	0.0169598
910.288	0.0170036
910.366	0.0170776
910.444	0.0170406
910.522	0.0171513
910.600	0.0169745
910.678	0.0170097
910.756	0.0170276
910.834	0.0170439
910.913	0.0168051
910.991	0.0168676
911.069	0.0168007
911.147	0.0168700
911.225	0.0170286
911.303	0.0167443
911.381	0.0168023
911.459	0.0168694
911.538	0.0168790
911.616	0.0167458
911.694	0.0168292
911.772	0.0170213
911.850	0.0170200
911.928	0.0169750
912.006	0.0169482
912.084	0.0169768
912.163	0.0171663
912.241	0.0170903
912.319	0.0170654
912.397	0.0172227
912.475	0.0170831
912.553	0.0170697
912.631	0.0172414
912.709	0.0171999
912.788	0.0172893
912.866	0.0171900
912.944	0.0171897
913.022	0.0171421
913.100	0.0171889
913.178	0.0171784
913.256	0.0171562
913.334	0.0170293
913.413	0.0169136
913.491	0.0168633
913.569	0.0169250
913.647	0.0168532
913.725	0.0169102
913.803	0.0169337
913.881	0.0168666
913.959	0.0168925
914.038	0.0169166
914.116	0.0168608
914.194	0.0168945
914.272	0.0169092
914.350	0.0167986
914.428	0.0167898
914.506	0.0168736
914.584	0.0169366
914.663	0.0167277
914.741	0.0168880
914.819	0.0168022
914.897	0.0167557
914.975	0.0168503
915.053	0.0168139
915.131	0.0166596
915.209	0.0166833
915.288	0.0168171
915.366	0.0166508
915.444	0.0166031
915.522	0.0168359
915.600	0.0168281
915.678	0.0168843
915.756	0.0169025
915.834	0.0168386
915.913	0.0169236
915.991	0.0169300
916.069	0.0171460
916.147	0.0169960
916.225	0.0169798
916.303	0.0171391
916.381	0.0171264
916.459	0.0172171
916.538	0.0171790
916.616	0.0171380
916.694	0.0171537
916.772	0.0170618
916.850	0.0170171
916.928	0.0171245
917.006	0.0171054
917.084	0.0171033
917.163	0.0170778
917.241	0.0169714
917.319	0.0170773
917.397	0.0170443
917.475	0.0170742
917.553	0.0170109
917.631	0.0171867
917.709	0.0170930
917.788	0.0170374
917.866	0.0170842
917.944	0.0171773
918.022	0.0171581
918.100	0.0169866
918.178	0.0171426
918.256	0.0170927
918.334	0.0170541
918.413	0.0170513
918.491	0.0169443
918.569	0.0168989
918.647	0.0168874
918.725	0.0169051
918.803	0.0168553
918.881	0.0168346
918.959	0.0170983
919.038	0.0168625
919.116	0.0169630
919.194	0.0168407
919.272	0.0169750
919.350	0.0170544
919.428	0.0170031
919.506	0.0170302
919.584	0.0171181
919.663	0.0170461
919.741	0.0170525
919.819	0.0171050
919.897	0.0171050
