06/01/2022	17:19:38	Ver.	4.1	UNKNOWN
Optical Delay	599.975067	Delta X		0.078125	Sweeps	1	Scan Rate	0/0
Coordinates	Axis 1	NaN	Axis 2	NaN	Axis 3	NaN	Axis 4	NaN	Axis 5	NaN	Axis 6	0.000000
TX Power	0.000000	RX Power	0.000000

599.975	0.0163280
600.053	0.0162715
600.131	0.0162408
600.209	0.0162548
600.288	0.0163656
600.366	0.0162090
600.444	0.0163163
600.522	0.0164146
600.600	0.0162660
600.678	0.0162769
600.756	0.0162857
600.834	0.0163541
600.913	0.0161536
600.991	0.0162258
601.069	0.0162836
601.147	0.0163995
601.225	0.0164483
601.303	0.0163598
601.381	0.0163313
601.459	0.0163821
601.538	0.0163223
601.616	0.0163344
601.694	0.0162914
601.772	0.0163245
601.850	0.0163853
601.928	0.0163571
602.006	0.0162437
602.084	0.0163172
602.163	0.0163950
602.241	0.0162960
602.319	0.0162371
602.397	0.0163676
602.475	0.0162836
602.553	0.0163642
602.631	0.0162157
602.709	0.0163807
602.788	0.0162888
602.866	0.0162426
602.944	0.0163775
603.022	0.0162389
603.100	0.0162862
603.178	0.0162002
603.256	0.0163897
603.334	0.0163471
603.413	0.0163748
603.491	0.0163190
603.569	0.0163142
603.647	0.0163218
603.725	0.0162116
603.803	0.0163320
603.881	0.0165185
603.959	0.0164668
604.038	0.0162969
604.116	0.0162977
604.194	0.0163669
604.272	0.0164043
604.350	0.0163683
604.428	0.0163707
604.506	0.0163509
604.584	0.0162246
604.663	0.0162115
604.741	0.0163853
604.819	0.0161423
604.897	0.0162869
604.975	0.0164149
605.053	0.0163799
605.131	0.0163992
605.209	0.0163880
605.288	0.0164289
605.366	0.0163169
605.444	0.0163272
605.522	0.0163554
605.600	0.0164790
605.678	0.0163431
605.756	0.0164204
605.834	0.0162508
605.913	0.0162434
605.991	0.0163892
606.069	0.0164561
606.147	0.0162807
606.225	0.0163447
606.303	0.0163615
606.381	0.0162862
606.459	0.0161202
606.538	0.0163612
606.616	0.0164330
606.694	0.0163937
606.772	0.0163662
606.850	0.0162858
606.928	0.0162420
607.006	0.0161665
607.084	0.0161791
607.163	0.0162265
607.241	0.0162263
607.319	0.0163715
607.397	0.0162274
607.475	0.0162423
607.553	0.0162339
607.631	0.0162608
607.709	0.0162970
607.788	0.0163693
607.866	0.0163666
607.944	0.0163497
608.022	0.0164436
608.100	0.0162478
608.178	0.0163296
608.256	0.0163387
608.334	0.0164376
608.413	0.0164129
608.491	0.0163641
608.569	0.0164237
608.647	0.0163924
608.725	0.0165084
608.803	0.0163995
608.881	0.0163427
608.959	0.0163232
609.038	0.0165186
609.116	0.0164847
609.194	0.0163074
609.272	0.0162748
609.350	0.0162477
609.428	0.0163583
609.506	0.0162846
609.584	0.0161729
609.663	0.0163272
609.741	0.0163734
609.819	0.0162801
609.897	0.0162143
609.975	0.0163457
610.053	0.0162343
610.131	0.0163248
610.209	0.0163221
610.288	0.0162804
610.366	0.0164058
610.444	0.0163383
610.522	0.0164066
610.600	0.0163528
610.678	0.0162525
610.756	0.0162043
610.834	0.0164101
610.913	0.0164057
610.991	0.0164621
611.069	0.0163168
611.147	0.0164054
611.225	0.0163017
611.303	0.0165038
611.381	0.0163286
611.459	0.0163814
611.538	0.0163044
611.616	0.0163155
611.694	0.0162875
611.772	0.0162768
611.850	0.0162106
611.928	0.0164050
612.006	0.0163785
612.084	0.0162239
612.163	0.0163089
612.241	0.0163326
612.319	0.0163334
612.397	0.0163662
612.475	0.0162804
612.553	0.0163709
612.631	0.0163538
612.709	0.0163206
612.788	0.0163003
612.866	0.0162274
612.944	0.0163395
613.022	0.0163100
613.100	0.0163319
613.178	0.0163101
613.256	0.0163354
613.334	0.0163453
613.413	0.0163264
613.491	0.0164637
613.569	0.0162399
613.647	0.0162659
613.725	0.0162941
613.803	0.0163238
613.881	0.0161859
613.959	0.0163084
614.038	0.0162773
614.116	0.0162717
614.194	0.0164892
614.272	0.0162514
614.350	0.0162576
614.428	0.0162261
614.506	0.0164661
614.584	0.0163210
614.663	0.0163344
614.741	0.0163135
614.819	0.0163581
614.897	0.0163189
614.975	0.0162471
615.053	0.0162720
615.131	0.0164132
615.209	0.0163248
615.288	0.0161903
615.366	0.0163012
615.444	0.0162117
615.522	0.0162682
615.600	0.0163722
615.678	0.0163318
615.756	0.0163408
615.834	0.0163251
615.913	0.0164152
615.991	0.0163224
616.069	0.0163068
616.147	0.0163106
616.225	0.0163523
616.303	0.0163711
616.381	0.0164364
616.459	0.0163859
616.538	0.0164348
616.616	0.0163166
616.694	0.0163774
616.772	0.0163202
616.850	0.0164005
616.928	0.0163947
617.006	0.0164571
617.084	0.0163145
617.163	0.0162751
617.241	0.0163376
617.319	0.0163161
617.397	0.0162735
617.475	0.0164339
617.553	0.0163249
617.631	0.0162259
617.709	0.0163586
617.788	0.0163679
617.866	0.0163706
617.944	0.0163689
618.022	0.0164011
618.100	0.0162927
618.178	0.0163545
618.256	0.0162782
618.334	0.0162703
618.413	0.0162642
618.491	0.0163731
618.569	0.0164206
618.647	0.0163190
618.725	0.0162965
618.803	0.0163730
618.881	0.0163982
618.959	0.0163514
619.038	0.0163429
619.116	0.0163312
619.194	0.0163753
619.272	0.0163612
619.350	0.0163598
619.428	0.0163502
619.506	0.0162166
619.584	0.0162949
619.663	0.0163854
619.741	0.0163913
619.819	0.0164190
619.897	0.0161862
619.975	0.0162833
620.053	0.0163329
620.131	0.0162914
620.209	0.0163034
620.288	0.0163418
620.366	0.0162148
620.444	0.0163225
620.522	0.0164288
620.600	0.0164227
620.678	0.0164465
620.756	0.0163638
620.834	0.0162983
620.913	0.0164334
620.991	0.0163494
621.069	0.0163737
621.147	0.0163966
621.225	0.0164394
621.303	0.0165645
621.381	0.0164499
621.459	0.0163776
621.538	0.0164045
621.616	0.0164063
621.694	0.0164308
621.772	0.0162798
621.850	0.0162815
621.928	0.0163519
622.006	0.0164147
622.084	0.0163496
622.163	0.0163982
622.241	0.0163903
622.319	0.0162806
622.397	0.0163437
622.475	0.0163787
622.553	0.0163957
622.631	0.0164220
622.709	0.0162243
622.788	0.0163177
622.866	0.0163464
622.944	0.0163416
623.022	0.0162579
623.100	0.0163233
623.178	0.0162878
623.256	0.0164202
623.334	0.0163892
623.413	0.0163622
623.491	0.0163419
623.569	0.0163773
623.647	0.0163173
623.725	0.0162566
623.803	0.0162547
623.881	0.0162453
623.959	0.0162427
624.038	0.0164895
624.116	0.0161939
624.194	0.0163160
624.272	0.0163998
624.350	0.0162798
624.428	0.0163818
624.506	0.0162083
624.584	0.0164893
624.663	0.0164532
624.741	0.0164622
624.819	0.0162958
624.897	0.0163288
624.975	0.0163309
625.053	0.0163509
625.131	0.0163728
625.209	0.0163348
625.288	0.0163089
625.366	0.0163138
625.444	0.0164361
625.522	0.0163847
625.600	0.0163493
625.678	0.0162215
625.756	0.0164191
625.834	0.0161951
625.913	0.0164622
625.991	0.0163174
626.069	0.0162817
626.147	0.0163301
626.225	0.0163302
626.303	0.0163486
626.381	0.0161761
626.459	0.0162995
626.538	0.0163253
626.616	0.0163960
626.694	0.0162698
626.772	0.0162714
626.850	0.0163452
626.928	0.0162016
627.006	0.0163503
627.084	0.0164129
627.163	0.0165003
627.241	0.0163294
627.319	0.0162698
627.397	0.0162576
627.475	0.0162311
627.553	0.0163284
627.631	0.0164034
627.709	0.0163396
627.788	0.0163380
627.866	0.0164275
627.944	0.0164333
628.022	0.0162333
628.100	0.0162480
628.178	0.0164617
628.256	0.0164703
628.334	0.0162815
628.413	0.0164489
628.491	0.0163166
628.569	0.0163393
628.647	0.0163200
628.725	0.0163913
628.803	0.0163317
628.881	0.0164656
628.959	0.0164582
629.038	0.0162598
629.116	0.0161847
629.194	0.0163753
629.272	0.0165521
629.350	0.0163747
629.428	0.0163741
629.506	0.0162368
629.584	0.0164101
629.663	0.0162963
629.741	0.0163501
629.819	0.0163351
629.897	0.0163824
629.975	0.0163847
630.053	0.0163181
630.131	0.0163367
630.209	0.0164506
630.288	0.0163639
630.366	0.0163172
630.444	0.0165697
630.522	0.0163145
630.600	0.0163253
630.678	0.0163692
630.756	0.0165046
630.834	0.0164141
630.913	0.0164780
630.991	0.0163978
631.069	0.0163635
631.147	0.0165166
631.225	0.0163421
631.303	0.0164193
631.381	0.0164395
631.459	0.0163875
631.538	0.0163521
631.616	0.0164397
631.694	0.0163735
631.772	0.0163375
631.850	0.0163197
631.928	0.0164185
632.006	0.0164336
632.084	0.0164262
632.163	0.0163002
632.241	0.0163964
632.319	0.0163677
632.397	0.0163133
632.475	0.0164740
632.553	0.0162924
632.631	0.0162476
632.709	0.0162674
632.788	0.0164716
632.866	0.0163101
632.944	0.0162680
633.022	0.0163638
633.100	0.0163367
633.178	0.0163218
633.256	0.0163680
633.334	0.0163564
633.413	0.0163097
633.491	0.0164299
633.569	0.0164459
633.647	0.0163219
633.725	0.0163284
633.803	0.0163358
633.881	0.0164354
633.959	0.0162923
634.038	0.0162974
634.116	0.0163135
634.194	0.0163594
634.272	0.0163223
634.350	0.0163233
634.428	0.0162724
634.506	0.0162427
634.584	0.0163634
634.663	0.0163952
634.741	0.0163821
634.819	0.0162482
634.897	0.0164105
634.975	0.0163890
635.053	0.0163853
635.131	0.0163870
635.209	0.0163362
635.288	0.0163105
635.366	0.0162930
635.444	0.0164091
635.522	0.0163194
635.600	0.0162875
635.678	0.0162892
635.756	0.0162819
635.834	0.0163811
635.913	0.0164338
635.991	0.0164044
636.069	0.0163483
636.147	0.0164263
636.225	0.0162733
636.303	0.0164308
636.381	0.0165232
636.459	0.0164342
636.538	0.0164309
636.616	0.0163415
636.694	0.0162212
636.772	0.0163584
636.850	0.0162437
636.928	0.0164413
637.006	0.0162981
637.084	0.0162553
637.163	0.0161328
637.241	0.0163170
637.319	0.0163414
637.397	0.0163500
637.475	0.0163239
637.553	0.0163808
637.631	0.0162582
637.709	0.0163783
637.788	0.0163564
637.866	0.0162454
637.944	0.0163340
638.022	0.0162359
638.100	0.0163194
638.178	0.0163924
638.256	0.0163328
638.334	0.0162432
638.413	0.0162936
638.491	0.0163297
638.569	0.0163156
638.647	0.0163789
638.725	0.0162524
638.803	0.0162334
638.881	0.0163955
638.959	0.0163351
639.038	0.0164983
639.116	0.0163705
639.194	0.0162694
639.272	0.0162367
639.350	0.0164265
639.428	0.0165196
639.506	0.0162402
639.584	0.0164941
639.663	0.0164233
639.741	0.0163071
639.819	0.0163961
639.897	0.0161514
639.975	0.0162682
640.053	0.0164246
640.131	0.0164420
640.209	0.0162521
640.288	0.0164118
640.366	0.0164421
640.444	0.0162910
640.522	0.0162612
640.600	0.0163449
640.678	0.0163351
640.756	0.0163584
640.834	0.0164503
640.913	0.0162635
640.991	0.0162431
641.069	0.0163612
641.147	0.0162865
641.225	0.0165018
641.303	0.0162978
641.381	0.0163570
641.459	0.0164649
641.538	0.0164204
641.616	0.0163509
641.694	0.0162849
641.772	0.0163172
641.850	0.0163737
641.928	0.0163059
642.006	0.0163302
642.084	0.0162520
642.163	0.0162060
642.241	0.0161368
642.319	0.0164169
642.397	0.0163123
642.475	0.0161622
642.553	0.0162622
642.631	0.0163138
642.709	0.0162646
642.788	0.0162414
642.866	0.0162888
642.944	0.0163564
643.022	0.0162981
643.100	0.0163745
643.178	0.0164223
643.256	0.0162872
643.334	0.0163155
643.413	0.0163065
643.491	0.0163672
643.569	0.0163145
643.647	0.0164140
643.725	0.0163683
643.803	0.0162470
643.881	0.0164103
643.959	0.0163528
644.038	0.0163396
644.116	0.0163120
644.194	0.0163385
644.272	0.0163659
644.350	0.0162160
644.428	0.0161922
644.506	0.0162900
644.584	0.0164382
644.663	0.0163907
644.741	0.0164858
644.819	0.0164535
644.897	0.0162746
644.975	0.0162832
645.053	0.0162888
645.131	0.0164427
645.209	0.0164816
645.288	0.0164074
645.366	0.0163408
645.444	0.0161507
645.522	0.0163081
645.600	0.0164310
645.678	0.0162743
645.756	0.0163286
645.834	0.0163023
645.913	0.0162859
645.991	0.0162825
646.069	0.0162992
646.147	0.0163345
646.225	0.0163124
646.303	0.0164250
646.381	0.0163953
646.459	0.0163937
646.538	0.0163744
646.616	0.0163135
646.694	0.0163484
646.772	0.0163112
646.850	0.0162733
646.928	0.0163616
647.006	0.0163750
647.084	0.0163895
647.163	0.0163970
647.241	0.0163219
647.319	0.0163234
647.397	0.0165180
647.475	0.0163818
647.553	0.0163026
647.631	0.0163674
647.709	0.0163409
647.788	0.0163903
647.866	0.0163432
647.944	0.0163956
648.022	0.0163168
648.100	0.0163805
648.178	0.0162545
648.256	0.0163002
648.334	0.0162807
648.413	0.0163660
648.491	0.0163812
648.569	0.0164104
648.647	0.0164241
648.725	0.0164187
648.803	0.0163482
648.881	0.0162891
648.959	0.0163556
649.038	0.0162455
649.116	0.0163563
649.194	0.0164362
649.272	0.0163833
649.350	0.0162811
649.428	0.0162231
649.506	0.0164600
649.584	0.0163187
649.663	0.0163480
649.741	0.0162734
649.819	0.0163911
649.897	0.0163901
649.975	0.0162862
650.053	0.0164191
650.131	0.0163251
650.209	0.0162299
650.288	0.0163182
650.366	0.0164591
650.444	0.0163274
650.522	0.0162772
650.600	0.0163666
650.678	0.0162811
650.756	0.0163061
650.834	0.0162830
650.913	0.0162404
650.991	0.0163614
651.069	0.0163300
651.147	0.0163298
651.225	0.0162955
651.303	0.0162432
651.381	0.0163655
651.459	0.0163655
651.538	0.0162626
651.616	0.0164158
651.694	0.0163617
651.772	0.0163669
651.850	0.0163003
651.928	0.0164279
652.006	0.0164399
652.084	0.0163328
652.163	0.0162601
652.241	0.0163043
652.319	0.0165713
652.397	0.0163361
652.475	0.0163898
652.553	0.0162697
652.631	0.0163680
652.709	0.0162888
652.788	0.0163866
652.866	0.0165028
652.944	0.0163223
653.022	0.0163088
653.100	0.0163814
653.178	0.0164674
653.256	0.0164138
653.334	0.0163742
653.413	0.0164087
653.491	0.0163988
653.569	0.0163542
653.647	0.0162454
653.725	0.0163290
653.803	0.0163618
653.881	0.0163920
653.959	0.0162328
654.038	0.0163430
654.116	0.0163427
654.194	0.0163647
654.272	0.0163879
654.350	0.0163956
654.428	0.0164457
654.506	0.0163269
654.584	0.0162778
654.663	0.0162789
654.741	0.0162408
654.819	0.0162778
654.897	0.0162531
654.975	0.0163143
655.053	0.0163367
655.131	0.0163443
655.209	0.0164462
655.288	0.0163727
655.366	0.0162498
655.444	0.0162658
655.522	0.0163203
655.600	0.0161234
655.678	0.0163665
655.756	0.0163045
655.834	0.0163171
655.913	0.0162100
655.991	0.0162073
656.069	0.0163927
656.147	0.0163002
656.225	0.0164306
656.303	0.0162600
656.381	0.0162637
656.459	0.0163644
656.538	0.0163454
656.616	0.0163536
656.694	0.0163322
656.772	0.0163171
656.850	0.0163322
656.928	0.0161400
657.006	0.0163213
657.084	0.0163189
657.163	0.0163155
657.241	0.0163341
657.319	0.0162930
657.397	0.0163631
657.475	0.0163914
657.553	0.0163480
657.631	0.0163210
657.709	0.0163973
657.788	0.0162275
657.866	0.0163024
657.944	0.0163914
658.022	0.0160646
658.100	0.0162453
658.178	0.0163744
658.256	0.0162011
658.334	0.0162885
658.413	0.0162934
658.491	0.0164619
658.569	0.0163673
658.647	0.0163387
658.725	0.0162097
658.803	0.0162444
658.881	0.0163084
658.959	0.0161732
659.038	0.0162253
659.116	0.0163760
659.194	0.0161914
659.272	0.0162934
659.350	0.0163085
659.428	0.0163387
659.506	0.0162531
659.584	0.0163858
659.663	0.0161200
659.741	0.0163114
659.819	0.0162756
659.897	0.0163406
659.975	0.0162421
660.053	0.0165491
660.131	0.0163583
660.209	0.0163057
660.288	0.0162331
660.366	0.0164098
660.444	0.0163860
660.522	0.0163857
660.600	0.0163248
660.678	0.0163757
660.756	0.0163608
660.834	0.0162954
660.913	0.0162661
660.991	0.0164212
661.069	0.0164455
661.147	0.0162814
661.225	0.0162581
661.303	0.0164437
661.381	0.0163329
661.459	0.0164155
661.538	0.0163828
661.616	0.0162897
661.694	0.0164243
661.772	0.0163506
661.850	0.0163241
661.928	0.0162791
662.006	0.0163799
662.084	0.0162672
662.163	0.0163400
662.241	0.0163689
662.319	0.0163956
662.397	0.0162361
662.475	0.0164430
662.553	0.0163974
662.631	0.0164010
662.709	0.0163435
662.788	0.0165340
662.866	0.0162652
662.944	0.0162395
663.022	0.0163808
663.100	0.0163525
663.178	0.0164080
663.256	0.0164092
663.334	0.0164598
663.413	0.0163875
663.491	0.0164957
663.569	0.0163599
663.647	0.0162512
663.725	0.0163019
663.803	0.0163701
663.881	0.0163751
663.959	0.0163465
664.038	0.0164291
664.116	0.0164826
664.194	0.0164314
664.272	0.0163920
664.350	0.0162189
664.428	0.0163394
664.506	0.0163902
664.584	0.0164194
664.663	0.0164079
664.741	0.0164021
664.819	0.0163822
664.897	0.0163849
664.975	0.0164209
665.053	0.0163985
665.131	0.0163541
665.209	0.0163861
665.288	0.0162865
665.366	0.0163552
665.444	0.0163716
665.522	0.0163266
665.600	0.0163808
665.678	0.0164222
665.756	0.0162740
665.834	0.0163644
665.913	0.0163654
665.991	0.0163412
666.069	0.0163351
666.147	0.0162869
666.225	0.0164486
666.303	0.0162217
666.381	0.0164192
666.459	0.0164390
666.538	0.0163356
666.616	0.0161969
666.694	0.0163376
666.772	0.0165152
666.850	0.0163625
666.928	0.0163708
667.006	0.0162812
667.084	0.0162750
667.163	0.0164298
667.241	0.0164819
667.319	0.0162845
667.397	0.0163063
667.475	0.0163341
667.553	0.0164575
667.631	0.0163734
667.709	0.0164330
667.788	0.0162828
667.866	0.0162365
667.944	0.0163720
668.022	0.0162883
668.100	0.0162910
668.178	0.0163084
668.256	0.0163187
668.334	0.0163441
668.413	0.0163322
668.491	0.0163418
668.569	0.0163651
668.647	0.0162546
668.725	0.0162951
668.803	0.0162950
668.881	0.0163815
668.959	0.0163560
669.038	0.0163033
669.116	0.0162048
669.194	0.0162084
669.272	0.0163531
669.350	0.0163486
669.428	0.0162363
669.506	0.0164418
669.584	0.0164249
669.663	0.0162743
669.741	0.0161509
669.819	0.0162451
669.897	0.0163094
669.975	0.0162450
670.053	0.0163079
670.131	0.0162235
670.209	0.0162292
670.288	0.0162415
670.366	0.0162806
670.444	0.0162231
670.522	0.0163997
670.600	0.0162889
670.678	0.0162604
670.756	0.0162355
670.834	0.0162979
670.913	0.0162368
670.991	0.0164037
671.069	0.0162933
671.147	0.0163159
671.225	0.0163668
671.303	0.0163003
671.381	0.0162339
671.459	0.0163228
671.538	0.0163190
671.616	0.0163281
671.694	0.0163826
671.772	0.0163390
671.850	0.0162093
671.928	0.0162773
672.006	0.0163074
672.084	0.0163999
672.163	0.0161938
672.241	0.0163254
672.319	0.0161979
672.397	0.0162201
672.475	0.0161970
672.553	0.0162679
672.631	0.0161999
672.709	0.0162865
672.788	0.0162496
672.866	0.0162161
672.944	0.0163480
673.022	0.0162305
673.100	0.0162880
673.178	0.0162828
673.256	0.0162209
673.334	0.0161714
673.413	0.0161719
673.491	0.0164085
673.569	0.0163431
673.647	0.0163555
673.725	0.0163062
673.803	0.0163525
673.881	0.0162550
673.959	0.0162828
674.038	0.0163380
674.116	0.0162222
674.194	0.0162351
674.272	0.0162292
674.350	0.0162917
674.428	0.0162882
674.506	0.0161862
674.584	0.0162524
674.663	0.0162865
674.741	0.0161414
674.819	0.0161935
674.897	0.0163073
674.975	0.0162540
675.053	0.0162960
675.131	0.0161639
675.209	0.0162349
675.288	0.0163228
675.366	0.0163368
675.444	0.0163727
675.522	0.0163840
675.600	0.0163158
675.678	0.0162887
675.756	0.0162937
675.834	0.0164758
675.913	0.0162914
675.991	0.0163204
676.069	0.0163580
676.147	0.0163588
676.225	0.0162990
676.303	0.0162923
676.381	0.0163631
676.459	0.0163497
676.538	0.0165176
676.616	0.0163551
676.694	0.0163634
676.772	0.0163834
676.850	0.0163841
676.928	0.0163694
677.006	0.0162468
677.084	0.0164190
677.163	0.0163359
677.241	0.0164171
677.319	0.0163801
677.397	0.0164132
677.475	0.0164677
677.553	0.0163537
677.631	0.0162176
677.709	0.0161159
677.788	0.0163450
677.866	0.0161867
677.944	0.0162502
678.022	0.0162511
678.100	0.0164270
678.178	0.0164144
678.256	0.0163491
678.334	0.0164361
678.413	0.0163092
678.491	0.0164008
678.569	0.0163107
678.647	0.0163210
678.725	0.0161849
678.803	0.0163776
678.881	0.0162961
678.959	0.0161958
679.038	0.0161568
679.116	0.0162080
679.194	0.0163511
679.272	0.0162659
679.350	0.0161877
679.428	0.0163825
679.506	0.0162774
679.584	0.0162698
679.663	0.0163954
679.741	0.0163972
679.819	0.0165308
679.897	0.0164687
679.975	0.0165959
680.053	0.0166720
680.131	0.0168109
680.209	0.0165681
680.288	0.0165489
680.366	0.0166323
680.444	0.0164289
680.522	0.0163504
680.600	0.0163918
680.678	0.0162914
680.756	0.0164896
680.834	0.0163274
680.913	0.0164943
680.991	0.0164595
681.069	0.0165201
681.147	0.0166472
681.225	0.0164741
681.303	0.0164587
681.381	0.0163932
681.459	0.0161605
681.538	0.0159890
681.616	0.0157689
681.694	0.0154638
681.772	0.0149976
681.850	0.0147248
681.928	0.0145862
682.006	0.0146513
682.084	0.0147131
682.163	0.0147363
682.241	0.0151797
682.319	0.0157887
682.397	0.0163465
682.475	0.0171658
682.553	0.0178498
682.631	0.0186752
682.709	0.0193282
682.788	0.0199420
682.866	0.0201482
682.944	0.0205231
683.022	0.0206435
683.100	0.0204298
683.178	0.0197493
683.256	0.0191826
683.334	0.0185743
683.413	0.0176000
683.491	0.0164848
683.569	0.0154055
683.647	0.0142496
683.725	0.0130936
683.803	0.0118691
683.881	0.0109301
683.959	0.00997047
684.038	0.00935387
684.116	0.00862228
684.194	0.00836197
684.272	0.00834259
684.350	0.00891342
684.428	0.00949539
684.506	0.0107502
684.584	0.0122102
684.663	0.0140609
684.741	0.0162449
684.819	0.0185783
684.897	0.0209737
684.975	0.0232105
685.053	0.0253601
685.131	0.0271310
685.209	0.0285648
685.288	0.0294868
685.366	0.0296028
685.444	0.0293315
685.522	0.0283263
685.600	0.0267296
685.678	0.0249156
685.756	0.0223987
685.834	0.0197375
685.913	0.0167398
685.991	0.0138133
686.069	0.0106920
686.147	0.00806778
686.225	0.00581253
686.303	0.00381355
686.381	0.00220322
686.459	0.00122757
686.538	0.000951157
686.616	0.000906601
686.694	0.00133606
686.772	0.00245438
686.850	0.00399170
686.928	0.00585533
687.006	0.00794800
687.084	0.0105508
687.163	0.0132218
687.241	0.0163642
687.319	0.0194201
687.397	0.0225497
687.475	0.0254296
687.553	0.0280157
687.631	0.0305579
687.709	0.0323620
687.788	0.0335805
687.866	0.0342746
687.944	0.0343344
688.022	0.0336692
688.100	0.0324073
688.178	0.0302985
688.256	0.0277613
688.334	0.0251230
688.413	0.0222021
688.491	0.0186958
688.569	0.0153510
688.647	0.0123167
688.725	0.00957008
688.803	0.00696098
688.881	0.00495232
688.959	0.00332741
689.038	0.00228523
689.116	0.00180084
689.194	0.00179741
689.272	0.00217880
689.350	0.00299828
689.428	0.00420624
689.506	0.00547089
689.584	0.00706223
689.663	0.00864304
689.741	0.0102910
689.819	0.0122874
689.897	0.0139961
689.975	0.0157331
690.053	0.0173679
690.131	0.0190534
690.209	0.0202100
690.288	0.0217529
690.366	0.0230135
690.444	0.0239497
690.522	0.0247594
690.600	0.0253793
690.678	0.0256588
690.756	0.0255830
690.834	0.0253968
690.913	0.0249734
690.991	0.0242509
691.069	0.0234341
691.147	0.0223759
691.225	0.0211677
691.303	0.0201223
691.381	0.0190566
691.459	0.0179897
691.538	0.0169994
691.616	0.0161142
691.694	0.0153764
691.772	0.0148693
691.850	0.0143797
691.928	0.0139345
692.006	0.0135511
692.084	0.0131759
692.163	0.0129359
692.241	0.0125937
692.319	0.0125309
692.397	0.0124221
692.475	0.0123097
692.553	0.0124572
692.631	0.0126302
692.709	0.0129410
692.788	0.0131100
692.866	0.0134254
692.944	0.0137402
693.022	0.0142696
693.100	0.0146231
693.178	0.0149834
693.256	0.0154574
693.334	0.0157733
693.413	0.0160739
693.491	0.0162331
693.569	0.0162785
693.647	0.0164656
693.725	0.0164005
693.803	0.0164074
693.881	0.0161614
693.959	0.0163051
694.038	0.0161095
694.116	0.0160619
694.194	0.0158756
694.272	0.0157333
694.350	0.0156985
694.428	0.0156384
694.506	0.0157121
694.584	0.0161488
694.663	0.0162202
694.741	0.0163461
694.819	0.0168171
694.897	0.0170795
694.975	0.0174700
695.053	0.0176245
695.131	0.0182809
695.209	0.0186721
695.288	0.0190134
695.366	0.0195017
695.444	0.0197665
695.522	0.0200956
695.600	0.0202399
695.678	0.0205022
695.756	0.0204274
695.834	0.0203663
695.913	0.0201635
695.991	0.0198507
696.069	0.0193687
696.147	0.0190150
696.225	0.0183200
696.303	0.0177302
696.381	0.0170835
696.459	0.0163171
696.538	0.0157793
696.616	0.0151325
696.694	0.0145841
696.772	0.0138771
696.850	0.0135220
696.928	0.0131754
697.006	0.0128505
697.084	0.0126784
697.163	0.0124185
697.241	0.0123480
697.319	0.0124278
697.397	0.0123792
697.475	0.0124252
697.553	0.0124554
697.631	0.0127637
697.709	0.0132903
697.788	0.0135313
697.866	0.0138137
697.944	0.0141338
698.022	0.0144072
698.100	0.0146867
698.178	0.0149392
698.256	0.0152842
698.334	0.0154189
698.413	0.0157444
698.491	0.0157760
698.569	0.0158733
698.647	0.0160486
698.725	0.0162434
698.803	0.0162882
698.881	0.0164097
698.959	0.0165665
699.038	0.0169155
699.116	0.0170180
699.194	0.0173576
699.272	0.0175849
699.350	0.0178831
699.428	0.0181191
699.506	0.0184265
699.584	0.0185786
699.663	0.0188071
699.741	0.0189925
699.819	0.0192783
699.897	0.0193456
699.975	0.0196188
700.053	0.0197470
700.131	0.0198939
700.209	0.0198266
700.288	0.0198191
700.366	0.0197681
700.444	0.0196237
700.522	0.0193206
700.600	0.0190499
700.678	0.0186870
700.756	0.0182936
700.834	0.0177897
700.913	0.0171554
700.991	0.0167245
701.069	0.0161521
701.147	0.0156136
701.225	0.0149645
701.303	0.0145161
701.381	0.0141727
701.459	0.0139926
701.538	0.0138148
701.616	0.0136613
701.694	0.0133929
701.772	0.0133000
701.850	0.0133504
701.928	0.0134348
702.006	0.0136037
702.084	0.0135960
702.163	0.0138440
702.241	0.0139709
702.319	0.0141869
702.397	0.0144332
702.475	0.0145110
702.553	0.0146517
702.631	0.0149873
702.709	0.0150640
702.788	0.0151406
702.866	0.0152187
702.944	0.0151720
703.022	0.0153564
703.100	0.0154803
703.178	0.0154471
703.256	0.0156550
703.334	0.0156707
703.413	0.0158357
703.491	0.0158797
703.569	0.0160057
703.647	0.0160355
703.725	0.0161143
703.803	0.0162170
703.881	0.0164756
703.959	0.0163841
704.038	0.0166154
704.116	0.0167586
704.194	0.0169160
704.272	0.0170422
704.350	0.0172335
704.428	0.0173943
704.506	0.0176244
704.584	0.0179868
704.663	0.0181203
704.741	0.0183279
704.819	0.0184322
704.897	0.0186882
704.975	0.0188281
705.053	0.0189745
705.131	0.0192947
705.209	0.0192206
705.288	0.0193362
705.366	0.0193035
705.444	0.0193694
705.522	0.0190536
705.600	0.0188709
705.678	0.0185253
705.756	0.0182190
705.834	0.0179919
705.913	0.0175689
705.991	0.0170961
706.069	0.0165433
706.147	0.0161978
706.225	0.0158139
706.303	0.0152271
706.381	0.0149067
706.459	0.0145580
706.538	0.0141315
706.616	0.0139307
706.694	0.0138550
706.772	0.0136196
706.850	0.0136702
706.928	0.0137755
707.006	0.0139010
707.084	0.0139884
707.163	0.0139803
707.241	0.0142587
707.319	0.0142879
707.397	0.0143732
707.475	0.0144834
707.553	0.0147341
707.631	0.0148653
707.709	0.0148172
707.788	0.0148022
707.866	0.0149564
707.944	0.0150730
708.022	0.0151566
708.100	0.0153432
708.178	0.0156101
708.256	0.0157204
708.334	0.0158741
708.413	0.0161504
708.491	0.0163015
708.569	0.0166033
708.647	0.0166815
708.725	0.0166942
708.803	0.0167334
708.881	0.0168330
708.959	0.0166971
709.038	0.0165541
709.116	0.0165014
709.194	0.0163224
709.272	0.0160521
709.350	0.0157529
709.428	0.0156061
709.506	0.0155698
709.584	0.0155245
709.663	0.0156367
709.741	0.0158095
709.819	0.0159746
709.897	0.0162560
709.975	0.0166207
710.053	0.0169192
710.131	0.0173045
710.209	0.0177790
710.288	0.0182613
710.366	0.0185949
710.444	0.0190514
710.522	0.0194171
710.600	0.0196667
710.678	0.0195861
710.756	0.0196561
710.834	0.0197055
710.913	0.0195135
710.991	0.0194653
711.069	0.0190911
711.147	0.0187601
711.225	0.0183933
711.303	0.0177926
711.381	0.0173713
711.459	0.0167898
711.538	0.0163348
711.616	0.0156599
711.694	0.0152061
711.772	0.0148971
711.850	0.0143274
711.928	0.0142199
712.006	0.0141476
712.084	0.0139961
712.163	0.0138297
712.241	0.0138888
712.319	0.0141284
712.397	0.0142966
712.475	0.0142788
712.553	0.0143204
712.631	0.0146124
712.709	0.0147063
712.788	0.0148618
712.866	0.0149358
712.944	0.0150944
713.022	0.0151583
713.100	0.0152009
713.178	0.0152454
713.256	0.0153363
713.334	0.0154625
713.413	0.0155564
713.491	0.0156444
713.569	0.0156071
713.647	0.0158373
713.725	0.0159383
713.803	0.0161051
713.881	0.0160847
713.959	0.0162897
714.038	0.0163727
714.116	0.0161037
714.194	0.0161849
714.272	0.0163013
714.350	0.0162637
714.428	0.0162408
714.506	0.0162644
714.584	0.0161773
714.663	0.0161330
714.741	0.0163148
714.819	0.0165031
714.897	0.0164062
714.975	0.0166164
715.053	0.0167034
715.131	0.0169348
715.209	0.0170345
715.288	0.0172148
715.366	0.0174024
715.444	0.0176304
715.522	0.0177774
715.600	0.0179906
715.678	0.0181765
715.756	0.0182889
715.834	0.0183187
715.913	0.0184222
715.991	0.0183632
716.069	0.0182955
716.147	0.0183540
716.225	0.0180431
716.303	0.0180861
716.381	0.0179362
716.459	0.0177486
716.538	0.0174640
716.616	0.0172376
716.694	0.0170870
716.772	0.0166928
716.850	0.0164182
716.928	0.0161487
717.006	0.0158447
717.084	0.0157399
717.163	0.0154823
717.241	0.0153184
717.319	0.0152821
717.397	0.0151839
717.475	0.0150803
717.553	0.0148923
717.631	0.0150805
717.709	0.0151230
717.788	0.0154083
717.866	0.0155437
717.944	0.0157634
718.022	0.0159103
718.100	0.0162124
718.178	0.0162949
718.256	0.0162434
718.334	0.0163190
718.413	0.0163759
718.491	0.0162788
718.569	0.0162562
718.647	0.0160831
718.725	0.0160851
718.803	0.0158065
718.881	0.0157798
718.959	0.0156741
719.038	0.0154083
719.116	0.0153923
719.194	0.0152639
719.272	0.0151442
719.350	0.0151059
719.428	0.0150985
719.506	0.0150419
719.584	0.0149072
719.663	0.0149993
719.741	0.0150162
719.819	0.0152359
719.897	0.0152615
719.975	0.0154271
720.053	0.0157089
720.131	0.0159106
720.209	0.0161021
720.288	0.0161930
720.366	0.0165051
720.444	0.0167068
720.522	0.0170550
720.600	0.0171855
720.678	0.0172940
720.756	0.0173978
720.834	0.0175610
720.913	0.0177119
720.991	0.0174748
721.069	0.0175375
721.147	0.0175262
721.225	0.0173318
721.303	0.0173656
721.381	0.0173161
721.459	0.0170914
721.538	0.0170827
721.616	0.0169621
721.694	0.0168745
721.772	0.0169643
721.850	0.0167531
721.928	0.0167581
722.006	0.0167761
722.084	0.0166795
722.163	0.0167809
722.241	0.0167189
722.319	0.0168074
722.397	0.0166726
722.475	0.0166684
722.553	0.0165975
722.631	0.0167231
722.709	0.0164941
722.788	0.0163648
722.866	0.0164235
722.944	0.0162779
723.022	0.0161899
723.100	0.0163819
723.178	0.0162589
723.256	0.0161870
723.334	0.0162366
723.413	0.0164397
723.491	0.0164109
723.569	0.0164658
723.647	0.0165747
723.725	0.0166009
723.803	0.0167635
723.881	0.0168500
723.959	0.0167406
724.038	0.0167315
724.116	0.0167684
724.194	0.0166380
724.272	0.0165010
724.350	0.0162468
724.428	0.0160864
724.506	0.0158266
724.584	0.0155075
724.663	0.0153398
724.741	0.0149550
724.819	0.0145674
724.897	0.0144014
724.975	0.0141817
725.053	0.0140456
725.131	0.0141068
725.209	0.0142056
725.288	0.0142728
725.366	0.0143742
725.444	0.0146084
725.522	0.0148863
725.600	0.0151447
725.678	0.0154974
725.756	0.0159711
725.834	0.0162400
725.913	0.0165392
725.991	0.0166609
726.069	0.0171183
726.147	0.0173046
726.225	0.0174559
726.303	0.0174641
726.381	0.0175814
726.459	0.0176912
726.538	0.0176056
726.616	0.0176269
726.694	0.0176553
726.772	0.0175517
726.850	0.0174886
726.928	0.0174486
727.006	0.0174720
727.084	0.0173016
727.163	0.0173713
727.241	0.0171065
727.319	0.0169211
727.397	0.0168370
727.475	0.0165980
727.553	0.0165692
727.631	0.0162859
727.709	0.0159937
727.788	0.0157736
727.866	0.0158234
727.944	0.0155495
728.022	0.0156075
728.100	0.0155826
728.178	0.0155036
728.256	0.0155834
728.334	0.0156831
728.413	0.0158497
728.491	0.0159040
728.569	0.0161409
728.647	0.0162980
728.725	0.0165353
728.803	0.0167247
728.881	0.0168648
728.959	0.0168968
729.038	0.0170834
729.116	0.0171980
729.194	0.0172321
729.272	0.0172174
729.350	0.0172869
729.428	0.0172992
729.506	0.0171902
729.584	0.0172451
729.663	0.0171643
729.741	0.0171217
729.819	0.0170851
729.897	0.0169386
729.975	0.0167719
730.053	0.0167631
730.131	0.0165245
730.209	0.0165295
730.288	0.0163589
730.366	0.0162058
730.444	0.0161207
730.522	0.0159433
730.600	0.0157417
730.678	0.0155682
730.756	0.0155409
730.834	0.0155530
730.913	0.0152840
730.991	0.0151897
731.069	0.0154341
731.147	0.0153550
731.225	0.0152813
731.303	0.0151931
731.381	0.0152158
731.459	0.0154803
731.538	0.0154743
731.616	0.0154158
731.694	0.0157184
731.772	0.0157439
731.850	0.0160571
731.928	0.0160892
732.006	0.0161932
732.084	0.0161975
732.163	0.0165469
732.241	0.0163435
732.319	0.0164375
732.397	0.0163657
732.475	0.0163666
732.553	0.0163129
732.631	0.0162492
732.709	0.0162349
732.788	0.0161989
732.866	0.0160874
732.944	0.0159376
733.022	0.0159337
733.100	0.0158836
733.178	0.0157457
733.256	0.0158488
733.334	0.0158761
733.413	0.0160229
733.491	0.0158693
733.569	0.0160837
733.647	0.0160595
733.725	0.0160746
733.803	0.0161893
733.881	0.0163013
733.959	0.0164244
734.038	0.0165440
734.116	0.0166399
734.194	0.0167903
734.272	0.0169049
734.350	0.0170605
734.428	0.0170477
734.506	0.0171790
734.584	0.0170556
734.663	0.0171329
734.741	0.0172318
734.819	0.0172543
734.897	0.0171428
734.975	0.0172162
735.053	0.0171593
735.131	0.0168943
735.209	0.0169460
735.288	0.0167971
735.366	0.0166309
735.444	0.0166383
735.522	0.0165375
735.600	0.0164275
735.678	0.0163068
735.756	0.0162054
735.834	0.0162467
735.913	0.0161667
735.991	0.0161716
736.069	0.0161246
736.147	0.0161651
736.225	0.0161311
736.303	0.0162283
736.381	0.0162368
736.459	0.0162629
736.538	0.0161707
736.616	0.0161795
736.694	0.0162083
736.772	0.0162933
736.850	0.0160592
736.928	0.0161274
737.006	0.0159780
737.084	0.0159737
737.163	0.0159629
737.241	0.0158813
737.319	0.0159485
737.397	0.0158549
737.475	0.0158899
737.553	0.0159635
737.631	0.0157803
737.709	0.0157835
737.788	0.0158946
737.866	0.0157687
737.944	0.0157609
738.022	0.0157129
738.100	0.0156091
738.178	0.0156411
738.256	0.0156122
738.334	0.0156324
738.413	0.0156338
738.491	0.0156903
738.569	0.0157425
738.647	0.0157296
738.725	0.0158669
738.803	0.0157211
738.881	0.0157304
738.959	0.0158218
739.038	0.0159045
739.116	0.0159595
739.194	0.0161052
739.272	0.0160964
739.350	0.0161952
739.428	0.0161932
739.506	0.0161861
739.584	0.0163807
739.663	0.0164159
739.741	0.0165578
739.819	0.0165340
739.897	0.0166288
739.975	0.0168378
740.053	0.0168806
740.131	0.0170709
740.209	0.0172236
740.288	0.0172974
740.366	0.0172312
740.444	0.0175176
740.522	0.0176107
740.600	0.0176289
740.678	0.0174422
740.756	0.0173913
740.834	0.0172585
740.913	0.0173046
740.991	0.0171497
741.069	0.0169346
741.147	0.0168002
741.225	0.0166355
741.303	0.0164625
741.381	0.0164877
741.459	0.0162797
741.538	0.0161464
741.616	0.0159843
741.694	0.0157163
741.772	0.0155907
741.850	0.0157430
741.928	0.0156327
742.006	0.0156624
742.084	0.0156780
742.163	0.0156279
742.241	0.0156931
742.319	0.0157790
742.397	0.0158678
742.475	0.0160503
742.553	0.0160787
742.631	0.0162624
742.709	0.0163775
742.788	0.0165040
742.866	0.0164578
742.944	0.0165867
743.022	0.0167561
743.100	0.0166692
743.178	0.0167138
743.256	0.0169105
743.334	0.0168121
743.413	0.0169511
743.491	0.0168396
743.569	0.0169222
743.647	0.0168189
743.725	0.0168487
743.803	0.0166516
743.881	0.0165070
743.959	0.0165016
744.038	0.0163235
744.116	0.0163071
744.194	0.0163145
744.272	0.0162552
744.350	0.0161080
744.428	0.0160609
744.506	0.0157844
744.584	0.0157234
744.663	0.0157300
744.741	0.0156906
744.819	0.0157440
744.897	0.0156100
744.975	0.0156069
745.053	0.0156296
745.131	0.0157451
745.209	0.0157577
745.288	0.0157413
745.366	0.0160107
745.444	0.0158167
745.522	0.0160676
745.600	0.0160458
745.678	0.0161816
745.756	0.0161042
745.834	0.0161319
745.913	0.0161630
745.991	0.0162521
746.069	0.0161663
746.147	0.0160932
746.225	0.0160917
746.303	0.0160555
746.381	0.0160728
746.459	0.0161254
746.538	0.0162968
746.616	0.0162785
746.694	0.0163858
746.772	0.0163279
746.850	0.0163874
746.928	0.0165379
747.006	0.0166010
747.084	0.0166943
747.163	0.0166761
747.241	0.0166392
747.319	0.0166325
747.397	0.0167267
747.475	0.0167022
747.553	0.0166330
747.631	0.0165575
747.709	0.0165492
747.788	0.0164984
747.866	0.0163746
747.944	0.0164088
748.022	0.0164052
748.100	0.0164344
748.178	0.0162502
748.256	0.0163394
748.334	0.0163889
748.413	0.0163512
748.491	0.0165221
748.569	0.0164709
748.647	0.0164654
748.725	0.0164529
748.803	0.0164914
748.881	0.0165130
748.959	0.0165067
749.038	0.0167455
749.116	0.0165257
749.194	0.0164573
749.272	0.0166228
749.350	0.0164112
749.428	0.0165491
749.506	0.0165203
749.584	0.0164836
749.663	0.0162740
749.741	0.0162479
749.819	0.0162477
749.897	0.0161330
749.975	0.0162332
750.053	0.0162048
750.131	0.0161993
750.209	0.0162601
750.288	0.0163161
750.366	0.0163697
750.444	0.0163203
750.522	0.0161662
750.600	0.0162601
750.678	0.0164365
750.756	0.0163973
750.834	0.0163181
750.913	0.0163157
750.991	0.0163634
751.069	0.0163441
751.147	0.0165488
751.225	0.0163926
751.303	0.0164187
751.381	0.0163013
751.459	0.0163181
751.538	0.0163364
751.616	0.0163561
751.694	0.0163438
751.772	0.0162650
751.850	0.0162621
751.928	0.0160294
752.006	0.0161333
752.084	0.0161561
752.163	0.0161153
752.241	0.0161161
752.319	0.0159638
752.397	0.0159641
752.475	0.0158939
752.553	0.0158067
752.631	0.0158233
752.709	0.0159079
752.788	0.0159570
752.866	0.0158753
752.944	0.0157877
753.022	0.0158736
753.100	0.0157806
753.178	0.0157828
753.256	0.0160316
753.334	0.0159208
753.413	0.0161017
753.491	0.0161065
753.569	0.0161638
753.647	0.0163376
753.725	0.0164233
753.803	0.0163642
753.881	0.0165227
753.959	0.0165530
754.038	0.0166003
754.116	0.0165802
754.194	0.0165931
754.272	0.0166872
754.350	0.0167245
754.428	0.0166868
754.506	0.0167976
754.584	0.0166625
754.663	0.0166344
754.741	0.0166393
754.819	0.0168595
754.897	0.0168273
754.975	0.0167877
755.053	0.0167659
755.131	0.0165408
755.209	0.0166763
755.288	0.0167155
755.366	0.0166452
755.444	0.0165582
755.522	0.0164680
755.600	0.0164181
755.678	0.0165096
755.756	0.0164739
755.834	0.0162292
755.913	0.0163480
755.991	0.0163577
756.069	0.0163815
756.147	0.0163234
756.225	0.0164920
756.303	0.0165366
756.381	0.0163405
756.459	0.0163438
756.538	0.0165220
756.616	0.0163491
756.694	0.0163202
756.772	0.0164018
756.850	0.0162652
756.928	0.0163309
757.006	0.0162706
757.084	0.0162531
757.163	0.0161759
757.241	0.0163076
757.319	0.0162857
757.397	0.0162198
757.475	0.0164864
757.553	0.0164398
757.631	0.0163682
757.709	0.0164039
757.788	0.0164292
757.866	0.0164976
757.944	0.0165121
758.022	0.0163445
758.100	0.0165665
758.178	0.0164831
758.256	0.0163996
758.334	0.0164831
758.413	0.0163168
758.491	0.0163834
758.569	0.0162200
758.647	0.0163589
758.725	0.0163000
758.803	0.0162754
758.881	0.0161828
758.959	0.0161131
759.038	0.0161525
759.116	0.0161897
759.194	0.0159456
759.272	0.0160083
759.350	0.0160518
759.428	0.0158861
759.506	0.0158293
759.584	0.0156857
759.663	0.0156554
759.741	0.0157119
759.819	0.0158325
759.897	0.0158399
759.975	0.0156962
760.053	0.0158775
760.131	0.0160316
760.209	0.0159537
760.288	0.0159589
760.366	0.0161120
760.444	0.0162283
760.522	0.0162274
760.600	0.0162603
760.678	0.0163915
760.756	0.0163922
760.834	0.0165233
760.913	0.0165316
760.991	0.0165310
761.069	0.0165363
761.147	0.0167530
761.225	0.0166957
761.303	0.0167638
761.381	0.0167954
761.459	0.0168349
761.538	0.0168261
761.616	0.0166496
761.694	0.0168450
761.772	0.0168335
761.850	0.0167764
761.928	0.0167605
762.006	0.0167062
762.084	0.0166763
762.163	0.0165697
762.241	0.0165741
762.319	0.0165250
762.397	0.0164453
762.475	0.0162197
762.553	0.0163585
762.631	0.0163644
762.709	0.0162492
762.788	0.0162454
762.866	0.0162641
762.944	0.0161687
763.022	0.0161629
763.100	0.0162650
763.178	0.0162324
763.256	0.0162174
763.334	0.0164197
763.413	0.0162833
763.491	0.0163648
763.569	0.0164008
763.647	0.0165007
763.725	0.0165733
763.803	0.0165590
763.881	0.0165983
763.959	0.0168211
764.038	0.0166972
764.116	0.0167181
764.194	0.0167254
764.272	0.0166757
764.350	0.0168359
764.428	0.0166783
764.506	0.0167014
764.584	0.0165948
764.663	0.0165307
764.741	0.0165477
764.819	0.0163322
764.897	0.0163720
764.975	0.0162394
765.053	0.0163479
765.131	0.0161881
765.209	0.0161987
765.288	0.0161957
765.366	0.0161035
765.444	0.0160570
765.522	0.0160605
765.600	0.0160161
765.678	0.0160551
765.756	0.0160193
765.834	0.0160227
765.913	0.0158735
765.991	0.0159025
766.069	0.0159136
766.147	0.0159012
766.225	0.0158499
766.303	0.0158707
766.381	0.0159042
766.459	0.0158881
766.538	0.0159917
766.616	0.0158765
766.694	0.0160535
766.772	0.0161564
766.850	0.0159718
766.928	0.0161495
767.006	0.0161775
767.084	0.0162629
767.163	0.0162859
767.241	0.0163057
767.319	0.0163449
767.397	0.0162569
767.475	0.0162595
767.553	0.0162652
767.631	0.0162303
767.709	0.0163393
767.788	0.0162523
767.866	0.0164808
767.944	0.0161998
768.022	0.0163308
768.100	0.0163500
768.178	0.0164729
768.256	0.0164636
768.334	0.0163750
768.413	0.0165405
768.491	0.0166503
768.569	0.0165937
768.647	0.0166039
768.725	0.0166132
768.803	0.0166780
768.881	0.0167339
768.959	0.0164998
769.038	0.0165658
769.116	0.0165144
769.194	0.0166647
769.272	0.0166664
769.350	0.0164610
769.428	0.0163544
769.506	0.0166519
769.584	0.0164211
769.663	0.0163920
769.741	0.0165448
769.819	0.0163321
769.897	0.0163600
769.975	0.0164565
770.053	0.0163276
770.131	0.0163731
770.209	0.0162019
770.288	0.0162858
770.366	0.0162495
770.444	0.0164133
770.522	0.0161669
770.600	0.0162665
770.678	0.0163206
770.756	0.0163105
770.834	0.0162313
770.913	0.0162769
770.991	0.0163571
771.069	0.0164710
771.147	0.0164698
771.225	0.0163629
771.303	0.0163992
771.381	0.0164387
771.459	0.0164282
771.538	0.0163424
771.616	0.0163760
771.694	0.0162912
771.772	0.0163354
771.850	0.0164283
771.928	0.0162739
772.006	0.0164020
772.084	0.0165316
772.163	0.0165881
772.241	0.0164828
772.319	0.0164967
772.397	0.0165072
772.475	0.0165004
772.553	0.0164384
772.631	0.0164719
772.709	0.0164424
772.788	0.0163493
772.866	0.0163330
772.944	0.0164259
773.022	0.0164539
773.100	0.0163664
773.178	0.0162424
773.256	0.0163766
773.334	0.0161907
773.413	0.0162111
773.491	0.0163247
773.569	0.0162141
773.647	0.0161517
773.725	0.0160786
773.803	0.0161347
773.881	0.0160929
773.959	0.0159621
774.038	0.0160536
774.116	0.0159071
774.194	0.0160317
774.272	0.0160890
774.350	0.0159759
774.428	0.0159293
774.506	0.0159396
774.584	0.0158057
774.663	0.0157984
774.741	0.0160144
774.819	0.0159891
774.897	0.0160659
774.975	0.0159888
775.053	0.0158282
775.131	0.0159767
775.209	0.0160886
775.288	0.0159597
775.366	0.0159600
775.444	0.0159809
775.522	0.0161247
775.600	0.0161826
775.678	0.0161132
775.756	0.0161841
775.834	0.0163180
775.913	0.0163451
775.991	0.0163042
776.069	0.0163776
776.147	0.0164964
776.225	0.0165343
776.303	0.0165656
776.381	0.0165607
776.459	0.0166270
776.538	0.0167339
776.616	0.0168262
776.694	0.0167480
776.772	0.0166999
776.850	0.0168922
776.928	0.0168671
777.006	0.0168333
777.084	0.0167552
777.163	0.0166314
777.241	0.0168119
777.319	0.0167603
777.397	0.0168761
777.475	0.0166759
777.553	0.0166900
777.631	0.0166252
777.709	0.0167055
777.788	0.0165753
777.866	0.0165044
777.944	0.0164628
778.022	0.0163602
778.100	0.0162626
778.178	0.0162729
778.256	0.0163830
778.334	0.0162316
778.413	0.0161176
778.491	0.0161039
778.569	0.0161500
778.647	0.0161499
778.725	0.0161878
778.803	0.0161711
778.881	0.0163074
778.959	0.0163593
779.038	0.0163782
779.116	0.0163284
779.194	0.0163718
779.272	0.0165862
779.350	0.0165879
779.428	0.0165199
779.506	0.0164881
779.584	0.0165903
779.663	0.0164504
779.741	0.0163469
779.819	0.0162403
779.897	0.0163933
779.975	0.0163684
780.053	0.0160999
780.131	0.0160513
780.209	0.0159143
780.288	0.0157228
780.366	0.0157520
780.444	0.0156397
780.522	0.0154993
780.600	0.0155304
780.678	0.0155330
780.756	0.0154758
780.834	0.0156084
780.913	0.0156212
780.991	0.0159032
781.069	0.0159084
781.147	0.0163123
781.225	0.0163865
781.303	0.0164538
781.381	0.0166254
781.459	0.0169104
781.538	0.0169393
781.616	0.0169768
781.694	0.0170908
781.772	0.0170318
781.850	0.0169401
781.928	0.0168948
782.006	0.0169310
782.084	0.0166055
782.163	0.0164009
782.241	0.0162455
782.319	0.0159911
782.397	0.0158479
782.475	0.0156931
782.553	0.0154752
782.631	0.0153288
782.709	0.0153525
782.788	0.0154568
782.866	0.0152248
782.944	0.0151425
783.022	0.0152455
783.100	0.0153458
783.178	0.0154626
783.256	0.0155962
783.334	0.0156635
783.413	0.0159812
783.491	0.0161782
783.569	0.0162884
783.647	0.0164647
783.725	0.0167225
783.803	0.0169213
783.881	0.0172136
783.959	0.0174246
784.038	0.0174394
784.116	0.0175910
784.194	0.0177145
784.272	0.0177454
784.350	0.0176533
784.428	0.0176537
784.506	0.0177180
784.584	0.0174386
784.663	0.0172472
784.741	0.0170640
784.819	0.0169129
784.897	0.0167620
784.975	0.0166314
785.053	0.0164782
785.131	0.0163378
785.209	0.0162076
785.288	0.0160875
785.366	0.0160993
785.444	0.0160152
785.522	0.0159249
785.600	0.0158759
785.678	0.0159041
785.756	0.0159513
785.834	0.0158676
785.913	0.0158358
785.991	0.0158936
786.069	0.0159896
786.147	0.0158338
786.225	0.0158750
786.303	0.0160251
786.381	0.0160668
786.459	0.0160403
786.538	0.0159212
786.616	0.0159021
786.694	0.0158958
786.772	0.0160481
786.850	0.0160896
786.928	0.0160525
787.006	0.0159647
787.084	0.0161954
787.163	0.0163996
787.241	0.0164523
787.319	0.0164156
787.397	0.0163607
787.475	0.0165154
787.553	0.0166268
787.631	0.0164736
787.709	0.0167004
787.788	0.0166987
787.866	0.0167513
787.944	0.0167358
788.022	0.0167922
788.100	0.0168019
788.178	0.0166846
788.256	0.0166003
788.334	0.0166100
788.413	0.0166280
788.491	0.0164687
788.569	0.0164405
788.647	0.0163029
788.725	0.0162004
788.803	0.0162109
788.881	0.0160974
788.959	0.0157509
789.038	0.0157394
789.116	0.0155380
789.194	0.0156740
789.272	0.0155537
789.350	0.0155250
789.428	0.0155640
789.506	0.0154891
789.584	0.0154966
789.663	0.0154076
789.741	0.0154941
789.819	0.0156197
789.897	0.0155924
789.975	0.0157804
790.053	0.0157185
790.131	0.0158894
790.209	0.0158571
790.288	0.0158470
790.366	0.0159643
790.444	0.0161656
790.522	0.0162334
790.600	0.0163534
790.678	0.0163615
790.756	0.0165167
790.834	0.0166023
790.913	0.0167133
790.991	0.0169301
791.069	0.0169012
791.147	0.0168829
791.225	0.0169047
791.303	0.0170481
791.381	0.0171435
791.459	0.0171149
791.538	0.0170149
791.616	0.0171602
791.694	0.0171400
791.772	0.0169677
791.850	0.0171201
791.928	0.0170698
792.006	0.0169675
792.084	0.0168066
792.163	0.0167017
792.241	0.0167239
792.319	0.0166016
792.397	0.0164825
792.475	0.0162855
792.553	0.0161227
792.631	0.0161398
792.709	0.0159031
792.788	0.0159438
792.866	0.0157805
792.944	0.0156524
793.022	0.0157791
793.100	0.0157388
793.178	0.0155796
793.256	0.0156497
793.334	0.0157907
793.413	0.0158950
793.491	0.0158273
793.569	0.0158302
793.647	0.0158229
793.725	0.0159712
793.803	0.0160953
793.881	0.0162059
793.959	0.0161884
794.038	0.0161615
794.116	0.0163825
794.194	0.0163884
794.272	0.0164352
794.350	0.0165137
794.428	0.0163203
794.506	0.0162775
794.584	0.0165294
794.663	0.0164991
794.741	0.0165447
794.819	0.0164528
794.897	0.0164687
794.975	0.0163802
795.053	0.0161539
795.131	0.0162823
795.209	0.0161861
795.288	0.0163029
795.366	0.0162296
795.444	0.0162676
795.522	0.0161467
795.600	0.0162113
795.678	0.0161413
795.756	0.0161531
795.834	0.0163095
795.913	0.0163245
795.991	0.0163789
796.069	0.0163567
796.147	0.0164568
796.225	0.0163557
796.303	0.0163083
796.381	0.0164365
796.459	0.0165123
796.538	0.0163759
796.616	0.0164651
796.694	0.0165122
796.772	0.0164701
796.850	0.0164664
796.928	0.0162142
797.006	0.0163728
797.084	0.0163240
797.163	0.0160886
797.241	0.0163419
797.319	0.0161133
797.397	0.0161774
797.475	0.0160114
797.553	0.0160515
797.631	0.0160593
797.709	0.0161362
797.788	0.0160059
797.866	0.0160870
797.944	0.0161678
798.022	0.0160194
798.100	0.0160829
798.178	0.0160319
798.256	0.0161579
798.334	0.0162363
798.413	0.0161314
798.491	0.0162295
798.569	0.0161667
798.647	0.0163378
798.725	0.0164093
798.803	0.0162469
798.881	0.0162130
798.959	0.0163309
799.038	0.0162844
799.116	0.0163110
799.194	0.0162846
799.272	0.0162842
799.350	0.0162286
799.428	0.0161996
799.506	0.0161869
799.584	0.0162109
799.663	0.0161726
799.741	0.0160393
799.819	0.0162175
799.897	0.0162862
799.975	0.0163361
800.053	0.0165682
800.131	0.0164153
800.209	0.0165546
800.288	0.0165761
800.366	0.0165985
800.444	0.0167503
800.522	0.0167387
800.600	0.0166744
800.678	0.0168481
800.756	0.0167220
800.834	0.0168279
800.913	0.0168095
800.991	0.0167706
801.069	0.0168232
801.147	0.0166412
801.225	0.0167226
801.303	0.0168695
801.381	0.0166582
801.459	0.0165063
801.538	0.0165691
801.616	0.0165005
801.694	0.0165051
801.772	0.0164799
801.850	0.0164585
801.928	0.0162453
802.006	0.0162553
802.084	0.0163702
802.163	0.0162830
802.241	0.0162080
802.319	0.0160923
802.397	0.0160242
802.475	0.0161044
802.553	0.0162009
802.631	0.0160057
802.709	0.0161959
802.788	0.0161803
802.866	0.0160975
802.944	0.0159898
803.022	0.0160312
803.100	0.0159581
803.178	0.0159882
803.256	0.0158907
803.334	0.0160518
803.413	0.0159485
803.491	0.0158549
803.569	0.0158661
803.647	0.0158370
803.725	0.0158881
803.803	0.0158120
803.881	0.0158241
803.959	0.0158230
804.038	0.0157890
804.116	0.0157033
804.194	0.0159321
804.272	0.0159192
804.350	0.0158589
804.428	0.0158518
804.506	0.0159119
804.584	0.0158580
804.663	0.0159451
804.741	0.0157259
804.819	0.0159303
804.897	0.0161142
804.975	0.0160877
805.053	0.0161437
805.131	0.0161659
805.209	0.0162668
805.288	0.0163204
805.366	0.0163287
805.444	0.0163802
805.522	0.0164735
805.600	0.0165300
805.678	0.0164989
805.756	0.0166505
805.834	0.0166379
805.913	0.0166277
805.991	0.0168176
806.069	0.0168871
806.147	0.0168433
806.225	0.0167550
806.303	0.0169254
806.381	0.0169721
806.459	0.0168692
806.538	0.0169135
806.616	0.0169511
806.694	0.0169386
806.772	0.0168383
806.850	0.0168974
806.928	0.0168597
807.006	0.0167632
807.084	0.0167413
807.163	0.0165323
807.241	0.0164465
807.319	0.0166116
807.397	0.0163600
807.475	0.0162787
807.553	0.0162126
807.631	0.0162107
807.709	0.0163164
807.788	0.0161701
807.866	0.0160938
807.944	0.0161705
808.022	0.0162115
808.100	0.0162078
808.178	0.0162742
808.256	0.0162140
808.334	0.0163013
808.413	0.0164153
808.491	0.0162828
808.569	0.0163833
808.647	0.0163409
808.725	0.0162532
808.803	0.0163001
808.881	0.0163063
808.959	0.0163707
809.038	0.0162782
809.116	0.0163094
809.194	0.0162226
809.272	0.0161589
809.350	0.0161593
809.428	0.0159039
809.506	0.0159622
809.584	0.0161044
809.663	0.0158637
809.741	0.0159081
809.819	0.0160489
809.897	0.0159479
809.975	0.0157264
810.053	0.0158694
810.131	0.0159441
810.209	0.0157803
810.288	0.0158469
810.366	0.0157838
810.444	0.0158340
810.522	0.0158887
810.600	0.0159482
810.678	0.0158901
810.756	0.0158862
810.834	0.0159811
810.913	0.0160712
810.991	0.0161240
811.069	0.0161301
811.147	0.0162587
811.225	0.0163343
811.303	0.0164190
811.381	0.0165076
811.459	0.0164616
811.538	0.0164049
811.616	0.0164864
811.694	0.0166338
811.772	0.0165342
811.850	0.0166280
811.928	0.0166698
812.006	0.0167509
812.084	0.0166537
812.163	0.0166827
812.241	0.0165631
812.319	0.0166870
812.397	0.0166073
812.475	0.0165260
812.553	0.0166763
812.631	0.0164223
812.709	0.0162971
812.788	0.0163148
812.866	0.0163584
812.944	0.0162967
813.022	0.0162183
813.100	0.0161972
813.178	0.0162302
813.256	0.0162700
813.334	0.0161572
813.413	0.0162042
813.491	0.0164318
813.569	0.0163777
813.647	0.0163124
813.725	0.0163742
813.803	0.0164717
813.881	0.0165154
813.959	0.0165710
814.038	0.0167314
814.116	0.0165829
814.194	0.0166290
814.272	0.0166900
814.350	0.0167400
814.428	0.0167966
814.506	0.0166595
814.584	0.0168542
814.663	0.0168114
814.741	0.0166631
814.819	0.0167574
814.897	0.0167451
814.975	0.0165382
815.053	0.0163542
815.131	0.0164956
815.209	0.0165089
815.288	0.0163245
815.366	0.0162350
815.444	0.0160651
815.522	0.0159624
815.600	0.0160339
815.678	0.0160439
815.756	0.0158998
815.834	0.0158267
815.913	0.0160432
815.991	0.0159515
816.069	0.0158440
816.147	0.0157939
816.225	0.0157632
816.303	0.0159612
816.381	0.0159586
816.459	0.0159335
816.538	0.0160079
816.616	0.0160350
816.694	0.0159097
816.772	0.0161291
816.850	0.0160250
816.928	0.0161435
817.006	0.0162312
817.084	0.0163182
817.163	0.0165258
817.241	0.0164925
817.319	0.0166252
817.397	0.0165695
817.475	0.0165714
817.553	0.0166239
817.631	0.0167374
817.709	0.0167975
817.788	0.0166016
817.866	0.0167137
817.944	0.0165826
818.022	0.0166725
818.100	0.0165331
818.178	0.0165057
818.256	0.0164393
818.334	0.0164072
818.413	0.0164421
818.491	0.0164194
818.569	0.0162254
818.647	0.0164307
818.725	0.0163814
818.803	0.0163288
818.881	0.0162553
818.959	0.0162623
819.038	0.0161855
819.116	0.0162376
819.194	0.0162538
819.272	0.0161069
819.350	0.0161784
819.428	0.0162366
819.506	0.0162524
819.584	0.0160886
819.663	0.0162473
819.741	0.0162525
819.819	0.0163610
819.897	0.0163163
819.975	0.0162715
820.053	0.0164071
820.131	0.0163821
820.209	0.0163514
820.288	0.0164880
820.366	0.0163406
820.444	0.0164285
820.522	0.0163447
820.600	0.0164043
820.678	0.0164342
820.756	0.0164139
820.834	0.0162840
820.913	0.0162336
820.991	0.0162194
821.069	0.0163219
821.147	0.0162870
821.225	0.0162621
821.303	0.0160016
821.381	0.0161464
821.459	0.0161369
821.538	0.0160504
821.616	0.0160711
821.694	0.0162065
821.772	0.0161070
821.850	0.0160658
821.928	0.0161322
822.006	0.0160472
822.084	0.0160549
822.163	0.0160992
822.241	0.0161803
822.319	0.0162643
822.397	0.0162161
822.475	0.0163001
822.553	0.0163259
822.631	0.0164175
822.709	0.0163023
822.788	0.0164861
822.866	0.0164132
822.944	0.0165266
823.022	0.0166086
823.100	0.0165868
823.178	0.0167065
823.256	0.0166615
823.334	0.0168586
823.413	0.0169228
823.491	0.0167387
823.569	0.0167300
823.647	0.0166836
823.725	0.0167100
823.803	0.0167872
823.881	0.0167558
823.959	0.0167093
824.038	0.0165161
824.116	0.0165383
824.194	0.0164243
824.272	0.0163384
824.350	0.0162598
824.428	0.0162585
824.506	0.0161742
824.584	0.0160672
824.663	0.0161555
824.741	0.0160706
824.819	0.0160696
824.897	0.0160471
824.975	0.0160282
825.053	0.0160813
825.131	0.0160449
825.209	0.0158565
825.288	0.0159668
825.366	0.0160584
825.444	0.0159785
825.522	0.0161973
825.600	0.0161849
825.678	0.0161401
825.756	0.0162611
825.834	0.0163662
825.913	0.0166193
825.991	0.0164886
826.069	0.0165602
826.147	0.0165273
826.225	0.0165801
826.303	0.0165388
826.381	0.0166243
826.459	0.0164677
826.538	0.0165524
826.616	0.0164724
826.694	0.0163895
826.772	0.0164098
826.850	0.0164133
826.928	0.0162615
827.006	0.0161118
827.084	0.0162589
827.163	0.0162440
827.241	0.0162443
827.319	0.0160521
827.397	0.0162052
827.475	0.0161001
827.553	0.0161814
827.631	0.0160270
827.709	0.0161330
827.788	0.0162146
827.866	0.0161274
827.944	0.0161427
828.022	0.0160661
828.100	0.0159956
828.178	0.0159392
828.256	0.0161363
828.334	0.0159527
828.413	0.0160596
828.491	0.0160680
828.569	0.0159720
828.647	0.0160711
828.725	0.0160598
828.803	0.0160513
828.881	0.0160318
828.959	0.0160416
829.038	0.0160675
829.116	0.0160051
829.194	0.0161711
829.272	0.0162671
829.350	0.0162138
829.428	0.0163981
829.506	0.0164360
829.584	0.0164231
829.663	0.0165942
829.741	0.0164922
829.819	0.0165414
829.897	0.0166028
829.975	0.0166262
830.053	0.0167663
830.131	0.0168378
830.209	0.0167141
830.288	0.0168439
830.366	0.0168237
830.444	0.0168532
830.522	0.0166504
830.600	0.0167690
830.678	0.0167103
830.756	0.0165558
830.834	0.0166922
830.913	0.0167155
830.991	0.0166158
831.069	0.0164488
831.147	0.0164824
831.225	0.0166299
831.303	0.0163882
831.381	0.0163111
831.459	0.0165613
831.538	0.0163712
831.616	0.0164352
831.694	0.0163984
831.772	0.0163261
831.850	0.0161597
831.928	0.0163305
832.006	0.0162688
832.084	0.0162386
832.163	0.0161848
832.241	0.0161490
832.319	0.0162766
832.397	0.0161390
832.475	0.0159872
832.553	0.0161269
832.631	0.0160276
832.709	0.0159933
832.788	0.0158800
832.866	0.0160426
832.944	0.0159751
833.022	0.0159849
833.100	0.0159948
833.178	0.0160826
833.256	0.0160605
833.334	0.0160966
833.413	0.0160413
833.491	0.0160616
833.569	0.0162070
833.647	0.0161719
833.725	0.0161762
833.803	0.0162594
833.881	0.0164021
833.959	0.0162899
834.038	0.0163300
834.116	0.0163984
834.194	0.0163063
834.272	0.0163482
834.350	0.0164388
834.428	0.0164408
834.506	0.0164869
834.584	0.0163527
834.663	0.0164921
834.741	0.0163784
834.819	0.0163678
834.897	0.0163066
834.975	0.0162579
835.053	0.0162580
835.131	0.0162184
835.209	0.0163303
835.288	0.0161951
835.366	0.0161907
835.444	0.0161655
835.522	0.0161211
835.600	0.0161732
835.678	0.0161279
835.756	0.0162702
835.834	0.0163332
835.913	0.0163110
835.991	0.0162820
836.069	0.0164223
836.147	0.0162103
836.225	0.0164611
836.303	0.0164729
836.381	0.0163819
836.459	0.0165617
836.538	0.0165526
836.616	0.0164833
836.694	0.0165009
836.772	0.0165155
836.850	0.0165849
836.928	0.0165428
837.006	0.0165487
837.084	0.0166150
837.163	0.0166209
837.241	0.0166542
837.319	0.0166090
837.397	0.0165225
837.475	0.0164820
837.553	0.0166281
837.631	0.0165451
837.709	0.0164520
837.788	0.0164657
837.866	0.0164918
837.944	0.0163010
838.022	0.0164504
838.100	0.0163923
838.178	0.0164503
838.256	0.0163739
838.334	0.0164568
838.413	0.0164501
838.491	0.0164945
838.569	0.0165269
838.647	0.0164227
838.725	0.0164389
838.803	0.0164114
838.881	0.0164706
838.959	0.0165166
839.038	0.0163735
839.116	0.0164244
839.194	0.0164126
839.272	0.0164137
839.350	0.0164027
839.428	0.0162839
839.506	0.0163182
839.584	0.0161629
839.663	0.0162365
839.741	0.0161894
839.819	0.0162859
839.897	0.0161974
839.975	0.0161436
840.053	0.0161481
840.131	0.0161694
840.209	0.0161059
840.288	0.0161624
840.366	0.0159753
840.444	0.0159895
840.522	0.0159464
840.600	0.0159246
840.678	0.0159483
840.756	0.0159629
840.834	0.0159472
840.913	0.0160503
840.991	0.0159502
841.069	0.0160916
841.147	0.0160385
841.225	0.0160519
841.303	0.0161111
841.381	0.0160757
841.459	0.0161693
841.538	0.0163346
841.616	0.0164854
841.694	0.0164896
841.772	0.0163477
841.850	0.0164584
841.928	0.0165567
842.006	0.0165054
842.084	0.0166492
842.163	0.0165960
842.241	0.0166751
842.319	0.0166808
842.397	0.0166675
842.475	0.0164907
842.553	0.0164389
842.631	0.0164151
842.709	0.0165731
842.788	0.0165214
842.866	0.0164230
842.944	0.0163440
843.022	0.0163985
843.100	0.0163393
843.178	0.0163303
843.256	0.0162535
843.334	0.0162087
843.413	0.0161388
843.491	0.0162351
843.569	0.0161809
843.647	0.0162370
843.725	0.0162158
843.803	0.0161927
843.881	0.0161466
843.959	0.0163335
844.038	0.0161718
844.116	0.0162833
844.194	0.0162890
844.272	0.0163963
844.350	0.0162622
844.428	0.0163981
844.506	0.0165147
844.584	0.0165546
844.663	0.0165411
844.741	0.0164626
844.819	0.0166537
844.897	0.0164526
844.975	0.0166138
845.053	0.0166628
845.131	0.0166764
845.209	0.0166812
845.288	0.0166888
845.366	0.0165349
845.444	0.0164452
845.522	0.0165701
845.600	0.0164065
845.678	0.0164306
845.756	0.0165544
845.834	0.0164070
845.913	0.0164529
845.991	0.0164413
846.069	0.0163385
846.147	0.0164442
846.225	0.0162875
846.303	0.0164319
846.381	0.0164571
846.459	0.0164416
846.538	0.0163379
846.616	0.0163455
846.694	0.0164652
846.772	0.0163309
846.850	0.0163337
846.928	0.0164665
847.006	0.0162868
847.084	0.0162908
847.163	0.0161575
847.241	0.0161926
847.319	0.0161392
847.397	0.0160405
847.475	0.0161900
847.553	0.0159646
847.631	0.0160633
847.709	0.0161593
847.788	0.0162589
847.866	0.0161165
847.944	0.0159854
848.022	0.0161305
848.100	0.0163597
848.178	0.0162424
848.256	0.0161692
848.334	0.0163072
848.413	0.0163174
848.491	0.0164465
848.569	0.0165112
848.647	0.0164387
848.725	0.0165211
848.803	0.0166342
848.881	0.0166548
848.959	0.0165963
849.038	0.0165762
849.116	0.0166673
849.194	0.0166419
849.272	0.0166525
849.350	0.0166147
849.428	0.0165480
849.506	0.0164291
849.584	0.0163947
849.663	0.0163602
849.741	0.0163937
849.819	0.0163087
849.897	0.0163412
849.975	0.0161559
850.053	0.0161083
850.131	0.0162516
850.209	0.0161514
850.288	0.0161410
850.366	0.0161263
850.444	0.0162389
850.522	0.0161658
850.600	0.0161670
850.678	0.0161858
850.756	0.0163792
850.834	0.0163365
850.913	0.0161581
850.991	0.0163014
851.069	0.0163858
851.147	0.0163984
851.225	0.0162793
851.303	0.0163515
851.381	0.0164120
851.459	0.0163531
851.538	0.0163735
851.616	0.0164352
851.694	0.0164394
851.772	0.0165288
851.850	0.0161830
851.928	0.0162734
852.006	0.0164554
852.084	0.0164735
852.163	0.0164420
852.241	0.0162003
852.319	0.0162038
852.397	0.0163210
852.475	0.0163082
852.553	0.0161526
852.631	0.0161514
852.709	0.0161890
852.788	0.0162652
852.866	0.0163886
852.944	0.0163466
853.022	0.0163912
853.100	0.0163036
853.178	0.0163654
853.256	0.0164792
853.334	0.0165092
853.413	0.0164378
853.491	0.0166386
853.569	0.0165746
853.647	0.0165167
853.725	0.0165420
853.803	0.0165816
853.881	0.0166986
853.959	0.0167136
854.038	0.0166401
854.116	0.0165623
854.194	0.0164800
854.272	0.0165017
854.350	0.0164796
854.428	0.0164651
854.506	0.0164135
854.584	0.0164246
854.663	0.0164188
854.741	0.0163952
854.819	0.0163317
854.897	0.0162494
854.975	0.0162594
855.053	0.0160696
855.131	0.0161279
855.209	0.0162195
855.288	0.0161813
855.366	0.0161214
855.444	0.0159917
855.522	0.0160180
855.600	0.0160040
855.678	0.0159029
855.756	0.0159187
855.834	0.0158762
855.913	0.0159791
855.991	0.0158122
856.069	0.0158186
856.147	0.0158942
856.225	0.0157591
856.303	0.0156030
856.381	0.0158096
856.459	0.0160760
856.538	0.0159512
856.616	0.0158862
856.694	0.0161006
856.772	0.0159790
856.850	0.0160524
856.928	0.0162617
857.006	0.0161208
857.084	0.0160095
857.163	0.0162829
857.241	0.0162966
857.319	0.0162341
857.397	0.0163266
857.475	0.0163956
857.553	0.0164288
857.631	0.0164737
857.709	0.0165400
857.788	0.0164618
857.866	0.0165299
857.944	0.0164407
858.022	0.0165530
858.100	0.0166795
858.178	0.0166805
858.256	0.0167017
858.334	0.0166627
858.413	0.0167683
858.491	0.0166764
858.569	0.0166663
858.647	0.0167805
858.725	0.0168050
858.803	0.0168785
858.881	0.0169328
858.959	0.0168093
859.038	0.0167271
859.116	0.0168109
859.194	0.0168015
859.272	0.0167021
859.350	0.0165545
859.428	0.0165627
859.506	0.0166253
859.584	0.0165646
859.663	0.0163429
859.741	0.0164157
859.819	0.0164266
859.897	0.0163579
859.975	0.0162322
860.053	0.0160638
860.131	0.0159699
860.209	0.0162318
860.288	0.0160064
860.366	0.0160253
860.444	0.0159202
860.522	0.0158238
860.600	0.0159838
860.678	0.0159349
860.756	0.0159925
860.834	0.0160185
860.913	0.0159380
860.991	0.0160976
861.069	0.0161689
861.147	0.0161792
861.225	0.0162753
861.303	0.0162428
861.381	0.0162290
861.459	0.0163350
861.538	0.0162403
861.616	0.0163267
861.694	0.0162989
861.772	0.0164524
861.850	0.0164880
861.928	0.0164051
862.006	0.0162621
862.084	0.0164388
862.163	0.0163585
862.241	0.0163896
862.319	0.0165090
862.397	0.0164513
862.475	0.0163570
862.553	0.0162877
862.631	0.0163453
862.709	0.0162798
862.788	0.0162575
862.866	0.0162076
862.944	0.0162148
863.022	0.0161877
863.100	0.0159885
863.178	0.0162434
863.256	0.0161674
863.334	0.0160895
863.413	0.0160995
863.491	0.0160908
863.569	0.0160286
863.647	0.0161657
863.725	0.0162225
863.803	0.0161274
863.881	0.0162972
863.959	0.0162768
864.038	0.0162346
864.116	0.0162315
864.194	0.0163222
864.272	0.0161817
864.350	0.0162308
864.428	0.0163511
864.506	0.0162484
864.584	0.0163870
864.663	0.0164295
864.741	0.0163058
864.819	0.0163493
864.897	0.0163648
864.975	0.0164171
865.053	0.0163098
865.131	0.0163849
865.209	0.0163616
865.288	0.0163906
865.366	0.0162725
865.444	0.0162461
865.522	0.0163929
865.600	0.0162583
865.678	0.0162006
865.756	0.0163111
865.834	0.0162999
865.913	0.0162979
865.991	0.0161830
866.069	0.0163136
866.147	0.0163484
866.225	0.0162611
866.303	0.0163404
866.381	0.0162629
866.459	0.0163863
866.538	0.0164332
866.616	0.0163048
866.694	0.0162646
866.772	0.0163011
866.850	0.0163715
866.928	0.0165037
867.006	0.0163892
867.084	0.0164342
867.163	0.0164318
867.241	0.0164308
867.319	0.0163662
867.397	0.0162879
867.475	0.0162221
867.553	0.0163199
867.631	0.0163863
867.709	0.0161707
867.788	0.0163290
867.866	0.0161897
867.944	0.0163565
868.022	0.0163824
868.100	0.0161807
868.178	0.0161626
868.256	0.0163303
868.334	0.0160909
868.413	0.0161481
868.491	0.0161801
868.569	0.0162312
868.647	0.0161022
868.725	0.0160066
868.803	0.0159944
868.881	0.0159732
868.959	0.0159663
869.038	0.0159133
869.116	0.0159371
869.194	0.0160799
869.272	0.0160316
869.350	0.0158583
869.428	0.0160619
869.506	0.0160410
869.584	0.0160094
869.663	0.0160293
869.741	0.0159624
869.819	0.0161932
869.897	0.0163005
869.975	0.0161380
870.053	0.0161702
870.131	0.0163918
870.209	0.0163483
870.288	0.0165905
870.366	0.0165038
870.444	0.0165560
870.522	0.0165800
870.600	0.0166776
870.678	0.0166115
870.756	0.0164226
870.834	0.0165467
870.913	0.0165763
870.991	0.0166613
871.069	0.0166682
871.147	0.0165627
871.225	0.0164684
871.303	0.0164841
871.381	0.0163412
871.459	0.0164596
871.538	0.0165012
871.616	0.0163599
871.694	0.0163274
871.772	0.0164133
871.850	0.0162313
871.928	0.0162598
872.006	0.0162332
872.084	0.0162782
872.163	0.0162922
872.241	0.0162253
872.319	0.0162719
872.397	0.0161506
872.475	0.0162753
872.553	0.0163222
872.631	0.0162749
872.709	0.0164496
872.788	0.0163717
872.866	0.0161725
872.944	0.0162861
873.022	0.0162782
873.100	0.0163570
873.178	0.0163663
873.256	0.0163559
873.334	0.0162727
873.413	0.0161900
873.491	0.0162138
873.569	0.0162424
873.647	0.0161839
873.725	0.0161842
873.803	0.0161047
873.881	0.0161567
873.959	0.0162688
874.038	0.0161693
874.116	0.0162994
874.194	0.0164151
874.272	0.0164936
874.350	0.0165863
874.428	0.0167227
874.506	0.0167073
874.584	0.0167413
874.663	0.0166850
874.741	0.0165158
874.819	0.0164758
874.897	0.0162956
874.975	0.0163901
875.053	0.0162523
875.131	0.0161262
875.209	0.0159536
875.288	0.0158404
875.366	0.0158933
875.444	0.0157632
875.522	0.0156925
875.600	0.0156115
875.678	0.0158048
875.756	0.0157557
875.834	0.0158288
875.913	0.0159711
875.991	0.0159690
876.069	0.0161257
876.147	0.0161868
876.225	0.0163795
876.303	0.0165335
876.381	0.0166949
876.459	0.0170421
876.538	0.0172233
876.616	0.0173205
876.694	0.0174791
876.772	0.0176672
876.850	0.0177223
876.928	0.0177287
877.006	0.0176796
877.084	0.0176134
877.163	0.0173697
877.241	0.0171090
877.319	0.0166757
877.397	0.0164945
877.475	0.0160452
877.553	0.0156270
877.631	0.0153229
877.709	0.0149638
877.788	0.0148873
877.866	0.0147294
877.944	0.0146024
878.022	0.0146144
878.100	0.0147310
878.178	0.0149017
878.256	0.0149384
878.334	0.0150688
878.413	0.0153897
878.491	0.0156577
878.569	0.0159042
878.647	0.0162684
878.725	0.0165128
878.803	0.0167318
878.881	0.0170049
878.959	0.0170789
879.038	0.0174053
879.116	0.0175526
879.194	0.0176463
879.272	0.0176872
879.350	0.0179642
879.428	0.0177273
879.506	0.0176739
879.584	0.0175078
879.663	0.0173493
879.741	0.0171735
879.819	0.0169866
879.897	0.0166195
879.975	0.0163105
880.053	0.0159599
880.131	0.0156638
880.209	0.0154822
880.288	0.0151464
880.366	0.0150320
880.444	0.0148453
880.522	0.0146669
880.600	0.0148586
880.678	0.0148262
880.756	0.0148904
880.834	0.0150526
880.913	0.0152199
880.991	0.0153879
881.069	0.0155368
881.147	0.0158369
881.225	0.0161115
881.303	0.0162669
881.381	0.0164893
881.459	0.0165402
881.538	0.0166269
881.616	0.0168047
881.694	0.0168715
881.772	0.0169061
881.850	0.0170544
881.928	0.0172606
882.006	0.0172751
882.084	0.0173126
882.163	0.0173289
882.241	0.0174136
882.319	0.0173132
882.397	0.0173352
882.475	0.0171325
882.553	0.0171429
882.631	0.0169812
882.709	0.0167542
882.788	0.0166848
882.866	0.0164709
882.944	0.0162082
883.022	0.0161359
883.100	0.0159342
883.178	0.0157614
883.256	0.0156210
883.334	0.0154939
883.413	0.0154168
883.491	0.0153846
883.569	0.0155500
883.647	0.0154427
883.725	0.0155457
883.803	0.0154998
883.881	0.0154248
883.959	0.0156914
884.038	0.0157226
884.116	0.0156539
884.194	0.0159401
884.272	0.0159502
884.350	0.0159690
884.428	0.0160392
884.506	0.0161166
884.584	0.0163129
884.663	0.0163934
884.741	0.0165541
884.819	0.0166548
884.897	0.0167896
884.975	0.0167712
885.053	0.0167888
885.131	0.0168227
885.209	0.0168247
885.288	0.0167827
885.366	0.0169464
885.444	0.0168002
885.522	0.0166460
885.600	0.0165020
885.678	0.0165301
885.756	0.0164669
885.834	0.0163811
885.913	0.0163412
885.991	0.0162157
886.069	0.0162221
886.147	0.0163451
886.225	0.0161777
886.303	0.0160334
886.381	0.0160624
886.459	0.0162093
886.538	0.0162337
886.616	0.0162786
886.694	0.0164997
886.772	0.0162971
886.850	0.0164366
886.928	0.0164828
887.006	0.0164394
887.084	0.0165460
887.163	0.0165662
887.241	0.0166402
887.319	0.0166346
887.397	0.0165802
887.475	0.0166344
887.553	0.0167964
887.631	0.0165491
887.709	0.0164108
887.788	0.0165331
887.866	0.0164652
887.944	0.0163023
888.022	0.0162309
888.100	0.0161854
888.178	0.0164017
888.256	0.0160413
888.334	0.0158958
888.413	0.0159505
888.491	0.0157976
888.569	0.0159807
888.647	0.0160195
888.725	0.0158730
888.803	0.0158823
888.881	0.0158983
888.959	0.0159789
889.038	0.0160802
889.116	0.0160668
889.194	0.0161207
889.272	0.0162461
889.350	0.0163406
889.428	0.0164455
889.506	0.0161862
889.584	0.0162868
889.663	0.0164160
889.741	0.0162483
889.819	0.0163629
889.897	0.0163874
889.975	0.0163828
890.053	0.0161996
890.131	0.0162478
890.209	0.0162563
890.288	0.0163057
890.366	0.0160627
890.444	0.0161416
890.522	0.0160760
890.600	0.0161077
890.678	0.0161974
890.756	0.0162984
890.834	0.0163126
890.913	0.0162805
890.991	0.0162384
891.069	0.0163854
891.147	0.0164848
891.225	0.0166698
891.303	0.0165775
891.381	0.0166208
891.459	0.0166700
891.538	0.0168967
891.616	0.0166571
891.694	0.0168243
891.772	0.0167570
891.850	0.0166640
891.928	0.0166373
892.006	0.0167184
892.084	0.0166768
892.163	0.0165739
892.241	0.0166256
892.319	0.0162054
892.397	0.0163884
892.475	0.0162128
892.553	0.0161491
892.631	0.0160988
892.709	0.0158452
892.788	0.0158277
892.866	0.0157307
892.944	0.0158149
893.022	0.0158569
893.100	0.0157533
893.178	0.0158123
893.256	0.0159798
893.334	0.0159180
893.413	0.0159804
893.491	0.0158521
893.569	0.0160505
893.647	0.0161308
893.725	0.0161768
893.803	0.0163138
893.881	0.0163940
893.959	0.0165771
894.038	0.0165720
894.116	0.0165137
894.194	0.0165604
894.272	0.0164783
894.350	0.0165399
894.428	0.0165248
894.506	0.0164805
894.584	0.0163428
894.663	0.0165044
894.741	0.0164215
894.819	0.0162810
894.897	0.0163038
894.975	0.0162933
895.053	0.0162683
895.131	0.0163055
895.209	0.0162214
895.288	0.0162248
895.366	0.0162492
895.444	0.0164737
895.522	0.0165331
895.600	0.0164793
895.678	0.0162210
895.756	0.0162850
895.834	0.0163541
895.913	0.0163107
895.991	0.0163986
896.069	0.0164625
896.147	0.0165048
896.225	0.0165335
896.303	0.0165313
896.381	0.0165254
896.459	0.0165012
896.538	0.0164893
896.616	0.0165340
896.694	0.0165881
896.772	0.0165462
896.850	0.0164445
896.928	0.0166267
897.006	0.0165256
897.084	0.0165911
897.163	0.0165273
897.241	0.0166105
897.319	0.0164430
897.397	0.0163731
897.475	0.0164616
897.553	0.0162152
897.631	0.0163186
897.709	0.0163362
897.788	0.0163362
897.866	0.0162674
897.944	0.0161247
898.022	0.0162672
898.100	0.0163704
898.178	0.0161335
898.256	0.0159196
898.334	0.0159344
898.413	0.0161102
898.491	0.0159573
898.569	0.0159081
898.647	0.0160815
898.725	0.0160641
898.803	0.0161723
898.881	0.0162007
898.959	0.0160986
899.038	0.0161122
899.116	0.0161641
899.194	0.0161720
899.272	0.0161398
899.350	0.0161780
899.428	0.0161553
899.506	0.0162434
899.584	0.0161923
899.663	0.0163094
899.741	0.0162900
899.819	0.0163634
899.897	0.0163969
899.975	0.0163717
900.053	0.0164831
900.131	0.0164726
900.209	0.0166345
900.288	0.0167367
900.366	0.0165604
900.444	0.0166332
900.522	0.0167436
900.600	0.0167200
900.678	0.0165940
900.756	0.0165252
900.834	0.0165214
900.913	0.0165108
900.991	0.0164766
901.069	0.0164092
901.147	0.0162353
901.225	0.0161951
901.303	0.0161189
901.381	0.0159880
901.459	0.0160169
901.538	0.0160324
901.616	0.0159570
901.694	0.0160315
901.772	0.0159842
901.850	0.0159540
901.928	0.0161191
902.006	0.0160799
902.084	0.0161741
902.163	0.0162785
902.241	0.0161871
902.319	0.0162186
902.397	0.0162904
902.475	0.0162621
902.553	0.0163197
902.631	0.0164117
902.709	0.0163563
902.788	0.0164670
902.866	0.0163573
902.944	0.0163158
903.022	0.0162414
903.100	0.0164294
903.178	0.0162624
903.256	0.0162646
903.334	0.0163603
903.413	0.0161780
903.491	0.0163754
903.569	0.0163932
903.647	0.0163764
903.725	0.0161709
903.803	0.0161153
903.881	0.0162799
903.959	0.0162846
904.038	0.0164184
904.116	0.0164661
904.194	0.0164421
904.272	0.0164496
904.350	0.0162868
904.428	0.0164979
904.506	0.0164994
904.584	0.0164473
904.663	0.0162663
904.741	0.0163422
904.819	0.0163274
904.897	0.0163649
904.975	0.0162170
905.053	0.0161070
905.131	0.0160681
905.209	0.0162662
905.288	0.0161275
905.366	0.0161596
905.444	0.0160945
905.522	0.0161710
905.600	0.0162196
905.678	0.0159924
905.756	0.0159834
905.834	0.0160020
905.913	0.0160596
905.991	0.0160890
906.069	0.0161069
906.147	0.0159346
906.225	0.0160422
906.303	0.0160698
906.381	0.0160580
906.459	0.0161065
906.538	0.0163249
906.616	0.0161411
906.694	0.0162685
906.772	0.0162521
906.850	0.0163049
906.928	0.0162343
907.006	0.0163139
907.084	0.0163261
907.163	0.0162428
907.241	0.0162524
907.319	0.0164032
907.397	0.0164132
907.475	0.0162444
907.553	0.0163393
907.631	0.0163528
907.709	0.0163525
907.788	0.0163982
907.866	0.0162668
907.944	0.0163557
908.022	0.0162947
908.100	0.0164159
908.178	0.0164413
908.256	0.0163797
908.334	0.0163602
908.413	0.0164671
908.491	0.0164590
908.569	0.0165202
908.647	0.0163612
908.725	0.0165022
908.803	0.0165590
908.881	0.0163773
908.959	0.0165424
909.038	0.0164136
909.116	0.0164760
909.194	0.0165105
909.272	0.0164960
909.350	0.0162894
909.428	0.0164430
909.506	0.0164311
909.584	0.0164610
909.663	0.0163876
909.741	0.0162453
909.819	0.0163706
909.897	0.0163644
909.975	0.0163670
910.053	0.0164108
910.131	0.0163642
910.209	0.0162098
910.288	0.0162042
910.366	0.0162343
910.444	0.0162191
910.522	0.0160297
910.600	0.0160648
910.678	0.0160666
910.756	0.0160911
910.834	0.0160480
910.913	0.0163035
910.991	0.0159875
911.069	0.0161348
911.147	0.0160795
911.225	0.0162241
911.303	0.0163604
911.381	0.0163406
911.459	0.0162052
911.538	0.0163323
911.616	0.0164297
911.694	0.0164267
911.772	0.0164321
911.850	0.0166061
911.928	0.0166238
912.006	0.0167357
912.084	0.0165047
912.163	0.0164790
912.241	0.0167002
912.319	0.0166127
912.397	0.0165931
912.475	0.0166466
912.553	0.0164629
912.631	0.0164281
912.709	0.0163996
912.788	0.0163773
912.866	0.0163544
912.944	0.0163142
913.022	0.0162423
913.100	0.0161863
913.178	0.0163285
913.256	0.0161913
913.334	0.0162429
913.413	0.0162114
913.491	0.0162268
913.569	0.0161404
913.647	0.0161988
913.725	0.0161541
913.803	0.0161326
913.881	0.0161125
913.959	0.0161672
914.038	0.0161140
914.116	0.0162897
914.194	0.0160881
914.272	0.0161447
914.350	0.0161785
914.428	0.0160998
914.506	0.0161161
914.584	0.0162135
914.663	0.0161773
914.741	0.0161613
914.819	0.0161821
914.897	0.0161697
914.975	0.0161579
915.053	0.0160722
915.131	0.0161745
915.209	0.0161905
915.288	0.0163105
915.366	0.0161988
915.444	0.0162677
915.522	0.0163985
915.600	0.0162995
915.678	0.0164824
915.756	0.0164357
915.834	0.0163988
915.913	0.0163804
915.991	0.0164994
916.069	0.0166218
916.147	0.0164558
916.225	0.0162513
916.303	0.0165208
916.381	0.0164542
916.459	0.0162672
916.538	0.0163416
916.616	0.0162725
916.694	0.0163585
916.772	0.0163138
916.850	0.0162975
916.928	0.0162371
917.006	0.0163384
917.084	0.0162114
917.163	0.0163213
917.241	0.0162666
917.319	0.0162684
917.397	0.0162644
917.475	0.0164219
917.553	0.0163982
917.631	0.0163484
917.709	0.0163150
917.788	0.0163457
917.866	0.0162962
917.944	0.0163486
918.022	0.0162880
918.100	0.0161699
918.178	0.0162532
918.256	0.0162783
918.334	0.0161452
918.413	0.0161176
918.491	0.0163424
918.569	0.0162727
918.647	0.0163621
918.725	0.0162499
918.803	0.0162856
918.881	0.0162622
918.959	0.0162966
919.038	0.0164418
919.116	0.0164293
919.194	0.0164426
919.272	0.0164330
919.350	0.0164851
919.428	0.0163933
919.506	0.0163774
919.584	0.0164399
919.663	0.0162230
919.741	0.0163042
919.819	0.0163313
919.897	0.0163355
