06/01/2022	17:20:13	Ver.	4.1	UNKNOWN
Optical Delay	599.975067	Delta X		0.078125	Sweeps	1	Scan Rate	0/0
Coordinates	Axis 1	NaN	Axis 2	NaN	Axis 3	NaN	Axis 4	NaN	Axis 5	NaN	Axis 6	0.000000
TX Power	0.000000	RX Power	0.000000

599.975	0.0167290
600.053	0.0168542
600.131	0.0165186
600.209	0.0167793
600.288	0.0168358
600.366	0.0166804
600.444	0.0167268
600.522	0.0167541
600.600	0.0166148
600.678	0.0167402
600.756	0.0167012
600.834	0.0166529
600.913	0.0167509
600.991	0.0167081
601.069	0.0166988
601.147	0.0167586
601.225	0.0166992
601.303	0.0167513
601.381	0.0167363
601.459	0.0167435
601.538	0.0167945
601.616	0.0167105
601.694	0.0167162
601.772	0.0167998
601.850	0.0167536
601.928	0.0168653
602.006	0.0167218
602.084	0.0167059
602.163	0.0167118
602.241	0.0166515
602.319	0.0168698
602.397	0.0165948
602.475	0.0166833
602.553	0.0166759
602.631	0.0167885
602.709	0.0168420
602.788	0.0166561
602.866	0.0167109
602.944	0.0166105
603.022	0.0167740
603.100	0.0166114
603.178	0.0166038
603.256	0.0167784
603.334	0.0166702
603.413	0.0167819
603.491	0.0167820
603.569	0.0166408
603.647	0.0167297
603.725	0.0167621
603.803	0.0166449
603.881	0.0168150
603.959	0.0167590
604.038	0.0167379
604.116	0.0167868
604.194	0.0168816
604.272	0.0167126
604.350	0.0166563
604.428	0.0166953
604.506	0.0167536
604.584	0.0168474
604.663	0.0166637
604.741	0.0167452
604.819	0.0167128
604.897	0.0167891
604.975	0.0167659
605.053	0.0167114
605.131	0.0166257
605.209	0.0167872
605.288	0.0165341
605.366	0.0167364
605.444	0.0167360
605.522	0.0166741
605.600	0.0166182
605.678	0.0167555
605.756	0.0166029
605.834	0.0167188
605.913	0.0167809
605.991	0.0166730
606.069	0.0166232
606.147	0.0167196
606.225	0.0167262
606.303	0.0167393
606.381	0.0166413
606.459	0.0167831
606.538	0.0167078
606.616	0.0168060
606.694	0.0166194
606.772	0.0167403
606.850	0.0169292
606.928	0.0167565
607.006	0.0168860
607.084	0.0167435
607.163	0.0167683
607.241	0.0167529
607.319	0.0168397
607.397	0.0168591
607.475	0.0168656
607.553	0.0169157
607.631	0.0168435
607.709	0.0167229
607.788	0.0166798
607.866	0.0166427
607.944	0.0166456
608.022	0.0165884
608.100	0.0166138
608.178	0.0167284
608.256	0.0167373
608.334	0.0166184
608.413	0.0166434
608.491	0.0166190
608.569	0.0167351
608.647	0.0167220
608.725	0.0167780
608.803	0.0167767
608.881	0.0166679
608.959	0.0165838
609.038	0.0166571
609.116	0.0167999
609.194	0.0166752
609.272	0.0166156
609.350	0.0167282
609.428	0.0167661
609.506	0.0166319
609.584	0.0166287
609.663	0.0167147
609.741	0.0167966
609.819	0.0166237
609.897	0.0167141
609.975	0.0169134
610.053	0.0168056
610.131	0.0167293
610.209	0.0167828
610.288	0.0168269
610.366	0.0167892
610.444	0.0167491
610.522	0.0168957
610.600	0.0168501
610.678	0.0167686
610.756	0.0167120
610.834	0.0167271
610.913	0.0166656
610.991	0.0165957
611.069	0.0165963
611.147	0.0167810
611.225	0.0167384
611.303	0.0165995
611.381	0.0166473
611.459	0.0166698
611.538	0.0167512
611.616	0.0168310
611.694	0.0167426
611.772	0.0166802
611.850	0.0166793
611.928	0.0168218
612.006	0.0167701
612.084	0.0166576
612.163	0.0167100
612.241	0.0167995
612.319	0.0166885
612.397	0.0167203
612.475	0.0167305
612.553	0.0167194
612.631	0.0168845
612.709	0.0167689
612.788	0.0166910
612.866	0.0167113
612.944	0.0167905
613.022	0.0167682
613.100	0.0167283
613.178	0.0167461
613.256	0.0167380
613.334	0.0167632
613.413	0.0167362
613.491	0.0167115
613.569	0.0166753
613.647	0.0168342
613.725	0.0167655
613.803	0.0166978
613.881	0.0166454
613.959	0.0167074
614.038	0.0166818
614.116	0.0167281
614.194	0.0167489
614.272	0.0166288
614.350	0.0166205
614.428	0.0167061
614.506	0.0167563
614.584	0.0167496
614.663	0.0166949
614.741	0.0167528
614.819	0.0167361
614.897	0.0166298
614.975	0.0167387
615.053	0.0166659
615.131	0.0167848
615.209	0.0167996
615.288	0.0166542
615.366	0.0166287
615.444	0.0166680
615.522	0.0166685
615.600	0.0166190
615.678	0.0167223
615.756	0.0166374
615.834	0.0167312
615.913	0.0166977
615.991	0.0166906
616.069	0.0166596
616.147	0.0167401
616.225	0.0167301
616.303	0.0168306
616.381	0.0167033
616.459	0.0166286
616.538	0.0166367
616.616	0.0167094
616.694	0.0167503
616.772	0.0165397
616.850	0.0167448
616.928	0.0166972
617.006	0.0167827
617.084	0.0166504
617.163	0.0166515
617.241	0.0167332
617.319	0.0166695
617.397	0.0167332
617.475	0.0167949
617.553	0.0166267
617.631	0.0166648
617.709	0.0166708
617.788	0.0166889
617.866	0.0167566
617.944	0.0167835
618.022	0.0167867
618.100	0.0166696
618.178	0.0168023
618.256	0.0166261
618.334	0.0167056
618.413	0.0166749
618.491	0.0166600
618.569	0.0168677
618.647	0.0167400
618.725	0.0166708
618.803	0.0166531
618.881	0.0167512
618.959	0.0168594
619.038	0.0166747
619.116	0.0167052
619.194	0.0168059
619.272	0.0166276
619.350	0.0166547
619.428	0.0167617
619.506	0.0166905
619.584	0.0166737
619.663	0.0167146
619.741	0.0167515
619.819	0.0166010
619.897	0.0166049
619.975	0.0166045
620.053	0.0167253
620.131	0.0168560
620.209	0.0165623
620.288	0.0166174
620.366	0.0166773
620.444	0.0166761
620.522	0.0166695
620.600	0.0167035
620.678	0.0167419
620.756	0.0166383
620.834	0.0165969
620.913	0.0167671
620.991	0.0167032
621.069	0.0166484
621.147	0.0166624
621.225	0.0167048
621.303	0.0166690
621.381	0.0166985
621.459	0.0166223
621.538	0.0167561
621.616	0.0166745
621.694	0.0166743
621.772	0.0166805
621.850	0.0167797
621.928	0.0167101
622.006	0.0167356
622.084	0.0166796
622.163	0.0166892
622.241	0.0166308
622.319	0.0167029
622.397	0.0166531
622.475	0.0167557
622.553	0.0167242
622.631	0.0167365
622.709	0.0168160
622.788	0.0167236
622.866	0.0166400
622.944	0.0166457
623.022	0.0168562
623.100	0.0165428
623.178	0.0167379
623.256	0.0166782
623.334	0.0168020
623.413	0.0166860
623.491	0.0166948
623.569	0.0166730
623.647	0.0168277
623.725	0.0167184
623.803	0.0169231
623.881	0.0167225
623.959	0.0167540
624.038	0.0168743
624.116	0.0167157
624.194	0.0166987
624.272	0.0166833
624.350	0.0167321
624.428	0.0168230
624.506	0.0167609
624.584	0.0167783
624.663	0.0166920
624.741	0.0167920
624.819	0.0166773
624.897	0.0167568
624.975	0.0167207
625.053	0.0166856
625.131	0.0167562
625.209	0.0167105
625.288	0.0167935
625.366	0.0167292
625.444	0.0167708
625.522	0.0167863
625.600	0.0168081
625.678	0.0166482
625.756	0.0167050
625.834	0.0167480
625.913	0.0167306
625.991	0.0166140
626.069	0.0166076
626.147	0.0166564
626.225	0.0166805
626.303	0.0167489
626.381	0.0167722
626.459	0.0166507
626.538	0.0166338
626.616	0.0166891
626.694	0.0167269
626.772	0.0168162
626.850	0.0167707
626.928	0.0167796
627.006	0.0166602
627.084	0.0167780
627.163	0.0166980
627.241	0.0166441
627.319	0.0166771
627.397	0.0167361
627.475	0.0168520
627.553	0.0166917
627.631	0.0165786
627.709	0.0167046
627.788	0.0167268
627.866	0.0167161
627.944	0.0166975
628.022	0.0167879
628.100	0.0166232
628.178	0.0168250
628.256	0.0167762
628.334	0.0166261
628.413	0.0167059
628.491	0.0167159
628.569	0.0167738
628.647	0.0167229
628.725	0.0166698
628.803	0.0166595
628.881	0.0166026
628.959	0.0166998
629.038	0.0167691
629.116	0.0166394
629.194	0.0167175
629.272	0.0167413
629.350	0.0167830
629.428	0.0167766
629.506	0.0166724
629.584	0.0168617
629.663	0.0168485
629.741	0.0167207
629.819	0.0167461
629.897	0.0166859
629.975	0.0167524
630.053	0.0166844
630.131	0.0166756
630.209	0.0167750
630.288	0.0167914
630.366	0.0166653
630.444	0.0166710
630.522	0.0167645
630.600	0.0167204
630.678	0.0167472
630.756	0.0167463
630.834	0.0168509
630.913	0.0167638
630.991	0.0166308
631.069	0.0167167
631.147	0.0169335
631.225	0.0166340
631.303	0.0167080
631.381	0.0167290
631.459	0.0167281
631.538	0.0166251
631.616	0.0166392
631.694	0.0167782
631.772	0.0166516
631.850	0.0166684
631.928	0.0166999
632.006	0.0166901
632.084	0.0168262
632.163	0.0165826
632.241	0.0167480
632.319	0.0167221
632.397	0.0167221
632.475	0.0167849
632.553	0.0169348
632.631	0.0167173
632.709	0.0167072
632.788	0.0167365
632.866	0.0165825
632.944	0.0166911
633.022	0.0167307
633.100	0.0166496
633.178	0.0166546
633.256	0.0167677
633.334	0.0167371
633.413	0.0167178
633.491	0.0166985
633.569	0.0166504
633.647	0.0166879
633.725	0.0167585
633.803	0.0166689
633.881	0.0167250
633.959	0.0165901
634.038	0.0166675
634.116	0.0168305
634.194	0.0167175
634.272	0.0167026
634.350	0.0167242
634.428	0.0167860
634.506	0.0167313
634.584	0.0166743
634.663	0.0167207
634.741	0.0167955
634.819	0.0168176
634.897	0.0167746
634.975	0.0166846
635.053	0.0167930
635.131	0.0168304
635.209	0.0167545
635.288	0.0166291
635.366	0.0168349
635.444	0.0169130
635.522	0.0168258
635.600	0.0168674
635.678	0.0167168
635.756	0.0167825
635.834	0.0166849
635.913	0.0167184
635.991	0.0167477
636.069	0.0166589
636.147	0.0166695
636.225	0.0167591
636.303	0.0166916
636.381	0.0167435
636.459	0.0166431
636.538	0.0167242
636.616	0.0167075
636.694	0.0165952
636.772	0.0165968
636.850	0.0167445
636.928	0.0166690
637.006	0.0165241
637.084	0.0167200
637.163	0.0166827
637.241	0.0167939
637.319	0.0166158
637.397	0.0167143
637.475	0.0166341
637.553	0.0167459
637.631	0.0166473
637.709	0.0167097
637.788	0.0166943
637.866	0.0167537
637.944	0.0167039
638.022	0.0165245
638.100	0.0166571
638.178	0.0168330
638.256	0.0166303
638.334	0.0165981
638.413	0.0167660
638.491	0.0167822
638.569	0.0167354
638.647	0.0166972
638.725	0.0166897
638.803	0.0166904
638.881	0.0167223
638.959	0.0166993
639.038	0.0167097
639.116	0.0167136
639.194	0.0166666
639.272	0.0167083
639.350	0.0167345
639.428	0.0165829
639.506	0.0167885
639.584	0.0165608
639.663	0.0166828
639.741	0.0167243
639.819	0.0167921
639.897	0.0169183
639.975	0.0166988
640.053	0.0167463
640.131	0.0166895
640.209	0.0168233
640.288	0.0167734
640.366	0.0167638
640.444	0.0166359
640.522	0.0165932
640.600	0.0167068
640.678	0.0168153
640.756	0.0168401
640.834	0.0166974
640.913	0.0167593
640.991	0.0166406
641.069	0.0166862
641.147	0.0166999
641.225	0.0167570
641.303	0.0167274
641.381	0.0167785
641.459	0.0166493
641.538	0.0166583
641.616	0.0167381
641.694	0.0166265
641.772	0.0167688
641.850	0.0168501
641.928	0.0166447
642.006	0.0166295
642.084	0.0167360
642.163	0.0168939
642.241	0.0166550
642.319	0.0165677
642.397	0.0166636
642.475	0.0166718
642.553	0.0167318
642.631	0.0167694
642.709	0.0166404
642.788	0.0166692
642.866	0.0166043
642.944	0.0166741
643.022	0.0166350
643.100	0.0166366
643.178	0.0167478
643.256	0.0166045
643.334	0.0166927
643.413	0.0166992
643.491	0.0166884
643.569	0.0167899
643.647	0.0166249
643.725	0.0165263
643.803	0.0167388
643.881	0.0167873
643.959	0.0165945
644.038	0.0166953
644.116	0.0166944
644.194	0.0167791
644.272	0.0165841
644.350	0.0166042
644.428	0.0167838
644.506	0.0167151
644.584	0.0166178
644.663	0.0167707
644.741	0.0165907
644.819	0.0167397
644.897	0.0167104
644.975	0.0166379
645.053	0.0166478
645.131	0.0166669
645.209	0.0167383
645.288	0.0166862
645.366	0.0167323
645.444	0.0167381
645.522	0.0168070
645.600	0.0167845
645.678	0.0168416
645.756	0.0168422
645.834	0.0167002
645.913	0.0166609
645.991	0.0166882
646.069	0.0166478
646.147	0.0167071
646.225	0.0167221
646.303	0.0167081
646.381	0.0167284
646.459	0.0167068
646.538	0.0167730
646.616	0.0166358
646.694	0.0166764
646.772	0.0166148
646.850	0.0166499
646.928	0.0167336
647.006	0.0166753
647.084	0.0167278
647.163	0.0166593
647.241	0.0167401
647.319	0.0167208
647.397	0.0166672
647.475	0.0168126
647.553	0.0166610
647.631	0.0167971
647.709	0.0167361
647.788	0.0166610
647.866	0.0168148
647.944	0.0166288
648.022	0.0166893
648.100	0.0167614
648.178	0.0166560
648.256	0.0167038
648.334	0.0167780
648.413	0.0167401
648.491	0.0167406
648.569	0.0166972
648.647	0.0166836
648.725	0.0167322
648.803	0.0165958
648.881	0.0166759
648.959	0.0168354
649.038	0.0166756
649.116	0.0167263
649.194	0.0166599
649.272	0.0166869
649.350	0.0168362
649.428	0.0167191
649.506	0.0165860
649.584	0.0168168
649.663	0.0167424
649.741	0.0168375
649.819	0.0167023
649.897	0.0167347
649.975	0.0167199
650.053	0.0165710
650.131	0.0167533
650.209	0.0166466
650.288	0.0167639
650.366	0.0167927
650.444	0.0167039
650.522	0.0166255
650.600	0.0166826
650.678	0.0166704
650.756	0.0166182
650.834	0.0167632
650.913	0.0167831
650.991	0.0167136
651.069	0.0165923
651.147	0.0167227
651.225	0.0166692
651.303	0.0167570
651.381	0.0166904
651.459	0.0167362
651.538	0.0166620
651.616	0.0166521
651.694	0.0167772
651.772	0.0167762
651.850	0.0166352
651.928	0.0167145
652.006	0.0166473
652.084	0.0167284
652.163	0.0167198
652.241	0.0167947
652.319	0.0167155
652.397	0.0166911
652.475	0.0167170
652.553	0.0166286
652.631	0.0166520
652.709	0.0167094
652.788	0.0166914
652.866	0.0167323
652.944	0.0166269
653.022	0.0167459
653.100	0.0167440
653.178	0.0166967
653.256	0.0167328
653.334	0.0167498
653.413	0.0166611
653.491	0.0167312
653.569	0.0166476
653.647	0.0166763
653.725	0.0166867
653.803	0.0166998
653.881	0.0166213
653.959	0.0166536
654.038	0.0167331
654.116	0.0166311
654.194	0.0166538
654.272	0.0167641
654.350	0.0165884
654.428	0.0167369
654.506	0.0167300
654.584	0.0167048
654.663	0.0167834
654.741	0.0167532
654.819	0.0164748
654.897	0.0166097
654.975	0.0167833
655.053	0.0167850
655.131	0.0167062
655.209	0.0166609
655.288	0.0166142
655.366	0.0166346
655.444	0.0167966
655.522	0.0166743
655.600	0.0166153
655.678	0.0166737
655.756	0.0165711
655.834	0.0167578
655.913	0.0167278
655.991	0.0166850
656.069	0.0166621
656.147	0.0167985
656.225	0.0168104
656.303	0.0165950
656.381	0.0165565
656.459	0.0167347
656.538	0.0168248
656.616	0.0166624
656.694	0.0166340
656.772	0.0166955
656.850	0.0167362
656.928	0.0166298
657.006	0.0168013
657.084	0.0166859
657.163	0.0167140
657.241	0.0167556
657.319	0.0167952
657.397	0.0167136
657.475	0.0167058
657.553	0.0164836
657.631	0.0167287
657.709	0.0167400
657.788	0.0168178
657.866	0.0167244
657.944	0.0166693
658.022	0.0166968
658.100	0.0165746
658.178	0.0167072
658.256	0.0166109
658.334	0.0168282
658.413	0.0167562
658.491	0.0167297
658.569	0.0166454
658.647	0.0167426
658.725	0.0167682
658.803	0.0167764
658.881	0.0167749
658.959	0.0166889
659.038	0.0167635
659.116	0.0168131
659.194	0.0166994
659.272	0.0167245
659.350	0.0167970
659.428	0.0167136
659.506	0.0166718
659.584	0.0168173
659.663	0.0167738
659.741	0.0167518
659.819	0.0167246
659.897	0.0166737
659.975	0.0166872
660.053	0.0166785
660.131	0.0166940
660.209	0.0167336
660.288	0.0167810
660.366	0.0167104
660.444	0.0167062
660.522	0.0168624
660.600	0.0167226
660.678	0.0167785
660.756	0.0168980
660.834	0.0167162
660.913	0.0168941
660.991	0.0167591
661.069	0.0167061
661.147	0.0166634
661.225	0.0166669
661.303	0.0168500
661.381	0.0167863
661.459	0.0168310
661.538	0.0167661
661.616	0.0167619
661.694	0.0166691
661.772	0.0168526
661.850	0.0167748
661.928	0.0167740
662.006	0.0167347
662.084	0.0167849
662.163	0.0167087
662.241	0.0166924
662.319	0.0167482
662.397	0.0166199
662.475	0.0166470
662.553	0.0168111
662.631	0.0167908
662.709	0.0167335
662.788	0.0167950
662.866	0.0167108
662.944	0.0167169
663.022	0.0167147
663.100	0.0167127
663.178	0.0166302
663.256	0.0165873
663.334	0.0166338
663.413	0.0168100
663.491	0.0166265
663.569	0.0167310
663.647	0.0167689
663.725	0.0167784
663.803	0.0168038
663.881	0.0167368
663.959	0.0168112
664.038	0.0167741
664.116	0.0167278
664.194	0.0167639
664.272	0.0167314
664.350	0.0165675
664.428	0.0167969
664.506	0.0166929
664.584	0.0166684
664.663	0.0166029
664.741	0.0168196
664.819	0.0166792
664.897	0.0166404
664.975	0.0167571
665.053	0.0167097
665.131	0.0167641
665.209	0.0166647
665.288	0.0167357
665.366	0.0167127
665.444	0.0166155
665.522	0.0165917
665.600	0.0165868
665.678	0.0166161
665.756	0.0168016
665.834	0.0167085
665.913	0.0167680
665.991	0.0166270
666.069	0.0166080
666.147	0.0166897
666.225	0.0166943
666.303	0.0167319
666.381	0.0166910
666.459	0.0166496
666.538	0.0167110
666.616	0.0167658
666.694	0.0167720
666.772	0.0167302
666.850	0.0167187
666.928	0.0166412
667.006	0.0167961
667.084	0.0167725
667.163	0.0166181
667.241	0.0167003
667.319	0.0167509
667.397	0.0166862
667.475	0.0166185
667.553	0.0166007
667.631	0.0167210
667.709	0.0167403
667.788	0.0167245
667.866	0.0167028
667.944	0.0166312
668.022	0.0167861
668.100	0.0167931
668.178	0.0166292
668.256	0.0165910
668.334	0.0168034
668.413	0.0165988
668.491	0.0167300
668.569	0.0165839
668.647	0.0166077
668.725	0.0165459
668.803	0.0166105
668.881	0.0165816
668.959	0.0165708
669.038	0.0166989
669.116	0.0166119
669.194	0.0164243
669.272	0.0166708
669.350	0.0167808
669.428	0.0166421
669.506	0.0165820
669.584	0.0166336
669.663	0.0165752
669.741	0.0167384
669.819	0.0165781
669.897	0.0167581
669.975	0.0166607
670.053	0.0166820
670.131	0.0166281
670.209	0.0168394
670.288	0.0167097
670.366	0.0165864
670.444	0.0164679
670.522	0.0166257
670.600	0.0167665
670.678	0.0167113
670.756	0.0165353
670.834	0.0164606
670.913	0.0164896
670.991	0.0166783
671.069	0.0166993
671.147	0.0165688
671.225	0.0166232
671.303	0.0167387
671.381	0.0166232
671.459	0.0166107
671.538	0.0167982
671.616	0.0166948
671.694	0.0165950
671.772	0.0166327
671.850	0.0167178
671.928	0.0166755
672.006	0.0166376
672.084	0.0167249
672.163	0.0166969
672.241	0.0167828
672.319	0.0167793
672.397	0.0167453
672.475	0.0167114
672.553	0.0167100
672.631	0.0166836
672.709	0.0167286
672.788	0.0167284
672.866	0.0166888
672.944	0.0166273
673.022	0.0166267
673.100	0.0166378
673.178	0.0166067
673.256	0.0167064
673.334	0.0166340
673.413	0.0165974
673.491	0.0166408
673.569	0.0168121
673.647	0.0166242
673.725	0.0167068
673.803	0.0167293
673.881	0.0166597
673.959	0.0165140
674.038	0.0166724
674.116	0.0167267
674.194	0.0166275
674.272	0.0166828
674.350	0.0167518
674.428	0.0167917
674.506	0.0166729
674.584	0.0167561
674.663	0.0167731
674.741	0.0167419
674.819	0.0167432
674.897	0.0166985
674.975	0.0168120
675.053	0.0168137
675.131	0.0166835
675.209	0.0168021
675.288	0.0167860
675.366	0.0167498
675.444	0.0168338
675.522	0.0167899
675.600	0.0167496
675.678	0.0167171
675.756	0.0167259
675.834	0.0166884
675.913	0.0167537
675.991	0.0165353
676.069	0.0167426
676.147	0.0168165
676.225	0.0166585
676.303	0.0166669
676.381	0.0166125
676.459	0.0167142
676.538	0.0166933
676.616	0.0166838
676.694	0.0167210
676.772	0.0166710
676.850	0.0166474
676.928	0.0165622
677.006	0.0166111
677.084	0.0167267
677.163	0.0165108
677.241	0.0166895
677.319	0.0168272
677.397	0.0166480
677.475	0.0165349
677.553	0.0167175
677.631	0.0167405
677.709	0.0166768
677.788	0.0168343
677.866	0.0169921
677.944	0.0168868
678.022	0.0170729
678.100	0.0169501
678.178	0.0171180
678.256	0.0171375
678.334	0.0171477
678.413	0.0170779
678.491	0.0170172
678.569	0.0169155
678.647	0.0169126
678.725	0.0167205
678.803	0.0167812
678.881	0.0164655
678.959	0.0163033
679.038	0.0163515
679.116	0.0163370
679.194	0.0161802
679.272	0.0162910
679.350	0.0164722
679.428	0.0165452
679.506	0.0164729
679.584	0.0166162
679.663	0.0169088
679.741	0.0167765
679.819	0.0167136
679.897	0.0167070
679.975	0.0166647
680.053	0.0165781
680.131	0.0163815
680.209	0.0163319
680.288	0.0160942
680.366	0.0159362
680.444	0.0159521
680.522	0.0160133
680.600	0.0159604
680.678	0.0162254
680.756	0.0166539
680.834	0.0169995
680.913	0.0173527
680.991	0.0179237
681.069	0.0184148
681.147	0.0187473
681.225	0.0190846
681.303	0.0192741
681.381	0.0193512
681.459	0.0192712
681.538	0.0191959
681.616	0.0190366
681.694	0.0185854
681.772	0.0182208
681.850	0.0175724
681.928	0.0169975
682.006	0.0163122
682.084	0.0155732
682.163	0.0147200
682.241	0.0138548
682.319	0.0131886
682.397	0.0125101
682.475	0.0117012
682.553	0.0112563
682.631	0.0107195
682.709	0.0105630
682.788	0.0106908
682.866	0.0110894
682.944	0.0115820
683.022	0.0125028
683.100	0.0137552
683.178	0.0152030
683.256	0.0169860
683.334	0.0187669
683.413	0.0206526
683.491	0.0226189
683.569	0.0244253
683.647	0.0257814
683.725	0.0267765
683.803	0.0276739
683.881	0.0280498
683.959	0.0277814
684.038	0.0271341
684.116	0.0260219
684.194	0.0245605
684.272	0.0225954
684.350	0.0205328
684.428	0.0183298
684.506	0.0158363
684.584	0.0136691
684.663	0.0116511
684.741	0.00973137
684.819	0.00785988
684.897	0.00650482
684.975	0.00526573
685.053	0.00449234
685.131	0.00400986
685.209	0.00385368
685.288	0.00375153
685.366	0.00423927
685.444	0.00496124
685.522	0.00605736
685.600	0.00753036
685.678	0.00929459
685.756	0.0111142
685.834	0.0135936
685.913	0.0161774
685.991	0.0190501
686.069	0.0217960
686.147	0.0247632
686.225	0.0277845
686.303	0.0305170
686.381	0.0327258
686.459	0.0345559
686.538	0.0359319
686.616	0.0365195
686.694	0.0363028
686.772	0.0354755
686.850	0.0338264
686.928	0.0316732
687.006	0.0286604
687.084	0.0253262
687.163	0.0216583
687.241	0.0178493
687.319	0.0139234
687.397	0.0101614
687.475	0.00687347
687.553	0.00392311
687.631	0.00134209
687.709	-0.000457535
687.788	-0.00184563
687.866	-0.00231560
687.944	-0.00215668
688.022	-0.00144844
688.100	-0.000399857
688.178	0.00115952
688.256	0.00303467
688.334	0.00506584
688.413	0.00720253
688.491	0.00956879
688.569	0.0121149
688.647	0.0145594
688.725	0.0171242
688.803	0.0195840
688.881	0.0218999
688.959	0.0241704
689.038	0.0263673
689.116	0.0282336
689.194	0.0297629
689.272	0.0310310
689.350	0.0318354
689.428	0.0322132
689.506	0.0321051
689.584	0.0315697
689.663	0.0304981
689.741	0.0292961
689.819	0.0275252
689.897	0.0255463
689.975	0.0236668
690.053	0.0214752
690.131	0.0191866
690.209	0.0171687
690.288	0.0150445
690.366	0.0134499
690.444	0.0117495
690.522	0.0105281
690.600	0.00942780
690.678	0.00864319
690.756	0.00803085
690.834	0.00786140
690.913	0.00779144
690.991	0.00781303
691.069	0.00837883
691.147	0.00886276
691.225	0.00965096
691.303	0.0102184
691.381	0.0110474
691.459	0.0120486
691.538	0.0129946
691.616	0.0135658
691.694	0.0145115
691.772	0.0153792
691.850	0.0160645
691.928	0.0168949
692.006	0.0176036
692.084	0.0182265
692.163	0.0186384
692.241	0.0191277
692.319	0.0194030
692.397	0.0198042
692.475	0.0197740
692.553	0.0197946
692.631	0.0194700
692.709	0.0192908
692.788	0.0190617
692.866	0.0187941
692.944	0.0183783
693.022	0.0180683
693.100	0.0176143
693.178	0.0173152
693.256	0.0172495
693.334	0.0170268
693.413	0.0168443
693.491	0.0169927
693.569	0.0169412
693.647	0.0170837
693.725	0.0174644
693.803	0.0175822
693.881	0.0180517
693.959	0.0183204
694.038	0.0187498
694.116	0.0189600
694.194	0.0193375
694.272	0.0193932
694.350	0.0195644
694.428	0.0195368
694.506	0.0194304
694.584	0.0191766
694.663	0.0188074
694.741	0.0185406
694.819	0.0180413
694.897	0.0175947
694.975	0.0172837
695.053	0.0165974
695.131	0.0161558
695.209	0.0157551
695.288	0.0154263
695.366	0.0151464
695.444	0.0149107
695.522	0.0144894
695.600	0.0142419
695.678	0.0141565
695.756	0.0140175
695.834	0.0138153
695.913	0.0136398
695.991	0.0136990
696.069	0.0135078
696.147	0.0134814
696.225	0.0135161
696.303	0.0134453
696.381	0.0134059
696.459	0.0135306
696.538	0.0136353
696.616	0.0138766
696.694	0.0141603
696.772	0.0144019
696.850	0.0144796
696.928	0.0149841
697.006	0.0153115
697.084	0.0156357
697.163	0.0158598
697.241	0.0161648
697.319	0.0166196
697.397	0.0170163
697.475	0.0173348
697.553	0.0177547
697.631	0.0181237
697.709	0.0184987
697.788	0.0187147
697.866	0.0191247
697.944	0.0194776
698.022	0.0196535
698.100	0.0198849
698.178	0.0200388
698.256	0.0201587
698.334	0.0201366
698.413	0.0202483
698.491	0.0204034
698.569	0.0204565
698.647	0.0204449
698.725	0.0203709
698.803	0.0203117
698.881	0.0200540
698.959	0.0199561
699.038	0.0196406
699.116	0.0193659
699.194	0.0190966
699.272	0.0186280
699.350	0.0180608
699.428	0.0175098
699.506	0.0170936
699.584	0.0166703
699.663	0.0161520
699.741	0.0156796
699.819	0.0152576
699.897	0.0149329
699.975	0.0146237
700.053	0.0143536
700.131	0.0140620
700.209	0.0138087
700.288	0.0135642
700.366	0.0134089
700.444	0.0134576
700.522	0.0136137
700.600	0.0134970
700.678	0.0136337
700.756	0.0138547
700.834	0.0139616
700.913	0.0141420
700.991	0.0143816
701.069	0.0143929
701.147	0.0146738
701.225	0.0149902
701.303	0.0151859
701.381	0.0153140
701.459	0.0153693
701.538	0.0155068
701.616	0.0158195
701.694	0.0158427
701.772	0.0157410
701.850	0.0158415
701.928	0.0160112
702.006	0.0161549
702.084	0.0163589
702.163	0.0163401
702.241	0.0165768
702.319	0.0169257
702.397	0.0172364
702.475	0.0172598
702.553	0.0174549
702.631	0.0176836
702.709	0.0178860
702.788	0.0180544
702.866	0.0183037
702.944	0.0184509
703.022	0.0186454
703.100	0.0188993
703.178	0.0191066
703.256	0.0192218
703.334	0.0193474
703.413	0.0194892
703.491	0.0197789
703.569	0.0198253
703.647	0.0198224
703.725	0.0200532
703.803	0.0200527
703.881	0.0200145
703.959	0.0200294
704.038	0.0199273
704.116	0.0197085
704.194	0.0195359
704.272	0.0191499
704.350	0.0186156
704.428	0.0182054
704.506	0.0175924
704.584	0.0170954
704.663	0.0164423
704.741	0.0160350
704.819	0.0155137
704.897	0.0147599
704.975	0.0143890
705.053	0.0140960
705.131	0.0138756
705.209	0.0136013
705.288	0.0133611
705.366	0.0135416
705.444	0.0134181
705.522	0.0134461
705.600	0.0136466
705.678	0.0138074
705.756	0.0138828
705.834	0.0140468
705.913	0.0142198
705.991	0.0144153
706.069	0.0144733
706.147	0.0146259
706.225	0.0147538
706.303	0.0148667
706.381	0.0149365
706.459	0.0153491
706.538	0.0154804
706.616	0.0158234
706.694	0.0160809
706.772	0.0164037
706.850	0.0168038
706.928	0.0170473
707.006	0.0173310
707.084	0.0176314
707.163	0.0177669
707.241	0.0179176
707.319	0.0180714
707.397	0.0179266
707.475	0.0178474
707.553	0.0177592
707.631	0.0174535
707.709	0.0172157
707.788	0.0167792
707.866	0.0165231
707.944	0.0161503
708.022	0.0158659
708.100	0.0158268
708.178	0.0158273
708.256	0.0159089
708.334	0.0160034
708.413	0.0163888
708.491	0.0164590
708.569	0.0168925
708.647	0.0173763
708.725	0.0177657
708.803	0.0183057
708.881	0.0187576
708.959	0.0190794
709.038	0.0195501
709.116	0.0196894
709.194	0.0200388
709.272	0.0200562
709.350	0.0201639
709.428	0.0201650
709.506	0.0198779
709.584	0.0199654
709.663	0.0196517
709.741	0.0191978
709.819	0.0186967
709.897	0.0181178
709.975	0.0176625
710.053	0.0170287
710.131	0.0163978
710.209	0.0160112
710.288	0.0155811
710.366	0.0151137
710.444	0.0146552
710.522	0.0143104
710.600	0.0143085
710.678	0.0140414
710.756	0.0141189
710.834	0.0142097
710.913	0.0142725
710.991	0.0144540
711.069	0.0145921
711.147	0.0145844
711.225	0.0147240
711.303	0.0150571
711.381	0.0152081
711.459	0.0151382
711.538	0.0153183
711.616	0.0154984
711.694	0.0154742
711.772	0.0155170
711.850	0.0156100
711.928	0.0157580
712.006	0.0159602
712.084	0.0160692
712.163	0.0162341
712.241	0.0165031
712.319	0.0165627
712.397	0.0167058
712.475	0.0167847
712.553	0.0168739
712.631	0.0170277
712.709	0.0169870
712.788	0.0168377
712.866	0.0169156
712.944	0.0168224
713.022	0.0167985
713.100	0.0169113
713.178	0.0166737
713.256	0.0168446
713.334	0.0167294
713.413	0.0167504
713.491	0.0167007
713.569	0.0167686
713.647	0.0170024
713.725	0.0170549
713.803	0.0171244
713.881	0.0173203
713.959	0.0174961
714.038	0.0177200
714.116	0.0180327
714.194	0.0184159
714.272	0.0187746
714.350	0.0187672
714.428	0.0189507
714.506	0.0191672
714.584	0.0194035
714.663	0.0195389
714.741	0.0194411
714.819	0.0193588
714.897	0.0190097
714.975	0.0190031
715.053	0.0186670
715.131	0.0182085
715.209	0.0179139
715.288	0.0173452
715.366	0.0169584
715.444	0.0165257
715.522	0.0161127
715.600	0.0157823
715.678	0.0155078
715.756	0.0151942
715.834	0.0149726
715.913	0.0149072
715.991	0.0148950
716.069	0.0150605
716.147	0.0152545
716.225	0.0154377
716.303	0.0156347
716.381	0.0158611
716.459	0.0159763
716.538	0.0163213
716.616	0.0165194
716.694	0.0166490
716.772	0.0167233
716.850	0.0165391
716.928	0.0167197
717.006	0.0166264
717.084	0.0163202
717.163	0.0162090
717.241	0.0162596
717.319	0.0160251
717.397	0.0158417
717.475	0.0157796
717.553	0.0156296
717.631	0.0155433
717.709	0.0155853
717.788	0.0156911
717.866	0.0154440
717.944	0.0157008
718.022	0.0156155
718.100	0.0154372
718.178	0.0154607
718.256	0.0156774
718.334	0.0157231
718.413	0.0157978
718.491	0.0158708
718.569	0.0159614
718.647	0.0160477
718.725	0.0162984
718.803	0.0163705
718.881	0.0164575
718.959	0.0167944
719.038	0.0170220
719.116	0.0171582
719.194	0.0174179
719.272	0.0175455
719.350	0.0176439
719.428	0.0178068
719.506	0.0180920
719.584	0.0180157
719.663	0.0179974
719.741	0.0180375
719.819	0.0180869
719.897	0.0180415
719.975	0.0179677
720.053	0.0178532
720.131	0.0178763
720.209	0.0177338
720.288	0.0176614
720.366	0.0176274
720.444	0.0175295
720.522	0.0176213
720.600	0.0174448
720.678	0.0174515
720.756	0.0174561
720.834	0.0173164
720.913	0.0171772
720.991	0.0171546
721.069	0.0171952
721.147	0.0169368
721.225	0.0167432
721.303	0.0167338
721.381	0.0167371
721.459	0.0166258
721.538	0.0165433
721.616	0.0165345
721.694	0.0165297
721.772	0.0165221
721.850	0.0164816
721.928	0.0164707
722.006	0.0165942
722.084	0.0166081
722.163	0.0167905
722.241	0.0168048
722.319	0.0168533
722.397	0.0170197
722.475	0.0169920
722.553	0.0169411
722.631	0.0168738
722.709	0.0168886
722.788	0.0167883
722.866	0.0166922
722.944	0.0164723
723.022	0.0162172
723.100	0.0160031
723.178	0.0159230
723.256	0.0156947
723.334	0.0153622
723.413	0.0152906
723.491	0.0149423
723.569	0.0148597
723.647	0.0148144
723.725	0.0147951
723.803	0.0147803
723.881	0.0147188
723.959	0.0149664
724.038	0.0149779
724.116	0.0152781
724.194	0.0155652
724.272	0.0158681
724.350	0.0161091
724.428	0.0165328
724.506	0.0167558
724.584	0.0170847
724.663	0.0174208
724.741	0.0175426
724.819	0.0176502
724.897	0.0178786
724.975	0.0179931
725.053	0.0180529
725.131	0.0181676
725.209	0.0181387
725.288	0.0182825
725.366	0.0183487
725.444	0.0181624
725.522	0.0181353
725.600	0.0180531
725.678	0.0178426
725.756	0.0177126
725.834	0.0175040
725.913	0.0174149
725.991	0.0173453
726.069	0.0168672
726.147	0.0166557
726.225	0.0163293
726.303	0.0162212
726.381	0.0161212
726.459	0.0159181
726.538	0.0158980
726.616	0.0156850
726.694	0.0156859
726.772	0.0158010
726.850	0.0159440
726.928	0.0158695
727.006	0.0161610
727.084	0.0161551
727.163	0.0164586
727.241	0.0167108
727.319	0.0170388
727.397	0.0171989
727.475	0.0173149
727.553	0.0173956
727.631	0.0174701
727.709	0.0176936
727.788	0.0176977
727.866	0.0176972
727.944	0.0177028
728.022	0.0178822
728.100	0.0177157
728.178	0.0176559
728.256	0.0177018
728.334	0.0175961
728.413	0.0174571
728.491	0.0173785
728.569	0.0173288
728.647	0.0171345
728.725	0.0171616
728.803	0.0168349
728.881	0.0167039
728.959	0.0165752
729.038	0.0164633
729.116	0.0163914
729.194	0.0159738
729.272	0.0158739
729.350	0.0157458
729.428	0.0156245
729.506	0.0155143
729.584	0.0153244
729.663	0.0153952
729.741	0.0153426
729.819	0.0152050
729.897	0.0153611
729.975	0.0153640
730.053	0.0154516
730.131	0.0157386
730.209	0.0157284
730.288	0.0159659
730.366	0.0162083
730.444	0.0163152
730.522	0.0163545
730.600	0.0165270
730.678	0.0168892
730.756	0.0167828
730.834	0.0168873
730.913	0.0169769
730.991	0.0169258
731.069	0.0169263
731.147	0.0167606
731.225	0.0167390
731.303	0.0168005
731.381	0.0168262
731.459	0.0164980
731.538	0.0164220
731.616	0.0163715
731.694	0.0162952
731.772	0.0164529
731.850	0.0163332
731.928	0.0163805
732.006	0.0162203
732.084	0.0163271
732.163	0.0163992
732.241	0.0165205
732.319	0.0167141
732.397	0.0167181
732.475	0.0168610
732.553	0.0170568
732.631	0.0171744
732.709	0.0172028
732.788	0.0174023
732.866	0.0175735
732.944	0.0174065
733.022	0.0175368
733.100	0.0175061
733.178	0.0176197
733.256	0.0175627
733.334	0.0175516
733.413	0.0175784
733.491	0.0177515
733.569	0.0176405
733.647	0.0175159
733.725	0.0174537
733.803	0.0172217
733.881	0.0173829
733.959	0.0172470
734.038	0.0170499
734.116	0.0169807
734.194	0.0169703
734.272	0.0169633
734.350	0.0169034
734.428	0.0166640
734.506	0.0166745
734.584	0.0166328
734.663	0.0165749
734.741	0.0167324
734.819	0.0166148
734.897	0.0166821
734.975	0.0163708
735.053	0.0164166
735.131	0.0164374
735.209	0.0164466
735.288	0.0164807
735.366	0.0164491
735.444	0.0164210
735.522	0.0164252
735.600	0.0164586
735.678	0.0163825
735.756	0.0163066
735.834	0.0164244
735.913	0.0163423
735.991	0.0162592
736.069	0.0162151
736.147	0.0163623
736.225	0.0163734
736.303	0.0163229
736.381	0.0162908
736.459	0.0161212
736.538	0.0161290
736.616	0.0161917
736.694	0.0160030
736.772	0.0160070
736.850	0.0160304
736.928	0.0159297
737.006	0.0158871
737.084	0.0159064
737.163	0.0159296
737.241	0.0160419
737.319	0.0160592
737.397	0.0162541
737.475	0.0161809
737.553	0.0162866
737.631	0.0162930
737.709	0.0165977
737.788	0.0166286
737.866	0.0166176
737.944	0.0167442
738.022	0.0168441
738.100	0.0170221
738.178	0.0170345
738.256	0.0170777
738.334	0.0171453
738.413	0.0172739
738.491	0.0173862
738.569	0.0173656
738.647	0.0175496
738.725	0.0176944
738.803	0.0177055
738.881	0.0176691
738.959	0.0176060
739.038	0.0176530
739.116	0.0176175
739.194	0.0175819
739.272	0.0175964
739.350	0.0175426
739.428	0.0174348
739.506	0.0172406
739.584	0.0173003
739.663	0.0171860
739.741	0.0169489
739.819	0.0167943
739.897	0.0167513
739.975	0.0166521
740.053	0.0165404
740.131	0.0163818
740.209	0.0164124
740.288	0.0163348
740.366	0.0161797
740.444	0.0162297
740.522	0.0160873
740.600	0.0160512
740.678	0.0162327
740.756	0.0162067
740.834	0.0162824
740.913	0.0164608
740.991	0.0165595
741.069	0.0165604
741.147	0.0167143
741.225	0.0166936
741.303	0.0167805
741.381	0.0169901
741.459	0.0171354
741.538	0.0168523
741.616	0.0172436
741.694	0.0174335
741.772	0.0172430
741.850	0.0171434
741.928	0.0170993
742.006	0.0172425
742.084	0.0172910
742.163	0.0169779
742.241	0.0169224
742.319	0.0169006
742.397	0.0168619
742.475	0.0168178
742.553	0.0165644
742.631	0.0165550
742.709	0.0164787
742.788	0.0165565
742.866	0.0163936
742.944	0.0162008
743.022	0.0161801
743.100	0.0162375
743.178	0.0161922
743.256	0.0160559
743.334	0.0160715
743.413	0.0161302
743.491	0.0161723
743.569	0.0161754
743.647	0.0160900
743.725	0.0163760
743.803	0.0163406
743.881	0.0163808
743.959	0.0164470
744.038	0.0164927
744.116	0.0166916
744.194	0.0167152
744.272	0.0166049
744.350	0.0165456
744.428	0.0167056
744.506	0.0166344
744.584	0.0165025
744.663	0.0166723
744.741	0.0165723
744.819	0.0165601
744.897	0.0165148
744.975	0.0164433
745.053	0.0166022
745.131	0.0166541
745.209	0.0166874
745.288	0.0166967
745.366	0.0167756
745.444	0.0168434
745.522	0.0168681
745.600	0.0169646
745.678	0.0170367
745.756	0.0170770
745.834	0.0170800
745.913	0.0172740
745.991	0.0169878
746.069	0.0171041
746.147	0.0171657
746.225	0.0170354
746.303	0.0168004
746.381	0.0168152
746.459	0.0167899
746.538	0.0167472
746.616	0.0166978
746.694	0.0167652
746.772	0.0167039
746.850	0.0167110
746.928	0.0166859
747.006	0.0167342
747.084	0.0167918
747.163	0.0166479
747.241	0.0167291
747.319	0.0169362
747.397	0.0169717
747.475	0.0168529
747.553	0.0168695
747.631	0.0168218
747.709	0.0169098
747.788	0.0167673
747.866	0.0168948
747.944	0.0170543
748.022	0.0169265
748.100	0.0168001
748.178	0.0169939
748.256	0.0168130
748.334	0.0169200
748.413	0.0168005
748.491	0.0169278
748.569	0.0169598
748.647	0.0169903
748.725	0.0169403
748.803	0.0169136
748.881	0.0168417
748.959	0.0169791
749.038	0.0168068
749.116	0.0168365
749.194	0.0166664
749.272	0.0167004
749.350	0.0165032
749.428	0.0166415
749.506	0.0164972
749.584	0.0165279
749.663	0.0164050
749.741	0.0164375
749.819	0.0164563
749.897	0.0162805
749.975	0.0164261
750.053	0.0163118
750.131	0.0163904
750.209	0.0164773
750.288	0.0164556
750.366	0.0164563
750.444	0.0164259
750.522	0.0166570
750.600	0.0165636
750.678	0.0165067
750.756	0.0165064
750.834	0.0165015
750.913	0.0164074
750.991	0.0163942
751.069	0.0164603
751.147	0.0161956
751.225	0.0163290
751.303	0.0163113
751.381	0.0162479
751.459	0.0161754
751.538	0.0162795
751.616	0.0161800
751.694	0.0161816
751.772	0.0162167
751.850	0.0162686
751.928	0.0163023
752.006	0.0163949
752.084	0.0166429
752.163	0.0166439
752.241	0.0167861
752.319	0.0167290
752.397	0.0167798
752.475	0.0169296
752.553	0.0170837
752.631	0.0170842
752.709	0.0170861
752.788	0.0171170
752.866	0.0172738
752.944	0.0170737
753.022	0.0171393
753.100	0.0172021
753.178	0.0173048
753.256	0.0171883
753.334	0.0172114
753.413	0.0171224
753.491	0.0170715
753.569	0.0172272
753.647	0.0172230
753.725	0.0171992
753.803	0.0171678
753.881	0.0170726
753.959	0.0170000
754.038	0.0169478
754.116	0.0171182
754.194	0.0169588
754.272	0.0169643
754.350	0.0169003
754.428	0.0167355
754.506	0.0167426
754.584	0.0166035
754.663	0.0166225
754.741	0.0166423
754.819	0.0165563
754.897	0.0164791
754.975	0.0164191
755.053	0.0165102
755.131	0.0163892
755.209	0.0163994
755.288	0.0164116
755.366	0.0164781
755.444	0.0164280
755.522	0.0163522
755.600	0.0162917
755.678	0.0165242
755.756	0.0164828
755.834	0.0165691
755.913	0.0167464
755.991	0.0166644
756.069	0.0167290
756.147	0.0168212
756.225	0.0169188
756.303	0.0169684
756.381	0.0168847
756.459	0.0170464
756.538	0.0170641
756.616	0.0170674
756.694	0.0170521
756.772	0.0171238
756.850	0.0170060
756.928	0.0168665
757.006	0.0168337
757.084	0.0168641
757.163	0.0168405
757.241	0.0168588
757.319	0.0165505
757.397	0.0165434
757.475	0.0164961
757.553	0.0163799
757.631	0.0162022
757.709	0.0163692
757.788	0.0163754
757.866	0.0161553
757.944	0.0161266
758.022	0.0160856
758.100	0.0159709
758.178	0.0160814
758.256	0.0161517
758.334	0.0162071
758.413	0.0160658
758.491	0.0162439
758.569	0.0162023
758.647	0.0162907
758.725	0.0164064
758.803	0.0165040
758.881	0.0164812
758.959	0.0166354
759.038	0.0167413
759.116	0.0168610
759.194	0.0168009
759.272	0.0169970
759.350	0.0169688
759.428	0.0170856
759.506	0.0171398
759.584	0.0169994
759.663	0.0170591
759.741	0.0172524
759.819	0.0171218
759.897	0.0170377
759.975	0.0171101
760.053	0.0171637
760.131	0.0171290
760.209	0.0169381
760.288	0.0170533
760.366	0.0168221
760.444	0.0168386
760.522	0.0168439
760.600	0.0167153
760.678	0.0166993
760.756	0.0166613
760.834	0.0165315
760.913	0.0166149
760.991	0.0164827
761.069	0.0164896
761.147	0.0165759
761.225	0.0164138
761.303	0.0166487
761.381	0.0166653
761.459	0.0166978
761.538	0.0167159
761.616	0.0166776
761.694	0.0167749
761.772	0.0169954
761.850	0.0170054
761.928	0.0170141
762.006	0.0170357
762.084	0.0172038
762.163	0.0172742
762.241	0.0172637
762.319	0.0172998
762.397	0.0174099
762.475	0.0174863
762.553	0.0173618
762.631	0.0172699
762.709	0.0172541
762.788	0.0171407
762.866	0.0172957
762.944	0.0170425
763.022	0.0170587
763.100	0.0168338
763.178	0.0167525
763.256	0.0167247
763.334	0.0166868
763.413	0.0165961
763.491	0.0164700
763.569	0.0163229
763.647	0.0163503
763.725	0.0164297
763.803	0.0162309
763.881	0.0161312
763.959	0.0161175
764.038	0.0160938
764.116	0.0161372
764.194	0.0161240
764.272	0.0161284
764.350	0.0160744
764.428	0.0160099
764.506	0.0160609
764.584	0.0161406
764.663	0.0160973
764.741	0.0160564
764.819	0.0160967
764.897	0.0163779
764.975	0.0162124
765.053	0.0163212
765.131	0.0165253
765.209	0.0164693
765.288	0.0165768
765.366	0.0166777
765.444	0.0167455
765.522	0.0167400
765.600	0.0168584
765.678	0.0169262
765.756	0.0167795
765.834	0.0170231
765.913	0.0170547
765.991	0.0169655
766.069	0.0170255
766.147	0.0168923
766.225	0.0168252
766.303	0.0168960
766.381	0.0168434
766.459	0.0168082
766.538	0.0168288
766.616	0.0168401
766.694	0.0168146
766.772	0.0167968
766.850	0.0168922
766.928	0.0168571
767.006	0.0167751
767.084	0.0167790
767.163	0.0168588
767.241	0.0168360
767.319	0.0168124
767.397	0.0168387
767.475	0.0168822
767.553	0.0167624
767.631	0.0168817
767.709	0.0168842
767.788	0.0166997
767.866	0.0167406
767.944	0.0166675
768.022	0.0167077
768.100	0.0165503
768.178	0.0165576
768.256	0.0166031
768.334	0.0166821
768.413	0.0166217
768.491	0.0166356
768.569	0.0167975
768.647	0.0168411
768.725	0.0166991
768.803	0.0167265
768.881	0.0167529
768.959	0.0167946
769.038	0.0167431
769.116	0.0166850
769.194	0.0168256
769.272	0.0167800
769.350	0.0168764
769.428	0.0169174
769.506	0.0167702
769.584	0.0167378
769.663	0.0167625
769.741	0.0167893
769.819	0.0168304
769.897	0.0169136
769.975	0.0168912
770.053	0.0167388
770.131	0.0168172
770.209	0.0169294
770.288	0.0169480
770.366	0.0169289
770.444	0.0169720
770.522	0.0169888
770.600	0.0169586
770.678	0.0169454
770.756	0.0171355
770.834	0.0171073
770.913	0.0168645
770.991	0.0169487
771.069	0.0170004
771.147	0.0169608
771.225	0.0167115
771.303	0.0167316
771.381	0.0166709
771.459	0.0167513
771.538	0.0167220
771.616	0.0167522
771.694	0.0166108
771.772	0.0166301
771.850	0.0165435
771.928	0.0164444
772.006	0.0164360
772.084	0.0164324
772.163	0.0164276
772.241	0.0164521
772.319	0.0163151
772.397	0.0162492
772.475	0.0162670
772.553	0.0161708
772.631	0.0161924
772.709	0.0160014
772.788	0.0160809
772.866	0.0162238
772.944	0.0161088
773.022	0.0160847
773.100	0.0160626
773.178	0.0160815
773.256	0.0161495
773.334	0.0161999
773.413	0.0163531
773.491	0.0163150
773.569	0.0163312
773.647	0.0163749
773.725	0.0164999
773.803	0.0165696
773.881	0.0164690
773.959	0.0165986
774.038	0.0166086
774.116	0.0167117
774.194	0.0168346
774.272	0.0168030
774.350	0.0168360
774.428	0.0167858
774.506	0.0169643
774.584	0.0169908
774.663	0.0169904
774.741	0.0169321
774.819	0.0172437
774.897	0.0171799
774.975	0.0171247
775.053	0.0172047
775.131	0.0172733
775.209	0.0171497
775.288	0.0173108
775.366	0.0171809
775.444	0.0171737
775.522	0.0172054
775.600	0.0171893
775.678	0.0172872
775.756	0.0171989
775.834	0.0172387
775.913	0.0170669
775.991	0.0170648
776.069	0.0170426
776.147	0.0168496
776.225	0.0169556
776.303	0.0168303
776.381	0.0169114
776.459	0.0168433
776.538	0.0167457
776.616	0.0166837
776.694	0.0166493
776.772	0.0166526
776.850	0.0163966
776.928	0.0165228
777.006	0.0166594
777.084	0.0165510
777.163	0.0166517
777.241	0.0166909
777.319	0.0166322
777.397	0.0166846
777.475	0.0166401
777.553	0.0168011
777.631	0.0168182
777.709	0.0167680
777.788	0.0167547
777.866	0.0169994
777.944	0.0169228
778.022	0.0167799
778.100	0.0168039
778.178	0.0168296
778.256	0.0167658
778.334	0.0167451
778.413	0.0166768
778.491	0.0166603
778.569	0.0165564
778.647	0.0164227
778.725	0.0163643
778.803	0.0164655
778.881	0.0161818
778.959	0.0160446
779.038	0.0162075
779.116	0.0161169
779.194	0.0160130
779.272	0.0159657
779.350	0.0159900
779.428	0.0161997
779.506	0.0162648
779.584	0.0164658
779.663	0.0166122
779.741	0.0166095
779.819	0.0168558
779.897	0.0170690
779.975	0.0170386
780.053	0.0172155
780.131	0.0174049
780.209	0.0172806
780.288	0.0174457
780.366	0.0174248
780.444	0.0173225
780.522	0.0171820
780.600	0.0170339
780.678	0.0167961
780.756	0.0168179
780.834	0.0165332
780.913	0.0164688
780.991	0.0164614
781.069	0.0161031
781.147	0.0159969
781.225	0.0160368
781.303	0.0155687
781.381	0.0156775
781.459	0.0155050
781.538	0.0155142
781.616	0.0155939
781.694	0.0156185
781.772	0.0156451
781.850	0.0157379
781.928	0.0158667
782.006	0.0160232
782.084	0.0163374
782.163	0.0165952
782.241	0.0167171
782.319	0.0170479
782.397	0.0173132
782.475	0.0177326
782.553	0.0179187
782.631	0.0180447
782.709	0.0182102
782.788	0.0184244
782.866	0.0184943
782.944	0.0186295
783.022	0.0186465
783.100	0.0184253
783.178	0.0184385
783.256	0.0183080
783.334	0.0181380
783.413	0.0178704
783.491	0.0175298
783.569	0.0172466
783.647	0.0170120
783.725	0.0167403
783.803	0.0164764
783.881	0.0163441
783.959	0.0160974
784.038	0.0159148
784.116	0.0156116
784.194	0.0156981
784.272	0.0155503
784.350	0.0155621
784.428	0.0154659
784.506	0.0155865
784.584	0.0154862
784.663	0.0156978
784.741	0.0157590
784.819	0.0159233
784.897	0.0160940
784.975	0.0162913
785.053	0.0163241
785.131	0.0164001
785.209	0.0165364
785.288	0.0165543
785.366	0.0167423
785.444	0.0168010
785.522	0.0169871
785.600	0.0169948
785.678	0.0170080
785.756	0.0170444
785.834	0.0172050
785.913	0.0171456
785.991	0.0174346
786.069	0.0172528
786.147	0.0172871
786.225	0.0172366
786.303	0.0172482
786.381	0.0172436
786.459	0.0170985
786.538	0.0170512
786.616	0.0169463
786.694	0.0170274
786.772	0.0169192
786.850	0.0168915
786.928	0.0167398
787.006	0.0167375
787.084	0.0166228
787.163	0.0165841
787.241	0.0164887
787.319	0.0163664
787.397	0.0163983
787.475	0.0163066
787.553	0.0160357
787.631	0.0161752
787.709	0.0161102
787.788	0.0160258
787.866	0.0158524
787.944	0.0158994
788.022	0.0158833
788.100	0.0158250
788.178	0.0158015
788.256	0.0158533
788.334	0.0158381
788.413	0.0157560
788.491	0.0157253
788.569	0.0159657
788.647	0.0160255
788.725	0.0161039
788.803	0.0160973
788.881	0.0163099
788.959	0.0164394
789.038	0.0165285
789.116	0.0167740
789.194	0.0167367
789.272	0.0169793
789.350	0.0170728
789.428	0.0171246
789.506	0.0172947
789.584	0.0172588
789.663	0.0172456
789.741	0.0174796
789.819	0.0175109
789.897	0.0175648
789.975	0.0176210
790.053	0.0176159
790.131	0.0176923
790.209	0.0176498
790.288	0.0176140
790.366	0.0175955
790.444	0.0175211
790.522	0.0173771
790.600	0.0174018
790.678	0.0175340
790.756	0.0174186
790.834	0.0172477
790.913	0.0169253
790.991	0.0169597
791.069	0.0166862
791.147	0.0166869
791.225	0.0165886
791.303	0.0163523
791.381	0.0164436
791.459	0.0163087
791.538	0.0162199
791.616	0.0160369
791.694	0.0159915
791.772	0.0161314
791.850	0.0159939
791.928	0.0161733
792.006	0.0162024
792.084	0.0163004
792.163	0.0163358
792.241	0.0164102
792.319	0.0163677
792.397	0.0163736
792.475	0.0166737
792.553	0.0166174
792.631	0.0166296
792.709	0.0167624
792.788	0.0168217
792.866	0.0167060
792.944	0.0169581
793.022	0.0168350
793.100	0.0168054
793.178	0.0169325
793.256	0.0167215
793.334	0.0168272
793.413	0.0168336
793.491	0.0168303
793.569	0.0167026
793.647	0.0166297
793.725	0.0166991
793.803	0.0164024
793.881	0.0164927
793.959	0.0165355
794.038	0.0164188
794.116	0.0165648
794.194	0.0166045
794.272	0.0165425
794.350	0.0162108
794.428	0.0164119
794.506	0.0163813
794.584	0.0164462
794.663	0.0167315
794.741	0.0166103
794.819	0.0166447
794.897	0.0167094
794.975	0.0168577
795.053	0.0168486
795.131	0.0168108
795.209	0.0169649
795.288	0.0170206
795.366	0.0170451
795.444	0.0170480
795.522	0.0170251
795.600	0.0169410
795.678	0.0169321
795.756	0.0169681
795.834	0.0168768
795.913	0.0168227
795.991	0.0168206
796.069	0.0166734
796.147	0.0165038
796.225	0.0163707
796.303	0.0164544
796.381	0.0163989
796.459	0.0163049
796.538	0.0161216
796.616	0.0161358
796.694	0.0163011
796.772	0.0162389
796.850	0.0163055
796.928	0.0163052
797.006	0.0163545
797.084	0.0162462
797.163	0.0163056
797.241	0.0162716
797.319	0.0163078
797.397	0.0165356
797.475	0.0166818
797.553	0.0166037
797.631	0.0166676
797.709	0.0166972
797.788	0.0168221
797.866	0.0167603
797.944	0.0167057
798.022	0.0168668
798.100	0.0167970
798.178	0.0168201
798.256	0.0167561
798.334	0.0168451
798.413	0.0168480
798.491	0.0168994
798.569	0.0168173
798.647	0.0169825
798.725	0.0169392
798.803	0.0168678
798.881	0.0169315
798.959	0.0169260
799.038	0.0168857
799.116	0.0169514
799.194	0.0169862
799.272	0.0167895
799.350	0.0169393
799.428	0.0168747
799.506	0.0168607
799.584	0.0169811
799.663	0.0168678
799.741	0.0168035
799.819	0.0168388
799.897	0.0168756
799.975	0.0168372
800.053	0.0167845
800.131	0.0168616
800.209	0.0168068
800.288	0.0168361
800.366	0.0167762
800.444	0.0167287
800.522	0.0166692
800.600	0.0165514
800.678	0.0167705
800.756	0.0166312
800.834	0.0164970
800.913	0.0165987
800.991	0.0166863
801.069	0.0165551
801.147	0.0164307
801.225	0.0166113
801.303	0.0164450
801.381	0.0164732
801.459	0.0164535
801.538	0.0164061
801.616	0.0163909
801.694	0.0164047
801.772	0.0162447
801.850	0.0161067
801.928	0.0162485
802.006	0.0163152
802.084	0.0160393
802.163	0.0161086
802.241	0.0160682
802.319	0.0161046
802.397	0.0160905
802.475	0.0161225
802.553	0.0160657
802.631	0.0161159
802.709	0.0160489
802.788	0.0160131
802.866	0.0162167
802.944	0.0162524
803.022	0.0161832
803.100	0.0162420
803.178	0.0162096
803.256	0.0163244
803.334	0.0162284
803.413	0.0163924
803.491	0.0164146
803.569	0.0164220
803.647	0.0165705
803.725	0.0165034
803.803	0.0165536
803.881	0.0165749
803.959	0.0166352
804.038	0.0165979
804.116	0.0167056
804.194	0.0168985
804.272	0.0168797
804.350	0.0168181
804.428	0.0169727
804.506	0.0169596
804.584	0.0168963
804.663	0.0171684
804.741	0.0170944
804.819	0.0170409
804.897	0.0171681
804.975	0.0171761
805.053	0.0172349
805.131	0.0172634
805.209	0.0174026
805.288	0.0173174
805.366	0.0173892
805.444	0.0173067
805.522	0.0173034
805.600	0.0173228
805.678	0.0171902
805.756	0.0173090
805.834	0.0172002
805.913	0.0172395
805.991	0.0169841
806.069	0.0170358
806.147	0.0170607
806.225	0.0169012
806.303	0.0168391
806.381	0.0167235
806.459	0.0166851
806.538	0.0167375
806.616	0.0166541
806.694	0.0167072
806.772	0.0166299
806.850	0.0167170
806.928	0.0167634
807.006	0.0167004
807.084	0.0166628
807.163	0.0167567
807.241	0.0166541
807.319	0.0166664
807.397	0.0167359
807.475	0.0166180
807.553	0.0165770
807.631	0.0164367
807.709	0.0165927
807.788	0.0164634
807.866	0.0164381
807.944	0.0163641
808.022	0.0163801
808.100	0.0162720
808.178	0.0161864
808.256	0.0161532
808.334	0.0161359
808.413	0.0161304
808.491	0.0160651
808.569	0.0160053
808.647	0.0160060
808.725	0.0159538
808.803	0.0159390
808.881	0.0158805
808.959	0.0159325
809.038	0.0158620
809.116	0.0158700
809.194	0.0159103
809.272	0.0160029
809.350	0.0161135
809.428	0.0161574
809.506	0.0162405
809.584	0.0165271
809.663	0.0163290
809.741	0.0165147
809.819	0.0166584
809.897	0.0167767
809.975	0.0168675
810.053	0.0168945
810.131	0.0170361
810.209	0.0170432
810.288	0.0171706
810.366	0.0172142
810.444	0.0172701
810.522	0.0172610
810.600	0.0173567
810.678	0.0173803
810.756	0.0172902
810.834	0.0172890
810.913	0.0171601
810.991	0.0170126
811.069	0.0171222
811.147	0.0170322
811.225	0.0169732
811.303	0.0169923
811.381	0.0168872
811.459	0.0167699
811.538	0.0166335
811.616	0.0167387
811.694	0.0165776
811.772	0.0164124
811.850	0.0165739
811.928	0.0164769
812.006	0.0165281
812.084	0.0165225
812.163	0.0165548
812.241	0.0166395
812.319	0.0167093
812.397	0.0166660
812.475	0.0167899
812.553	0.0169350
812.631	0.0168467
812.709	0.0170004
812.788	0.0169254
812.866	0.0169382
812.944	0.0170136
813.022	0.0171204
813.100	0.0171045
813.178	0.0170549
813.256	0.0171201
813.334	0.0169625
813.413	0.0169381
813.491	0.0168703
813.569	0.0167641
813.647	0.0167147
813.725	0.0166673
813.803	0.0167687
813.881	0.0165843
813.959	0.0164938
814.038	0.0162852
814.116	0.0162710
814.194	0.0162678
814.272	0.0162324
814.350	0.0161092
814.428	0.0162433
814.506	0.0162537
814.584	0.0161414
814.663	0.0161153
814.741	0.0160346
814.819	0.0160545
814.897	0.0161514
814.975	0.0162953
815.053	0.0161499
815.131	0.0161933
815.209	0.0163248
815.288	0.0164164
815.366	0.0164359
815.444	0.0165343
815.522	0.0167036
815.600	0.0168941
815.678	0.0168995
815.756	0.0170140
815.834	0.0171539
815.913	0.0171043
815.991	0.0172998
816.069	0.0173794
816.147	0.0174239
816.225	0.0173071
816.303	0.0172975
816.381	0.0172346
816.459	0.0173367
816.538	0.0173299
816.616	0.0174824
816.694	0.0171972
816.772	0.0170351
816.850	0.0169967
816.928	0.0168111
817.006	0.0168655
817.084	0.0166348
817.163	0.0167051
817.241	0.0165554
817.319	0.0166164
817.397	0.0164312
817.475	0.0163336
817.553	0.0163693
817.631	0.0162806
817.709	0.0161801
817.788	0.0161469
817.866	0.0161573
817.944	0.0160815
818.022	0.0160605
818.100	0.0161758
818.178	0.0162803
818.256	0.0160987
818.334	0.0162468
818.413	0.0163395
818.491	0.0164429
818.569	0.0165482
818.647	0.0165127
818.725	0.0166535
818.803	0.0166544
818.881	0.0167386
818.959	0.0168912
819.038	0.0170031
819.116	0.0170043
819.194	0.0170784
819.272	0.0171029
819.350	0.0170293
819.428	0.0171624
819.506	0.0170858
819.584	0.0171304
819.663	0.0170575
819.741	0.0169464
819.819	0.0169962
819.897	0.0169230
819.975	0.0168815
820.053	0.0167883
820.131	0.0165418
820.209	0.0165494
820.288	0.0164953
820.366	0.0165957
820.444	0.0165254
820.522	0.0163551
820.600	0.0164491
820.678	0.0165116
820.756	0.0164682
820.834	0.0164410
820.913	0.0165303
820.991	0.0165761
821.069	0.0164292
821.147	0.0166128
821.225	0.0166956
821.303	0.0166562
821.381	0.0167223
821.459	0.0168063
821.538	0.0168337
821.616	0.0168465
821.694	0.0170382
821.772	0.0169000
821.850	0.0169144
821.928	0.0170313
822.006	0.0170962
822.084	0.0169797
822.163	0.0169704
822.241	0.0170214
822.319	0.0170261
822.397	0.0170243
822.475	0.0168628
822.553	0.0169414
822.631	0.0168250
822.709	0.0167498
822.788	0.0169324
822.866	0.0167665
822.944	0.0167449
823.022	0.0166771
823.100	0.0166460
823.178	0.0167545
823.256	0.0166936
823.334	0.0166471
823.413	0.0164942
823.491	0.0166766
823.569	0.0166362
823.647	0.0166537
823.725	0.0165131
823.803	0.0165327
823.881	0.0165926
823.959	0.0165232
824.038	0.0165131
824.116	0.0166835
824.194	0.0166939
824.272	0.0166432
824.350	0.0167538
824.428	0.0166875
824.506	0.0165311
824.584	0.0167786
824.663	0.0166517
824.741	0.0167672
824.819	0.0166760
824.897	0.0165955
824.975	0.0166609
825.053	0.0167161
825.131	0.0164149
825.209	0.0164811
825.288	0.0165555
825.366	0.0165045
825.444	0.0163982
825.522	0.0163578
825.600	0.0164970
825.678	0.0163789
825.756	0.0163386
825.834	0.0163978
825.913	0.0163740
825.991	0.0163272
826.069	0.0162234
826.147	0.0162894
826.225	0.0163746
826.303	0.0163144
826.381	0.0163004
826.459	0.0163615
826.538	0.0164281
826.616	0.0163855
826.694	0.0163529
826.772	0.0164943
826.850	0.0165028
826.928	0.0166094
827.006	0.0165744
827.084	0.0166879
827.163	0.0166618
827.241	0.0169051
827.319	0.0169486
827.397	0.0168552
827.475	0.0168826
827.553	0.0171023
827.631	0.0169700
827.709	0.0171500
827.788	0.0170612
827.866	0.0172346
827.944	0.0171104
828.022	0.0171627
828.100	0.0172195
828.178	0.0173306
828.256	0.0171494
828.334	0.0172947
828.413	0.0173015
828.491	0.0173132
828.569	0.0172419
828.647	0.0172367
828.725	0.0173119
828.803	0.0173599
828.881	0.0170967
828.959	0.0171782
829.038	0.0170293
829.116	0.0169199
829.194	0.0169153
829.272	0.0167326
829.350	0.0167346
829.428	0.0166455
829.506	0.0165296
829.584	0.0165102
829.663	0.0164761
829.741	0.0164250
829.819	0.0161426
829.897	0.0162510
829.975	0.0163988
830.053	0.0160875
830.131	0.0161460
830.209	0.0161940
830.288	0.0160992
830.366	0.0161814
830.444	0.0162724
830.522	0.0162560
830.600	0.0162574
830.678	0.0163194
830.756	0.0163651
830.834	0.0163466
830.913	0.0163467
830.991	0.0164017
831.069	0.0164562
831.147	0.0164851
831.225	0.0165495
831.303	0.0166870
831.381	0.0167989
831.459	0.0168273
831.538	0.0166955
831.616	0.0167196
831.694	0.0169375
831.772	0.0167797
831.850	0.0168955
831.928	0.0169160
832.006	0.0169518
832.084	0.0169203
832.163	0.0170586
832.241	0.0169280
832.319	0.0170665
832.397	0.0170142
832.475	0.0169862
832.553	0.0169338
832.631	0.0170516
832.709	0.0169405
832.788	0.0168207
832.866	0.0169317
832.944	0.0168501
833.022	0.0168359
833.100	0.0168938
833.178	0.0168091
833.256	0.0167110
833.334	0.0166164
833.413	0.0165598
833.491	0.0167076
833.569	0.0166959
833.647	0.0165538
833.725	0.0165617
833.803	0.0164810
833.881	0.0164678
833.959	0.0164473
834.038	0.0163219
834.116	0.0164970
834.194	0.0164099
834.272	0.0162391
834.350	0.0164886
834.428	0.0163603
834.506	0.0164969
834.584	0.0163397
834.663	0.0163741
834.741	0.0164706
834.819	0.0164980
834.897	0.0164716
834.975	0.0164436
835.053	0.0166632
835.131	0.0167162
835.209	0.0166957
835.288	0.0167192
835.366	0.0167068
835.444	0.0168867
835.522	0.0168752
835.600	0.0168542
835.678	0.0170692
835.756	0.0170930
835.834	0.0170491
835.913	0.0171258
835.991	0.0169702
836.069	0.0170667
836.147	0.0171819
836.225	0.0170219
836.303	0.0170959
836.381	0.0170399
836.459	0.0170906
836.538	0.0171262
836.616	0.0170724
836.694	0.0171125
836.772	0.0172095
836.850	0.0171603
836.928	0.0169384
837.006	0.0170434
837.084	0.0169565
837.163	0.0170522
837.241	0.0169827
837.319	0.0170646
837.397	0.0167728
837.475	0.0167808
837.553	0.0167841
837.631	0.0167341
837.709	0.0167085
837.788	0.0167229
837.866	0.0166297
837.944	0.0166351
838.022	0.0166298
838.100	0.0165762
838.178	0.0165443
838.256	0.0164875
838.334	0.0165635
838.413	0.0163254
838.491	0.0164133
838.569	0.0162889
838.647	0.0162337
838.725	0.0163757
838.803	0.0161672
838.881	0.0161629
838.959	0.0162125
839.038	0.0162114
839.116	0.0163421
839.194	0.0163789
839.272	0.0163322
839.350	0.0164120
839.428	0.0163537
839.506	0.0164353
839.584	0.0165374
839.663	0.0165691
839.741	0.0165417
839.819	0.0166464
839.897	0.0166697
839.975	0.0167517
840.053	0.0167196
840.131	0.0167725
840.209	0.0168742
840.288	0.0169205
840.366	0.0168808
840.444	0.0168880
840.522	0.0169096
840.600	0.0169737
840.678	0.0168786
840.756	0.0170206
840.834	0.0169602
840.913	0.0170328
840.991	0.0169730
841.069	0.0168758
841.147	0.0168396
841.225	0.0170125
841.303	0.0169631
841.381	0.0169322
841.459	0.0167850
841.538	0.0168450
841.616	0.0169135
841.694	0.0168156
841.772	0.0167700
841.850	0.0166936
841.928	0.0166774
842.006	0.0167950
842.084	0.0167014
842.163	0.0166587
842.241	0.0166431
842.319	0.0167113
842.397	0.0166846
842.475	0.0166321
842.553	0.0167165
842.631	0.0166800
842.709	0.0166574
842.788	0.0165974
842.866	0.0167616
842.944	0.0166423
843.022	0.0168417
843.100	0.0167110
843.178	0.0168272
843.256	0.0168549
843.334	0.0169720
843.413	0.0168974
843.491	0.0169003
843.569	0.0169812
843.647	0.0168597
843.725	0.0168699
843.803	0.0169459
843.881	0.0169195
843.959	0.0168813
844.038	0.0169197
844.116	0.0168401
844.194	0.0168835
844.272	0.0168245
844.350	0.0167771
844.428	0.0167169
844.506	0.0167638
844.584	0.0166747
844.663	0.0167455
844.741	0.0168133
844.819	0.0166834
844.897	0.0167326
844.975	0.0167929
845.053	0.0167924
845.131	0.0167375
845.209	0.0167747
845.288	0.0167117
845.366	0.0167187
845.444	0.0167190
845.522	0.0167069
845.600	0.0167072
845.678	0.0166406
845.756	0.0167126
845.834	0.0165701
845.913	0.0164735
845.991	0.0166161
846.069	0.0165900
846.147	0.0166003
846.225	0.0165296
846.303	0.0164149
846.381	0.0163336
846.459	0.0165401
846.538	0.0164310
846.616	0.0163358
846.694	0.0164731
846.772	0.0163668
846.850	0.0164851
846.928	0.0165421
847.006	0.0164996
847.084	0.0165581
847.163	0.0165694
847.241	0.0165860
847.319	0.0166918
847.397	0.0167773
847.475	0.0168230
847.553	0.0168376
847.631	0.0169361
847.709	0.0169720
847.788	0.0170287
847.866	0.0169115
847.944	0.0169733
848.022	0.0169291
848.100	0.0170571
848.178	0.0170202
848.256	0.0169868
848.334	0.0170966
848.413	0.0168678
848.491	0.0168031
848.569	0.0169661
848.647	0.0167275
848.725	0.0166425
848.803	0.0167902
848.881	0.0167889
848.959	0.0165997
849.038	0.0166246
849.116	0.0167359
849.194	0.0166928
849.272	0.0167476
849.350	0.0166994
849.428	0.0167239
849.506	0.0167747
849.584	0.0167123
849.663	0.0167352
849.741	0.0169298
849.819	0.0169202
849.897	0.0168275
849.975	0.0167381
850.053	0.0168233
850.131	0.0169185
850.209	0.0168533
850.288	0.0168851
850.366	0.0167618
850.444	0.0166251
850.522	0.0166691
850.600	0.0166837
850.678	0.0165885
850.756	0.0166727
850.834	0.0165654
850.913	0.0165095
850.991	0.0165900
851.069	0.0163798
851.147	0.0166029
851.225	0.0164338
851.303	0.0164317
851.381	0.0164442
851.459	0.0165465
851.538	0.0164851
851.616	0.0164378
851.694	0.0165739
851.772	0.0166695
851.850	0.0165295
851.928	0.0165504
852.006	0.0165427
852.084	0.0166650
852.163	0.0166010
852.241	0.0165195
852.319	0.0167070
852.397	0.0168285
852.475	0.0167157
852.553	0.0166286
852.631	0.0168213
852.709	0.0168549
852.788	0.0168040
852.866	0.0167854
852.944	0.0168759
853.022	0.0168532
853.100	0.0169650
853.178	0.0169682
853.256	0.0169328
853.334	0.0168104
853.413	0.0169065
853.491	0.0168190
853.569	0.0168627
853.647	0.0169035
853.725	0.0168142
853.803	0.0166997
853.881	0.0166972
853.959	0.0166982
854.038	0.0166632
854.116	0.0166814
854.194	0.0166980
854.272	0.0166318
854.350	0.0166070
854.428	0.0164980
854.506	0.0165122
854.584	0.0164106
854.663	0.0165092
854.741	0.0164759
854.819	0.0164320
854.897	0.0165996
854.975	0.0164817
855.053	0.0164346
855.131	0.0163683
855.209	0.0165161
855.288	0.0164609
855.366	0.0164943
855.444	0.0165352
855.522	0.0164869
855.600	0.0166757
855.678	0.0166051
855.756	0.0166922
855.834	0.0167298
855.913	0.0167774
855.991	0.0168211
856.069	0.0167413
856.147	0.0168858
856.225	0.0166956
856.303	0.0167755
856.381	0.0168582
856.459	0.0168800
856.538	0.0168974
856.616	0.0168568
856.694	0.0166791
856.772	0.0168280
856.850	0.0169932
856.928	0.0168854
857.006	0.0168050
857.084	0.0168971
857.163	0.0169263
857.241	0.0169058
857.319	0.0169028
857.397	0.0169956
857.475	0.0168320
857.553	0.0169907
857.631	0.0169181
857.709	0.0168900
857.788	0.0166520
857.866	0.0168197
857.944	0.0167982
858.022	0.0167425
858.100	0.0167428
858.178	0.0167030
858.256	0.0166391
858.334	0.0166892
858.413	0.0166425
858.491	0.0165694
858.569	0.0166121
858.647	0.0165194
858.725	0.0165305
858.803	0.0165694
858.881	0.0165871
858.959	0.0165412
859.038	0.0166865
859.116	0.0165317
859.194	0.0165098
859.272	0.0166401
859.350	0.0165543
859.428	0.0166456
859.506	0.0166667
859.584	0.0165372
859.663	0.0166586
859.741	0.0167368
859.819	0.0167371
859.897	0.0167729
859.975	0.0168089
860.053	0.0167418
860.131	0.0167498
860.209	0.0168741
860.288	0.0167799
860.366	0.0168306
860.444	0.0168435
860.522	0.0169191
860.600	0.0168948
860.678	0.0169050
860.756	0.0168860
860.834	0.0169489
860.913	0.0168280
860.991	0.0167049
861.069	0.0168699
861.147	0.0167651
861.225	0.0167139
861.303	0.0166394
861.381	0.0167346
861.459	0.0165717
861.538	0.0165749
861.616	0.0165057
861.694	0.0165549
861.772	0.0165306
861.850	0.0163396
861.928	0.0163644
862.006	0.0165925
862.084	0.0166573
862.163	0.0165447
862.241	0.0164899
862.319	0.0165111
862.397	0.0165794
862.475	0.0165587
862.553	0.0165733
862.631	0.0166151
862.709	0.0164719
862.788	0.0165711
862.866	0.0168078
862.944	0.0166112
863.022	0.0166448
863.100	0.0165611
863.178	0.0166320
863.256	0.0165782
863.334	0.0165842
863.413	0.0166250
863.491	0.0166103
863.569	0.0166938
863.647	0.0166872
863.725	0.0164666
863.803	0.0165375
863.881	0.0166119
863.959	0.0165603
864.038	0.0165486
864.116	0.0164842
864.194	0.0166130
864.272	0.0165622
864.350	0.0165146
864.428	0.0164783
864.506	0.0165909
864.584	0.0166859
864.663	0.0165442
864.741	0.0166627
864.819	0.0166109
864.897	0.0165027
864.975	0.0167673
865.053	0.0167523
865.131	0.0169425
865.209	0.0168676
865.288	0.0168250
865.366	0.0166003
865.444	0.0168636
865.522	0.0168684
865.600	0.0169250
865.678	0.0169469
865.756	0.0168996
865.834	0.0169639
865.913	0.0170243
865.991	0.0167908
866.069	0.0168749
866.147	0.0168723
866.225	0.0169308
866.303	0.0168225
866.381	0.0168712
866.459	0.0170014
866.538	0.0167321
866.616	0.0167123
866.694	0.0167171
866.772	0.0168426
866.850	0.0168280
866.928	0.0165763
867.006	0.0165516
867.084	0.0165181
867.163	0.0165437
867.241	0.0165823
867.319	0.0164432
867.397	0.0164151
867.475	0.0164204
867.553	0.0164023
867.631	0.0164836
867.709	0.0163699
867.788	0.0165016
867.866	0.0163977
867.944	0.0164077
868.022	0.0163356
868.100	0.0163792
868.178	0.0164170
868.256	0.0165707
868.334	0.0165639
868.413	0.0164301
868.491	0.0166452
868.569	0.0166632
868.647	0.0167224
868.725	0.0167398
868.803	0.0167943
868.881	0.0167577
868.959	0.0169065
869.038	0.0168800
869.116	0.0169447
869.194	0.0169405
869.272	0.0170171
869.350	0.0169955
869.428	0.0169771
869.506	0.0169133
869.584	0.0170293
869.663	0.0171643
869.741	0.0170296
869.819	0.0169495
869.897	0.0169488
869.975	0.0169749
870.053	0.0169136
870.131	0.0169372
870.209	0.0167274
870.288	0.0167915
870.366	0.0166196
870.444	0.0165792
870.522	0.0166050
870.600	0.0166477
870.678	0.0166151
870.756	0.0165659
870.834	0.0166754
870.913	0.0166007
870.991	0.0166303
871.069	0.0167360
871.147	0.0167515
871.225	0.0166908
871.303	0.0166255
871.381	0.0167348
871.459	0.0166531
871.538	0.0166348
871.616	0.0168215
871.694	0.0167389
871.772	0.0166485
871.850	0.0165726
871.928	0.0167226
872.006	0.0166978
872.084	0.0166293
872.163	0.0165659
872.241	0.0166647
872.319	0.0165675
872.397	0.0166155
872.475	0.0166457
872.553	0.0165632
872.631	0.0167529
872.709	0.0167041
872.788	0.0166254
872.866	0.0167147
872.944	0.0167052
873.022	0.0166988
873.100	0.0166484
873.178	0.0166526
873.256	0.0166473
873.334	0.0165320
873.413	0.0165426
873.491	0.0165752
873.569	0.0163019
873.647	0.0162881
873.725	0.0161700
873.803	0.0162363
873.881	0.0162803
873.959	0.0162249
874.038	0.0162575
874.116	0.0162448
874.194	0.0163680
874.272	0.0162008
874.350	0.0162946
874.428	0.0163097
874.506	0.0165697
874.584	0.0166128
874.663	0.0167047
874.741	0.0168359
874.819	0.0171668
874.897	0.0172402
874.975	0.0172626
875.053	0.0174731
875.131	0.0176983
875.209	0.0178994
875.288	0.0179438
875.366	0.0180359
875.444	0.0179774
875.522	0.0177317
875.600	0.0179204
875.678	0.0177438
875.756	0.0175347
875.834	0.0171616
875.913	0.0168843
875.991	0.0165742
876.069	0.0162927
876.147	0.0159674
876.225	0.0157073
876.303	0.0155327
876.381	0.0154111
876.459	0.0153357
876.538	0.0153274
876.616	0.0153156
876.694	0.0153469
876.772	0.0155541
876.850	0.0154841
876.928	0.0156914
877.006	0.0158992
877.084	0.0160323
877.163	0.0164127
877.241	0.0165423
877.319	0.0166965
877.397	0.0169392
877.475	0.0170685
877.553	0.0174217
877.631	0.0175536
877.709	0.0176468
877.788	0.0179971
877.866	0.0180309
877.944	0.0181614
878.022	0.0183612
878.100	0.0182127
878.178	0.0182474
878.256	0.0180740
878.334	0.0180162
878.413	0.0177160
878.491	0.0174998
878.569	0.0171342
878.647	0.0168214
878.725	0.0165013
878.803	0.0159743
878.881	0.0156261
878.959	0.0152676
879.038	0.0149649
879.116	0.0147495
879.194	0.0146273
879.272	0.0145281
879.350	0.0146631
879.428	0.0148367
879.506	0.0150549
879.584	0.0152263
879.663	0.0155271
879.741	0.0156628
879.819	0.0161555
879.897	0.0164229
879.975	0.0168044
880.053	0.0169857
880.131	0.0172867
880.209	0.0174651
880.288	0.0175694
880.366	0.0175605
880.444	0.0178025
880.522	0.0179756
880.600	0.0180072
880.678	0.0179263
880.756	0.0178898
880.834	0.0179437
880.913	0.0180374
880.991	0.0179680
881.069	0.0178482
881.147	0.0175724
881.225	0.0176326
881.303	0.0175019
881.381	0.0172456
881.459	0.0170701
881.538	0.0167895
881.616	0.0164878
881.694	0.0162424
881.772	0.0160774
881.850	0.0157475
881.928	0.0156642
882.006	0.0156721
882.084	0.0155627
882.163	0.0156437
882.241	0.0155058
882.319	0.0156295
882.397	0.0157046
882.475	0.0158336
882.553	0.0160860
882.631	0.0160773
882.709	0.0161751
882.788	0.0161844
882.866	0.0162977
882.944	0.0164444
883.022	0.0165774
883.100	0.0166019
883.178	0.0167298
883.256	0.0166805
883.334	0.0169635
883.413	0.0170016
883.491	0.0170100
883.569	0.0170366
883.647	0.0171760
883.725	0.0170898
883.803	0.0172207
883.881	0.0172675
883.959	0.0171970
884.038	0.0172343
884.116	0.0171980
884.194	0.0170806
884.272	0.0169546
884.350	0.0169454
884.428	0.0169293
884.506	0.0167642
884.584	0.0167944
884.663	0.0167175
884.741	0.0166616
884.819	0.0166370
884.897	0.0165526
884.975	0.0165730
885.053	0.0165718
885.131	0.0165564
885.209	0.0166821
885.288	0.0167268
885.366	0.0167268
885.444	0.0167346
885.522	0.0167661
885.600	0.0168363
885.678	0.0168719
885.756	0.0168700
885.834	0.0167384
885.913	0.0169300
885.991	0.0168591
886.069	0.0167574
886.147	0.0167335
886.225	0.0167306
886.303	0.0167784
886.381	0.0165849
886.459	0.0165554
886.538	0.0165171
886.616	0.0165204
886.694	0.0164117
886.772	0.0163327
886.850	0.0164288
886.928	0.0163232
887.006	0.0163002
887.084	0.0162054
887.163	0.0163007
887.241	0.0162548
887.319	0.0163345
887.397	0.0163928
887.475	0.0163933
887.553	0.0164073
887.631	0.0165810
887.709	0.0165424
887.788	0.0164866
887.866	0.0166618
887.944	0.0165955
888.022	0.0166997
888.100	0.0167192
888.178	0.0166058
888.256	0.0166622
888.334	0.0167154
888.413	0.0166388
888.491	0.0165256
888.569	0.0166858
888.647	0.0168360
888.725	0.0167971
888.803	0.0166371
888.881	0.0168298
888.959	0.0165965
889.038	0.0166283
889.116	0.0166044
889.194	0.0167905
889.272	0.0166841
889.350	0.0167266
889.428	0.0166399
889.506	0.0166386
889.584	0.0167545
889.663	0.0169991
889.741	0.0170252
889.819	0.0170611
889.897	0.0169862
889.975	0.0171222
890.053	0.0172430
890.131	0.0172256
890.209	0.0171976
890.288	0.0171593
890.366	0.0173969
890.444	0.0172493
890.522	0.0172250
890.600	0.0170832
890.678	0.0170657
890.756	0.0171451
890.834	0.0170683
890.913	0.0169364
890.991	0.0169455
891.069	0.0167438
891.147	0.0166064
891.225	0.0166513
891.303	0.0164471
891.381	0.0163493
891.459	0.0164977
891.538	0.0161961
891.616	0.0162555
891.694	0.0161096
891.772	0.0160360
891.850	0.0161098
891.928	0.0160862
892.006	0.0161620
892.084	0.0161948
892.163	0.0162631
892.241	0.0162748
892.319	0.0163831
892.397	0.0162371
892.475	0.0163226
892.553	0.0165521
892.631	0.0165080
892.709	0.0166675
892.788	0.0166817
892.866	0.0164420
892.944	0.0167350
893.022	0.0166754
893.100	0.0166892
893.178	0.0168341
893.256	0.0169311
893.334	0.0166711
893.413	0.0167466
893.491	0.0166847
893.569	0.0168265
893.647	0.0167055
893.725	0.0166468
893.803	0.0167573
893.881	0.0168542
893.959	0.0169259
894.038	0.0167831
894.116	0.0167718
894.194	0.0166837
894.272	0.0167825
894.350	0.0168229
894.428	0.0168130
894.506	0.0166711
894.584	0.0167851
894.663	0.0168710
894.741	0.0168149
894.819	0.0169659
894.897	0.0168623
894.975	0.0169071
895.053	0.0169189
895.131	0.0169538
895.209	0.0170264
895.288	0.0169651
895.366	0.0169621
895.444	0.0169603
895.522	0.0168094
895.600	0.0168493
895.678	0.0170747
895.756	0.0170961
895.834	0.0167693
895.913	0.0168596
895.991	0.0168631
896.069	0.0168035
896.147	0.0168766
896.225	0.0166394
896.303	0.0165111
896.381	0.0163811
896.459	0.0165562
896.538	0.0164693
896.616	0.0166280
896.694	0.0165681
896.772	0.0164717
896.850	0.0164692
896.928	0.0163457
897.006	0.0162898
897.084	0.0163988
897.163	0.0165282
897.241	0.0165038
897.319	0.0165763
897.397	0.0165961
897.475	0.0165406
897.553	0.0167252
897.631	0.0166082
897.709	0.0165614
897.788	0.0166006
897.866	0.0165759
897.944	0.0167096
898.022	0.0166882
898.100	0.0167622
898.178	0.0167016
898.256	0.0168050
898.334	0.0167012
898.413	0.0167419
898.491	0.0168977
898.569	0.0169107
898.647	0.0169172
898.725	0.0170856
898.803	0.0170268
898.881	0.0170731
898.959	0.0170191
899.038	0.0170765
899.116	0.0171333
899.194	0.0171308
899.272	0.0169891
899.350	0.0170309
899.428	0.0169329
899.506	0.0167475
899.584	0.0166464
899.663	0.0165514
899.741	0.0165331
899.819	0.0165214
899.897	0.0164471
899.975	0.0162684
900.053	0.0162741
900.131	0.0162993
900.209	0.0162586
900.288	0.0162318
900.366	0.0162798
900.444	0.0162936
900.522	0.0164428
900.600	0.0163489
900.678	0.0164281
900.756	0.0166299
900.834	0.0166096
900.913	0.0164699
900.991	0.0167403
901.069	0.0167072
901.147	0.0167361
901.225	0.0167630
901.303	0.0166885
901.381	0.0168076
901.459	0.0167390
901.538	0.0168489
901.616	0.0168102
901.694	0.0168480
901.772	0.0167270
901.850	0.0166500
901.928	0.0166268
902.006	0.0168317
902.084	0.0168096
902.163	0.0166943
902.241	0.0166817
902.319	0.0167326
902.397	0.0167250
902.475	0.0166445
902.553	0.0168164
902.631	0.0168021
902.709	0.0167841
902.788	0.0167119
902.866	0.0168267
902.944	0.0167107
903.022	0.0167492
903.100	0.0168841
903.178	0.0167305
903.256	0.0167464
903.334	0.0166736
903.413	0.0167899
903.491	0.0167833
903.569	0.0167010
903.647	0.0166607
903.725	0.0167237
903.803	0.0167593
903.881	0.0168850
903.959	0.0165674
904.038	0.0166446
904.116	0.0165929
904.194	0.0165712
904.272	0.0167548
904.350	0.0167726
904.428	0.0166538
904.506	0.0166551
904.584	0.0166880
904.663	0.0166659
904.741	0.0166425
904.819	0.0166301
904.897	0.0165825
904.975	0.0166682
905.053	0.0166095
905.131	0.0165175
905.209	0.0167828
905.288	0.0166397
905.366	0.0166644
905.444	0.0166624
905.522	0.0166809
905.600	0.0166721
905.678	0.0166750
905.756	0.0166187
905.834	0.0167691
905.913	0.0167794
905.991	0.0168438
906.069	0.0167764
906.147	0.0166980
906.225	0.0168845
906.303	0.0166142
906.381	0.0166306
906.459	0.0167149
906.538	0.0167112
906.616	0.0167738
906.694	0.0167078
906.772	0.0168333
906.850	0.0168510
906.928	0.0166976
907.006	0.0167110
907.084	0.0167390
907.163	0.0165901
907.241	0.0168083
907.319	0.0167342
907.397	0.0167205
907.475	0.0168815
907.553	0.0168088
907.631	0.0168307
907.709	0.0167284
907.788	0.0167184
907.866	0.0167139
907.944	0.0168523
908.022	0.0170268
908.100	0.0168696
908.178	0.0168002
908.256	0.0168497
908.334	0.0168472
908.413	0.0168130
908.491	0.0167403
908.569	0.0166801
908.647	0.0166441
908.725	0.0167328
908.803	0.0166325
908.881	0.0165796
908.959	0.0164458
909.038	0.0164616
909.116	0.0164061
909.194	0.0163171
909.272	0.0161981
909.350	0.0163869
909.428	0.0164571
909.506	0.0164553
909.584	0.0162906
909.663	0.0163717
909.741	0.0164211
909.819	0.0165335
909.897	0.0166229
909.975	0.0164825
910.053	0.0166783
910.131	0.0167019
910.209	0.0168389
910.288	0.0167584
910.366	0.0168259
910.444	0.0168908
910.522	0.0169596
910.600	0.0169659
910.678	0.0170066
910.756	0.0170880
910.834	0.0171516
910.913	0.0170931
910.991	0.0169704
911.069	0.0170495
911.147	0.0168214
911.225	0.0168797
911.303	0.0167596
911.381	0.0167487
911.459	0.0167329
911.538	0.0167638
911.616	0.0166960
911.694	0.0166847
911.772	0.0166172
911.850	0.0166004
911.928	0.0166301
912.006	0.0165480
912.084	0.0166470
912.163	0.0166837
912.241	0.0166198
912.319	0.0165529
912.397	0.0165585
912.475	0.0166394
912.553	0.0165325
912.631	0.0166438
912.709	0.0165203
912.788	0.0166125
912.866	0.0164772
912.944	0.0167257
913.022	0.0165912
913.100	0.0164458
913.178	0.0166646
913.256	0.0165851
913.334	0.0167355
913.413	0.0166725
913.491	0.0167126
913.569	0.0166186
913.647	0.0167184
913.725	0.0167315
913.803	0.0167346
913.881	0.0166180
913.959	0.0167570
914.038	0.0168153
914.116	0.0166896
914.194	0.0166795
914.272	0.0168044
914.350	0.0168745
914.428	0.0167950
914.506	0.0166710
914.584	0.0166270
914.663	0.0168379
914.741	0.0168119
914.819	0.0166728
914.897	0.0166006
914.975	0.0166109
915.053	0.0166317
915.131	0.0166819
915.209	0.0166425
915.288	0.0166174
915.366	0.0167895
915.444	0.0166904
915.522	0.0166676
915.600	0.0168322
915.678	0.0167497
915.756	0.0167845
915.834	0.0168198
915.913	0.0167162
915.991	0.0167208
916.069	0.0168907
916.147	0.0168008
916.225	0.0168749
916.303	0.0168253
916.381	0.0168773
916.459	0.0169161
916.538	0.0167748
916.616	0.0168037
916.694	0.0167667
916.772	0.0168275
916.850	0.0166817
916.928	0.0165734
917.006	0.0166825
917.084	0.0165727
917.163	0.0164630
917.241	0.0164874
917.319	0.0166697
917.397	0.0165701
917.475	0.0167139
917.553	0.0166522
917.631	0.0165591
917.709	0.0166010
917.788	0.0165649
917.866	0.0166236
917.944	0.0166039
918.022	0.0167747
918.100	0.0166363
918.178	0.0166560
918.256	0.0166249
918.334	0.0166904
918.413	0.0166669
918.491	0.0168126
918.569	0.0167953
918.647	0.0169266
918.725	0.0168523
918.803	0.0167525
918.881	0.0169070
918.959	0.0168242
919.038	0.0168533
919.116	0.0169189
919.194	0.0169590
919.272	0.0169685
919.350	0.0168978
919.428	0.0167800
919.506	0.0167918
919.584	0.0167654
919.663	0.0168443
919.741	0.0166661
919.819	0.0167684
919.897	0.0167014
