06/01/2022	17:21:29	Ver.	4.1	UNKNOWN
Optical Delay	599.975067	Delta X		0.078125	Sweeps	1	Scan Rate	0/0
Coordinates	Axis 1	NaN	Axis 2	NaN	Axis 3	NaN	Axis 4	NaN	Axis 5	NaN	Axis 6	0.000000
TX Power	0.000000	RX Power	0.000000

599.975	0.0166393
600.053	0.0165856
600.131	0.0165740
600.209	0.0166759
600.288	0.0165961
600.366	0.0165991
600.444	0.0166567
600.522	0.0167562
600.600	0.0166936
600.678	0.0166367
600.756	0.0165031
600.834	0.0165865
600.913	0.0166065
600.991	0.0165761
601.069	0.0167070
601.147	0.0166748
601.225	0.0166136
601.303	0.0167221
601.381	0.0165091
601.459	0.0167132
601.538	0.0166740
601.616	0.0167499
601.694	0.0167110
601.772	0.0166060
601.850	0.0166840
601.928	0.0165172
602.006	0.0165446
602.084	0.0166844
602.163	0.0168900
602.241	0.0167342
602.319	0.0166628
602.397	0.0166319
602.475	0.0166270
602.553	0.0167238
602.631	0.0165955
602.709	0.0166548
602.788	0.0165858
602.866	0.0166097
602.944	0.0166273
603.022	0.0165293
603.100	0.0166521
603.178	0.0165831
603.256	0.0166127
603.334	0.0166151
603.413	0.0165399
603.491	0.0166352
603.569	0.0167157
603.647	0.0165157
603.725	0.0166168
603.803	0.0166070
603.881	0.0165115
603.959	0.0164656
604.038	0.0165948
604.116	0.0166415
604.194	0.0166022
604.272	0.0166037
604.350	0.0167592
604.428	0.0166759
604.506	0.0166472
604.584	0.0167340
604.663	0.0167209
604.741	0.0168050
604.819	0.0168011
604.897	0.0169764
604.975	0.0166637
605.053	0.0167113
605.131	0.0168890
605.209	0.0167362
605.288	0.0167307
605.366	0.0166700
605.444	0.0166822
605.522	0.0166880
605.600	0.0167091
605.678	0.0165746
605.756	0.0165852
605.834	0.0165343
605.913	0.0164979
605.991	0.0166116
606.069	0.0164938
606.147	0.0165701
606.225	0.0165629
606.303	0.0165706
606.381	0.0165659
606.459	0.0164802
606.538	0.0165750
606.616	0.0165955
606.694	0.0166148
606.772	0.0165965
606.850	0.0166517
606.928	0.0164640
607.006	0.0165131
607.084	0.0166647
607.163	0.0167509
607.241	0.0167945
607.319	0.0168822
607.397	0.0167120
607.475	0.0165697
607.553	0.0167030
607.631	0.0168624
607.709	0.0167994
607.788	0.0166448
607.866	0.0167431
607.944	0.0167763
608.022	0.0168195
608.100	0.0167023
608.178	0.0166692
608.256	0.0166734
608.334	0.0167402
608.413	0.0167930
608.491	0.0166231
608.569	0.0166732
608.647	0.0165515
608.725	0.0165924
608.803	0.0165685
608.881	0.0166947
608.959	0.0166772
609.038	0.0165709
609.116	0.0166219
609.194	0.0165694
609.272	0.0165418
609.350	0.0165608
609.428	0.0165609
609.506	0.0167105
609.584	0.0165804
609.663	0.0164265
609.741	0.0165763
609.819	0.0165853
609.897	0.0166442
609.975	0.0167100
610.053	0.0165541
610.131	0.0165268
610.209	0.0165132
610.288	0.0165194
610.366	0.0167005
610.444	0.0166301
610.522	0.0167176
610.600	0.0166254
610.678	0.0166837
610.756	0.0167125
610.834	0.0166386
610.913	0.0166400
610.991	0.0167147
611.069	0.0166628
611.147	0.0165439
611.225	0.0166836
611.303	0.0166404
611.381	0.0166882
611.459	0.0166561
611.538	0.0167394
611.616	0.0167419
611.694	0.0166741
611.772	0.0167229
611.850	0.0166256
611.928	0.0167141
612.006	0.0166606
612.084	0.0165832
612.163	0.0166189
612.241	0.0165749
612.319	0.0166564
612.397	0.0166175
612.475	0.0166444
612.553	0.0165189
612.631	0.0165031
612.709	0.0166961
612.788	0.0167220
612.866	0.0165379
612.944	0.0165472
613.022	0.0166217
613.100	0.0166586
613.178	0.0166342
613.256	0.0166091
613.334	0.0166357
613.413	0.0166898
613.491	0.0166909
613.569	0.0166631
613.647	0.0165187
613.725	0.0165808
613.803	0.0168191
613.881	0.0165978
613.959	0.0165549
614.038	0.0165647
614.116	0.0165926
614.194	0.0167265
614.272	0.0165989
614.350	0.0165723
614.428	0.0165532
614.506	0.0166700
614.584	0.0165909
614.663	0.0166970
614.741	0.0166956
614.819	0.0165572
614.897	0.0167149
614.975	0.0165485
615.053	0.0165833
615.131	0.0166166
615.209	0.0165766
615.288	0.0166479
615.366	0.0166840
615.444	0.0166174
615.522	0.0165578
615.600	0.0166898
615.678	0.0166555
615.756	0.0167339
615.834	0.0165878
615.913	0.0165943
615.991	0.0166556
616.069	0.0166172
616.147	0.0167270
616.225	0.0166918
616.303	0.0166466
616.381	0.0166292
616.459	0.0167335
616.538	0.0167355
616.616	0.0166965
616.694	0.0166106
616.772	0.0166455
616.850	0.0166124
616.928	0.0166325
617.006	0.0166012
617.084	0.0164845
617.163	0.0166315
617.241	0.0166878
617.319	0.0168095
617.397	0.0167094
617.475	0.0166916
617.553	0.0166789
617.631	0.0165832
617.709	0.0166682
617.788	0.0166520
617.866	0.0165845
617.944	0.0166049
618.022	0.0167128
618.100	0.0165841
618.178	0.0167725
618.256	0.0167091
618.334	0.0166663
618.413	0.0166610
618.491	0.0165794
618.569	0.0166079
618.647	0.0167229
618.725	0.0167450
618.803	0.0167313
618.881	0.0166851
618.959	0.0166314
619.038	0.0167483
619.116	0.0167406
619.194	0.0166068
619.272	0.0167391
619.350	0.0166032
619.428	0.0165906
619.506	0.0166356
619.584	0.0166414
619.663	0.0166053
619.741	0.0166919
619.819	0.0166280
619.897	0.0167307
619.975	0.0167665
620.053	0.0166734
620.131	0.0165717
620.209	0.0167471
620.288	0.0168143
620.366	0.0167036
620.444	0.0166736
620.522	0.0167416
620.600	0.0166345
620.678	0.0167197
620.756	0.0166809
620.834	0.0166776
620.913	0.0166786
620.991	0.0167169
621.069	0.0166444
621.147	0.0166301
621.225	0.0166781
621.303	0.0168063
621.381	0.0166844
621.459	0.0165414
621.538	0.0166840
621.616	0.0166850
621.694	0.0166152
621.772	0.0166301
621.850	0.0167185
621.928	0.0167068
622.006	0.0166444
622.084	0.0167375
622.163	0.0167848
622.241	0.0166908
622.319	0.0166845
622.397	0.0167014
622.475	0.0166898
622.553	0.0166870
622.631	0.0166769
622.709	0.0166366
622.788	0.0167063
622.866	0.0166145
622.944	0.0167406
623.022	0.0166180
623.100	0.0166637
623.178	0.0165697
623.256	0.0166283
623.334	0.0165897
623.413	0.0165907
623.491	0.0167154
623.569	0.0166197
623.647	0.0166668
623.725	0.0165932
623.803	0.0166779
623.881	0.0166515
623.959	0.0167184
624.038	0.0167987
624.116	0.0165569
624.194	0.0166045
624.272	0.0166801
624.350	0.0165783
624.428	0.0166656
624.506	0.0167336
624.584	0.0167078
624.663	0.0166402
624.741	0.0167570
624.819	0.0166589
624.897	0.0166274
624.975	0.0167290
625.053	0.0167501
625.131	0.0167418
625.209	0.0166843
625.288	0.0166865
625.366	0.0167257
625.444	0.0167445
625.522	0.0167799
625.600	0.0166163
625.678	0.0167983
625.756	0.0165731
625.834	0.0166191
625.913	0.0166589
625.991	0.0166222
626.069	0.0166911
626.147	0.0167066
626.225	0.0166653
626.303	0.0166186
626.381	0.0167489
626.459	0.0167691
626.538	0.0166978
626.616	0.0167039
626.694	0.0167872
626.772	0.0167511
626.850	0.0166196
626.928	0.0167246
627.006	0.0166608
627.084	0.0166289
627.163	0.0167326
627.241	0.0168479
627.319	0.0166755
627.397	0.0166054
627.475	0.0166418
627.553	0.0166840
627.631	0.0166122
627.709	0.0166465
627.788	0.0166471
627.866	0.0166737
627.944	0.0166985
628.022	0.0167131
628.100	0.0166637
628.178	0.0166563
628.256	0.0165897
628.334	0.0167179
628.413	0.0167002
628.491	0.0165752
628.569	0.0165753
628.647	0.0166122
628.725	0.0166029
628.803	0.0166908
628.881	0.0167443
628.959	0.0167418
629.038	0.0164926
629.116	0.0165939
629.194	0.0167867
629.272	0.0165584
629.350	0.0166792
629.428	0.0166147
629.506	0.0167843
629.584	0.0167068
629.663	0.0165746
629.741	0.0166618
629.819	0.0168288
629.897	0.0165511
629.975	0.0166546
630.053	0.0167513
630.131	0.0167606
630.209	0.0167939
630.288	0.0166737
630.366	0.0166699
630.444	0.0166362
630.522	0.0166062
630.600	0.0168091
630.678	0.0168067
630.756	0.0168195
630.834	0.0166906
630.913	0.0167211
630.991	0.0166900
631.069	0.0166070
631.147	0.0168299
631.225	0.0166986
631.303	0.0165775
631.381	0.0166692
631.459	0.0166786
631.538	0.0167323
631.616	0.0166398
631.694	0.0167166
631.772	0.0166083
631.850	0.0166183
631.928	0.0166700
632.006	0.0167573
632.084	0.0167866
632.163	0.0165963
632.241	0.0167090
632.319	0.0165623
632.397	0.0165547
632.475	0.0165633
632.553	0.0167150
632.631	0.0166055
632.709	0.0166698
632.788	0.0166518
632.866	0.0168305
632.944	0.0165747
633.022	0.0167208
633.100	0.0166082
633.178	0.0165563
633.256	0.0166527
633.334	0.0166631
633.413	0.0166641
633.491	0.0165955
633.569	0.0166432
633.647	0.0167494
633.725	0.0167996
633.803	0.0167386
633.881	0.0166743
633.959	0.0166814
634.038	0.0165336
634.116	0.0166657
634.194	0.0166578
634.272	0.0166283
634.350	0.0165046
634.428	0.0165542
634.506	0.0166882
634.584	0.0166911
634.663	0.0166557
634.741	0.0167327
634.819	0.0166866
634.897	0.0166473
634.975	0.0167325
635.053	0.0167485
635.131	0.0168566
635.209	0.0166940
635.288	0.0166226
635.366	0.0166693
635.444	0.0167193
635.522	0.0166156
635.600	0.0165828
635.678	0.0166828
635.756	0.0167619
635.834	0.0166615
635.913	0.0166358
635.991	0.0166681
636.069	0.0166367
636.147	0.0166378
636.225	0.0165860
636.303	0.0164738
636.381	0.0167361
636.459	0.0165843
636.538	0.0165094
636.616	0.0168347
636.694	0.0166409
636.772	0.0166612
636.850	0.0167686
636.928	0.0165426
637.006	0.0167841
637.084	0.0166490
637.163	0.0167480
637.241	0.0168301
637.319	0.0166915
637.397	0.0165875
637.475	0.0167605
637.553	0.0168301
637.631	0.0165525
637.709	0.0165868
637.788	0.0167670
637.866	0.0166287
637.944	0.0166110
638.022	0.0167528
638.100	0.0166945
638.178	0.0166660
638.256	0.0167522
638.334	0.0168195
638.413	0.0166486
638.491	0.0167493
638.569	0.0167728
638.647	0.0167226
638.725	0.0168582
638.803	0.0167749
638.881	0.0166700
638.959	0.0165859
639.038	0.0166701
639.116	0.0166967
639.194	0.0166572
639.272	0.0168316
639.350	0.0167247
639.428	0.0166438
639.506	0.0167159
639.584	0.0166799
639.663	0.0167637
639.741	0.0166774
639.819	0.0165959
639.897	0.0166962
639.975	0.0166255
640.053	0.0166923
640.131	0.0166178
640.209	0.0165741
640.288	0.0167120
640.366	0.0166904
640.444	0.0166816
640.522	0.0167016
640.600	0.0166216
640.678	0.0166893
640.756	0.0166679
640.834	0.0166438
640.913	0.0167461
640.991	0.0166495
641.069	0.0166832
641.147	0.0166452
641.225	0.0166429
641.303	0.0167179
641.381	0.0166384
641.459	0.0165834
641.538	0.0166923
641.616	0.0167442
641.694	0.0166556
641.772	0.0167313
641.850	0.0166740
641.928	0.0167814
642.006	0.0166431
642.084	0.0167043
642.163	0.0167365
642.241	0.0168024
642.319	0.0167585
642.397	0.0165694
642.475	0.0166634
642.553	0.0166952
642.631	0.0165292
642.709	0.0165316
642.788	0.0167226
642.866	0.0167574
642.944	0.0166995
643.022	0.0166764
643.100	0.0167808
643.178	0.0166164
643.256	0.0166821
643.334	0.0166568
643.413	0.0167700
643.491	0.0166403
643.569	0.0166929
643.647	0.0166982
643.725	0.0165593
643.803	0.0166352
643.881	0.0167628
643.959	0.0167155
644.038	0.0166848
644.116	0.0167255
644.194	0.0166148
644.272	0.0165499
644.350	0.0166953
644.428	0.0166642
644.506	0.0166788
644.584	0.0166444
644.663	0.0166176
644.741	0.0167080
644.819	0.0165214
644.897	0.0167253
644.975	0.0167843
645.053	0.0166086
645.131	0.0165888
645.209	0.0166452
645.288	0.0166501
645.366	0.0166931
645.444	0.0166399
645.522	0.0167477
645.600	0.0165947
645.678	0.0168124
645.756	0.0166717
645.834	0.0166589
645.913	0.0167191
645.991	0.0166156
646.069	0.0166196
646.147	0.0166720
646.225	0.0166969
646.303	0.0166694
646.381	0.0166225
646.459	0.0166051
646.538	0.0166517
646.616	0.0165023
646.694	0.0166461
646.772	0.0165759
646.850	0.0165742
646.928	0.0166848
647.006	0.0167699
647.084	0.0167171
647.163	0.0166380
647.241	0.0166908
647.319	0.0166486
647.397	0.0165333
647.475	0.0166673
647.553	0.0166963
647.631	0.0165592
647.709	0.0166274
647.788	0.0166283
647.866	0.0166556
647.944	0.0166502
648.022	0.0166386
648.100	0.0164722
648.178	0.0167326
648.256	0.0167166
648.334	0.0166915
648.413	0.0166101
648.491	0.0165427
648.569	0.0166179
648.647	0.0166544
648.725	0.0166702
648.803	0.0167465
648.881	0.0166532
648.959	0.0167393
649.038	0.0166682
649.116	0.0167458
649.194	0.0167665
649.272	0.0166691
649.350	0.0166832
649.428	0.0166915
649.506	0.0166489
649.584	0.0166578
649.663	0.0165688
649.741	0.0165823
649.819	0.0165439
649.897	0.0167053
649.975	0.0165908
650.053	0.0166311
650.131	0.0167970
650.209	0.0166347
650.288	0.0165954
650.366	0.0166270
650.444	0.0167609
650.522	0.0165953
650.600	0.0165662
650.678	0.0166855
650.756	0.0166795
650.834	0.0166457
650.913	0.0166274
650.991	0.0167046
651.069	0.0166422
651.147	0.0166147
651.225	0.0167063
651.303	0.0166616
651.381	0.0166071
651.459	0.0166376
651.538	0.0165403
651.616	0.0165506
651.694	0.0165818
651.772	0.0166255
651.850	0.0166514
651.928	0.0165649
652.006	0.0166865
652.084	0.0165711
652.163	0.0166996
652.241	0.0165694
652.319	0.0167176
652.397	0.0167950
652.475	0.0165542
652.553	0.0166634
652.631	0.0166334
652.709	0.0167165
652.788	0.0166872
652.866	0.0167249
652.944	0.0166077
653.022	0.0166771
653.100	0.0166979
653.178	0.0166432
653.256	0.0167670
653.334	0.0164994
653.413	0.0166309
653.491	0.0166673
653.569	0.0166846
653.647	0.0166246
653.725	0.0166439
653.803	0.0167350
653.881	0.0166622
653.959	0.0166231
654.038	0.0166261
654.116	0.0167001
654.194	0.0166013
654.272	0.0166515
654.350	0.0167249
654.428	0.0167736
654.506	0.0166965
654.584	0.0166984
654.663	0.0166722
654.741	0.0166029
654.819	0.0166837
654.897	0.0166898
654.975	0.0166567
655.053	0.0168134
655.131	0.0167176
655.209	0.0166875
655.288	0.0166827
655.366	0.0166402
655.444	0.0166433
655.522	0.0167123
655.600	0.0167925
655.678	0.0168143
655.756	0.0168030
655.834	0.0167022
655.913	0.0168094
655.991	0.0166532
656.069	0.0167403
656.147	0.0166843
656.225	0.0166040
656.303	0.0167363
656.381	0.0167737
656.459	0.0166626
656.538	0.0166863
656.616	0.0165839
656.694	0.0167430
656.772	0.0166282
656.850	0.0167037
656.928	0.0167368
657.006	0.0167702
657.084	0.0167164
657.163	0.0166502
657.241	0.0166752
657.319	0.0166960
657.397	0.0167200
657.475	0.0167112
657.553	0.0168373
657.631	0.0166744
657.709	0.0166014
657.788	0.0167091
657.866	0.0166835
657.944	0.0166427
658.022	0.0166773
658.100	0.0167437
658.178	0.0166389
658.256	0.0167416
658.334	0.0167236
658.413	0.0167191
658.491	0.0167500
658.569	0.0167570
658.647	0.0166571
658.725	0.0167961
658.803	0.0167066
658.881	0.0167841
658.959	0.0166689
659.038	0.0166711
659.116	0.0166599
659.194	0.0167846
659.272	0.0166504
659.350	0.0167426
659.428	0.0166573
659.506	0.0166471
659.584	0.0166570
659.663	0.0166988
659.741	0.0166898
659.819	0.0167909
659.897	0.0165771
659.975	0.0166593
660.053	0.0166518
660.131	0.0168069
660.209	0.0166276
660.288	0.0165215
660.366	0.0167506
660.444	0.0167406
660.522	0.0166719
660.600	0.0167429
660.678	0.0167090
660.756	0.0166927
660.834	0.0166042
660.913	0.0167517
660.991	0.0168063
661.069	0.0167329
661.147	0.0165964
661.225	0.0166935
661.303	0.0167477
661.381	0.0166208
661.459	0.0166908
661.538	0.0167300
661.616	0.0167743
661.694	0.0165968
661.772	0.0166652
661.850	0.0166836
661.928	0.0166826
662.006	0.0165677
662.084	0.0167123
662.163	0.0166624
662.241	0.0167552
662.319	0.0166143
662.397	0.0166337
662.475	0.0167447
662.553	0.0167313
662.631	0.0166614
662.709	0.0167239
662.788	0.0166996
662.866	0.0166639
662.944	0.0166989
663.022	0.0164957
663.100	0.0167373
663.178	0.0166868
663.256	0.0165395
663.334	0.0167035
663.413	0.0168231
663.491	0.0167358
663.569	0.0166341
663.647	0.0167068
663.725	0.0166256
663.803	0.0166656
663.881	0.0165864
663.959	0.0165871
664.038	0.0166080
664.116	0.0167920
664.194	0.0166872
664.272	0.0167617
664.350	0.0165974
664.428	0.0166377
664.506	0.0166100
664.584	0.0167130
664.663	0.0166422
664.741	0.0166609
664.819	0.0166959
664.897	0.0165447
664.975	0.0165985
665.053	0.0166961
665.131	0.0166999
665.209	0.0166094
665.288	0.0165582
665.366	0.0166989
665.444	0.0166145
665.522	0.0166353
665.600	0.0166551
665.678	0.0167067
665.756	0.0165463
665.834	0.0167973
665.913	0.0166476
665.991	0.0165517
666.069	0.0165281
666.147	0.0166319
666.225	0.0166790
666.303	0.0165839
666.381	0.0165332
666.459	0.0166086
666.538	0.0166395
666.616	0.0166544
666.694	0.0167049
666.772	0.0167012
666.850	0.0167882
666.928	0.0165574
667.006	0.0166699
667.084	0.0166646
667.163	0.0166509
667.241	0.0166664
667.319	0.0167311
667.397	0.0167030
667.475	0.0165904
667.553	0.0167039
667.631	0.0166856
667.709	0.0166912
667.788	0.0165222
667.866	0.0166466
667.944	0.0166185
668.022	0.0166393
668.100	0.0167178
668.178	0.0166943
668.256	0.0166109
668.334	0.0165791
668.413	0.0167310
668.491	0.0166496
668.569	0.0165939
668.647	0.0165915
668.725	0.0166790
668.803	0.0167614
668.881	0.0165318
668.959	0.0166697
669.038	0.0165776
669.116	0.0167221
669.194	0.0167938
669.272	0.0166409
669.350	0.0167144
669.428	0.0166235
669.506	0.0165736
669.584	0.0166233
669.663	0.0167186
669.741	0.0166161
669.819	0.0167549
669.897	0.0166912
669.975	0.0166473
670.053	0.0166138
670.131	0.0165343
670.209	0.0165796
670.288	0.0166669
670.366	0.0167138
670.444	0.0166039
670.522	0.0167125
670.600	0.0167906
670.678	0.0165268
670.756	0.0166227
670.834	0.0166756
670.913	0.0167347
670.991	0.0165994
671.069	0.0166011
671.147	0.0166108
671.225	0.0166223
671.303	0.0164917
671.381	0.0165956
671.459	0.0166908
671.538	0.0167207
671.616	0.0167896
671.694	0.0167119
671.772	0.0168038
671.850	0.0166194
671.928	0.0166306
672.006	0.0165833
672.084	0.0167722
672.163	0.0167361
672.241	0.0166821
672.319	0.0166712
672.397	0.0166408
672.475	0.0166621
672.553	0.0166995
672.631	0.0166652
672.709	0.0166953
672.788	0.0166995
672.866	0.0166040
672.944	0.0166318
673.022	0.0167262
673.100	0.0167087
673.178	0.0166154
673.256	0.0166357
673.334	0.0165691
673.413	0.0165212
673.491	0.0167611
673.569	0.0166120
673.647	0.0166800
673.725	0.0165878
673.803	0.0165158
673.881	0.0165068
673.959	0.0166328
674.038	0.0165925
674.116	0.0164775
674.194	0.0165260
674.272	0.0166585
674.350	0.0166541
674.428	0.0166570
674.506	0.0167633
674.584	0.0166408
674.663	0.0166157
674.741	0.0165862
674.819	0.0168446
674.897	0.0168509
674.975	0.0170099
675.053	0.0169292
675.131	0.0169894
675.209	0.0168736
675.288	0.0169466
675.366	0.0170112
675.444	0.0168318
675.522	0.0167773
675.600	0.0168926
675.678	0.0167020
675.756	0.0165396
675.834	0.0164701
675.913	0.0163126
675.991	0.0161838
676.069	0.0160667
676.147	0.0160738
676.225	0.0159205
676.303	0.0159868
676.381	0.0158398
676.459	0.0161644
676.538	0.0162368
676.616	0.0163950
676.694	0.0166144
676.772	0.0167645
676.850	0.0168839
676.928	0.0171964
677.006	0.0172569
677.084	0.0174599
677.163	0.0174264
677.241	0.0172802
677.319	0.0174167
677.397	0.0171297
677.475	0.0168320
677.553	0.0166795
677.631	0.0163885
677.709	0.0161604
677.788	0.0161666
677.866	0.0162678
677.944	0.0162770
678.022	0.0162987
678.100	0.0164012
678.178	0.0165808
678.256	0.0168201
678.334	0.0172135
678.413	0.0171301
678.491	0.0172586
678.569	0.0173508
678.647	0.0175158
678.725	0.0173814
678.803	0.0173099
678.881	0.0173417
678.959	0.0172919
679.038	0.0169570
679.116	0.0168745
679.194	0.0167744
679.272	0.0165208
679.350	0.0162868
679.428	0.0160960
679.506	0.0157075
679.584	0.0152322
679.663	0.0149093
679.741	0.0144189
679.819	0.0141366
679.897	0.0136056
679.975	0.0133018
680.053	0.0131744
680.131	0.0131340
680.209	0.0131509
680.288	0.0137777
680.366	0.0143387
680.444	0.0152496
680.522	0.0162574
680.600	0.0175072
680.678	0.0188332
680.756	0.0203301
680.834	0.0215789
680.913	0.0227453
680.991	0.0238542
681.069	0.0245049
681.147	0.0251263
681.225	0.0251002
681.303	0.0246410
681.381	0.0240893
681.459	0.0231863
681.538	0.0218033
681.616	0.0201093
681.694	0.0184452
681.772	0.0167623
681.850	0.0150782
681.928	0.0134449
682.006	0.0119207
682.084	0.0107438
682.163	0.00950409
682.241	0.00870750
682.319	0.00789383
682.397	0.00724106
682.475	0.00700562
682.553	0.00686409
682.631	0.00690193
682.709	0.00735802
682.788	0.00765442
682.866	0.00836433
682.944	0.00920982
683.022	0.0103440
683.100	0.0114997
683.178	0.0130181
683.256	0.0146873
683.334	0.0166364
683.413	0.0185720
683.491	0.0206319
683.569	0.0229266
683.647	0.0248785
683.725	0.0270917
683.803	0.0289866
683.881	0.0305584
683.959	0.0317906
684.038	0.0326537
684.116	0.0330994
684.194	0.0330229
684.272	0.0325761
684.350	0.0316445
684.428	0.0297974
684.506	0.0277045
684.584	0.0252600
684.663	0.0223463
684.741	0.0191850
684.819	0.0156110
684.897	0.0123189
684.975	0.00899277
685.053	0.00593567
685.131	0.00322510
685.209	0.00109787
685.288	-0.000614624
685.366	-0.00182060
685.444	-0.00244019
685.522	-0.00243874
685.600	-0.00209427
685.678	-0.00129143
685.756	-0.0000344849
685.834	0.00167130
685.913	0.00359703
685.991	0.00585175
686.069	0.00827377
686.147	0.0108138
686.225	0.0135312
686.303	0.0164102
686.381	0.0191579
686.459	0.0218983
686.538	0.0246819
686.616	0.0270562
686.694	0.0293063
686.772	0.0314426
686.850	0.0330312
686.928	0.0343811
687.006	0.0350570
687.084	0.0355473
687.163	0.0354308
687.241	0.0347664
687.319	0.0339182
687.397	0.0326028
687.475	0.0310021
687.553	0.0288139
687.631	0.0263982
687.709	0.0239040
687.788	0.0209599
687.866	0.0179395
687.944	0.0150077
688.022	0.0118883
688.100	0.00919426
688.178	0.00672882
688.256	0.00456543
688.334	0.00289680
688.413	0.00153755
688.491	0.000739059
688.569	0.000682526
688.647	0.000811615
688.725	0.00143570
688.803	0.00231018
688.881	0.00363731
688.959	0.00498276
689.038	0.00659920
689.116	0.00818970
689.194	0.00970428
689.272	0.0113650
689.350	0.0130293
689.428	0.0144341
689.506	0.0159096
689.584	0.0173319
689.663	0.0186400
689.741	0.0197596
689.819	0.0208483
689.897	0.0218848
689.975	0.0228021
690.053	0.0234856
690.131	0.0241448
690.209	0.0248282
690.288	0.0251351
690.366	0.0252847
690.444	0.0251744
690.522	0.0251357
690.600	0.0249860
690.678	0.0244875
690.756	0.0238965
690.834	0.0231244
690.913	0.0222491
690.991	0.0213239
691.069	0.0202550
691.147	0.0192171
691.225	0.0181705
691.303	0.0171306
691.381	0.0163901
691.459	0.0156831
691.538	0.0150797
691.616	0.0145409
691.694	0.0142166
691.772	0.0139576
691.850	0.0139428
691.928	0.0140064
692.006	0.0139399
692.084	0.0140242
692.163	0.0139185
692.241	0.0140076
692.319	0.0140611
692.397	0.0141483
692.475	0.0143533
692.553	0.0144936
692.631	0.0146373
692.709	0.0148093
692.788	0.0150713
692.866	0.0152773
692.944	0.0152831
693.022	0.0154597
693.100	0.0156341
693.178	0.0155150
693.256	0.0156516
693.334	0.0155150
693.413	0.0151597
693.491	0.0151095
693.569	0.0150010
693.647	0.0148620
693.725	0.0146740
693.803	0.0144422
693.881	0.0144137
693.959	0.0145099
694.038	0.0144170
694.116	0.0147094
694.194	0.0147578
694.272	0.0149976
694.350	0.0152026
694.428	0.0153591
694.506	0.0156649
694.584	0.0159602
694.663	0.0161833
694.741	0.0167084
694.819	0.0171627
694.897	0.0175053
694.975	0.0181818
695.053	0.0185724
695.131	0.0190681
695.209	0.0195580
695.288	0.0198487
695.366	0.0202317
695.444	0.0206761
695.522	0.0208326
695.600	0.0209000
695.678	0.0210381
695.756	0.0210013
695.834	0.0209212
695.913	0.0207551
695.991	0.0206303
696.069	0.0201601
696.147	0.0197975
696.225	0.0193828
696.303	0.0190009
696.381	0.0186237
696.459	0.0180863
696.538	0.0177428
696.616	0.0173784
696.694	0.0168115
696.772	0.0165605
696.850	0.0160528
696.928	0.0157816
697.006	0.0153971
697.084	0.0152332
697.163	0.0151453
697.241	0.0147674
697.319	0.0147480
697.397	0.0144335
697.475	0.0144241
697.553	0.0144092
697.631	0.0143334
697.709	0.0141830
697.788	0.0139520
697.866	0.0139748
697.944	0.0139613
698.022	0.0138483
698.100	0.0137941
698.178	0.0137889
698.256	0.0138526
698.334	0.0138330
698.413	0.0140594
698.491	0.0141381
698.569	0.0139799
698.647	0.0141858
698.725	0.0143356
698.803	0.0142392
698.881	0.0143243
698.959	0.0145148
699.038	0.0146127
699.116	0.0145543
699.194	0.0148381
699.272	0.0152518
699.350	0.0154484
699.428	0.0158366
699.506	0.0162776
699.584	0.0166079
699.663	0.0171692
699.741	0.0177103
699.819	0.0180437
699.897	0.0185391
699.975	0.0188652
700.053	0.0190759
700.131	0.0195229
700.209	0.0195847
700.288	0.0198241
700.366	0.0199745
700.444	0.0198695
700.522	0.0200504
700.600	0.0199667
700.678	0.0199367
700.756	0.0199478
700.834	0.0199243
700.913	0.0199030
700.991	0.0197462
701.069	0.0197058
701.147	0.0196218
701.225	0.0195899
701.303	0.0195103
701.381	0.0194273
701.459	0.0192812
701.538	0.0193127
701.616	0.0189524
701.694	0.0186289
701.772	0.0182876
701.850	0.0177441
701.928	0.0174376
702.006	0.0169598
702.084	0.0163052
702.163	0.0158115
702.241	0.0152786
702.319	0.0147477
702.397	0.0144659
702.475	0.0138647
702.553	0.0133716
702.631	0.0131783
702.709	0.0129421
702.788	0.0128886
702.866	0.0127154
702.944	0.0123650
703.022	0.0124033
703.100	0.0125060
703.178	0.0124453
703.256	0.0124778
703.334	0.0124873
703.413	0.0128777
703.491	0.0130225
703.569	0.0133978
703.647	0.0137791
703.725	0.0139799
703.803	0.0145979
703.881	0.0151170
703.959	0.0155280
704.038	0.0162656
704.116	0.0168111
704.194	0.0172349
704.272	0.0177920
704.350	0.0181866
704.428	0.0184536
704.506	0.0187473
704.584	0.0188622
704.663	0.0188435
704.741	0.0188008
704.819	0.0188185
704.897	0.0185992
704.975	0.0181193
705.053	0.0180589
705.131	0.0176696
705.209	0.0171909
705.288	0.0170216
705.366	0.0167516
705.444	0.0166048
705.522	0.0165841
705.600	0.0164363
705.678	0.0166747
705.756	0.0168858
705.834	0.0170361
705.913	0.0171431
705.991	0.0174935
706.069	0.0179474
706.147	0.0181361
706.225	0.0185234
706.303	0.0189751
706.381	0.0190908
706.459	0.0194401
706.538	0.0197404
706.616	0.0197811
706.694	0.0199402
706.772	0.0199986
706.850	0.0198791
706.928	0.0199155
707.006	0.0196837
707.084	0.0192352
707.163	0.0188361
707.241	0.0183825
707.319	0.0178220
707.397	0.0171883
707.475	0.0166655
707.553	0.0159656
707.631	0.0152367
707.709	0.0147800
707.788	0.0146766
707.866	0.0141992
707.944	0.0139094
708.022	0.0137756
708.100	0.0137414
708.178	0.0137541
708.256	0.0139190
708.334	0.0140022
708.413	0.0139577
708.491	0.0142344
708.569	0.0142977
708.647	0.0144343
708.725	0.0145956
708.803	0.0146858
708.881	0.0147504
708.959	0.0148708
709.038	0.0148672
709.116	0.0150372
709.194	0.0152172
709.272	0.0153817
709.350	0.0156196
709.428	0.0159249
709.506	0.0161816
709.584	0.0164381
709.663	0.0164268
709.741	0.0166650
709.819	0.0168338
709.897	0.0169251
709.975	0.0169975
710.053	0.0171008
710.131	0.0170740
710.209	0.0170767
710.288	0.0172595
710.366	0.0171810
710.444	0.0173450
710.522	0.0173750
710.600	0.0172518
710.678	0.0172656
710.756	0.0172514
710.834	0.0173611
710.913	0.0172816
710.991	0.0173848
711.069	0.0174216
711.147	0.0175958
711.225	0.0176749
711.303	0.0179422
711.381	0.0178410
711.459	0.0178904
711.538	0.0180128
711.616	0.0182719
711.694	0.0183069
711.772	0.0184278
711.850	0.0184827
711.928	0.0186083
712.006	0.0186678
712.084	0.0186939
712.163	0.0187887
712.241	0.0186692
712.319	0.0185905
712.397	0.0184362
712.475	0.0181193
712.553	0.0179510
712.631	0.0177689
712.709	0.0172630
712.788	0.0169688
712.866	0.0165849
712.944	0.0163815
713.022	0.0160174
713.100	0.0157787
713.178	0.0157522
713.256	0.0155331
713.334	0.0155889
713.413	0.0155183
713.491	0.0155642
713.569	0.0154739
713.647	0.0156357
713.725	0.0158239
713.803	0.0158089
713.881	0.0161044
713.959	0.0160709
714.038	0.0160895
714.116	0.0159374
714.194	0.0159072
714.272	0.0156898
714.350	0.0156832
714.428	0.0155816
714.506	0.0155961
714.584	0.0153414
714.663	0.0152740
714.741	0.0151313
714.819	0.0150813
714.897	0.0151727
714.975	0.0151453
715.053	0.0151100
715.131	0.0152872
715.209	0.0152419
715.288	0.0154646
715.366	0.0158482
715.444	0.0158038
715.522	0.0160273
715.600	0.0163093
715.678	0.0164301
715.756	0.0165570
715.834	0.0168301
715.913	0.0168949
715.991	0.0170334
716.069	0.0171424
716.147	0.0171258
716.225	0.0171857
716.303	0.0171617
716.381	0.0170659
716.459	0.0169953
716.538	0.0169642
716.616	0.0169775
716.694	0.0168153
716.772	0.0169070
716.850	0.0168460
716.928	0.0169238
717.006	0.0170947
717.084	0.0172186
717.163	0.0173521
717.241	0.0175658
717.319	0.0178481
717.397	0.0179086
717.475	0.0182293
717.553	0.0183781
717.631	0.0184193
717.709	0.0185780
717.788	0.0185436
717.866	0.0184995
717.944	0.0184556
718.022	0.0183186
718.100	0.0182319
718.178	0.0181470
718.256	0.0178317
718.334	0.0176411
718.413	0.0174532
718.491	0.0171990
718.569	0.0169864
718.647	0.0167928
718.725	0.0166666
718.803	0.0165246
718.881	0.0162113
718.959	0.0164427
719.038	0.0162340
719.116	0.0160790
719.194	0.0161362
719.272	0.0161217
719.350	0.0161980
719.428	0.0161829
719.506	0.0160069
719.584	0.0162166
719.663	0.0161844
719.741	0.0159980
719.819	0.0161979
719.897	0.0159865
719.975	0.0160205
720.053	0.0160816
720.131	0.0158464
720.209	0.0158152
720.288	0.0156358
720.366	0.0156757
720.444	0.0157427
720.522	0.0154301
720.600	0.0154539
720.678	0.0155644
720.756	0.0154733
720.834	0.0156264
720.913	0.0155737
720.991	0.0155715
721.069	0.0153455
721.147	0.0154429
721.225	0.0156330
721.303	0.0155226
721.381	0.0156319
721.459	0.0158407
721.538	0.0159210
721.616	0.0160636
721.694	0.0162707
721.772	0.0164055
721.850	0.0164738
721.928	0.0168641
722.006	0.0169019
722.084	0.0172220
722.163	0.0174295
722.241	0.0175562
722.319	0.0177629
722.397	0.0178259
722.475	0.0178843
722.553	0.0180688
722.631	0.0181263
722.709	0.0180885
722.788	0.0180438
722.866	0.0179669
722.944	0.0178876
723.022	0.0177708
723.100	0.0175752
723.178	0.0174971
723.256	0.0173272
723.334	0.0170486
723.413	0.0169456
723.491	0.0168514
723.569	0.0165709
723.647	0.0165578
723.725	0.0166225
723.803	0.0164639
723.881	0.0163734
723.959	0.0164141
724.038	0.0164180
724.116	0.0165800
724.194	0.0164359
724.272	0.0164450
724.350	0.0164779
724.428	0.0165419
724.506	0.0165709
724.584	0.0165445
724.663	0.0165761
724.741	0.0165810
724.819	0.0166678
724.897	0.0166916
724.975	0.0166272
725.053	0.0167281
725.131	0.0166982
725.209	0.0168620
725.288	0.0170007
725.366	0.0169218
725.444	0.0169485
725.522	0.0170341
725.600	0.0171322
725.678	0.0172228
725.756	0.0173608
725.834	0.0173138
725.913	0.0173006
725.991	0.0174130
726.069	0.0171561
726.147	0.0172830
726.225	0.0173057
726.303	0.0170773
726.381	0.0170058
726.459	0.0168245
726.538	0.0165332
726.616	0.0164368
726.694	0.0162140
726.772	0.0159996
726.850	0.0157648
726.928	0.0156254
727.006	0.0154795
727.084	0.0154623
727.163	0.0152861
727.241	0.0151920
727.319	0.0151278
727.397	0.0154254
727.475	0.0152943
727.553	0.0153749
727.631	0.0153919
727.709	0.0156148
727.788	0.0156702
727.866	0.0157896
727.944	0.0159986
728.022	0.0162360
728.100	0.0162103
728.178	0.0163058
728.256	0.0164101
728.334	0.0164845
728.413	0.0165866
728.491	0.0166489
728.569	0.0167052
728.647	0.0166250
728.725	0.0168852
728.803	0.0167751
728.881	0.0168978
728.959	0.0168881
729.038	0.0168708
729.116	0.0169341
729.194	0.0168102
729.272	0.0168124
729.350	0.0170622
729.428	0.0169335
729.506	0.0168360
729.584	0.0168846
729.663	0.0169200
729.741	0.0169351
729.819	0.0170353
729.897	0.0170428
729.975	0.0170851
730.053	0.0170385
730.131	0.0171171
730.209	0.0174734
730.288	0.0172465
730.366	0.0172337
730.444	0.0173724
730.522	0.0173917
730.600	0.0173281
730.678	0.0173806
730.756	0.0172572
730.834	0.0175140
730.913	0.0174061
730.991	0.0173504
731.069	0.0174055
731.147	0.0174704
731.225	0.0173970
731.303	0.0172119
731.381	0.0170006
731.459	0.0170407
731.538	0.0172063
731.616	0.0170538
731.694	0.0169196
731.772	0.0167595
731.850	0.0166896
731.928	0.0167758
732.006	0.0166640
732.084	0.0165999
732.163	0.0166586
732.241	0.0165218
732.319	0.0164928
732.397	0.0165550
732.475	0.0164477
732.553	0.0163255
732.631	0.0162983
732.709	0.0163289
732.788	0.0163262
732.866	0.0160809
732.944	0.0160971
733.022	0.0160898
733.100	0.0160764
733.178	0.0159502
733.256	0.0159105
733.334	0.0158129
733.413	0.0157964
733.491	0.0159487
733.569	0.0158195
733.647	0.0157390
733.725	0.0159605
733.803	0.0159897
733.881	0.0162334
733.959	0.0160353
734.038	0.0159485
734.116	0.0161176
734.194	0.0163185
734.272	0.0162919
734.350	0.0164158
734.428	0.0164378
734.506	0.0164742
734.584	0.0165692
734.663	0.0165180
734.741	0.0165226
734.819	0.0164373
734.897	0.0165350
734.975	0.0165076
735.053	0.0166174
735.131	0.0166164
735.209	0.0165813
735.288	0.0164973
735.366	0.0164650
735.444	0.0166592
735.522	0.0167349
735.600	0.0168520
735.678	0.0169071
735.756	0.0169312
735.834	0.0169592
735.913	0.0171310
735.991	0.0172850
736.069	0.0173164
736.147	0.0174505
736.225	0.0174469
736.303	0.0176864
736.381	0.0175677
736.459	0.0176215
736.538	0.0176430
736.616	0.0176044
736.694	0.0176316
736.772	0.0175571
736.850	0.0174639
736.928	0.0172733
737.006	0.0174386
737.084	0.0171778
737.163	0.0170538
737.241	0.0170057
737.319	0.0167677
737.397	0.0167284
737.475	0.0166450
737.553	0.0164274
737.631	0.0163436
737.709	0.0163536
737.788	0.0161972
737.866	0.0163148
737.944	0.0162363
738.022	0.0162285
738.100	0.0162682
738.178	0.0162537
738.256	0.0163373
738.334	0.0164166
738.413	0.0164009
738.491	0.0166808
738.569	0.0166223
738.647	0.0166488
738.725	0.0167616
738.803	0.0166553
738.881	0.0168730
738.959	0.0169498
739.038	0.0167799
739.116	0.0168021
739.194	0.0169030
739.272	0.0169213
739.350	0.0169282
739.428	0.0168707
739.506	0.0166594
739.584	0.0167084
739.663	0.0167118
739.741	0.0167862
739.819	0.0167357
739.897	0.0165910
739.975	0.0165950
740.053	0.0166542
740.131	0.0165473
740.209	0.0165801
740.288	0.0165211
740.366	0.0164855
740.444	0.0164418
740.522	0.0164646
740.600	0.0164908
740.678	0.0163396
740.756	0.0163211
740.834	0.0164329
740.913	0.0163039
740.991	0.0161783
741.069	0.0160547
741.147	0.0160905
741.225	0.0163345
741.303	0.0162673
741.381	0.0162955
741.459	0.0162468
741.538	0.0163123
741.616	0.0163168
741.694	0.0164857
741.772	0.0164434
741.850	0.0164788
741.928	0.0163662
742.006	0.0164879
742.084	0.0164373
742.163	0.0164680
742.241	0.0165250
742.319	0.0166250
742.397	0.0166064
742.475	0.0167256
742.553	0.0167843
742.631	0.0167159
742.709	0.0166621
742.788	0.0168269
742.866	0.0169682
742.944	0.0169598
743.022	0.0170876
743.100	0.0170332
743.178	0.0171246
743.256	0.0171080
743.334	0.0168858
743.413	0.0169688
743.491	0.0170522
743.569	0.0169718
743.647	0.0168607
743.725	0.0169681
743.803	0.0167864
743.881	0.0168348
743.959	0.0168451
744.038	0.0167099
744.116	0.0167193
744.194	0.0167815
744.272	0.0167521
744.350	0.0167973
744.428	0.0167957
744.506	0.0168247
744.584	0.0169518
744.663	0.0169347
744.741	0.0169290
744.819	0.0170064
744.897	0.0169883
744.975	0.0170400
745.053	0.0169452
745.131	0.0169876
745.209	0.0170152
745.288	0.0170744
745.366	0.0171132
745.444	0.0169813
745.522	0.0171563
745.600	0.0171202
745.678	0.0170320
745.756	0.0170607
745.834	0.0170924
745.913	0.0169606
745.991	0.0169770
746.069	0.0169167
746.147	0.0167739
746.225	0.0168748
746.303	0.0166794
746.381	0.0165189
746.459	0.0165245
746.538	0.0165179
746.616	0.0163918
746.694	0.0162485
746.772	0.0163497
746.850	0.0162103
746.928	0.0161121
747.006	0.0161478
747.084	0.0161953
747.163	0.0161179
747.241	0.0161709
747.319	0.0161974
747.397	0.0161864
747.475	0.0161662
747.553	0.0162522
747.631	0.0162543
747.709	0.0163340
747.788	0.0163691
747.866	0.0164515
747.944	0.0164637
748.022	0.0165182
748.100	0.0164975
748.178	0.0164288
748.256	0.0164118
748.334	0.0165239
748.413	0.0165240
748.491	0.0162923
748.569	0.0165381
748.647	0.0163522
748.725	0.0162791
748.803	0.0163496
748.881	0.0165021
748.959	0.0164517
749.038	0.0165298
749.116	0.0164471
749.194	0.0166142
749.272	0.0167008
749.350	0.0168533
749.428	0.0168369
749.506	0.0168975
749.584	0.0169341
749.663	0.0170154
749.741	0.0169297
749.819	0.0170200
749.897	0.0171282
749.975	0.0170014
750.053	0.0170514
750.131	0.0170462
750.209	0.0169975
750.288	0.0170136
750.366	0.0169577
750.444	0.0170556
750.522	0.0170643
750.600	0.0170224
750.678	0.0169446
750.756	0.0170457
750.834	0.0170610
750.913	0.0169730
750.991	0.0170679
751.069	0.0170807
751.147	0.0169676
751.225	0.0170459
751.303	0.0171789
751.381	0.0170074
751.459	0.0169436
751.538	0.0169472
751.616	0.0168806
751.694	0.0170495
751.772	0.0168876
751.850	0.0168369
751.928	0.0168462
752.006	0.0167669
752.084	0.0167871
752.163	0.0167103
752.241	0.0166277
752.319	0.0164921
752.397	0.0165530
752.475	0.0165142
752.553	0.0164684
752.631	0.0163298
752.709	0.0164868
752.788	0.0163770
752.866	0.0164176
752.944	0.0163957
753.022	0.0164214
753.100	0.0165501
753.178	0.0164951
753.256	0.0164411
753.334	0.0164787
753.413	0.0165746
753.491	0.0167634
753.569	0.0166039
753.647	0.0168243
753.725	0.0169097
753.803	0.0167195
753.881	0.0167934
753.959	0.0170307
754.038	0.0169843
754.116	0.0169936
754.194	0.0170473
754.272	0.0171798
754.350	0.0170081
754.428	0.0169706
754.506	0.0171177
754.584	0.0170727
754.663	0.0169268
754.741	0.0168335
754.819	0.0167696
754.897	0.0166607
754.975	0.0166176
755.053	0.0165903
755.131	0.0163430
755.209	0.0162634
755.288	0.0162824
755.366	0.0161128
755.444	0.0159745
755.522	0.0160360
755.600	0.0159371
755.678	0.0159177
755.756	0.0160728
755.834	0.0161173
755.913	0.0159843
755.991	0.0160323
756.069	0.0161986
756.147	0.0162379
756.225	0.0164464
756.303	0.0164966
756.381	0.0164282
756.459	0.0164960
756.538	0.0165138
756.616	0.0166687
756.694	0.0168230
756.772	0.0167832
756.850	0.0166445
756.928	0.0166882
757.006	0.0168019
757.084	0.0167348
757.163	0.0165451
757.241	0.0167994
757.319	0.0166054
757.397	0.0168906
757.475	0.0167490
757.553	0.0167057
757.631	0.0167748
757.709	0.0166337
757.788	0.0166207
757.866	0.0167697
757.944	0.0168375
758.022	0.0170325
758.100	0.0169608
758.178	0.0167676
758.256	0.0169268
758.334	0.0169177
758.413	0.0169766
758.491	0.0169769
758.569	0.0168536
758.647	0.0170368
758.725	0.0170699
758.803	0.0169601
758.881	0.0171150
758.959	0.0171146
759.038	0.0170454
759.116	0.0172115
759.194	0.0170438
759.272	0.0171405
759.350	0.0171963
759.428	0.0170210
759.506	0.0170413
759.584	0.0171344
759.663	0.0169834
759.741	0.0169504
759.819	0.0169626
759.897	0.0169841
759.975	0.0169865
760.053	0.0167801
760.131	0.0168038
760.209	0.0167117
760.288	0.0166961
760.366	0.0166606
760.444	0.0165318
760.522	0.0165196
760.600	0.0166090
760.678	0.0165144
760.756	0.0164619
760.834	0.0162196
760.913	0.0164119
760.991	0.0163786
761.069	0.0162759
761.147	0.0162949
761.225	0.0163338
761.303	0.0161883
761.381	0.0162003
761.459	0.0162666
761.538	0.0161826
761.616	0.0162291
761.694	0.0160423
761.772	0.0161072
761.850	0.0161795
761.928	0.0159512
762.006	0.0161497
762.084	0.0161082
762.163	0.0161830
762.241	0.0163229
762.319	0.0162174
762.397	0.0162268
762.475	0.0164312
762.553	0.0166869
762.631	0.0165399
762.709	0.0165923
762.788	0.0167022
762.866	0.0166139
762.944	0.0168167
763.022	0.0169172
763.100	0.0169216
763.178	0.0169264
763.256	0.0169805
763.334	0.0171018
763.413	0.0169692
763.491	0.0168745
763.569	0.0168552
763.647	0.0169167
763.725	0.0167661
763.803	0.0167489
763.881	0.0167121
763.959	0.0166914
764.038	0.0166016
764.116	0.0167062
764.194	0.0165167
764.272	0.0164885
764.350	0.0166959
764.428	0.0164397
764.506	0.0164594
764.584	0.0166272
764.663	0.0165649
764.741	0.0164515
764.819	0.0163924
764.897	0.0166193
764.975	0.0165345
765.053	0.0166007
765.131	0.0165638
765.209	0.0165963
765.288	0.0166788
765.366	0.0165337
765.444	0.0165971
765.522	0.0165500
765.600	0.0167710
765.678	0.0167255
765.756	0.0167017
765.834	0.0168308
765.913	0.0167964
765.991	0.0170039
766.069	0.0168171
766.147	0.0168846
766.225	0.0168237
766.303	0.0169255
766.381	0.0169937
766.459	0.0169704
766.538	0.0169876
766.616	0.0170379
766.694	0.0170885
766.772	0.0169134
766.850	0.0169607
766.928	0.0170081
767.006	0.0168701
767.084	0.0168998
767.163	0.0168066
767.241	0.0168571
767.319	0.0168167
767.397	0.0167868
767.475	0.0167542
767.553	0.0167650
767.631	0.0167755
767.709	0.0167899
767.788	0.0168515
767.866	0.0168308
767.944	0.0169010
768.022	0.0170472
768.100	0.0169801
768.178	0.0168231
768.256	0.0170337
768.334	0.0169230
768.413	0.0165893
768.491	0.0167136
768.569	0.0166178
768.647	0.0165811
768.725	0.0165426
768.803	0.0164381
768.881	0.0162720
768.959	0.0162951
769.038	0.0161222
769.116	0.0160518
769.194	0.0161076
769.272	0.0161510
769.350	0.0161573
769.428	0.0159988
769.506	0.0160732
769.584	0.0158730
769.663	0.0159692
769.741	0.0160310
769.819	0.0159182
769.897	0.0159615
769.975	0.0159381
770.053	0.0159349
770.131	0.0160480
770.209	0.0159792
770.288	0.0160671
770.366	0.0160011
770.444	0.0161477
770.522	0.0161670
770.600	0.0161623
770.678	0.0162749
770.756	0.0163741
770.834	0.0164924
770.913	0.0165229
770.991	0.0166166
771.069	0.0168213
771.147	0.0168793
771.225	0.0169572
771.303	0.0169306
771.381	0.0170074
771.459	0.0169946
771.538	0.0169160
771.616	0.0170367
771.694	0.0169360
771.772	0.0169759
771.850	0.0170080
771.928	0.0171288
772.006	0.0169402
772.084	0.0168908
772.163	0.0170410
772.241	0.0167692
772.319	0.0170224
772.397	0.0170558
772.475	0.0169004
772.553	0.0170843
772.631	0.0170097
772.709	0.0170190
772.788	0.0172015
772.866	0.0170266
772.944	0.0170483
773.022	0.0171191
773.100	0.0170837
773.178	0.0170168
773.256	0.0169343
773.334	0.0168263
773.413	0.0168428
773.491	0.0168232
773.569	0.0169077
773.647	0.0167731
773.725	0.0167508
773.803	0.0168834
773.881	0.0166037
773.959	0.0166756
774.038	0.0166975
774.116	0.0166636
774.194	0.0165959
774.272	0.0165629
774.350	0.0165649
774.428	0.0165758
774.506	0.0165881
774.584	0.0165479
774.663	0.0166286
774.741	0.0166708
774.819	0.0166825
774.897	0.0166026
774.975	0.0166348
775.053	0.0166522
775.131	0.0165410
775.209	0.0166808
775.288	0.0166837
775.366	0.0165076
775.444	0.0166041
775.522	0.0167319
775.600	0.0167208
775.678	0.0165461
775.756	0.0166777
775.834	0.0166756
775.913	0.0165960
775.991	0.0165812
776.069	0.0164494
776.147	0.0163512
776.225	0.0164732
776.303	0.0163616
776.381	0.0163115
776.459	0.0162185
776.538	0.0162439
776.616	0.0163044
776.694	0.0164368
776.772	0.0164563
776.850	0.0165763
776.928	0.0167271
777.006	0.0167238
777.084	0.0169488
777.163	0.0168621
777.241	0.0168951
777.319	0.0170936
777.397	0.0172227
777.475	0.0172398
777.553	0.0171620
777.631	0.0172389
777.709	0.0172530
777.788	0.0171017
777.866	0.0170395
777.944	0.0169070
778.022	0.0168025
778.100	0.0165842
778.178	0.0164699
778.256	0.0161765
778.334	0.0161681
778.413	0.0160324
778.491	0.0157323
778.569	0.0157049
778.647	0.0156223
778.725	0.0155122
778.803	0.0156011
778.881	0.0155216
778.959	0.0154253
779.038	0.0155838
779.116	0.0158628
779.194	0.0155399
779.272	0.0158385
779.350	0.0159631
779.428	0.0161788
779.506	0.0163835
779.584	0.0165689
779.663	0.0170156
779.741	0.0171076
779.819	0.0172874
779.897	0.0176494
779.975	0.0179562
780.053	0.0181665
780.131	0.0183117
780.209	0.0185706
780.288	0.0185271
780.366	0.0186384
780.444	0.0187728
780.522	0.0186362
780.600	0.0187723
780.678	0.0186712
780.756	0.0184111
780.834	0.0183472
780.913	0.0181379
780.991	0.0177136
781.069	0.0175064
781.147	0.0172004
781.225	0.0168408
781.303	0.0165591
781.381	0.0161572
781.459	0.0159512
781.538	0.0155775
781.616	0.0153762
781.694	0.0151196
781.772	0.0150836
781.850	0.0151298
781.928	0.0150244
782.006	0.0149406
782.084	0.0148621
782.163	0.0150027
782.241	0.0151707
782.319	0.0152506
782.397	0.0154781
782.475	0.0155990
782.553	0.0157211
782.631	0.0161034
782.709	0.0161794
782.788	0.0164949
782.866	0.0165762
782.944	0.0168827
783.022	0.0169862
783.100	0.0171393
783.178	0.0175050
783.256	0.0176177
783.334	0.0176212
783.413	0.0177125
783.491	0.0178579
783.569	0.0179278
783.647	0.0179505
783.725	0.0179214
783.803	0.0176713
783.881	0.0176295
783.959	0.0177264
784.038	0.0174104
784.116	0.0174094
784.194	0.0172856
784.272	0.0170495
784.350	0.0169186
784.428	0.0166757
784.506	0.0166492
784.584	0.0164562
784.663	0.0161185
784.741	0.0159090
784.819	0.0159013
784.897	0.0158308
784.975	0.0155537
785.053	0.0156590
785.131	0.0156101
785.209	0.0153996
785.288	0.0153671
785.366	0.0154903
785.444	0.0154295
785.522	0.0156552
785.600	0.0156297
785.678	0.0155414
785.756	0.0157767
785.834	0.0158012
785.913	0.0157690
785.991	0.0159531
786.069	0.0159583
786.147	0.0159973
786.225	0.0160799
786.303	0.0162772
786.381	0.0163924
786.459	0.0163888
786.538	0.0167181
786.616	0.0167625
786.694	0.0170116
786.772	0.0171873
786.850	0.0170653
786.928	0.0172379
787.006	0.0175784
787.084	0.0175292
787.163	0.0175197
787.241	0.0177402
787.319	0.0177298
787.397	0.0178716
787.475	0.0179381
787.553	0.0179613
787.631	0.0178069
787.709	0.0177269
787.788	0.0177151
787.866	0.0175593
787.944	0.0175787
788.022	0.0174969
788.100	0.0175182
788.178	0.0171858
788.256	0.0170605
788.334	0.0169476
788.413	0.0168172
788.491	0.0167235
788.569	0.0165542
788.647	0.0165205
788.725	0.0164590
788.803	0.0162350
788.881	0.0163097
788.959	0.0161149
789.038	0.0161339
789.116	0.0161553
789.194	0.0159546
789.272	0.0160299
789.350	0.0162266
789.428	0.0160925
789.506	0.0160562
789.584	0.0161898
789.663	0.0162063
789.741	0.0161832
789.819	0.0163585
789.897	0.0163726
789.975	0.0164750
790.053	0.0164642
790.131	0.0165405
790.209	0.0166204
790.288	0.0165796
790.366	0.0165924
790.444	0.0167337
790.522	0.0166422
790.600	0.0165832
790.678	0.0167518
790.756	0.0166898
790.834	0.0165211
790.913	0.0166488
790.991	0.0165304
791.069	0.0164146
791.147	0.0164347
791.225	0.0164043
791.303	0.0165704
791.381	0.0164313
791.459	0.0165023
791.538	0.0164183
791.616	0.0164700
791.694	0.0164563
791.772	0.0166347
791.850	0.0165385
791.928	0.0164938
792.006	0.0165318
792.084	0.0165014
792.163	0.0165651
792.241	0.0166709
792.319	0.0167310
792.397	0.0167120
792.475	0.0167839
792.553	0.0167084
792.631	0.0167138
792.709	0.0167209
792.788	0.0167377
792.866	0.0166442
792.944	0.0167183
793.022	0.0165990
793.100	0.0166000
793.178	0.0167765
793.256	0.0166501
793.334	0.0166028
793.413	0.0166119
793.491	0.0166764
793.569	0.0165350
793.647	0.0165571
793.725	0.0165922
793.803	0.0165501
793.881	0.0165328
793.959	0.0164469
794.038	0.0164565
794.116	0.0164636
794.194	0.0164323
794.272	0.0163291
794.350	0.0163651
794.428	0.0164309
794.506	0.0163766
794.584	0.0163734
794.663	0.0164281
794.741	0.0164008
794.819	0.0162237
794.897	0.0164195
794.975	0.0164435
795.053	0.0163925
795.131	0.0164729
795.209	0.0164920
795.288	0.0164724
795.366	0.0166659
795.444	0.0166152
795.522	0.0167033
795.600	0.0168613
795.678	0.0168179
795.756	0.0168071
795.834	0.0169613
795.913	0.0170336
795.991	0.0170689
796.069	0.0171363
796.147	0.0172107
796.225	0.0171410
796.303	0.0170057
796.381	0.0170498
796.459	0.0171819
796.538	0.0170930
796.616	0.0169608
796.694	0.0171293
796.772	0.0169897
796.850	0.0170245
796.928	0.0168410
797.006	0.0168966
797.084	0.0167941
797.163	0.0167306
797.241	0.0168461
797.319	0.0168197
797.397	0.0167728
797.475	0.0167187
797.553	0.0167384
797.631	0.0169093
797.709	0.0167107
797.788	0.0167747
797.866	0.0169527
797.944	0.0167742
798.022	0.0166599
798.100	0.0168705
798.178	0.0168067
798.256	0.0168546
798.334	0.0166425
798.413	0.0166888
798.491	0.0167052
798.569	0.0167369
798.647	0.0165576
798.725	0.0164314
798.803	0.0164011
798.881	0.0164051
798.959	0.0163309
799.038	0.0162161
799.116	0.0161637
799.194	0.0162070
799.272	0.0160963
799.350	0.0160141
799.428	0.0160430
799.506	0.0158470
799.584	0.0160563
799.663	0.0158889
799.741	0.0158521
799.819	0.0159041
799.897	0.0158016
799.975	0.0158327
800.053	0.0159476
800.131	0.0159685
800.209	0.0159715
800.288	0.0160605
800.366	0.0159132
800.444	0.0161481
800.522	0.0161833
800.600	0.0162409
800.678	0.0163529
800.756	0.0163850
800.834	0.0164145
800.913	0.0165266
800.991	0.0166920
801.069	0.0167055
801.147	0.0165700
801.225	0.0167842
801.303	0.0167823
801.381	0.0167638
801.459	0.0168404
801.538	0.0169608
801.616	0.0170779
801.694	0.0171091
801.772	0.0170792
801.850	0.0171151
801.928	0.0172235
802.006	0.0171446
802.084	0.0173347
802.163	0.0173170
802.241	0.0172554
802.319	0.0174542
802.397	0.0174876
802.475	0.0175280
802.553	0.0175386
802.631	0.0173727
802.709	0.0174306
802.788	0.0175740
802.866	0.0175173
802.944	0.0174715
803.022	0.0173016
803.100	0.0174382
803.178	0.0172898
803.256	0.0172321
803.334	0.0170988
803.413	0.0170836
803.491	0.0170293
803.569	0.0167719
803.647	0.0168393
803.725	0.0166956
803.803	0.0166660
803.881	0.0167691
803.959	0.0164266
804.038	0.0163416
804.116	0.0163046
804.194	0.0163327
804.272	0.0162225
804.350	0.0162843
804.428	0.0160506
804.506	0.0160915
804.584	0.0161169
804.663	0.0161037
804.741	0.0160917
804.819	0.0161664
804.897	0.0161121
804.975	0.0162609
805.053	0.0162492
805.131	0.0163039
805.209	0.0163456
805.288	0.0163453
805.366	0.0163731
805.444	0.0161939
805.522	0.0163291
805.600	0.0162923
805.678	0.0161996
805.756	0.0162418
805.834	0.0161700
805.913	0.0161972
805.991	0.0161805
806.069	0.0161060
806.147	0.0160798
806.225	0.0161832
806.303	0.0161587
806.381	0.0161545
806.459	0.0161275
806.538	0.0160646
806.616	0.0161489
806.694	0.0161596
806.772	0.0162585
806.850	0.0162607
806.928	0.0165086
807.006	0.0165448
807.084	0.0166391
807.163	0.0167288
807.241	0.0166402
807.319	0.0168317
807.397	0.0169865
807.475	0.0170388
807.553	0.0170493
807.631	0.0172356
807.709	0.0172451
807.788	0.0173980
807.866	0.0172273
807.944	0.0173735
808.022	0.0174358
808.100	0.0174409
808.178	0.0173590
808.256	0.0173880
808.334	0.0173543
808.413	0.0173205
808.491	0.0172420
808.569	0.0170299
808.647	0.0170361
808.725	0.0168639
808.803	0.0167480
808.881	0.0167729
808.959	0.0165505
809.038	0.0165527
809.116	0.0164260
809.194	0.0165762
809.272	0.0163597
809.350	0.0162975
809.428	0.0162168
809.506	0.0162126
809.584	0.0162962
809.663	0.0162862
809.741	0.0163258
809.819	0.0164687
809.897	0.0166309
809.975	0.0166505
810.053	0.0165997
810.131	0.0168543
810.209	0.0167345
810.288	0.0167104
810.366	0.0169494
810.444	0.0169302
810.522	0.0168977
810.600	0.0169558
810.678	0.0169696
810.756	0.0170380
810.834	0.0170734
810.913	0.0170337
810.991	0.0169816
811.069	0.0170135
811.147	0.0169229
811.225	0.0169008
811.303	0.0167975
811.381	0.0166953
811.459	0.0166616
811.538	0.0165351
811.616	0.0167432
811.694	0.0164765
811.772	0.0164439
811.850	0.0161972
811.928	0.0162271
812.006	0.0162123
812.084	0.0162949
812.163	0.0162116
812.241	0.0162122
812.319	0.0161707
812.397	0.0161376
812.475	0.0161974
812.553	0.0161169
812.631	0.0161592
812.709	0.0163067
812.788	0.0164528
812.866	0.0164883
812.944	0.0165994
813.022	0.0166431
813.100	0.0168829
813.178	0.0168613
813.256	0.0169012
813.334	0.0170340
813.413	0.0170427
813.491	0.0170613
813.569	0.0172448
813.647	0.0172380
813.725	0.0172184
813.803	0.0171587
813.881	0.0172808
813.959	0.0172923
814.038	0.0171982
814.116	0.0170778
814.194	0.0170408
814.272	0.0169608
814.350	0.0168199
814.428	0.0168311
814.506	0.0166901
814.584	0.0167633
814.663	0.0166139
814.741	0.0164735
814.819	0.0164023
814.897	0.0164302
814.975	0.0162174
815.053	0.0161337
815.131	0.0162349
815.209	0.0161275
815.288	0.0161197
815.366	0.0160707
815.444	0.0160413
815.522	0.0160865
815.600	0.0161792
815.678	0.0161124
815.756	0.0164633
815.834	0.0162504
815.913	0.0161446
815.991	0.0165098
816.069	0.0165827
816.147	0.0167466
816.225	0.0167598
816.303	0.0166647
816.381	0.0168789
816.459	0.0169919
816.538	0.0169791
816.616	0.0169688
816.694	0.0170068
816.772	0.0169006
816.850	0.0170804
816.928	0.0169588
817.006	0.0168922
817.084	0.0168760
817.163	0.0169012
817.241	0.0168166
817.319	0.0168152
817.397	0.0166779
817.475	0.0165979
817.553	0.0165475
817.631	0.0165328
817.709	0.0165604
817.788	0.0165119
817.866	0.0164812
817.944	0.0165216
818.022	0.0164528
818.100	0.0163641
818.178	0.0164664
818.256	0.0163155
818.334	0.0166010
818.413	0.0165485
818.491	0.0165540
818.569	0.0167407
818.647	0.0168361
818.725	0.0169327
818.803	0.0167284
818.881	0.0168863
818.959	0.0169086
819.038	0.0170347
819.116	0.0172343
819.194	0.0171428
819.272	0.0171876
819.350	0.0172688
819.428	0.0172272
819.506	0.0172117
819.584	0.0172983
819.663	0.0171575
819.741	0.0171846
819.819	0.0171439
819.897	0.0169708
819.975	0.0168878
820.053	0.0169576
820.131	0.0168785
820.209	0.0167390
820.288	0.0168320
820.366	0.0166749
820.444	0.0166085
820.522	0.0164828
820.600	0.0165654
820.678	0.0164880
820.756	0.0165323
820.834	0.0165195
820.913	0.0164667
820.991	0.0164030
821.069	0.0163068
821.147	0.0161917
821.225	0.0161695
821.303	0.0163729
821.381	0.0163258
821.459	0.0162901
821.538	0.0162990
821.616	0.0165316
821.694	0.0162859
821.772	0.0164859
821.850	0.0164723
821.928	0.0165773
822.006	0.0164215
822.084	0.0164443
822.163	0.0166085
822.241	0.0166203
822.319	0.0166188
822.397	0.0165421
822.475	0.0166855
822.553	0.0166402
822.631	0.0166149
822.709	0.0166539
822.788	0.0166553
822.866	0.0168042
822.944	0.0167558
823.022	0.0166477
823.100	0.0166188
823.178	0.0166851
823.256	0.0167281
823.334	0.0165692
823.413	0.0166370
823.491	0.0165991
823.569	0.0166605
823.647	0.0165894
823.725	0.0164200
823.803	0.0164825
823.881	0.0165511
823.959	0.0165018
824.038	0.0164193
824.116	0.0165736
824.194	0.0165778
824.272	0.0166460
824.350	0.0165740
824.428	0.0165582
824.506	0.0166528
824.584	0.0166666
824.663	0.0166322
824.741	0.0166402
824.819	0.0168679
824.897	0.0167614
824.975	0.0167850
825.053	0.0168733
825.131	0.0169336
825.209	0.0169256
825.288	0.0169510
825.366	0.0170994
825.444	0.0171442
825.522	0.0171014
825.600	0.0169781
825.678	0.0170956
825.756	0.0171225
825.834	0.0171253
825.913	0.0171342
825.991	0.0170794
826.069	0.0169543
826.147	0.0170535
826.225	0.0171828
826.303	0.0169608
826.381	0.0170351
826.459	0.0169726
826.538	0.0166846
826.616	0.0168299
826.694	0.0167624
826.772	0.0166289
826.850	0.0166671
826.928	0.0165597
827.006	0.0165286
827.084	0.0165023
827.163	0.0164981
827.241	0.0164133
827.319	0.0163110
827.397	0.0162991
827.475	0.0163091
827.553	0.0162054
827.631	0.0162115
827.709	0.0162722
827.788	0.0162352
827.866	0.0163336
827.944	0.0163271
828.022	0.0164027
828.100	0.0164543
828.178	0.0166599
828.256	0.0166763
828.334	0.0166682
828.413	0.0167561
828.491	0.0169462
828.569	0.0168376
828.647	0.0169017
828.725	0.0170416
828.803	0.0171025
828.881	0.0170647
828.959	0.0170405
829.038	0.0170182
829.116	0.0170672
829.194	0.0171297
829.272	0.0169795
829.350	0.0170054
829.428	0.0169374
829.506	0.0168175
829.584	0.0168662
829.663	0.0168372
829.741	0.0168349
829.819	0.0168499
829.897	0.0167404
829.975	0.0167184
830.053	0.0166342
830.131	0.0163980
830.209	0.0164883
830.288	0.0163711
830.366	0.0163472
830.444	0.0163833
830.522	0.0162966
830.600	0.0162304
830.678	0.0162549
830.756	0.0163676
830.834	0.0163189
830.913	0.0162760
830.991	0.0161942
831.069	0.0161879
831.147	0.0164158
831.225	0.0164053
831.303	0.0164190
831.381	0.0163391
831.459	0.0164154
831.538	0.0164400
831.616	0.0165091
831.694	0.0166179
831.772	0.0164439
831.850	0.0165150
831.928	0.0166088
832.006	0.0166146
832.084	0.0166728
832.163	0.0165912
832.241	0.0167334
832.319	0.0167413
832.397	0.0166100
832.475	0.0168522
832.553	0.0168488
832.631	0.0168856
832.709	0.0169756
832.788	0.0170377
832.866	0.0170214
832.944	0.0171592
833.022	0.0172077
833.100	0.0169937
833.178	0.0171160
833.256	0.0171709
833.334	0.0172003
833.413	0.0173780
833.491	0.0172335
833.569	0.0171972
833.647	0.0170730
833.725	0.0170539
833.803	0.0171611
833.881	0.0170711
833.959	0.0170424
834.038	0.0170269
834.116	0.0170289
834.194	0.0170128
834.272	0.0169788
834.350	0.0168072
834.428	0.0169302
834.506	0.0166862
834.584	0.0168261
834.663	0.0167676
834.741	0.0167362
834.819	0.0166313
834.897	0.0166318
834.975	0.0165807
835.053	0.0166377
835.131	0.0165343
835.209	0.0165404
835.288	0.0164909
835.366	0.0164558
835.444	0.0163798
835.522	0.0163508
835.600	0.0163892
835.678	0.0165362
835.756	0.0163135
835.834	0.0162499
835.913	0.0163337
835.991	0.0161417
836.069	0.0163203
836.147	0.0162832
836.225	0.0161933
836.303	0.0162637
836.381	0.0164730
836.459	0.0164641
836.538	0.0165035
836.616	0.0163219
836.694	0.0164497
836.772	0.0164058
836.850	0.0165708
836.928	0.0165032
837.006	0.0165067
837.084	0.0164816
837.163	0.0165871
837.241	0.0165311
837.319	0.0167591
837.397	0.0166152
837.475	0.0167498
837.553	0.0167389
837.631	0.0166236
837.709	0.0167176
837.788	0.0167054
837.866	0.0167176
837.944	0.0165987
838.022	0.0168222
838.100	0.0168300
838.178	0.0168163
838.256	0.0167405
838.334	0.0170045
838.413	0.0168228
838.491	0.0169109
838.569	0.0169389
838.647	0.0169303
838.725	0.0170000
838.803	0.0169285
838.881	0.0167176
838.959	0.0168491
839.038	0.0167922
839.116	0.0166888
839.194	0.0168597
839.272	0.0169179
839.350	0.0169508
839.428	0.0168929
839.506	0.0169397
839.584	0.0168092
839.663	0.0168929
839.741	0.0168026
839.819	0.0169041
839.897	0.0168082
839.975	0.0167163
840.053	0.0168588
840.131	0.0167775
840.209	0.0169304
840.288	0.0165799
840.366	0.0165897
840.444	0.0167901
840.522	0.0168493
840.600	0.0166966
840.678	0.0166409
840.756	0.0166141
840.834	0.0166442
840.913	0.0165974
840.991	0.0166612
841.069	0.0167995
841.147	0.0166329
841.225	0.0165153
841.303	0.0164831
841.381	0.0166313
841.459	0.0165920
841.538	0.0166540
841.616	0.0167237
841.694	0.0167284
841.772	0.0166911
841.850	0.0166660
841.928	0.0167227
842.006	0.0166289
842.084	0.0168295
842.163	0.0167604
842.241	0.0167853
842.319	0.0167117
842.397	0.0167285
842.475	0.0167017
842.553	0.0166880
842.631	0.0167512
842.709	0.0166267
842.788	0.0166600
842.866	0.0165566
842.944	0.0166535
843.022	0.0166931
843.100	0.0166560
843.178	0.0165938
843.256	0.0166451
843.334	0.0165802
843.413	0.0164447
843.491	0.0165866
843.569	0.0166038
843.647	0.0166150
843.725	0.0166209
843.803	0.0166234
843.881	0.0165024
843.959	0.0166961
844.038	0.0165009
844.116	0.0165653
844.194	0.0165043
844.272	0.0167017
844.350	0.0164491
844.428	0.0165958
844.506	0.0166026
844.584	0.0168390
844.663	0.0167549
844.741	0.0167508
844.819	0.0167677
844.897	0.0168363
844.975	0.0170428
845.053	0.0167827
845.131	0.0168476
845.209	0.0169242
845.288	0.0169778
845.366	0.0169238
845.444	0.0170113
845.522	0.0169533
845.600	0.0169884
845.678	0.0169238
845.756	0.0169484
845.834	0.0169435
845.913	0.0169760
845.991	0.0166488
846.069	0.0166833
846.147	0.0167135
846.225	0.0167868
846.303	0.0167384
846.381	0.0165818
846.459	0.0166245
846.538	0.0165035
846.616	0.0164754
846.694	0.0163809
846.772	0.0165712
846.850	0.0164613
846.928	0.0164284
847.006	0.0164880
847.084	0.0163396
847.163	0.0164423
847.241	0.0164405
847.319	0.0165999
847.397	0.0164235
847.475	0.0163513
847.553	0.0165267
847.631	0.0165990
847.709	0.0164439
847.788	0.0164980
847.866	0.0164563
847.944	0.0164433
848.022	0.0165540
848.100	0.0165427
848.178	0.0164804
848.256	0.0165829
848.334	0.0164838
848.413	0.0166469
848.491	0.0166920
848.569	0.0166885
848.647	0.0167478
848.725	0.0167931
848.803	0.0168563
848.881	0.0167742
848.959	0.0168537
849.038	0.0168058
849.116	0.0168685
849.194	0.0167822
849.272	0.0167540
849.350	0.0168714
849.428	0.0169104
849.506	0.0168468
849.584	0.0169330
849.663	0.0168472
849.741	0.0169952
849.819	0.0169579
849.897	0.0168810
849.975	0.0168164
850.053	0.0168237
850.131	0.0170641
850.209	0.0169537
850.288	0.0169788
850.366	0.0169078
850.444	0.0170361
850.522	0.0170666
850.600	0.0168126
850.678	0.0167753
850.756	0.0168862
850.834	0.0170258
850.913	0.0169533
850.991	0.0167012
851.069	0.0167380
851.147	0.0167410
851.225	0.0166314
851.303	0.0166700
851.381	0.0166729
851.459	0.0166007
851.538	0.0165504
851.616	0.0165777
851.694	0.0164301
851.772	0.0163520
851.850	0.0164112
851.928	0.0162993
852.006	0.0163309
852.084	0.0163968
852.163	0.0163979
852.241	0.0163075
852.319	0.0162689
852.397	0.0163097
852.475	0.0164594
852.553	0.0162287
852.631	0.0160503
852.709	0.0161858
852.788	0.0163450
852.866	0.0163793
852.944	0.0163339
853.022	0.0163670
853.100	0.0164569
853.178	0.0164951
853.256	0.0163619
853.334	0.0165412
853.413	0.0164951
853.491	0.0166233
853.569	0.0167410
853.647	0.0166438
853.725	0.0164835
853.803	0.0166320
853.881	0.0167007
853.959	0.0166621
854.038	0.0166948
854.116	0.0168040
854.194	0.0167274
854.272	0.0168631
854.350	0.0169547
854.428	0.0168359
854.506	0.0169120
854.584	0.0169177
854.663	0.0171198
854.741	0.0169312
854.819	0.0170228
854.897	0.0170175
854.975	0.0170212
855.053	0.0169320
855.131	0.0169552
855.209	0.0169670
855.288	0.0169674
855.366	0.0168062
855.444	0.0168375
855.522	0.0167512
855.600	0.0167726
855.678	0.0166911
855.756	0.0165889
855.834	0.0165958
855.913	0.0165797
855.991	0.0167558
856.069	0.0166848
856.147	0.0167367
856.225	0.0165818
856.303	0.0164872
856.381	0.0167378
856.459	0.0166974
856.538	0.0167013
856.616	0.0165953
856.694	0.0166399
856.772	0.0167972
856.850	0.0167506
856.928	0.0165870
857.006	0.0166403
857.084	0.0167235
857.163	0.0167361
857.241	0.0165668
857.319	0.0165707
857.397	0.0167207
857.475	0.0167479
857.553	0.0166771
857.631	0.0167783
857.709	0.0169225
857.788	0.0167574
857.866	0.0167229
857.944	0.0167670
858.022	0.0168452
858.100	0.0167629
858.178	0.0168232
858.256	0.0167516
858.334	0.0166863
858.413	0.0166818
858.491	0.0166829
858.569	0.0167482
858.647	0.0166834
858.725	0.0165643
858.803	0.0164897
858.881	0.0163831
858.959	0.0164417
859.038	0.0164695
859.116	0.0164401
859.194	0.0165208
859.272	0.0163274
859.350	0.0166059
859.428	0.0166093
859.506	0.0165176
859.584	0.0163673
859.663	0.0164352
859.741	0.0163956
859.819	0.0165480
859.897	0.0164803
859.975	0.0163506
860.053	0.0165114
860.131	0.0163979
860.209	0.0164281
860.288	0.0163855
860.366	0.0164896
860.444	0.0164606
860.522	0.0166021
860.600	0.0164633
860.678	0.0164553
860.756	0.0165085
860.834	0.0165579
860.913	0.0166427
860.991	0.0166300
861.069	0.0165716
861.147	0.0166555
861.225	0.0166641
861.303	0.0164651
861.381	0.0165691
861.459	0.0166951
861.538	0.0165067
861.616	0.0166479
861.694	0.0165910
861.772	0.0168608
861.850	0.0167891
861.928	0.0165668
862.006	0.0165527
862.084	0.0166558
862.163	0.0167153
862.241	0.0167345
862.319	0.0166978
862.397	0.0167606
862.475	0.0168540
862.553	0.0169451
862.631	0.0168527
862.709	0.0167683
862.788	0.0167854
862.866	0.0168828
862.944	0.0169908
863.022	0.0169512
863.100	0.0168974
863.178	0.0170864
863.256	0.0168015
863.334	0.0169503
863.413	0.0169448
863.491	0.0168604
863.569	0.0168992
863.647	0.0167847
863.725	0.0167422
863.803	0.0170051
863.881	0.0168433
863.959	0.0167307
864.038	0.0167779
864.116	0.0167912
864.194	0.0165968
864.272	0.0167926
864.350	0.0165109
864.428	0.0166151
864.506	0.0166577
864.584	0.0165236
864.663	0.0165283
864.741	0.0164642
864.819	0.0163715
864.897	0.0164994
864.975	0.0163480
865.053	0.0163179
865.131	0.0163486
865.209	0.0163065
865.288	0.0163992
865.366	0.0163889
865.444	0.0162636
865.522	0.0163660
865.600	0.0164537
865.678	0.0165308
865.756	0.0164823
865.834	0.0164322
865.913	0.0164629
865.991	0.0166178
866.069	0.0165572
866.147	0.0165942
866.225	0.0166281
866.303	0.0167743
866.381	0.0168635
866.459	0.0167596
866.538	0.0168288
866.616	0.0169202
866.694	0.0168891
866.772	0.0168835
866.850	0.0168256
866.928	0.0169862
867.006	0.0168875
867.084	0.0169247
867.163	0.0168292
867.241	0.0166623
867.319	0.0167750
867.397	0.0167910
867.475	0.0167010
867.553	0.0166315
867.631	0.0166604
867.709	0.0166688
867.788	0.0164935
867.866	0.0163998
867.944	0.0165469
868.022	0.0165427
868.100	0.0165092
868.178	0.0164382
868.256	0.0163828
868.334	0.0165230
868.413	0.0165976
868.491	0.0165385
868.569	0.0167103
868.647	0.0165958
868.725	0.0167583
868.803	0.0167758
868.881	0.0168345
868.959	0.0165334
869.038	0.0165829
869.116	0.0167468
869.194	0.0166442
869.272	0.0166553
869.350	0.0166110
869.428	0.0165291
869.506	0.0166570
869.584	0.0166103
869.663	0.0166883
869.741	0.0166512
869.819	0.0167047
869.897	0.0166260
869.975	0.0167560
870.053	0.0168094
870.131	0.0166865
870.209	0.0167694
870.288	0.0166878
870.366	0.0167856
870.444	0.0166940
870.522	0.0167361
870.600	0.0165269
870.678	0.0165628
870.756	0.0165547
870.834	0.0164179
870.913	0.0164418
870.991	0.0164973
871.069	0.0164201
871.147	0.0164440
871.225	0.0162443
871.303	0.0163840
871.381	0.0163742
871.459	0.0163091
871.538	0.0163036
871.616	0.0162688
871.694	0.0162614
871.772	0.0163577
871.850	0.0164340
871.928	0.0164421
872.006	0.0166325
872.084	0.0166502
872.163	0.0167542
872.241	0.0169367
872.319	0.0171026
872.397	0.0172630
872.475	0.0174075
872.553	0.0174958
872.631	0.0176677
872.709	0.0176307
872.788	0.0176481
872.866	0.0176981
872.944	0.0175689
873.022	0.0174767
873.100	0.0173840
873.178	0.0171331
873.256	0.0167700
873.334	0.0165340
873.413	0.0163644
873.491	0.0160580
873.569	0.0159655
873.647	0.0157849
873.725	0.0156602
873.803	0.0155083
873.881	0.0155715
873.959	0.0156471
874.038	0.0155809
874.116	0.0158026
874.194	0.0157684
874.272	0.0158472
874.350	0.0160046
874.428	0.0160990
874.506	0.0165100
874.584	0.0165866
874.663	0.0165562
874.741	0.0166872
874.819	0.0167836
874.897	0.0169959
874.975	0.0170270
875.053	0.0173333
875.131	0.0172704
875.209	0.0174498
875.288	0.0176810
875.366	0.0175723
875.444	0.0177235
875.522	0.0176814
875.600	0.0178564
875.678	0.0176718
875.756	0.0176920
875.834	0.0175556
875.913	0.0173333
875.991	0.0171950
876.069	0.0169884
876.147	0.0168280
876.225	0.0164075
876.303	0.0161694
876.381	0.0158221
876.459	0.0155134
876.538	0.0153063
876.616	0.0150789
876.694	0.0148320
876.772	0.0146767
876.850	0.0145480
876.928	0.0145034
877.006	0.0147359
877.084	0.0149699
877.163	0.0151562
877.241	0.0153928
877.319	0.0157681
877.397	0.0162094
877.475	0.0166776
877.553	0.0167866
877.631	0.0171578
877.709	0.0173490
877.788	0.0176389
877.866	0.0177797
877.944	0.0180110
878.022	0.0179945
878.100	0.0181960
878.178	0.0182126
878.256	0.0182429
878.334	0.0182677
878.413	0.0181530
878.491	0.0181597
878.569	0.0181457
878.647	0.0181384
878.725	0.0179087
878.803	0.0176070
878.881	0.0175265
878.959	0.0172396
879.038	0.0170778
879.116	0.0168337
879.194	0.0166280
879.272	0.0163700
879.350	0.0161932
879.428	0.0158134
879.506	0.0155621
879.584	0.0154339
879.663	0.0153422
879.741	0.0152337
879.819	0.0152232
879.897	0.0151030
879.975	0.0150946
880.053	0.0152297
880.131	0.0152139
880.209	0.0153587
880.288	0.0156507
880.366	0.0158081
880.444	0.0160366
880.522	0.0162948
880.600	0.0164316
880.678	0.0166106
880.756	0.0167819
880.834	0.0169991
880.913	0.0171634
880.991	0.0170488
881.069	0.0172694
881.147	0.0171075
881.225	0.0173456
881.303	0.0172042
881.381	0.0171240
881.459	0.0171995
881.538	0.0172681
881.616	0.0172211
881.694	0.0169724
881.772	0.0172004
881.850	0.0173955
881.928	0.0172536
882.006	0.0173048
882.084	0.0172924
882.163	0.0170607
882.241	0.0172448
882.319	0.0170424
882.397	0.0170497
882.475	0.0170354
882.553	0.0168615
882.631	0.0167841
882.709	0.0166831
882.788	0.0164401
882.866	0.0164613
882.944	0.0164136
883.022	0.0163646
883.100	0.0162665
883.178	0.0161827
883.256	0.0164272
883.334	0.0163419
883.413	0.0163795
883.491	0.0163628
883.569	0.0162350
883.647	0.0163552
883.725	0.0165076
883.803	0.0164220
883.881	0.0164067
883.959	0.0163084
884.038	0.0164241
884.116	0.0164953
884.194	0.0163700
884.272	0.0164645
884.350	0.0163544
884.428	0.0162659
884.506	0.0163596
884.584	0.0162436
884.663	0.0164379
884.741	0.0163954
884.819	0.0163111
884.897	0.0164239
884.975	0.0165133
885.053	0.0164982
885.131	0.0165248
885.209	0.0164696
885.288	0.0167023
885.366	0.0166704
885.444	0.0168015
885.522	0.0167936
885.600	0.0167030
885.678	0.0166460
885.756	0.0167237
885.834	0.0166924
885.913	0.0167553
885.991	0.0167464
886.069	0.0167287
886.147	0.0167595
886.225	0.0167768
886.303	0.0166811
886.381	0.0169420
886.459	0.0169080
886.538	0.0167664
886.616	0.0169083
886.694	0.0169964
886.772	0.0169921
886.850	0.0168954
886.928	0.0169532
887.006	0.0170638
887.084	0.0172261
887.163	0.0172014
887.241	0.0170432
887.319	0.0170184
887.397	0.0170451
887.475	0.0170478
887.553	0.0171336
887.631	0.0169832
887.709	0.0168941
887.788	0.0167737
887.866	0.0168369
887.944	0.0166914
888.022	0.0167826
888.100	0.0166673
888.178	0.0165179
888.256	0.0165359
888.334	0.0165942
888.413	0.0166381
888.491	0.0165357
888.569	0.0165051
888.647	0.0165806
888.725	0.0165451
888.803	0.0165107
888.881	0.0163782
888.959	0.0165136
889.038	0.0164626
889.116	0.0162162
889.194	0.0162891
889.272	0.0162988
889.350	0.0163103
889.428	0.0162077
889.506	0.0162689
889.584	0.0161332
889.663	0.0159497
889.741	0.0161040
889.819	0.0160989
889.897	0.0160160
889.975	0.0160509
890.053	0.0162158
890.131	0.0162453
890.209	0.0162662
890.288	0.0163703
890.366	0.0163898
890.444	0.0164845
890.522	0.0165369
890.600	0.0167683
890.678	0.0167908
890.756	0.0168266
890.834	0.0168551
890.913	0.0168660
890.991	0.0170387
891.069	0.0170634
891.147	0.0170579
891.225	0.0170656
891.303	0.0170776
891.381	0.0171419
891.459	0.0171931
891.538	0.0171593
891.616	0.0171397
891.694	0.0169665
891.772	0.0168902
891.850	0.0169974
891.928	0.0169272
892.006	0.0169771
892.084	0.0168623
892.163	0.0167220
892.241	0.0167172
892.319	0.0167107
892.397	0.0167329
892.475	0.0165313
892.553	0.0165912
892.631	0.0165220
892.709	0.0165294
892.788	0.0165997
892.866	0.0165417
892.944	0.0164705
893.022	0.0164352
893.100	0.0165336
893.178	0.0166763
893.256	0.0167204
893.334	0.0166831
893.413	0.0166420
893.491	0.0168417
893.569	0.0166035
893.647	0.0166602
893.725	0.0167629
893.803	0.0166367
893.881	0.0166200
893.959	0.0167006
894.038	0.0167712
894.116	0.0166391
894.194	0.0166223
894.272	0.0165173
894.350	0.0165884
894.428	0.0166385
894.506	0.0165815
894.584	0.0165204
894.663	0.0166423
894.741	0.0165792
894.819	0.0165451
894.897	0.0166470
894.975	0.0167122
895.053	0.0166354
895.131	0.0166587
895.209	0.0166365
895.288	0.0166302
895.366	0.0165928
895.444	0.0165955
895.522	0.0166817
895.600	0.0165806
895.678	0.0166887
895.756	0.0167481
895.834	0.0167604
895.913	0.0166622
895.991	0.0166833
896.069	0.0168147
896.147	0.0167813
896.225	0.0167571
896.303	0.0169103
896.381	0.0168635
896.459	0.0168718
896.538	0.0168711
896.616	0.0167080
896.694	0.0168587
896.772	0.0167316
896.850	0.0165875
896.928	0.0166107
897.006	0.0165542
897.084	0.0165089
897.163	0.0164484
897.241	0.0163328
897.319	0.0163554
897.397	0.0163300
897.475	0.0161696
897.553	0.0163177
897.631	0.0165644
897.709	0.0164865
897.788	0.0164228
897.866	0.0164323
897.944	0.0165578
898.022	0.0165849
898.100	0.0166471
898.178	0.0166011
898.256	0.0167724
898.334	0.0167553
898.413	0.0167604
898.491	0.0167587
898.569	0.0167863
898.647	0.0168683
898.725	0.0168779
898.803	0.0168159
898.881	0.0169073
898.959	0.0169559
899.038	0.0169922
899.116	0.0170673
899.194	0.0169697
899.272	0.0168455
899.350	0.0167894
899.428	0.0168433
899.506	0.0168525
899.584	0.0167510
899.663	0.0168169
899.741	0.0168205
899.819	0.0167964
899.897	0.0168047
899.975	0.0167750
900.053	0.0166086
900.131	0.0165767
900.209	0.0166782
900.288	0.0167523
900.366	0.0167538
900.444	0.0165615
900.522	0.0164996
900.600	0.0164391
900.678	0.0165793
900.756	0.0164545
900.834	0.0165373
900.913	0.0164990
900.991	0.0164024
901.069	0.0164507
901.147	0.0164178
901.225	0.0165377
901.303	0.0165195
901.381	0.0163379
901.459	0.0166099
901.538	0.0167221
901.616	0.0166419
901.694	0.0166314
901.772	0.0166927
901.850	0.0167532
901.928	0.0166165
902.006	0.0167836
902.084	0.0168362
902.163	0.0168283
902.241	0.0169358
902.319	0.0169441
902.397	0.0166981
902.475	0.0168019
902.553	0.0167814
902.631	0.0168782
902.709	0.0168776
902.788	0.0168133
902.866	0.0167445
902.944	0.0168205
903.022	0.0167160
903.100	0.0165916
903.178	0.0167114
903.256	0.0166493
903.334	0.0168001
903.413	0.0166769
903.491	0.0166766
903.569	0.0166063
903.647	0.0167144
903.725	0.0165255
903.803	0.0166183
903.881	0.0165900
903.959	0.0165770
904.038	0.0167079
904.116	0.0165693
904.194	0.0166119
904.272	0.0166397
904.350	0.0165800
904.428	0.0165767
904.506	0.0166402
904.584	0.0166061
904.663	0.0165682
904.741	0.0165331
904.819	0.0165951
904.897	0.0166087
904.975	0.0167216
905.053	0.0166919
905.131	0.0166245
905.209	0.0166969
905.288	0.0167189
905.366	0.0167659
905.444	0.0166915
905.522	0.0167001
905.600	0.0167391
905.678	0.0167376
905.756	0.0167377
905.834	0.0167202
905.913	0.0167716
905.991	0.0165778
906.069	0.0165824
906.147	0.0165527
906.225	0.0164841
906.303	0.0164445
906.381	0.0163722
906.459	0.0164507
906.538	0.0164555
906.616	0.0163250
906.694	0.0163795
906.772	0.0164082
906.850	0.0162881
906.928	0.0164400
907.006	0.0166068
907.084	0.0164422
907.163	0.0165267
907.241	0.0166402
907.319	0.0165450
907.397	0.0166679
907.475	0.0168901
907.553	0.0169090
907.631	0.0169309
907.709	0.0170013
907.788	0.0169429
907.866	0.0169995
907.944	0.0169942
908.022	0.0170120
908.100	0.0170788
908.178	0.0169836
908.256	0.0170118
908.334	0.0169843
908.413	0.0168798
908.491	0.0168582
908.569	0.0168845
908.647	0.0167241
908.725	0.0165817
908.803	0.0167345
908.881	0.0167924
908.959	0.0166660
909.038	0.0165717
909.116	0.0166103
909.194	0.0166203
909.272	0.0165295
909.350	0.0166170
909.428	0.0165942
909.506	0.0166435
909.584	0.0165617
909.663	0.0165659
909.741	0.0165092
909.819	0.0165150
909.897	0.0164176
909.975	0.0164711
910.053	0.0165915
910.131	0.0164837
910.209	0.0164712
910.288	0.0164661
910.366	0.0164971
910.444	0.0165411
910.522	0.0165218
910.600	0.0166581
910.678	0.0166257
910.756	0.0166205
910.834	0.0166717
910.913	0.0166646
910.991	0.0167991
911.069	0.0167975
911.147	0.0166621
911.225	0.0167889
911.303	0.0168744
911.381	0.0168489
911.459	0.0167150
911.538	0.0168555
911.616	0.0167922
911.694	0.0166853
911.772	0.0166436
911.850	0.0166665
911.928	0.0165781
912.006	0.0167028
912.084	0.0167398
912.163	0.0165917
912.241	0.0165474
912.319	0.0166541
912.397	0.0166993
912.475	0.0166278
912.553	0.0165928
912.631	0.0166923
912.709	0.0167190
912.788	0.0166313
912.866	0.0166427
912.944	0.0166564
913.022	0.0167709
913.100	0.0167595
913.178	0.0167445
913.256	0.0169375
913.334	0.0168446
913.413	0.0169089
913.491	0.0169292
913.569	0.0167747
913.647	0.0168942
913.725	0.0169385
913.803	0.0167641
913.881	0.0167187
913.959	0.0169375
914.038	0.0166753
914.116	0.0167224
914.194	0.0166985
914.272	0.0167382
914.350	0.0165400
914.428	0.0165119
914.506	0.0166254
914.584	0.0164690
914.663	0.0165265
914.741	0.0165538
914.819	0.0164720
914.897	0.0164049
914.975	0.0164774
915.053	0.0164405
915.131	0.0165400
915.209	0.0165395
915.288	0.0165174
915.366	0.0164874
915.444	0.0165177
915.522	0.0165165
915.600	0.0166145
915.678	0.0166510
915.756	0.0166611
915.834	0.0167287
915.913	0.0168400
915.991	0.0168027
916.069	0.0168445
916.147	0.0169658
916.225	0.0169048
916.303	0.0169088
916.381	0.0167983
916.459	0.0168523
916.538	0.0167767
916.616	0.0169903
916.694	0.0168851
916.772	0.0168307
916.850	0.0167176
916.928	0.0168534
917.006	0.0167996
917.084	0.0168633
917.163	0.0169074
917.241	0.0168154
917.319	0.0169379
917.397	0.0168728
917.475	0.0168912
917.553	0.0167835
917.631	0.0166910
917.709	0.0166684
917.788	0.0166782
917.866	0.0166427
917.944	0.0167664
918.022	0.0166079
918.100	0.0164585
918.178	0.0164997
918.256	0.0164825
918.334	0.0163097
918.413	0.0163202
918.491	0.0164644
918.569	0.0164376
918.647	0.0164249
918.725	0.0162986
918.803	0.0164781
918.881	0.0163783
918.959	0.0165275
919.038	0.0164922
919.116	0.0165119
919.194	0.0164862
919.272	0.0165976
919.350	0.0166191
919.428	0.0167307
919.506	0.0166638
919.584	0.0168660
919.663	0.0168492
919.741	0.0168241
919.819	0.0169898
919.897	0.0168654
