06/01/2022	17:22:24	Ver.	4.1	UNKNOWN
Optical Delay	599.981738	Delta X		0.078125	Sweeps	1	Scan Rate	0/0
Coordinates	Axis 1	NaN	Axis 2	NaN	Axis 3	NaN	Axis 4	NaN	Axis 5	NaN	Axis 6	0.000000
TX Power	0.000000	RX Power	0.000000

599.982	0.0165867
600.060	0.0166379
600.138	0.0165156
600.216	0.0165132
600.294	0.0165668
600.372	0.0164574
600.450	0.0166896
600.529	0.0166309
600.607	0.0166537
600.685	0.0165880
600.763	0.0164801
600.841	0.0166728
600.919	0.0165537
600.997	0.0166705
601.075	0.0166974
601.154	0.0166318
601.232	0.0165994
601.310	0.0165730
601.388	0.0167012
601.466	0.0166885
601.544	0.0166670
601.622	0.0164796
601.700	0.0166084
601.779	0.0165359
601.857	0.0166080
601.935	0.0166760
602.013	0.0166981
602.091	0.0166825
602.169	0.0167331
602.247	0.0165997
602.325	0.0167023
602.404	0.0165115
602.482	0.0167064
602.560	0.0166403
602.638	0.0166842
602.716	0.0165152
602.794	0.0164900
602.872	0.0164191
602.950	0.0166168
603.029	0.0166064
603.107	0.0164926
603.185	0.0164218
603.263	0.0165154
603.341	0.0165756
603.419	0.0165488
603.497	0.0164787
603.575	0.0165619
603.654	0.0165507
603.732	0.0166148
603.810	0.0166457
603.888	0.0165778
603.966	0.0166337
604.044	0.0166787
604.122	0.0166326
604.200	0.0166737
604.279	0.0165507
604.357	0.0166411
604.435	0.0166696
604.513	0.0167459
604.591	0.0165522
604.669	0.0165549
604.747	0.0166560
604.825	0.0167068
604.904	0.0165565
604.982	0.0166716
605.060	0.0165455
605.138	0.0166970
605.216	0.0167419
605.294	0.0165967
605.372	0.0167059
605.450	0.0166739
605.529	0.0166995
605.607	0.0165884
605.685	0.0164908
605.763	0.0164716
605.841	0.0165500
605.919	0.0165102
605.997	0.0164056
606.075	0.0165543
606.154	0.0166606
606.232	0.0165653
606.310	0.0165529
606.388	0.0164304
606.466	0.0164970
606.544	0.0165878
606.622	0.0165437
606.700	0.0165807
606.779	0.0163762
606.857	0.0165197
606.935	0.0165223
607.013	0.0163895
607.091	0.0164589
607.169	0.0165636
607.247	0.0165813
607.325	0.0166051
607.404	0.0164805
607.482	0.0166138
607.560	0.0166847
607.638	0.0167179
607.716	0.0165981
607.794	0.0165364
607.872	0.0167126
607.950	0.0167113
608.029	0.0164845
608.107	0.0165565
608.185	0.0165871
608.263	0.0165766
608.341	0.0166326
608.419	0.0165332
608.497	0.0166456
608.575	0.0166780
608.654	0.0166393
608.732	0.0165797
608.810	0.0165846
608.888	0.0166045
608.966	0.0165190
609.044	0.0166090
609.122	0.0165282
609.200	0.0164771
609.279	0.0166158
609.357	0.0165607
609.435	0.0163956
609.513	0.0166415
609.591	0.0167093
609.669	0.0165934
609.747	0.0165259
609.825	0.0165851
609.904	0.0165455
609.982	0.0164388
610.060	0.0165285
610.138	0.0165677
610.216	0.0163896
610.294	0.0164717
610.372	0.0165424
610.450	0.0165493
610.529	0.0165842
610.607	0.0166156
610.685	0.0165762
610.763	0.0165366
610.841	0.0165111
610.919	0.0165283
610.997	0.0165694
611.075	0.0165044
611.154	0.0166821
611.232	0.0166362
611.310	0.0165649
611.388	0.0164580
611.466	0.0165945
611.544	0.0165110
611.622	0.0165310
611.700	0.0165836
611.779	0.0165771
611.857	0.0165515
611.935	0.0165735
612.013	0.0165622
612.091	0.0167001
612.169	0.0166538
612.247	0.0165988
612.325	0.0165660
612.404	0.0165437
612.482	0.0165523
612.560	0.0166120
612.638	0.0166319
612.716	0.0165644
612.794	0.0167176
612.872	0.0166121
612.950	0.0165726
613.029	0.0164728
613.107	0.0166695
613.185	0.0166540
613.263	0.0166911
613.341	0.0164662
613.419	0.0165723
613.497	0.0167339
613.575	0.0165918
613.654	0.0165508
613.732	0.0166712
613.810	0.0166452
613.888	0.0165029
613.966	0.0165386
614.044	0.0166678
614.122	0.0165111
614.200	0.0165856
614.279	0.0165914
614.357	0.0166076
614.435	0.0166244
614.513	0.0166734
614.591	0.0164951
614.669	0.0165434
614.747	0.0165370
614.825	0.0165011
614.904	0.0165820
614.982	0.0164619
615.060	0.0164101
615.138	0.0166835
615.216	0.0166212
615.294	0.0165974
615.372	0.0164691
615.450	0.0164095
615.529	0.0165255
615.607	0.0165969
615.685	0.0164305
615.763	0.0166157
615.841	0.0165921
615.919	0.0164665
615.997	0.0163884
616.075	0.0166473
616.154	0.0165656
616.232	0.0166268
616.310	0.0165931
616.388	0.0165343
616.466	0.0165701
616.544	0.0165432
616.622	0.0165441
616.700	0.0166095
616.779	0.0165166
616.857	0.0166451
616.935	0.0165395
617.013	0.0165717
617.091	0.0166085
617.169	0.0166053
617.247	0.0165594
617.325	0.0166357
617.404	0.0165575
617.482	0.0166295
617.560	0.0165856
617.638	0.0165468
617.716	0.0165189
617.794	0.0166110
617.872	0.0165923
617.950	0.0165926
618.029	0.0166080
618.107	0.0166733
618.185	0.0166057
618.263	0.0165134
618.341	0.0165454
618.419	0.0165994
618.497	0.0166827
618.575	0.0167017
618.654	0.0165237
618.732	0.0165835
618.810	0.0164825
618.888	0.0165136
618.966	0.0165269
619.044	0.0166277
619.122	0.0165469
619.200	0.0167287
619.279	0.0165447
619.357	0.0166075
619.435	0.0164957
619.513	0.0164439
619.591	0.0166035
619.669	0.0165437
619.747	0.0165678
619.825	0.0165646
619.904	0.0166802
619.982	0.0166690
620.060	0.0165504
620.138	0.0165917
620.216	0.0166656
620.294	0.0165983
620.372	0.0164832
620.450	0.0166046
620.529	0.0165899
620.607	0.0164526
620.685	0.0165149
620.763	0.0165239
620.841	0.0164932
620.919	0.0166462
620.997	0.0166653
621.075	0.0165666
621.154	0.0165450
621.232	0.0166819
621.310	0.0164754
621.388	0.0166394
621.466	0.0166972
621.544	0.0167129
621.622	0.0164370
621.700	0.0165350
621.779	0.0165510
621.857	0.0165930
621.935	0.0166451
622.013	0.0166070
622.091	0.0164195
622.169	0.0163578
622.247	0.0165762
622.325	0.0165612
622.404	0.0165213
622.482	0.0165688
622.560	0.0166246
622.638	0.0164471
622.716	0.0166349
622.794	0.0165814
622.872	0.0165285
622.950	0.0166092
623.029	0.0165223
623.107	0.0166145
623.185	0.0165453
623.263	0.0165640
623.341	0.0166639
623.419	0.0164951
623.497	0.0166451
623.575	0.0165909
623.654	0.0166097
623.732	0.0164570
623.810	0.0165686
623.888	0.0165511
623.966	0.0167118
624.044	0.0165672
624.122	0.0165759
624.200	0.0166086
624.279	0.0167313
624.357	0.0166261
624.435	0.0166114
624.513	0.0164946
624.591	0.0165247
624.669	0.0167117
624.747	0.0165586
624.825	0.0165807
624.904	0.0166225
624.982	0.0165498
625.060	0.0165287
625.138	0.0164416
625.216	0.0164952
625.294	0.0166412
625.372	0.0165976
625.450	0.0166644
625.529	0.0165525
625.607	0.0166036
625.685	0.0165086
625.763	0.0166199
625.841	0.0168908
625.919	0.0165880
625.997	0.0163982
626.075	0.0166255
626.154	0.0165430
626.232	0.0166648
626.310	0.0165569
626.388	0.0165047
626.466	0.0166010
626.544	0.0165910
626.622	0.0164536
626.700	0.0165775
626.779	0.0165936
626.857	0.0165451
626.935	0.0166177
627.013	0.0165913
627.091	0.0165266
627.169	0.0165236
627.247	0.0165170
627.325	0.0165623
627.404	0.0165900
627.482	0.0166621
627.560	0.0165819
627.638	0.0166562
627.716	0.0165948
627.794	0.0164799
627.872	0.0166101
627.950	0.0166231
628.029	0.0165571
628.107	0.0165973
628.185	0.0165736
628.263	0.0166176
628.341	0.0167009
628.419	0.0165725
628.497	0.0164919
628.575	0.0165160
628.654	0.0167325
628.732	0.0165504
628.810	0.0165709
628.888	0.0166434
628.966	0.0164697
629.044	0.0165561
629.122	0.0165040
629.200	0.0165847
629.279	0.0165765
629.357	0.0165405
629.435	0.0165870
629.513	0.0165965
629.591	0.0166096
629.669	0.0165394
629.747	0.0165536
629.825	0.0166818
629.904	0.0165903
629.982	0.0165665
630.060	0.0165532
630.138	0.0164702
630.216	0.0163789
630.294	0.0164656
630.372	0.0166589
630.450	0.0165261
630.529	0.0165893
630.607	0.0165652
630.685	0.0165795
630.763	0.0165039
630.841	0.0165073
630.919	0.0165905
630.997	0.0165350
631.075	0.0166155
631.154	0.0166572
631.232	0.0164240
631.310	0.0165311
631.388	0.0164957
631.466	0.0166398
631.544	0.0166630
631.622	0.0165538
631.700	0.0165742
631.779	0.0165027
631.857	0.0165923
631.935	0.0165843
632.013	0.0166096
632.091	0.0165523
632.169	0.0164196
632.247	0.0165878
632.325	0.0165862
632.404	0.0165932
632.482	0.0166070
632.560	0.0166649
632.638	0.0164883
632.716	0.0164214
632.794	0.0166020
632.872	0.0166085
632.950	0.0164708
633.029	0.0165716
633.107	0.0165739
633.185	0.0165472
633.263	0.0166431
633.341	0.0165363
633.419	0.0165411
633.497	0.0165747
633.575	0.0166512
633.654	0.0164976
633.732	0.0164889
633.810	0.0166992
633.888	0.0165163
633.966	0.0165208
634.044	0.0164523
634.122	0.0166201
634.200	0.0165604
634.279	0.0165563
634.357	0.0164847
634.435	0.0166569
634.513	0.0165209
634.591	0.0166880
634.669	0.0166927
634.747	0.0165691
634.825	0.0165543
634.904	0.0166577
634.982	0.0165969
635.060	0.0166062
635.138	0.0166685
635.216	0.0165706
635.294	0.0164732
635.372	0.0164962
635.450	0.0165928
635.529	0.0166915
635.607	0.0166776
635.685	0.0167105
635.763	0.0165782
635.841	0.0165813
635.919	0.0166054
635.997	0.0165736
636.075	0.0166047
636.154	0.0165047
636.232	0.0166016
636.310	0.0166559
636.388	0.0165279
636.466	0.0165506
636.544	0.0166075
636.622	0.0165611
636.700	0.0166629
636.779	0.0165290
636.857	0.0164718
636.935	0.0166022
637.013	0.0166113
637.091	0.0165478
637.169	0.0166888
637.247	0.0165757
637.325	0.0164862
637.404	0.0164100
637.482	0.0165030
637.560	0.0165569
637.638	0.0165575
637.716	0.0164342
637.794	0.0166030
637.872	0.0166133
637.950	0.0165503
638.029	0.0165392
638.107	0.0165580
638.185	0.0166386
638.263	0.0165958
638.341	0.0166565
638.419	0.0164879
638.497	0.0165382
638.575	0.0165741
638.654	0.0164836
638.732	0.0165488
638.810	0.0166682
638.888	0.0167487
638.966	0.0165264
639.044	0.0164928
639.122	0.0165696
639.200	0.0164323
639.279	0.0166829
639.357	0.0165460
639.435	0.0166438
639.513	0.0165640
639.591	0.0166743
639.669	0.0166080
639.747	0.0165793
639.825	0.0165896
639.904	0.0165880
639.982	0.0165794
640.060	0.0166025
640.138	0.0164373
640.216	0.0165645
640.294	0.0166112
640.372	0.0165900
640.450	0.0165286
640.529	0.0164763
640.607	0.0164484
640.685	0.0164895
640.763	0.0166358
640.841	0.0165604
640.919	0.0165711
640.997	0.0166699
641.075	0.0165962
641.154	0.0165540
641.232	0.0165405
641.310	0.0166935
641.388	0.0166556
641.466	0.0165413
641.544	0.0165166
641.622	0.0166260
641.700	0.0166742
641.779	0.0165372
641.857	0.0164837
641.935	0.0164465
642.013	0.0166590
642.091	0.0166486
642.169	0.0165089
642.247	0.0166072
642.325	0.0165443
642.404	0.0165607
642.482	0.0166688
642.560	0.0165803
642.638	0.0165329
642.716	0.0164444
642.794	0.0167673
642.872	0.0165059
642.950	0.0165049
643.029	0.0167743
643.107	0.0166644
643.185	0.0165411
643.263	0.0165388
643.341	0.0166935
643.419	0.0164742
643.497	0.0166172
643.575	0.0165811
643.654	0.0166021
643.732	0.0166136
643.810	0.0165958
643.888	0.0165943
643.966	0.0166045
644.044	0.0165915
644.122	0.0164808
644.200	0.0165630
644.279	0.0166969
644.357	0.0164593
644.435	0.0165638
644.513	0.0166888
644.591	0.0165051
644.669	0.0164458
644.747	0.0166351
644.825	0.0165197
644.904	0.0165684
644.982	0.0164876
645.060	0.0165586
645.138	0.0165936
645.216	0.0165250
645.294	0.0166109
645.372	0.0165179
645.450	0.0166304
645.529	0.0167793
645.607	0.0166818
645.685	0.0166786
645.763	0.0165639
645.841	0.0165299
645.919	0.0165311
645.997	0.0165323
646.075	0.0164301
646.154	0.0166249
646.232	0.0167092
646.310	0.0166230
646.388	0.0165976
646.466	0.0165842
646.544	0.0166660
646.622	0.0166807
646.700	0.0166973
646.779	0.0165842
646.857	0.0166020
646.935	0.0167225
647.013	0.0167082
647.091	0.0166269
647.169	0.0164500
647.247	0.0166879
647.325	0.0166497
647.404	0.0165125
647.482	0.0165257
647.560	0.0166843
647.638	0.0163627
647.716	0.0165900
647.794	0.0166924
647.872	0.0166538
647.950	0.0166029
648.029	0.0165918
648.107	0.0165123
648.185	0.0165391
648.263	0.0166684
648.341	0.0164811
648.419	0.0166779
648.497	0.0166356
648.575	0.0166207
648.654	0.0166323
648.732	0.0166277
648.810	0.0167310
648.888	0.0166062
648.966	0.0167482
649.044	0.0165576
649.122	0.0165200
649.200	0.0165444
649.279	0.0166424
649.357	0.0166634
649.435	0.0165591
649.513	0.0166734
649.591	0.0165326
649.669	0.0165031
649.747	0.0167057
649.825	0.0165577
649.904	0.0165620
649.982	0.0164934
650.060	0.0166047
650.138	0.0165092
650.216	0.0167271
650.294	0.0165910
650.372	0.0165823
650.450	0.0166972
650.529	0.0165668
650.607	0.0166473
650.685	0.0165690
650.763	0.0167012
650.841	0.0166766
650.919	0.0165859
650.997	0.0165683
651.075	0.0165665
651.154	0.0167838
651.232	0.0166986
651.310	0.0165442
651.388	0.0164835
651.466	0.0165336
651.544	0.0165697
651.622	0.0166591
651.700	0.0165818
651.779	0.0165689
651.857	0.0166580
651.935	0.0167754
652.013	0.0166307
652.091	0.0167182
652.169	0.0167045
652.247	0.0165743
652.325	0.0166535
652.404	0.0165880
652.482	0.0166113
652.560	0.0165575
652.638	0.0165569
652.716	0.0166653
652.794	0.0165736
652.872	0.0165752
652.950	0.0164745
653.029	0.0165257
653.107	0.0166677
653.185	0.0166344
653.263	0.0166082
653.341	0.0165347
653.419	0.0166308
653.497	0.0165746
653.575	0.0164768
653.654	0.0165891
653.732	0.0166064
653.810	0.0167542
653.888	0.0166453
653.966	0.0165693
654.044	0.0165336
654.122	0.0167093
654.200	0.0166778
654.279	0.0166960
654.357	0.0165726
654.435	0.0166112
654.513	0.0166391
654.591	0.0167294
654.669	0.0166794
654.747	0.0166254
654.825	0.0164810
654.904	0.0167187
654.982	0.0165479
655.060	0.0164700
655.138	0.0167350
655.216	0.0166122
655.294	0.0167200
655.372	0.0166161
655.450	0.0166603
655.529	0.0166897
655.607	0.0167148
655.685	0.0165707
655.763	0.0165453
655.841	0.0165318
655.919	0.0165476
655.997	0.0166071
656.075	0.0166335
656.154	0.0165488
656.232	0.0166539
656.310	0.0164941
656.388	0.0166717
656.466	0.0165137
656.544	0.0165501
656.622	0.0164668
656.700	0.0166910
656.779	0.0167567
656.857	0.0165588
656.935	0.0165391
657.013	0.0167189
657.091	0.0165641
657.169	0.0165652
657.247	0.0165919
657.325	0.0164832
657.404	0.0164135
657.482	0.0166096
657.560	0.0165504
657.638	0.0165771
657.716	0.0166969
657.794	0.0165897
657.872	0.0165096
657.950	0.0166151
658.029	0.0165614
658.107	0.0166605
658.185	0.0167001
658.263	0.0166396
658.341	0.0165205
658.419	0.0165002
658.497	0.0166075
658.575	0.0166354
658.654	0.0164771
658.732	0.0165907
658.810	0.0165417
658.888	0.0166439
658.966	0.0167005
659.044	0.0164903
659.122	0.0165506
659.200	0.0166198
659.279	0.0164641
659.357	0.0165980
659.435	0.0165370
659.513	0.0166512
659.591	0.0166304
659.669	0.0165089
659.747	0.0165096
659.825	0.0165807
659.904	0.0166122
659.982	0.0166425
660.060	0.0165852
660.138	0.0166411
660.216	0.0164713
660.294	0.0165564
660.372	0.0166497
660.450	0.0165179
660.529	0.0165189
660.607	0.0166238
660.685	0.0166676
660.763	0.0165640
660.841	0.0164346
660.919	0.0166312
660.997	0.0164899
661.075	0.0164877
661.154	0.0165764
661.232	0.0165982
661.310	0.0165843
661.388	0.0164583
661.466	0.0165894
661.544	0.0166730
661.622	0.0165112
661.700	0.0165282
661.779	0.0166002
661.857	0.0165749
661.935	0.0166538
662.013	0.0166787
662.091	0.0166266
662.169	0.0164578
662.247	0.0164356
662.325	0.0165675
662.404	0.0164993
662.482	0.0167635
662.560	0.0165050
662.638	0.0165368
662.716	0.0166006
662.794	0.0166434
662.872	0.0166037
662.950	0.0165095
663.029	0.0164534
663.107	0.0166800
663.185	0.0165829
663.263	0.0166856
663.341	0.0165988
663.419	0.0165126
663.497	0.0165716
663.575	0.0166122
663.654	0.0166389
663.732	0.0165070
663.810	0.0164899
663.888	0.0166196
663.966	0.0166351
664.044	0.0165461
664.122	0.0165085
664.200	0.0166573
664.279	0.0166551
664.357	0.0164676
664.435	0.0165657
664.513	0.0166893
664.591	0.0166591
664.669	0.0165769
664.747	0.0165776
664.825	0.0165694
664.904	0.0165116
664.982	0.0166398
665.060	0.0166226
665.138	0.0165362
665.216	0.0165585
665.294	0.0165756
665.372	0.0165620
665.450	0.0164899
665.529	0.0165429
665.607	0.0164959
665.685	0.0165016
665.763	0.0165607
665.841	0.0166821
665.919	0.0165475
665.997	0.0165231
666.075	0.0164722
666.154	0.0166455
666.232	0.0165521
666.310	0.0166021
666.388	0.0166090
666.466	0.0164796
666.544	0.0166010
666.622	0.0165406
666.700	0.0165648
666.779	0.0166209
666.857	0.0165067
666.935	0.0164182
667.013	0.0166101
667.091	0.0166530
667.169	0.0165800
667.247	0.0164857
667.325	0.0167224
667.404	0.0165363
667.482	0.0166366
667.560	0.0165086
667.638	0.0164767
667.716	0.0165415
667.794	0.0166072
667.872	0.0165923
667.950	0.0166446
668.029	0.0165405
668.107	0.0166096
668.185	0.0165413
668.263	0.0165064
668.341	0.0165433
668.419	0.0166158
668.497	0.0167308
668.575	0.0166609
668.654	0.0166531
668.732	0.0166963
668.810	0.0165615
668.888	0.0165903
668.966	0.0166685
669.044	0.0166053
669.122	0.0166209
669.200	0.0165623
669.279	0.0165124
669.357	0.0165961
669.435	0.0165731
669.513	0.0166102
669.591	0.0165784
669.669	0.0165990
669.747	0.0165763
669.825	0.0165337
669.904	0.0165439
669.982	0.0165241
670.060	0.0166090
670.138	0.0165289
670.216	0.0164298
670.294	0.0163984
670.372	0.0164441
670.450	0.0165869
670.529	0.0166138
670.607	0.0166045
670.685	0.0165370
670.763	0.0165701
670.841	0.0166014
670.919	0.0167956
670.997	0.0166935
671.075	0.0166228
671.154	0.0166759
671.232	0.0167176
671.310	0.0167717
671.388	0.0168078
671.466	0.0167487
671.544	0.0166338
671.622	0.0166862
671.700	0.0166597
671.779	0.0165618
671.857	0.0164759
671.935	0.0163602
672.013	0.0163442
672.091	0.0162276
672.169	0.0163342
672.247	0.0161833
672.325	0.0160554
672.404	0.0161031
672.482	0.0161578
672.560	0.0162468
672.638	0.0160647
672.716	0.0160989
672.794	0.0161461
672.872	0.0162174
672.950	0.0163240
673.029	0.0164628
673.107	0.0166257
673.185	0.0166743
673.263	0.0168596
673.341	0.0170795
673.419	0.0173724
673.497	0.0176411
673.575	0.0176701
673.654	0.0177934
673.732	0.0177883
673.810	0.0178466
673.888	0.0177119
673.966	0.0174912
674.044	0.0171244
674.122	0.0168180
674.200	0.0163957
674.279	0.0159290
674.357	0.0154074
674.435	0.0151356
674.513	0.0149056
674.591	0.0148108
674.669	0.0147012
674.747	0.0147701
674.825	0.0151424
674.904	0.0154347
674.982	0.0159734
675.060	0.0164409
675.138	0.0167892
675.216	0.0170037
675.294	0.0172923
675.372	0.0175696
675.450	0.0176205
675.529	0.0176308
675.607	0.0178251
675.685	0.0175931
675.763	0.0174937
675.841	0.0174866
675.919	0.0173863
675.997	0.0173672
676.075	0.0173820
676.154	0.0171014
676.232	0.0167673
676.310	0.0167616
676.388	0.0164768
676.466	0.0160241
676.544	0.0156461
676.622	0.0152856
676.700	0.0151086
676.779	0.0148025
676.857	0.0143882
676.935	0.0142461
677.013	0.0144363
677.091	0.0145043
677.169	0.0148790
677.247	0.0154223
677.325	0.0160854
677.404	0.0169285
677.482	0.0175479
677.560	0.0185107
677.638	0.0193733
677.716	0.0200336
677.794	0.0206691
677.872	0.0210681
677.950	0.0215125
678.029	0.0214442
678.107	0.0214236
678.185	0.0211241
678.263	0.0205327
678.341	0.0200048
678.419	0.0191348
678.497	0.0181745
678.575	0.0171667
678.654	0.0162675
678.732	0.0150742
678.810	0.0141364
678.888	0.0131187
678.966	0.0121580
679.044	0.0112888
679.122	0.0105520
679.200	0.00980621
679.279	0.00935783
679.357	0.00902550
679.435	0.00873055
679.513	0.00878059
679.591	0.00906830
679.669	0.00962379
679.747	0.0102079
679.825	0.0110489
679.904	0.0121075
679.982	0.0132194
680.060	0.0147699
680.138	0.0162813
680.216	0.0179410
680.294	0.0196155
680.372	0.0213654
680.450	0.0230077
680.529	0.0244919
680.607	0.0261256
680.685	0.0274138
680.763	0.0283959
680.841	0.0292323
680.919	0.0296978
680.997	0.0299483
681.075	0.0296068
681.154	0.0290234
681.232	0.0280412
681.310	0.0266263
681.388	0.0248776
681.466	0.0226265
681.544	0.0204045
681.622	0.0178163
681.700	0.0150282
681.779	0.0123734
681.857	0.00987709
681.935	0.00761475
682.013	0.00554382
682.091	0.00386383
682.169	0.00273987
682.247	0.00191376
682.325	0.00145676
682.404	0.00148117
682.482	0.00180069
682.560	0.00249260
682.638	0.00355553
682.716	0.00462158
682.794	0.00605423
682.872	0.00740402
682.950	0.00888664
683.029	0.0107909
683.107	0.0123066
683.185	0.0141977
683.263	0.0159893
683.341	0.0176868
683.419	0.0194186
683.497	0.0213059
683.575	0.0230220
683.654	0.0246874
683.732	0.0261279
683.810	0.0274434
683.888	0.0287306
683.966	0.0298335
684.044	0.0302943
684.122	0.0307054
684.200	0.0309330
684.279	0.0310692
684.357	0.0308012
684.435	0.0304720
684.513	0.0295235
684.591	0.0286547
684.669	0.0274819
684.747	0.0259539
684.825	0.0241444
684.904	0.0224056
684.982	0.0202644
685.060	0.0178353
685.138	0.0154977
685.216	0.0131491
685.294	0.0105862
685.372	0.00809776
685.450	0.00586952
685.529	0.00382774
685.607	0.00237839
685.685	0.000776215
685.763	0.0000463104
685.841	-0.000765762
685.919	-0.000951385
685.997	-0.000474167
686.075	0.000100708
686.154	0.00111847
686.232	0.00261383
686.310	0.00423180
686.388	0.00605270
686.466	0.00821472
686.544	0.0103600
686.622	0.0126466
686.700	0.0146570
686.779	0.0167130
686.857	0.0188399
686.935	0.0207739
687.013	0.0225034
687.091	0.0239830
687.169	0.0253634
687.247	0.0264738
687.325	0.0272957
687.404	0.0280898
687.482	0.0285432
687.560	0.0288541
687.638	0.0288741
687.716	0.0288776
687.794	0.0287383
687.872	0.0283216
687.950	0.0276749
688.029	0.0269156
688.107	0.0260691
688.185	0.0251833
688.263	0.0243304
688.341	0.0230943
688.419	0.0218562
688.497	0.0206155
688.575	0.0191853
688.654	0.0175475
688.732	0.0160243
688.810	0.0145846
688.888	0.0131240
688.966	0.0114638
689.044	0.0102835
689.122	0.00920959
689.200	0.00815598
689.279	0.00769577
689.357	0.00748581
689.435	0.00748802
689.513	0.00742424
689.591	0.00798141
689.669	0.00850693
689.747	0.00905884
689.825	0.00987968
689.904	0.0106826
689.982	0.0114211
690.060	0.0120604
690.138	0.0127630
690.216	0.0133042
690.294	0.0134091
690.372	0.0139037
690.450	0.0141294
690.529	0.0144196
690.607	0.0148116
690.685	0.0151495
690.763	0.0154522
690.841	0.0157564
690.919	0.0162170
690.997	0.0166069
691.075	0.0172216
691.154	0.0178901
691.232	0.0184014
691.310	0.0190119
691.388	0.0195174
691.466	0.0198541
691.544	0.0204070
691.622	0.0206699
691.700	0.0209293
691.779	0.0212527
691.857	0.0214687
691.935	0.0215698
692.013	0.0216351
692.091	0.0217032
692.169	0.0217545
692.247	0.0214590
692.325	0.0212589
692.404	0.0210369
692.482	0.0208598
692.560	0.0203893
692.638	0.0199658
692.716	0.0195451
692.794	0.0190293
692.872	0.0186218
692.950	0.0181435
693.029	0.0175938
693.107	0.0172208
693.185	0.0168790
693.263	0.0163753
693.341	0.0161221
693.419	0.0157882
693.497	0.0156966
693.575	0.0154230
693.654	0.0152145
693.732	0.0150156
693.810	0.0148545
693.888	0.0147511
693.966	0.0145404
694.044	0.0141632
694.122	0.0138295
694.200	0.0136624
694.279	0.0134158
694.357	0.0130904
694.435	0.0130820
694.513	0.0127344
694.591	0.0128731
694.669	0.0128286
694.747	0.0130156
694.825	0.0132047
694.904	0.0134193
694.982	0.0137637
695.060	0.0140791
695.138	0.0143524
695.216	0.0147197
695.294	0.0150959
695.372	0.0152542
695.450	0.0154327
695.529	0.0157803
695.607	0.0160496
695.685	0.0160034
695.763	0.0160275
695.841	0.0160845
695.919	0.0160172
695.997	0.0160395
696.075	0.0162383
696.154	0.0164886
696.232	0.0166431
696.310	0.0165839
696.388	0.0168409
696.466	0.0171103
696.544	0.0173048
696.622	0.0176326
696.700	0.0178207
696.779	0.0180080
696.857	0.0182152
696.935	0.0184954
697.013	0.0187366
697.091	0.0189005
697.169	0.0190275
697.247	0.0191006
697.325	0.0191697
697.404	0.0193140
697.482	0.0192885
697.560	0.0194361
697.638	0.0194122
697.716	0.0193988
697.794	0.0194925
697.872	0.0195815
697.950	0.0196657
698.029	0.0196644
698.107	0.0196465
698.185	0.0195263
698.263	0.0195312
698.341	0.0193940
698.419	0.0191644
698.497	0.0190312
698.575	0.0184751
698.654	0.0181036
698.732	0.0177385
698.810	0.0171490
698.888	0.0166772
698.966	0.0159896
699.044	0.0156064
699.122	0.0149995
699.200	0.0145846
699.279	0.0141991
699.357	0.0138914
699.435	0.0135290
699.513	0.0132384
699.591	0.0129991
699.669	0.0128954
699.747	0.0124316
699.825	0.0124220
699.904	0.0122805
699.982	0.0122368
700.060	0.0122737
700.138	0.0122453
700.216	0.0124835
700.294	0.0125480
700.372	0.0128437
700.450	0.0131007
700.529	0.0135170
700.607	0.0140684
700.685	0.0145853
700.763	0.0151649
700.841	0.0158243
700.919	0.0163860
700.997	0.0169753
701.075	0.0174635
701.154	0.0177551
701.232	0.0180422
701.310	0.0183720
701.388	0.0183880
701.466	0.0185600
701.544	0.0185056
701.622	0.0181982
701.700	0.0179931
701.779	0.0177631
701.857	0.0175548
701.935	0.0173096
702.013	0.0171169
702.091	0.0170060
702.169	0.0167450
702.247	0.0168345
702.325	0.0168759
702.404	0.0167971
702.482	0.0170307
702.560	0.0172588
702.638	0.0175015
702.716	0.0177327
702.794	0.0180562
702.872	0.0184260
702.950	0.0186632
703.029	0.0191367
703.107	0.0192834
703.185	0.0197967
703.263	0.0200416
703.341	0.0202425
703.419	0.0203255
703.497	0.0203223
703.575	0.0204424
703.654	0.0203288
703.732	0.0201279
703.810	0.0199397
703.888	0.0194012
703.966	0.0189099
704.044	0.0184135
704.122	0.0177726
704.200	0.0171809
704.279	0.0163632
704.357	0.0157726
704.435	0.0152229
704.513	0.0146664
704.591	0.0141356
704.669	0.0138280
704.747	0.0135305
704.825	0.0132742
704.904	0.0131939
704.982	0.0130279
705.060	0.0131699
705.138	0.0134348
705.216	0.0134866
705.294	0.0136315
705.372	0.0137817
705.450	0.0141565
705.529	0.0142238
705.607	0.0143102
705.685	0.0145294
705.763	0.0145802
705.841	0.0147362
705.919	0.0147906
705.997	0.0150409
706.075	0.0150047
706.154	0.0152782
706.232	0.0153528
706.310	0.0156571
706.388	0.0155402
706.466	0.0156956
706.544	0.0159711
706.622	0.0158607
706.700	0.0160488
706.779	0.0161027
706.857	0.0162030
706.935	0.0163289
707.013	0.0164892
707.091	0.0167778
707.169	0.0167498
707.247	0.0170018
707.325	0.0172610
707.404	0.0173759
707.482	0.0175541
707.560	0.0175637
707.638	0.0178043
707.716	0.0180381
707.794	0.0181713
707.872	0.0181428
707.950	0.0183447
708.029	0.0185255
708.107	0.0185526
708.185	0.0186296
708.263	0.0188303
708.341	0.0188151
708.419	0.0187866
708.497	0.0187157
708.575	0.0188979
708.654	0.0188884
708.732	0.0187953
708.810	0.0186325
708.888	0.0186267
708.966	0.0186485
709.044	0.0185764
709.122	0.0183804
709.200	0.0183215
709.279	0.0179802
709.357	0.0176888
709.435	0.0176082
709.513	0.0171285
709.591	0.0168591
709.669	0.0166912
709.747	0.0161925
709.825	0.0160047
709.904	0.0158832
709.982	0.0157748
710.060	0.0156167
710.138	0.0156499
710.216	0.0155617
710.294	0.0156927
710.372	0.0157174
710.450	0.0157139
710.529	0.0158070
710.607	0.0157632
710.685	0.0157361
710.763	0.0156408
710.841	0.0155119
710.919	0.0154700
710.997	0.0154330
711.075	0.0151310
711.154	0.0150447
711.232	0.0151000
711.310	0.0147055
711.388	0.0145908
711.466	0.0146377
711.544	0.0144389
711.622	0.0143491
711.700	0.0144398
711.779	0.0142536
711.857	0.0143399
711.935	0.0143936
712.013	0.0145947
712.091	0.0147951
712.169	0.0149586
712.247	0.0152061
712.325	0.0155016
712.404	0.0158750
712.482	0.0161581
712.560	0.0166345
712.638	0.0169447
712.716	0.0172630
712.794	0.0176720
712.872	0.0178408
712.950	0.0179140
713.029	0.0181194
713.107	0.0181445
713.185	0.0181556
713.263	0.0180344
713.341	0.0180077
713.419	0.0178398
713.497	0.0176277
713.575	0.0174487
713.654	0.0173820
713.732	0.0172635
713.810	0.0169966
713.888	0.0168948
713.966	0.0168906
714.044	0.0170142
714.122	0.0171355
714.200	0.0173847
714.279	0.0174654
714.357	0.0176359
714.435	0.0179002
714.513	0.0179690
714.591	0.0181775
714.669	0.0182580
714.747	0.0183524
714.825	0.0183197
714.904	0.0184171
714.982	0.0181274
715.060	0.0180973
715.138	0.0179816
715.216	0.0178467
715.294	0.0176320
715.372	0.0173804
715.450	0.0172677
715.529	0.0170397
715.607	0.0168554
715.685	0.0167493
715.763	0.0165929
715.841	0.0164472
715.919	0.0164825
715.997	0.0163975
716.075	0.0162936
716.154	0.0162783
716.232	0.0162836
716.310	0.0162183
716.388	0.0161325
716.466	0.0160428
716.544	0.0159789
716.622	0.0157559
716.700	0.0158280
716.779	0.0154505
716.857	0.0153777
716.935	0.0152675
717.013	0.0149446
717.091	0.0147781
717.169	0.0146772
717.247	0.0146488
717.325	0.0145639
717.404	0.0145665
717.482	0.0147659
717.560	0.0146559
717.638	0.0148308
717.716	0.0147816
717.794	0.0149923
717.872	0.0151835
717.950	0.0153062
718.029	0.0155186
718.107	0.0157925
718.185	0.0158687
718.263	0.0160134
718.341	0.0162951
718.419	0.0163865
718.497	0.0165432
718.575	0.0167458
718.654	0.0169949
718.732	0.0170199
718.810	0.0172121
718.888	0.0174318
718.966	0.0175806
719.044	0.0175520
719.122	0.0178545
719.200	0.0179345
719.279	0.0179557
719.357	0.0180171
719.435	0.0180579
719.513	0.0179581
719.591	0.0180358
719.669	0.0179552
719.747	0.0177332
719.825	0.0176550
719.904	0.0176259
719.982	0.0172799
720.060	0.0172096
720.138	0.0170515
720.216	0.0168082
720.294	0.0167189
720.372	0.0167371
720.450	0.0167206
720.529	0.0165932
720.607	0.0165572
720.685	0.0164868
720.763	0.0165771
720.841	0.0166065
720.919	0.0164446
720.997	0.0165405
721.075	0.0165956
721.154	0.0165997
721.232	0.0167123
721.310	0.0166717
721.388	0.0166309
721.466	0.0167490
721.544	0.0165073
721.622	0.0164879
721.700	0.0165558
721.779	0.0165728
721.857	0.0165831
721.935	0.0166087
722.013	0.0165986
722.091	0.0166965
722.169	0.0167346
722.247	0.0166061
722.325	0.0167487
722.404	0.0167589
722.482	0.0168828
722.560	0.0167078
722.638	0.0168833
722.716	0.0169545
722.794	0.0169049
722.872	0.0170336
722.950	0.0169675
723.029	0.0169830
723.107	0.0168266
723.185	0.0168663
723.263	0.0167310
723.341	0.0165501
723.419	0.0163836
723.497	0.0163327
723.575	0.0161414
723.654	0.0160416
723.732	0.0158537
723.810	0.0155869
723.888	0.0156044
723.966	0.0157170
724.044	0.0156718
724.122	0.0155412
724.200	0.0156423
724.279	0.0157368
724.357	0.0156431
724.435	0.0156607
724.513	0.0157889
724.591	0.0158046
724.669	0.0158949
724.747	0.0158637
724.825	0.0159187
724.904	0.0159293
724.982	0.0159958
725.060	0.0160281
725.138	0.0159605
725.216	0.0160057
725.294	0.0160339
725.372	0.0158257
725.450	0.0158510
725.529	0.0159898
725.607	0.0159595
725.685	0.0161298
725.763	0.0160860
725.841	0.0161381
725.919	0.0163043
725.997	0.0165091
726.075	0.0167180
726.154	0.0167400
726.232	0.0170294
726.310	0.0170871
726.388	0.0174426
726.466	0.0175777
726.544	0.0176693
726.622	0.0178140
726.700	0.0177129
726.779	0.0178527
726.857	0.0179062
726.935	0.0179527
727.013	0.0178431
727.091	0.0178490
727.169	0.0177052
727.247	0.0176008
727.325	0.0173841
727.404	0.0172964
727.482	0.0172587
727.560	0.0172430
727.638	0.0170706
727.716	0.0170312
727.794	0.0169389
727.872	0.0169254
727.950	0.0168141
728.029	0.0169259
728.107	0.0170043
728.185	0.0169727
728.263	0.0169639
728.341	0.0169140
728.419	0.0170806
728.497	0.0170219
728.575	0.0168832
728.654	0.0169280
728.732	0.0167977
728.810	0.0169124
728.888	0.0167398
728.966	0.0166967
729.044	0.0165645
729.122	0.0165035
729.200	0.0163170
729.279	0.0163496
729.357	0.0162784
729.435	0.0162568
729.513	0.0162643
729.591	0.0159628
729.669	0.0160672
729.747	0.0158598
729.825	0.0158945
729.904	0.0156774
729.982	0.0157493
730.060	0.0157623
730.138	0.0157693
730.216	0.0156750
730.294	0.0156360
730.372	0.0156601
730.450	0.0156590
730.529	0.0157404
730.607	0.0156537
730.685	0.0158598
730.763	0.0159228
730.841	0.0158966
730.919	0.0159787
730.997	0.0160952
731.075	0.0162624
731.154	0.0162281
731.232	0.0162158
731.310	0.0162859
731.388	0.0163499
731.466	0.0164548
731.544	0.0165922
731.622	0.0166973
731.700	0.0165111
731.779	0.0164835
731.857	0.0164102
731.935	0.0165975
732.013	0.0166254
732.091	0.0166624
732.169	0.0165926
732.247	0.0165611
732.325	0.0166908
732.404	0.0167435
732.482	0.0169086
732.560	0.0167078
732.638	0.0169980
732.716	0.0169751
732.794	0.0168888
732.872	0.0170824
732.950	0.0173272
733.029	0.0173804
733.107	0.0174245
733.185	0.0174482
733.263	0.0175777
733.341	0.0175617
733.419	0.0174843
733.497	0.0176580
733.575	0.0174355
733.654	0.0173845
733.732	0.0174454
733.810	0.0173015
733.888	0.0171634
733.966	0.0170466
734.044	0.0169930
734.122	0.0167937
734.200	0.0166122
734.279	0.0165357
734.357	0.0163783
734.435	0.0163557
734.513	0.0163786
734.591	0.0161713
734.669	0.0160108
734.747	0.0160980
734.825	0.0160812
734.904	0.0158276
734.982	0.0160416
735.060	0.0161855
735.138	0.0161436
735.216	0.0162463
735.294	0.0163317
735.372	0.0163872
735.450	0.0166270
735.529	0.0166298
735.607	0.0169169
735.685	0.0168996
735.763	0.0170814
735.841	0.0170418
735.919	0.0168403
735.997	0.0170106
736.075	0.0169685
736.154	0.0168854
736.232	0.0168716
736.310	0.0167314
736.388	0.0165439
736.466	0.0166465
736.544	0.0165332
736.622	0.0164402
736.700	0.0163238
736.779	0.0163819
736.857	0.0163457
736.935	0.0163097
737.013	0.0162483
737.091	0.0163100
737.169	0.0163351
737.247	0.0164355
737.325	0.0164459
737.404	0.0165817
737.482	0.0164699
737.560	0.0166794
737.638	0.0167020
737.716	0.0164529
737.794	0.0165524
737.872	0.0165865
737.950	0.0165090
738.029	0.0163715
738.107	0.0162785
738.185	0.0161073
738.263	0.0161539
738.341	0.0160423
738.419	0.0159608
738.497	0.0159038
738.575	0.0159219
738.654	0.0158360
738.732	0.0159131
738.810	0.0159362
738.888	0.0161160
738.966	0.0161162
739.044	0.0162409
739.122	0.0163484
739.200	0.0163676
739.279	0.0167776
739.357	0.0166994
739.435	0.0168221
739.513	0.0170686
739.591	0.0168864
739.669	0.0170513
739.747	0.0171800
739.825	0.0170326
739.904	0.0171296
739.982	0.0171715
740.060	0.0172199
740.138	0.0170831
740.216	0.0170099
740.294	0.0170174
740.372	0.0170670
740.450	0.0170189
740.529	0.0169285
740.607	0.0168653
740.685	0.0168430
740.763	0.0167885
740.841	0.0167648
740.919	0.0168082
740.997	0.0167691
741.075	0.0168984
741.154	0.0170335
741.232	0.0169852
741.310	0.0169733
741.388	0.0170116
741.466	0.0170298
741.544	0.0170150
741.622	0.0171316
741.700	0.0171948
741.779	0.0170013
741.857	0.0168647
741.935	0.0170099
742.013	0.0168468
742.091	0.0167779
742.169	0.0168282
742.247	0.0166588
742.325	0.0167154
742.404	0.0167318
742.482	0.0166068
742.560	0.0167021
742.638	0.0168009
742.716	0.0166631
742.794	0.0167430
742.872	0.0167457
742.950	0.0166978
743.029	0.0166897
743.107	0.0164774
743.185	0.0164462
743.263	0.0163710
743.341	0.0162581
743.419	0.0161332
743.497	0.0161610
743.575	0.0160728
743.654	0.0160461
743.732	0.0158678
743.810	0.0159353
743.888	0.0160397
743.966	0.0159042
744.044	0.0159608
744.122	0.0160538
744.200	0.0159682
744.279	0.0159831
744.357	0.0159884
744.435	0.0160712
744.513	0.0160184
744.591	0.0159871
744.669	0.0161122
744.747	0.0162179
744.825	0.0161009
744.904	0.0162175
744.982	0.0162763
745.060	0.0164325
745.138	0.0163177
745.216	0.0164621
745.294	0.0164589
745.372	0.0163475
745.450	0.0164405
745.529	0.0165932
745.607	0.0166584
745.685	0.0166579
745.763	0.0166190
745.841	0.0166096
745.919	0.0168394
745.997	0.0169559
746.075	0.0168466
746.154	0.0171000
746.232	0.0171059
746.310	0.0171087
746.388	0.0172098
746.466	0.0171115
746.544	0.0172296
746.622	0.0171317
746.700	0.0171090
746.779	0.0171310
746.857	0.0171656
746.935	0.0170261
747.013	0.0166336
747.091	0.0166904
747.169	0.0166380
747.247	0.0165604
747.325	0.0165539
747.404	0.0165443
747.482	0.0165675
747.560	0.0164695
747.638	0.0165303
747.716	0.0163918
747.794	0.0164626
747.872	0.0166162
747.950	0.0166665
748.029	0.0166885
748.107	0.0168443
748.185	0.0169473
748.263	0.0168703
748.341	0.0169334
748.419	0.0169075
748.497	0.0170078
748.575	0.0170290
748.654	0.0170629
748.732	0.0169952
748.810	0.0169495
748.888	0.0168636
748.966	0.0167880
749.044	0.0164517
749.122	0.0166586
749.200	0.0166839
749.279	0.0165949
749.357	0.0163847
749.435	0.0163155
749.513	0.0162978
749.591	0.0161349
749.669	0.0161453
749.747	0.0163621
749.825	0.0161398
749.904	0.0161523
749.982	0.0160967
750.060	0.0161684
750.138	0.0162759
750.216	0.0161758
750.294	0.0163793
750.372	0.0163275
750.450	0.0165378
750.529	0.0166048
750.607	0.0165809
750.685	0.0165208
750.763	0.0164677
750.841	0.0167383
750.919	0.0167748
750.997	0.0167599
751.075	0.0167197
751.154	0.0168467
751.232	0.0168314
751.310	0.0166864
751.388	0.0167723
751.466	0.0168069
751.544	0.0166533
751.622	0.0168712
751.700	0.0166602
751.779	0.0165582
751.857	0.0165666
751.935	0.0166160
752.013	0.0165202
752.091	0.0164011
752.169	0.0162148
752.247	0.0162543
752.325	0.0161307
752.404	0.0160967
752.482	0.0159763
752.560	0.0161098
752.638	0.0159399
752.716	0.0157752
752.794	0.0159615
752.872	0.0159133
752.950	0.0159469
753.029	0.0157772
753.107	0.0159882
753.185	0.0158656
753.263	0.0159928
753.341	0.0161632
753.419	0.0161043
753.497	0.0161581
753.575	0.0163503
753.654	0.0162958
753.732	0.0163577
753.810	0.0163236
753.888	0.0165462
753.966	0.0165820
754.044	0.0166580
754.122	0.0166758
754.200	0.0166801
754.279	0.0168480
754.357	0.0167953
754.435	0.0167669
754.513	0.0169217
754.591	0.0169778
754.669	0.0170192
754.747	0.0169775
754.825	0.0171818
754.904	0.0170967
754.982	0.0169485
755.060	0.0172161
755.138	0.0171402
755.216	0.0170987
755.294	0.0171464
755.372	0.0171972
755.450	0.0171525
755.529	0.0170486
755.607	0.0169960
755.685	0.0170676
755.763	0.0169661
755.841	0.0169474
755.919	0.0169791
755.997	0.0168522
756.075	0.0168675
756.154	0.0168227
756.232	0.0167014
756.310	0.0166936
756.388	0.0166297
756.466	0.0167042
756.544	0.0167163
756.622	0.0165971
756.700	0.0164788
756.779	0.0164196
756.857	0.0165005
756.935	0.0165487
757.013	0.0165337
757.091	0.0167039
757.169	0.0167133
757.247	0.0165334
757.325	0.0167027
757.404	0.0168151
757.482	0.0166241
757.560	0.0166532
757.638	0.0167177
757.716	0.0166344
757.794	0.0165734
757.872	0.0165381
757.950	0.0165322
758.029	0.0163801
758.107	0.0163597
758.185	0.0163023
758.263	0.0162246
758.341	0.0161347
758.419	0.0160297
758.497	0.0160004
758.575	0.0158638
758.654	0.0159473
758.732	0.0160338
758.810	0.0159316
758.888	0.0159808
758.966	0.0160146
759.044	0.0160513
759.122	0.0161459
759.200	0.0162371
759.279	0.0162559
759.357	0.0164085
759.435	0.0163942
759.513	0.0163948
759.591	0.0165450
759.669	0.0165201
759.747	0.0165607
759.825	0.0167004
759.904	0.0167449
759.982	0.0167808
760.060	0.0167397
760.138	0.0167692
760.216	0.0167920
760.294	0.0169791
760.372	0.0169925
760.450	0.0169057
760.529	0.0169466
760.607	0.0169484
760.685	0.0169433
760.763	0.0168652
760.841	0.0169350
760.919	0.0167020
760.997	0.0166967
761.075	0.0166768
761.154	0.0167150
761.232	0.0164931
761.310	0.0164261
761.388	0.0163731
761.466	0.0164650
761.544	0.0163364
761.622	0.0163072
761.700	0.0162847
761.779	0.0162387
761.857	0.0164002
761.935	0.0161926
762.013	0.0163136
762.091	0.0163953
762.169	0.0163942
762.247	0.0165456
762.325	0.0166754
762.404	0.0165313
762.482	0.0165730
762.560	0.0168565
762.638	0.0169154
762.716	0.0167818
762.794	0.0168230
762.872	0.0169386
762.950	0.0168629
763.029	0.0170010
763.107	0.0169749
763.185	0.0171616
763.263	0.0169660
763.341	0.0170496
763.419	0.0169785
763.497	0.0170963
763.575	0.0170482
763.654	0.0170029
763.732	0.0170809
763.810	0.0170038
763.888	0.0169366
763.966	0.0170154
764.044	0.0169746
764.122	0.0170510
764.200	0.0169601
764.279	0.0168602
764.357	0.0169553
764.435	0.0168120
764.513	0.0169314
764.591	0.0168623
764.669	0.0168811
764.747	0.0167594
764.825	0.0167296
764.904	0.0168287
764.982	0.0165652
765.060	0.0165649
765.138	0.0166132
765.216	0.0164988
765.294	0.0162267
765.372	0.0162106
765.450	0.0163008
765.529	0.0161241
765.607	0.0161120
765.685	0.0160099
765.763	0.0160355
765.841	0.0160046
765.919	0.0159792
765.997	0.0160763
766.075	0.0159345
766.154	0.0159713
766.232	0.0160044
766.310	0.0159525
766.388	0.0159209
766.466	0.0161135
766.544	0.0160991
766.622	0.0161044
766.700	0.0160308
766.779	0.0160771
766.857	0.0161906
766.935	0.0159615
767.013	0.0160256
767.091	0.0160542
767.169	0.0162054
767.247	0.0161184
767.325	0.0162216
767.404	0.0164860
767.482	0.0162341
767.560	0.0163655
767.638	0.0165276
767.716	0.0165721
767.794	0.0166207
767.872	0.0167332
767.950	0.0167193
768.029	0.0166956
768.107	0.0168204
768.185	0.0167599
768.263	0.0168141
768.341	0.0169551
768.419	0.0168941
768.497	0.0167701
768.575	0.0168301
768.654	0.0168756
768.732	0.0168961
768.810	0.0168507
768.888	0.0168700
768.966	0.0168780
769.044	0.0167458
769.122	0.0168158
769.200	0.0168175
769.279	0.0169135
769.357	0.0169376
769.435	0.0169137
769.513	0.0169619
769.591	0.0169888
769.669	0.0169861
769.747	0.0169041
769.825	0.0169194
769.904	0.0168281
769.982	0.0169844
770.060	0.0168257
770.138	0.0168741
770.216	0.0167447
770.294	0.0167011
770.372	0.0168794
770.450	0.0169039
770.529	0.0167127
770.607	0.0165919
770.685	0.0165157
770.763	0.0164895
770.841	0.0164112
770.919	0.0162246
770.997	0.0163462
771.075	0.0165084
771.154	0.0164090
771.232	0.0164120
771.310	0.0163943
771.388	0.0164039
771.466	0.0165853
771.544	0.0164730
771.622	0.0164664
771.700	0.0165814
771.779	0.0166016
771.857	0.0165343
771.935	0.0165352
772.013	0.0167280
772.091	0.0167534
772.169	0.0166927
772.247	0.0166306
772.325	0.0167612
772.404	0.0165950
772.482	0.0166137
772.560	0.0166337
772.638	0.0165804
772.716	0.0164845
772.794	0.0166557
772.872	0.0163144
772.950	0.0164498
773.029	0.0164556
773.107	0.0163943
773.185	0.0162084
773.263	0.0162959
773.341	0.0162759
773.419	0.0162005
773.497	0.0161913
773.575	0.0164951
773.654	0.0163620
773.732	0.0163898
773.810	0.0164455
773.888	0.0166099
773.966	0.0167432
774.044	0.0168920
774.122	0.0167918
774.200	0.0167603
774.279	0.0169190
774.357	0.0168496
774.435	0.0167723
774.513	0.0166264
774.591	0.0166075
774.669	0.0166682
774.747	0.0165194
774.825	0.0163736
774.904	0.0161308
774.982	0.0161809
775.060	0.0161999
775.138	0.0160297
775.216	0.0159062
775.294	0.0158191
775.372	0.0157432
775.450	0.0156506
775.529	0.0155208
775.607	0.0155215
775.685	0.0154508
775.763	0.0153475
775.841	0.0153870
775.919	0.0154520
775.997	0.0156170
776.075	0.0155349
776.154	0.0157389
776.232	0.0159653
776.310	0.0162260
776.388	0.0164517
776.466	0.0167311
776.544	0.0169637
776.622	0.0171730
776.700	0.0173513
776.779	0.0175114
776.857	0.0176454
776.935	0.0178542
777.013	0.0181513
777.091	0.0183338
777.169	0.0183440
777.247	0.0185209
777.325	0.0184177
777.404	0.0184670
777.482	0.0185402
777.560	0.0183543
777.638	0.0182286
777.716	0.0179946
777.794	0.0179459
777.872	0.0178209
777.950	0.0173342
778.029	0.0170801
778.107	0.0170219
778.185	0.0165699
778.263	0.0162188
778.341	0.0159974
778.419	0.0157144
778.497	0.0154736
778.575	0.0153362
778.654	0.0149769
778.732	0.0150249
778.810	0.0149318
778.888	0.0149245
778.966	0.0148315
779.044	0.0149078
779.122	0.0148025
779.200	0.0151559
779.279	0.0151341
779.357	0.0150715
779.435	0.0153761
779.513	0.0153983
779.591	0.0155732
779.669	0.0158334
779.747	0.0159194
779.825	0.0161894
779.904	0.0163515
779.982	0.0165882
780.060	0.0167892
780.138	0.0170561
780.216	0.0172423
780.294	0.0174314
780.372	0.0175286
780.450	0.0175795
780.529	0.0177477
780.607	0.0179028
780.685	0.0178793
780.763	0.0178211
780.841	0.0178824
780.919	0.0179485
780.997	0.0178532
781.075	0.0176722
781.154	0.0176608
781.232	0.0174777
781.310	0.0172960
781.388	0.0170494
781.466	0.0169270
781.544	0.0166631
781.622	0.0163652
781.700	0.0160670
781.779	0.0159553
781.857	0.0157301
781.935	0.0155041
782.013	0.0152405
782.091	0.0151003
782.169	0.0150215
782.247	0.0147955
782.325	0.0147879
782.404	0.0147140
782.482	0.0148383
782.560	0.0149226
782.638	0.0148994
782.716	0.0151803
782.794	0.0152638
782.872	0.0153575
782.950	0.0155756
783.029	0.0157733
783.107	0.0158532
783.185	0.0159816
783.263	0.0162481
783.341	0.0164021
783.419	0.0164908
783.497	0.0167267
783.575	0.0169978
783.654	0.0171231
783.732	0.0172368
783.810	0.0174568
783.888	0.0176600
783.966	0.0176704
784.044	0.0178654
784.122	0.0180879
784.200	0.0181656
784.279	0.0181340
784.357	0.0182415
784.435	0.0181573
784.513	0.0182172
784.591	0.0181483
784.669	0.0181307
784.747	0.0180614
784.825	0.0179591
784.904	0.0176561
784.982	0.0175546
785.060	0.0172881
785.138	0.0171651
785.216	0.0171867
785.294	0.0168640
785.372	0.0166811
785.450	0.0165759
785.529	0.0163374
785.607	0.0163419
785.685	0.0159684
785.763	0.0160370
785.841	0.0160607
785.919	0.0159003
785.997	0.0158653
786.075	0.0159237
786.154	0.0158727
786.232	0.0158978
786.310	0.0158984
786.388	0.0160061
786.466	0.0159196
786.544	0.0159052
786.622	0.0158276
786.700	0.0157995
786.779	0.0158866
786.857	0.0161349
786.935	0.0159188
787.013	0.0160809
787.091	0.0160662
787.169	0.0159850
787.247	0.0159526
787.325	0.0160928
787.404	0.0162067
787.482	0.0162084
787.560	0.0163491
787.638	0.0164896
787.716	0.0164413
787.794	0.0164720
787.872	0.0165673
787.950	0.0166068
788.029	0.0165675
788.107	0.0167656
788.185	0.0168384
788.263	0.0168684
788.341	0.0169251
788.419	0.0167996
788.497	0.0167789
788.575	0.0168411
788.654	0.0169254
788.732	0.0169868
788.810	0.0168889
788.888	0.0169492
788.966	0.0167381
789.044	0.0168053
789.122	0.0168381
789.200	0.0167292
789.279	0.0166779
789.357	0.0168486
789.435	0.0167088
789.513	0.0167450
789.591	0.0167073
789.669	0.0166618
789.747	0.0167178
789.825	0.0166852
789.904	0.0167417
789.982	0.0165988
790.060	0.0165244
790.138	0.0166444
790.216	0.0165950
790.294	0.0163565
790.372	0.0165073
790.450	0.0165023
790.529	0.0163725
790.607	0.0163667
790.685	0.0163171
790.763	0.0162463
790.841	0.0163134
790.919	0.0163205
790.997	0.0162434
791.075	0.0161208
791.154	0.0163116
791.232	0.0163155
791.310	0.0162000
791.388	0.0163551
791.466	0.0162527
791.544	0.0162222
791.622	0.0161329
791.700	0.0162788
791.779	0.0162435
791.857	0.0162189
791.935	0.0162544
792.013	0.0162949
792.091	0.0162788
792.169	0.0163078
792.247	0.0164893
792.325	0.0164566
792.404	0.0165188
792.482	0.0165488
792.560	0.0165980
792.638	0.0167807
792.716	0.0168991
792.794	0.0168804
792.872	0.0169923
792.950	0.0170316
793.029	0.0171539
793.107	0.0170892
793.185	0.0171272
793.263	0.0171585
793.341	0.0172433
793.419	0.0171600
793.497	0.0171436
793.575	0.0171008
793.654	0.0171386
793.732	0.0169830
793.810	0.0170032
793.888	0.0170197
793.966	0.0167512
794.044	0.0168053
794.122	0.0168536
794.200	0.0167367
794.279	0.0167171
794.357	0.0168236
794.435	0.0166000
794.513	0.0165321
794.591	0.0167305
794.669	0.0165961
794.747	0.0165422
794.825	0.0165823
794.904	0.0164424
794.982	0.0164834
795.060	0.0165550
795.138	0.0166127
795.216	0.0164333
795.294	0.0166202
795.372	0.0164946
795.450	0.0163006
795.529	0.0163561
795.607	0.0163123
795.685	0.0162364
795.763	0.0160755
795.841	0.0161129
795.919	0.0158922
795.997	0.0159749
796.075	0.0160877
796.154	0.0160318
796.232	0.0160187
796.310	0.0159045
796.388	0.0159156
796.466	0.0159154
796.544	0.0159247
796.622	0.0159856
796.700	0.0159418
796.779	0.0161007
796.857	0.0159920
796.935	0.0160389
797.013	0.0160748
797.091	0.0161549
797.169	0.0161632
797.247	0.0162288
797.325	0.0162429
797.404	0.0163789
797.482	0.0163216
797.560	0.0162803
797.638	0.0163136
797.716	0.0164376
797.794	0.0163930
797.872	0.0164240
797.950	0.0165537
798.029	0.0164542
798.107	0.0164752
798.185	0.0164590
798.263	0.0165946
798.341	0.0167178
798.419	0.0166176
798.497	0.0168593
798.575	0.0167452
798.654	0.0167039
798.732	0.0168082
798.810	0.0168982
798.888	0.0170058
798.966	0.0170716
799.044	0.0171440
799.122	0.0170477
799.200	0.0171667
799.279	0.0171512
799.357	0.0173800
799.435	0.0173700
799.513	0.0173560
799.591	0.0174179
799.669	0.0174452
799.747	0.0173277
799.825	0.0174097
799.904	0.0173386
799.982	0.0171570
800.060	0.0172053
800.138	0.0171806
800.216	0.0171042
800.294	0.0171426
800.372	0.0171102
800.450	0.0170457
800.529	0.0169113
800.607	0.0167825
800.685	0.0168414
800.763	0.0167812
800.841	0.0166702
800.919	0.0164951
800.997	0.0166460
801.075	0.0164363
801.154	0.0164166
801.232	0.0163698
801.310	0.0163203
801.388	0.0162793
801.466	0.0162592
801.544	0.0163187
801.622	0.0160758
801.700	0.0160779
801.779	0.0161421
801.857	0.0161095
801.935	0.0163213
802.013	0.0161724
802.091	0.0161388
802.169	0.0161543
802.247	0.0161414
802.325	0.0160435
802.404	0.0159106
802.482	0.0158802
802.560	0.0160626
802.638	0.0159807
802.716	0.0157443
802.794	0.0157605
802.872	0.0158507
802.950	0.0158371
803.029	0.0157441
803.107	0.0157538
803.185	0.0158405
803.263	0.0157839
803.341	0.0157212
803.419	0.0158115
803.497	0.0158990
803.575	0.0160250
803.654	0.0160799
803.732	0.0161250
803.810	0.0161832
803.888	0.0162827
803.966	0.0165018
804.044	0.0164753
804.122	0.0166080
804.200	0.0166658
804.279	0.0166815
804.357	0.0167628
804.435	0.0167674
804.513	0.0169551
804.591	0.0170802
804.669	0.0170119
804.747	0.0172572
804.825	0.0173510
804.904	0.0172817
804.982	0.0171103
805.060	0.0172997
805.138	0.0173821
805.216	0.0173326
805.294	0.0174873
805.372	0.0173649
805.450	0.0171278
805.529	0.0173223
805.607	0.0172392
805.685	0.0170425
805.763	0.0170482
805.841	0.0171655
805.919	0.0171397
805.997	0.0169511
806.075	0.0168814
806.154	0.0167146
806.232	0.0166882
806.310	0.0166816
806.388	0.0166137
806.466	0.0166208
806.544	0.0166463
806.622	0.0164011
806.700	0.0165199
806.779	0.0165299
806.857	0.0164484
806.935	0.0165623
807.013	0.0166129
807.091	0.0164436
807.169	0.0165047
807.247	0.0164812
807.325	0.0165409
807.404	0.0165191
807.482	0.0166152
807.560	0.0165061
807.638	0.0165768
807.716	0.0164811
807.794	0.0164883
807.872	0.0164067
807.950	0.0165381
808.029	0.0165419
808.107	0.0164165
808.185	0.0164304
808.263	0.0163364
808.341	0.0163319
808.419	0.0162629
808.497	0.0162969
808.575	0.0162545
808.654	0.0163649
808.732	0.0163007
808.810	0.0163664
808.888	0.0164122
808.966	0.0162339
809.044	0.0162737
809.122	0.0163076
809.200	0.0162531
809.279	0.0164547
809.357	0.0164796
809.435	0.0163979
809.513	0.0165418
809.591	0.0166017
809.669	0.0166798
809.747	0.0165168
809.825	0.0166479
809.904	0.0167722
809.982	0.0168606
810.060	0.0169770
810.138	0.0170366
810.216	0.0172151
810.294	0.0171951
810.372	0.0172282
810.450	0.0172282
810.529	0.0172586
810.607	0.0171307
810.685	0.0173075
810.763	0.0173238
810.841	0.0171609
810.919	0.0172074
810.997	0.0169589
811.075	0.0169440
811.154	0.0168047
811.232	0.0169047
811.310	0.0169079
811.388	0.0167477
811.466	0.0166049
811.544	0.0165099
811.622	0.0164114
811.700	0.0164044
811.779	0.0162724
811.857	0.0160883
811.935	0.0162065
812.013	0.0161366
812.091	0.0160858
812.169	0.0160755
812.247	0.0161308
812.325	0.0159593
812.404	0.0160512
812.482	0.0160066
812.560	0.0159727
812.638	0.0161670
812.716	0.0163012
812.794	0.0162596
812.872	0.0162997
812.950	0.0162791
813.029	0.0163307
813.107	0.0164435
813.185	0.0165966
813.263	0.0167064
813.341	0.0165923
813.419	0.0166571
813.497	0.0168040
813.575	0.0168092
813.654	0.0167310
813.732	0.0167445
813.810	0.0167419
813.888	0.0166966
813.966	0.0168073
814.044	0.0167055
814.122	0.0166952
814.200	0.0167006
814.279	0.0167095
814.357	0.0167682
814.435	0.0167654
814.513	0.0167408
814.591	0.0166809
814.669	0.0165907
814.747	0.0166759
814.825	0.0168103
814.904	0.0165990
814.982	0.0164639
815.060	0.0165691
815.138	0.0166235
815.216	0.0167261
815.294	0.0167039
815.372	0.0166017
815.450	0.0168410
815.529	0.0167498
815.607	0.0166498
815.685	0.0168768
815.763	0.0167759
815.841	0.0167021
815.919	0.0168124
815.997	0.0167569
816.075	0.0168656
816.154	0.0168900
816.232	0.0170045
816.310	0.0169850
816.388	0.0168466
816.466	0.0169188
816.544	0.0168669
816.622	0.0169035
816.700	0.0168636
816.779	0.0168593
816.857	0.0168890
816.935	0.0168192
817.013	0.0168391
817.091	0.0168904
817.169	0.0167554
817.247	0.0167159
817.325	0.0166708
817.404	0.0167534
817.482	0.0166057
817.560	0.0165098
817.638	0.0164856
817.716	0.0165183
817.794	0.0164552
817.872	0.0163367
817.950	0.0164967
818.029	0.0164445
818.107	0.0163624
818.185	0.0163307
818.263	0.0164085
818.341	0.0162323
818.419	0.0162397
818.497	0.0163602
818.575	0.0161987
818.654	0.0163220
818.732	0.0163728
818.810	0.0162685
818.888	0.0163256
818.966	0.0163390
819.044	0.0164231
819.122	0.0162703
819.200	0.0163616
819.279	0.0163812
819.357	0.0165062
819.435	0.0164403
819.513	0.0164008
819.591	0.0164478
819.669	0.0164503
819.747	0.0164853
819.825	0.0165359
819.904	0.0163948
819.982	0.0163613
820.060	0.0163757
820.138	0.0164465
820.216	0.0164996
820.294	0.0162875
820.372	0.0163464
820.450	0.0164234
820.529	0.0163202
820.607	0.0164133
820.685	0.0163830
820.763	0.0163992
820.841	0.0163705
820.919	0.0162944
820.997	0.0163454
821.075	0.0164727
821.154	0.0163773
821.232	0.0163243
821.310	0.0165187
821.388	0.0165174
821.466	0.0165559
821.544	0.0165974
821.622	0.0167522
821.700	0.0167367
821.779	0.0169095
821.857	0.0169733
821.935	0.0169239
822.013	0.0169755
822.091	0.0170995
822.169	0.0169096
822.247	0.0170568
822.325	0.0171526
822.404	0.0170158
822.482	0.0170741
822.560	0.0170047
822.638	0.0169510
822.716	0.0170453
822.794	0.0169868
822.872	0.0170473
822.950	0.0171361
823.029	0.0168834
823.107	0.0170258
823.185	0.0169784
823.263	0.0169477
823.341	0.0168758
823.419	0.0167509
823.497	0.0168663
823.575	0.0169067
823.654	0.0167313
823.732	0.0166091
823.810	0.0164993
823.888	0.0163306
823.966	0.0163255
824.044	0.0163634
824.122	0.0163165
824.200	0.0162322
824.279	0.0163073
824.357	0.0160896
824.435	0.0159512
824.513	0.0161106
824.591	0.0159885
824.669	0.0159615
824.747	0.0160896
824.825	0.0161665
824.904	0.0161550
824.982	0.0161873
825.060	0.0162565
825.138	0.0162892
825.216	0.0164046
825.294	0.0164005
825.372	0.0166479
825.450	0.0165587
825.529	0.0166053
825.607	0.0166845
825.685	0.0167751
825.763	0.0168203
825.841	0.0168697
825.919	0.0168671
825.997	0.0168440
826.075	0.0169765
826.154	0.0168872
826.232	0.0168516
826.310	0.0169454
826.388	0.0169050
826.466	0.0167986
826.544	0.0168765
826.622	0.0168473
826.700	0.0166965
826.779	0.0166090
826.857	0.0167211
826.935	0.0166615
827.013	0.0166096
827.091	0.0166362
827.169	0.0165065
827.247	0.0164718
827.325	0.0165090
827.404	0.0163893
827.482	0.0163943
827.560	0.0163951
827.638	0.0164140
827.716	0.0162466
827.794	0.0161421
827.872	0.0161271
827.950	0.0162601
828.029	0.0159959
828.107	0.0161607
828.185	0.0161652
828.263	0.0161600
828.341	0.0160675
828.419	0.0159464
828.497	0.0162387
828.575	0.0160263
828.654	0.0161202
828.732	0.0161790
828.810	0.0163064
828.888	0.0163090
828.966	0.0164742
829.044	0.0165496
829.122	0.0165238
829.200	0.0165610
829.279	0.0168650
829.357	0.0168885
829.435	0.0168382
829.513	0.0168800
829.591	0.0169646
829.669	0.0169758
829.747	0.0169728
829.825	0.0168792
829.904	0.0169623
829.982	0.0169434
830.060	0.0170390
830.138	0.0169457
830.216	0.0170695
830.294	0.0170302
830.372	0.0171092
830.450	0.0168962
830.529	0.0171042
830.607	0.0171318
830.685	0.0170164
830.763	0.0169348
830.841	0.0170440
830.919	0.0170836
830.997	0.0170268
831.075	0.0170554
831.154	0.0169508
831.232	0.0168675
831.310	0.0168340
831.388	0.0167529
831.466	0.0166399
831.544	0.0166309
831.622	0.0165813
831.700	0.0167432
831.779	0.0165651
831.857	0.0163580
831.935	0.0164430
832.013	0.0163944
832.091	0.0163197
832.169	0.0164551
832.247	0.0164057
832.325	0.0164536
832.404	0.0163976
832.482	0.0163819
832.560	0.0162828
832.638	0.0161900
832.716	0.0162695
832.794	0.0161341
832.872	0.0162223
832.950	0.0162717
833.029	0.0161526
833.107	0.0162807
833.185	0.0162558
833.263	0.0161857
833.341	0.0162775
833.419	0.0162775
833.497	0.0162643
833.575	0.0161687
833.654	0.0164238
833.732	0.0164757
833.810	0.0164641
833.888	0.0163802
833.966	0.0165052
834.044	0.0164899
834.122	0.0165960
834.200	0.0165511
834.279	0.0165317
834.357	0.0165656
834.435	0.0165685
834.513	0.0166386
834.591	0.0167442
834.669	0.0166039
834.747	0.0166752
834.825	0.0167620
834.904	0.0167160
834.982	0.0166178
835.060	0.0165347
835.138	0.0166395
835.216	0.0167044
835.294	0.0166898
835.372	0.0166642
835.450	0.0166560
835.529	0.0168233
835.607	0.0166754
835.685	0.0166795
835.763	0.0166419
835.841	0.0167688
835.919	0.0167594
835.997	0.0168600
836.075	0.0168805
836.154	0.0168896
836.232	0.0168401
836.310	0.0169378
836.388	0.0169907
836.466	0.0167718
836.544	0.0169265
836.622	0.0169623
836.700	0.0170040
836.779	0.0167952
836.857	0.0167165
836.935	0.0169163
837.013	0.0168304
837.091	0.0167558
837.169	0.0166891
837.247	0.0167371
837.325	0.0167067
837.404	0.0166481
837.482	0.0167699
837.560	0.0167544
837.638	0.0166411
837.716	0.0165704
837.794	0.0164644
837.872	0.0165015
837.950	0.0164767
838.029	0.0163783
838.107	0.0164684
838.185	0.0162171
838.263	0.0162896
838.341	0.0164017
838.419	0.0163956
838.497	0.0163690
838.575	0.0163920
838.654	0.0162145
838.732	0.0163476
838.810	0.0163950
838.888	0.0163093
838.966	0.0163658
839.044	0.0165871
839.122	0.0164651
839.200	0.0163953
839.279	0.0165860
839.357	0.0165276
839.435	0.0164624
839.513	0.0166010
839.591	0.0165890
839.669	0.0166157
839.747	0.0168218
839.825	0.0166708
839.904	0.0166006
839.982	0.0168200
840.060	0.0167339
840.138	0.0166395
840.216	0.0167690
840.294	0.0165829
840.372	0.0167198
840.450	0.0166329
840.529	0.0166319
840.607	0.0167369
840.685	0.0166918
840.763	0.0164825
840.841	0.0164906
840.919	0.0165766
840.997	0.0164901
841.075	0.0165532
841.154	0.0166650
841.232	0.0164488
841.310	0.0164821
841.388	0.0165503
841.466	0.0166137
841.544	0.0164299
841.622	0.0165730
841.700	0.0165852
841.779	0.0166122
841.857	0.0165350
841.935	0.0165278
842.013	0.0165282
842.091	0.0165672
842.169	0.0165499
842.247	0.0163565
842.325	0.0164161
842.404	0.0165704
842.482	0.0165643
842.560	0.0165598
842.638	0.0165860
842.716	0.0163486
842.794	0.0163916
842.872	0.0165048
842.950	0.0166026
843.029	0.0164809
843.107	0.0164612
843.185	0.0166002
843.263	0.0164989
843.341	0.0164486
843.419	0.0166505
843.497	0.0165401
843.575	0.0164918
843.654	0.0165396
843.732	0.0166779
843.810	0.0166277
843.888	0.0166189
843.966	0.0165494
844.044	0.0165279
844.122	0.0166206
844.200	0.0165503
844.279	0.0163732
844.357	0.0163303
844.435	0.0164783
844.513	0.0165917
844.591	0.0164220
844.669	0.0162888
844.747	0.0164164
844.825	0.0164919
844.904	0.0163358
844.982	0.0164841
845.060	0.0164851
845.138	0.0164935
845.216	0.0166557
845.294	0.0165497
845.372	0.0167153
845.450	0.0167738
845.529	0.0166974
845.607	0.0167165
845.685	0.0168716
845.763	0.0167017
845.841	0.0168410
845.919	0.0169109
845.997	0.0168779
846.075	0.0168667
846.154	0.0168089
846.232	0.0168733
846.310	0.0169032
846.388	0.0171317
846.466	0.0169527
846.544	0.0168188
846.622	0.0169077
846.700	0.0170406
846.779	0.0167912
846.857	0.0167919
846.935	0.0169012
847.013	0.0169540
847.091	0.0168114
847.169	0.0169143
847.247	0.0167616
847.325	0.0166608
847.404	0.0166968
847.482	0.0167262
847.560	0.0166572
847.638	0.0166357
847.716	0.0165549
847.794	0.0164962
847.872	0.0165526
847.950	0.0166290
848.029	0.0165056
848.107	0.0163595
848.185	0.0164187
848.263	0.0164359
848.341	0.0163435
848.419	0.0161861
848.497	0.0161131
848.575	0.0161941
848.654	0.0162761
848.732	0.0161061
848.810	0.0160353
848.888	0.0160503
848.966	0.0160719
849.044	0.0160102
849.122	0.0160029
849.200	0.0159480
849.279	0.0160639
849.357	0.0160003
849.435	0.0160371
849.513	0.0160902
849.591	0.0161280
849.669	0.0160838
849.747	0.0160902
849.825	0.0161452
849.904	0.0160909
849.982	0.0161947
850.060	0.0163174
850.138	0.0163154
850.216	0.0163268
850.294	0.0163800
850.372	0.0164565
850.450	0.0164277
850.529	0.0164993
850.607	0.0166085
850.685	0.0166472
850.763	0.0167303
850.841	0.0168191
850.919	0.0168867
850.997	0.0168642
851.075	0.0170208
851.154	0.0169619
851.232	0.0169360
851.310	0.0170496
851.388	0.0170688
851.466	0.0171944
851.544	0.0172563
851.622	0.0171158
851.700	0.0170344
851.779	0.0170712
851.857	0.0171178
851.935	0.0172131
852.013	0.0171213
852.091	0.0170330
852.169	0.0169675
852.247	0.0167575
852.325	0.0166949
852.404	0.0166817
852.482	0.0166199
852.560	0.0166341
852.638	0.0165261
852.716	0.0165936
852.794	0.0164973
852.872	0.0163960
852.950	0.0163914
853.029	0.0163950
853.107	0.0163416
853.185	0.0163400
853.263	0.0163648
853.341	0.0163635
853.419	0.0161613
853.497	0.0162297
853.575	0.0162679
853.654	0.0162572
853.732	0.0163453
853.810	0.0162443
853.888	0.0163808
853.966	0.0164069
854.044	0.0165163
854.122	0.0162611
854.200	0.0164941
854.279	0.0164362
854.357	0.0164003
854.435	0.0164401
854.513	0.0166492
854.591	0.0166000
854.669	0.0164904
854.747	0.0167053
854.825	0.0167139
854.904	0.0167318
854.982	0.0167470
855.060	0.0167731
855.138	0.0167242
855.216	0.0166579
855.294	0.0166734
855.372	0.0167392
855.450	0.0166257
855.529	0.0165922
855.607	0.0166582
855.685	0.0165208
855.763	0.0166222
855.841	0.0164771
855.919	0.0164992
855.997	0.0165081
856.075	0.0165665
856.154	0.0164919
856.232	0.0165615
856.310	0.0165160
856.388	0.0165723
856.466	0.0164882
856.544	0.0163541
856.622	0.0164693
856.700	0.0165290
856.779	0.0165964
856.857	0.0164635
856.935	0.0164540
857.013	0.0165089
857.091	0.0164866
857.169	0.0164321
857.247	0.0165862
857.325	0.0165939
857.404	0.0165768
857.482	0.0164271
857.560	0.0165022
857.638	0.0164942
857.716	0.0165611
857.794	0.0165857
857.872	0.0164185
857.950	0.0166125
858.029	0.0165076
858.107	0.0163863
858.185	0.0164758
858.263	0.0164401
858.341	0.0164580
858.419	0.0166782
858.497	0.0165269
858.575	0.0164442
858.654	0.0165212
858.732	0.0165431
858.810	0.0165625
858.888	0.0166669
858.966	0.0166653
859.044	0.0166647
859.122	0.0167159
859.200	0.0166254
859.279	0.0165778
859.357	0.0165866
859.435	0.0165881
859.513	0.0165424
859.591	0.0166257
859.669	0.0166554
859.747	0.0167387
859.825	0.0166688
859.904	0.0167553
859.982	0.0167068
860.060	0.0166103
860.138	0.0167780
860.216	0.0166790
860.294	0.0166081
860.372	0.0166316
860.450	0.0167415
860.529	0.0165828
860.607	0.0165022
860.685	0.0164566
860.763	0.0165038
860.841	0.0164529
860.919	0.0163786
860.997	0.0165182
861.075	0.0163560
861.154	0.0163578
861.232	0.0164534
861.310	0.0163027
861.388	0.0163331
861.466	0.0163062
861.544	0.0162217
861.622	0.0162740
861.700	0.0163543
861.779	0.0163580
861.857	0.0164252
861.935	0.0163138
862.013	0.0163322
862.091	0.0164342
862.169	0.0165762
862.247	0.0163877
862.325	0.0164497
862.404	0.0164837
862.482	0.0165075
862.560	0.0166396
862.638	0.0165857
862.716	0.0166601
862.794	0.0166992
862.872	0.0166402
862.950	0.0165739
863.029	0.0168127
863.107	0.0168179
863.185	0.0169449
863.263	0.0167236
863.341	0.0167055
863.419	0.0167135
863.497	0.0168830
863.575	0.0167392
863.654	0.0167223
863.732	0.0167963
863.810	0.0167662
863.888	0.0167423
863.966	0.0166940
864.044	0.0166946
864.122	0.0167228
864.200	0.0165672
864.279	0.0165344
864.357	0.0164041
864.435	0.0164046
864.513	0.0163852
864.591	0.0164504
864.669	0.0164441
864.747	0.0162873
864.825	0.0164542
864.904	0.0163699
864.982	0.0162466
865.060	0.0164236
865.138	0.0165499
865.216	0.0164040
865.294	0.0164434
865.372	0.0162843
865.450	0.0164057
865.529	0.0164639
865.607	0.0163474
865.685	0.0164983
865.763	0.0163704
865.841	0.0163777
865.919	0.0163609
865.997	0.0163448
866.075	0.0163927
866.154	0.0163678
866.232	0.0164072
866.310	0.0163473
866.388	0.0165650
866.466	0.0164946
866.544	0.0167728
866.622	0.0167412
866.700	0.0167773
866.779	0.0169295
866.857	0.0169763
866.935	0.0170873
867.013	0.0169872
867.091	0.0170575
867.169	0.0170583
867.247	0.0169361
867.325	0.0169324
867.404	0.0168867
867.482	0.0168249
867.560	0.0168423
867.638	0.0166434
867.716	0.0165902
867.794	0.0164490
867.872	0.0164232
867.950	0.0165386
868.029	0.0164071
868.107	0.0165009
868.185	0.0163378
868.263	0.0164012
868.341	0.0163967
868.419	0.0161996
868.497	0.0162571
868.575	0.0161541
868.654	0.0163027
868.732	0.0164275
868.810	0.0163464
868.888	0.0165204
868.966	0.0164825
869.044	0.0166437
869.122	0.0167545
869.200	0.0166795
869.279	0.0169302
869.357	0.0169733
869.435	0.0169691
869.513	0.0170679
869.591	0.0171499
869.669	0.0169730
869.747	0.0170930
869.825	0.0170161
869.904	0.0168267
869.982	0.0169122
870.060	0.0165871
870.138	0.0166496
870.216	0.0166837
870.294	0.0164096
870.372	0.0161913
870.450	0.0162563
870.529	0.0159948
870.607	0.0159046
870.685	0.0160447
870.763	0.0158976
870.841	0.0158672
870.919	0.0158214
870.997	0.0158176
871.075	0.0158896
871.154	0.0159215
871.232	0.0158769
871.310	0.0160308
871.388	0.0163103
871.466	0.0163260
871.544	0.0164914
871.622	0.0165922
871.700	0.0167092
871.779	0.0169553
871.857	0.0168724
871.935	0.0171171
872.013	0.0172257
872.091	0.0173215
872.169	0.0175307
872.247	0.0174665
872.325	0.0174723
872.404	0.0175356
872.482	0.0174752
872.560	0.0174216
872.638	0.0173849
872.716	0.0172109
872.794	0.0171294
872.872	0.0169898
872.950	0.0167709
873.029	0.0166346
873.107	0.0162784
873.185	0.0161615
873.263	0.0159605
873.341	0.0157539
873.419	0.0153759
873.497	0.0153117
873.575	0.0152418
873.654	0.0151322
873.732	0.0151106
873.810	0.0151792
873.888	0.0150621
873.966	0.0153415
874.044	0.0155395
874.122	0.0157735
874.200	0.0160106
874.279	0.0162332
874.357	0.0164449
874.435	0.0166312
874.513	0.0169259
874.591	0.0171684
874.669	0.0172717
874.747	0.0174537
874.825	0.0175187
874.904	0.0177675
874.982	0.0177380
875.060	0.0177061
875.138	0.0177386
875.216	0.0177804
875.294	0.0179994
875.372	0.0177550
875.450	0.0178167
875.529	0.0177673
875.607	0.0176568
875.685	0.0174168
875.763	0.0173823
875.841	0.0172427
875.919	0.0170638
875.997	0.0169025
876.075	0.0167844
876.154	0.0165841
876.232	0.0165296
876.310	0.0163521
876.388	0.0162221
876.466	0.0159804
876.544	0.0159171
876.622	0.0159043
876.700	0.0157425
876.779	0.0155260
876.857	0.0154443
876.935	0.0152911
877.013	0.0151945
877.091	0.0151486
877.169	0.0151546
877.247	0.0150895
877.325	0.0152400
877.404	0.0152987
877.482	0.0153549
877.560	0.0156485
877.638	0.0158762
877.716	0.0160162
877.794	0.0163194
877.872	0.0165089
877.950	0.0167576
878.029	0.0169682
878.107	0.0171950
878.185	0.0173548
878.263	0.0173936
878.341	0.0174853
878.419	0.0175468
878.497	0.0175063
878.575	0.0174589
878.654	0.0174931
878.732	0.0174293
878.810	0.0173967
878.888	0.0174296
878.966	0.0174072
879.044	0.0173190
879.122	0.0171558
879.200	0.0172118
879.279	0.0172855
879.357	0.0171041
879.435	0.0171387
879.513	0.0170631
879.591	0.0169867
879.669	0.0168246
879.747	0.0167317
879.825	0.0166119
879.904	0.0166741
879.982	0.0164345
880.060	0.0163760
880.138	0.0164159
880.216	0.0162987
880.294	0.0161638
880.372	0.0161306
880.450	0.0160505
880.529	0.0160017
880.607	0.0159377
880.685	0.0159427
880.763	0.0159583
880.841	0.0159344
880.919	0.0158934
880.997	0.0159470
881.075	0.0159010
881.154	0.0160736
881.232	0.0161310
881.310	0.0161445
881.388	0.0162605
881.466	0.0162556
881.544	0.0163293
881.622	0.0164646
881.700	0.0164503
881.779	0.0165401
881.857	0.0165542
881.935	0.0164113
882.013	0.0165350
882.091	0.0165221
882.169	0.0166107
882.247	0.0165504
882.325	0.0164328
882.404	0.0165395
882.482	0.0165415
882.560	0.0165559
882.638	0.0166771
882.716	0.0167625
882.794	0.0168038
882.872	0.0168094
882.950	0.0169125
883.029	0.0169950
883.107	0.0170213
883.185	0.0170894
883.263	0.0170688
883.341	0.0170417
883.419	0.0171255
883.497	0.0169915
883.575	0.0170414
883.654	0.0170415
883.732	0.0170448
883.810	0.0169097
883.888	0.0168534
883.966	0.0169913
884.044	0.0168446
884.122	0.0166628
884.200	0.0168533
884.279	0.0167856
884.357	0.0166254
884.435	0.0165647
884.513	0.0164951
884.591	0.0165527
884.669	0.0164452
884.747	0.0164112
884.825	0.0165508
884.904	0.0165179
884.982	0.0165101
885.060	0.0165343
885.138	0.0166364
885.216	0.0164613
885.294	0.0164120
885.372	0.0164915
885.450	0.0164040
885.529	0.0164379
885.607	0.0165031
885.685	0.0165554
885.763	0.0164276
885.841	0.0163609
885.919	0.0164017
885.997	0.0162729
886.075	0.0162038
886.154	0.0162814
886.232	0.0163609
886.310	0.0162700
886.388	0.0163940
886.466	0.0163189
886.544	0.0161388
886.622	0.0161187
886.700	0.0162961
886.779	0.0163319
886.857	0.0162991
886.935	0.0163037
887.013	0.0164877
887.091	0.0164117
887.169	0.0164265
887.247	0.0164944
887.325	0.0163722
887.404	0.0163726
887.482	0.0167152
887.560	0.0165211
887.638	0.0166184
887.716	0.0166615
887.794	0.0167120
887.872	0.0166946
887.950	0.0167610
888.029	0.0168430
888.107	0.0169341
888.185	0.0169650
888.263	0.0169404
888.341	0.0169500
888.419	0.0168333
888.497	0.0168488
888.575	0.0168822
888.654	0.0169543
888.732	0.0167930
888.810	0.0168246
888.888	0.0168114
888.966	0.0167265
889.044	0.0167474
889.122	0.0166727
889.200	0.0165976
889.279	0.0166556
889.357	0.0165386
889.435	0.0165379
889.513	0.0165710
889.591	0.0165970
889.669	0.0164621
889.747	0.0164471
889.825	0.0164001
889.904	0.0163573
889.982	0.0163757
890.060	0.0164031
890.138	0.0164365
890.216	0.0164341
890.294	0.0163913
890.372	0.0164208
890.450	0.0162900
890.529	0.0162966
890.607	0.0163303
890.685	0.0163737
890.763	0.0163629
890.841	0.0163234
890.919	0.0162567
890.997	0.0163628
891.075	0.0164171
891.154	0.0163521
891.232	0.0163708
891.310	0.0163303
891.388	0.0165240
891.466	0.0164941
891.544	0.0165708
891.622	0.0166373
891.700	0.0165673
891.779	0.0165826
891.857	0.0166808
891.935	0.0167157
892.013	0.0166659
892.091	0.0166967
892.169	0.0167622
892.247	0.0169093
892.325	0.0167934
892.404	0.0168590
892.482	0.0168179
892.560	0.0167937
892.638	0.0167712
892.716	0.0170485
892.794	0.0168991
892.872	0.0168322
892.950	0.0169088
893.029	0.0168071
893.107	0.0167015
893.185	0.0167094
893.263	0.0165125
893.341	0.0166357
893.419	0.0164595
893.497	0.0165084
893.575	0.0161557
893.654	0.0162839
893.732	0.0163493
893.810	0.0161889
893.888	0.0162333
893.966	0.0163056
894.044	0.0164184
894.122	0.0162129
894.200	0.0162495
894.279	0.0164352
894.357	0.0163145
894.435	0.0163709
894.513	0.0164049
894.591	0.0163925
894.669	0.0165318
894.747	0.0166649
894.825	0.0165379
894.904	0.0166969
894.982	0.0167112
895.060	0.0166698
895.138	0.0167159
895.216	0.0167933
895.294	0.0167741
895.372	0.0167866
895.450	0.0167645
895.529	0.0168864
895.607	0.0169240
895.685	0.0167384
895.763	0.0167097
895.841	0.0168071
895.919	0.0168218
895.997	0.0168108
896.075	0.0167525
896.154	0.0167436
896.232	0.0168370
896.310	0.0167252
896.388	0.0166692
896.466	0.0166375
896.544	0.0167413
896.622	0.0165642
896.700	0.0164844
896.779	0.0166084
896.857	0.0165996
896.935	0.0165310
897.013	0.0164667
897.091	0.0164378
897.169	0.0164597
897.247	0.0163052
897.325	0.0162664
897.404	0.0164225
897.482	0.0162415
897.560	0.0162111
897.638	0.0163118
897.716	0.0163496
897.794	0.0162829
897.872	0.0161096
897.950	0.0160773
898.029	0.0161784
898.107	0.0162405
898.185	0.0160950
898.263	0.0162469
898.341	0.0164269
898.419	0.0164301
898.497	0.0163530
898.575	0.0164054
898.654	0.0165024
898.732	0.0164645
898.810	0.0165863
898.888	0.0166148
898.966	0.0168770
899.044	0.0167459
899.122	0.0167004
899.200	0.0166776
899.279	0.0169007
899.357	0.0169139
899.435	0.0168980
899.513	0.0167042
899.591	0.0168718
899.669	0.0169715
899.747	0.0169030
899.825	0.0167489
899.904	0.0168762
899.982	0.0168256
900.060	0.0169079
900.138	0.0166840
900.216	0.0167063
900.294	0.0168242
900.372	0.0166275
900.450	0.0164999
900.529	0.0164413
900.607	0.0165321
900.685	0.0164569
900.763	0.0165050
900.841	0.0164790
900.919	0.0163716
900.997	0.0165576
901.075	0.0165308
901.154	0.0165862
901.232	0.0164140
901.310	0.0164822
901.388	0.0165636
901.466	0.0165228
901.544	0.0164944
901.622	0.0166384
901.700	0.0166501
901.779	0.0165888
901.857	0.0166145
901.935	0.0166950
902.013	0.0166898
902.091	0.0167600
902.169	0.0166078
902.247	0.0165218
902.325	0.0166974
902.404	0.0166962
902.482	0.0166084
902.560	0.0165611
902.638	0.0164954
902.716	0.0165629
902.794	0.0164712
902.872	0.0163441
902.950	0.0163116
903.029	0.0164868
903.107	0.0164645
903.185	0.0163702
903.263	0.0164582
903.341	0.0164500
903.419	0.0164487
903.497	0.0165490
903.575	0.0163793
903.654	0.0163278
903.732	0.0164181
903.810	0.0164151
903.888	0.0163673
903.966	0.0164243
904.044	0.0164365
904.122	0.0165385
904.200	0.0165335
904.279	0.0165798
904.357	0.0167445
904.435	0.0167864
904.513	0.0167787
904.591	0.0168104
904.669	0.0168031
904.747	0.0167439
904.825	0.0168398
904.904	0.0168279
904.982	0.0167485
905.060	0.0166061
905.138	0.0168446
905.216	0.0166704
905.294	0.0167715
905.372	0.0165176
905.450	0.0166428
905.529	0.0165353
905.607	0.0165599
905.685	0.0164530
905.763	0.0164111
905.841	0.0165560
905.919	0.0164931
905.997	0.0164912
906.075	0.0165957
906.154	0.0166152
906.232	0.0164746
906.310	0.0167382
906.388	0.0166555
906.466	0.0166830
906.544	0.0165882
906.622	0.0165750
906.700	0.0167802
906.779	0.0166095
906.857	0.0164945
906.935	0.0166138
907.013	0.0164967
907.091	0.0163669
907.169	0.0163155
907.247	0.0163175
907.325	0.0164960
907.404	0.0164571
907.482	0.0164803
907.560	0.0163786
907.638	0.0165017
907.716	0.0165289
907.794	0.0165867
907.872	0.0165742
907.950	0.0165304
908.029	0.0166541
908.107	0.0166248
908.185	0.0167377
908.263	0.0166826
908.341	0.0167787
908.419	0.0168942
908.497	0.0167951
908.575	0.0166457
908.654	0.0167412
908.732	0.0167572
908.810	0.0167260
908.888	0.0167151
908.966	0.0165857
909.044	0.0165256
909.122	0.0166846
909.200	0.0165490
909.279	0.0165161
909.357	0.0166628
909.435	0.0167023
909.513	0.0165369
909.591	0.0167234
909.669	0.0165661
909.747	0.0165562
909.825	0.0168068
909.904	0.0166750
909.982	0.0167384
910.060	0.0166331
910.138	0.0166328
910.216	0.0166709
910.294	0.0168148
910.372	0.0167660
910.450	0.0168435
910.529	0.0168484
910.607	0.0167995
910.685	0.0168063
910.763	0.0168045
910.841	0.0168413
910.919	0.0167882
910.997	0.0168668
911.075	0.0166304
911.154	0.0166856
911.232	0.0166856
911.310	0.0165151
911.388	0.0166057
911.466	0.0164542
911.544	0.0163845
911.622	0.0164848
911.700	0.0163629
911.779	0.0164038
911.857	0.0162803
911.935	0.0163432
912.013	0.0163349
912.091	0.0163393
912.169	0.0164369
912.247	0.0164938
912.325	0.0163583
912.404	0.0163788
912.482	0.0166439
912.560	0.0166927
912.638	0.0166631
912.716	0.0167268
912.794	0.0168752
912.872	0.0168622
912.950	0.0165369
913.029	0.0168268
913.107	0.0169495
913.185	0.0168152
913.263	0.0167993
913.341	0.0167979
913.419	0.0167744
913.497	0.0167876
913.575	0.0167903
913.654	0.0168185
913.732	0.0168748
913.810	0.0168945
913.888	0.0168153
913.966	0.0169261
914.044	0.0168050
914.122	0.0167050
914.200	0.0167459
914.279	0.0168489
914.357	0.0166883
914.435	0.0166730
914.513	0.0166731
914.591	0.0167559
914.669	0.0166045
914.747	0.0165418
914.825	0.0166552
914.904	0.0166698
914.982	0.0165100
915.060	0.0165046
915.138	0.0164846
915.216	0.0164708
915.294	0.0165068
915.372	0.0164501
915.450	0.0163272
915.529	0.0162971
915.607	0.0163919
915.685	0.0163678
915.763	0.0163725
915.841	0.0162031
915.919	0.0161671
915.997	0.0164060
916.075	0.0164202
916.154	0.0164867
916.232	0.0164983
916.310	0.0165006
916.388	0.0165424
916.466	0.0167802
916.544	0.0167549
916.622	0.0167414
916.700	0.0167525
916.779	0.0167084
916.857	0.0168170
916.935	0.0168919
917.013	0.0167902
917.091	0.0167176
917.169	0.0166880
917.247	0.0166273
917.325	0.0167447
917.404	0.0166801
917.482	0.0167100
917.560	0.0167682
917.638	0.0167464
917.716	0.0166375
917.794	0.0164713
917.872	0.0165876
917.950	0.0166348
918.029	0.0164799
918.107	0.0165267
918.185	0.0166016
918.263	0.0165720
918.341	0.0164946
918.419	0.0165694
918.497	0.0166294
918.575	0.0168098
918.654	0.0166484
918.732	0.0165607
918.810	0.0165865
918.888	0.0165195
918.966	0.0166061
919.044	0.0166446
919.122	0.0166801
919.200	0.0166138
919.279	0.0165488
919.357	0.0166457
919.435	0.0167128
919.513	0.0166158
919.591	0.0165971
919.669	0.0167163
919.747	0.0166295
919.825	0.0166920
919.904	0.0166729
