06/01/2022	17:23:14	Ver.	4.1	UNKNOWN
Optical Delay	599.981738	Delta X		0.078125	Sweeps	1	Scan Rate	0/0
Coordinates	Axis 1	NaN	Axis 2	NaN	Axis 3	NaN	Axis 4	NaN	Axis 5	NaN	Axis 6	0.000000
TX Power	0.000000	RX Power	0.000000

599.982	0.0165051
600.060	0.0165856
600.138	0.0165121
600.216	0.0165533
600.294	0.0166391
600.372	0.0164876
600.450	0.0164823
600.529	0.0165102
600.607	0.0165723
600.685	0.0165763
600.763	0.0165973
600.841	0.0165180
600.919	0.0165243
600.997	0.0164974
601.075	0.0163232
601.154	0.0164762
601.232	0.0165082
601.310	0.0165648
601.388	0.0163622
601.466	0.0163810
601.544	0.0164738
601.622	0.0165260
601.700	0.0164148
601.779	0.0164899
601.857	0.0165863
601.935	0.0163650
602.013	0.0163191
602.091	0.0163787
602.169	0.0165060
602.247	0.0164880
602.325	0.0165176
602.404	0.0164625
602.482	0.0165240
602.560	0.0164848
602.638	0.0164944
602.716	0.0165200
602.794	0.0165565
602.872	0.0164880
602.950	0.0164286
603.029	0.0165435
603.107	0.0167006
603.185	0.0166671
603.263	0.0165514
603.341	0.0165414
603.419	0.0165263
603.497	0.0165750
603.575	0.0164709
603.654	0.0166607
603.732	0.0164783
603.810	0.0166363
603.888	0.0166076
603.966	0.0165437
604.044	0.0165446
604.122	0.0164985
604.200	0.0165351
604.279	0.0163947
604.357	0.0165450
604.435	0.0164985
604.513	0.0165781
604.591	0.0164347
604.669	0.0164642
604.747	0.0164703
604.825	0.0164698
604.904	0.0163876
604.982	0.0163878
605.060	0.0165249
605.138	0.0164328
605.216	0.0165352
605.294	0.0164822
605.372	0.0165941
605.450	0.0164423
605.529	0.0164909
605.607	0.0164507
605.685	0.0164564
605.763	0.0164114
605.841	0.0164874
605.919	0.0165179
605.997	0.0165228
606.075	0.0163259
606.154	0.0165005
606.232	0.0165060
606.310	0.0164718
606.388	0.0165483
606.466	0.0164494
606.544	0.0164454
606.622	0.0164787
606.700	0.0166061
606.779	0.0165250
606.857	0.0165682
606.935	0.0165642
607.013	0.0165102
607.091	0.0165658
607.169	0.0165896
607.247	0.0165218
607.325	0.0164980
607.404	0.0165372
607.482	0.0165530
607.560	0.0164030
607.638	0.0164496
607.716	0.0164263
607.794	0.0165922
607.872	0.0165922
607.950	0.0166337
608.029	0.0164796
608.107	0.0165408
608.185	0.0166349
608.263	0.0164690
608.341	0.0164981
608.419	0.0164404
608.497	0.0164491
608.575	0.0164523
608.654	0.0165086
608.732	0.0165125
608.810	0.0165022
608.888	0.0164950
608.966	0.0163831
609.044	0.0164339
609.122	0.0164645
609.200	0.0165993
609.279	0.0165337
609.357	0.0164146
609.435	0.0165210
609.513	0.0164686
609.591	0.0164329
609.669	0.0163662
609.747	0.0165816
609.825	0.0166028
609.904	0.0163397
609.982	0.0163244
610.060	0.0164114
610.138	0.0164465
610.216	0.0163935
610.294	0.0164876
610.372	0.0165363
610.450	0.0166027
610.529	0.0164469
610.607	0.0164689
610.685	0.0164534
610.763	0.0164172
610.841	0.0164831
610.919	0.0165506
610.997	0.0165277
611.075	0.0165251
611.154	0.0165454
611.232	0.0165159
611.310	0.0165379
611.388	0.0165461
611.466	0.0165734
611.544	0.0166625
611.622	0.0165099
611.700	0.0163760
611.779	0.0165987
611.857	0.0165498
611.935	0.0164919
612.013	0.0166519
612.091	0.0165192
612.169	0.0165710
612.247	0.0165279
612.325	0.0164043
612.404	0.0164334
612.482	0.0164811
612.560	0.0165390
612.638	0.0165125
612.716	0.0166014
612.794	0.0164562
612.872	0.0164626
612.950	0.0165332
613.029	0.0165108
613.107	0.0165499
613.185	0.0164378
613.263	0.0165337
613.341	0.0163895
613.419	0.0165823
613.497	0.0165892
613.575	0.0163792
613.654	0.0165142
613.732	0.0165962
613.810	0.0166106
613.888	0.0164183
613.966	0.0164488
614.044	0.0165331
614.122	0.0165935
614.200	0.0164410
614.279	0.0164364
614.357	0.0166271
614.435	0.0164715
614.513	0.0165313
614.591	0.0164847
614.669	0.0164734
614.747	0.0164541
614.825	0.0166114
614.904	0.0164871
614.982	0.0164700
615.060	0.0165915
615.138	0.0166722
615.216	0.0163561
615.294	0.0163507
615.372	0.0164723
615.450	0.0164691
615.529	0.0165612
615.607	0.0164988
615.685	0.0164502
615.763	0.0165514
615.841	0.0165970
615.919	0.0164835
615.997	0.0164927
616.075	0.0164925
616.154	0.0166463
616.232	0.0164579
616.310	0.0165691
616.388	0.0164214
616.466	0.0165804
616.544	0.0163649
616.622	0.0164399
616.700	0.0163814
616.779	0.0164104
616.857	0.0165392
616.935	0.0165816
617.013	0.0164161
617.091	0.0164906
617.169	0.0165658
617.247	0.0163702
617.325	0.0165724
617.404	0.0166128
617.482	0.0166113
617.560	0.0165778
617.638	0.0165591
617.716	0.0165375
617.794	0.0164111
617.872	0.0164919
617.950	0.0166510
618.029	0.0164935
618.107	0.0164268
618.185	0.0165865
618.263	0.0164491
618.341	0.0164459
618.419	0.0164517
618.497	0.0165025
618.575	0.0165073
618.654	0.0165102
618.732	0.0163811
618.810	0.0165025
618.888	0.0165272
618.966	0.0164120
619.044	0.0165518
619.122	0.0165967
619.200	0.0164371
619.279	0.0164909
619.357	0.0164179
619.435	0.0165130
619.513	0.0165169
619.591	0.0165178
619.669	0.0166176
619.747	0.0164663
619.825	0.0165310
619.904	0.0165510
619.982	0.0165426
620.060	0.0164266
620.138	0.0164712
620.216	0.0165067
620.294	0.0165098
620.372	0.0164314
620.450	0.0165658
620.529	0.0164899
620.607	0.0164676
620.685	0.0163802
620.763	0.0164559
620.841	0.0164748
620.919	0.0166244
620.997	0.0165723
621.075	0.0165382
621.154	0.0163749
621.232	0.0164820
621.310	0.0163040
621.388	0.0164613
621.466	0.0165930
621.544	0.0166035
621.622	0.0165373
621.700	0.0164530
621.779	0.0165417
621.857	0.0164561
621.935	0.0165044
622.013	0.0164933
622.091	0.0165292
622.169	0.0165362
622.247	0.0164240
622.325	0.0166551
622.404	0.0165562
622.482	0.0164667
622.560	0.0165674
622.638	0.0165013
622.716	0.0164860
622.794	0.0166379
622.872	0.0165406
622.950	0.0164479
623.029	0.0165551
623.107	0.0166254
623.185	0.0165634
623.263	0.0164660
623.341	0.0165323
623.419	0.0165578
623.497	0.0165718
623.575	0.0164201
623.654	0.0163716
623.732	0.0165155
623.810	0.0165690
623.888	0.0164507
623.966	0.0165225
624.044	0.0164780
624.122	0.0164209
624.200	0.0165363
624.279	0.0165517
624.357	0.0164906
624.435	0.0165097
624.513	0.0166226
624.591	0.0166200
624.669	0.0164453
624.747	0.0164875
624.825	0.0164513
624.904	0.0166383
624.982	0.0165005
625.060	0.0165414
625.138	0.0166218
625.216	0.0164992
625.294	0.0164453
625.372	0.0165390
625.450	0.0164730
625.529	0.0164630
625.607	0.0165752
625.685	0.0164027
625.763	0.0164852
625.841	0.0164368
625.919	0.0165215
625.997	0.0164735
626.075	0.0165216
626.154	0.0164826
626.232	0.0165094
626.310	0.0165155
626.388	0.0163806
626.466	0.0165092
626.544	0.0166053
626.622	0.0165666
626.700	0.0164491
626.779	0.0166055
626.857	0.0165217
626.935	0.0165181
627.013	0.0166629
627.091	0.0165371
627.169	0.0164743
627.247	0.0164003
627.325	0.0164571
627.404	0.0165744
627.482	0.0164834
627.560	0.0165052
627.638	0.0166134
627.716	0.0165594
627.794	0.0164957
627.872	0.0165295
627.950	0.0165543
628.029	0.0164624
628.107	0.0164938
628.185	0.0166404
628.263	0.0165780
628.341	0.0166245
628.419	0.0166141
628.497	0.0164406
628.575	0.0165288
628.654	0.0165250
628.732	0.0164993
628.810	0.0165606
628.888	0.0165685
628.966	0.0165271
629.044	0.0164812
629.122	0.0165662
629.200	0.0165040
629.279	0.0165633
629.357	0.0166504
629.435	0.0164861
629.513	0.0165079
629.591	0.0163933
629.669	0.0165037
629.747	0.0166177
629.825	0.0167369
629.904	0.0165210
629.982	0.0164691
630.060	0.0163876
630.138	0.0165076
630.216	0.0164948
630.294	0.0165133
630.372	0.0164620
630.450	0.0164569
630.529	0.0165216
630.607	0.0165013
630.685	0.0165185
630.763	0.0165269
630.841	0.0164587
630.919	0.0164872
630.997	0.0165017
631.075	0.0165559
631.154	0.0164262
631.232	0.0165366
631.310	0.0164857
631.388	0.0165675
631.466	0.0164748
631.544	0.0163488
631.622	0.0165358
631.700	0.0165224
631.779	0.0165228
631.857	0.0165828
631.935	0.0165231
632.013	0.0164741
632.091	0.0165342
632.169	0.0164182
632.247	0.0164686
632.325	0.0163700
632.404	0.0164614
632.482	0.0164648
632.560	0.0163166
632.638	0.0165672
632.716	0.0164853
632.794	0.0165192
632.872	0.0164484
632.950	0.0165052
633.029	0.0164658
633.107	0.0164381
633.185	0.0166351
633.263	0.0164994
633.341	0.0163385
633.419	0.0164793
633.497	0.0166241
633.575	0.0165527
633.654	0.0165765
633.732	0.0165718
633.810	0.0164564
633.888	0.0165142
633.966	0.0165736
634.044	0.0164626
634.122	0.0165173
634.200	0.0164738
634.279	0.0165049
634.357	0.0165314
634.435	0.0164831
634.513	0.0164884
634.591	0.0163600
634.669	0.0165208
634.747	0.0164509
634.825	0.0164535
634.904	0.0163276
634.982	0.0164646
635.060	0.0164653
635.138	0.0164699
635.216	0.0164359
635.294	0.0164573
635.372	0.0165739
635.450	0.0164439
635.529	0.0165804
635.607	0.0165025
635.685	0.0164260
635.763	0.0165401
635.841	0.0163907
635.919	0.0164531
635.997	0.0165674
636.075	0.0165563
636.154	0.0164874
636.232	0.0165691
636.310	0.0166149
636.388	0.0164886
636.466	0.0164915
636.544	0.0165767
636.622	0.0164872
636.700	0.0165104
636.779	0.0163904
636.857	0.0165578
636.935	0.0164848
637.013	0.0165607
637.091	0.0165407
637.169	0.0164262
637.247	0.0165717
637.325	0.0165659
637.404	0.0165836
637.482	0.0165997
637.560	0.0165531
637.638	0.0165713
637.716	0.0164754
637.794	0.0165022
637.872	0.0165025
637.950	0.0164095
638.029	0.0164046
638.107	0.0165169
638.185	0.0165713
638.263	0.0165217
638.341	0.0165575
638.419	0.0166956
638.497	0.0166261
638.575	0.0165526
638.654	0.0165598
638.732	0.0166267
638.810	0.0165415
638.888	0.0165625
638.966	0.0165036
639.044	0.0165047
639.122	0.0164936
639.200	0.0165716
639.279	0.0165193
639.357	0.0165785
639.435	0.0164301
639.513	0.0164456
639.591	0.0164331
639.669	0.0165400
639.747	0.0165186
639.825	0.0165900
639.904	0.0164369
639.982	0.0164968
640.060	0.0165260
640.138	0.0165576
640.216	0.0165244
640.294	0.0164906
640.372	0.0165033
640.450	0.0165862
640.529	0.0166861
640.607	0.0165788
640.685	0.0164406
640.763	0.0165042
640.841	0.0165656
640.919	0.0165644
640.997	0.0163924
641.075	0.0165096
641.154	0.0166304
641.232	0.0166343
641.310	0.0164819
641.388	0.0164680
641.466	0.0164799
641.544	0.0165916
641.622	0.0164514
641.700	0.0166689
641.779	0.0165205
641.857	0.0164842
641.935	0.0164720
642.013	0.0165824
642.091	0.0164980
642.169	0.0165449
642.247	0.0164680
642.325	0.0164333
642.404	0.0165497
642.482	0.0166217
642.560	0.0164329
642.638	0.0166238
642.716	0.0164404
642.794	0.0164224
642.872	0.0165305
642.950	0.0164540
643.029	0.0162969
643.107	0.0165389
643.185	0.0164977
643.263	0.0164391
643.341	0.0165290
643.419	0.0164880
643.497	0.0164199
643.575	0.0164973
643.654	0.0165752
643.732	0.0164580
643.810	0.0164101
643.888	0.0166385
643.966	0.0165708
644.044	0.0165242
644.122	0.0166340
644.200	0.0164870
644.279	0.0166113
644.357	0.0165334
644.435	0.0165600
644.513	0.0165345
644.591	0.0164664
644.669	0.0165404
644.747	0.0164830
644.825	0.0166292
644.904	0.0165999
644.982	0.0165141
645.060	0.0165065
645.138	0.0165686
645.216	0.0165893
645.294	0.0164402
645.372	0.0164884
645.450	0.0165685
645.529	0.0165232
645.607	0.0165165
645.685	0.0165218
645.763	0.0167006
645.841	0.0165743
645.919	0.0165535
645.997	0.0165203
646.075	0.0164912
646.154	0.0164468
646.232	0.0165576
646.310	0.0165176
646.388	0.0164877
646.466	0.0165024
646.544	0.0164610
646.622	0.0166420
646.700	0.0164587
646.779	0.0165705
646.857	0.0166224
646.935	0.0164745
647.013	0.0165373
647.091	0.0166761
647.169	0.0165608
647.247	0.0165988
647.325	0.0165981
647.404	0.0164863
647.482	0.0165999
647.560	0.0165396
647.638	0.0166552
647.716	0.0165363
647.794	0.0165162
647.872	0.0164777
647.950	0.0166177
648.029	0.0165256
648.107	0.0165449
648.185	0.0164738
648.263	0.0165237
648.341	0.0165118
648.419	0.0165714
648.497	0.0164754
648.575	0.0164835
648.654	0.0166400
648.732	0.0166184
648.810	0.0165435
648.888	0.0166782
648.966	0.0165993
649.044	0.0166768
649.122	0.0165384
649.200	0.0164997
649.279	0.0164819
649.357	0.0165408
649.435	0.0165926
649.513	0.0165636
649.591	0.0164644
649.669	0.0166289
649.747	0.0166228
649.825	0.0164946
649.904	0.0166373
649.982	0.0164592
650.060	0.0164758
650.138	0.0164697
650.216	0.0166293
650.294	0.0165805
650.372	0.0164778
650.450	0.0166302
650.529	0.0166578
650.607	0.0165649
650.685	0.0166217
650.763	0.0165197
650.841	0.0165997
650.919	0.0166376
650.997	0.0163934
651.075	0.0165450
651.154	0.0165178
651.232	0.0165147
651.310	0.0164539
651.388	0.0165350
651.466	0.0164928
651.544	0.0165452
651.622	0.0165988
651.700	0.0166949
651.779	0.0165076
651.857	0.0165763
651.935	0.0165360
652.013	0.0164609
652.091	0.0164873
652.169	0.0166756
652.247	0.0166089
652.325	0.0164559
652.404	0.0165936
652.482	0.0166087
652.560	0.0164719
652.638	0.0165206
652.716	0.0165388
652.794	0.0166714
652.872	0.0164986
652.950	0.0164549
653.029	0.0164550
653.107	0.0164764
653.185	0.0166857
653.263	0.0165946
653.341	0.0165239
653.419	0.0165336
653.497	0.0165911
653.575	0.0164157
653.654	0.0163668
653.732	0.0166252
653.810	0.0166031
653.888	0.0165688
653.966	0.0164616
654.044	0.0166018
654.122	0.0167167
654.200	0.0165184
654.279	0.0165783
654.357	0.0164545
654.435	0.0165113
654.513	0.0165405
654.591	0.0166088
654.669	0.0164072
654.747	0.0164783
654.825	0.0164684
654.904	0.0164391
654.982	0.0163721
655.060	0.0165858
655.138	0.0166634
655.216	0.0165575
655.294	0.0165540
655.372	0.0165434
655.450	0.0165213
655.529	0.0165334
655.607	0.0165439
655.685	0.0164111
655.763	0.0165073
655.841	0.0164660
655.919	0.0166199
655.997	0.0164874
656.075	0.0164709
656.154	0.0164484
656.232	0.0163848
656.310	0.0164674
656.388	0.0165260
656.466	0.0165126
656.544	0.0164523
656.622	0.0163792
656.700	0.0163944
656.779	0.0164487
656.857	0.0165207
656.935	0.0165421
657.013	0.0164295
657.091	0.0165153
657.169	0.0165542
657.247	0.0165736
657.325	0.0165308
657.404	0.0165139
657.482	0.0163004
657.560	0.0164232
657.638	0.0164859
657.716	0.0164376
657.794	0.0165955
657.872	0.0163548
657.950	0.0165099
658.029	0.0166047
658.107	0.0165246
658.185	0.0163409
658.263	0.0165855
658.341	0.0164723
658.419	0.0164201
658.497	0.0164335
658.575	0.0164648
658.654	0.0164298
658.732	0.0165368
658.810	0.0163911
658.888	0.0163845
658.966	0.0164756
659.044	0.0164651
659.122	0.0165224
659.200	0.0165755
659.279	0.0164497
659.357	0.0164809
659.435	0.0164140
659.513	0.0164787
659.591	0.0164857
659.669	0.0166341
659.747	0.0165657
659.825	0.0164796
659.904	0.0165134
659.982	0.0164394
660.060	0.0165224
660.138	0.0164401
660.216	0.0164685
660.294	0.0165501
660.372	0.0162729
660.450	0.0164824
660.529	0.0165276
660.607	0.0165422
660.685	0.0165153
660.763	0.0165205
660.841	0.0164135
660.919	0.0165110
660.997	0.0165009
661.075	0.0163948
661.154	0.0163699
661.232	0.0164351
661.310	0.0164498
661.388	0.0164889
661.466	0.0165038
661.544	0.0163762
661.622	0.0165837
661.700	0.0165273
661.779	0.0166219
661.857	0.0165304
661.935	0.0166117
662.013	0.0166606
662.091	0.0165330
662.169	0.0165183
662.247	0.0163649
662.325	0.0164503
662.404	0.0164998
662.482	0.0164218
662.560	0.0165184
662.638	0.0164636
662.716	0.0165163
662.794	0.0165427
662.872	0.0165387
662.950	0.0165052
663.029	0.0165456
663.107	0.0164558
663.185	0.0164575
663.263	0.0165938
663.341	0.0166705
663.419	0.0164733
663.497	0.0164484
663.575	0.0165212
663.654	0.0165639
663.732	0.0164233
663.810	0.0165514
663.888	0.0164790
663.966	0.0164314
664.044	0.0164481
664.122	0.0166234
664.200	0.0164661
664.279	0.0162741
664.357	0.0164737
664.435	0.0166746
664.513	0.0164613
664.591	0.0165150
664.669	0.0163940
664.747	0.0164391
664.825	0.0165337
664.904	0.0164104
664.982	0.0165446
665.060	0.0165263
665.138	0.0164562
665.216	0.0164761
665.294	0.0163539
665.372	0.0163870
665.450	0.0165421
665.529	0.0163815
665.607	0.0165611
665.685	0.0164652
665.763	0.0165540
665.841	0.0165303
665.919	0.0165213
665.997	0.0165250
666.075	0.0164645
666.154	0.0164348
666.232	0.0164914
666.310	0.0165207
666.388	0.0165874
666.466	0.0165813
666.544	0.0164843
666.622	0.0165044
666.700	0.0164423
666.779	0.0164262
666.857	0.0164417
666.935	0.0164587
667.013	0.0165183
667.091	0.0164655
667.169	0.0165070
667.247	0.0164584
667.325	0.0164703
667.404	0.0165379
667.482	0.0164906
667.560	0.0165192
667.638	0.0163978
667.716	0.0165615
667.794	0.0164751
667.872	0.0164906
667.950	0.0164561
668.029	0.0164644
668.107	0.0164342
668.185	0.0165046
668.263	0.0165316
668.341	0.0165590
668.419	0.0164980
668.497	0.0165728
668.575	0.0164674
668.654	0.0165675
668.732	0.0165742
668.810	0.0165849
668.888	0.0165245
668.966	0.0165417
669.044	0.0165730
669.122	0.0165677
669.200	0.0166663
669.279	0.0165569
669.357	0.0165294
669.435	0.0166077
669.513	0.0165167
669.591	0.0164249
669.669	0.0163641
669.747	0.0164238
669.825	0.0165029
669.904	0.0163029
669.982	0.0163548
670.060	0.0162154
670.138	0.0161594
670.216	0.0161877
670.294	0.0162840
670.372	0.0160641
670.450	0.0159468
670.529	0.0159901
670.607	0.0160667
670.685	0.0161782
670.763	0.0162443
670.841	0.0162438
670.919	0.0163238
670.997	0.0164558
671.075	0.0165575
671.154	0.0165676
671.232	0.0168548
671.310	0.0168597
671.388	0.0171041
671.466	0.0170548
671.544	0.0171449
671.622	0.0173766
671.700	0.0172852
671.779	0.0172448
671.857	0.0173856
671.935	0.0173764
672.013	0.0172331
672.091	0.0172688
672.169	0.0170808
672.247	0.0169569
672.325	0.0167448
672.404	0.0165212
672.482	0.0163587
672.560	0.0158743
672.638	0.0155530
672.716	0.0154419
672.794	0.0150488
672.872	0.0148335
672.950	0.0146514
673.029	0.0144107
673.107	0.0146136
673.185	0.0147353
673.263	0.0150120
673.341	0.0155377
673.419	0.0161276
673.497	0.0165839
673.575	0.0172331
673.654	0.0177074
673.732	0.0181815
673.810	0.0184177
673.888	0.0183374
673.966	0.0183730
674.044	0.0183548
674.122	0.0181443
674.200	0.0180432
674.279	0.0176103
674.357	0.0170760
674.435	0.0170567
674.513	0.0167964
674.591	0.0166083
674.669	0.0165356
674.747	0.0164310
674.825	0.0162994
674.904	0.0162535
674.982	0.0162218
675.060	0.0158897
675.138	0.0156378
675.216	0.0151418
675.294	0.0149475
675.372	0.0147614
675.450	0.0147963
675.529	0.0147278
675.607	0.0149079
675.685	0.0151392
675.763	0.0154359
675.841	0.0160047
675.919	0.0167809
675.997	0.0172768
676.075	0.0179672
676.154	0.0187727
676.232	0.0189934
676.310	0.0193377
676.388	0.0196818
676.466	0.0197675
676.544	0.0198375
676.622	0.0196535
676.700	0.0192327
676.779	0.0188559
676.857	0.0182913
676.935	0.0178171
677.013	0.0170953
677.091	0.0165321
677.169	0.0159466
677.247	0.0151743
677.325	0.0146632
677.404	0.0141737
677.482	0.0136479
677.560	0.0131948
677.638	0.0129014
677.716	0.0124164
677.794	0.0121531
677.872	0.0117973
677.950	0.0115990
678.029	0.0115526
678.107	0.0113906
678.185	0.0115740
678.263	0.0119269
678.341	0.0122742
678.419	0.0128266
678.497	0.0136964
678.575	0.0145218
678.654	0.0155120
678.732	0.0166958
678.810	0.0180295
678.888	0.0194013
678.966	0.0208163
679.044	0.0222404
679.122	0.0235285
679.200	0.0248547
679.279	0.0257628
679.357	0.0266499
679.435	0.0273580
679.513	0.0277320
679.591	0.0276026
679.669	0.0272163
679.747	0.0266773
679.825	0.0255092
679.904	0.0239614
679.982	0.0225148
680.060	0.0204308
680.138	0.0183038
680.216	0.0160462
680.294	0.0136314
680.372	0.0113834
680.450	0.00930595
680.529	0.00745338
680.607	0.00565048
680.685	0.00470642
680.763	0.00350533
680.841	0.00293785
680.919	0.00277359
680.997	0.00304497
681.075	0.00371193
681.154	0.00442703
681.232	0.00530807
681.310	0.00661888
681.388	0.00778030
681.466	0.00932014
681.544	0.0108594
681.622	0.0124580
681.700	0.0140978
681.779	0.0155647
681.857	0.0171185
681.935	0.0185863
682.013	0.0200751
682.091	0.0215784
682.169	0.0227679
682.247	0.0241105
682.325	0.0252551
682.404	0.0263491
682.482	0.0270408
682.560	0.0278967
682.638	0.0282911
682.716	0.0285286
682.794	0.0286947
682.872	0.0283750
682.950	0.0280838
683.029	0.0273761
683.107	0.0265919
683.185	0.0257530
683.263	0.0248801
683.341	0.0237296
683.419	0.0226286
683.497	0.0212883
683.575	0.0199405
683.654	0.0186837
683.732	0.0169997
683.810	0.0154616
683.888	0.0140714
683.966	0.0124297
684.044	0.0108690
684.122	0.00933846
684.200	0.00791145
684.279	0.00639732
684.357	0.00512535
684.435	0.00391335
684.513	0.00277351
684.591	0.00202667
684.669	0.00155342
684.747	0.00129723
684.825	0.00153793
684.904	0.00195839
684.982	0.00260010
685.060	0.00378204
685.138	0.00510490
685.216	0.00676331
685.294	0.00869102
685.372	0.0107571
685.450	0.0130221
685.529	0.0153259
685.607	0.0177407
685.685	0.0200164
685.763	0.0220638
685.841	0.0239780
685.919	0.0255405
685.997	0.0267181
686.075	0.0277720
686.154	0.0287279
686.232	0.0291425
686.310	0.0294650
686.388	0.0296954
686.466	0.0297349
686.544	0.0295784
686.622	0.0293708
686.700	0.0288371
686.779	0.0285492
686.857	0.0279495
686.935	0.0272395
687.013	0.0263099
687.091	0.0252239
687.169	0.0239960
687.247	0.0225054
687.325	0.0209038
687.404	0.0192130
687.482	0.0172757
687.560	0.0153513
687.638	0.0135192
687.716	0.0118833
687.794	0.0103971
687.872	0.00896545
687.950	0.00785889
688.029	0.00678757
688.107	0.00608406
688.185	0.00551872
688.263	0.00531937
688.341	0.00514725
688.419	0.00516594
688.497	0.00558838
688.575	0.00592049
688.654	0.00644188
688.732	0.00707611
688.810	0.00740311
688.888	0.00810974
688.966	0.00886055
689.044	0.00967140
689.122	0.0103563
689.200	0.0112114
689.279	0.0122355
689.357	0.0131283
689.435	0.0142428
689.513	0.0152795
689.591	0.0163433
689.669	0.0174587
689.747	0.0185352
689.825	0.0197653
689.904	0.0205825
689.982	0.0216673
690.060	0.0224387
690.138	0.0230631
690.216	0.0236818
690.294	0.0243104
690.372	0.0248355
690.450	0.0250696
690.529	0.0251336
690.607	0.0253414
690.685	0.0254278
690.763	0.0252338
690.841	0.0251322
690.919	0.0248190
690.997	0.0242467
691.075	0.0237127
691.154	0.0230871
691.232	0.0223292
691.310	0.0213700
691.388	0.0204564
691.466	0.0194344
691.544	0.0184176
691.622	0.0174885
691.700	0.0164742
691.779	0.0155667
691.857	0.0146637
691.935	0.0139711
692.013	0.0132582
692.091	0.0127528
692.169	0.0121980
692.247	0.0120892
692.325	0.0116554
692.404	0.0117344
692.482	0.0114893
692.560	0.0114079
692.638	0.0111850
692.716	0.0112064
692.794	0.0112386
692.872	0.0112052
692.950	0.0111672
693.029	0.0110430
693.107	0.0113145
693.185	0.0114663
693.263	0.0116242
693.341	0.0118941
693.419	0.0123019
693.497	0.0127052
693.575	0.0130330
693.654	0.0136938
693.732	0.0143835
693.810	0.0149207
693.888	0.0156174
693.966	0.0160276
694.044	0.0165222
694.122	0.0170169
694.200	0.0173429
694.279	0.0176357
694.357	0.0177261
694.435	0.0181015
694.513	0.0182399
694.591	0.0184938
694.669	0.0185695
694.747	0.0187845
694.825	0.0188905
694.904	0.0190015
694.982	0.0190533
695.060	0.0190579
695.138	0.0190578
695.216	0.0191773
695.294	0.0192085
695.372	0.0188846
695.450	0.0189061
695.529	0.0188814
695.607	0.0188055
695.685	0.0185786
695.763	0.0185532
695.841	0.0184520
695.919	0.0184121
695.997	0.0184110
696.075	0.0184769
696.154	0.0186072
696.232	0.0185820
696.310	0.0188338
696.388	0.0189512
696.466	0.0189833
696.544	0.0191216
696.622	0.0189880
696.700	0.0188777
696.779	0.0187470
696.857	0.0185850
696.935	0.0184645
697.013	0.0182173
697.091	0.0179208
697.169	0.0174110
697.247	0.0170016
697.325	0.0163943
697.404	0.0159718
697.482	0.0155750
697.560	0.0147821
697.638	0.0143592
697.716	0.0136376
697.794	0.0133453
697.872	0.0130962
697.950	0.0126687
698.029	0.0122945
698.107	0.0123055
698.185	0.0121858
698.263	0.0121329
698.341	0.0122388
698.419	0.0123609
698.497	0.0125300
698.575	0.0127517
698.654	0.0130482
698.732	0.0134782
698.810	0.0136362
698.888	0.0139816
698.966	0.0145627
699.044	0.0149083
699.122	0.0152596
699.200	0.0157893
699.279	0.0162504
699.357	0.0167160
699.435	0.0171262
699.513	0.0174883
699.591	0.0176334
699.669	0.0179889
699.747	0.0182279
699.825	0.0182101
699.904	0.0180279
699.982	0.0178875
700.060	0.0177226
700.138	0.0174828
700.216	0.0172195
700.294	0.0167668
700.372	0.0167554
700.450	0.0164091
700.529	0.0162947
700.607	0.0162551
700.685	0.0160898
700.763	0.0162856
700.841	0.0165005
700.919	0.0167023
700.997	0.0168267
701.075	0.0171804
701.154	0.0176201
701.232	0.0180326
701.310	0.0184712
701.388	0.0187639
701.466	0.0190898
701.544	0.0193616
701.622	0.0196806
701.700	0.0201835
701.779	0.0201443
701.857	0.0201832
701.935	0.0204313
702.013	0.0203885
702.091	0.0202569
702.169	0.0201665
702.247	0.0198486
702.325	0.0195708
702.404	0.0191337
702.482	0.0186909
702.560	0.0182256
702.638	0.0175586
702.716	0.0168980
702.794	0.0161916
702.872	0.0155399
702.950	0.0151502
703.029	0.0146845
703.107	0.0141144
703.185	0.0138782
703.263	0.0135717
703.341	0.0135254
703.419	0.0135107
703.497	0.0134985
703.575	0.0135663
703.654	0.0136887
703.732	0.0140012
703.810	0.0139602
703.888	0.0139793
703.966	0.0140704
704.044	0.0143158
704.122	0.0143641
704.200	0.0145112
704.279	0.0145372
704.357	0.0146731
704.435	0.0147458
704.513	0.0148418
704.591	0.0148565
704.669	0.0149079
704.747	0.0151553
704.825	0.0149335
704.904	0.0149740
704.982	0.0152610
705.060	0.0151243
705.138	0.0152586
705.216	0.0153883
705.294	0.0153564
705.372	0.0154211
705.450	0.0156221
705.529	0.0158260
705.607	0.0159430
705.685	0.0158438
705.763	0.0160127
705.841	0.0164461
705.919	0.0165521
705.997	0.0167895
706.075	0.0171382
706.154	0.0174489
706.232	0.0176888
706.310	0.0180672
706.388	0.0183915
706.466	0.0186456
706.544	0.0189967
706.622	0.0191659
706.700	0.0192920
706.779	0.0193309
706.857	0.0194522
706.935	0.0194244
707.013	0.0194317
707.091	0.0192871
707.169	0.0192424
707.247	0.0192406
707.325	0.0191251
707.404	0.0190012
707.482	0.0188844
707.560	0.0187266
707.638	0.0186249
707.716	0.0184546
707.794	0.0181735
707.872	0.0179540
707.950	0.0178130
708.029	0.0174556
708.107	0.0170926
708.185	0.0168547
708.263	0.0166777
708.341	0.0164191
708.419	0.0160986
708.497	0.0158472
708.575	0.0159957
708.654	0.0159025
708.732	0.0157478
708.810	0.0158247
708.888	0.0156422
708.966	0.0155429
709.044	0.0155412
709.122	0.0155213
709.200	0.0154371
709.279	0.0151971
709.357	0.0151334
709.435	0.0149291
709.513	0.0145927
709.591	0.0146349
709.669	0.0143541
709.747	0.0143153
709.825	0.0141528
709.904	0.0139487
709.982	0.0139423
710.060	0.0138855
710.138	0.0138110
710.216	0.0140009
710.294	0.0139191
710.372	0.0141192
710.450	0.0140986
710.529	0.0140751
710.607	0.0144229
710.685	0.0144453
710.763	0.0146970
710.841	0.0150136
710.919	0.0152292
710.997	0.0156901
711.075	0.0159769
711.154	0.0164055
711.232	0.0167984
711.310	0.0171017
711.388	0.0174854
711.466	0.0178478
711.544	0.0180318
711.622	0.0182545
711.700	0.0184787
711.779	0.0185443
711.857	0.0185272
711.935	0.0184682
712.013	0.0183826
712.091	0.0184457
712.169	0.0182569
712.247	0.0181522
712.325	0.0180064
712.404	0.0178811
712.482	0.0179362
712.560	0.0178197
712.638	0.0177898
712.716	0.0178761
712.794	0.0179465
712.872	0.0178101
712.950	0.0180647
713.029	0.0179793
713.107	0.0179164
713.185	0.0179771
713.263	0.0179575
713.341	0.0179108
713.419	0.0177702
713.497	0.0174468
713.575	0.0173731
713.654	0.0174483
713.732	0.0172299
713.810	0.0170219
713.888	0.0169497
713.966	0.0168239
714.044	0.0167791
714.122	0.0166138
714.200	0.0166003
714.279	0.0165437
714.357	0.0165141
714.435	0.0164589
714.513	0.0165079
714.591	0.0163084
714.669	0.0162033
714.747	0.0162832
714.825	0.0162351
714.904	0.0162412
714.982	0.0161707
715.060	0.0159167
715.138	0.0158379
715.216	0.0156917
715.294	0.0155931
715.372	0.0153015
715.450	0.0151660
715.529	0.0150729
715.607	0.0148635
715.685	0.0146693
715.763	0.0144794
715.841	0.0144104
715.919	0.0142146
715.997	0.0143770
716.075	0.0142741
716.154	0.0143012
716.232	0.0143741
716.310	0.0142092
716.388	0.0143428
716.466	0.0145023
716.544	0.0146976
716.622	0.0149078
716.700	0.0151147
716.779	0.0152031
716.857	0.0156425
716.935	0.0158201
717.013	0.0163965
717.091	0.0165852
717.169	0.0170549
717.247	0.0173560
717.325	0.0177686
717.404	0.0179028
717.482	0.0182529
717.560	0.0183282
717.638	0.0184313
717.716	0.0187496
717.794	0.0185013
717.872	0.0187295
717.950	0.0185950
718.029	0.0183420
718.107	0.0182792
718.185	0.0180354
718.263	0.0179695
718.341	0.0175529
718.419	0.0173013
718.497	0.0170247
718.575	0.0167801
718.654	0.0167168
718.732	0.0164093
718.810	0.0165385
718.888	0.0163167
718.966	0.0162955
719.044	0.0162305
719.122	0.0162872
719.200	0.0164217
719.279	0.0164845
719.357	0.0166806
719.435	0.0166708
719.513	0.0165363
719.591	0.0165964
719.669	0.0166587
719.747	0.0166308
719.825	0.0166048
719.904	0.0165627
719.982	0.0166291
720.060	0.0163812
720.138	0.0164429
720.216	0.0164691
720.294	0.0163676
720.372	0.0165148
720.450	0.0165060
720.529	0.0165041
720.607	0.0166821
720.685	0.0167181
720.763	0.0167493
720.841	0.0169061
720.919	0.0169534
720.997	0.0168699
721.075	0.0168170
721.154	0.0169708
721.232	0.0171232
721.310	0.0169233
721.388	0.0169006
721.466	0.0168491
721.544	0.0167491
721.622	0.0165164
721.700	0.0166393
721.779	0.0164960
721.857	0.0162543
721.935	0.0161681
722.013	0.0160744
722.091	0.0160782
722.169	0.0159103
722.247	0.0158160
722.325	0.0157318
722.404	0.0155619
722.482	0.0154492
722.560	0.0154845
722.638	0.0155062
722.716	0.0155192
722.794	0.0155808
722.872	0.0154131
722.950	0.0157259
723.029	0.0156906
723.107	0.0155781
723.185	0.0157253
723.263	0.0158491
723.341	0.0159401
723.419	0.0159816
723.497	0.0161525
723.575	0.0160664
723.654	0.0161024
723.732	0.0160178
723.810	0.0161416
723.888	0.0161073
723.966	0.0158543
724.044	0.0158158
724.122	0.0159605
724.200	0.0159789
724.279	0.0158613
724.357	0.0159747
724.435	0.0159930
724.513	0.0161809
724.591	0.0162347
724.669	0.0164227
724.747	0.0165472
724.825	0.0169083
724.904	0.0170586
724.982	0.0171806
725.060	0.0172901
725.138	0.0175605
725.216	0.0178271
725.294	0.0178027
725.372	0.0179428
725.450	0.0178517
725.529	0.0180389
725.607	0.0180964
725.685	0.0179765
725.763	0.0179855
725.841	0.0179916
725.919	0.0177892
725.997	0.0176096
726.075	0.0176519
726.154	0.0175560
726.232	0.0173334
726.310	0.0172148
726.388	0.0171107
726.466	0.0169828
726.544	0.0167188
726.622	0.0167995
726.700	0.0166109
726.779	0.0165300
726.857	0.0166555
726.935	0.0165625
727.013	0.0164673
727.091	0.0165689
727.169	0.0164627
727.247	0.0165579
727.325	0.0163818
727.404	0.0164742
727.482	0.0163719
727.560	0.0163266
727.638	0.0162863
727.716	0.0164110
727.794	0.0162115
727.872	0.0159727
727.950	0.0159112
728.029	0.0158182
728.107	0.0158963
728.185	0.0158163
728.263	0.0155898
728.341	0.0156901
728.419	0.0154682
728.497	0.0154165
728.575	0.0154547
728.654	0.0153640
728.732	0.0153786
728.810	0.0154609
728.888	0.0154848
728.966	0.0154321
729.044	0.0154535
729.122	0.0155641
729.200	0.0156640
729.279	0.0156116
729.357	0.0158116
729.435	0.0158192
729.513	0.0158437
729.591	0.0158544
729.669	0.0160365
729.747	0.0160591
729.825	0.0161973
729.904	0.0161671
729.982	0.0163199
730.060	0.0164378
730.138	0.0165444
730.216	0.0164899
730.294	0.0165854
730.372	0.0166578
730.450	0.0168012
730.529	0.0167908
730.607	0.0168275
730.685	0.0168084
730.763	0.0168781
730.841	0.0169696
730.919	0.0171164
730.997	0.0169907
731.075	0.0170731
731.154	0.0172292
731.232	0.0172290
731.310	0.0173586
731.388	0.0174486
731.466	0.0174107
731.544	0.0175911
731.622	0.0174015
731.700	0.0175134
731.779	0.0174612
731.857	0.0174332
731.935	0.0173071
732.013	0.0172477
732.091	0.0173036
732.169	0.0170397
732.247	0.0169338
732.325	0.0170144
732.404	0.0167366
732.482	0.0165377
732.560	0.0165136
732.638	0.0165714
732.716	0.0164526
732.794	0.0163055
732.872	0.0162087
732.950	0.0163654
733.029	0.0163761
733.107	0.0162018
733.185	0.0162505
733.263	0.0163089
733.341	0.0163461
733.419	0.0162962
733.497	0.0163801
733.575	0.0163850
733.654	0.0162695
733.732	0.0162690
733.810	0.0164940
733.888	0.0165835
733.966	0.0167210
734.044	0.0166676
734.122	0.0167605
734.200	0.0168849
734.279	0.0167236
734.357	0.0167441
734.435	0.0168996
734.513	0.0168263
734.591	0.0170121
734.669	0.0169166
734.747	0.0168425
734.825	0.0169064
734.904	0.0167394
734.982	0.0166989
735.060	0.0165791
735.138	0.0165722
735.216	0.0165443
735.294	0.0164259
735.372	0.0163023
735.450	0.0163210
735.529	0.0162183
735.607	0.0161880
735.685	0.0161137
735.763	0.0162500
735.841	0.0162026
735.919	0.0162555
735.997	0.0162597
736.075	0.0161884
736.154	0.0162893
736.232	0.0162954
736.310	0.0163056
736.388	0.0162572
736.466	0.0163861
736.544	0.0163132
736.622	0.0161892
736.700	0.0161120
736.779	0.0159847
736.857	0.0160726
736.935	0.0160017
737.013	0.0157937
737.091	0.0159068
737.169	0.0159328
737.247	0.0157601
737.325	0.0157031
737.404	0.0158767
737.482	0.0159660
737.560	0.0159888
737.638	0.0159424
737.716	0.0162591
737.794	0.0163640
737.872	0.0164407
737.950	0.0165444
738.029	0.0166398
738.107	0.0166753
738.185	0.0168672
738.263	0.0170563
738.341	0.0171593
738.419	0.0171822
738.497	0.0171803
738.575	0.0173763
738.654	0.0172157
738.732	0.0171791
738.810	0.0171660
738.888	0.0172138
738.966	0.0171449
739.044	0.0169725
739.122	0.0169184
739.200	0.0171356
739.279	0.0168882
739.357	0.0169036
739.435	0.0168980
739.513	0.0168253
739.591	0.0168513
739.669	0.0167426
739.747	0.0169183
739.825	0.0169730
739.904	0.0169251
739.982	0.0167713
740.060	0.0169537
740.138	0.0169288
740.216	0.0168958
740.294	0.0168424
740.372	0.0167879
740.450	0.0168137
740.529	0.0167905
740.607	0.0167200
740.685	0.0168128
740.763	0.0168069
740.841	0.0167313
740.919	0.0166668
740.997	0.0165766
741.075	0.0164674
741.154	0.0165845
741.232	0.0164999
741.310	0.0163107
741.388	0.0162491
741.466	0.0161498
741.544	0.0162919
741.622	0.0162677
741.700	0.0160870
741.779	0.0159869
741.857	0.0161410
741.935	0.0159521
742.013	0.0158733
742.091	0.0160383
742.169	0.0159840
742.247	0.0159528
742.325	0.0160333
742.404	0.0162215
742.482	0.0158592
742.560	0.0160176
742.638	0.0159900
742.716	0.0160105
742.794	0.0160056
742.872	0.0160194
742.950	0.0159842
743.029	0.0159888
743.107	0.0158162
743.185	0.0158997
743.263	0.0159797
743.341	0.0160406
743.419	0.0158593
743.497	0.0159949
743.575	0.0161240
743.654	0.0160352
743.732	0.0161252
743.810	0.0162585
743.888	0.0163053
743.966	0.0164433
744.044	0.0164960
744.122	0.0166313
744.200	0.0165981
744.279	0.0167669
744.357	0.0168787
744.435	0.0169407
744.513	0.0168813
744.591	0.0169528
744.669	0.0170064
744.747	0.0169588
744.825	0.0169592
744.904	0.0169746
744.982	0.0169265
745.060	0.0170036
745.138	0.0170623
745.216	0.0169953
745.294	0.0167902
745.372	0.0168975
745.450	0.0167863
745.529	0.0167262
745.607	0.0166723
745.685	0.0166580
745.763	0.0166282
745.841	0.0164135
745.919	0.0165974
745.997	0.0165545
746.075	0.0165611
746.154	0.0164774
746.232	0.0165462
746.310	0.0165009
746.388	0.0164691
746.466	0.0165430
746.544	0.0164421
746.622	0.0166245
746.700	0.0167421
746.779	0.0168282
746.857	0.0167052
746.935	0.0168085
747.013	0.0167968
747.091	0.0166694
747.169	0.0168391
747.247	0.0169288
747.325	0.0168932
747.404	0.0167622
747.482	0.0166093
747.560	0.0167279
747.638	0.0165387
747.716	0.0164531
747.794	0.0165004
747.872	0.0165648
747.950	0.0164393
748.029	0.0163428
748.107	0.0163468
748.185	0.0163612
748.263	0.0163723
748.341	0.0162761
748.419	0.0161334
748.497	0.0162522
748.575	0.0163012
748.654	0.0162879
748.732	0.0163065
748.810	0.0163667
748.888	0.0162916
748.966	0.0163026
749.044	0.0164364
749.122	0.0164981
749.200	0.0165709
749.279	0.0166206
749.357	0.0165931
749.435	0.0167582
749.513	0.0167519
749.591	0.0166673
749.669	0.0168102
749.747	0.0167767
749.825	0.0166132
749.904	0.0166547
749.982	0.0165684
750.060	0.0165382
750.138	0.0165571
750.216	0.0162677
750.294	0.0163680
750.372	0.0161621
750.450	0.0160985
750.529	0.0161224
750.607	0.0160734
750.685	0.0160302
750.763	0.0160171
750.841	0.0158995
750.919	0.0158787
750.997	0.0159453
751.075	0.0159166
751.154	0.0159229
751.232	0.0158014
751.310	0.0159895
751.388	0.0160403
751.466	0.0160684
751.544	0.0160693
751.622	0.0162364
751.700	0.0162529
751.779	0.0162863
751.857	0.0162538
751.935	0.0162376
752.013	0.0164172
752.091	0.0164745
752.169	0.0163399
752.247	0.0163396
752.325	0.0164883
752.404	0.0164259
752.482	0.0165452
752.560	0.0164765
752.638	0.0166034
752.716	0.0167003
752.794	0.0167416
752.872	0.0166605
752.950	0.0165852
753.029	0.0168646
753.107	0.0167990
753.185	0.0169352
753.263	0.0168739
753.341	0.0168881
753.419	0.0169476
753.497	0.0170109
753.575	0.0169247
753.654	0.0169820
753.732	0.0169382
753.810	0.0169632
753.888	0.0170787
753.966	0.0169629
754.044	0.0169386
754.122	0.0170657
754.200	0.0170699
754.279	0.0169377
754.357	0.0169799
754.435	0.0168303
754.513	0.0169456
754.591	0.0169009
754.669	0.0168501
754.747	0.0167963
754.825	0.0168757
754.904	0.0166313
754.982	0.0167124
755.060	0.0167627
755.138	0.0165790
755.216	0.0165795
755.294	0.0165900
755.372	0.0165803
755.450	0.0164970
755.529	0.0164272
755.607	0.0165191
755.685	0.0165031
755.763	0.0166757
755.841	0.0166405
755.919	0.0165594
755.997	0.0165424
756.075	0.0165955
756.154	0.0165383
756.232	0.0165370
756.310	0.0166074
756.388	0.0163566
756.466	0.0164545
756.544	0.0162945
756.622	0.0162382
756.700	0.0162110
756.779	0.0161263
756.857	0.0161105
756.935	0.0159943
757.013	0.0159476
757.091	0.0159057
757.169	0.0158630
757.247	0.0158843
757.325	0.0159414
757.404	0.0160171
757.482	0.0159576
757.560	0.0159155
757.638	0.0159972
757.716	0.0161230
757.794	0.0161221
757.872	0.0162245
757.950	0.0162095
758.029	0.0163613
758.107	0.0162938
758.185	0.0164588
758.263	0.0165415
758.341	0.0166166
758.419	0.0166265
758.497	0.0167809
758.575	0.0167260
758.654	0.0167748
758.732	0.0168116
758.810	0.0169011
758.888	0.0168421
758.966	0.0167564
759.044	0.0169646
759.122	0.0169296
759.200	0.0169594
759.279	0.0168060
759.357	0.0169649
759.435	0.0170036
759.513	0.0166857
759.591	0.0165865
759.669	0.0166138
759.747	0.0165953
759.825	0.0165395
759.904	0.0164884
759.982	0.0161717
760.060	0.0162493
760.138	0.0161161
760.216	0.0161916
760.294	0.0162307
760.372	0.0161204
760.450	0.0161787
760.529	0.0161465
760.607	0.0161884
760.685	0.0163062
760.763	0.0164537
760.841	0.0163655
760.919	0.0164246
760.997	0.0164128
761.075	0.0165715
761.154	0.0165670
761.232	0.0166323
761.310	0.0167786
761.388	0.0168236
761.466	0.0168223
761.544	0.0169531
761.622	0.0169262
761.700	0.0168136
761.779	0.0170064
761.857	0.0170647
761.935	0.0169313
762.013	0.0170203
762.091	0.0169271
762.169	0.0170291
762.247	0.0170332
762.325	0.0167937
762.404	0.0169308
762.482	0.0169494
762.560	0.0169404
762.638	0.0169086
762.716	0.0170145
762.794	0.0169160
762.872	0.0169125
762.950	0.0169166
763.029	0.0168771
763.107	0.0169112
763.185	0.0169353
763.263	0.0167691
763.341	0.0169051
763.419	0.0166911
763.497	0.0165998
763.575	0.0165038
763.654	0.0164882
763.732	0.0162719
763.810	0.0162234
763.888	0.0161423
763.966	0.0160464
764.044	0.0159953
764.122	0.0159142
764.200	0.0159203
764.279	0.0157558
764.357	0.0157553
764.435	0.0157082
764.513	0.0157364
764.591	0.0158247
764.669	0.0158783
764.747	0.0158162
764.825	0.0158810
764.904	0.0159268
764.982	0.0158780
765.060	0.0158149
765.138	0.0159315
765.216	0.0160197
765.294	0.0160441
765.372	0.0159311
765.450	0.0160340
765.529	0.0160152
765.607	0.0160919
765.685	0.0160397
765.763	0.0160240
765.841	0.0161870
765.919	0.0162543
765.997	0.0161568
766.075	0.0162537
766.154	0.0163815
766.232	0.0163893
766.310	0.0164706
766.388	0.0166157
766.466	0.0166920
766.544	0.0166332
766.622	0.0166914
766.700	0.0167719
766.779	0.0169777
766.857	0.0168674
766.935	0.0168237
767.013	0.0168677
767.091	0.0168108
767.169	0.0167676
767.247	0.0170385
767.325	0.0169116
767.404	0.0169561
767.482	0.0169087
767.560	0.0168790
767.638	0.0169749
767.716	0.0169991
767.794	0.0169516
767.872	0.0169711
767.950	0.0167912
768.029	0.0169382
768.107	0.0169768
768.185	0.0169646
768.263	0.0168939
768.341	0.0167479
768.419	0.0167999
768.497	0.0168291
768.575	0.0166441
768.654	0.0166472
768.732	0.0165675
768.810	0.0165584
768.888	0.0164460
768.966	0.0164114
769.044	0.0164133
769.122	0.0163118
769.200	0.0162673
769.279	0.0161766
769.357	0.0161890
769.435	0.0161267
769.513	0.0160951
769.591	0.0161527
769.669	0.0161584
769.747	0.0163068
769.825	0.0164204
769.904	0.0164545
769.982	0.0164266
770.060	0.0165872
770.138	0.0166962
770.216	0.0167465
770.294	0.0167077
770.372	0.0166541
770.450	0.0167172
770.529	0.0166933
770.607	0.0167063
770.685	0.0167508
770.763	0.0168973
770.841	0.0166457
770.919	0.0167769
770.997	0.0166283
771.075	0.0165902
771.154	0.0164719
771.232	0.0165085
771.310	0.0164371
771.388	0.0163017
771.466	0.0163988
771.544	0.0162971
771.622	0.0161961
771.700	0.0162230
771.779	0.0160674
771.857	0.0160083
771.935	0.0161191
772.013	0.0161298
772.091	0.0162862
772.169	0.0162446
772.247	0.0162489
772.325	0.0164632
772.404	0.0164756
772.482	0.0165303
772.560	0.0164667
772.638	0.0165099
772.716	0.0165221
772.794	0.0166225
772.872	0.0166232
772.950	0.0165901
773.029	0.0165103
773.107	0.0163506
773.185	0.0164275
773.263	0.0163993
773.341	0.0162929
773.419	0.0160757
773.497	0.0159882
773.575	0.0161226
773.654	0.0159199
773.732	0.0159622
773.810	0.0159463
773.888	0.0159041
773.966	0.0158591
774.044	0.0158191
774.122	0.0157153
774.200	0.0157837
774.279	0.0157885
774.357	0.0157542
774.435	0.0157617
774.513	0.0158876
774.591	0.0159274
774.669	0.0159460
774.747	0.0161115
774.825	0.0164030
774.904	0.0164532
774.982	0.0166311
775.060	0.0166954
775.138	0.0169337
775.216	0.0171510
775.294	0.0172859
775.372	0.0175098
775.450	0.0176273
775.529	0.0177327
775.607	0.0179139
775.685	0.0180994
775.763	0.0180342
775.841	0.0183469
775.919	0.0182917
775.997	0.0181113
776.075	0.0182462
776.154	0.0182933
776.232	0.0180143
776.310	0.0179654
776.388	0.0177523
776.466	0.0176521
776.544	0.0172462
776.622	0.0170495
776.700	0.0167818
776.779	0.0165597
776.857	0.0161755
776.935	0.0160552
777.013	0.0157176
777.091	0.0155173
777.169	0.0153487
777.247	0.0153973
777.325	0.0149852
777.404	0.0150581
777.482	0.0150374
777.560	0.0148747
777.638	0.0149696
777.716	0.0149832
777.794	0.0149301
777.872	0.0150748
777.950	0.0152820
778.029	0.0153720
778.107	0.0154382
778.185	0.0157285
778.263	0.0159051
778.341	0.0161068
778.419	0.0162457
778.497	0.0164321
778.575	0.0166438
778.654	0.0168340
778.732	0.0170051
778.810	0.0170155
778.888	0.0171804
778.966	0.0172993
779.044	0.0173882
779.122	0.0175842
779.200	0.0177007
779.279	0.0177320
779.357	0.0177500
779.435	0.0176612
779.513	0.0176054
779.591	0.0177108
779.669	0.0178468
779.747	0.0176192
779.825	0.0175352
779.904	0.0173375
779.982	0.0172672
780.060	0.0172073
780.138	0.0169751
780.216	0.0167543
780.294	0.0164371
780.372	0.0162505
780.450	0.0161847
780.529	0.0158024
780.607	0.0154227
780.685	0.0154436
780.763	0.0152745
780.841	0.0150974
780.919	0.0148997
780.997	0.0147885
781.075	0.0145917
781.154	0.0147394
781.232	0.0147927
781.310	0.0148378
781.388	0.0149486
781.466	0.0149178
781.544	0.0151428
781.622	0.0154429
781.700	0.0154725
781.779	0.0157807
781.857	0.0159623
781.935	0.0162049
782.013	0.0164242
782.091	0.0166763
782.169	0.0168551
782.247	0.0171004
782.325	0.0173404
782.404	0.0174363
782.482	0.0176939
782.560	0.0178549
782.638	0.0179288
782.716	0.0180746
782.794	0.0181533
782.872	0.0182434
782.950	0.0182584
783.029	0.0183149
783.107	0.0182706
783.185	0.0181686
783.263	0.0182861
783.341	0.0181394
783.419	0.0180798
783.497	0.0179568
783.575	0.0178194
783.654	0.0175497
783.732	0.0173367
783.810	0.0171613
783.888	0.0168995
783.966	0.0168007
784.044	0.0166217
784.122	0.0164693
784.200	0.0161922
784.279	0.0162033
784.357	0.0161234
784.435	0.0159224
784.513	0.0157205
784.591	0.0156844
784.669	0.0156188
784.747	0.0156545
784.825	0.0156321
784.904	0.0154841
784.982	0.0155936
785.060	0.0155432
785.138	0.0154742
785.216	0.0154535
785.294	0.0155339
785.372	0.0154683
785.450	0.0156243
785.529	0.0158054
785.607	0.0158502
785.685	0.0157991
785.763	0.0158250
785.841	0.0160034
785.919	0.0159739
785.997	0.0159822
786.075	0.0159686
786.154	0.0160001
786.232	0.0161008
786.310	0.0162708
786.388	0.0163162
786.466	0.0163941
786.544	0.0165628
786.622	0.0165765
786.700	0.0165726
786.779	0.0167438
786.857	0.0169415
786.935	0.0169479
787.013	0.0169620
787.091	0.0171948
787.169	0.0171128
787.247	0.0170461
787.325	0.0171960
787.404	0.0173335
787.482	0.0172849
787.560	0.0171942
787.638	0.0171577
787.716	0.0170033
787.794	0.0170066
787.872	0.0169444
787.950	0.0167785
788.029	0.0167484
788.107	0.0167417
788.185	0.0167693
788.263	0.0167014
788.341	0.0166537
788.419	0.0165543
788.497	0.0167360
788.575	0.0166054
788.654	0.0165997
788.732	0.0164728
788.810	0.0164496
788.888	0.0163795
788.966	0.0162966
789.044	0.0162879
789.122	0.0163509
789.200	0.0163416
789.279	0.0161451
789.357	0.0161069
789.435	0.0159870
789.513	0.0159785
789.591	0.0159509
789.669	0.0161000
789.747	0.0161140
789.825	0.0159804
789.904	0.0159340
789.982	0.0157948
790.060	0.0160178
790.138	0.0159901
790.216	0.0160063
790.294	0.0159974
790.372	0.0160269
790.450	0.0161975
790.529	0.0163126
790.607	0.0162788
790.685	0.0162639
790.763	0.0162306
790.841	0.0162929
790.919	0.0165166
790.997	0.0165884
791.075	0.0167650
791.154	0.0166370
791.232	0.0168420
791.310	0.0168185
791.388	0.0169075
791.466	0.0169976
791.544	0.0170704
791.622	0.0170252
791.700	0.0171201
791.779	0.0170533
791.857	0.0170815
791.935	0.0171095
792.013	0.0171503
792.091	0.0170563
792.169	0.0170665
792.247	0.0171780
792.325	0.0172314
792.404	0.0169415
792.482	0.0170746
792.560	0.0171709
792.638	0.0168909
792.716	0.0169762
792.794	0.0169433
792.872	0.0168978
792.950	0.0168199
793.029	0.0167039
793.107	0.0167680
793.185	0.0167992
793.263	0.0166559
793.341	0.0166605
793.419	0.0164781
793.497	0.0164954
793.575	0.0166240
793.654	0.0163474
793.732	0.0163934
793.810	0.0163391
793.888	0.0162642
793.966	0.0162649
794.044	0.0162614
794.122	0.0160831
794.200	0.0160400
794.279	0.0158340
794.357	0.0158496
794.435	0.0156937
794.513	0.0157998
794.591	0.0157198
794.669	0.0156396
794.747	0.0155524
794.825	0.0156279
794.904	0.0157105
794.982	0.0155962
795.060	0.0158415
795.138	0.0157752
795.216	0.0158333
795.294	0.0159203
795.372	0.0158106
795.450	0.0160873
795.529	0.0162238
795.607	0.0160781
795.685	0.0161852
795.763	0.0163092
795.841	0.0163813
795.919	0.0164322
795.997	0.0162637
796.075	0.0163589
796.154	0.0163715
796.232	0.0165260
796.310	0.0166191
796.388	0.0165414
796.466	0.0165818
796.544	0.0164707
796.622	0.0165598
796.700	0.0166692
796.779	0.0165812
796.857	0.0166457
796.935	0.0166305
797.013	0.0167146
797.091	0.0168055
797.169	0.0168750
797.247	0.0168359
797.325	0.0168430
797.404	0.0168811
797.482	0.0169553
797.560	0.0169074
797.638	0.0170240
797.716	0.0172630
797.794	0.0171652
797.872	0.0171637
797.950	0.0173354
798.029	0.0172551
798.107	0.0172397
798.185	0.0170776
798.263	0.0171516
798.341	0.0172909
798.419	0.0172805
798.497	0.0171634
798.575	0.0171958
798.654	0.0171363
798.732	0.0169797
798.810	0.0169183
798.888	0.0168158
798.966	0.0169090
799.044	0.0167325
799.122	0.0167557
799.200	0.0168407
799.279	0.0165255
799.357	0.0165789
799.435	0.0165663
799.513	0.0164188
799.591	0.0163595
799.669	0.0162675
799.747	0.0162708
799.825	0.0162139
799.904	0.0161187
799.982	0.0160984
800.060	0.0161017
800.138	0.0160809
800.216	0.0159826
800.294	0.0160600
800.372	0.0160693
800.450	0.0160558
800.529	0.0160453
800.607	0.0160548
800.685	0.0160533
800.763	0.0159957
800.841	0.0159717
800.919	0.0159757
800.997	0.0158047
801.075	0.0158260
801.154	0.0159234
801.232	0.0158672
801.310	0.0158948
801.388	0.0156658
801.466	0.0157862
801.544	0.0159158
801.622	0.0158376
801.700	0.0156494
801.779	0.0157720
801.857	0.0159013
801.935	0.0159902
802.013	0.0157195
802.091	0.0159809
802.169	0.0160500
802.247	0.0161720
802.325	0.0162256
802.404	0.0162017
802.482	0.0163774
802.560	0.0164652
802.638	0.0163718
802.716	0.0166159
802.794	0.0167431
802.872	0.0167388
802.950	0.0168778
803.029	0.0168729
803.107	0.0169033
803.185	0.0169531
803.263	0.0171635
803.341	0.0170850
803.419	0.0170821
803.497	0.0172202
803.575	0.0171375
803.654	0.0170686
803.732	0.0173314
803.810	0.0171847
803.888	0.0171114
803.966	0.0171472
804.044	0.0171928
804.122	0.0171731
804.200	0.0171349
804.279	0.0171844
804.357	0.0170585
804.435	0.0170317
804.513	0.0170616
804.591	0.0169698
804.669	0.0169526
804.747	0.0168802
804.825	0.0168137
804.904	0.0168565
804.982	0.0167189
805.060	0.0166933
805.138	0.0166528
805.216	0.0165401
805.294	0.0165984
805.372	0.0165398
805.450	0.0164079
805.529	0.0162440
805.607	0.0161742
805.685	0.0162421
805.763	0.0162233
805.841	0.0162234
805.919	0.0161935
805.997	0.0161034
806.075	0.0159198
806.154	0.0160663
806.232	0.0159991
806.310	0.0160371
806.388	0.0160719
806.466	0.0161041
806.544	0.0159326
806.622	0.0160042
806.700	0.0160509
806.779	0.0161304
806.857	0.0162300
806.935	0.0161737
807.013	0.0161604
807.091	0.0162163
807.169	0.0164237
807.247	0.0164445
807.325	0.0166158
807.404	0.0165154
807.482	0.0166399
807.560	0.0164490
807.638	0.0165120
807.716	0.0166133
807.794	0.0166335
807.872	0.0166148
807.950	0.0168819
808.029	0.0165916
808.107	0.0168201
808.185	0.0167743
808.263	0.0168918
808.341	0.0169404
808.419	0.0169681
808.497	0.0170260
808.575	0.0169992
808.654	0.0170559
808.732	0.0169288
808.810	0.0170272
808.888	0.0169412
808.966	0.0170263
809.044	0.0169493
809.122	0.0170274
809.200	0.0169969
809.279	0.0168482
809.357	0.0168710
809.435	0.0168908
809.513	0.0168986
809.591	0.0167563
809.669	0.0166576
809.747	0.0166422
809.825	0.0165887
809.904	0.0164867
809.982	0.0164611
810.060	0.0163628
810.138	0.0163242
810.216	0.0163781
810.294	0.0161916
810.372	0.0162339
810.450	0.0160056
810.529	0.0159505
810.607	0.0159959
810.685	0.0160273
810.763	0.0160172
810.841	0.0159450
810.919	0.0159553
810.997	0.0159442
811.075	0.0160678
811.154	0.0161083
811.232	0.0160910
811.310	0.0160290
811.388	0.0161420
811.466	0.0162260
811.544	0.0163436
811.622	0.0164767
811.700	0.0164146
811.779	0.0162714
811.857	0.0164977
811.935	0.0165833
812.013	0.0165976
812.091	0.0166089
812.169	0.0164006
812.247	0.0165721
812.325	0.0166141
812.404	0.0165173
812.482	0.0167002
812.560	0.0166722
812.638	0.0164819
812.716	0.0166415
812.794	0.0165437
812.872	0.0165940
812.950	0.0164996
813.029	0.0166118
813.107	0.0166476
813.185	0.0167111
813.263	0.0167117
813.341	0.0166962
813.419	0.0167690
813.497	0.0167300
813.575	0.0168575
813.654	0.0167565
813.732	0.0167726
813.810	0.0168482
813.888	0.0168671
813.966	0.0168105
814.044	0.0168922
814.122	0.0169595
814.200	0.0168158
814.279	0.0166875
814.357	0.0168310
814.435	0.0168256
814.513	0.0165894
814.591	0.0166074
814.669	0.0166846
814.747	0.0166834
814.825	0.0167326
814.904	0.0165938
814.982	0.0167308
815.060	0.0167081
815.138	0.0165984
815.216	0.0166695
815.294	0.0167381
815.372	0.0166814
815.450	0.0167627
815.529	0.0166676
815.607	0.0166174
815.685	0.0167179
815.763	0.0166140
815.841	0.0166805
815.919	0.0166639
815.997	0.0165848
816.075	0.0166293
816.154	0.0166025
816.232	0.0165480
816.310	0.0164269
816.388	0.0162770
816.466	0.0163062
816.544	0.0164206
816.622	0.0162727
816.700	0.0161988
816.779	0.0162647
816.857	0.0162137
816.935	0.0162231
817.013	0.0161320
817.091	0.0162136
817.169	0.0162408
817.247	0.0161507
817.325	0.0162261
817.404	0.0161491
817.482	0.0161688
817.560	0.0162469
817.638	0.0162395
817.716	0.0162093
817.794	0.0160677
817.872	0.0161765
817.950	0.0163139
818.029	0.0163873
818.107	0.0163885
818.185	0.0163682
818.263	0.0162103
818.341	0.0163826
818.419	0.0164949
818.497	0.0164008
818.575	0.0162498
818.654	0.0162002
818.732	0.0163658
818.810	0.0163589
818.888	0.0163588
818.966	0.0163052
819.044	0.0162576
819.122	0.0162374
819.200	0.0164270
819.279	0.0163040
819.357	0.0162403
819.435	0.0163745
819.513	0.0164095
819.591	0.0164480
819.669	0.0165329
819.747	0.0165217
819.825	0.0165771
819.904	0.0164494
819.982	0.0166256
820.060	0.0168201
820.138	0.0167831
820.216	0.0167136
820.294	0.0169627
820.372	0.0171294
820.450	0.0170788
820.529	0.0171178
820.607	0.0170023
820.685	0.0171165
820.763	0.0171436
820.841	0.0170192
820.919	0.0170451
820.997	0.0169260
821.075	0.0168987
821.154	0.0169964
821.232	0.0170164
821.310	0.0170657
821.388	0.0170957
821.466	0.0169304
821.544	0.0169210
821.622	0.0169167
821.700	0.0168458
821.779	0.0168097
821.857	0.0168946
821.935	0.0167414
822.013	0.0167696
822.091	0.0165992
822.169	0.0164790
822.247	0.0166173
822.325	0.0164344
822.404	0.0164647
822.482	0.0164013
822.560	0.0162531
822.638	0.0162870
822.716	0.0162325
822.794	0.0162133
822.872	0.0160505
822.950	0.0160438
823.029	0.0161644
823.107	0.0160907
823.185	0.0159988
823.263	0.0159863
823.341	0.0160136
823.419	0.0160925
823.497	0.0159908
823.575	0.0161367
823.654	0.0161823
823.732	0.0163402
823.810	0.0163595
823.888	0.0165318
823.966	0.0166037
824.044	0.0165489
824.122	0.0165228
824.200	0.0167213
824.279	0.0165825
824.357	0.0167245
824.435	0.0168024
824.513	0.0168649
824.591	0.0166760
824.669	0.0166819
824.747	0.0167597
824.825	0.0167233
824.904	0.0167748
824.982	0.0167470
825.060	0.0167059
825.138	0.0167556
825.216	0.0165807
825.294	0.0165432
825.372	0.0167573
825.450	0.0167075
825.529	0.0166148
825.607	0.0165241
825.685	0.0165479
825.763	0.0163849
825.841	0.0164217
825.919	0.0163670
825.997	0.0163940
826.075	0.0163800
826.154	0.0162610
826.232	0.0161879
826.310	0.0162557
826.388	0.0161478
826.466	0.0160198
826.544	0.0160184
826.622	0.0161338
826.700	0.0160973
826.779	0.0160113
826.857	0.0158784
826.935	0.0158842
827.013	0.0160123
827.091	0.0160540
827.169	0.0159830
827.247	0.0159424
827.325	0.0160697
827.404	0.0162488
827.482	0.0162563
827.560	0.0163508
827.638	0.0162551
827.716	0.0166663
827.794	0.0167344
827.872	0.0166425
827.950	0.0168243
828.029	0.0169720
828.107	0.0169287
828.185	0.0170147
828.263	0.0170203
828.341	0.0171235
828.419	0.0172472
828.497	0.0171773
828.575	0.0171577
828.654	0.0171499
828.732	0.0171294
828.810	0.0172565
828.888	0.0170981
828.966	0.0171104
829.044	0.0170637
829.122	0.0170203
829.200	0.0171139
829.279	0.0170926
829.357	0.0171181
829.435	0.0170706
829.513	0.0171053
829.591	0.0169923
829.669	0.0168922
829.747	0.0167909
829.825	0.0167095
829.904	0.0167562
829.982	0.0166485
830.060	0.0166212
830.138	0.0165514
830.216	0.0166547
830.294	0.0165228
830.372	0.0163881
830.450	0.0163863
830.529	0.0163452
830.607	0.0163813
830.685	0.0163442
830.763	0.0162403
830.841	0.0161660
830.919	0.0164193
830.997	0.0161927
831.075	0.0162678
831.154	0.0162566
831.232	0.0161624
831.310	0.0162022
831.388	0.0161678
831.466	0.0162770
831.544	0.0160904
831.622	0.0161535
831.700	0.0162196
831.779	0.0162798
831.857	0.0162698
831.935	0.0161353
832.013	0.0162970
832.091	0.0163812
832.169	0.0163073
832.247	0.0163805
832.325	0.0163903
832.404	0.0163988
832.482	0.0164323
832.560	0.0164616
832.638	0.0163955
832.716	0.0165263
832.794	0.0163970
832.872	0.0164605
832.950	0.0164030
833.029	0.0164326
833.107	0.0164675
833.185	0.0164008
833.263	0.0165717
833.341	0.0165102
833.419	0.0165370
833.497	0.0164841
833.575	0.0164922
833.654	0.0164990
833.732	0.0165061
833.810	0.0165459
833.888	0.0165221
833.966	0.0165277
834.044	0.0164461
834.122	0.0163810
834.200	0.0165814
834.279	0.0164906
834.357	0.0165201
834.435	0.0165775
834.513	0.0167572
834.591	0.0168070
834.669	0.0166953
834.747	0.0167741
834.825	0.0167418
834.904	0.0168111
834.982	0.0169547
835.060	0.0167016
835.138	0.0169368
835.216	0.0169096
835.294	0.0168967
835.372	0.0169057
835.450	0.0167744
835.529	0.0168645
835.607	0.0168884
835.685	0.0167704
835.763	0.0167032
835.841	0.0167701
835.919	0.0167197
835.997	0.0166867
836.075	0.0165611
836.154	0.0166015
836.232	0.0166174
836.310	0.0166020
836.388	0.0166563
836.466	0.0165392
836.544	0.0164816
836.622	0.0164622
836.700	0.0164843
836.779	0.0163082
836.857	0.0163121
836.935	0.0162443
837.013	0.0163123
837.091	0.0162070
837.169	0.0164069
837.247	0.0163589
837.325	0.0162758
837.404	0.0163940
837.482	0.0163837
837.560	0.0164557
837.638	0.0164331
837.716	0.0163746
837.794	0.0164407
837.872	0.0164002
837.950	0.0164360
838.029	0.0164798
838.107	0.0165940
838.185	0.0165673
838.263	0.0164551
838.341	0.0165202
838.419	0.0164983
838.497	0.0163969
838.575	0.0164749
838.654	0.0165440
838.732	0.0164896
838.810	0.0166110
838.888	0.0165860
838.966	0.0164621
839.044	0.0165060
839.122	0.0165434
839.200	0.0165787
839.279	0.0166010
839.357	0.0164707
839.435	0.0165695
839.513	0.0165000
839.591	0.0165083
839.669	0.0164690
839.747	0.0165264
839.825	0.0164193
839.904	0.0164423
839.982	0.0164383
840.060	0.0165712
840.138	0.0164500
840.216	0.0164532
840.294	0.0164819
840.372	0.0165157
840.450	0.0164978
840.529	0.0165266
840.607	0.0164819
840.685	0.0165701
840.763	0.0165258
840.841	0.0164700
840.919	0.0166183
840.997	0.0164771
841.075	0.0164948
841.154	0.0163609
841.232	0.0165396
841.310	0.0163792
841.388	0.0164549
841.466	0.0165758
841.544	0.0164259
841.622	0.0164977
841.700	0.0164976
841.779	0.0164527
841.857	0.0164079
841.935	0.0164969
842.013	0.0164268
842.091	0.0165562
842.169	0.0165944
842.247	0.0165459
842.325	0.0165813
842.404	0.0165313
842.482	0.0164421
842.560	0.0165512
842.638	0.0165227
842.716	0.0165588
842.794	0.0164317
842.872	0.0164412
842.950	0.0163765
843.029	0.0164169
843.107	0.0163781
843.185	0.0163712
843.263	0.0163648
843.341	0.0162480
843.419	0.0162653
843.497	0.0163357
843.575	0.0165852
843.654	0.0163805
843.732	0.0162965
843.810	0.0164680
843.888	0.0166017
843.966	0.0165611
844.044	0.0165150
844.122	0.0165849
844.200	0.0166994
844.279	0.0166791
844.357	0.0166492
844.435	0.0166073
844.513	0.0168721
844.591	0.0167460
844.669	0.0166398
844.747	0.0167550
844.825	0.0169381
844.904	0.0167111
844.982	0.0167991
845.060	0.0169775
845.138	0.0168107
845.216	0.0167520
845.294	0.0169740
845.372	0.0169439
845.450	0.0167427
845.529	0.0168101
845.607	0.0169447
845.685	0.0167315
845.763	0.0166541
845.841	0.0168245
845.919	0.0167281
845.997	0.0166837
846.075	0.0166911
846.154	0.0167626
846.232	0.0165461
846.310	0.0166013
846.388	0.0166423
846.466	0.0165843
846.544	0.0165331
846.622	0.0165083
846.700	0.0164338
846.779	0.0164977
846.857	0.0164734
846.935	0.0164556
847.013	0.0162863
847.091	0.0163606
847.169	0.0162752
847.247	0.0161774
847.325	0.0161464
847.404	0.0161893
847.482	0.0161034
847.560	0.0160122
847.638	0.0160560
847.716	0.0159211
847.794	0.0158276
847.872	0.0158986
847.950	0.0160797
848.029	0.0160121
848.107	0.0159520
848.185	0.0158365
848.263	0.0159735
848.341	0.0160095
848.419	0.0160699
848.497	0.0161019
848.575	0.0161549
848.654	0.0161166
848.732	0.0160701
848.810	0.0161439
848.888	0.0162060
848.966	0.0162518
849.044	0.0164587
849.122	0.0164126
849.200	0.0164800
849.279	0.0164127
849.357	0.0165072
849.435	0.0165989
849.513	0.0169218
849.591	0.0170053
849.669	0.0169344
849.747	0.0170856
849.825	0.0170473
849.904	0.0172724
849.982	0.0171726
850.060	0.0170885
850.138	0.0172030
850.216	0.0171732
850.294	0.0171068
850.372	0.0170563
850.450	0.0170825
850.529	0.0171529
850.607	0.0170441
850.685	0.0169693
850.763	0.0169022
850.841	0.0167063
850.919	0.0165798
850.997	0.0165804
851.075	0.0166805
851.154	0.0167374
851.232	0.0166138
851.310	0.0164336
851.388	0.0165910
851.466	0.0165516
851.544	0.0164971
851.622	0.0164152
851.700	0.0162646
851.779	0.0162756
851.857	0.0161328
851.935	0.0161752
852.013	0.0162427
852.091	0.0162514
852.169	0.0162424
852.247	0.0161600
852.325	0.0162363
852.404	0.0162900
852.482	0.0161992
852.560	0.0160956
852.638	0.0162278
852.716	0.0162743
852.794	0.0162050
852.872	0.0161134
852.950	0.0161776
853.029	0.0162844
853.107	0.0162818
853.185	0.0162779
853.263	0.0163454
853.341	0.0165385
853.419	0.0164635
853.497	0.0164399
853.575	0.0164980
853.654	0.0164130
853.732	0.0165215
853.810	0.0165405
853.888	0.0165582
853.966	0.0165260
854.044	0.0166228
854.122	0.0166091
854.200	0.0164912
854.279	0.0165388
854.357	0.0164484
854.435	0.0164766
854.513	0.0167274
854.591	0.0167706
854.669	0.0165165
854.747	0.0165121
854.825	0.0166541
854.904	0.0165379
854.982	0.0165145
855.060	0.0165178
855.138	0.0164468
855.216	0.0164346
855.294	0.0165618
855.372	0.0165981
855.450	0.0164983
855.529	0.0164895
855.607	0.0164627
855.685	0.0165680
855.763	0.0164106
855.841	0.0165755
855.919	0.0165343
855.997	0.0164500
856.075	0.0164578
856.154	0.0165262
856.232	0.0164878
856.310	0.0165274
856.388	0.0163264
856.466	0.0164003
856.544	0.0163441
856.622	0.0163001
856.700	0.0162125
856.779	0.0163832
856.857	0.0163940
856.935	0.0163420
857.013	0.0164027
857.091	0.0163750
857.169	0.0163531
857.247	0.0163795
857.325	0.0164875
857.404	0.0164268
857.482	0.0165340
857.560	0.0165678
857.638	0.0164209
857.716	0.0166136
857.794	0.0166590
857.872	0.0166383
857.950	0.0166937
858.029	0.0165921
858.107	0.0165412
858.185	0.0166782
858.263	0.0166541
858.341	0.0166160
858.419	0.0166596
858.497	0.0166233
858.575	0.0165354
858.654	0.0166815
858.732	0.0167637
858.810	0.0166670
858.888	0.0166082
858.966	0.0167037
859.044	0.0165728
859.122	0.0165061
859.200	0.0165117
859.279	0.0164971
859.357	0.0165555
859.435	0.0165524
859.513	0.0164997
859.591	0.0164301
859.669	0.0163615
859.747	0.0162830
859.825	0.0163749
859.904	0.0164221
859.982	0.0163918
860.060	0.0163338
860.138	0.0163797
860.216	0.0164766
860.294	0.0163831
860.372	0.0163765
860.450	0.0162814
860.529	0.0164918
860.607	0.0162883
860.685	0.0163783
860.763	0.0163741
860.841	0.0162741
860.919	0.0164751
860.997	0.0165304
861.075	0.0164480
861.154	0.0164331
861.232	0.0164182
861.310	0.0165317
861.388	0.0165986
861.466	0.0165472
861.544	0.0168502
861.622	0.0168179
861.700	0.0167890
861.779	0.0167228
861.857	0.0168124
861.935	0.0168427
862.013	0.0169626
862.091	0.0168847
862.169	0.0168078
862.247	0.0168662
862.325	0.0168159
862.404	0.0166747
862.482	0.0167139
862.560	0.0167965
862.638	0.0167589
862.716	0.0167357
862.794	0.0165321
862.872	0.0167289
862.950	0.0165088
863.029	0.0166524
863.107	0.0164912
863.185	0.0163239
863.263	0.0162920
863.341	0.0162828
863.419	0.0164067
863.497	0.0162160
863.575	0.0161587
863.654	0.0161999
863.732	0.0161787
863.810	0.0158672
863.888	0.0160497
863.966	0.0160831
864.044	0.0159504
864.122	0.0158897
864.200	0.0160539
864.279	0.0160439
864.357	0.0160727
864.435	0.0160327
864.513	0.0161100
864.591	0.0160684
864.669	0.0161402
864.747	0.0162801
864.825	0.0163683
864.904	0.0163951
864.982	0.0164879
865.060	0.0165733
865.138	0.0167297
865.216	0.0165978
865.294	0.0168003
865.372	0.0167864
865.450	0.0168832
865.529	0.0167769
865.607	0.0169334
865.685	0.0168501
865.763	0.0168977
865.841	0.0168847
865.919	0.0168154
865.997	0.0167467
866.075	0.0167934
866.154	0.0165400
866.232	0.0165988
866.310	0.0165614
866.388	0.0165163
866.466	0.0165849
866.544	0.0165097
866.622	0.0166098
866.700	0.0166043
866.779	0.0165100
866.857	0.0165797
866.935	0.0163890
867.013	0.0164050
867.091	0.0163419
867.169	0.0164940
867.247	0.0163914
867.325	0.0162224
867.404	0.0164788
867.482	0.0165858
867.560	0.0164519
867.638	0.0165860
867.716	0.0167351
867.794	0.0167558
867.872	0.0169280
867.950	0.0168232
868.029	0.0167626
868.107	0.0168638
868.185	0.0168604
868.263	0.0168079
868.341	0.0166318
868.419	0.0166938
868.497	0.0166944
868.575	0.0166218
868.654	0.0164822
868.732	0.0164631
868.810	0.0163627
868.888	0.0162841
868.966	0.0164100
869.044	0.0162985
869.122	0.0162941
869.200	0.0161636
869.279	0.0160263
869.357	0.0160716
869.435	0.0160146
869.513	0.0161600
869.591	0.0159640
869.669	0.0159003
869.747	0.0160994
869.825	0.0159650
869.904	0.0160188
869.982	0.0160870
870.060	0.0163023
870.138	0.0163860
870.216	0.0163181
870.294	0.0164034
870.372	0.0165759
870.450	0.0166619
870.529	0.0168826
870.607	0.0169285
870.685	0.0170845
870.763	0.0170066
870.841	0.0170753
870.919	0.0170021
870.997	0.0171467
871.075	0.0171944
871.154	0.0171404
871.232	0.0171088
871.310	0.0168843
871.388	0.0168198
871.466	0.0167479
871.544	0.0165730
871.622	0.0165089
871.700	0.0162221
871.779	0.0160354
871.857	0.0160108
871.935	0.0157464
872.013	0.0156467
872.091	0.0154218
872.169	0.0154335
872.247	0.0153469
872.325	0.0153168
872.404	0.0153861
872.482	0.0155546
872.560	0.0155354
872.638	0.0157286
872.716	0.0159239
872.794	0.0160078
872.872	0.0162510
872.950	0.0165529
873.029	0.0167019
873.107	0.0168529
873.185	0.0171359
873.263	0.0171317
873.341	0.0172882
873.419	0.0173051
873.497	0.0175130
873.575	0.0174715
873.654	0.0176358
873.732	0.0176749
873.810	0.0175550
873.888	0.0175265
873.966	0.0175906
874.044	0.0174738
874.122	0.0174522
874.200	0.0173009
874.279	0.0172980
874.357	0.0173494
874.435	0.0170616
874.513	0.0170206
874.591	0.0167867
874.669	0.0166671
874.747	0.0167512
874.825	0.0165279
874.904	0.0163658
874.982	0.0161102
875.060	0.0160906
875.138	0.0159699
875.216	0.0158723
875.294	0.0156691
875.372	0.0155669
875.450	0.0156821
875.529	0.0155120
875.607	0.0153324
875.685	0.0153831
875.763	0.0153495
875.841	0.0152804
875.919	0.0152643
875.997	0.0152232
876.075	0.0153718
876.154	0.0153764
876.232	0.0155039
876.310	0.0156471
876.388	0.0157583
876.466	0.0158854
876.544	0.0160424
876.622	0.0162191
876.700	0.0164104
876.779	0.0166648
876.857	0.0168833
876.935	0.0171056
877.013	0.0171330
877.091	0.0172528
877.169	0.0175642
877.247	0.0177253
877.325	0.0176747
877.404	0.0176816
877.482	0.0176559
877.560	0.0177580
877.638	0.0175834
877.716	0.0175770
877.794	0.0176187
877.872	0.0175266
877.950	0.0172814
878.029	0.0170383
878.107	0.0170640
878.185	0.0170417
878.263	0.0167178
878.341	0.0165826
878.419	0.0165602
878.497	0.0166135
878.575	0.0164355
878.654	0.0163108
878.732	0.0163077
878.810	0.0162229
878.888	0.0160610
878.966	0.0160862
879.044	0.0159131
879.122	0.0160500
879.200	0.0158377
879.279	0.0157898
879.357	0.0156751
879.435	0.0155208
879.513	0.0156371
879.591	0.0155853
879.669	0.0156962
879.747	0.0155191
879.825	0.0156498
879.904	0.0157975
879.982	0.0157854
880.060	0.0159738
880.138	0.0160842
880.216	0.0161646
880.294	0.0162710
880.372	0.0165598
880.450	0.0163512
880.529	0.0165401
880.607	0.0165526
880.685	0.0166782
880.763	0.0167147
880.841	0.0166947
880.919	0.0167455
880.997	0.0167725
881.075	0.0166885
881.154	0.0167039
881.232	0.0166824
881.310	0.0166549
881.388	0.0168039
881.466	0.0167664
881.544	0.0167892
881.622	0.0168486
881.700	0.0170795
881.779	0.0171518
881.857	0.0171231
881.935	0.0172145
882.013	0.0172260
882.091	0.0171805
882.169	0.0173652
882.247	0.0172640
882.325	0.0172084
882.404	0.0172195
882.482	0.0172233
882.560	0.0170921
882.638	0.0170357
882.716	0.0168941
882.794	0.0168118
882.872	0.0166088
882.950	0.0165356
883.029	0.0165089
883.107	0.0165042
883.185	0.0163918
883.263	0.0163723
883.341	0.0161434
883.419	0.0162415
883.497	0.0161929
883.575	0.0162253
883.654	0.0161168
883.732	0.0161782
883.810	0.0161751
883.888	0.0161473
883.966	0.0162837
884.044	0.0161342
884.122	0.0161998
884.200	0.0162901
884.279	0.0162492
884.357	0.0162096
884.435	0.0162997
884.513	0.0161382
884.591	0.0161372
884.669	0.0161600
884.747	0.0160612
884.825	0.0162132
884.904	0.0161755
884.982	0.0161883
885.060	0.0161568
885.138	0.0161860
885.216	0.0162485
885.294	0.0161142
885.372	0.0161644
885.450	0.0164050
885.529	0.0164587
885.607	0.0164779
885.685	0.0164586
885.763	0.0165675
885.841	0.0166760
885.919	0.0168143
885.997	0.0167477
886.075	0.0167776
886.154	0.0169076
886.232	0.0169008
886.310	0.0169218
886.388	0.0169271
886.466	0.0169400
886.544	0.0169118
886.622	0.0168133
886.700	0.0168198
886.779	0.0168636
886.857	0.0168697
886.935	0.0168465
887.013	0.0169543
887.091	0.0168030
887.169	0.0167464
887.247	0.0167892
887.325	0.0167007
887.404	0.0167290
887.482	0.0166504
887.560	0.0165741
887.638	0.0165089
887.716	0.0165937
887.794	0.0165441
887.872	0.0165453
887.950	0.0165868
888.029	0.0165051
888.107	0.0164301
888.185	0.0165291
888.263	0.0165681
888.341	0.0166407
888.419	0.0164272
888.497	0.0165286
888.575	0.0164874
888.654	0.0163969
888.732	0.0163466
888.810	0.0163328
888.888	0.0161878
888.966	0.0162746
889.044	0.0161705
889.122	0.0161154
889.200	0.0161869
889.279	0.0161470
889.357	0.0160339
889.435	0.0161520
889.513	0.0161850
889.591	0.0162244
889.669	0.0161799
889.747	0.0162672
889.825	0.0163187
889.904	0.0163612
889.982	0.0163745
890.060	0.0163638
890.138	0.0166415
890.216	0.0166216
890.294	0.0166624
890.372	0.0166661
890.450	0.0166022
890.529	0.0166954
890.607	0.0168494
890.685	0.0168361
890.763	0.0170180
890.841	0.0169067
890.919	0.0168417
890.997	0.0171083
891.075	0.0170717
891.154	0.0168123
891.232	0.0170038
891.310	0.0169841
891.388	0.0168807
891.466	0.0169582
891.544	0.0168301
891.622	0.0167406
891.700	0.0167084
891.779	0.0165255
891.857	0.0163897
891.935	0.0164966
892.013	0.0164001
892.091	0.0162177
892.169	0.0162053
892.247	0.0162634
892.325	0.0160980
892.404	0.0160901
892.482	0.0163023
892.560	0.0163037
892.638	0.0162000
892.716	0.0162749
892.794	0.0163181
892.872	0.0164563
892.950	0.0163306
893.029	0.0163889
893.107	0.0163232
893.185	0.0163951
893.263	0.0164347
893.341	0.0164471
893.419	0.0165239
893.497	0.0165331
893.575	0.0164621
893.654	0.0166048
893.732	0.0166789
893.810	0.0167331
893.888	0.0167489
893.966	0.0166197
894.044	0.0166373
894.122	0.0168325
894.200	0.0167355
894.279	0.0166991
894.357	0.0168626
894.435	0.0168114
894.513	0.0167796
894.591	0.0169231
894.669	0.0167843
894.747	0.0167559
894.825	0.0166911
894.904	0.0167981
894.982	0.0166743
895.060	0.0168873
895.138	0.0167737
895.216	0.0167360
895.294	0.0167010
895.372	0.0168462
895.450	0.0167606
895.529	0.0167490
895.607	0.0167106
895.685	0.0166206
895.763	0.0165359
895.841	0.0166199
895.919	0.0164447
895.997	0.0163868
896.075	0.0161850
896.154	0.0161987
896.232	0.0161166
896.310	0.0159955
896.388	0.0161459
896.466	0.0160709
896.544	0.0159522
896.622	0.0160136
896.700	0.0160749
896.779	0.0160075
896.857	0.0160732
896.935	0.0161040
897.013	0.0161977
897.091	0.0162628
897.169	0.0160796
897.247	0.0162270
897.325	0.0162089
897.404	0.0164658
897.482	0.0164648
897.560	0.0165050
897.638	0.0164525
897.716	0.0165687
897.794	0.0167435
897.872	0.0165433
897.950	0.0166673
898.029	0.0168043
898.107	0.0167730
898.185	0.0167788
898.263	0.0168815
898.341	0.0168085
898.419	0.0168997
898.497	0.0171172
898.575	0.0168892
898.654	0.0169536
898.732	0.0169643
898.810	0.0168384
898.888	0.0169151
898.966	0.0168021
899.044	0.0167676
899.122	0.0167738
899.200	0.0166936
899.279	0.0165762
899.357	0.0166769
899.435	0.0166021
899.513	0.0165298
899.591	0.0167601
899.669	0.0164732
899.747	0.0165244
899.825	0.0165834
899.904	0.0164980
899.982	0.0165601
900.060	0.0165830
900.138	0.0167452
900.216	0.0165466
900.294	0.0165864
900.372	0.0167126
900.450	0.0167274
900.529	0.0167202
900.607	0.0167159
900.685	0.0166046
900.763	0.0166490
900.841	0.0165651
900.919	0.0166357
900.997	0.0166245
901.075	0.0166084
901.154	0.0165300
901.232	0.0165864
901.310	0.0164265
901.388	0.0163920
901.466	0.0162631
901.544	0.0162689
901.622	0.0162437
901.700	0.0163657
901.779	0.0162789
901.857	0.0163601
901.935	0.0163982
902.013	0.0163244
902.091	0.0161860
902.169	0.0163433
902.247	0.0163771
902.325	0.0164282
902.404	0.0164520
902.482	0.0165167
902.560	0.0164256
902.638	0.0165441
902.716	0.0165923
902.794	0.0166070
902.872	0.0165977
902.950	0.0165522
903.029	0.0166402
903.107	0.0166639
903.185	0.0167861
903.263	0.0167400
903.341	0.0167360
903.419	0.0168182
903.497	0.0167902
903.575	0.0168072
903.654	0.0166272
903.732	0.0167422
903.810	0.0166513
903.888	0.0165736
903.966	0.0165491
904.044	0.0165850
904.122	0.0164471
904.200	0.0163447
904.279	0.0163085
904.357	0.0165495
904.435	0.0164354
904.513	0.0166006
904.591	0.0165814
904.669	0.0165289
904.747	0.0164641
904.825	0.0167047
904.904	0.0165597
904.982	0.0166573
905.060	0.0167050
905.138	0.0167733
905.216	0.0166162
905.294	0.0165327
905.372	0.0165057
905.450	0.0164409
905.529	0.0164928
905.607	0.0165628
905.685	0.0166711
905.763	0.0164485
905.841	0.0164359
905.919	0.0165662
905.997	0.0165034
906.075	0.0165635
906.154	0.0166907
906.232	0.0165107
906.310	0.0166478
906.388	0.0165087
906.466	0.0165594
906.544	0.0165989
906.622	0.0166871
906.700	0.0165009
906.779	0.0166199
906.857	0.0167283
906.935	0.0165035
907.013	0.0166398
907.091	0.0165181
907.169	0.0165405
907.247	0.0164732
907.325	0.0165232
907.404	0.0165293
907.482	0.0164660
907.560	0.0163463
907.638	0.0163612
907.716	0.0164052
907.794	0.0164959
907.872	0.0164816
907.950	0.0165366
908.029	0.0165178
908.107	0.0164627
908.185	0.0164787
908.263	0.0166306
908.341	0.0166287
908.419	0.0166980
908.497	0.0166277
908.575	0.0167069
908.654	0.0166506
908.732	0.0166770
908.810	0.0167164
908.888	0.0167815
908.966	0.0166878
909.044	0.0165569
909.122	0.0167484
909.200	0.0167123
909.279	0.0168192
909.357	0.0167168
909.435	0.0166307
909.513	0.0168252
909.591	0.0166631
909.669	0.0164754
909.747	0.0165000
909.825	0.0165319
909.904	0.0165021
909.982	0.0163783
910.060	0.0164046
910.138	0.0163363
910.216	0.0162579
910.294	0.0162437
910.372	0.0162744
910.450	0.0161822
910.529	0.0163197
910.607	0.0162107
910.685	0.0161706
910.763	0.0164445
910.841	0.0163673
910.919	0.0164134
910.997	0.0164845
911.075	0.0165296
911.154	0.0164711
911.232	0.0166166
911.310	0.0165579
911.388	0.0166753
911.466	0.0166587
911.544	0.0166388
911.622	0.0167068
911.700	0.0166817
911.779	0.0167805
911.857	0.0167230
911.935	0.0168024
912.013	0.0167989
912.091	0.0166743
912.169	0.0166892
912.247	0.0168053
912.325	0.0168773
912.404	0.0168906
912.482	0.0168722
912.560	0.0168299
912.638	0.0168357
912.716	0.0169437
912.794	0.0168678
912.872	0.0168862
912.950	0.0167831
913.029	0.0168119
913.107	0.0168678
913.185	0.0168008
913.263	0.0166621
913.341	0.0166353
913.419	0.0165552
913.497	0.0164021
913.575	0.0165089
913.654	0.0163069
913.732	0.0163107
913.810	0.0163765
913.888	0.0162475
913.966	0.0160979
914.044	0.0162731
914.122	0.0161964
914.200	0.0161401
914.279	0.0160744
914.357	0.0163141
914.435	0.0162072
914.513	0.0162553
914.591	0.0163174
914.669	0.0162401
914.747	0.0163998
914.825	0.0164160
914.904	0.0165534
914.982	0.0165338
915.060	0.0165168
915.138	0.0165739
915.216	0.0165133
915.294	0.0165527
915.372	0.0166020
915.450	0.0167686
915.529	0.0166647
915.607	0.0166585
915.685	0.0167292
915.763	0.0167886
915.841	0.0164748
915.919	0.0167276
915.997	0.0166911
916.075	0.0166294
916.154	0.0166677
916.232	0.0165817
916.310	0.0165532
916.388	0.0167307
916.466	0.0167027
916.544	0.0166969
916.622	0.0165073
916.700	0.0167642
916.779	0.0165607
916.857	0.0166107
916.935	0.0165267
917.013	0.0164217
917.091	0.0165641
917.169	0.0165632
917.247	0.0164124
917.325	0.0164317
917.404	0.0165395
917.482	0.0165077
917.560	0.0164892
917.638	0.0166225
917.716	0.0164573
917.794	0.0165674
917.872	0.0165450
917.950	0.0165034
918.029	0.0163805
918.107	0.0165479
918.185	0.0164544
918.263	0.0163792
918.341	0.0164970
918.419	0.0165479
918.497	0.0164122
918.575	0.0163554
918.654	0.0164239
918.732	0.0163818
918.810	0.0164151
918.888	0.0163889
918.966	0.0163857
919.044	0.0164960
919.122	0.0165128
919.200	0.0164893
919.279	0.0163626
919.357	0.0164230
919.435	0.0162828
919.513	0.0163485
919.591	0.0164449
919.669	0.0164162
919.747	0.0165913
919.825	0.0163345
919.904	0.0164001
