06/01/2022	17:25:29	Ver.	4.1	UNKNOWN
Optical Delay	599.981738	Delta X		0.078125	Sweeps	1	Scan Rate	0/0
Coordinates	Axis 1	NaN	Axis 2	NaN	Axis 3	NaN	Axis 4	NaN	Axis 5	NaN	Axis 6	0.000000
TX Power	0.000000	RX Power	0.000000

599.982	0.0166489
600.060	0.0165116
600.138	0.0166048
600.216	0.0166668
600.294	0.0166793
600.372	0.0167184
600.450	0.0167407
600.529	0.0167671
600.607	0.0166260
600.685	0.0166598
600.763	0.0166628
600.841	0.0166713
600.919	0.0168546
600.997	0.0166728
601.075	0.0166351
601.154	0.0166911
601.232	0.0166245
601.310	0.0166768
601.388	0.0166245
601.466	0.0166301
601.544	0.0165297
601.622	0.0166991
601.700	0.0166470
601.779	0.0166891
601.857	0.0166767
601.935	0.0166112
602.013	0.0165645
602.091	0.0164784
602.169	0.0166084
602.247	0.0165114
602.325	0.0166415
602.404	0.0166229
602.482	0.0164636
602.560	0.0166545
602.638	0.0165355
602.716	0.0166498
602.794	0.0167038
602.872	0.0165816
602.950	0.0165524
603.029	0.0165468
603.107	0.0166185
603.185	0.0165710
603.263	0.0166092
603.341	0.0166377
603.419	0.0166079
603.497	0.0165568
603.575	0.0166949
603.654	0.0167993
603.732	0.0166113
603.810	0.0165977
603.888	0.0166952
603.966	0.0166195
604.044	0.0167502
604.122	0.0166206
604.200	0.0167159
604.279	0.0166302
604.357	0.0166372
604.435	0.0164831
604.513	0.0167374
604.591	0.0166858
604.669	0.0165398
604.747	0.0166536
604.825	0.0167785
604.904	0.0167697
604.982	0.0167439
605.060	0.0165690
605.138	0.0166380
605.216	0.0167810
605.294	0.0167339
605.372	0.0167673
605.450	0.0165577
605.529	0.0166589
605.607	0.0165987
605.685	0.0165540
605.763	0.0167154
605.841	0.0167319
605.919	0.0166109
605.997	0.0167430
606.075	0.0165894
606.154	0.0166694
606.232	0.0167021
606.310	0.0166677
606.388	0.0165691
606.466	0.0167318
606.544	0.0166068
606.622	0.0165418
606.700	0.0167251
606.779	0.0166334
606.857	0.0166284
606.935	0.0166478
607.013	0.0167029
607.091	0.0165549
607.169	0.0165701
607.247	0.0167601
607.325	0.0166194
607.404	0.0166530
607.482	0.0166531
607.560	0.0165738
607.638	0.0163871
607.716	0.0166669
607.794	0.0166417
607.872	0.0164770
607.950	0.0165966
608.029	0.0164661
608.107	0.0165932
608.185	0.0166472
608.263	0.0166380
608.341	0.0167126
608.419	0.0165910
608.497	0.0166672
608.575	0.0167148
608.654	0.0165874
608.732	0.0166843
608.810	0.0166547
608.888	0.0166493
608.966	0.0165911
609.044	0.0167648
609.122	0.0167465
609.200	0.0166404
609.279	0.0166756
609.357	0.0167139
609.435	0.0166756
609.513	0.0166662
609.591	0.0166537
609.669	0.0169026
609.747	0.0166960
609.825	0.0166135
609.904	0.0166052
609.982	0.0166327
610.060	0.0167012
610.138	0.0166640
610.216	0.0166851
610.294	0.0165571
610.372	0.0166680
610.450	0.0166179
610.529	0.0166613
610.607	0.0166812
610.685	0.0167127
610.763	0.0165299
610.841	0.0166485
610.919	0.0165359
610.997	0.0165366
611.075	0.0165733
611.154	0.0167236
611.232	0.0166547
611.310	0.0166312
611.388	0.0166236
611.466	0.0165543
611.544	0.0166586
611.622	0.0165421
611.700	0.0165576
611.779	0.0163950
611.857	0.0165569
611.935	0.0164576
612.013	0.0165625
612.091	0.0166543
612.169	0.0166135
612.247	0.0165897
612.325	0.0165379
612.404	0.0165574
612.482	0.0164691
612.560	0.0165152
612.638	0.0165502
612.716	0.0166052
612.794	0.0166762
612.872	0.0165759
612.950	0.0166299
613.029	0.0166428
613.107	0.0167152
613.185	0.0166620
613.263	0.0167091
613.341	0.0166435
613.419	0.0166515
613.497	0.0166491
613.575	0.0166579
613.654	0.0164819
613.732	0.0165613
613.810	0.0166464
613.888	0.0167892
613.966	0.0166826
614.044	0.0165687
614.122	0.0166154
614.200	0.0165786
614.279	0.0167024
614.357	0.0167516
614.435	0.0165927
614.513	0.0165201
614.591	0.0165637
614.669	0.0166002
614.747	0.0166435
614.825	0.0165158
614.904	0.0165657
614.982	0.0166293
615.060	0.0166024
615.138	0.0167126
615.216	0.0165971
615.294	0.0166408
615.372	0.0165086
615.450	0.0165377
615.529	0.0167288
615.607	0.0166770
615.685	0.0166584
615.763	0.0167609
615.841	0.0166942
615.919	0.0167104
615.997	0.0165932
616.075	0.0165604
616.154	0.0165730
616.232	0.0166518
616.310	0.0165050
616.388	0.0166212
616.466	0.0166103
616.544	0.0166789
616.622	0.0165501
616.700	0.0165977
616.779	0.0166788
616.857	0.0164925
616.935	0.0164594
617.013	0.0166593
617.091	0.0164957
617.169	0.0164675
617.247	0.0166000
617.325	0.0165899
617.404	0.0166930
617.482	0.0166149
617.560	0.0166071
617.638	0.0166944
617.716	0.0167916
617.794	0.0166464
617.872	0.0165594
617.950	0.0165329
618.029	0.0166000
618.107	0.0166496
618.185	0.0165938
618.263	0.0165729
618.341	0.0166668
618.419	0.0166049
618.497	0.0165639
618.575	0.0166750
618.654	0.0166890
618.732	0.0165411
618.810	0.0166353
618.888	0.0167878
618.966	0.0166895
619.044	0.0165637
619.122	0.0167341
619.200	0.0166567
619.279	0.0167072
619.357	0.0165710
619.435	0.0166491
619.513	0.0166675
619.591	0.0165874
619.669	0.0167187
619.747	0.0165540
619.825	0.0166183
619.904	0.0167012
619.982	0.0166800
620.060	0.0166795
620.138	0.0167357
620.216	0.0167190
620.294	0.0166763
620.372	0.0167602
620.450	0.0166430
620.529	0.0166049
620.607	0.0166613
620.685	0.0165379
620.763	0.0166735
620.841	0.0167050
620.919	0.0166024
620.997	0.0167180
621.075	0.0166312
621.154	0.0167327
621.232	0.0167082
621.310	0.0166232
621.388	0.0165795
621.466	0.0166953
621.544	0.0166115
621.622	0.0166261
621.700	0.0166113
621.779	0.0166546
621.857	0.0166187
621.935	0.0165517
622.013	0.0165938
622.091	0.0166512
622.169	0.0167535
622.247	0.0167586
622.325	0.0165377
622.404	0.0167315
622.482	0.0166489
622.560	0.0165970
622.638	0.0166634
622.716	0.0165852
622.794	0.0165578
622.872	0.0166808
622.950	0.0168867
623.029	0.0167194
623.107	0.0167240
623.185	0.0167494
623.263	0.0165918
623.341	0.0167509
623.419	0.0167365
623.497	0.0165971
623.575	0.0166683
623.654	0.0166544
623.732	0.0165414
623.810	0.0164939
623.888	0.0167743
623.966	0.0166222
624.044	0.0165727
624.122	0.0166110
624.200	0.0165220
624.279	0.0166484
624.357	0.0166687
624.435	0.0166132
624.513	0.0165461
624.591	0.0165709
624.669	0.0166193
624.747	0.0166589
624.825	0.0165689
624.904	0.0165759
624.982	0.0165594
625.060	0.0166703
625.138	0.0166035
625.216	0.0166847
625.294	0.0166694
625.372	0.0165614
625.450	0.0165212
625.529	0.0165475
625.607	0.0166410
625.685	0.0167005
625.763	0.0165893
625.841	0.0166161
625.919	0.0166356
625.997	0.0167043
626.075	0.0166263
626.154	0.0166072
626.232	0.0165923
626.310	0.0166215
626.388	0.0166090
626.466	0.0167537
626.544	0.0164892
626.622	0.0166839
626.700	0.0167544
626.779	0.0166354
626.857	0.0166158
626.935	0.0166025
627.013	0.0165994
627.091	0.0167183
627.169	0.0165771
627.247	0.0165482
627.325	0.0166744
627.404	0.0166488
627.482	0.0165482
627.560	0.0167489
627.638	0.0166446
627.716	0.0166128
627.794	0.0168035
627.872	0.0166091
627.950	0.0166273
628.029	0.0166147
628.107	0.0167696
628.185	0.0166922
628.263	0.0166451
628.341	0.0166399
628.419	0.0166069
628.497	0.0166393
628.575	0.0166945
628.654	0.0166277
628.732	0.0165937
628.810	0.0164869
628.888	0.0165360
628.966	0.0166666
629.044	0.0168389
629.122	0.0166566
629.200	0.0164958
629.279	0.0166022
629.357	0.0167172
629.435	0.0165249
629.513	0.0165934
629.591	0.0166187
629.669	0.0167583
629.747	0.0167358
629.825	0.0166904
629.904	0.0166299
629.982	0.0165340
630.060	0.0166994
630.138	0.0166723
630.216	0.0167164
630.294	0.0166647
630.372	0.0166235
630.450	0.0166814
630.529	0.0166228
630.607	0.0167595
630.685	0.0167039
630.763	0.0167188
630.841	0.0166395
630.919	0.0166216
630.997	0.0165605
631.075	0.0166174
631.154	0.0167505
631.232	0.0166959
631.310	0.0166650
631.388	0.0166534
631.466	0.0166423
631.544	0.0166571
631.622	0.0165661
631.700	0.0166434
631.779	0.0165776
631.857	0.0166193
631.935	0.0165656
632.013	0.0167101
632.091	0.0167313
632.169	0.0165896
632.247	0.0166605
632.325	0.0166660
632.404	0.0165597
632.482	0.0165907
632.560	0.0166235
632.638	0.0166000
632.716	0.0166422
632.794	0.0167101
632.872	0.0166695
632.950	0.0166490
633.029	0.0166315
633.107	0.0165392
633.185	0.0166393
633.263	0.0165377
633.341	0.0165503
633.419	0.0167705
633.497	0.0166719
633.575	0.0166238
633.654	0.0168118
633.732	0.0168547
633.810	0.0166568
633.888	0.0167024
633.966	0.0166484
634.044	0.0167538
634.122	0.0166640
634.200	0.0166400
634.279	0.0165173
634.357	0.0165908
634.435	0.0167141
634.513	0.0167307
634.591	0.0167758
634.669	0.0167433
634.747	0.0166490
634.825	0.0166720
634.904	0.0167387
634.982	0.0167051
635.060	0.0165545
635.138	0.0166610
635.216	0.0166774
635.294	0.0166187
635.372	0.0167624
635.450	0.0167920
635.529	0.0167438
635.607	0.0165891
635.685	0.0166281
635.763	0.0166754
635.841	0.0167271
635.919	0.0167083
635.997	0.0166023
636.075	0.0166566
636.154	0.0165912
636.232	0.0166178
636.310	0.0166934
636.388	0.0166844
636.466	0.0166987
636.544	0.0166752
636.622	0.0166833
636.700	0.0166082
636.779	0.0165645
636.857	0.0167332
636.935	0.0165898
637.013	0.0166115
637.091	0.0166875
637.169	0.0166384
637.247	0.0167631
637.325	0.0167029
637.404	0.0166710
637.482	0.0166795
637.560	0.0165192
637.638	0.0166638
637.716	0.0165639
637.794	0.0165891
637.872	0.0166733
637.950	0.0167625
638.029	0.0166390
638.107	0.0166045
638.185	0.0165683
638.263	0.0166800
638.341	0.0167036
638.419	0.0167039
638.497	0.0164960
638.575	0.0167090
638.654	0.0165478
638.732	0.0166962
638.810	0.0166293
638.888	0.0167700
638.966	0.0166438
639.044	0.0166037
639.122	0.0167710
639.200	0.0166319
639.279	0.0165775
639.357	0.0166145
639.435	0.0165569
639.513	0.0164991
639.591	0.0166211
639.669	0.0165730
639.747	0.0166871
639.825	0.0166134
639.904	0.0166080
639.982	0.0167158
640.060	0.0165463
640.138	0.0165726
640.216	0.0165311
640.294	0.0166150
640.372	0.0166010
640.450	0.0166610
640.529	0.0167731
640.607	0.0167549
640.685	0.0166379
640.763	0.0166962
640.841	0.0167345
640.919	0.0165084
640.997	0.0164820
641.075	0.0167680
641.154	0.0166116
641.232	0.0165897
641.310	0.0165752
641.388	0.0166158
641.466	0.0166769
641.544	0.0166808
641.622	0.0166525
641.700	0.0166607
641.779	0.0163902
641.857	0.0167075
641.935	0.0167078
642.013	0.0167494
642.091	0.0166039
642.169	0.0166762
642.247	0.0166761
642.325	0.0166606
642.404	0.0165230
642.482	0.0165872
642.560	0.0166122
642.638	0.0166958
642.716	0.0165797
642.794	0.0166505
642.872	0.0165495
642.950	0.0166241
643.029	0.0165849
643.107	0.0165997
643.185	0.0164733
643.263	0.0166693
643.341	0.0166232
643.419	0.0166129
643.497	0.0166313
643.575	0.0166436
643.654	0.0166929
643.732	0.0166477
643.810	0.0166915
643.888	0.0167332
643.966	0.0167540
644.044	0.0167624
644.122	0.0166073
644.200	0.0165807
644.279	0.0167230
644.357	0.0166618
644.435	0.0166666
644.513	0.0165279
644.591	0.0165840
644.669	0.0166295
644.747	0.0168066
644.825	0.0166026
644.904	0.0166296
644.982	0.0166591
645.060	0.0166799
645.138	0.0167066
645.216	0.0166933
645.294	0.0165258
645.372	0.0165266
645.450	0.0167439
645.529	0.0167213
645.607	0.0166685
645.685	0.0167075
645.763	0.0166556
645.841	0.0165472
645.919	0.0166019
645.997	0.0167034
646.075	0.0166292
646.154	0.0167020
646.232	0.0165666
646.310	0.0166795
646.388	0.0166156
646.466	0.0166763
646.544	0.0167400
646.622	0.0166896
646.700	0.0167554
646.779	0.0167373
646.857	0.0166107
646.935	0.0166618
647.013	0.0166674
647.091	0.0165271
647.169	0.0166625
647.247	0.0166837
647.325	0.0166715
647.404	0.0166546
647.482	0.0165527
647.560	0.0166680
647.638	0.0167047
647.716	0.0166371
647.794	0.0166588
647.872	0.0168049
647.950	0.0166684
648.029	0.0166924
648.107	0.0165491
648.185	0.0166673
648.263	0.0166213
648.341	0.0166847
648.419	0.0165398
648.497	0.0165003
648.575	0.0166030
648.654	0.0166759
648.732	0.0164535
648.810	0.0166226
648.888	0.0167023
648.966	0.0166595
649.044	0.0166939
649.122	0.0166869
649.200	0.0166969
649.279	0.0165791
649.357	0.0167018
649.435	0.0166079
649.513	0.0166486
649.591	0.0166817
649.669	0.0166734
649.747	0.0165602
649.825	0.0166190
649.904	0.0167165
649.982	0.0165794
650.060	0.0164733
650.138	0.0166517
650.216	0.0167094
650.294	0.0166025
650.372	0.0167072
650.450	0.0166861
650.529	0.0165613
650.607	0.0166613
650.685	0.0166083
650.763	0.0166222
650.841	0.0165681
650.919	0.0166459
650.997	0.0165978
651.075	0.0166445
651.154	0.0165438
651.232	0.0166267
651.310	0.0166975
651.388	0.0165704
651.466	0.0165835
651.544	0.0165723
651.622	0.0165395
651.700	0.0165649
651.779	0.0166026
651.857	0.0166021
651.935	0.0165706
652.013	0.0166148
652.091	0.0165983
652.169	0.0165178
652.247	0.0166706
652.325	0.0166682
652.404	0.0165897
652.482	0.0166302
652.560	0.0167276
652.638	0.0166730
652.716	0.0166943
652.794	0.0165302
652.872	0.0166045
652.950	0.0167072
653.029	0.0167079
653.107	0.0165599
653.185	0.0165531
653.263	0.0167107
653.341	0.0167175
653.419	0.0166517
653.497	0.0167738
653.575	0.0167552
653.654	0.0166039
653.732	0.0167225
653.810	0.0167624
653.888	0.0166801
653.966	0.0166810
654.044	0.0166309
654.122	0.0165766
654.200	0.0166458
654.279	0.0167423
654.357	0.0167030
654.435	0.0165159
654.513	0.0164986
654.591	0.0167719
654.669	0.0166077
654.747	0.0165172
654.825	0.0165918
654.904	0.0167265
654.982	0.0167182
655.060	0.0166969
655.138	0.0166901
655.216	0.0167088
655.294	0.0164962
655.372	0.0166311
655.450	0.0165565
655.529	0.0166402
655.607	0.0165892
655.685	0.0166402
655.763	0.0165514
655.841	0.0164810
655.919	0.0165596
655.997	0.0166370
656.075	0.0167429
656.154	0.0167336
656.232	0.0165775
656.310	0.0166801
656.388	0.0166466
656.466	0.0167121
656.544	0.0165557
656.622	0.0165963
656.700	0.0165898
656.779	0.0166756
656.857	0.0166525
656.935	0.0166227
657.013	0.0165150
657.091	0.0166231
657.169	0.0166666
657.247	0.0166394
657.325	0.0166486
657.404	0.0165913
657.482	0.0166009
657.560	0.0166058
657.638	0.0165466
657.716	0.0165436
657.794	0.0166244
657.872	0.0166849
657.950	0.0166685
658.029	0.0166182
658.107	0.0164803
658.185	0.0165982
658.263	0.0166039
658.341	0.0166834
658.419	0.0166525
658.497	0.0166352
658.575	0.0166670
658.654	0.0165917
658.732	0.0166431
658.810	0.0167875
658.888	0.0165087
658.966	0.0166695
659.044	0.0166830
659.122	0.0166665
659.200	0.0165627
659.279	0.0165929
659.357	0.0166661
659.435	0.0166515
659.513	0.0166733
659.591	0.0165478
659.669	0.0166725
659.747	0.0165818
659.825	0.0166276
659.904	0.0167573
659.982	0.0166296
660.060	0.0165761
660.138	0.0166201
660.216	0.0167733
660.294	0.0166097
660.372	0.0165678
660.450	0.0166964
660.529	0.0166759
660.607	0.0166419
660.685	0.0166503
660.763	0.0167001
660.841	0.0167830
660.919	0.0167126
660.997	0.0165760
661.075	0.0165817
661.154	0.0165378
661.232	0.0166739
661.310	0.0165869
661.388	0.0165586
661.466	0.0166280
661.544	0.0166240
661.622	0.0165633
661.700	0.0167731
661.779	0.0166400
661.857	0.0167094
661.935	0.0167481
662.013	0.0167146
662.091	0.0167184
662.169	0.0166741
662.247	0.0167272
662.325	0.0166526
662.404	0.0167200
662.482	0.0168993
662.560	0.0168346
662.638	0.0168096
662.716	0.0169515
662.794	0.0169247
662.872	0.0167606
662.950	0.0167268
663.029	0.0167896
663.107	0.0168586
663.185	0.0167020
663.263	0.0168878
663.341	0.0167389
663.419	0.0165408
663.497	0.0164890
663.575	0.0164673
663.654	0.0164733
663.732	0.0165720
663.810	0.0166059
663.888	0.0164288
663.966	0.0164815
664.044	0.0163766
664.122	0.0163107
664.200	0.0163308
664.279	0.0163090
664.357	0.0163832
664.435	0.0162386
664.513	0.0161152
664.591	0.0159911
664.669	0.0161221
664.747	0.0160558
664.825	0.0161034
664.904	0.0161964
664.982	0.0162628
665.060	0.0163889
665.138	0.0166835
665.216	0.0169071
665.294	0.0170774
665.372	0.0172138
665.450	0.0173425
665.529	0.0175000
665.607	0.0175072
665.685	0.0175211
665.763	0.0173834
665.841	0.0175436
665.919	0.0170903
665.997	0.0170837
666.075	0.0169887
666.154	0.0168238
666.232	0.0166069
666.310	0.0166894
666.388	0.0166073
666.466	0.0167805
666.544	0.0166467
666.622	0.0168159
666.700	0.0169077
666.779	0.0172163
666.857	0.0172011
666.935	0.0172314
667.013	0.0175104
667.091	0.0173141
667.169	0.0172898
667.247	0.0170157
667.325	0.0168479
667.404	0.0165450
667.482	0.0161264
667.560	0.0158460
667.638	0.0154615
667.716	0.0151978
667.794	0.0151997
667.872	0.0150208
667.950	0.0149195
668.029	0.0147945
668.107	0.0147874
668.185	0.0149490
668.263	0.0150298
668.341	0.0152818
668.419	0.0155791
668.497	0.0158021
668.575	0.0162862
668.654	0.0164697
668.732	0.0169135
668.810	0.0174004
668.888	0.0176600
668.966	0.0180555
669.044	0.0182368
669.122	0.0184438
669.200	0.0186095
669.279	0.0187183
669.357	0.0187148
669.435	0.0186403
669.513	0.0184789
669.591	0.0183307
669.669	0.0181367
669.747	0.0177343
669.825	0.0174550
669.904	0.0171640
669.982	0.0169419
670.060	0.0165966
670.138	0.0163667
670.216	0.0162845
670.294	0.0161201
670.372	0.0162125
670.450	0.0162074
670.529	0.0162273
670.607	0.0163059
670.685	0.0160856
670.763	0.0158722
670.841	0.0156797
670.919	0.0154565
670.997	0.0151690
671.075	0.0146819
671.154	0.0143050
671.232	0.0139052
671.310	0.0136861
671.388	0.0134875
671.466	0.0134305
671.544	0.0135564
671.622	0.0141393
671.700	0.0146835
671.779	0.0154901
671.857	0.0162090
671.935	0.0171901
672.013	0.0184069
672.091	0.0195649
672.169	0.0204030
672.247	0.0211326
672.325	0.0215462
672.404	0.0218704
672.482	0.0219427
672.560	0.0217324
672.638	0.0215001
672.716	0.0209596
672.794	0.0200822
672.872	0.0194369
672.950	0.0186874
673.029	0.0179022
673.107	0.0171059
673.185	0.0163585
673.263	0.0157063
673.341	0.0153481
673.419	0.0147860
673.497	0.0141511
673.575	0.0136983
673.654	0.0132950
673.732	0.0127298
673.810	0.0124908
673.888	0.0122060
673.966	0.0118882
674.044	0.0115198
674.122	0.0113127
674.200	0.0112895
674.279	0.0114085
674.357	0.0115257
674.435	0.0118202
674.513	0.0122301
674.591	0.0129215
674.669	0.0136845
674.747	0.0144029
674.825	0.0151873
674.904	0.0162638
674.982	0.0170685
675.060	0.0178838
675.138	0.0188779
675.216	0.0196549
675.294	0.0203594
675.372	0.0210755
675.450	0.0216396
675.529	0.0221102
675.607	0.0225089
675.685	0.0228239
675.763	0.0231124
675.841	0.0233074
675.919	0.0233923
675.997	0.0235199
676.075	0.0234099
676.154	0.0231715
676.232	0.0228242
676.310	0.0224734
676.388	0.0220894
676.466	0.0215454
676.544	0.0207886
676.622	0.0197515
676.700	0.0189633
676.779	0.0180379
676.857	0.0170004
676.935	0.0158806
677.013	0.0149231
677.091	0.0137265
677.169	0.0126757
677.247	0.0116396
677.325	0.0107735
677.404	0.00984360
677.482	0.00917160
677.560	0.00820755
677.638	0.00751282
677.716	0.00702927
677.794	0.00658325
677.872	0.00638245
677.950	0.00630562
678.029	0.00665154
678.107	0.00694847
678.185	0.00753746
678.263	0.00845810
678.341	0.00946678
678.419	0.0106355
678.497	0.0119946
678.575	0.0135850
678.654	0.0153673
678.732	0.0168265
678.810	0.0183878
678.888	0.0198438
678.966	0.0210509
679.044	0.0220405
679.122	0.0227463
679.200	0.0234148
679.279	0.0237243
679.357	0.0241461
679.435	0.0242838
679.513	0.0243532
679.591	0.0245630
679.669	0.0247015
679.747	0.0247778
679.825	0.0248357
679.904	0.0248501
679.982	0.0248508
680.060	0.0248315
680.138	0.0246614
680.216	0.0242541
680.294	0.0236600
680.372	0.0229694
680.450	0.0220717
680.529	0.0213113
680.607	0.0202535
680.685	0.0193875
680.763	0.0185197
680.841	0.0175701
680.919	0.0166817
680.997	0.0160947
681.075	0.0153792
681.154	0.0147485
681.232	0.0142026
681.310	0.0136420
681.388	0.0132073
681.466	0.0126016
681.544	0.0121176
681.622	0.0114811
681.700	0.0107747
681.779	0.00993469
681.857	0.00923752
681.935	0.00852318
682.013	0.00770569
682.091	0.00728302
682.169	0.00637177
682.247	0.00608337
682.325	0.00597633
682.404	0.00566368
682.482	0.00579033
682.560	0.00629974
682.638	0.00689384
682.716	0.00758362
682.794	0.00858856
682.872	0.00971985
682.950	0.0112477
683.029	0.0128106
683.107	0.0144978
683.185	0.0160748
683.263	0.0178226
683.341	0.0193819
683.419	0.0208807
683.497	0.0223830
683.575	0.0234211
683.654	0.0244583
683.732	0.0250828
683.810	0.0256936
683.888	0.0261275
683.966	0.0261768
684.044	0.0264211
684.122	0.0264709
684.200	0.0262667
684.279	0.0262234
684.357	0.0262348
684.435	0.0259801
684.513	0.0258937
684.591	0.0256387
684.669	0.0253366
684.747	0.0249484
684.825	0.0243912
684.904	0.0236653
684.982	0.0228905
685.060	0.0219626
685.138	0.0209671
685.216	0.0198224
685.294	0.0187077
685.372	0.0176079
685.450	0.0165569
685.529	0.0156206
685.607	0.0145976
685.685	0.0138929
685.763	0.0133524
685.841	0.0128159
685.919	0.0123199
685.997	0.0120024
686.075	0.0118180
686.154	0.0114636
686.232	0.0111755
686.310	0.0107288
686.388	0.0102396
686.466	0.00965637
686.544	0.00896515
686.622	0.00844727
686.700	0.00765709
686.779	0.00694283
686.857	0.00626442
686.935	0.00565575
687.013	0.00518494
687.091	0.00502068
687.169	0.00504211
687.247	0.00524879
687.325	0.00579521
687.404	0.00662506
687.482	0.00778763
687.560	0.00923698
687.638	0.0107124
687.716	0.0125559
687.794	0.0145051
687.872	0.0163417
687.950	0.0182227
688.029	0.0201278
688.107	0.0217877
688.185	0.0231841
688.263	0.0244627
688.341	0.0253510
688.419	0.0261353
688.497	0.0265631
688.575	0.0266653
688.654	0.0268058
688.732	0.0269630
688.810	0.0267595
688.888	0.0266323
688.966	0.0265214
689.044	0.0263548
689.122	0.0263373
689.200	0.0263370
689.279	0.0261338
689.357	0.0257751
689.435	0.0254919
689.513	0.0251794
689.591	0.0247198
689.669	0.0242136
689.747	0.0235205
689.825	0.0228584
689.904	0.0218273
689.982	0.0208323
690.060	0.0197584
690.138	0.0183968
690.216	0.0170433
690.294	0.0157100
690.372	0.0146504
690.450	0.0135912
690.529	0.0121902
690.607	0.0112590
690.685	0.0101712
690.763	0.00933144
690.841	0.00844742
690.919	0.00793312
690.997	0.00743370
691.075	0.00706757
691.154	0.00677628
691.232	0.00654572
691.310	0.00657585
691.388	0.00647568
691.466	0.00678017
691.544	0.00688339
691.622	0.00709747
691.700	0.00721558
691.779	0.00765083
691.857	0.00824318
691.935	0.00891434
692.013	0.00967552
692.091	0.0107017
692.169	0.0118909
692.247	0.0131431
692.325	0.0146487
692.404	0.0160662
692.482	0.0174001
692.560	0.0187592
692.638	0.0200645
692.716	0.0212342
692.794	0.0221090
692.872	0.0226398
692.950	0.0231765
693.029	0.0233508
693.107	0.0231992
693.185	0.0228672
693.263	0.0224606
693.341	0.0219524
693.419	0.0213049
693.497	0.0208492
693.575	0.0203029
693.654	0.0198087
693.732	0.0195486
693.810	0.0195242
693.888	0.0194859
693.966	0.0195089
694.044	0.0198840
694.122	0.0202306
694.200	0.0203697
694.279	0.0206757
694.357	0.0211534
694.435	0.0216259
694.513	0.0219131
694.591	0.0220614
694.669	0.0222520
694.747	0.0223161
694.825	0.0222645
694.904	0.0220401
694.982	0.0218394
695.060	0.0212505
695.138	0.0205689
695.216	0.0198662
695.294	0.0189249
695.372	0.0179520
695.450	0.0169202
695.529	0.0156375
695.607	0.0146679
695.685	0.0134046
695.763	0.0122757
695.841	0.0111585
695.919	0.0103265
695.997	0.00952415
696.075	0.00891151
696.154	0.00858490
696.232	0.00817894
696.310	0.00825249
696.388	0.00844841
696.466	0.00866447
696.544	0.00945221
696.622	0.0101609
696.700	0.0109501
696.779	0.0117995
696.857	0.0128474
696.935	0.0138240
697.013	0.0146259
697.091	0.0155424
697.169	0.0162730
697.247	0.0169138
697.325	0.0174408
697.404	0.0178374
697.482	0.0181564
697.560	0.0183830
697.638	0.0183006
697.716	0.0182410
697.794	0.0181490
697.872	0.0179857
697.950	0.0178971
698.029	0.0175260
698.107	0.0172180
698.185	0.0169800
698.263	0.0168240
698.341	0.0166763
698.419	0.0165048
698.497	0.0163033
698.575	0.0164609
698.654	0.0165152
698.732	0.0166610
698.810	0.0169112
698.888	0.0174776
698.966	0.0177970
699.044	0.0183337
699.122	0.0188887
699.200	0.0193887
699.279	0.0199644
699.357	0.0202972
699.435	0.0207234
699.513	0.0208753
699.591	0.0209917
699.669	0.0211237
699.747	0.0210536
699.825	0.0207068
699.904	0.0200006
699.982	0.0196684
700.060	0.0191472
700.138	0.0185661
700.216	0.0177856
700.294	0.0171632
700.372	0.0165629
700.450	0.0158537
700.529	0.0153669
700.607	0.0150294
700.685	0.0145557
700.763	0.0143283
700.841	0.0143052
700.919	0.0141969
700.997	0.0143396
701.075	0.0146035
701.154	0.0149552
701.232	0.0154938
701.310	0.0159525
701.388	0.0166087
701.466	0.0171198
701.544	0.0176641
701.622	0.0181654
701.700	0.0184319
701.779	0.0187019
701.857	0.0189420
701.935	0.0191451
702.013	0.0188321
702.091	0.0188190
702.169	0.0184901
702.247	0.0179879
702.325	0.0173058
702.404	0.0168117
702.482	0.0159617
702.560	0.0152465
702.638	0.0146172
702.716	0.0138927
702.794	0.0131711
702.872	0.0128474
702.950	0.0123096
703.029	0.0119788
703.107	0.0118620
703.185	0.0118621
703.263	0.0118307
703.341	0.0121519
703.419	0.0124874
703.497	0.0128458
703.575	0.0133730
703.654	0.0138538
703.732	0.0146230
703.810	0.0152771
703.888	0.0157598
703.966	0.0163419
704.044	0.0171233
704.122	0.0176815
704.200	0.0181300
704.279	0.0185674
704.357	0.0188792
704.435	0.0190643
704.513	0.0191087
704.591	0.0189856
704.669	0.0191292
704.747	0.0189832
704.825	0.0186562
704.904	0.0183735
704.982	0.0180430
705.060	0.0178124
705.138	0.0174918
705.216	0.0172658
705.294	0.0170214
705.372	0.0167694
705.450	0.0165817
705.529	0.0166425
705.607	0.0165536
705.685	0.0166138
705.763	0.0168140
705.841	0.0170709
705.919	0.0171246
705.997	0.0174048
706.075	0.0177715
706.154	0.0179156
706.232	0.0182633
706.310	0.0185500
706.388	0.0187299
706.466	0.0189444
706.544	0.0191169
706.622	0.0192570
706.700	0.0193322
706.779	0.0192631
706.857	0.0191784
706.935	0.0188450
707.013	0.0185165
707.091	0.0180943
707.169	0.0178301
707.247	0.0173018
707.325	0.0169179
707.404	0.0164127
707.482	0.0161793
707.560	0.0157523
707.638	0.0156433
707.716	0.0154329
707.794	0.0153372
707.872	0.0151623
707.950	0.0151589
708.029	0.0150676
708.107	0.0153121
708.185	0.0154128
708.263	0.0153674
708.341	0.0154350
708.419	0.0154726
708.497	0.0157673
708.575	0.0157587
708.654	0.0157998
708.732	0.0158259
708.810	0.0158730
708.888	0.0159576
708.966	0.0158263
709.044	0.0156564
709.122	0.0153748
709.200	0.0152943
709.279	0.0150847
709.357	0.0147626
709.435	0.0146404
709.513	0.0143275
709.591	0.0140694
709.669	0.0139455
709.747	0.0138565
709.825	0.0138609
709.904	0.0139978
709.982	0.0141244
710.060	0.0145683
710.138	0.0149732
710.216	0.0153082
710.294	0.0158652
710.372	0.0164855
710.450	0.0169437
710.529	0.0174548
710.607	0.0177708
710.685	0.0180247
710.763	0.0183457
710.841	0.0185931
710.919	0.0185530
710.997	0.0185443
711.075	0.0184822
711.154	0.0185113
711.232	0.0183084
711.310	0.0180985
711.388	0.0180504
711.466	0.0178629
711.544	0.0178968
711.622	0.0175607
711.700	0.0173861
711.779	0.0173303
711.857	0.0172243
711.935	0.0171388
712.013	0.0170895
712.091	0.0170058
712.169	0.0169512
712.247	0.0168741
712.325	0.0169735
712.404	0.0169606
712.482	0.0170681
712.560	0.0169979
712.638	0.0171021
712.716	0.0171574
712.794	0.0174223
712.872	0.0173112
712.950	0.0175441
713.029	0.0176416
713.107	0.0178168
713.185	0.0177573
713.263	0.0177435
713.341	0.0179533
713.419	0.0179068
713.497	0.0178624
713.575	0.0180225
713.654	0.0178704
713.732	0.0177078
713.810	0.0173749
713.888	0.0173925
713.966	0.0169487
714.044	0.0165899
714.122	0.0163342
714.200	0.0163100
714.279	0.0158551
714.357	0.0156859
714.435	0.0155228
714.513	0.0153642
714.591	0.0152834
714.669	0.0153484
714.747	0.0154501
714.825	0.0157083
714.904	0.0160443
714.982	0.0161643
715.060	0.0163176
715.138	0.0164890
715.216	0.0165865
715.294	0.0167779
715.372	0.0168342
715.450	0.0168508
715.529	0.0166435
715.607	0.0166718
715.685	0.0165730
715.763	0.0164479
715.841	0.0160854
715.919	0.0157885
715.997	0.0153889
716.075	0.0151940
716.154	0.0148143
716.232	0.0144898
716.310	0.0143218
716.388	0.0141215
716.466	0.0139877
716.544	0.0137531
716.622	0.0137289
716.700	0.0138371
716.779	0.0139811
716.857	0.0139339
716.935	0.0142972
717.013	0.0146404
717.091	0.0150034
717.169	0.0154264
717.247	0.0157839
717.325	0.0163780
717.404	0.0167655
717.482	0.0172208
717.560	0.0175391
717.638	0.0180035
717.716	0.0182239
717.794	0.0184579
717.872	0.0188924
717.950	0.0191797
718.029	0.0189856
718.107	0.0192781
718.185	0.0191530
718.263	0.0192638
718.341	0.0189577
718.419	0.0189161
718.497	0.0189507
718.575	0.0186046
718.654	0.0187204
718.732	0.0183834
718.810	0.0183686
718.888	0.0182234
718.966	0.0179269
719.044	0.0179260
719.122	0.0178816
719.200	0.0178493
719.279	0.0176305
719.357	0.0175523
719.435	0.0175056
719.513	0.0175308
719.591	0.0173043
719.669	0.0174351
719.747	0.0173476
719.825	0.0172266
719.904	0.0173297
719.982	0.0173560
720.060	0.0171973
720.138	0.0171983
720.216	0.0172223
720.294	0.0170294
720.372	0.0168744
720.450	0.0167817
720.529	0.0167119
720.607	0.0165584
720.685	0.0163496
720.763	0.0161843
720.841	0.0158121
720.919	0.0157502
720.997	0.0155656
721.075	0.0152692
721.154	0.0150685
721.232	0.0149328
721.310	0.0147482
721.388	0.0147310
721.466	0.0145329
721.544	0.0145885
721.622	0.0145320
721.700	0.0145488
721.779	0.0145468
721.857	0.0148288
721.935	0.0148819
722.013	0.0148323
722.091	0.0150134
722.169	0.0150628
722.247	0.0151087
722.325	0.0153007
722.404	0.0153191
722.482	0.0152135
722.560	0.0153703
722.638	0.0154105
722.716	0.0156874
722.794	0.0158005
722.872	0.0159239
722.950	0.0162928
723.029	0.0164842
723.107	0.0166372
723.185	0.0168069
723.263	0.0170205
723.341	0.0172482
723.419	0.0174586
723.497	0.0173923
723.575	0.0176015
723.654	0.0176121
723.732	0.0178442
723.810	0.0180143
723.888	0.0180257
723.966	0.0179170
724.044	0.0180912
724.122	0.0180514
724.200	0.0181913
724.279	0.0181883
724.357	0.0182301
724.435	0.0184229
724.513	0.0184192
724.591	0.0184730
724.669	0.0184312
724.747	0.0184773
724.825	0.0183092
724.904	0.0181157
724.982	0.0180455
725.060	0.0179186
725.138	0.0178356
725.216	0.0177032
725.294	0.0176919
725.372	0.0174001
725.450	0.0171613
725.529	0.0170407
725.607	0.0167812
725.685	0.0165627
725.763	0.0165080
725.841	0.0161429
725.919	0.0161201
725.997	0.0160040
726.075	0.0158725
726.154	0.0155842
726.232	0.0154684
726.310	0.0154163
726.388	0.0152662
726.466	0.0153451
726.544	0.0154253
726.622	0.0154650
726.700	0.0155141
726.779	0.0156482
726.857	0.0155724
726.935	0.0156437
727.013	0.0158595
727.091	0.0159716
727.169	0.0160284
727.247	0.0161235
727.325	0.0161169
727.404	0.0162421
727.482	0.0163376
727.560	0.0164236
727.638	0.0162577
727.716	0.0164142
727.794	0.0162939
727.872	0.0164721
727.950	0.0165308
728.029	0.0167276
728.107	0.0167616
728.185	0.0167598
728.263	0.0168256
728.341	0.0170109
728.419	0.0171798
728.497	0.0172130
728.575	0.0172201
728.654	0.0173505
728.732	0.0174847
728.810	0.0174049
728.888	0.0173576
728.966	0.0173174
729.044	0.0173496
729.122	0.0173241
729.200	0.0170226
729.279	0.0171126
729.357	0.0169003
729.435	0.0168569
729.513	0.0166595
729.591	0.0164801
729.669	0.0163416
729.747	0.0162166
729.825	0.0162149
729.904	0.0160246
729.982	0.0159766
730.060	0.0158185
730.138	0.0157742
730.216	0.0156946
730.294	0.0154572
730.372	0.0153716
730.450	0.0153809
730.529	0.0153411
730.607	0.0154674
730.685	0.0154676
730.763	0.0154182
730.841	0.0155917
730.919	0.0157693
730.997	0.0159074
731.075	0.0160040
731.154	0.0162984
731.232	0.0165005
731.310	0.0165649
731.388	0.0168401
731.466	0.0170732
731.544	0.0170716
731.622	0.0171638
731.700	0.0171923
731.779	0.0173505
731.857	0.0173742
731.935	0.0173163
732.013	0.0173454
732.091	0.0173623
732.169	0.0174327
732.247	0.0173929
732.325	0.0172707
732.404	0.0173759
732.482	0.0173943
732.560	0.0173907
732.638	0.0174020
732.716	0.0174523
732.794	0.0173139
732.872	0.0172428
732.950	0.0173652
733.029	0.0172334
733.107	0.0173962
733.185	0.0173000
733.263	0.0171798
733.341	0.0173791
733.419	0.0172801
733.497	0.0172962
733.575	0.0171555
733.654	0.0173536
733.732	0.0171854
733.810	0.0173257
733.888	0.0172887
733.966	0.0171822
734.044	0.0172433
734.122	0.0170798
734.200	0.0170529
734.279	0.0171346
734.357	0.0168634
734.435	0.0167276
734.513	0.0164020
734.591	0.0163361
734.669	0.0162196
734.747	0.0161235
734.825	0.0159845
734.904	0.0158256
734.982	0.0157676
735.060	0.0158751
735.138	0.0156566
735.216	0.0156856
735.294	0.0155690
735.372	0.0155667
735.450	0.0156678
735.529	0.0155180
735.607	0.0155388
735.685	0.0156526
735.763	0.0155163
735.841	0.0155462
735.919	0.0155402
735.997	0.0155680
736.075	0.0156113
736.154	0.0155675
736.232	0.0155618
736.310	0.0156635
736.388	0.0158134
736.466	0.0158659
736.544	0.0158646
736.622	0.0159973
736.700	0.0162052
736.779	0.0163023
736.857	0.0164106
736.935	0.0165254
737.013	0.0166801
737.091	0.0169102
737.169	0.0169567
737.247	0.0171487
737.325	0.0172709
737.404	0.0173684
737.482	0.0173164
737.560	0.0174232
737.638	0.0174460
737.716	0.0174452
737.794	0.0174853
737.872	0.0173845
737.950	0.0172972
738.029	0.0171800
738.107	0.0173613
738.185	0.0172085
738.263	0.0171113
738.341	0.0171806
738.419	0.0172047
738.497	0.0169894
738.575	0.0169948
738.654	0.0169324
738.732	0.0169990
738.810	0.0169670
738.888	0.0169830
738.966	0.0170199
739.044	0.0170113
739.122	0.0169480
739.200	0.0169242
739.279	0.0170805
739.357	0.0170144
739.435	0.0167570
739.513	0.0167473
739.591	0.0168424
739.669	0.0166688
739.747	0.0166332
739.825	0.0165993
739.904	0.0165692
739.982	0.0164730
740.060	0.0164971
740.138	0.0164275
740.216	0.0164008
740.294	0.0163432
740.372	0.0164749
740.450	0.0163982
740.529	0.0163543
740.607	0.0163473
740.685	0.0165339
740.763	0.0164259
740.841	0.0163982
740.919	0.0164806
740.997	0.0165197
741.075	0.0163432
741.154	0.0163082
741.232	0.0164278
741.310	0.0161947
741.388	0.0163582
741.466	0.0163400
741.544	0.0164137
741.622	0.0164360
741.700	0.0165027
741.779	0.0165664
741.857	0.0166006
741.935	0.0168290
742.013	0.0168809
742.091	0.0168694
742.169	0.0169217
742.247	0.0169630
742.325	0.0168907
742.404	0.0168915
742.482	0.0169463
742.560	0.0168544
742.638	0.0168450
742.716	0.0168797
742.794	0.0167305
742.872	0.0166763
742.950	0.0167683
743.029	0.0164931
743.107	0.0164568
743.185	0.0164131
743.263	0.0164764
743.341	0.0164595
743.419	0.0164214
743.497	0.0163903
743.575	0.0162183
743.654	0.0162916
743.732	0.0162846
743.810	0.0162336
743.888	0.0162354
743.966	0.0161208
744.044	0.0161298
744.122	0.0161198
744.200	0.0160310
744.279	0.0159855
744.357	0.0160100
744.435	0.0160616
744.513	0.0161171
744.591	0.0160347
744.669	0.0162183
744.747	0.0161906
744.825	0.0160594
744.904	0.0162430
744.982	0.0162497
745.060	0.0162666
745.138	0.0166066
745.216	0.0165406
745.294	0.0163506
745.372	0.0162791
745.450	0.0164265
745.529	0.0164827
745.607	0.0164327
745.685	0.0166328
745.763	0.0166550
745.841	0.0167100
745.919	0.0167719
745.997	0.0168954
746.075	0.0169366
746.154	0.0170644
746.232	0.0169852
746.310	0.0172063
746.388	0.0174456
746.466	0.0172424
746.544	0.0172672
746.622	0.0173445
746.700	0.0175495
746.779	0.0175689
746.857	0.0175063
746.935	0.0177245
747.013	0.0176712
747.091	0.0176196
747.169	0.0176408
747.247	0.0176372
747.325	0.0174762
747.404	0.0175074
747.482	0.0173818
747.560	0.0173286
747.638	0.0173043
747.716	0.0172323
747.794	0.0170593
747.872	0.0170517
747.950	0.0169168
748.029	0.0169259
748.107	0.0166971
748.185	0.0166882
748.263	0.0166231
748.341	0.0166726
748.419	0.0166112
748.497	0.0165963
748.575	0.0165323
748.654	0.0164835
748.732	0.0162373
748.810	0.0162329
748.888	0.0162023
748.966	0.0160472
749.044	0.0160591
749.122	0.0159502
749.200	0.0158616
749.279	0.0158291
749.357	0.0158331
749.435	0.0156566
749.513	0.0156377
749.591	0.0157662
749.669	0.0156564
749.747	0.0155991
749.825	0.0156145
749.904	0.0156744
749.982	0.0156825
750.060	0.0157282
750.138	0.0156306
750.216	0.0156200
750.294	0.0158553
750.372	0.0159772
750.450	0.0159275
750.529	0.0160300
750.607	0.0161952
750.685	0.0162330
750.763	0.0162492
750.841	0.0165665
750.919	0.0167937
750.997	0.0164817
751.075	0.0165446
751.154	0.0169005
751.232	0.0170184
751.310	0.0170009
751.388	0.0171969
751.466	0.0171616
751.544	0.0170705
751.622	0.0172410
751.700	0.0172385
751.779	0.0173059
751.857	0.0172520
751.935	0.0173550
752.013	0.0174376
752.091	0.0172807
752.169	0.0172089
752.247	0.0172417
752.325	0.0171750
752.404	0.0172429
752.482	0.0171506
752.560	0.0168975
752.638	0.0169046
752.716	0.0167897
752.794	0.0167733
752.872	0.0168179
752.950	0.0166431
753.029	0.0164434
753.107	0.0163651
753.185	0.0165322
753.263	0.0164853
753.341	0.0162746
753.419	0.0162544
753.497	0.0162440
753.575	0.0162140
753.654	0.0163191
753.732	0.0163632
753.810	0.0164143
753.888	0.0161783
753.966	0.0165554
754.044	0.0165044
754.122	0.0165565
754.200	0.0164970
754.279	0.0164852
754.357	0.0166266
754.435	0.0164590
754.513	0.0163866
754.591	0.0165047
754.669	0.0164927
754.747	0.0165156
754.825	0.0164444
754.904	0.0165170
754.982	0.0165601
755.060	0.0165662
755.138	0.0165393
755.216	0.0166695
755.294	0.0167461
755.372	0.0168051
755.450	0.0168941
755.529	0.0169720
755.607	0.0168743
755.685	0.0169176
755.763	0.0170224
755.841	0.0170578
755.919	0.0171671
755.997	0.0170782
756.075	0.0170429
756.154	0.0171430
756.232	0.0170688
756.310	0.0170390
756.388	0.0169279
756.466	0.0169971
756.544	0.0169519
756.622	0.0171033
756.700	0.0170030
756.779	0.0168348
756.857	0.0168344
756.935	0.0166185
757.013	0.0166067
757.091	0.0166771
757.169	0.0164951
757.247	0.0164987
757.325	0.0165530
757.404	0.0164368
757.482	0.0163512
757.560	0.0162348
757.638	0.0161707
757.716	0.0160908
757.794	0.0160471
757.872	0.0159041
757.950	0.0159505
758.029	0.0159005
758.107	0.0158925
758.185	0.0158055
758.263	0.0158397
758.341	0.0157494
758.419	0.0157685
758.497	0.0157363
758.575	0.0157339
758.654	0.0158853
758.732	0.0160410
758.810	0.0159298
758.888	0.0160765
758.966	0.0160965
759.044	0.0161703
759.122	0.0161839
759.200	0.0164180
759.279	0.0164436
759.357	0.0164023
759.435	0.0165002
759.513	0.0165288
759.591	0.0168076
759.669	0.0168307
759.747	0.0169489
759.825	0.0168107
759.904	0.0168394
759.982	0.0169504
760.060	0.0169556
760.138	0.0169207
760.216	0.0170297
760.294	0.0171480
760.372	0.0171014
760.450	0.0170741
760.529	0.0172504
760.607	0.0171592
760.685	0.0171882
760.763	0.0172175
760.841	0.0171465
760.919	0.0170885
760.997	0.0172075
761.075	0.0171972
761.154	0.0171545
761.232	0.0170795
761.310	0.0170086
761.388	0.0171216
761.466	0.0170884
761.544	0.0170265
761.622	0.0168600
761.700	0.0169165
761.779	0.0167435
761.857	0.0167689
761.935	0.0168074
762.013	0.0167010
762.091	0.0166026
762.169	0.0166515
762.247	0.0166665
762.325	0.0165623
762.404	0.0166441
762.482	0.0166139
762.560	0.0164553
762.638	0.0164308
762.716	0.0164928
762.794	0.0164676
762.872	0.0165916
762.950	0.0163754
763.029	0.0163203
763.107	0.0165204
763.185	0.0164314
763.263	0.0164198
763.341	0.0163156
763.419	0.0164674
763.497	0.0165450
763.575	0.0165816
763.654	0.0165250
763.732	0.0165405
763.810	0.0166769
763.888	0.0163636
763.966	0.0164265
764.044	0.0164886
764.122	0.0163942
764.200	0.0164007
764.279	0.0164291
764.357	0.0164357
764.435	0.0163831
764.513	0.0163261
764.591	0.0163267
764.669	0.0162138
764.747	0.0162601
764.825	0.0162801
764.904	0.0163980
764.982	0.0163499
765.060	0.0162473
765.138	0.0164943
765.216	0.0164834
765.294	0.0164534
765.372	0.0165176
765.450	0.0166133
765.529	0.0166933
765.607	0.0167733
765.685	0.0166868
765.763	0.0167321
765.841	0.0166006
765.919	0.0166665
765.997	0.0166939
766.075	0.0165944
766.154	0.0166082
766.232	0.0164642
766.310	0.0166149
766.388	0.0164429
766.466	0.0163861
766.544	0.0163992
766.622	0.0163596
766.700	0.0164388
766.779	0.0162708
766.857	0.0164214
766.935	0.0164143
767.013	0.0163474
767.091	0.0162934
767.169	0.0162856
767.247	0.0163174
767.325	0.0162749
767.404	0.0162888
767.482	0.0162500
767.560	0.0161927
767.638	0.0161858
767.716	0.0161599
767.794	0.0162705
767.872	0.0162916
767.950	0.0164319
768.029	0.0164950
768.107	0.0164548
768.185	0.0166801
768.263	0.0168728
768.341	0.0169747
768.419	0.0170926
768.497	0.0171794
768.575	0.0173756
768.654	0.0174295
768.732	0.0175160
768.810	0.0176842
768.888	0.0175858
768.966	0.0175264
769.044	0.0176028
769.122	0.0174254
769.200	0.0174817
769.279	0.0174944
769.357	0.0174592
769.435	0.0172932
769.513	0.0171464
769.591	0.0171364
769.669	0.0170123
769.747	0.0168948
769.825	0.0168430
769.904	0.0168090
769.982	0.0166269
770.060	0.0166310
770.138	0.0165185
770.216	0.0163822
770.294	0.0163470
770.372	0.0163627
770.450	0.0161600
770.529	0.0159969
770.607	0.0159713
770.685	0.0160498
770.763	0.0159087
770.841	0.0159763
770.919	0.0159183
770.997	0.0158331
771.075	0.0160389
771.154	0.0158655
771.232	0.0157423
771.310	0.0160046
771.388	0.0160011
771.466	0.0160595
771.544	0.0161257
771.622	0.0161781
771.700	0.0162183
771.779	0.0164737
771.857	0.0165542
771.935	0.0166061
772.013	0.0166864
772.091	0.0168333
772.169	0.0169402
772.247	0.0169298
772.325	0.0169394
772.404	0.0168987
772.482	0.0171044
772.560	0.0171520
772.638	0.0172326
772.716	0.0171976
772.794	0.0172217
772.872	0.0172335
772.950	0.0171401
773.029	0.0169836
773.107	0.0170603
773.185	0.0170045
773.263	0.0170458
773.341	0.0168012
773.419	0.0167093
773.497	0.0164771
773.575	0.0165865
773.654	0.0163802
773.732	0.0162328
773.810	0.0160474
773.888	0.0159471
773.966	0.0157395
774.044	0.0157472
774.122	0.0156084
774.200	0.0156680
774.279	0.0155053
774.357	0.0154794
774.435	0.0154433
774.513	0.0155147
774.591	0.0156023
774.669	0.0156682
774.747	0.0156757
774.825	0.0159095
774.904	0.0160393
774.982	0.0160088
775.060	0.0161316
775.138	0.0164045
775.216	0.0165281
775.294	0.0165543
775.372	0.0170107
775.450	0.0169154
775.529	0.0169452
775.607	0.0172048
775.685	0.0173334
775.763	0.0173717
775.841	0.0174184
775.919	0.0174407
775.997	0.0177445
776.075	0.0177229
776.154	0.0176619
776.232	0.0177914
776.310	0.0176990
776.388	0.0178451
776.466	0.0176858
776.544	0.0178081
776.622	0.0176445
776.700	0.0174490
776.779	0.0174709
776.857	0.0175507
776.935	0.0173421
777.013	0.0173219
777.091	0.0172450
777.169	0.0170901
777.247	0.0169882
777.325	0.0169448
777.404	0.0167428
777.482	0.0167130
777.560	0.0168423
777.638	0.0165459
777.716	0.0165547
777.794	0.0165277
777.872	0.0164172
777.950	0.0163281
778.029	0.0162836
778.107	0.0161781
778.185	0.0159565
778.263	0.0159171
778.341	0.0157742
778.419	0.0157350
778.497	0.0156140
778.575	0.0154596
778.654	0.0154543
778.732	0.0154197
778.810	0.0152923
778.888	0.0153336
778.966	0.0155146
779.044	0.0156100
779.122	0.0153287
779.200	0.0154678
779.279	0.0156542
779.357	0.0157456
779.435	0.0158613
779.513	0.0159125
779.591	0.0161813
779.669	0.0162144
779.747	0.0164879
779.825	0.0165163
779.904	0.0167261
779.982	0.0168240
780.060	0.0170182
780.138	0.0171518
780.216	0.0171130
780.294	0.0173610
780.372	0.0173162
780.450	0.0174355
780.529	0.0175777
780.607	0.0175266
780.685	0.0175005
780.763	0.0174405
780.841	0.0176132
780.919	0.0176878
780.997	0.0174388
781.075	0.0175651
781.154	0.0174260
781.232	0.0175308
781.310	0.0173708
781.388	0.0173357
781.466	0.0172836
781.544	0.0171724
781.622	0.0171033
781.700	0.0170152
781.779	0.0168774
781.857	0.0169223
781.935	0.0169312
782.013	0.0169216
782.091	0.0166361
782.169	0.0165070
782.247	0.0166558
782.325	0.0166618
782.404	0.0165311
782.482	0.0164905
782.560	0.0163669
782.638	0.0162011
782.716	0.0162020
782.794	0.0161064
782.872	0.0161301
782.950	0.0159318
783.029	0.0158009
783.107	0.0157954
783.185	0.0156321
783.263	0.0156601
783.341	0.0155758
783.419	0.0154270
783.497	0.0154795
783.575	0.0155385
783.654	0.0154603
783.732	0.0154888
783.810	0.0154827
783.888	0.0155181
783.966	0.0156869
784.044	0.0158076
784.122	0.0160322
784.200	0.0162244
784.279	0.0162379
784.357	0.0165389
784.435	0.0167222
784.513	0.0168945
784.591	0.0171014
784.669	0.0171566
784.747	0.0174166
784.825	0.0174790
784.904	0.0174342
784.982	0.0176006
785.060	0.0176480
785.138	0.0177263
785.216	0.0178881
785.294	0.0179769
785.372	0.0179871
785.450	0.0179901
785.529	0.0178853
785.607	0.0179059
785.685	0.0180437
785.763	0.0179108
785.841	0.0179588
785.919	0.0178854
785.997	0.0179434
786.075	0.0177265
786.154	0.0177116
786.232	0.0177158
786.310	0.0176510
786.388	0.0173335
786.466	0.0173569
786.544	0.0171198
786.622	0.0170477
786.700	0.0169614
786.779	0.0166889
786.857	0.0166143
786.935	0.0164366
787.013	0.0162821
787.091	0.0162341
787.169	0.0160796
787.247	0.0158392
787.325	0.0157162
787.404	0.0155090
787.482	0.0154405
787.560	0.0154076
787.638	0.0151651
787.716	0.0151814
787.794	0.0150555
787.872	0.0149769
787.950	0.0150146
788.029	0.0151164
788.107	0.0150900
788.185	0.0150551
788.263	0.0150363
788.341	0.0152012
788.419	0.0151361
788.497	0.0152763
788.575	0.0154839
788.654	0.0156483
788.732	0.0158089
788.810	0.0158418
788.888	0.0160813
788.966	0.0161720
789.044	0.0164212
789.122	0.0164581
789.200	0.0166596
789.279	0.0167245
789.357	0.0167966
789.435	0.0169739
789.513	0.0169815
789.591	0.0171169
789.669	0.0171230
789.747	0.0171745
789.825	0.0172985
789.904	0.0172243
789.982	0.0171787
790.060	0.0173788
790.138	0.0173837
790.216	0.0173289
790.294	0.0172792
790.372	0.0173706
790.450	0.0173801
790.529	0.0173680
790.607	0.0174527
790.685	0.0175763
790.763	0.0175891
790.841	0.0176988
790.919	0.0177091
790.997	0.0177128
791.075	0.0178780
791.154	0.0179265
791.232	0.0178940
791.310	0.0179451
791.388	0.0178168
791.466	0.0178082
791.544	0.0177568
791.622	0.0178097
791.700	0.0176992
791.779	0.0176413
791.857	0.0174495
791.935	0.0171507
792.013	0.0172814
792.091	0.0170979
792.169	0.0170181
792.247	0.0167963
792.325	0.0166186
792.404	0.0163559
792.482	0.0163831
792.560	0.0161946
792.638	0.0161998
792.716	0.0158903
792.794	0.0159561
792.872	0.0157951
792.950	0.0157012
793.029	0.0156203
793.107	0.0157497
793.185	0.0157420
793.263	0.0155663
793.341	0.0155264
793.419	0.0155264
793.497	0.0156476
793.575	0.0156600
793.654	0.0157393
793.732	0.0155972
793.810	0.0157327
793.888	0.0158887
793.966	0.0158071
794.044	0.0158453
794.122	0.0158255
794.200	0.0159164
794.279	0.0159488
794.357	0.0159328
794.435	0.0158247
794.513	0.0160043
794.591	0.0159560
794.669	0.0161093
794.747	0.0159925
794.825	0.0160717
794.904	0.0161266
794.982	0.0161953
795.060	0.0162092
795.138	0.0163010
795.216	0.0163636
795.294	0.0165731
795.372	0.0166052
795.450	0.0166772
795.529	0.0169375
795.607	0.0169327
795.685	0.0168702
795.763	0.0171700
795.841	0.0171816
795.919	0.0172396
795.997	0.0174369
796.075	0.0175198
796.154	0.0173990
796.232	0.0175300
796.310	0.0174866
796.388	0.0173372
796.466	0.0175651
796.544	0.0173890
796.622	0.0173630
796.700	0.0174000
796.779	0.0175127
796.857	0.0174039
796.935	0.0173132
797.013	0.0171152
797.091	0.0170417
797.169	0.0171708
797.247	0.0171231
797.325	0.0171173
797.404	0.0168124
797.482	0.0168251
797.560	0.0168923
797.638	0.0170257
797.716	0.0169395
797.794	0.0169109
797.872	0.0168241
797.950	0.0168964
798.029	0.0168967
798.107	0.0168430
798.185	0.0167515
798.263	0.0167280
798.341	0.0165967
798.419	0.0165226
798.497	0.0164970
798.575	0.0164101
798.654	0.0163450
798.732	0.0160896
798.810	0.0161030
798.888	0.0160878
798.966	0.0160983
799.044	0.0160791
799.122	0.0157012
799.200	0.0157151
799.279	0.0157339
799.357	0.0158334
799.435	0.0158824
799.513	0.0157315
799.591	0.0157775
799.669	0.0158847
799.747	0.0158597
799.825	0.0159621
799.904	0.0160397
799.982	0.0161646
800.060	0.0163319
800.138	0.0162640
800.216	0.0165322
800.294	0.0166086
800.372	0.0166396
800.450	0.0167986
800.529	0.0168431
800.607	0.0169671
800.685	0.0170526
800.763	0.0171812
800.841	0.0171626
800.919	0.0172027
800.997	0.0171867
801.075	0.0172165
801.154	0.0172433
801.232	0.0174586
801.310	0.0172152
801.388	0.0171859
801.466	0.0172231
801.544	0.0171616
801.622	0.0172237
801.700	0.0172141
801.779	0.0171021
801.857	0.0172319
801.935	0.0171672
802.013	0.0170883
802.091	0.0169924
802.169	0.0171368
802.247	0.0170341
802.325	0.0169389
802.404	0.0168540
802.482	0.0167641
802.560	0.0168089
802.638	0.0169667
802.716	0.0167928
802.794	0.0166280
802.872	0.0166940
802.950	0.0166288
803.029	0.0165964
803.107	0.0165623
803.185	0.0166092
803.263	0.0165693
803.341	0.0163957
803.419	0.0164138
803.497	0.0164577
803.575	0.0161376
803.654	0.0161191
803.732	0.0160792
803.810	0.0160982
803.888	0.0159036
803.966	0.0160352
804.044	0.0159248
804.122	0.0159715
804.200	0.0158005
804.279	0.0159274
804.357	0.0158611
804.435	0.0160443
804.513	0.0161030
804.591	0.0160309
804.669	0.0161028
804.747	0.0162031
804.825	0.0162586
804.904	0.0162734
804.982	0.0162480
805.060	0.0163507
805.138	0.0165881
805.216	0.0164581
805.294	0.0166062
805.372	0.0165821
805.450	0.0167977
805.529	0.0166663
805.607	0.0168843
805.685	0.0168085
805.763	0.0168539
805.841	0.0165656
805.919	0.0168571
805.997	0.0167891
806.075	0.0167883
806.154	0.0169385
806.232	0.0168839
806.310	0.0168498
806.388	0.0169708
806.466	0.0170764
806.544	0.0170620
806.622	0.0168641
806.700	0.0170771
806.779	0.0170506
806.857	0.0168439
806.935	0.0168599
807.013	0.0169133
807.091	0.0169260
807.169	0.0169783
807.247	0.0167967
807.325	0.0169228
807.404	0.0169250
807.482	0.0168391
807.560	0.0168223
807.638	0.0168211
807.716	0.0168925
807.794	0.0168961
807.872	0.0166309
807.950	0.0167091
808.029	0.0167702
808.107	0.0166286
808.185	0.0167145
808.263	0.0166322
808.341	0.0168114
808.419	0.0166232
808.497	0.0166113
808.575	0.0167107
808.654	0.0166501
808.732	0.0165047
808.810	0.0165753
808.888	0.0165804
808.966	0.0164457
809.044	0.0164243
809.122	0.0166262
809.200	0.0165595
809.279	0.0163625
809.357	0.0165322
809.435	0.0164659
809.513	0.0165394
809.591	0.0164236
809.669	0.0164199
809.747	0.0164922
809.825	0.0164141
809.904	0.0166212
809.982	0.0164818
810.060	0.0164706
810.138	0.0163907
810.216	0.0165012
810.294	0.0164540
810.372	0.0163640
810.450	0.0164343
810.529	0.0163703
810.607	0.0163994
810.685	0.0163770
810.763	0.0163235
810.841	0.0164658
810.919	0.0164815
810.997	0.0165539
811.075	0.0165828
811.154	0.0165839
811.232	0.0163837
811.310	0.0165644
811.388	0.0165891
811.466	0.0166098
811.544	0.0166197
811.622	0.0166167
811.700	0.0166376
811.779	0.0164495
811.857	0.0165047
811.935	0.0162614
812.013	0.0164452
812.091	0.0165294
812.169	0.0163574
812.247	0.0164264
812.325	0.0163456
812.404	0.0163283
812.482	0.0164344
812.560	0.0164641
812.638	0.0164082
812.716	0.0163475
812.794	0.0163309
812.872	0.0163745
812.950	0.0166209
813.029	0.0166159
813.107	0.0166681
813.185	0.0165791
813.263	0.0165440
813.341	0.0166554
813.419	0.0167787
813.497	0.0167384
813.575	0.0168142
813.654	0.0169904
813.732	0.0168836
813.810	0.0170073
813.888	0.0168379
813.966	0.0169900
814.044	0.0172156
814.122	0.0171348
814.200	0.0169781
814.279	0.0170200
814.357	0.0172401
814.435	0.0171172
814.513	0.0171075
814.591	0.0171907
814.669	0.0170983
814.747	0.0170178
814.825	0.0170400
814.904	0.0170313
814.982	0.0169184
815.060	0.0169291
815.138	0.0168388
815.216	0.0168311
815.294	0.0168399
815.372	0.0168737
815.450	0.0167107
815.529	0.0168528
815.607	0.0167913
815.685	0.0167290
815.763	0.0167242
815.841	0.0166898
815.919	0.0167198
815.997	0.0167892
816.075	0.0166516
816.154	0.0166459
816.232	0.0164998
816.310	0.0164893
816.388	0.0163718
816.466	0.0163428
816.544	0.0164133
816.622	0.0164339
816.700	0.0162301
816.779	0.0161488
816.857	0.0164021
816.935	0.0162984
817.013	0.0162606
817.091	0.0163510
817.169	0.0163509
817.247	0.0162143
817.325	0.0161713
817.404	0.0163692
817.482	0.0162250
817.560	0.0162678
817.638	0.0163026
817.716	0.0163570
817.794	0.0164454
817.872	0.0162440
817.950	0.0164176
818.029	0.0163542
818.107	0.0163778
818.185	0.0163918
818.263	0.0164310
818.341	0.0164168
818.419	0.0163013
818.497	0.0164291
818.575	0.0165975
818.654	0.0165096
818.732	0.0164156
818.810	0.0164444
818.888	0.0164678
818.966	0.0164735
819.044	0.0165274
819.122	0.0164132
819.200	0.0164321
819.279	0.0165025
819.357	0.0165134
819.435	0.0165180
819.513	0.0165515
819.591	0.0163049
819.669	0.0162912
819.747	0.0163416
819.825	0.0163396
819.904	0.0163569
819.982	0.0163038
820.060	0.0164514
820.138	0.0163559
820.216	0.0164582
820.294	0.0164349
820.372	0.0164756
820.450	0.0167220
820.529	0.0165780
820.607	0.0166263
820.685	0.0166650
820.763	0.0167715
820.841	0.0168325
820.919	0.0168304
820.997	0.0170016
821.075	0.0170721
821.154	0.0168271
821.232	0.0169766
821.310	0.0169531
821.388	0.0169985
821.466	0.0170140
821.544	0.0169571
821.622	0.0170292
821.700	0.0170961
821.779	0.0171404
821.857	0.0170725
821.935	0.0170798
822.013	0.0170902
822.091	0.0169199
822.169	0.0169135
822.247	0.0169932
822.325	0.0168842
822.404	0.0168515
822.482	0.0168908
822.560	0.0168008
822.638	0.0167715
822.716	0.0166581
822.794	0.0166113
822.872	0.0164560
822.950	0.0164637
823.029	0.0165118
823.107	0.0165306
823.185	0.0164923
823.263	0.0166788
823.341	0.0167162
823.419	0.0166293
823.497	0.0166129
823.575	0.0167281
823.654	0.0166645
823.732	0.0166537
823.810	0.0165302
823.888	0.0166367
823.966	0.0165479
824.044	0.0164291
824.122	0.0165064
824.200	0.0164893
824.279	0.0163464
824.357	0.0164973
824.435	0.0162279
824.513	0.0161061
824.591	0.0162159
824.669	0.0162928
824.747	0.0161524
824.825	0.0160943
824.904	0.0160058
824.982	0.0162188
825.060	0.0159915
825.138	0.0160279
825.216	0.0161445
825.294	0.0160220
825.372	0.0160379
825.450	0.0161741
825.529	0.0160640
825.607	0.0162278
825.685	0.0161965
825.763	0.0163541
825.841	0.0163325
825.919	0.0162018
825.997	0.0163107
826.075	0.0163578
826.154	0.0163601
826.232	0.0163442
826.310	0.0164229
826.388	0.0165080
826.466	0.0165765
826.544	0.0166168
826.622	0.0165095
826.700	0.0166340
826.779	0.0167865
826.857	0.0167722
826.935	0.0167844
827.013	0.0167960
827.091	0.0167850
827.169	0.0169224
827.247	0.0170210
827.325	0.0169418
827.404	0.0169370
827.482	0.0170291
827.560	0.0169418
827.638	0.0169883
827.716	0.0170710
827.794	0.0169520
827.872	0.0169563
827.950	0.0171819
828.029	0.0171967
828.107	0.0171091
828.185	0.0170302
828.263	0.0171449
828.341	0.0170203
828.419	0.0171649
828.497	0.0169025
828.575	0.0169815
828.654	0.0170010
828.732	0.0169815
828.810	0.0170078
828.888	0.0167465
828.966	0.0166816
829.044	0.0165381
829.122	0.0163541
829.200	0.0164503
829.279	0.0164716
829.357	0.0163375
829.435	0.0163210
829.513	0.0162344
829.591	0.0163087
829.669	0.0161628
829.747	0.0162544
829.825	0.0162090
829.904	0.0162010
829.982	0.0163908
830.060	0.0163457
830.138	0.0162766
830.216	0.0163515
830.294	0.0164347
830.372	0.0164101
830.450	0.0164108
830.529	0.0163903
830.607	0.0165177
830.685	0.0165369
830.763	0.0165485
830.841	0.0166330
830.919	0.0165249
830.997	0.0164857
831.075	0.0165675
831.154	0.0165974
831.232	0.0166685
831.310	0.0166066
831.388	0.0166936
831.466	0.0166291
831.544	0.0168126
831.622	0.0168595
831.700	0.0167258
831.779	0.0168303
831.857	0.0167607
831.935	0.0168056
832.013	0.0167989
832.091	0.0166541
832.169	0.0167966
832.247	0.0165684
832.325	0.0165546
832.404	0.0166512
832.482	0.0166951
832.560	0.0165172
832.638	0.0165665
832.716	0.0164880
832.794	0.0164155
832.872	0.0164774
832.950	0.0163889
833.029	0.0163795
833.107	0.0165525
833.185	0.0165726
833.263	0.0164662
833.341	0.0163892
833.419	0.0166383
833.497	0.0166418
833.575	0.0164250
833.654	0.0165118
833.732	0.0164467
833.810	0.0166111
833.888	0.0165331
833.966	0.0165681
834.044	0.0164087
834.122	0.0165209
834.200	0.0163419
834.279	0.0166141
834.357	0.0165968
834.435	0.0164417
834.513	0.0163724
834.591	0.0164984
834.669	0.0166015
834.747	0.0165344
834.825	0.0165306
834.904	0.0164115
834.982	0.0164418
835.060	0.0164986
835.138	0.0164335
835.216	0.0164420
835.294	0.0163493
835.372	0.0163316
835.450	0.0163460
835.529	0.0164070
835.607	0.0164323
835.685	0.0165937
835.763	0.0165234
835.841	0.0165619
835.919	0.0166205
835.997	0.0166214
836.075	0.0166918
836.154	0.0168263
836.232	0.0167992
836.310	0.0168234
836.388	0.0167937
836.466	0.0168784
836.544	0.0170283
836.622	0.0169718
836.700	0.0169776
836.779	0.0169419
836.857	0.0168713
836.935	0.0168853
837.013	0.0168185
837.091	0.0168490
837.169	0.0168171
837.247	0.0167851
837.325	0.0169289
837.404	0.0167251
837.482	0.0167330
837.560	0.0168797
837.638	0.0167005
837.716	0.0166428
837.794	0.0167944
837.872	0.0167410
837.950	0.0167583
838.029	0.0167036
838.107	0.0166373
838.185	0.0166331
838.263	0.0167566
838.341	0.0166006
838.419	0.0165196
838.497	0.0167508
838.575	0.0167318
838.654	0.0164850
838.732	0.0165123
838.810	0.0166872
838.888	0.0166369
838.966	0.0166387
839.044	0.0167747
839.122	0.0166305
839.200	0.0166460
839.279	0.0166708
839.357	0.0168873
839.435	0.0166984
839.513	0.0166216
839.591	0.0167373
839.669	0.0166584
839.747	0.0165364
839.825	0.0166422
839.904	0.0166033
839.982	0.0165099
840.060	0.0164755
840.138	0.0164779
840.216	0.0163521
840.294	0.0163650
840.372	0.0163409
840.450	0.0163919
840.529	0.0162083
840.607	0.0161699
840.685	0.0161335
840.763	0.0161755
840.841	0.0161132
840.919	0.0161891
840.997	0.0161858
841.075	0.0162172
841.154	0.0161044
841.232	0.0161349
841.310	0.0162144
841.388	0.0162801
841.466	0.0162429
841.544	0.0161502
841.622	0.0160359
841.700	0.0161509
841.779	0.0162688
841.857	0.0163702
841.935	0.0162587
842.013	0.0163127
842.091	0.0163290
842.169	0.0163093
842.247	0.0163580
842.325	0.0164880
842.404	0.0165410
842.482	0.0166226
842.560	0.0166697
842.638	0.0167201
842.716	0.0167493
842.794	0.0169032
842.872	0.0168314
842.950	0.0168488
843.029	0.0169140
843.107	0.0170737
843.185	0.0168357
843.263	0.0168884
843.341	0.0168751
843.419	0.0169579
843.497	0.0170954
843.575	0.0171519
843.654	0.0171067
843.732	0.0171704
843.810	0.0172023
843.888	0.0169817
843.966	0.0169604
844.044	0.0170321
844.122	0.0171974
844.200	0.0169966
844.279	0.0170260
844.357	0.0170274
844.435	0.0169282
844.513	0.0170049
844.591	0.0167953
844.669	0.0167213
844.747	0.0167607
844.825	0.0166563
844.904	0.0167257
844.982	0.0166605
845.060	0.0164776
845.138	0.0165515
845.216	0.0165522
845.294	0.0164859
845.372	0.0164479
845.450	0.0164111
845.529	0.0162667
845.607	0.0164242
845.685	0.0163456
845.763	0.0162830
845.841	0.0161195
845.919	0.0161730
845.997	0.0161363
846.075	0.0162296
846.154	0.0162001
846.232	0.0162910
846.310	0.0161178
846.388	0.0162557
846.466	0.0162965
846.544	0.0164847
846.622	0.0164190
846.700	0.0163714
846.779	0.0163720
846.857	0.0163811
846.935	0.0164001
847.013	0.0165297
847.091	0.0163576
847.169	0.0164091
847.247	0.0165652
847.325	0.0165224
847.404	0.0165393
847.482	0.0166065
847.560	0.0167078
847.638	0.0166629
847.716	0.0164873
847.794	0.0167733
847.872	0.0167287
847.950	0.0166549
848.029	0.0166250
848.107	0.0166134
848.185	0.0167586
848.263	0.0166905
848.341	0.0166344
848.419	0.0166991
848.497	0.0166436
848.575	0.0166970
848.654	0.0166272
848.732	0.0167186
848.810	0.0166592
848.888	0.0166686
848.966	0.0167874
849.044	0.0166047
849.122	0.0165385
849.200	0.0165845
849.279	0.0166080
849.357	0.0165712
849.435	0.0166124
849.513	0.0166448
849.591	0.0165405
849.669	0.0165865
849.747	0.0165179
849.825	0.0165623
849.904	0.0164200
849.982	0.0165461
850.060	0.0165248
850.138	0.0164775
850.216	0.0165038
850.294	0.0164507
850.372	0.0166586
850.450	0.0165665
850.529	0.0165503
850.607	0.0165715
850.685	0.0166937
850.763	0.0166894
850.841	0.0164736
850.919	0.0167350
850.997	0.0167294
851.075	0.0166689
851.154	0.0167014
851.232	0.0167548
851.310	0.0169399
851.388	0.0169827
851.466	0.0169015
851.544	0.0168613
851.622	0.0167821
851.700	0.0168022
851.779	0.0168041
851.857	0.0168585
851.935	0.0168248
852.013	0.0167113
852.091	0.0168134
852.169	0.0168557
852.247	0.0168455
852.325	0.0167578
852.404	0.0166230
852.482	0.0166473
852.560	0.0166569
852.638	0.0166750
852.716	0.0166893
852.794	0.0166732
852.872	0.0165357
852.950	0.0165173
853.029	0.0163478
853.107	0.0164464
853.185	0.0163596
853.263	0.0164553
853.341	0.0165135
853.419	0.0164764
853.497	0.0163118
853.575	0.0164349
853.654	0.0164975
853.732	0.0163994
853.810	0.0163889
853.888	0.0163921
853.966	0.0164455
854.044	0.0164777
854.122	0.0162631
854.200	0.0162231
854.279	0.0163440
854.357	0.0163185
854.435	0.0163876
854.513	0.0165348
854.591	0.0165864
854.669	0.0163992
854.747	0.0164761
854.825	0.0166289
854.904	0.0167008
854.982	0.0165425
855.060	0.0166596
855.138	0.0167439
855.216	0.0165591
855.294	0.0165604
855.372	0.0167500
855.450	0.0167857
855.529	0.0167258
855.607	0.0168311
855.685	0.0167485
855.763	0.0167455
855.841	0.0167493
855.919	0.0168063
855.997	0.0168407
856.075	0.0168182
856.154	0.0167800
856.232	0.0167841
856.310	0.0167236
856.388	0.0168026
856.466	0.0166991
856.544	0.0166656
856.622	0.0167245
856.700	0.0165785
856.779	0.0167376
856.857	0.0166032
856.935	0.0165778
857.013	0.0166633
857.091	0.0167006
857.169	0.0165925
857.247	0.0165182
857.325	0.0165744
857.404	0.0165869
857.482	0.0165839
857.560	0.0166054
857.638	0.0164745
857.716	0.0164335
857.794	0.0164011
857.872	0.0164691
857.950	0.0164919
858.029	0.0163548
858.107	0.0164881
858.185	0.0164337
858.263	0.0163312
858.341	0.0162988
858.419	0.0163119
858.497	0.0164091
858.575	0.0164624
858.654	0.0162542
858.732	0.0164043
858.810	0.0165009
858.888	0.0163985
858.966	0.0163466
859.044	0.0163674
859.122	0.0164547
859.200	0.0163192
859.279	0.0163573
859.357	0.0163364
859.435	0.0165456
859.513	0.0166199
859.591	0.0164709
859.669	0.0164891
859.747	0.0166641
859.825	0.0167041
859.904	0.0166718
859.982	0.0168076
860.060	0.0169914
860.138	0.0169928
860.216	0.0171364
860.294	0.0170428
860.372	0.0171589
860.450	0.0171138
860.529	0.0170325
860.607	0.0172287
860.685	0.0172501
860.763	0.0170186
860.841	0.0171787
860.919	0.0171604
860.997	0.0170395
861.075	0.0170685
861.154	0.0170739
861.232	0.0169774
861.310	0.0169316
861.388	0.0168658
861.466	0.0168105
861.544	0.0166483
861.622	0.0166209
861.700	0.0165032
861.779	0.0166266
861.857	0.0166872
861.935	0.0164890
862.013	0.0164919
862.091	0.0165070
862.169	0.0165022
862.247	0.0164643
862.325	0.0165670
862.404	0.0165021
862.482	0.0163658
862.560	0.0165126
862.638	0.0163377
862.716	0.0163641
862.794	0.0162910
862.872	0.0162443
862.950	0.0160757
863.029	0.0161622
863.107	0.0163116
863.185	0.0162135
863.263	0.0160699
863.341	0.0161147
863.419	0.0161034
863.497	0.0162233
863.575	0.0163634
863.654	0.0164489
863.732	0.0163001
863.810	0.0166547
863.888	0.0167302
863.966	0.0167423
864.044	0.0166951
864.122	0.0167917
864.200	0.0167298
864.279	0.0166560
864.357	0.0166964
864.435	0.0166441
864.513	0.0167215
864.591	0.0166753
864.669	0.0164481
864.747	0.0166365
864.825	0.0164568
864.904	0.0164482
864.982	0.0166129
865.060	0.0164957
865.138	0.0165107
865.216	0.0166060
865.294	0.0164751
865.372	0.0166541
865.450	0.0165839
865.529	0.0165586
865.607	0.0166629
865.685	0.0166077
865.763	0.0167945
865.841	0.0166492
865.919	0.0166493
865.997	0.0168580
866.075	0.0166480
866.154	0.0168580
866.232	0.0169353
866.310	0.0169916
866.388	0.0171259
866.466	0.0171883
866.544	0.0172165
866.622	0.0174189
866.700	0.0173852
866.779	0.0173808
866.857	0.0173114
866.935	0.0174915
867.013	0.0173468
867.091	0.0173046
867.169	0.0171398
867.247	0.0171828
867.325	0.0170406
867.404	0.0170870
867.482	0.0169634
867.560	0.0169629
867.638	0.0169155
867.716	0.0169131
867.794	0.0166376
867.872	0.0166560
867.950	0.0164715
868.029	0.0164368
868.107	0.0164252
868.185	0.0162588
868.263	0.0159154
868.341	0.0159703
868.419	0.0159267
868.497	0.0159895
868.575	0.0158778
868.654	0.0155770
868.732	0.0156713
868.810	0.0157074
868.888	0.0156094
868.966	0.0156063
869.044	0.0157016
869.122	0.0158108
869.200	0.0157433
869.279	0.0157840
869.357	0.0159306
869.435	0.0159081
869.513	0.0159690
869.591	0.0162122
869.669	0.0162488
869.747	0.0163026
869.825	0.0164188
869.904	0.0165640
869.982	0.0166673
870.060	0.0169097
870.138	0.0170729
870.216	0.0171285
870.294	0.0172879
870.372	0.0173925
870.450	0.0174845
870.529	0.0176383
870.607	0.0177620
870.685	0.0177822
870.763	0.0176514
870.841	0.0176413
870.919	0.0175878
870.997	0.0175374
871.075	0.0175344
871.154	0.0173616
871.232	0.0173314
871.310	0.0172282
871.388	0.0170084
871.466	0.0170790
871.544	0.0168790
871.622	0.0170071
871.700	0.0168777
871.779	0.0168511
871.857	0.0167785
871.935	0.0167017
872.013	0.0167312
872.091	0.0163716
872.169	0.0164691
872.247	0.0164445
872.325	0.0161750
872.404	0.0161852
872.482	0.0159434
872.560	0.0160374
872.638	0.0159368
872.716	0.0159342
872.794	0.0158929
872.872	0.0160381
872.950	0.0159013
873.029	0.0159718
873.107	0.0159747
873.185	0.0160256
873.263	0.0159945
873.341	0.0159291
873.419	0.0159840
873.497	0.0159718
873.575	0.0159564
873.654	0.0160595
873.732	0.0160906
873.810	0.0160883
873.888	0.0159993
873.966	0.0161026
874.044	0.0161359
874.122	0.0162277
874.200	0.0161388
874.279	0.0163499
874.357	0.0165099
874.435	0.0165099
874.513	0.0168664
874.591	0.0168219
874.669	0.0171239
874.747	0.0172357
874.825	0.0174614
874.904	0.0175650
874.982	0.0177036
875.060	0.0178541
875.138	0.0179139
875.216	0.0179952
875.294	0.0179290
875.372	0.0180976
875.450	0.0180022
875.529	0.0178046
875.607	0.0179039
875.685	0.0177262
875.763	0.0176897
875.841	0.0173466
875.919	0.0172509
875.997	0.0170616
876.075	0.0169993
876.154	0.0169846
876.232	0.0167426
876.310	0.0167538
876.388	0.0166631
876.466	0.0165192
876.544	0.0165169
876.622	0.0165147
876.700	0.0163932
876.779	0.0163686
876.857	0.0164402
876.935	0.0162759
877.013	0.0162112
877.091	0.0160138
877.169	0.0159769
877.247	0.0160184
877.325	0.0159623
877.404	0.0157584
877.482	0.0157162
877.560	0.0159596
877.638	0.0158634
877.716	0.0158781
877.794	0.0160520
877.872	0.0160439
877.950	0.0159706
878.029	0.0160509
878.107	0.0159664
878.185	0.0160883
878.263	0.0160285
878.341	0.0160083
878.419	0.0160896
878.497	0.0161282
878.575	0.0159348
878.654	0.0158703
878.732	0.0160751
878.810	0.0161556
878.888	0.0162829
878.966	0.0163608
879.044	0.0163486
879.122	0.0164983
879.200	0.0166823
879.279	0.0166503
879.357	0.0169501
879.435	0.0171066
879.513	0.0173486
879.591	0.0174621
879.669	0.0177587
879.747	0.0177600
879.825	0.0178997
879.904	0.0178751
879.982	0.0179268
880.060	0.0179675
880.138	0.0177303
880.216	0.0177706
880.294	0.0176960
880.372	0.0174543
880.450	0.0172146
880.529	0.0171064
880.607	0.0169363
880.685	0.0169447
880.763	0.0165495
880.841	0.0166361
880.919	0.0165802
880.997	0.0164640
881.075	0.0163275
881.154	0.0165080
881.232	0.0165352
881.310	0.0165474
881.388	0.0165325
881.466	0.0164812
881.544	0.0164064
881.622	0.0165249
881.700	0.0165470
881.779	0.0164079
881.857	0.0164556
881.935	0.0162811
882.013	0.0162134
882.091	0.0161614
882.169	0.0160656
882.247	0.0161794
882.325	0.0160863
882.404	0.0160611
882.482	0.0160226
882.560	0.0158828
882.638	0.0160858
882.716	0.0161745
882.794	0.0161659
882.872	0.0163871
882.950	0.0162856
883.029	0.0162714
883.107	0.0163887
883.185	0.0165941
883.263	0.0164978
883.341	0.0164362
883.419	0.0165741
883.497	0.0165260
883.575	0.0166988
883.654	0.0169040
883.732	0.0167973
883.810	0.0168985
883.888	0.0168171
883.966	0.0167948
884.044	0.0169333
884.122	0.0170844
884.200	0.0169202
884.279	0.0170525
884.357	0.0171449
884.435	0.0171286
884.513	0.0170950
884.591	0.0170544
884.669	0.0169552
884.747	0.0169579
884.825	0.0168564
884.904	0.0167455
884.982	0.0166357
885.060	0.0166330
885.138	0.0165454
885.216	0.0164131
885.294	0.0164700
885.372	0.0162992
885.450	0.0164558
885.529	0.0163307
885.607	0.0163083
885.685	0.0164766
885.763	0.0164751
885.841	0.0165755
885.919	0.0165858
885.997	0.0168484
886.075	0.0167219
886.154	0.0169109
886.232	0.0169646
886.310	0.0169827
886.388	0.0170551
886.466	0.0169804
886.544	0.0169157
886.622	0.0170259
886.700	0.0169585
886.779	0.0169936
886.857	0.0166805
886.935	0.0166045
887.013	0.0165855
887.091	0.0165025
887.169	0.0164703
887.247	0.0164059
887.325	0.0162708
887.404	0.0163050
887.482	0.0161601
887.560	0.0160932
887.638	0.0159590
887.716	0.0160012
887.794	0.0160652
887.872	0.0160093
887.950	0.0160826
888.029	0.0160654
888.107	0.0162890
888.185	0.0163790
888.263	0.0164715
888.341	0.0167976
888.419	0.0168506
888.497	0.0169084
888.575	0.0170451
888.654	0.0171009
888.732	0.0171539
888.810	0.0173795
888.888	0.0173116
888.966	0.0173347
889.044	0.0173302
889.122	0.0172303
889.200	0.0171639
889.279	0.0169830
889.357	0.0168318
889.435	0.0168479
889.513	0.0168568
889.591	0.0166589
889.669	0.0167589
889.747	0.0164817
889.825	0.0164993
889.904	0.0163281
889.982	0.0162768
890.060	0.0163432
890.138	0.0163866
890.216	0.0164189
890.294	0.0163705
890.372	0.0164458
890.450	0.0163911
890.529	0.0165369
890.607	0.0164651
890.685	0.0164581
890.763	0.0166003
890.841	0.0168018
890.919	0.0164412
890.997	0.0165582
891.075	0.0166192
891.154	0.0166789
891.232	0.0167067
891.310	0.0165733
891.388	0.0167062
891.466	0.0165190
891.544	0.0163602
891.622	0.0164611
891.700	0.0165270
891.779	0.0163963
891.857	0.0162736
891.935	0.0163726
892.013	0.0162267
892.091	0.0161068
892.169	0.0162388
892.247	0.0162646
892.325	0.0162866
892.404	0.0163794
892.482	0.0163871
892.560	0.0164440
892.638	0.0164793
892.716	0.0166850
892.794	0.0166947
892.872	0.0168156
892.950	0.0168504
893.029	0.0170605
893.107	0.0170717
893.185	0.0170278
893.263	0.0172395
893.341	0.0173473
893.419	0.0173351
893.497	0.0173325
893.575	0.0173429
893.654	0.0173763
893.732	0.0173171
893.810	0.0171606
893.888	0.0171828
893.966	0.0171278
894.044	0.0171445
894.122	0.0169075
894.200	0.0169302
894.279	0.0168718
894.357	0.0167584
894.435	0.0166949
894.513	0.0166223
894.591	0.0165301
894.669	0.0164102
894.747	0.0164791
894.825	0.0162844
894.904	0.0162368
894.982	0.0163624
895.060	0.0164427
895.138	0.0164917
895.216	0.0165247
895.294	0.0164810
895.372	0.0167073
895.450	0.0167241
895.529	0.0166000
895.607	0.0165571
895.685	0.0165839
895.763	0.0165231
895.841	0.0166858
895.919	0.0166298
895.997	0.0165763
896.075	0.0166364
896.154	0.0165604
896.232	0.0166299
896.310	0.0165474
896.388	0.0164320
896.466	0.0164675
896.544	0.0163518
896.622	0.0163153
896.700	0.0163052
896.779	0.0163867
896.857	0.0163634
896.935	0.0163123
897.013	0.0163390
897.091	0.0162587
897.169	0.0161929
897.247	0.0163304
897.325	0.0161951
897.404	0.0163320
897.482	0.0162897
897.560	0.0163676
897.638	0.0163722
897.716	0.0165443
897.794	0.0165726
897.872	0.0166636
897.950	0.0165289
898.029	0.0166987
898.107	0.0167200
898.185	0.0167449
898.263	0.0167174
898.341	0.0167289
898.419	0.0168365
898.497	0.0168169
898.575	0.0168019
898.654	0.0166996
898.732	0.0169675
898.810	0.0167972
898.888	0.0166809
898.966	0.0167308
899.044	0.0167920
899.122	0.0167099
899.200	0.0166262
899.279	0.0169214
899.357	0.0167646
899.435	0.0166319
899.513	0.0168874
899.591	0.0167424
899.669	0.0167776
899.747	0.0167298
899.825	0.0168269
899.904	0.0169077
899.982	0.0169573
900.060	0.0169690
900.138	0.0168500
900.216	0.0168044
900.294	0.0168330
900.372	0.0167580
900.450	0.0167680
900.529	0.0166470
900.607	0.0166775
900.685	0.0166789
900.763	0.0165756
900.841	0.0165057
900.919	0.0165063
900.997	0.0164696
901.075	0.0165131
901.154	0.0164751
901.232	0.0163416
901.310	0.0164326
901.388	0.0163054
901.466	0.0163147
901.544	0.0163518
901.622	0.0163520
901.700	0.0164506
901.779	0.0164520
901.857	0.0164375
901.935	0.0164250
902.013	0.0165063
902.091	0.0165383
902.169	0.0166142
902.247	0.0166737
902.325	0.0167873
902.404	0.0167762
902.482	0.0167001
902.560	0.0166534
902.638	0.0167044
902.716	0.0167879
902.794	0.0166081
902.872	0.0165179
902.950	0.0165430
903.029	0.0166094
903.107	0.0166438
903.185	0.0164352
903.263	0.0165624
903.341	0.0164542
903.419	0.0164788
903.497	0.0164956
903.575	0.0164867
903.654	0.0165179
903.732	0.0164700
903.810	0.0166078
903.888	0.0165929
903.966	0.0166519
904.044	0.0166302
904.122	0.0166228
904.200	0.0165965
904.279	0.0165372
904.357	0.0166888
904.435	0.0165894
904.513	0.0166122
904.591	0.0166564
904.669	0.0166758
904.747	0.0166426
904.825	0.0166443
904.904	0.0165795
904.982	0.0166073
905.060	0.0166188
905.138	0.0166846
905.216	0.0167969
905.294	0.0166313
905.372	0.0165556
905.450	0.0165955
905.529	0.0166264
905.607	0.0167434
905.685	0.0166488
905.763	0.0167155
905.841	0.0166634
905.919	0.0166922
905.997	0.0166387
906.075	0.0166586
906.154	0.0167858
906.232	0.0167220
906.310	0.0166970
906.388	0.0166932
906.466	0.0166441
906.544	0.0168710
906.622	0.0167308
906.700	0.0167831
906.779	0.0167760
906.857	0.0167625
906.935	0.0166829
907.013	0.0167711
907.091	0.0168920
907.169	0.0167883
907.247	0.0166730
907.325	0.0166362
907.404	0.0166149
907.482	0.0165135
907.560	0.0164696
907.638	0.0165968
907.716	0.0166115
907.794	0.0164498
907.872	0.0163814
907.950	0.0164494
908.029	0.0164803
908.107	0.0165494
908.185	0.0164743
908.263	0.0165344
908.341	0.0164335
908.419	0.0164953
908.497	0.0165891
908.575	0.0166408
908.654	0.0165190
908.732	0.0164688
908.810	0.0166466
908.888	0.0166604
908.966	0.0166725
909.044	0.0165519
909.122	0.0168557
909.200	0.0167290
909.279	0.0167104
909.357	0.0166599
909.435	0.0167965
909.513	0.0167311
909.591	0.0167393
909.669	0.0167072
909.747	0.0166155
909.825	0.0167793
909.904	0.0166978
909.982	0.0165648
910.060	0.0166357
910.138	0.0166763
910.216	0.0166039
910.294	0.0166216
910.372	0.0166759
910.450	0.0167853
910.529	0.0165722
910.607	0.0167045
910.685	0.0167136
910.763	0.0168481
910.841	0.0167815
910.919	0.0166395
910.997	0.0166222
911.075	0.0167384
911.154	0.0166132
911.232	0.0165554
911.310	0.0165097
911.388	0.0164758
911.466	0.0163873
911.544	0.0165828
911.622	0.0165183
911.700	0.0163905
911.779	0.0164392
911.857	0.0164266
911.935	0.0164247
912.013	0.0164042
912.091	0.0164640
912.169	0.0164394
912.247	0.0162595
912.325	0.0164376
912.404	0.0164804
912.482	0.0165604
912.560	0.0166014
912.638	0.0165827
912.716	0.0165154
912.794	0.0166702
912.872	0.0166558
912.950	0.0166838
913.029	0.0166109
913.107	0.0166779
913.185	0.0166844
913.263	0.0167487
913.341	0.0166633
913.419	0.0167508
913.497	0.0168475
913.575	0.0168363
913.654	0.0169035
913.732	0.0167954
913.810	0.0167950
913.888	0.0169324
913.966	0.0169172
914.044	0.0167633
914.122	0.0168594
914.200	0.0168109
914.279	0.0167893
914.357	0.0168685
914.435	0.0167613
914.513	0.0168732
914.591	0.0167503
914.669	0.0169001
914.747	0.0169057
914.825	0.0167884
914.904	0.0169399
914.982	0.0169435
915.060	0.0168099
915.138	0.0168599
915.216	0.0168330
915.294	0.0166719
915.372	0.0168068
915.450	0.0166901
915.529	0.0167221
915.607	0.0166389
915.685	0.0165693
915.763	0.0165354
915.841	0.0165997
915.919	0.0166057
915.997	0.0162975
916.075	0.0162995
916.154	0.0162276
916.232	0.0161620
916.310	0.0162397
916.388	0.0161572
916.466	0.0160754
916.544	0.0160695
916.622	0.0162201
916.700	0.0162115
916.779	0.0161568
916.857	0.0161045
916.935	0.0161779
917.013	0.0162785
917.091	0.0162773
917.169	0.0161771
917.247	0.0163853
917.325	0.0164291
917.404	0.0164530
917.482	0.0165378
917.560	0.0164650
917.638	0.0166924
917.716	0.0166022
917.794	0.0166717
917.872	0.0167638
917.950	0.0167979
918.029	0.0168658
918.107	0.0169680
918.185	0.0168114
918.263	0.0169591
918.341	0.0169868
918.419	0.0170864
918.497	0.0173090
918.575	0.0172354
918.654	0.0172679
918.732	0.0171506
918.810	0.0172878
918.888	0.0173767
918.966	0.0171398
919.044	0.0172320
919.122	0.0172477
919.200	0.0172339
919.279	0.0172175
919.357	0.0170994
919.435	0.0171294
919.513	0.0170530
919.591	0.0170277
919.669	0.0170229
919.747	0.0170242
919.825	0.0169311
919.904	0.0168374
