06/01/2022	17:25:44	Ver.	4.1	UNKNOWN
Optical Delay	599.975067	Delta X		0.078125	Sweeps	1	Scan Rate	0/0
Coordinates	Axis 1	NaN	Axis 2	NaN	Axis 3	NaN	Axis 4	NaN	Axis 5	NaN	Axis 6	0.000000
TX Power	0.000000	RX Power	0.000000

599.975	0.0160963
600.053	0.0161866
600.131	0.0161717
600.209	0.0160548
600.288	0.0161667
600.366	0.0161823
600.444	0.0160672
600.522	0.0161895
600.600	0.0161574
600.678	0.0161595
600.756	0.0161792
600.834	0.0161723
600.913	0.0161348
600.991	0.0161758
601.069	0.0161458
601.147	0.0160662
601.225	0.0160066
601.303	0.0160926
601.381	0.0161018
601.459	0.0160992
601.538	0.0161581
601.616	0.0161637
601.694	0.0160193
601.772	0.0160493
601.850	0.0162196
601.928	0.0161173
602.006	0.0161372
602.084	0.0161298
602.163	0.0160946
602.241	0.0161298
602.319	0.0160396
602.397	0.0160607
602.475	0.0161869
602.553	0.0161347
602.631	0.0161739
602.709	0.0161309
602.788	0.0161147
602.866	0.0162073
602.944	0.0162074
603.022	0.0159924
603.100	0.0160533
603.178	0.0161847
603.256	0.0161533
603.334	0.0161864
603.413	0.0162267
603.491	0.0162280
603.569	0.0161455
603.647	0.0160307
603.725	0.0162074
603.803	0.0162484
603.881	0.0161909
603.959	0.0161438
604.038	0.0162167
604.116	0.0161021
604.194	0.0162161
604.272	0.0162577
604.350	0.0161751
604.428	0.0161665
604.506	0.0161567
604.584	0.0161185
604.663	0.0163385
604.741	0.0162946
604.819	0.0160611
604.897	0.0160766
604.975	0.0160876
605.053	0.0160947
605.131	0.0162100
605.209	0.0161664
605.288	0.0161159
605.366	0.0161855
605.444	0.0160105
605.522	0.0162370
605.600	0.0160848
605.678	0.0161301
605.756	0.0161075
605.834	0.0162289
605.913	0.0162566
605.991	0.0160860
606.069	0.0161034
606.147	0.0161214
606.225	0.0161275
606.303	0.0160802
606.381	0.0161175
606.459	0.0161084
606.538	0.0161346
606.616	0.0160964
606.694	0.0161212
606.772	0.0160772
606.850	0.0160226
606.928	0.0161175
607.006	0.0161434
607.084	0.0162300
607.163	0.0161774
607.241	0.0160728
607.319	0.0158728
607.397	0.0160908
607.475	0.0162037
607.553	0.0161697
607.631	0.0160703
607.709	0.0160909
607.788	0.0160435
607.866	0.0162142
607.944	0.0160877
608.022	0.0160599
608.100	0.0160696
608.178	0.0161388
608.256	0.0162035
608.334	0.0162000
608.413	0.0159580
608.491	0.0161544
608.569	0.0163126
608.647	0.0163357
608.725	0.0161285
608.803	0.0161308
608.881	0.0162370
608.959	0.0162476
609.038	0.0161531
609.116	0.0161312
609.194	0.0162315
609.272	0.0162098
609.350	0.0161722
609.428	0.0161659
609.506	0.0161319
609.584	0.0162096
609.663	0.0162079
609.741	0.0161675
609.819	0.0160683
609.897	0.0161649
609.975	0.0161588
610.053	0.0161836
610.131	0.0161300
610.209	0.0161920
610.288	0.0161362
610.366	0.0160406
610.444	0.0160798
610.522	0.0161972
610.600	0.0161741
610.678	0.0161147
610.756	0.0159589
610.834	0.0161540
610.913	0.0160856
610.991	0.0161089
611.069	0.0161263
611.147	0.0161240
611.225	0.0161273
611.303	0.0159434
611.381	0.0161370
611.459	0.0162157
611.538	0.0160744
611.616	0.0160393
611.694	0.0160023
611.772	0.0161461
611.850	0.0160816
611.928	0.0159132
612.006	0.0161069
612.084	0.0160741
612.163	0.0160413
612.241	0.0161391
612.319	0.0161858
612.397	0.0160851
612.475	0.0160184
612.553	0.0160921
612.631	0.0161933
612.709	0.0162249
612.788	0.0160780
612.866	0.0161482
612.944	0.0161293
613.022	0.0162037
613.100	0.0162413
613.178	0.0161739
613.256	0.0159836
613.334	0.0161308
613.413	0.0161189
613.491	0.0161153
613.569	0.0160210
613.647	0.0161842
613.725	0.0161611
613.803	0.0162215
613.881	0.0161277
613.959	0.0160638
614.038	0.0161387
614.116	0.0162336
614.194	0.0161161
614.272	0.0160538
614.350	0.0161632
614.428	0.0162265
614.506	0.0161030
614.584	0.0163682
614.663	0.0163081
614.741	0.0161456
614.819	0.0161777
614.897	0.0161558
614.975	0.0161380
615.053	0.0160870
615.131	0.0161314
615.209	0.0162975
615.288	0.0161854
615.366	0.0162187
615.444	0.0161303
615.522	0.0161692
615.600	0.0160861
615.678	0.0161092
615.756	0.0161269
615.834	0.0161461
615.913	0.0161767
615.991	0.0162179
616.069	0.0161871
616.147	0.0160906
616.225	0.0162234
616.303	0.0161367
616.381	0.0161947
616.459	0.0161150
616.538	0.0160542
616.616	0.0160030
616.694	0.0161383
616.772	0.0162092
616.850	0.0161025
616.928	0.0161194
617.006	0.0161768
617.084	0.0160885
617.163	0.0160246
617.241	0.0160695
617.319	0.0161012
617.397	0.0162277
617.475	0.0161049
617.553	0.0160860
617.631	0.0161331
617.709	0.0160590
617.788	0.0161596
617.866	0.0161881
617.944	0.0160030
618.022	0.0161120
618.100	0.0161870
618.178	0.0162231
618.256	0.0161565
618.334	0.0162258
618.413	0.0161617
618.491	0.0161082
618.569	0.0161703
618.647	0.0161018
618.725	0.0160950
618.803	0.0161020
618.881	0.0162220
618.959	0.0163004
619.038	0.0162134
619.116	0.0161513
619.194	0.0161083
619.272	0.0161848
619.350	0.0161269
619.428	0.0160188
619.506	0.0161462
619.584	0.0160625
619.663	0.0162020
619.741	0.0161668
619.819	0.0162016
619.897	0.0161659
619.975	0.0161438
620.053	0.0160950
620.131	0.0161878
620.209	0.0161497
620.288	0.0160812
620.366	0.0160302
620.444	0.0162042
620.522	0.0161740
620.600	0.0160366
620.678	0.0159981
620.756	0.0161237
620.834	0.0161347
620.913	0.0160523
620.991	0.0161272
621.069	0.0161698
621.147	0.0160904
621.225	0.0162302
621.303	0.0161140
621.381	0.0162209
621.459	0.0162033
621.538	0.0162340
621.616	0.0161583
621.694	0.0161656
621.772	0.0161314
621.850	0.0161520
621.928	0.0161377
622.006	0.0162052
622.084	0.0162041
622.163	0.0162159
622.241	0.0159750
622.319	0.0161393
622.397	0.0162219
622.475	0.0162320
622.553	0.0161037
622.631	0.0162426
622.709	0.0161781
622.788	0.0160760
622.866	0.0160677
622.944	0.0161164
623.022	0.0160593
623.100	0.0162096
623.178	0.0161372
623.256	0.0161263
623.334	0.0161172
623.413	0.0161865
623.491	0.0162775
623.569	0.0161154
623.647	0.0161015
623.725	0.0160784
623.803	0.0160375
623.881	0.0161706
623.959	0.0160762
624.038	0.0161536
624.116	0.0161472
624.194	0.0162125
624.272	0.0162508
624.350	0.0162241
624.428	0.0161021
624.506	0.0160935
624.584	0.0161037
624.663	0.0161363
624.741	0.0161803
624.819	0.0161317
624.897	0.0160270
624.975	0.0161878
625.053	0.0162682
625.131	0.0162298
625.209	0.0162070
625.288	0.0160961
625.366	0.0160698
625.444	0.0160667
625.522	0.0161985
625.600	0.0161127
625.678	0.0162240
625.756	0.0160801
625.834	0.0160495
625.913	0.0160288
625.991	0.0161543
626.069	0.0161709
626.147	0.0161054
626.225	0.0161482
626.303	0.0160915
626.381	0.0161229
626.459	0.0161548
626.538	0.0160938
626.616	0.0161664
626.694	0.0161955
626.772	0.0162016
626.850	0.0161307
626.928	0.0161290
627.006	0.0162239
627.084	0.0162787
627.163	0.0162326
627.241	0.0161075
627.319	0.0162060
627.397	0.0162489
627.475	0.0161387
627.553	0.0161024
627.631	0.0159338
627.709	0.0161383
627.788	0.0162600
627.866	0.0161887
627.944	0.0160997
628.022	0.0162538
628.100	0.0162178
628.178	0.0161268
628.256	0.0159534
628.334	0.0161485
628.413	0.0161501
628.491	0.0160968
628.569	0.0163109
628.647	0.0161008
628.725	0.0161010
628.803	0.0161483
628.881	0.0162082
628.959	0.0161178
629.038	0.0163041
629.116	0.0160499
629.194	0.0161092
629.272	0.0161549
629.350	0.0161858
629.428	0.0162114
629.506	0.0160629
629.584	0.0161523
629.663	0.0161608
629.741	0.0161279
629.819	0.0161812
629.897	0.0161556
629.975	0.0161567
630.053	0.0161010
630.131	0.0161712
630.209	0.0161636
630.288	0.0161956
630.366	0.0160478
630.444	0.0160267
630.522	0.0162180
630.600	0.0161189
630.678	0.0160651
630.756	0.0162789
630.834	0.0162429
630.913	0.0161040
630.991	0.0160545
631.069	0.0161726
631.147	0.0161050
631.225	0.0162406
631.303	0.0162708
631.381	0.0161732
631.459	0.0162438
631.538	0.0162435
631.616	0.0161985
631.694	0.0160999
631.772	0.0162021
631.850	0.0162516
631.928	0.0162323
632.006	0.0160909
632.084	0.0160712
632.163	0.0161485
632.241	0.0161802
632.319	0.0161432
632.397	0.0161114
632.475	0.0162476
632.553	0.0160384
632.631	0.0162075
632.709	0.0161671
632.788	0.0162303
632.866	0.0161096
632.944	0.0160608
633.022	0.0161340
633.100	0.0160847
633.178	0.0161223
633.256	0.0161686
633.334	0.0162334
633.413	0.0161214
633.491	0.0160783
633.569	0.0161766
633.647	0.0161158
633.725	0.0160612
633.803	0.0160609
633.881	0.0161475
633.959	0.0160634
634.038	0.0161345
634.116	0.0161005
634.194	0.0160377
634.272	0.0163187
634.350	0.0160638
634.428	0.0161781
634.506	0.0163129
634.584	0.0161188
634.663	0.0160988
634.741	0.0162753
634.819	0.0161097
634.897	0.0159539
634.975	0.0161115
635.053	0.0162093
635.131	0.0161310
635.209	0.0162093
635.288	0.0162405
635.366	0.0162551
635.444	0.0161855
635.522	0.0162412
635.600	0.0161242
635.678	0.0161877
635.756	0.0160104
635.834	0.0161730
635.913	0.0161473
635.991	0.0162381
636.069	0.0161660
636.147	0.0162241
636.225	0.0161313
636.303	0.0161128
636.381	0.0163064
636.459	0.0162440
636.538	0.0160794
636.616	0.0160179
636.694	0.0161346
636.772	0.0162167
636.850	0.0161652
636.928	0.0161974
637.006	0.0161823
637.084	0.0161541
637.163	0.0162447
637.241	0.0162006
637.319	0.0161806
637.397	0.0161240
637.475	0.0160752
637.553	0.0161655
637.631	0.0162231
637.709	0.0161023
637.788	0.0161240
637.866	0.0161230
637.944	0.0161910
638.022	0.0161495
638.100	0.0160992
638.178	0.0161235
638.256	0.0161955
638.334	0.0162984
638.413	0.0160897
638.491	0.0161924
638.569	0.0162330
638.647	0.0160420
638.725	0.0161370
638.803	0.0162965
638.881	0.0160771
638.959	0.0161891
639.038	0.0161606
639.116	0.0161922
639.194	0.0160294
639.272	0.0161143
639.350	0.0162459
639.428	0.0161535
639.506	0.0161496
639.584	0.0162000
639.663	0.0161045
639.741	0.0161366
639.819	0.0161858
639.897	0.0160948
639.975	0.0161643
640.053	0.0162300
640.131	0.0161597
640.209	0.0161086
640.288	0.0163129
640.366	0.0161021
640.444	0.0161375
640.522	0.0160609
640.600	0.0161714
640.678	0.0162352
640.756	0.0161301
640.834	0.0160030
640.913	0.0161081
640.991	0.0161597
641.069	0.0160793
641.147	0.0160530
641.225	0.0161191
641.303	0.0162714
641.381	0.0161366
641.459	0.0159924
641.538	0.0161634
641.616	0.0162775
641.694	0.0162712
641.772	0.0160678
641.850	0.0161485
641.928	0.0161729
642.006	0.0160942
642.084	0.0161075
642.163	0.0161008
642.241	0.0161722
642.319	0.0161357
642.397	0.0162366
642.475	0.0160831
642.553	0.0160999
642.631	0.0161697
642.709	0.0161484
642.788	0.0160028
642.866	0.0161028
642.944	0.0161010
643.022	0.0162508
643.100	0.0161262
643.178	0.0161072
643.256	0.0161610
643.334	0.0161810
643.413	0.0160912
643.491	0.0161993
643.569	0.0160706
643.647	0.0160917
643.725	0.0162198
643.803	0.0160980
643.881	0.0160590
643.959	0.0161375
644.038	0.0160650
644.116	0.0161844
644.194	0.0160714
644.272	0.0161844
644.350	0.0161231
644.428	0.0161472
644.506	0.0162936
644.584	0.0161953
644.663	0.0160972
644.741	0.0161823
644.819	0.0162492
644.897	0.0161182
644.975	0.0161516
645.053	0.0162835
645.131	0.0162002
645.209	0.0160842
645.288	0.0161830
645.366	0.0162571
645.444	0.0160326
645.522	0.0159897
645.600	0.0162269
645.678	0.0161248
645.756	0.0161087
645.834	0.0161561
645.913	0.0161521
645.991	0.0162883
646.069	0.0162531
646.147	0.0162340
646.225	0.0162239
646.303	0.0161247
646.381	0.0162319
646.459	0.0161720
646.538	0.0161451
646.616	0.0161505
646.694	0.0162376
646.772	0.0161697
646.850	0.0161921
646.928	0.0162370
647.006	0.0162366
647.084	0.0161892
647.163	0.0160135
647.241	0.0161131
647.319	0.0162776
647.397	0.0160617
647.475	0.0161803
647.553	0.0162128
647.631	0.0161470
647.709	0.0162222
647.788	0.0163371
647.866	0.0162024
647.944	0.0162112
648.022	0.0161967
648.100	0.0161050
648.178	0.0161986
648.256	0.0161933
648.334	0.0160795
648.413	0.0161024
648.491	0.0162720
648.569	0.0162266
648.647	0.0160026
648.725	0.0160980
648.803	0.0162502
648.881	0.0162955
648.959	0.0162412
649.038	0.0161361
649.116	0.0162462
649.194	0.0162601
649.272	0.0161549
649.350	0.0161823
649.428	0.0160516
649.506	0.0161256
649.584	0.0163577
649.663	0.0162519
649.741	0.0161942
649.819	0.0162496
649.897	0.0161366
649.975	0.0162172
650.053	0.0161172
650.131	0.0162407
650.209	0.0161073
650.288	0.0160125
650.366	0.0161746
650.444	0.0161388
650.522	0.0163228
650.600	0.0160255
650.678	0.0160863
650.756	0.0161948
650.834	0.0161753
650.913	0.0162177
650.991	0.0161868
651.069	0.0161129
651.147	0.0161523
651.225	0.0161137
651.303	0.0160021
651.381	0.0161810
651.459	0.0162434
651.538	0.0161728
651.616	0.0161071
651.694	0.0162375
651.772	0.0162669
651.850	0.0160322
651.928	0.0161037
652.006	0.0161830
652.084	0.0162363
652.163	0.0161877
652.241	0.0162882
652.319	0.0161811
652.397	0.0162294
652.475	0.0163166
652.553	0.0162392
652.631	0.0161707
652.709	0.0162035
652.788	0.0162210
652.866	0.0162083
652.944	0.0162680
653.022	0.0161618
653.100	0.0161495
653.178	0.0160938
653.256	0.0162457
653.334	0.0162569
653.413	0.0161762
653.491	0.0160377
653.569	0.0162533
653.647	0.0162301
653.725	0.0160931
653.803	0.0161320
653.881	0.0160844
653.959	0.0162442
654.038	0.0160780
654.116	0.0162849
654.194	0.0161466
654.272	0.0160305
654.350	0.0160478
654.428	0.0161282
654.506	0.0162988
654.584	0.0162024
654.663	0.0160966
654.741	0.0162112
654.819	0.0162359
654.897	0.0162414
654.975	0.0160667
655.053	0.0161745
655.131	0.0162570
655.209	0.0162861
655.288	0.0161713
655.366	0.0160877
655.444	0.0160970
655.522	0.0162479
655.600	0.0163210
655.678	0.0162041
655.756	0.0161144
655.834	0.0161327
655.913	0.0161389
655.991	0.0162917
656.069	0.0162027
656.147	0.0160957
656.225	0.0162004
656.303	0.0159901
656.381	0.0162524
656.459	0.0161296
656.538	0.0161182
656.616	0.0160409
656.694	0.0160599
656.772	0.0161681
656.850	0.0161491
656.928	0.0160272
657.006	0.0160986
657.084	0.0161823
657.163	0.0161417
657.241	0.0161186
657.319	0.0161452
657.397	0.0161098
657.475	0.0161036
657.553	0.0161512
657.631	0.0160777
657.709	0.0162356
657.788	0.0161356
657.866	0.0161181
657.944	0.0162430
658.022	0.0161179
658.100	0.0162160
658.178	0.0162260
658.256	0.0162214
658.334	0.0162167
658.413	0.0162383
658.491	0.0160898
658.569	0.0161172
658.647	0.0162133
658.725	0.0161446
658.803	0.0161514
658.881	0.0162099
658.959	0.0161369
659.038	0.0163334
659.116	0.0162364
659.194	0.0162830
659.272	0.0161623
659.350	0.0162520
659.428	0.0161932
659.506	0.0162044
659.584	0.0162756
659.663	0.0162180
659.741	0.0162486
659.819	0.0161378
659.897	0.0161051
659.975	0.0161520
660.053	0.0162289
660.131	0.0161469
660.209	0.0159265
660.288	0.0161710
660.366	0.0161272
660.444	0.0161002
660.522	0.0160726
660.600	0.0161122
660.678	0.0162246
660.756	0.0161825
660.834	0.0161782
660.913	0.0162702
660.991	0.0160806
661.069	0.0162243
661.147	0.0162530
661.225	0.0162561
661.303	0.0162306
661.381	0.0162061
661.459	0.0162727
661.538	0.0162627
661.616	0.0162241
661.694	0.0164388
661.772	0.0164529
661.850	0.0164984
661.928	0.0163235
662.006	0.0163612
662.084	0.0163398
662.163	0.0163941
662.241	0.0161718
662.319	0.0161884
662.397	0.0162164
662.475	0.0161755
662.553	0.0160622
662.631	0.0158668
662.709	0.0158327
662.788	0.0159194
662.866	0.0160203
662.944	0.0158768
663.022	0.0160321
663.100	0.0160703
663.178	0.0159728
663.256	0.0160348
663.334	0.0159814
663.413	0.0159840
663.491	0.0158867
663.569	0.0160060
663.647	0.0159196
663.725	0.0157170
663.803	0.0158573
663.881	0.0157272
663.959	0.0156775
664.038	0.0156946
664.116	0.0158791
664.194	0.0159602
664.272	0.0160798
664.350	0.0163134
664.428	0.0164277
664.506	0.0168458
664.584	0.0167599
664.663	0.0170171
664.741	0.0173123
664.819	0.0171458
664.897	0.0171445
664.975	0.0172175
665.053	0.0169934
665.131	0.0167129
665.209	0.0166486
665.288	0.0164722
665.366	0.0161673
665.444	0.0160484
665.522	0.0158582
665.600	0.0159273
665.678	0.0159366
665.756	0.0157955
665.834	0.0159940
665.913	0.0159480
665.991	0.0162225
666.069	0.0163104
666.147	0.0165216
666.225	0.0165662
666.303	0.0164597
666.381	0.0165598
666.459	0.0164926
666.538	0.0163514
666.616	0.0159509
666.694	0.0158700
666.772	0.0155947
666.850	0.0152892
666.928	0.0148795
667.006	0.0149058
667.084	0.0148029
667.163	0.0147196
667.241	0.0147018
667.319	0.0145551
667.397	0.0147155
667.475	0.0150064
667.553	0.0150797
667.631	0.0152908
667.709	0.0154639
667.788	0.0156709
667.866	0.0161614
667.944	0.0163607
668.022	0.0165800
668.100	0.0172176
668.178	0.0173596
668.256	0.0176814
668.334	0.0179615
668.413	0.0181322
668.491	0.0182301
668.569	0.0183880
668.647	0.0183378
668.725	0.0180780
668.803	0.0180580
668.881	0.0178304
668.959	0.0174707
669.038	0.0171915
669.116	0.0167065
669.194	0.0163969
669.272	0.0160440
669.350	0.0157378
669.428	0.0154408
669.506	0.0152560
669.584	0.0151350
669.663	0.0151083
669.741	0.0152959
669.819	0.0152435
669.897	0.0153252
669.975	0.0153671
670.053	0.0154337
670.131	0.0152167
670.209	0.0152522
670.288	0.0148724
670.366	0.0147021
670.444	0.0144393
670.522	0.0140900
670.600	0.0139474
670.678	0.0138195
670.756	0.0138042
670.834	0.0137247
670.913	0.0140211
670.991	0.0144405
671.069	0.0150859
671.147	0.0158056
671.225	0.0167244
671.303	0.0175687
671.381	0.0184255
671.459	0.0192877
671.538	0.0200464
671.616	0.0206537
671.694	0.0209348
671.772	0.0210936
671.850	0.0211409
671.928	0.0206828
672.006	0.0202740
672.084	0.0196442
672.163	0.0188445
672.241	0.0180277
672.319	0.0171966
672.397	0.0161227
672.475	0.0153240
672.553	0.0146577
672.631	0.0141869
672.709	0.0136068
672.788	0.0132557
672.866	0.0131142
672.944	0.0129524
673.022	0.0127198
673.100	0.0126252
673.178	0.0125352
673.256	0.0123365
673.334	0.0120833
673.413	0.0121027
673.491	0.0120494
673.569	0.0118468
673.647	0.0118998
673.725	0.0120330
673.803	0.0123644
673.881	0.0127765
673.959	0.0133204
674.038	0.0139293
674.116	0.0148219
674.194	0.0158315
674.272	0.0168017
674.350	0.0177395
674.428	0.0185853
674.506	0.0194882
674.584	0.0202773
674.663	0.0207951
674.741	0.0212410
674.819	0.0216717
674.897	0.0218954
674.975	0.0219743
675.053	0.0219472
675.131	0.0220039
675.209	0.0219963
675.288	0.0219788
675.366	0.0217871
675.444	0.0215395
675.522	0.0212946
675.600	0.0210720
675.678	0.0205717
675.756	0.0201036
675.834	0.0194113
675.913	0.0188750
675.991	0.0180477
676.069	0.0172066
676.147	0.0162027
676.225	0.0150475
676.303	0.0139450
676.381	0.0129600
676.459	0.0117866
676.538	0.0109092
676.616	0.0100544
676.694	0.00925316
676.772	0.00851837
676.850	0.00788330
676.928	0.00745613
677.006	0.00715065
677.084	0.00705650
677.163	0.00694458
677.241	0.00724289
677.319	0.00755547
677.397	0.00799049
677.475	0.00861290
677.553	0.00938789
677.631	0.0104256
677.709	0.0118612
677.788	0.0130768
677.866	0.0144363
677.944	0.0157966
678.022	0.0171425
678.100	0.0183080
678.178	0.0194160
678.256	0.0205755
678.334	0.0212129
678.413	0.0218651
678.491	0.0223814
678.569	0.0226529
678.647	0.0229669
678.725	0.0230344
678.803	0.0233129
678.881	0.0233913
678.959	0.0236570
679.038	0.0237620
679.116	0.0237638
679.194	0.0238187
679.272	0.0240204
679.350	0.0239188
679.428	0.0236398
679.506	0.0231471
679.584	0.0229754
679.663	0.0223432
679.741	0.0215489
679.819	0.0207753
679.897	0.0196600
679.975	0.0187167
680.053	0.0179446
680.131	0.0169279
680.209	0.0162579
680.288	0.0155677
680.366	0.0147438
680.444	0.0140767
680.522	0.0137493
680.600	0.0130810
680.678	0.0123161
680.756	0.0118702
680.834	0.0111765
680.913	0.0103976
680.991	0.00975067
681.069	0.00907272
681.147	0.00813362
681.225	0.00729759
681.303	0.00674034
681.381	0.00617348
681.459	0.00555954
681.538	0.00527489
681.616	0.00514984
681.694	0.00534775
681.772	0.00579445
681.850	0.00635788
681.928	0.00722511
682.006	0.00819046
682.084	0.00949768
682.163	0.0108033
682.241	0.0122305
682.319	0.0138939
682.397	0.0154347
682.475	0.0170423
682.553	0.0185419
682.631	0.0200692
682.709	0.0214616
682.788	0.0226180
682.866	0.0235917
682.944	0.0243563
683.022	0.0250771
683.100	0.0254619
683.178	0.0256125
683.256	0.0258840
683.334	0.0258185
683.413	0.0255952
683.491	0.0254749
683.569	0.0252617
683.647	0.0250802
683.725	0.0246851
683.803	0.0244624
683.881	0.0241750
683.959	0.0235989
684.038	0.0231447
684.116	0.0224911
684.194	0.0216361
684.272	0.0208319
684.350	0.0200202
684.428	0.0191913
684.506	0.0182071
684.584	0.0173916
684.663	0.0164802
684.741	0.0155921
684.819	0.0149393
684.897	0.0143295
684.975	0.0137822
685.053	0.0133831
685.131	0.0128337
685.209	0.0125909
685.288	0.0122983
685.366	0.0121262
685.444	0.0118303
685.522	0.0115644
685.600	0.0111611
685.678	0.0107925
685.756	0.0102290
685.834	0.00971664
685.913	0.00909409
685.991	0.00844276
686.069	0.00743080
686.147	0.00663719
686.225	0.00605553
686.303	0.00538567
686.381	0.00507957
686.459	0.00499054
686.538	0.00500755
686.616	0.00535927
686.694	0.00601242
686.772	0.00696930
686.850	0.00813461
686.928	0.00962395
687.006	0.0113145
687.084	0.0129393
687.163	0.0147601
687.241	0.0166651
687.319	0.0183777
687.397	0.0199234
687.475	0.0214378
687.553	0.0226716
687.631	0.0238702
687.709	0.0247112
687.788	0.0252409
687.866	0.0255408
687.944	0.0258607
688.022	0.0260748
688.100	0.0262460
688.178	0.0263776
688.256	0.0262683
688.334	0.0263526
688.413	0.0266101
688.491	0.0263564
688.569	0.0261504
688.647	0.0262917
688.725	0.0259216
688.803	0.0255180
688.881	0.0251009
688.959	0.0245670
689.038	0.0239133
689.116	0.0231438
689.194	0.0220110
689.272	0.0209492
689.350	0.0195219
689.428	0.0180866
689.506	0.0168183
689.584	0.0153513
689.663	0.0140802
689.741	0.0128283
689.819	0.0115310
689.897	0.0103743
689.975	0.00958900
690.053	0.00866409
690.131	0.00798378
690.209	0.00753639
690.288	0.00723633
690.366	0.00698395
690.444	0.00687767
690.522	0.00694252
690.600	0.00696892
690.678	0.00689575
690.756	0.00698326
690.834	0.00716675
690.913	0.00732887
690.991	0.00736549
691.069	0.00756775
691.147	0.00784843
691.225	0.00810265
691.303	0.00866692
691.381	0.00948494
691.459	0.0102208
691.538	0.0111292
691.616	0.0124863
691.694	0.0135823
691.772	0.0150000
691.850	0.0162436
691.928	0.0175932
692.006	0.0187978
692.084	0.0200424
692.163	0.0209113
692.241	0.0217567
692.319	0.0222206
692.397	0.0224314
692.475	0.0224235
692.553	0.0223178
692.631	0.0220512
692.709	0.0215729
692.788	0.0211790
692.866	0.0208030
692.944	0.0205053
693.022	0.0202206
693.100	0.0202210
693.178	0.0201140
693.256	0.0202615
693.334	0.0204943
693.413	0.0205983
693.491	0.0208983
693.569	0.0212733
693.647	0.0217370
693.725	0.0221477
693.803	0.0223585
693.881	0.0227074
693.959	0.0226403
694.038	0.0226667
694.116	0.0224396
694.194	0.0220785
694.272	0.0217828
694.350	0.0212266
694.428	0.0203302
694.506	0.0195446
694.584	0.0184714
694.663	0.0174808
694.741	0.0163166
694.819	0.0150608
694.897	0.0138074
694.975	0.0126438
695.053	0.0115198
695.131	0.0104484
695.209	0.00966660
695.288	0.00884850
695.366	0.00832222
695.444	0.00791405
695.522	0.00761238
695.600	0.00755432
695.678	0.00760986
695.756	0.00800972
695.834	0.00841072
695.913	0.00880325
695.991	0.00966507
696.069	0.0103335
696.147	0.0110367
696.225	0.0117887
696.303	0.0124982
696.381	0.0133122
696.459	0.0141290
696.538	0.0146342
696.616	0.0153902
696.694	0.0160354
696.772	0.0165662
696.850	0.0171323
696.928	0.0174244
697.006	0.0176669
697.084	0.0178976
697.163	0.0178750
697.241	0.0179753
697.319	0.0179498
697.397	0.0179408
697.475	0.0175269
697.553	0.0175469
697.631	0.0171341
697.709	0.0171005
697.788	0.0170293
697.866	0.0168806
697.944	0.0169132
698.022	0.0168729
698.100	0.0171598
698.178	0.0175192
698.256	0.0177558
698.334	0.0182433
698.413	0.0186601
698.491	0.0191692
698.569	0.0196782
698.647	0.0201071
698.725	0.0206583
698.803	0.0209583
698.881	0.0210291
698.959	0.0211586
699.038	0.0210098
699.116	0.0208897
699.194	0.0204227
699.272	0.0198852
699.350	0.0191420
699.428	0.0185484
699.506	0.0179046
699.584	0.0171066
699.663	0.0164082
699.741	0.0157426
699.819	0.0150775
699.897	0.0145818
699.975	0.0143836
700.053	0.0138210
700.131	0.0135748
700.209	0.0135474
700.288	0.0134236
700.366	0.0136716
700.444	0.0138727
700.522	0.0140222
700.600	0.0143885
700.678	0.0148602
700.756	0.0153651
700.834	0.0156940
700.913	0.0162114
700.991	0.0165226
701.069	0.0169485
701.147	0.0170686
701.225	0.0174450
701.303	0.0175799
701.381	0.0174795
701.459	0.0175035
701.538	0.0171658
701.616	0.0168315
701.694	0.0162131
701.772	0.0158892
701.850	0.0154001
701.928	0.0145783
702.006	0.0138683
702.084	0.0134509
702.163	0.0128835
702.241	0.0123355
702.319	0.0120097
702.397	0.0118183
702.475	0.0116547
702.553	0.0115331
702.631	0.0117703
702.709	0.0119515
702.788	0.0123003
702.866	0.0127977
702.944	0.0133628
703.022	0.0138766
703.100	0.0146978
703.178	0.0154274
703.256	0.0159988
703.334	0.0167556
703.413	0.0174601
703.491	0.0182036
703.569	0.0186400
703.647	0.0190335
703.725	0.0192039
703.803	0.0194685
703.881	0.0195361
703.959	0.0195638
704.038	0.0192406
704.116	0.0190273
704.194	0.0187992
704.272	0.0184498
704.350	0.0181509
704.428	0.0176951
704.506	0.0171806
704.584	0.0168144
704.663	0.0164977
704.741	0.0161124
704.819	0.0159290
704.897	0.0157079
704.975	0.0156351
705.053	0.0156934
705.131	0.0154782
705.209	0.0157320
705.288	0.0160858
705.366	0.0163023
705.444	0.0165118
705.522	0.0167863
705.600	0.0171210
705.678	0.0174802
705.756	0.0178222
705.834	0.0181487
705.913	0.0182751
705.991	0.0185077
706.069	0.0184579
706.147	0.0185516
706.225	0.0184958
706.303	0.0182558
706.381	0.0179710
706.459	0.0178670
706.538	0.0174812
706.616	0.0169057
706.694	0.0165905
706.772	0.0163884
706.850	0.0158757
706.928	0.0154049
707.006	0.0151445
707.084	0.0149379
707.163	0.0147346
707.241	0.0145109
707.319	0.0144032
707.397	0.0143096
707.475	0.0142043
707.553	0.0144699
707.631	0.0143654
707.709	0.0145139
707.788	0.0146550
707.866	0.0148860
707.944	0.0149899
708.022	0.0152823
708.100	0.0155358
708.178	0.0157581
708.256	0.0158519
708.334	0.0159615
708.413	0.0158483
708.491	0.0157700
708.569	0.0157028
708.647	0.0153444
708.725	0.0152019
708.803	0.0146391
708.881	0.0145910
708.959	0.0142561
709.038	0.0140279
709.116	0.0140115
709.194	0.0139554
709.272	0.0141077
709.350	0.0142741
709.428	0.0144968
709.506	0.0148444
709.584	0.0152502
709.663	0.0157919
709.741	0.0161412
709.819	0.0165277
709.897	0.0168195
709.975	0.0171337
710.053	0.0172965
710.131	0.0175694
710.209	0.0177757
710.288	0.0177136
710.366	0.0177678
710.444	0.0176520
710.522	0.0176835
710.600	0.0174922
710.678	0.0176028
710.756	0.0174193
710.834	0.0172835
710.913	0.0173872
710.991	0.0171780
711.069	0.0171209
711.147	0.0171762
711.225	0.0171132
711.303	0.0170267
711.381	0.0169315
711.459	0.0169405
711.538	0.0167584
711.616	0.0167730
711.694	0.0164700
711.772	0.0163102
711.850	0.0164221
711.928	0.0162802
712.006	0.0162064
712.084	0.0163824
712.163	0.0162982
712.241	0.0163328
712.319	0.0163730
712.397	0.0164397
712.475	0.0166805
712.553	0.0168543
712.631	0.0170271
712.709	0.0173270
712.788	0.0174036
712.866	0.0176525
712.944	0.0175203
713.022	0.0175804
713.100	0.0176205
713.178	0.0175521
713.256	0.0172664
713.334	0.0173487
713.413	0.0169981
713.491	0.0166718
713.569	0.0163570
713.647	0.0158588
713.725	0.0156981
713.803	0.0155060
713.881	0.0153310
713.959	0.0152747
714.038	0.0151920
714.116	0.0151818
714.194	0.0151688
714.272	0.0152187
714.350	0.0152708
714.428	0.0154665
714.506	0.0156369
714.584	0.0156789
714.663	0.0156467
714.741	0.0158972
714.819	0.0160491
714.897	0.0159575
714.975	0.0157750
715.053	0.0157327
715.131	0.0154517
715.209	0.0151693
715.288	0.0150852
715.366	0.0147505
715.444	0.0146420
715.522	0.0142615
715.600	0.0139944
715.678	0.0137292
715.756	0.0135216
715.834	0.0133230
715.913	0.0133056
715.991	0.0132271
716.069	0.0135773
716.147	0.0136507
716.225	0.0137386
716.303	0.0140765
716.381	0.0144062
716.459	0.0148205
716.538	0.0151875
716.616	0.0155756
716.694	0.0160678
716.772	0.0163501
716.850	0.0168462
716.928	0.0174214
717.006	0.0175416
717.084	0.0177290
717.163	0.0181161
717.241	0.0183379
717.319	0.0185628
717.397	0.0187058
717.475	0.0188340
717.553	0.0188695
717.631	0.0189126
717.709	0.0189160
717.788	0.0187820
717.866	0.0188088
717.944	0.0187057
718.022	0.0186318
718.100	0.0183378
718.178	0.0182555
718.256	0.0178940
718.334	0.0178303
718.413	0.0177332
718.491	0.0174458
718.569	0.0172927
718.647	0.0171488
718.725	0.0170267
718.803	0.0169250
718.881	0.0168037
718.959	0.0167188
719.038	0.0165871
719.116	0.0165830
719.194	0.0165590
719.272	0.0165777
719.350	0.0166313
719.428	0.0165086
719.506	0.0165093
719.584	0.0164615
719.663	0.0164724
719.741	0.0163857
719.819	0.0164134
719.897	0.0161446
719.975	0.0161353
720.053	0.0160433
720.131	0.0158612
720.209	0.0155921
720.288	0.0154068
720.366	0.0150307
720.444	0.0148391
720.522	0.0146167
720.600	0.0144264
720.678	0.0143150
720.756	0.0141874
720.834	0.0140864
720.913	0.0139198
720.991	0.0138214
721.069	0.0138906
721.147	0.0138609
721.225	0.0137402
721.303	0.0139478
721.381	0.0139825
721.459	0.0139708
721.538	0.0141630
721.616	0.0142635
721.694	0.0143294
721.772	0.0145538
721.850	0.0147172
721.928	0.0148969
722.006	0.0152258
722.084	0.0153921
722.163	0.0155301
722.241	0.0158954
722.319	0.0159924
722.397	0.0162193
722.475	0.0164931
722.553	0.0166401
722.631	0.0166675
722.709	0.0168278
722.788	0.0169391
722.866	0.0171655
722.944	0.0171465
723.022	0.0171302
723.100	0.0173563
723.178	0.0173214
723.256	0.0175333
723.334	0.0176397
723.413	0.0176823
723.491	0.0176553
723.569	0.0176762
723.647	0.0178659
723.725	0.0178827
723.803	0.0179422
723.881	0.0179952
723.959	0.0178433
724.038	0.0178310
724.116	0.0178033
724.194	0.0177017
724.272	0.0178207
724.350	0.0175119
724.428	0.0173973
724.506	0.0173679
724.584	0.0173052
724.663	0.0170925
724.741	0.0170352
724.819	0.0168281
724.897	0.0166586
724.975	0.0164625
725.053	0.0162733
725.131	0.0162840
725.209	0.0161047
725.288	0.0157870
725.366	0.0157278
725.444	0.0153052
725.522	0.0151264
725.600	0.0151851
725.678	0.0148151
725.756	0.0148592
725.834	0.0148443
725.913	0.0146042
725.991	0.0147816
726.069	0.0147781
726.147	0.0147415
726.225	0.0149371
726.303	0.0149831
726.381	0.0151375
726.459	0.0152924
726.538	0.0152618
726.616	0.0153501
726.694	0.0154826
726.772	0.0156124
726.850	0.0157293
726.928	0.0156464
727.006	0.0158869
727.084	0.0159688
727.163	0.0160925
727.241	0.0160756
727.319	0.0161922
727.397	0.0163160
727.475	0.0163705
727.553	0.0165285
727.631	0.0165469
727.709	0.0167057
727.788	0.0168359
727.866	0.0169975
727.944	0.0168650
728.022	0.0170012
728.100	0.0170852
728.178	0.0170997
728.256	0.0169498
728.334	0.0167679
728.413	0.0168797
728.491	0.0166445
728.569	0.0166995
728.647	0.0164333
728.725	0.0163720
728.803	0.0163930
728.881	0.0161621
728.959	0.0159386
729.038	0.0159386
729.116	0.0158592
729.194	0.0156678
729.272	0.0155687
729.350	0.0153751
729.428	0.0153575
729.506	0.0152151
729.584	0.0150857
729.663	0.0151705
729.741	0.0150751
729.819	0.0149382
729.897	0.0150506
729.975	0.0151018
730.053	0.0152327
730.131	0.0152471
730.209	0.0153834
730.288	0.0155048
730.366	0.0157781
730.444	0.0158887
730.522	0.0161281
730.600	0.0162627
730.678	0.0163750
730.756	0.0166431
730.834	0.0166953
730.913	0.0169075
730.991	0.0169692
731.069	0.0168279
731.147	0.0170184
731.225	0.0171414
731.303	0.0170148
731.381	0.0168774
731.459	0.0169398
731.538	0.0166952
731.616	0.0168401
731.694	0.0168248
731.772	0.0168790
731.850	0.0168321
731.928	0.0169057
732.006	0.0167264
732.084	0.0168049
732.163	0.0167944
732.241	0.0166140
732.319	0.0167294
732.397	0.0167836
732.475	0.0169300
732.553	0.0168698
732.631	0.0170000
732.709	0.0169020
732.788	0.0169341
732.866	0.0170039
732.944	0.0171230
733.022	0.0169547
733.100	0.0168581
733.178	0.0169494
733.256	0.0168224
733.334	0.0167030
733.413	0.0165701
733.491	0.0166336
733.569	0.0164964
733.647	0.0162251
733.725	0.0161253
733.803	0.0160383
733.881	0.0158074
733.959	0.0157378
734.038	0.0157008
734.116	0.0156143
734.194	0.0154281
734.272	0.0154716
734.350	0.0153808
734.428	0.0152230
734.506	0.0153146
734.584	0.0152157
734.663	0.0152246
734.741	0.0151049
734.819	0.0150612
734.897	0.0150148
734.975	0.0149393
735.053	0.0149392
735.131	0.0150889
735.209	0.0150105
735.288	0.0149180
735.366	0.0149632
735.444	0.0151719
735.522	0.0152943
735.600	0.0151666
735.678	0.0152142
735.756	0.0153630
735.834	0.0154620
735.913	0.0155959
735.991	0.0156767
736.069	0.0159193
736.147	0.0159940
736.225	0.0160795
736.303	0.0163277
736.381	0.0163900
736.459	0.0164988
736.538	0.0165581
736.616	0.0166709
736.694	0.0167337
736.772	0.0168538
736.850	0.0168310
736.928	0.0169073
737.006	0.0169290
737.084	0.0167958
737.163	0.0169728
737.241	0.0169289
737.319	0.0168733
737.397	0.0168922
737.475	0.0167905
737.553	0.0166856
737.631	0.0166468
737.709	0.0165873
737.788	0.0165166
737.866	0.0165903
737.944	0.0166012
738.022	0.0164655
738.100	0.0165575
738.178	0.0164417
738.256	0.0164829
738.334	0.0165788
738.413	0.0166030
738.491	0.0165760
738.569	0.0164374
738.647	0.0165430
738.725	0.0166180
738.803	0.0163911
738.881	0.0164340
738.959	0.0163357
739.038	0.0162804
739.116	0.0162823
739.194	0.0161292
739.272	0.0159263
739.350	0.0159159
739.428	0.0159600
739.506	0.0158577
739.584	0.0157450
739.663	0.0157127
739.741	0.0159026
739.819	0.0158422
739.897	0.0157547
739.975	0.0156012
740.053	0.0157308
740.131	0.0157645
740.209	0.0160062
740.288	0.0158640
740.366	0.0157661
740.444	0.0159682
740.522	0.0160672
740.600	0.0159701
740.678	0.0158600
740.756	0.0160015
740.834	0.0160366
740.913	0.0161238
740.991	0.0161220
741.069	0.0162101
741.147	0.0163147
741.225	0.0164234
741.303	0.0164075
741.381	0.0164101
741.459	0.0165411
741.538	0.0165469
741.616	0.0166347
741.694	0.0166175
741.772	0.0165224
741.850	0.0165005
741.928	0.0164026
742.006	0.0162701
742.084	0.0161897
742.163	0.0162668
742.241	0.0160928
742.319	0.0158582
742.397	0.0159142
742.475	0.0158878
742.553	0.0157558
742.631	0.0156068
742.709	0.0158077
742.788	0.0157134
742.866	0.0156794
742.944	0.0156858
743.022	0.0158260
743.100	0.0157574
743.178	0.0157563
743.256	0.0156992
743.334	0.0156129
743.413	0.0156212
743.491	0.0155277
743.569	0.0154831
743.647	0.0156879
743.725	0.0157568
743.803	0.0156119
743.881	0.0156690
743.959	0.0157985
744.038	0.0158280
744.116	0.0158173
744.194	0.0157998
744.272	0.0157275
744.350	0.0159219
744.428	0.0159947
744.506	0.0159209
744.584	0.0158924
744.663	0.0160143
744.741	0.0159692
744.819	0.0160701
744.897	0.0161305
744.975	0.0161768
745.053	0.0163541
745.131	0.0162229
745.209	0.0162312
745.288	0.0165202
745.366	0.0165393
745.444	0.0166504
745.522	0.0167251
745.600	0.0167352
745.678	0.0168308
745.756	0.0169061
745.834	0.0169017
745.913	0.0168569
745.991	0.0170704
746.069	0.0171298
746.147	0.0169949
746.225	0.0170467
746.303	0.0171656
746.381	0.0170146
746.459	0.0169556
746.538	0.0170562
746.616	0.0171194
746.694	0.0169665
746.772	0.0167858
746.850	0.0168570
746.928	0.0167044
747.006	0.0165208
747.084	0.0164257
747.163	0.0164501
747.241	0.0163264
747.319	0.0163065
747.397	0.0163393
747.475	0.0163004
747.553	0.0162181
747.631	0.0162643
747.709	0.0160583
747.788	0.0162228
747.866	0.0160603
747.944	0.0161019
748.022	0.0160011
748.100	0.0159753
748.178	0.0159225
748.256	0.0157137
748.334	0.0156770
748.413	0.0156467
748.491	0.0155653
748.569	0.0153887
748.647	0.0152537
748.725	0.0151649
748.803	0.0152821
748.881	0.0152739
748.959	0.0151284
749.038	0.0151145
749.116	0.0151466
749.194	0.0150369
749.272	0.0152003
749.350	0.0152821
749.428	0.0150932
749.506	0.0153303
749.584	0.0152264
749.663	0.0154118
749.741	0.0156123
749.819	0.0156422
749.897	0.0157789
749.975	0.0159655
750.053	0.0161897
750.131	0.0160746
750.209	0.0160718
750.288	0.0161433
750.366	0.0163797
750.444	0.0164386
750.522	0.0162645
750.600	0.0165453
750.678	0.0165285
750.756	0.0165738
750.834	0.0164610
750.913	0.0167571
750.991	0.0167480
751.069	0.0169340
751.147	0.0167284
751.225	0.0168604
751.303	0.0168396
751.381	0.0167225
751.459	0.0168200
751.538	0.0168893
751.616	0.0167834
751.694	0.0165946
751.772	0.0164719
751.850	0.0165638
751.928	0.0165185
752.006	0.0164018
752.084	0.0161644
752.163	0.0162695
752.241	0.0161781
752.319	0.0161917
752.397	0.0160580
752.475	0.0159918
752.553	0.0157831
752.631	0.0159262
752.709	0.0158956
752.788	0.0158943
752.866	0.0158841
752.944	0.0157910
753.022	0.0159408
753.100	0.0159656
753.178	0.0161675
753.256	0.0161098
753.334	0.0158969
753.413	0.0160687
753.491	0.0161591
753.569	0.0161331
753.647	0.0160933
753.725	0.0160891
753.803	0.0162021
753.881	0.0160702
753.959	0.0161040
754.038	0.0160172
754.116	0.0161198
754.194	0.0160402
754.272	0.0160415
754.350	0.0161486
754.428	0.0161304
754.506	0.0161710
754.584	0.0163634
754.663	0.0164497
754.741	0.0163505
754.819	0.0164010
754.897	0.0164235
754.975	0.0163680
755.053	0.0165079
755.131	0.0164951
755.209	0.0166040
755.288	0.0164272
755.366	0.0166253
755.444	0.0165903
755.522	0.0165280
755.600	0.0165874
755.678	0.0164973
755.756	0.0165499
755.834	0.0163947
755.913	0.0164077
755.991	0.0162784
756.069	0.0164207
756.147	0.0163217
756.225	0.0161098
756.303	0.0162495
756.381	0.0162360
756.459	0.0163416
756.538	0.0160719
756.616	0.0159232
756.694	0.0160026
756.772	0.0161393
756.850	0.0158743
756.928	0.0158420
757.006	0.0156922
757.084	0.0155995
757.163	0.0156185
757.241	0.0155569
757.319	0.0154443
757.397	0.0154475
757.475	0.0155207
757.553	0.0155759
757.631	0.0153727
757.709	0.0154669
757.788	0.0154297
757.866	0.0154933
757.944	0.0155214
758.022	0.0155306
758.100	0.0156300
758.178	0.0155817
758.256	0.0156028
758.334	0.0158655
758.413	0.0158401
758.491	0.0159573
758.569	0.0159634
758.647	0.0160280
758.725	0.0163441
758.803	0.0161453
758.881	0.0161339
758.959	0.0162645
759.038	0.0163199
759.116	0.0163766
759.194	0.0163151
759.272	0.0164648
759.350	0.0165511
759.428	0.0165385
759.506	0.0165920
759.584	0.0165100
759.663	0.0166039
759.741	0.0166610
759.819	0.0166663
759.897	0.0166748
759.975	0.0166573
760.053	0.0166920
760.131	0.0167608
760.209	0.0168362
760.288	0.0166766
760.366	0.0166449
760.444	0.0166888
760.522	0.0167419
760.600	0.0166025
760.678	0.0164866
760.756	0.0164951
760.834	0.0166630
760.913	0.0165182
760.991	0.0164251
761.069	0.0162656
761.147	0.0163278
761.225	0.0163144
761.303	0.0163776
761.381	0.0162903
761.459	0.0163973
761.538	0.0162309
761.616	0.0160382
761.694	0.0161714
761.772	0.0160574
761.850	0.0162037
761.928	0.0161192
762.006	0.0160053
762.084	0.0158796
762.163	0.0159428
762.241	0.0158446
762.319	0.0159969
762.397	0.0158754
762.475	0.0159489
762.553	0.0159761
762.631	0.0157939
762.709	0.0159455
762.788	0.0159736
762.866	0.0157891
762.944	0.0158485
763.022	0.0158837
763.100	0.0159025
763.178	0.0158318
763.256	0.0159092
763.334	0.0158649
763.413	0.0159060
763.491	0.0159953
763.569	0.0159391
763.647	0.0158910
763.725	0.0157791
763.803	0.0158698
763.881	0.0159009
763.959	0.0159299
764.038	0.0159614
764.116	0.0159682
764.194	0.0159248
764.272	0.0159862
764.350	0.0160326
764.428	0.0161253
764.506	0.0161207
764.584	0.0161850
764.663	0.0162247
764.741	0.0162151
764.819	0.0162341
764.897	0.0163680
764.975	0.0163200
765.053	0.0162624
765.131	0.0162149
765.209	0.0161583
765.288	0.0162643
765.366	0.0161887
765.444	0.0160725
765.522	0.0159915
765.600	0.0159428
765.678	0.0161590
765.756	0.0159787
765.834	0.0160068
765.913	0.0159085
765.991	0.0159885
766.069	0.0159508
766.147	0.0159490
766.225	0.0160958
766.303	0.0160062
766.381	0.0159375
766.459	0.0158995
766.538	0.0159760
766.616	0.0160011
766.694	0.0159877
766.772	0.0158215
766.850	0.0159088
766.928	0.0158974
767.006	0.0158750
767.084	0.0158925
767.163	0.0159657
767.241	0.0158869
767.319	0.0160636
767.397	0.0160903
767.475	0.0162462
767.553	0.0162438
767.631	0.0163893
767.709	0.0166286
767.788	0.0166743
767.866	0.0167166
767.944	0.0168013
768.022	0.0170650
768.100	0.0170612
768.178	0.0170082
768.256	0.0171379
768.334	0.0170718
768.413	0.0169922
768.491	0.0168465
768.569	0.0169097
768.647	0.0168441
768.725	0.0167415
768.803	0.0168238
768.881	0.0165714
768.959	0.0164925
769.038	0.0163145
769.116	0.0162141
769.194	0.0162310
769.272	0.0160526
769.350	0.0160653
769.428	0.0159492
769.506	0.0159222
769.584	0.0159188
769.663	0.0159201
769.741	0.0158086
769.819	0.0156554
769.897	0.0155547
769.975	0.0154543
770.053	0.0155050
770.131	0.0156178
770.209	0.0154169
770.288	0.0154703
770.366	0.0155217
770.444	0.0156006
770.522	0.0156955
770.600	0.0155949
770.678	0.0156142
770.756	0.0157423
770.834	0.0156671
770.913	0.0158104
770.991	0.0160184
771.069	0.0158413
771.147	0.0159988
771.225	0.0161976
771.303	0.0163593
771.381	0.0162660
771.459	0.0163797
771.538	0.0162841
771.616	0.0163733
771.694	0.0163934
771.772	0.0165866
771.850	0.0165514
771.928	0.0166113
772.006	0.0165285
772.084	0.0165717
772.163	0.0165239
772.241	0.0166266
772.319	0.0165242
772.397	0.0165096
772.475	0.0164365
772.553	0.0164201
772.631	0.0162767
772.709	0.0160860
772.788	0.0160444
772.866	0.0160147
772.944	0.0158644
773.022	0.0157917
773.100	0.0156623
773.178	0.0156626
773.256	0.0154346
773.334	0.0153082
773.413	0.0152690
773.491	0.0152434
773.569	0.0151353
773.647	0.0150683
773.725	0.0150480
773.803	0.0151924
773.881	0.0152708
773.959	0.0152909
774.038	0.0153930
774.116	0.0154325
774.194	0.0155745
774.272	0.0158464
774.350	0.0158558
774.428	0.0159473
774.506	0.0161516
774.584	0.0163421
774.663	0.0163593
774.741	0.0166929
774.819	0.0166512
774.897	0.0169021
774.975	0.0170585
775.053	0.0168568
775.131	0.0170151
775.209	0.0170992
775.288	0.0171700
775.366	0.0172029
775.444	0.0173374
775.522	0.0172800
775.600	0.0172042
775.678	0.0171317
775.756	0.0172977
775.834	0.0172877
775.913	0.0171868
775.991	0.0170492
776.069	0.0171118
776.147	0.0170128
776.225	0.0168961
776.303	0.0168541
776.381	0.0166302
776.459	0.0165749
776.538	0.0164487
776.616	0.0165231
776.694	0.0163443
776.772	0.0162332
776.850	0.0162751
776.928	0.0161655
777.006	0.0159537
777.084	0.0158390
777.163	0.0159554
777.241	0.0160369
777.319	0.0157183
777.397	0.0155967
777.475	0.0156459
777.553	0.0155122
777.631	0.0154433
777.709	0.0153198
777.788	0.0152474
777.866	0.0152552
777.944	0.0150738
778.022	0.0151057
778.100	0.0149957
778.178	0.0149417
778.256	0.0151285
778.334	0.0150297
778.413	0.0151200
778.491	0.0151078
778.569	0.0151294
778.647	0.0152965
778.725	0.0155200
778.803	0.0156041
778.881	0.0157384
778.959	0.0158798
779.038	0.0161719
779.116	0.0162272
779.194	0.0163615
779.272	0.0165295
779.350	0.0166438
779.428	0.0165947
779.506	0.0167249
779.584	0.0168974
779.663	0.0168884
779.741	0.0170411
779.819	0.0170998
779.897	0.0169479
779.975	0.0169095
780.053	0.0171007
780.131	0.0170512
780.209	0.0170422
780.288	0.0170607
780.366	0.0170348
780.444	0.0171030
780.522	0.0169833
780.600	0.0169967
780.678	0.0168373
780.756	0.0168258
780.834	0.0166970
780.913	0.0166712
780.991	0.0166987
781.069	0.0165195
781.147	0.0164032
781.225	0.0163803
781.303	0.0162866
781.381	0.0162975
781.459	0.0161390
781.538	0.0160915
781.616	0.0159937
781.694	0.0159512
781.772	0.0159988
781.850	0.0158768
781.928	0.0156936
782.006	0.0158417
782.084	0.0157068
782.163	0.0156614
782.241	0.0157011
782.319	0.0155025
782.397	0.0153886
782.475	0.0152960
782.553	0.0152868
782.631	0.0152422
782.709	0.0151686
782.788	0.0150668
782.866	0.0150262
782.944	0.0149885
783.022	0.0150010
783.100	0.0151041
783.178	0.0151938
783.256	0.0152538
783.334	0.0154144
783.413	0.0156126
783.491	0.0157405
783.569	0.0158773
783.647	0.0161524
783.725	0.0163563
783.803	0.0163653
783.881	0.0166842
783.959	0.0166837
784.038	0.0168845
784.116	0.0169698
784.194	0.0172795
784.272	0.0172339
784.350	0.0173653
784.428	0.0174268
784.506	0.0175677
784.584	0.0175768
784.663	0.0174943
784.741	0.0177014
784.819	0.0176861
784.897	0.0175764
784.975	0.0175711
785.053	0.0175533
785.131	0.0175842
785.209	0.0173595
785.288	0.0175011
785.366	0.0174944
785.444	0.0174162
785.522	0.0173868
785.600	0.0171452
785.678	0.0171084
785.756	0.0170104
785.834	0.0167480
785.913	0.0166006
785.991	0.0166742
786.069	0.0163406
786.147	0.0161305
786.225	0.0160780
786.303	0.0159106
786.381	0.0157742
786.459	0.0155554
786.538	0.0153644
786.616	0.0152956
786.694	0.0151470
786.772	0.0150822
786.850	0.0147398
786.928	0.0147251
787.006	0.0146710
787.084	0.0144478
787.163	0.0146191
787.241	0.0145430
787.319	0.0147102
787.397	0.0146876
787.475	0.0146514
787.553	0.0146033
787.631	0.0147125
787.709	0.0148369
787.788	0.0148778
787.866	0.0150188
787.944	0.0151428
788.022	0.0152345
788.100	0.0153897
788.178	0.0155153
788.256	0.0156328
788.334	0.0158568
788.413	0.0160249
788.491	0.0161498
788.569	0.0162138
788.647	0.0162102
788.725	0.0163966
788.803	0.0165908
788.881	0.0165247
788.959	0.0166518
789.038	0.0167672
789.116	0.0167682
789.194	0.0170044
789.272	0.0167728
789.350	0.0168541
789.428	0.0168673
789.506	0.0169265
789.584	0.0170725
789.663	0.0169293
789.741	0.0170116
789.819	0.0171154
789.897	0.0170382
789.975	0.0171320
790.053	0.0172655
790.131	0.0172474
790.209	0.0173347
790.288	0.0175358
790.366	0.0175092
790.444	0.0174950
790.522	0.0174744
790.600	0.0175652
790.678	0.0175462
790.756	0.0175339
790.834	0.0174863
790.913	0.0173505
790.991	0.0173771
791.069	0.0172918
791.147	0.0169450
791.225	0.0170705
791.303	0.0167243
791.381	0.0166955
791.459	0.0166087
791.538	0.0162647
791.616	0.0160760
791.694	0.0161629
791.772	0.0158408
791.850	0.0157768
791.928	0.0155942
792.006	0.0153473
792.084	0.0153395
792.163	0.0153730
792.241	0.0152728
792.319	0.0152121
792.397	0.0152124
792.475	0.0150092
792.553	0.0150907
792.631	0.0150150
792.709	0.0150890
792.788	0.0152457
792.866	0.0150896
792.944	0.0151691
793.022	0.0152698
793.100	0.0152905
793.178	0.0152732
793.256	0.0152312
793.334	0.0152923
793.413	0.0153632
793.491	0.0154114
793.569	0.0153934
793.647	0.0154000
793.725	0.0153950
793.803	0.0154950
793.881	0.0155460
793.959	0.0155611
794.038	0.0155052
794.116	0.0155872
794.194	0.0157392
794.272	0.0157627
794.350	0.0158366
794.428	0.0159286
794.506	0.0160254
794.584	0.0161807
794.663	0.0163124
794.741	0.0163708
794.819	0.0164289
794.897	0.0167062
794.975	0.0167754
795.053	0.0168195
795.131	0.0168289
795.209	0.0171231
795.288	0.0172182
795.366	0.0171927
795.444	0.0171824
795.522	0.0172092
795.600	0.0171836
795.678	0.0172945
795.756	0.0172269
795.834	0.0172646
795.913	0.0172511
795.991	0.0171833
796.069	0.0170596
796.147	0.0171075
796.225	0.0169862
796.303	0.0168046
796.381	0.0168055
796.459	0.0166871
796.538	0.0167881
796.616	0.0166576
796.694	0.0165714
796.772	0.0164457
796.850	0.0165131
796.928	0.0164894
797.006	0.0165145
797.084	0.0163612
797.163	0.0162617
797.241	0.0162114
797.319	0.0162344
797.397	0.0163744
797.475	0.0160460
797.553	0.0160450
797.631	0.0160630
797.709	0.0160281
797.788	0.0158864
797.866	0.0158111
797.944	0.0156240
798.022	0.0155313
798.100	0.0154485
798.178	0.0153942
798.256	0.0154230
798.334	0.0153928
798.413	0.0153637
798.491	0.0152460
798.569	0.0151970
798.647	0.0150986
798.725	0.0151237
798.803	0.0152116
798.881	0.0153921
798.959	0.0153323
799.038	0.0152764
799.116	0.0153619
799.194	0.0154982
799.272	0.0156531
799.350	0.0157525
799.428	0.0160425
799.506	0.0162350
799.584	0.0162395
799.663	0.0162997
799.741	0.0161832
799.819	0.0166122
799.897	0.0165332
799.975	0.0167635
800.053	0.0167987
800.131	0.0168235
800.209	0.0168919
800.288	0.0170921
800.366	0.0168840
800.444	0.0169402
800.522	0.0170103
800.600	0.0169871
800.678	0.0171672
800.756	0.0169221
800.834	0.0169084
800.913	0.0168649
800.991	0.0169769
801.069	0.0168838
801.147	0.0167072
801.225	0.0166789
801.303	0.0166972
801.381	0.0166543
801.459	0.0165324
801.538	0.0165558
801.616	0.0163771
801.694	0.0164535
801.772	0.0163961
801.850	0.0162627
801.928	0.0162218
802.006	0.0164484
802.084	0.0162661
802.163	0.0161730
802.241	0.0160880
802.319	0.0160679
802.397	0.0160557
802.475	0.0160207
802.553	0.0159787
802.631	0.0159055
802.709	0.0158021
802.788	0.0159284
802.866	0.0157021
802.944	0.0156765
803.022	0.0156808
803.100	0.0154578
803.178	0.0155260
803.256	0.0155372
803.334	0.0153750
803.413	0.0154021
803.491	0.0154429
803.569	0.0155810
803.647	0.0155793
803.725	0.0155358
803.803	0.0155317
803.881	0.0155686
803.959	0.0156345
804.038	0.0157399
804.116	0.0159325
804.194	0.0158593
804.272	0.0160396
804.350	0.0160201
804.428	0.0160872
804.506	0.0161633
804.584	0.0161633
804.663	0.0163202
804.741	0.0162936
804.819	0.0162585
804.897	0.0164241
804.975	0.0163332
805.053	0.0163270
805.131	0.0164909
805.209	0.0164336
805.288	0.0163396
805.366	0.0165247
805.444	0.0164496
805.522	0.0164989
805.600	0.0166077
805.678	0.0163586
805.756	0.0164481
805.834	0.0166559
805.913	0.0165208
805.991	0.0166033
806.069	0.0165468
806.147	0.0164338
806.225	0.0166793
806.303	0.0166213
806.381	0.0165510
806.459	0.0163641
806.538	0.0166551
806.616	0.0167039
806.694	0.0164502
806.772	0.0164678
806.850	0.0165179
806.928	0.0164686
807.006	0.0163899
807.084	0.0164645
807.163	0.0164532
807.241	0.0165525
807.319	0.0165128
807.397	0.0163634
807.475	0.0163705
807.553	0.0161700
807.631	0.0162983
807.709	0.0163007
807.788	0.0162047
807.866	0.0163287
807.944	0.0162709
808.022	0.0161227
808.100	0.0159488
808.178	0.0160094
808.256	0.0161054
808.334	0.0160548
808.413	0.0159075
808.491	0.0158832
808.569	0.0158910
808.647	0.0161071
808.725	0.0159270
808.803	0.0159366
808.881	0.0159920
808.959	0.0158650
809.038	0.0159118
809.116	0.0158559
809.194	0.0158995
809.272	0.0159361
809.350	0.0159425
809.428	0.0160744
809.506	0.0160963
809.584	0.0160578
809.663	0.0159332
809.741	0.0160472
809.819	0.0160306
809.897	0.0159244
809.975	0.0159528
810.053	0.0160659
810.131	0.0160904
810.209	0.0160877
810.288	0.0161364
810.366	0.0160168
810.444	0.0160375
810.522	0.0161601
810.600	0.0160923
810.678	0.0161263
810.756	0.0160952
810.834	0.0163114
810.913	0.0162254
810.991	0.0161250
811.069	0.0161948
811.147	0.0161562
811.225	0.0161771
811.303	0.0160883
811.381	0.0161417
811.459	0.0161596
811.538	0.0160687
811.616	0.0160384
811.694	0.0160806
811.772	0.0160463
811.850	0.0159045
811.928	0.0159627
812.006	0.0160799
812.084	0.0160592
812.163	0.0159447
812.241	0.0160260
812.319	0.0161608
812.397	0.0160744
812.475	0.0160378
812.553	0.0161427
812.631	0.0162215
812.709	0.0162577
812.788	0.0163260
812.866	0.0162911
812.944	0.0163046
813.022	0.0163094
813.100	0.0164439
813.178	0.0164681
813.256	0.0164944
813.334	0.0165472
813.413	0.0165018
813.491	0.0165269
813.569	0.0165395
813.647	0.0164893
813.725	0.0166529
813.803	0.0167321
813.881	0.0166910
813.959	0.0165434
814.038	0.0165700
814.116	0.0166132
814.194	0.0164948
814.272	0.0164384
814.350	0.0165511
814.428	0.0164014
814.506	0.0164111
814.584	0.0164196
814.663	0.0164172
814.741	0.0163434
814.819	0.0162885
814.897	0.0163591
814.975	0.0162902
815.053	0.0162874
815.131	0.0162669
815.209	0.0161460
815.288	0.0162093
815.366	0.0161623
815.444	0.0161809
815.522	0.0161649
815.600	0.0161292
815.678	0.0159321
815.756	0.0159352
815.834	0.0160374
815.913	0.0158739
815.991	0.0158813
816.069	0.0158843
816.147	0.0159923
816.225	0.0159169
816.303	0.0158774
816.381	0.0157616
816.459	0.0157550
816.538	0.0159439
816.616	0.0159422
816.694	0.0158266
816.772	0.0159773
816.850	0.0159013
816.928	0.0157335
817.006	0.0158376
817.084	0.0157456
817.163	0.0158581
817.241	0.0158375
817.319	0.0158134
817.397	0.0160226
817.475	0.0158884
817.553	0.0159512
817.631	0.0160016
817.709	0.0160097
817.788	0.0159717
817.866	0.0158663
817.944	0.0160263
818.022	0.0159273
818.100	0.0158278
818.178	0.0160910
818.256	0.0160236
818.334	0.0159111
818.413	0.0159747
818.491	0.0159436
818.569	0.0158537
818.647	0.0158403
818.725	0.0159855
818.803	0.0160085
818.881	0.0158548
818.959	0.0158115
819.038	0.0158524
819.116	0.0159026
819.194	0.0158182
819.272	0.0160291
819.350	0.0158767
819.428	0.0159474
819.506	0.0160637
819.584	0.0161003
819.663	0.0161942
819.741	0.0161915
819.819	0.0161668
819.897	0.0162072
819.975	0.0163191
820.053	0.0163879
820.131	0.0163850
820.209	0.0163901
820.288	0.0163924
820.366	0.0165717
820.444	0.0164882
820.522	0.0165024
820.600	0.0165852
820.678	0.0165530
820.756	0.0166469
820.834	0.0165620
820.913	0.0165935
820.991	0.0166470
821.069	0.0166652
821.147	0.0167316
821.225	0.0166046
821.303	0.0166253
821.381	0.0165990
821.459	0.0166247
821.538	0.0164658
821.616	0.0164850
821.694	0.0163649
821.772	0.0164027
821.850	0.0161866
821.928	0.0162605
822.006	0.0162585
822.084	0.0163008
822.163	0.0161434
822.241	0.0160740
822.319	0.0162219
822.397	0.0161719
822.475	0.0160660
822.553	0.0161476
822.631	0.0160870
822.709	0.0160567
822.788	0.0161212
822.866	0.0161819
822.944	0.0162054
823.022	0.0160658
823.100	0.0161722
823.178	0.0161212
823.256	0.0158684
823.334	0.0159944
823.413	0.0159014
823.491	0.0159548
823.569	0.0157138
823.647	0.0157108
823.725	0.0157784
823.803	0.0157689
823.881	0.0156062
823.959	0.0156625
824.038	0.0156079
824.116	0.0154730
824.194	0.0154622
824.272	0.0155675
824.350	0.0156147
824.428	0.0155556
824.506	0.0155519
824.584	0.0155674
824.663	0.0155957
824.741	0.0155794
824.819	0.0158022
824.897	0.0157285
824.975	0.0157080
825.053	0.0158170
825.131	0.0158302
825.209	0.0158032
825.288	0.0159436
825.366	0.0158625
825.444	0.0159334
825.522	0.0158932
825.600	0.0159805
825.678	0.0160372
825.756	0.0160255
825.834	0.0161194
825.913	0.0161443
825.991	0.0161939
826.069	0.0162619
826.147	0.0163718
826.225	0.0163825
826.303	0.0164204
826.381	0.0164430
826.459	0.0163927
826.538	0.0165489
826.616	0.0165063
826.694	0.0165527
826.772	0.0164803
826.850	0.0166483
826.928	0.0165022
827.006	0.0165630
827.084	0.0164523
827.163	0.0165594
827.241	0.0166118
827.319	0.0165295
827.397	0.0166148
827.475	0.0166437
827.553	0.0164769
827.631	0.0166716
827.709	0.0164425
827.788	0.0165208
827.866	0.0164955
827.944	0.0163882
828.022	0.0163136
828.100	0.0163574
828.178	0.0161411
828.256	0.0161019
828.334	0.0159889
828.413	0.0160537
828.491	0.0160472
828.569	0.0159238
828.647	0.0158540
828.725	0.0157767
828.803	0.0157560
828.881	0.0156804
828.959	0.0157528
829.038	0.0157652
829.116	0.0157926
829.194	0.0156567
829.272	0.0157235
829.350	0.0156502
829.428	0.0157864
829.506	0.0157769
829.584	0.0157554
829.663	0.0158942
829.741	0.0159045
829.819	0.0160353
829.897	0.0161636
829.975	0.0158765
830.053	0.0158792
830.131	0.0160717
830.209	0.0161269
830.288	0.0160808
830.366	0.0161645
830.444	0.0162468
830.522	0.0161771
830.600	0.0162325
830.678	0.0162891
830.756	0.0163043
830.834	0.0163961
830.913	0.0163354
830.991	0.0163744
831.069	0.0163281
831.147	0.0163341
831.225	0.0163064
831.303	0.0162891
831.381	0.0163330
831.459	0.0163364
831.538	0.0162181
831.616	0.0160960
831.694	0.0162358
831.772	0.0161130
831.850	0.0159070
831.928	0.0160475
832.006	0.0158963
832.084	0.0160159
832.163	0.0159852
832.241	0.0160728
832.319	0.0159759
832.397	0.0160187
832.475	0.0160231
832.553	0.0160571
832.631	0.0160184
832.709	0.0161201
832.788	0.0161040
832.866	0.0159596
832.944	0.0161218
833.022	0.0160314
833.100	0.0159619
833.178	0.0159745
833.256	0.0159632
833.334	0.0160339
833.413	0.0159685
833.491	0.0160657
833.569	0.0159012
833.647	0.0159631
833.725	0.0159219
833.803	0.0160293
833.881	0.0159303
833.959	0.0160053
834.038	0.0159269
834.116	0.0160693
834.194	0.0160380
834.272	0.0159754
834.350	0.0159367
834.428	0.0160066
834.506	0.0158823
834.584	0.0158791
834.663	0.0158617
834.741	0.0159612
834.819	0.0160824
834.897	0.0159808
834.975	0.0160196
835.053	0.0161423
835.131	0.0161659
835.209	0.0160175
835.288	0.0161626
835.366	0.0161720
835.444	0.0161069
835.522	0.0164661
835.600	0.0163762
835.678	0.0164813
835.756	0.0163865
835.834	0.0164844
835.913	0.0163530
835.991	0.0164055
836.069	0.0163583
836.147	0.0165136
836.225	0.0164558
836.303	0.0163329
836.381	0.0163200
836.459	0.0164288
836.538	0.0162478
836.616	0.0162037
836.694	0.0163914
836.772	0.0161772
836.850	0.0161640
836.928	0.0161841
837.006	0.0161784
837.084	0.0162228
837.163	0.0162499
837.241	0.0162549
837.319	0.0161949
837.397	0.0162262
837.475	0.0160606
837.553	0.0162369
837.631	0.0162038
837.709	0.0162267
837.788	0.0161727
837.866	0.0161102
837.944	0.0160763
838.022	0.0161712
838.100	0.0162460
838.178	0.0161256
838.256	0.0161845
838.334	0.0160683
838.413	0.0161112
838.491	0.0162309
838.569	0.0162141
838.647	0.0162704
838.725	0.0161611
838.803	0.0161687
838.881	0.0161546
838.959	0.0160514
839.038	0.0160475
839.116	0.0160371
839.194	0.0160806
839.272	0.0159561
839.350	0.0159681
839.428	0.0157345
839.506	0.0157623
839.584	0.0157195
839.663	0.0156769
839.741	0.0156457
839.819	0.0156650
839.897	0.0154838
839.975	0.0156003
840.053	0.0156648
840.131	0.0155198
840.209	0.0155650
840.288	0.0156069
840.366	0.0156317
840.444	0.0156905
840.522	0.0156625
840.600	0.0156973
840.678	0.0156869
840.756	0.0158125
840.834	0.0156796
840.913	0.0157568
840.991	0.0157883
841.069	0.0158253
841.147	0.0157449
841.225	0.0158317
841.303	0.0159367
841.381	0.0159455
841.459	0.0159528
841.538	0.0159759
841.616	0.0158937
841.694	0.0161926
841.772	0.0161002
841.850	0.0162404
841.928	0.0163187
842.006	0.0162446
842.084	0.0163474
842.163	0.0162903
842.241	0.0164180
842.319	0.0164409
842.397	0.0163353
842.475	0.0164948
842.553	0.0163892
842.631	0.0165025
842.709	0.0164463
842.788	0.0163626
842.866	0.0163662
842.944	0.0163435
843.022	0.0166705
843.100	0.0164914
843.178	0.0165186
843.256	0.0167585
843.334	0.0165585
843.413	0.0164642
843.491	0.0166284
843.569	0.0164986
843.647	0.0166312
843.725	0.0165830
843.803	0.0163969
843.881	0.0163611
843.959	0.0164890
844.038	0.0161789
844.116	0.0161570
844.194	0.0161877
844.272	0.0161598
844.350	0.0160044
844.428	0.0159923
844.506	0.0158417
844.584	0.0159660
844.663	0.0159380
844.741	0.0158234
844.819	0.0157381
844.897	0.0157549
844.975	0.0158247
845.053	0.0157638
845.131	0.0157066
845.209	0.0157743
845.288	0.0157556
845.366	0.0156194
845.444	0.0158791
845.522	0.0156915
845.600	0.0157881
845.678	0.0157554
845.756	0.0157103
845.834	0.0158425
845.913	0.0157951
845.991	0.0159010
846.069	0.0158525
846.147	0.0158421
846.225	0.0158482
846.303	0.0158982
846.381	0.0160150
846.459	0.0159009
846.538	0.0159258
846.616	0.0160737
846.694	0.0162086
846.772	0.0160386
846.850	0.0162714
846.928	0.0162524
847.006	0.0160051
847.084	0.0160921
847.163	0.0161961
847.241	0.0162558
847.319	0.0161058
847.397	0.0161681
847.475	0.0161746
847.553	0.0159277
847.631	0.0160843
847.709	0.0161308
847.788	0.0161212
847.866	0.0162395
847.944	0.0161779
848.022	0.0161393
848.100	0.0161356
848.178	0.0161058
848.256	0.0161764
848.334	0.0162743
848.413	0.0162155
848.491	0.0161311
848.569	0.0163601
848.647	0.0160978
848.725	0.0161275
848.803	0.0162014
848.881	0.0162614
848.959	0.0159030
849.038	0.0160960
849.116	0.0162120
849.194	0.0162068
849.272	0.0160199
849.350	0.0160804
849.428	0.0159881
849.506	0.0159940
849.584	0.0159158
849.663	0.0161351
849.741	0.0161186
849.819	0.0160304
849.897	0.0161637
849.975	0.0160393
850.053	0.0161134
850.131	0.0161415
850.209	0.0162408
850.288	0.0162935
850.366	0.0162349
850.444	0.0162759
850.522	0.0162874
850.600	0.0162605
850.678	0.0163613
850.756	0.0162662
850.834	0.0163132
850.913	0.0163593
850.991	0.0162939
851.069	0.0161527
851.147	0.0162286
851.225	0.0163036
851.303	0.0161351
851.381	0.0163062
851.459	0.0162453
851.538	0.0161189
851.616	0.0161987
851.694	0.0161746
851.772	0.0161042
851.850	0.0161481
851.928	0.0160583
852.006	0.0160232
852.084	0.0161652
852.163	0.0159571
852.241	0.0161442
852.319	0.0159294
852.397	0.0160342
852.475	0.0160426
852.553	0.0159270
852.631	0.0158651
852.709	0.0158985
852.788	0.0159465
852.866	0.0159422
852.944	0.0158354
853.022	0.0158375
853.100	0.0159199
853.178	0.0158910
853.256	0.0158787
853.334	0.0157793
853.413	0.0158357
853.491	0.0159581
853.569	0.0158463
853.647	0.0159045
853.725	0.0158681
853.803	0.0160169
853.881	0.0160123
853.959	0.0160486
854.038	0.0159624
854.116	0.0160148
854.194	0.0160487
854.272	0.0161351
854.350	0.0161629
854.428	0.0161738
854.506	0.0161062
854.584	0.0161102
854.663	0.0160026
854.741	0.0162083
854.819	0.0161221
854.897	0.0161626
854.975	0.0163110
855.053	0.0162683
855.131	0.0162971
855.209	0.0164577
855.288	0.0163831
855.366	0.0162376
855.444	0.0162218
855.522	0.0163463
855.600	0.0163721
855.678	0.0162765
855.756	0.0162110
855.834	0.0162955
855.913	0.0162855
855.991	0.0162395
856.069	0.0161935
856.147	0.0162382
856.225	0.0161048
856.303	0.0163893
856.381	0.0163540
856.459	0.0162405
856.538	0.0161921
856.616	0.0162119
856.694	0.0162611
856.772	0.0159961
856.850	0.0160222
856.928	0.0160417
857.006	0.0160626
857.084	0.0159478
857.163	0.0159457
857.241	0.0160928
857.319	0.0159792
857.397	0.0158595
857.475	0.0159118
857.553	0.0159315
857.631	0.0158276
857.709	0.0158627
857.788	0.0160597
857.866	0.0158987
857.944	0.0159460
858.022	0.0159715
858.100	0.0159914
858.178	0.0158369
858.256	0.0159526
858.334	0.0160326
858.413	0.0158892
858.491	0.0158652
858.569	0.0160610
858.647	0.0159460
858.725	0.0158564
858.803	0.0160375
858.881	0.0160719
858.959	0.0161346
859.038	0.0162831
859.116	0.0161561
859.194	0.0163609
859.272	0.0164265
859.350	0.0163552
859.428	0.0164911
859.506	0.0166630
859.584	0.0165414
859.663	0.0166946
859.741	0.0165296
859.819	0.0166594
859.897	0.0166930
859.975	0.0165218
860.053	0.0167314
860.131	0.0165740
860.209	0.0165704
860.288	0.0166072
860.366	0.0166439
860.444	0.0164354
860.522	0.0164169
860.600	0.0165472
860.678	0.0163332
860.756	0.0162583
860.834	0.0163614
860.913	0.0163518
860.991	0.0160429
861.069	0.0161317
861.147	0.0160621
861.225	0.0160351
861.303	0.0160321
861.381	0.0161291
861.459	0.0161230
861.538	0.0161266
861.616	0.0160278
861.694	0.0159880
861.772	0.0159653
861.850	0.0160899
861.928	0.0160336
862.006	0.0159904
862.084	0.0160097
862.163	0.0159100
862.241	0.0158780
862.319	0.0157088
862.397	0.0157173
862.475	0.0156618
862.553	0.0157217
862.631	0.0157006
862.709	0.0157025
862.788	0.0157574
862.866	0.0157612
862.944	0.0158406
863.022	0.0159284
863.100	0.0160161
863.178	0.0161940
863.256	0.0160336
863.334	0.0161768
863.413	0.0163396
863.491	0.0161353
863.569	0.0163387
863.647	0.0162350
863.725	0.0160675
863.803	0.0160837
863.881	0.0161747
863.959	0.0160950
864.038	0.0160697
864.116	0.0160836
864.194	0.0159759
864.272	0.0159679
864.350	0.0159727
864.428	0.0160275
864.506	0.0159869
864.584	0.0161743
864.663	0.0161099
864.741	0.0160908
864.819	0.0161555
864.897	0.0162494
864.975	0.0162792
865.053	0.0162647
865.131	0.0163326
865.209	0.0162023
865.288	0.0164065
865.366	0.0163248
865.444	0.0164419
865.522	0.0163947
865.600	0.0164948
865.678	0.0165488
865.756	0.0165956
865.834	0.0167278
865.913	0.0167041
865.991	0.0168839
866.069	0.0168192
866.147	0.0169567
866.225	0.0167781
866.303	0.0169910
866.381	0.0168766
866.459	0.0167760
866.538	0.0167760
866.616	0.0166579
866.694	0.0165968
866.772	0.0163464
866.850	0.0162633
866.928	0.0163583
867.006	0.0162054
867.084	0.0161176
867.163	0.0160130
867.241	0.0160761
867.319	0.0159774
867.397	0.0160038
867.475	0.0159075
867.553	0.0158546
867.631	0.0156321
867.709	0.0156371
867.788	0.0154317
867.866	0.0153339
867.944	0.0153219
868.022	0.0152120
868.100	0.0152466
868.178	0.0151121
868.256	0.0152427
868.334	0.0151873
868.413	0.0151437
868.491	0.0151931
868.569	0.0153844
868.647	0.0155193
868.725	0.0154869
868.803	0.0157379
868.881	0.0157282
868.959	0.0157516
869.038	0.0161589
869.116	0.0162457
869.194	0.0162797
869.272	0.0166744
869.350	0.0165694
869.428	0.0166240
869.506	0.0169681
869.584	0.0168510
869.663	0.0169674
869.741	0.0169943
869.819	0.0170944
869.897	0.0171467
869.975	0.0171950
870.053	0.0169800
870.131	0.0170005
870.209	0.0170702
870.288	0.0170100
870.366	0.0169163
870.444	0.0168329
870.522	0.0167000
870.600	0.0166079
870.678	0.0164931
870.756	0.0164486
870.834	0.0164829
870.913	0.0163609
870.991	0.0164137
871.069	0.0161942
871.147	0.0164408
871.225	0.0161232
871.303	0.0161864
871.381	0.0160765
871.459	0.0159998
871.538	0.0158237
871.616	0.0158344
871.694	0.0157816
871.772	0.0155972
871.850	0.0155957
871.928	0.0155510
872.006	0.0155318
872.084	0.0156010
872.163	0.0155074
872.241	0.0155624
872.319	0.0155810
872.397	0.0155724
872.475	0.0156129
872.553	0.0155399
872.631	0.0154972
872.709	0.0155807
872.788	0.0154797
872.866	0.0153585
872.944	0.0154016
873.022	0.0154045
873.100	0.0155447
873.178	0.0154160
873.256	0.0154815
873.334	0.0155704
873.413	0.0157777
873.491	0.0156956
873.569	0.0159045
873.647	0.0160373
873.725	0.0161617
873.803	0.0165012
873.881	0.0165067
873.959	0.0165614
874.038	0.0170325
874.116	0.0169591
874.194	0.0170726
874.272	0.0172449
874.350	0.0173274
874.428	0.0175114
874.506	0.0174915
874.584	0.0174802
874.663	0.0176035
874.741	0.0173959
874.819	0.0173143
874.897	0.0174070
874.975	0.0171948
875.053	0.0170799
875.131	0.0168439
875.209	0.0168225
875.288	0.0165028
875.366	0.0164288
875.444	0.0162850
875.522	0.0163832
875.600	0.0162811
875.678	0.0160320
875.756	0.0160007
875.834	0.0160756
875.913	0.0160088
875.991	0.0158867
876.069	0.0159510
876.147	0.0158770
876.225	0.0157291
876.303	0.0156780
876.381	0.0156229
876.459	0.0155180
876.538	0.0154195
876.616	0.0154829
876.694	0.0154202
876.772	0.0155678
876.850	0.0155689
876.928	0.0154557
877.006	0.0154474
877.084	0.0155350
877.163	0.0156324
877.241	0.0155638
877.319	0.0156668
877.397	0.0156722
877.475	0.0156947
877.553	0.0156551
877.631	0.0155019
877.709	0.0155321
877.788	0.0156373
877.866	0.0155309
877.944	0.0155681
878.022	0.0155161
878.100	0.0155611
878.178	0.0155815
878.256	0.0156898
878.334	0.0157679
878.413	0.0159720
878.491	0.0161285
878.569	0.0162063
878.647	0.0164961
878.725	0.0166290
878.803	0.0167686
878.881	0.0169080
878.959	0.0169250
879.038	0.0171902
879.116	0.0174610
879.194	0.0173488
879.272	0.0174152
879.350	0.0173561
879.428	0.0173256
879.506	0.0174963
879.584	0.0172285
879.663	0.0170339
879.741	0.0168707
879.819	0.0167970
879.897	0.0165058
879.975	0.0165226
880.053	0.0164162
880.131	0.0162444
880.209	0.0161728
880.288	0.0161332
880.366	0.0162577
880.444	0.0160091
880.522	0.0158462
880.600	0.0159807
880.678	0.0159222
880.756	0.0160633
880.834	0.0160535
880.913	0.0159619
880.991	0.0159303
881.069	0.0158064
881.147	0.0158311
881.225	0.0159371
881.303	0.0157172
881.381	0.0157344
881.459	0.0155547
881.538	0.0154921
881.616	0.0156367
881.694	0.0154664
881.772	0.0154687
881.850	0.0157143
881.928	0.0157162
882.006	0.0157231
882.084	0.0158788
882.163	0.0158482
882.241	0.0158840
882.319	0.0160213
882.397	0.0161387
882.475	0.0160915
882.553	0.0161589
882.631	0.0161325
882.709	0.0160013
882.788	0.0162238
882.866	0.0162999
882.944	0.0161322
883.022	0.0162522
883.100	0.0162283
883.178	0.0162820
883.256	0.0163454
883.334	0.0162466
883.413	0.0162620
883.491	0.0164557
883.569	0.0165817
883.647	0.0164348
883.725	0.0165549
883.803	0.0166472
883.881	0.0166981
883.959	0.0165725
884.038	0.0165982
884.116	0.0165919
884.194	0.0164072
884.272	0.0163677
884.350	0.0162930
884.428	0.0160637
884.506	0.0160944
884.584	0.0161433
884.663	0.0161785
884.741	0.0159318
884.819	0.0160224
884.897	0.0160909
884.975	0.0159473
885.053	0.0161003
885.131	0.0161389
885.209	0.0163213
885.288	0.0162936
885.366	0.0163000
885.444	0.0164417
885.522	0.0165761
885.600	0.0166935
885.678	0.0166372
885.756	0.0166546
885.834	0.0166399
885.913	0.0166392
885.991	0.0164703
886.069	0.0163137
886.147	0.0165032
886.225	0.0163712
886.303	0.0161244
886.381	0.0161218
886.459	0.0159615
886.538	0.0159103
886.616	0.0159180
886.694	0.0156775
886.772	0.0156068
886.850	0.0156630
886.928	0.0155844
887.006	0.0156005
887.084	0.0155733
887.163	0.0155543
887.241	0.0156253
887.319	0.0156463
887.397	0.0157407
887.475	0.0160701
887.553	0.0159465
887.631	0.0159548
887.709	0.0161428
887.788	0.0163751
887.866	0.0163786
887.944	0.0165155
888.022	0.0165026
888.100	0.0166610
888.178	0.0167462
888.256	0.0167391
888.334	0.0167155
888.413	0.0165759
888.491	0.0167087
888.569	0.0165530
888.647	0.0164601
888.725	0.0165300
888.803	0.0164356
888.881	0.0162681
888.959	0.0161703
889.038	0.0163634
889.116	0.0161872
889.194	0.0159753
889.272	0.0160293
889.350	0.0160224
889.428	0.0160542
889.506	0.0159452
889.584	0.0159668
889.663	0.0159905
889.741	0.0160495
889.819	0.0160249
889.897	0.0161491
889.975	0.0160531
890.053	0.0162852
890.131	0.0161756
890.209	0.0164448
890.288	0.0162759
890.366	0.0161739
890.444	0.0161903
890.522	0.0162826
890.600	0.0162583
890.678	0.0162193
890.756	0.0161217
890.834	0.0161244
890.913	0.0160637
890.991	0.0160387
891.069	0.0159541
891.147	0.0158152
891.225	0.0157673
891.303	0.0158025
891.381	0.0159187
891.459	0.0158253
891.538	0.0157401
891.616	0.0156411
891.694	0.0156784
891.772	0.0157166
891.850	0.0159116
891.928	0.0160158
892.006	0.0160313
892.084	0.0161179
892.163	0.0162971
892.241	0.0163453
892.319	0.0163044
892.397	0.0164613
892.475	0.0166364
892.553	0.0166791
892.631	0.0169148
892.709	0.0167855
892.788	0.0168562
892.866	0.0168832
892.944	0.0169145
893.022	0.0168419
893.100	0.0167670
893.178	0.0167437
893.256	0.0164906
893.334	0.0167805
893.413	0.0164408
893.491	0.0164957
893.569	0.0163718
893.647	0.0163461
893.725	0.0161597
893.803	0.0161720
893.881	0.0160387
893.959	0.0159417
894.038	0.0158146
894.116	0.0159212
894.194	0.0159313
894.272	0.0158567
894.350	0.0159263
894.428	0.0158280
894.506	0.0159188
894.584	0.0160405
894.663	0.0162408
894.741	0.0162606
894.819	0.0162154
894.897	0.0162402
894.975	0.0162102
895.053	0.0163250
895.131	0.0164403
895.209	0.0163514
895.288	0.0163152
895.366	0.0162195
895.444	0.0162290
895.522	0.0163460
895.600	0.0160842
895.678	0.0160738
895.756	0.0161415
895.834	0.0160159
895.913	0.0159583
895.991	0.0156777
896.069	0.0158761
896.147	0.0158213
896.225	0.0157976
896.303	0.0158177
896.381	0.0157359
896.459	0.0158021
896.538	0.0157413
896.616	0.0157349
896.694	0.0156538
896.772	0.0158639
896.850	0.0160122
896.928	0.0159837
897.006	0.0159795
897.084	0.0160223
897.163	0.0161154
897.241	0.0160143
897.319	0.0161454
897.397	0.0162546
897.475	0.0164349
897.553	0.0163963
897.631	0.0163124
897.709	0.0163834
897.788	0.0165303
897.866	0.0165234
897.944	0.0163528
898.022	0.0163804
898.100	0.0162974
898.178	0.0163481
898.256	0.0164452
898.334	0.0163937
898.413	0.0164301
898.491	0.0163699
898.569	0.0162666
898.647	0.0162720
898.725	0.0163859
898.803	0.0164261
898.881	0.0164738
898.959	0.0162989
899.038	0.0162893
899.116	0.0162950
899.194	0.0164288
899.272	0.0163040
899.350	0.0164999
899.428	0.0164770
899.506	0.0164405
899.584	0.0163980
899.663	0.0162780
899.741	0.0166077
899.819	0.0163988
899.897	0.0162622
899.975	0.0163353
900.053	0.0162503
900.131	0.0163241
900.209	0.0162428
900.288	0.0161888
900.366	0.0162793
900.444	0.0160580
900.522	0.0160183
900.600	0.0159831
900.678	0.0159885
900.756	0.0160641
900.834	0.0159483
900.913	0.0159376
900.991	0.0160165
901.069	0.0160062
901.147	0.0160301
901.225	0.0160800
901.303	0.0160612
901.381	0.0160921
901.459	0.0161409
901.538	0.0161884
901.616	0.0163239
901.694	0.0160589
901.772	0.0163039
901.850	0.0161678
901.928	0.0160510
902.006	0.0161585
902.084	0.0159899
902.163	0.0160804
902.241	0.0161843
902.319	0.0160663
902.397	0.0160508
902.475	0.0160085
902.553	0.0159279
902.631	0.0161015
902.709	0.0160523
902.788	0.0159336
902.866	0.0160371
902.944	0.0160338
903.022	0.0162105
903.100	0.0161789
903.178	0.0162534
903.256	0.0162450
903.334	0.0161191
903.413	0.0162370
903.491	0.0161225
903.569	0.0161314
903.647	0.0162518
903.725	0.0161337
903.803	0.0162395
903.881	0.0161797
903.959	0.0161789
904.038	0.0162378
904.116	0.0161964
904.194	0.0160979
904.272	0.0162411
904.350	0.0161754
904.428	0.0161196
904.506	0.0162209
904.584	0.0161775
904.663	0.0160997
904.741	0.0161500
904.819	0.0162899
904.897	0.0160737
904.975	0.0162164
905.053	0.0162060
905.131	0.0161810
905.209	0.0161746
905.288	0.0162604
905.366	0.0161682
905.444	0.0161610
905.522	0.0162538
905.600	0.0161349
905.678	0.0162395
905.756	0.0162051
905.834	0.0162913
905.913	0.0162914
905.991	0.0162473
906.069	0.0162176
906.147	0.0162638
906.225	0.0163383
906.303	0.0163483
906.381	0.0162935
906.459	0.0161732
906.538	0.0160815
906.616	0.0162537
906.694	0.0161829
906.772	0.0159698
906.850	0.0160664
906.928	0.0160999
907.006	0.0161481
907.084	0.0159743
907.163	0.0158700
907.241	0.0159203
907.319	0.0158587
907.397	0.0159943
907.475	0.0160049
907.553	0.0160533
907.631	0.0160188
907.709	0.0159634
907.788	0.0162027
907.866	0.0159292
907.944	0.0161264
908.022	0.0162472
908.100	0.0161844
908.178	0.0161067
908.256	0.0161118
908.334	0.0162076
908.413	0.0162469
908.491	0.0162594
908.569	0.0162576
908.647	0.0161845
908.725	0.0162751
908.803	0.0163349
908.881	0.0161584
908.959	0.0161851
909.038	0.0162251
909.116	0.0162016
909.194	0.0161170
909.272	0.0161671
909.350	0.0162369
909.428	0.0161764
909.506	0.0161604
909.584	0.0162466
909.663	0.0162059
909.741	0.0162946
909.819	0.0163052
909.897	0.0163380
909.975	0.0161989
910.053	0.0162440
910.131	0.0162318
910.209	0.0163309
910.288	0.0162675
910.366	0.0160993
910.444	0.0162814
910.522	0.0161501
910.600	0.0162411
910.678	0.0162181
910.756	0.0160378
910.834	0.0161697
910.913	0.0161802
910.991	0.0160416
911.069	0.0161191
911.147	0.0159582
911.225	0.0160329
911.303	0.0161835
911.381	0.0159487
911.459	0.0161813
911.538	0.0161623
911.616	0.0162199
911.694	0.0162760
911.772	0.0160159
911.850	0.0160448
911.928	0.0161221
912.006	0.0162827
912.084	0.0161100
912.163	0.0161813
912.241	0.0161806
912.319	0.0161139
912.397	0.0161879
912.475	0.0162871
912.553	0.0162114
912.631	0.0162893
912.709	0.0162357
912.788	0.0162212
912.866	0.0163663
912.944	0.0162858
913.022	0.0162113
913.100	0.0162693
913.178	0.0163190
913.256	0.0163632
913.334	0.0163575
913.413	0.0164242
913.491	0.0164225
913.569	0.0163406
913.647	0.0162679
913.725	0.0163573
913.803	0.0162807
913.881	0.0164240
913.959	0.0163431
914.038	0.0164194
914.116	0.0164552
914.194	0.0162871
914.272	0.0162991
914.350	0.0163824
914.428	0.0164595
914.506	0.0162129
914.584	0.0164533
914.663	0.0161761
914.741	0.0161176
914.819	0.0162005
914.897	0.0161598
914.975	0.0160020
915.053	0.0161315
915.131	0.0158579
915.209	0.0158115
915.288	0.0158795
915.366	0.0157555
915.444	0.0157122
915.522	0.0157004
915.600	0.0155519
915.678	0.0156448
915.756	0.0157426
915.834	0.0155650
915.913	0.0156052
915.991	0.0157933
916.069	0.0157126
916.147	0.0156315
916.225	0.0157552
916.303	0.0158210
916.381	0.0158064
916.459	0.0158178
916.538	0.0160405
916.616	0.0159888
916.694	0.0158733
916.772	0.0160658
916.850	0.0161713
916.928	0.0162398
917.006	0.0162581
917.084	0.0162042
917.163	0.0161720
917.241	0.0162569
917.319	0.0163005
917.397	0.0163591
917.475	0.0164629
917.553	0.0164864
917.631	0.0163813
917.709	0.0165182
917.788	0.0166348
917.866	0.0166363
917.944	0.0166829
918.022	0.0166064
918.100	0.0168361
918.178	0.0167917
918.256	0.0168864
918.334	0.0166988
918.413	0.0167880
918.491	0.0167272
918.569	0.0166864
918.647	0.0165143
918.725	0.0166036
918.803	0.0166032
918.881	0.0165861
918.959	0.0166513
919.038	0.0164271
919.116	0.0164420
919.194	0.0164119
919.272	0.0163856
919.350	0.0163383
919.428	0.0162275
919.506	0.0160625
919.584	0.0159117
919.663	0.0160806
919.741	0.0159746
919.819	0.0158492
919.897	0.0157878
