06/01/2022	17:26:19	Ver.	4.1	UNKNOWN
Optical Delay	599.981738	Delta X		0.078125	Sweeps	1	Scan Rate	0/0
Coordinates	Axis 1	NaN	Axis 2	NaN	Axis 3	NaN	Axis 4	NaN	Axis 5	NaN	Axis 6	0.000000
TX Power	0.000000	RX Power	0.000000

599.982	0.0166680
600.060	0.0166557
600.138	0.0166521
600.216	0.0165897
600.294	0.0166611
600.372	0.0166362
600.450	0.0166780
600.529	0.0167517
600.607	0.0166370
600.685	0.0165935
600.763	0.0166542
600.841	0.0167087
600.919	0.0167923
600.997	0.0166962
601.075	0.0168063
601.154	0.0166626
601.232	0.0166546
601.310	0.0166109
601.388	0.0167911
601.466	0.0168420
601.544	0.0167947
601.622	0.0167022
601.700	0.0168594
601.779	0.0168056
601.857	0.0165401
601.935	0.0166171
602.013	0.0168167
602.091	0.0168504
602.169	0.0167387
602.247	0.0168767
602.325	0.0167786
602.404	0.0165523
602.482	0.0167142
602.560	0.0167787
602.638	0.0165183
602.716	0.0165366
602.794	0.0166294
602.872	0.0167587
602.950	0.0167854
603.029	0.0167387
603.107	0.0166872
603.185	0.0166390
603.263	0.0165154
603.341	0.0167325
603.419	0.0167492
603.497	0.0166779
603.575	0.0166922
603.654	0.0167012
603.732	0.0167451
603.810	0.0167095
603.888	0.0166455
603.966	0.0166364
604.044	0.0165502
604.122	0.0165362
604.200	0.0166230
604.279	0.0167459
604.357	0.0167248
604.435	0.0165992
604.513	0.0165701
604.591	0.0167231
604.669	0.0167233
604.747	0.0165689
604.825	0.0166287
604.904	0.0166650
604.982	0.0165755
605.060	0.0166980
605.138	0.0166624
605.216	0.0165925
605.294	0.0166554
605.372	0.0166650
605.450	0.0165064
605.529	0.0165800
605.607	0.0167857
605.685	0.0167352
605.763	0.0165509
605.841	0.0166694
605.919	0.0167889
605.997	0.0166359
606.075	0.0167131
606.154	0.0166841
606.232	0.0166651
606.310	0.0168198
606.388	0.0167210
606.466	0.0168088
606.544	0.0167195
606.622	0.0167950
606.700	0.0167490
606.779	0.0166149
606.857	0.0166076
606.935	0.0168500
607.013	0.0167830
607.091	0.0166579
607.169	0.0166904
607.247	0.0167953
607.325	0.0166512
607.404	0.0167209
607.482	0.0167800
607.560	0.0166473
607.638	0.0166447
607.716	0.0167220
607.794	0.0166055
607.872	0.0167229
607.950	0.0166750
608.029	0.0165238
608.107	0.0166628
608.185	0.0166854
608.263	0.0166377
608.341	0.0167313
608.419	0.0167049
608.497	0.0165665
608.575	0.0167017
608.654	0.0167809
608.732	0.0165299
608.810	0.0165255
608.888	0.0167426
608.966	0.0166807
609.044	0.0166196
609.122	0.0165783
609.200	0.0166093
609.279	0.0167270
609.357	0.0166142
609.435	0.0165782
609.513	0.0166743
609.591	0.0165266
609.669	0.0166599
609.747	0.0167839
609.825	0.0166924
609.904	0.0165167
609.982	0.0166132
610.060	0.0166430
610.138	0.0166463
610.216	0.0165186
610.294	0.0166546
610.372	0.0166885
610.450	0.0166033
610.529	0.0166579
610.607	0.0167357
610.685	0.0166328
610.763	0.0166048
610.841	0.0166339
610.919	0.0166389
610.997	0.0165504
611.075	0.0166341
611.154	0.0167422
611.232	0.0167541
611.310	0.0166069
611.388	0.0165761
611.466	0.0167751
611.544	0.0166225
611.622	0.0166227
611.700	0.0167197
611.779	0.0167493
611.857	0.0166301
611.935	0.0167271
612.013	0.0166162
612.091	0.0166655
612.169	0.0166785
612.247	0.0168702
612.325	0.0167260
612.404	0.0167921
612.482	0.0168250
612.560	0.0167836
612.638	0.0167535
612.716	0.0167587
612.794	0.0167028
612.872	0.0166476
612.950	0.0167980
613.029	0.0167850
613.107	0.0166881
613.185	0.0168117
613.263	0.0167531
613.341	0.0167438
613.419	0.0167009
613.497	0.0166697
613.575	0.0166522
613.654	0.0167245
613.732	0.0167547
613.810	0.0166589
613.888	0.0167038
613.966	0.0167365
614.044	0.0167207
614.122	0.0167279
614.200	0.0166848
614.279	0.0167435
614.357	0.0166993
614.435	0.0166853
614.513	0.0167709
614.591	0.0166296
614.669	0.0166406
614.747	0.0166837
614.825	0.0167129
614.904	0.0166161
614.982	0.0165114
615.060	0.0166002
615.138	0.0167168
615.216	0.0166286
615.294	0.0166058
615.372	0.0166222
615.450	0.0166627
615.529	0.0166197
615.607	0.0165864
615.685	0.0166426
615.763	0.0167062
615.841	0.0166042
615.919	0.0166624
615.997	0.0166538
616.075	0.0165904
616.154	0.0167011
616.232	0.0167448
616.310	0.0166431
616.388	0.0166902
616.466	0.0168617
616.544	0.0168746
616.622	0.0166578
616.700	0.0166287
616.779	0.0168149
616.857	0.0166700
616.935	0.0167081
617.013	0.0166605
617.091	0.0166205
617.169	0.0167230
617.247	0.0167938
617.325	0.0167532
617.404	0.0167139
617.482	0.0166536
617.560	0.0166411
617.638	0.0165982
617.716	0.0168236
617.794	0.0166154
617.872	0.0166518
617.950	0.0166351
618.029	0.0167974
618.107	0.0168243
618.185	0.0166081
618.263	0.0167320
618.341	0.0166499
618.419	0.0167384
618.497	0.0166846
618.575	0.0166425
618.654	0.0166027
618.732	0.0166883
618.810	0.0166859
618.888	0.0167767
618.966	0.0167178
619.044	0.0165347
619.122	0.0167151
619.200	0.0167821
619.279	0.0166310
619.357	0.0166787
619.435	0.0166380
619.513	0.0167409
619.591	0.0167181
619.669	0.0166939
619.747	0.0166924
619.825	0.0166463
619.904	0.0166975
619.982	0.0167941
620.060	0.0166634
620.138	0.0167226
620.216	0.0167080
620.294	0.0166645
620.372	0.0166481
620.450	0.0166772
620.529	0.0166307
620.607	0.0165579
620.685	0.0166083
620.763	0.0166556
620.841	0.0168378
620.919	0.0166490
620.997	0.0167126
621.075	0.0166439
621.154	0.0166247
621.232	0.0166660
621.310	0.0168486
621.388	0.0166399
621.466	0.0166712
621.544	0.0167494
621.622	0.0167850
621.700	0.0167612
621.779	0.0166201
621.857	0.0166273
621.935	0.0167817
622.013	0.0167657
622.091	0.0166064
622.169	0.0168326
622.247	0.0165597
622.325	0.0166158
622.404	0.0168421
622.482	0.0166973
622.560	0.0166345
622.638	0.0167704
622.716	0.0167661
622.794	0.0166178
622.872	0.0166355
622.950	0.0166900
623.029	0.0167844
623.107	0.0168121
623.185	0.0166540
623.263	0.0166638
623.341	0.0167567
623.419	0.0167700
623.497	0.0165850
623.575	0.0166142
623.654	0.0167037
623.732	0.0165896
623.810	0.0167934
623.888	0.0167190
623.966	0.0165629
624.044	0.0166797
624.122	0.0166559
624.200	0.0167374
624.279	0.0166326
624.357	0.0165530
624.435	0.0166029
624.513	0.0166837
624.591	0.0166380
624.669	0.0167547
624.747	0.0166697
624.825	0.0167864
624.904	0.0165901
624.982	0.0166384
625.060	0.0165916
625.138	0.0166003
625.216	0.0166008
625.294	0.0166512
625.372	0.0167507
625.450	0.0166811
625.529	0.0164524
625.607	0.0165681
625.685	0.0167165
625.763	0.0167475
625.841	0.0167563
625.919	0.0166103
625.997	0.0166695
626.075	0.0167033
626.154	0.0166365
626.232	0.0167204
626.310	0.0166958
626.388	0.0164466
626.466	0.0165813
626.544	0.0167908
626.622	0.0167187
626.700	0.0165568
626.779	0.0165714
626.857	0.0167089
626.935	0.0166734
627.013	0.0166688
627.091	0.0166393
627.169	0.0167098
627.247	0.0166876
627.325	0.0167637
627.404	0.0166535
627.482	0.0165546
627.560	0.0165139
627.638	0.0165828
627.716	0.0167522
627.794	0.0166638
627.872	0.0166067
627.950	0.0168342
628.029	0.0167076
628.107	0.0166796
628.185	0.0166554
628.263	0.0166103
628.341	0.0166399
628.419	0.0167388
628.497	0.0166943
628.575	0.0167329
628.654	0.0166959
628.732	0.0166417
628.810	0.0165571
628.888	0.0166402
628.966	0.0165986
629.044	0.0166774
629.122	0.0167346
629.200	0.0165743
629.279	0.0167332
629.357	0.0166414
629.435	0.0166858
629.513	0.0166032
629.591	0.0165228
629.669	0.0165911
629.747	0.0167484
629.825	0.0167102
629.904	0.0166664
629.982	0.0165540
630.060	0.0166519
630.138	0.0165415
630.216	0.0166212
630.294	0.0166325
630.372	0.0166096
630.450	0.0167171
630.529	0.0167178
630.607	0.0168150
630.685	0.0166356
630.763	0.0165812
630.841	0.0167336
630.919	0.0167473
630.997	0.0166198
631.075	0.0166878
631.154	0.0167128
631.232	0.0166068
631.310	0.0166394
631.388	0.0167331
631.466	0.0167593
631.544	0.0166489
631.622	0.0167735
631.700	0.0167538
631.779	0.0167165
631.857	0.0166496
631.935	0.0166718
632.013	0.0167976
632.091	0.0167510
632.169	0.0167355
632.247	0.0166887
632.325	0.0166513
632.404	0.0167703
632.482	0.0167058
632.560	0.0167298
632.638	0.0166309
632.716	0.0167164
632.794	0.0167080
632.872	0.0167428
632.950	0.0166095
633.029	0.0166780
633.107	0.0167511
633.185	0.0166770
633.263	0.0166319
633.341	0.0166833
633.419	0.0166751
633.497	0.0166830
633.575	0.0166247
633.654	0.0167082
633.732	0.0165839
633.810	0.0165855
633.888	0.0166641
633.966	0.0166036
634.044	0.0166237
634.122	0.0166183
634.200	0.0166287
634.279	0.0165919
634.357	0.0166621
634.435	0.0167254
634.513	0.0165729
634.591	0.0167519
634.669	0.0167263
634.747	0.0166852
634.825	0.0166329
634.904	0.0166717
634.982	0.0168157
635.060	0.0166073
635.138	0.0167021
635.216	0.0166036
635.294	0.0167535
635.372	0.0167377
635.450	0.0167341
635.529	0.0166873
635.607	0.0166782
635.685	0.0167887
635.763	0.0165887
635.841	0.0166907
635.919	0.0167683
635.997	0.0167806
636.075	0.0166856
636.154	0.0167461
636.232	0.0166277
636.310	0.0167310
636.388	0.0168103
636.466	0.0167361
636.544	0.0166567
636.622	0.0166200
636.700	0.0166520
636.779	0.0167809
636.857	0.0165966
636.935	0.0166290
637.013	0.0166117
637.091	0.0167885
637.169	0.0166959
637.247	0.0166400
637.325	0.0166708
637.404	0.0168015
637.482	0.0168453
637.560	0.0166328
637.638	0.0167606
637.716	0.0166224
637.794	0.0167966
637.872	0.0166341
637.950	0.0167072
638.029	0.0167197
638.107	0.0168352
638.185	0.0167516
638.263	0.0167204
638.341	0.0167401
638.419	0.0168225
638.497	0.0167401
638.575	0.0167928
638.654	0.0166989
638.732	0.0166530
638.810	0.0167164
638.888	0.0167709
638.966	0.0166811
639.044	0.0166804
639.122	0.0167715
639.200	0.0168122
639.279	0.0165199
639.357	0.0166698
639.435	0.0166853
639.513	0.0166834
639.591	0.0166322
639.669	0.0166504
639.747	0.0166349
639.825	0.0166101
639.904	0.0166636
639.982	0.0166568
640.060	0.0167178
640.138	0.0165266
640.216	0.0166506
640.294	0.0165814
640.372	0.0166603
640.450	0.0167528
640.529	0.0166586
640.607	0.0167035
640.685	0.0166475
640.763	0.0166545
640.841	0.0165240
640.919	0.0166138
640.997	0.0166024
641.075	0.0166117
641.154	0.0166461
641.232	0.0166454
641.310	0.0166766
641.388	0.0167364
641.466	0.0168372
641.544	0.0168495
641.622	0.0167451
641.700	0.0167683
641.779	0.0167350
641.857	0.0165162
641.935	0.0167850
642.013	0.0166664
642.091	0.0166610
642.169	0.0167681
642.247	0.0167023
642.325	0.0166666
642.404	0.0166550
642.482	0.0166969
642.560	0.0167915
642.638	0.0167330
642.716	0.0166749
642.794	0.0166333
642.872	0.0168079
642.950	0.0165903
643.029	0.0166149
643.107	0.0166791
643.185	0.0168575
643.263	0.0167167
643.341	0.0166428
643.419	0.0166712
643.497	0.0166315
643.575	0.0167904
643.654	0.0168508
643.732	0.0166980
643.810	0.0166606
643.888	0.0166709
643.966	0.0165923
644.044	0.0167716
644.122	0.0167338
644.200	0.0165814
644.279	0.0166830
644.357	0.0166251
644.435	0.0166035
644.513	0.0167569
644.591	0.0166962
644.669	0.0166854
644.747	0.0166117
644.825	0.0167741
644.904	0.0166714
644.982	0.0166286
645.060	0.0167351
645.138	0.0166550
645.216	0.0167835
645.294	0.0166754
645.372	0.0166479
645.450	0.0166897
645.529	0.0166627
645.607	0.0166304
645.685	0.0166732
645.763	0.0166595
645.841	0.0166183
645.919	0.0166021
645.997	0.0165839
646.075	0.0166092
646.154	0.0167014
646.232	0.0166360
646.310	0.0166846
646.388	0.0166812
646.466	0.0165535
646.544	0.0167521
646.622	0.0167257
646.700	0.0167102
646.779	0.0165391
646.857	0.0167249
646.935	0.0167110
647.013	0.0167764
647.091	0.0166634
647.169	0.0166407
647.247	0.0168124
647.325	0.0165694
647.404	0.0166754
647.482	0.0167399
647.560	0.0166376
647.638	0.0166383
647.716	0.0166717
647.794	0.0168549
647.872	0.0166288
647.950	0.0166861
648.029	0.0167278
648.107	0.0166431
648.185	0.0167480
648.263	0.0166927
648.341	0.0168482
648.419	0.0165809
648.497	0.0168107
648.575	0.0167142
648.654	0.0166509
648.732	0.0166784
648.810	0.0166840
648.888	0.0167150
648.966	0.0167222
649.044	0.0166835
649.122	0.0166945
649.200	0.0165898
649.279	0.0166574
649.357	0.0166975
649.435	0.0166103
649.513	0.0166126
649.591	0.0166267
649.669	0.0166441
649.747	0.0166267
649.825	0.0168201
649.904	0.0166447
649.982	0.0166492
650.060	0.0166474
650.138	0.0165779
650.216	0.0168005
650.294	0.0166749
650.372	0.0167355
650.450	0.0166626
650.529	0.0166800
650.607	0.0166342
650.685	0.0167060
650.763	0.0166367
650.841	0.0167236
650.919	0.0166457
650.997	0.0166664
651.075	0.0167172
651.154	0.0167640
651.232	0.0167018
651.310	0.0167047
651.388	0.0165906
651.466	0.0167950
651.544	0.0166568
651.622	0.0167155
651.700	0.0167868
651.779	0.0168155
651.857	0.0166343
651.935	0.0166980
652.013	0.0167619
652.091	0.0166143
652.169	0.0166027
652.247	0.0167319
652.325	0.0166687
652.404	0.0165919
652.482	0.0167613
652.560	0.0166643
652.638	0.0165953
652.716	0.0165985
652.794	0.0165719
652.872	0.0165314
652.950	0.0167007
653.029	0.0167144
653.107	0.0166512
653.185	0.0166033
653.263	0.0166248
653.341	0.0168082
653.419	0.0166290
653.497	0.0166915
653.575	0.0166566
653.654	0.0166010
653.732	0.0166770
653.810	0.0166226
653.888	0.0167147
653.966	0.0166244
654.044	0.0166508
654.122	0.0166387
654.200	0.0166331
654.279	0.0168732
654.357	0.0167971
654.435	0.0167650
654.513	0.0166021
654.591	0.0167512
654.669	0.0166982
654.747	0.0167281
654.825	0.0168193
654.904	0.0167337
654.982	0.0165981
655.060	0.0167477
655.138	0.0167067
655.216	0.0165894
655.294	0.0167145
655.372	0.0168361
655.450	0.0166987
655.529	0.0167490
655.607	0.0167747
655.685	0.0167209
655.763	0.0166264
655.841	0.0167588
655.919	0.0167439
655.997	0.0166145
656.075	0.0168063
656.154	0.0168201
656.232	0.0167068
656.310	0.0166590
656.388	0.0166124
656.466	0.0166817
656.544	0.0167755
656.622	0.0167743
656.700	0.0166730
656.779	0.0167052
656.857	0.0167447
656.935	0.0166283
657.013	0.0165982
657.091	0.0165989
657.169	0.0167039
657.247	0.0166588
657.325	0.0166805
657.404	0.0168635
657.482	0.0167207
657.560	0.0168785
657.638	0.0167260
657.716	0.0166953
657.794	0.0167464
657.872	0.0168462
657.950	0.0166232
658.029	0.0166964
658.107	0.0168425
658.185	0.0166410
658.263	0.0169771
658.341	0.0167049
658.419	0.0166839
658.497	0.0168273
658.575	0.0167112
658.654	0.0168401
658.732	0.0167797
658.810	0.0168451
658.888	0.0167094
658.966	0.0167210
659.044	0.0167564
659.122	0.0168396
659.200	0.0168203
659.279	0.0167242
659.357	0.0166528
659.435	0.0167111
659.513	0.0167959
659.591	0.0166252
659.669	0.0166034
659.747	0.0163767
659.825	0.0164714
659.904	0.0164776
659.982	0.0166015
660.060	0.0165109
660.138	0.0163148
660.216	0.0162704
660.294	0.0164397
660.372	0.0164021
660.450	0.0163752
660.529	0.0164582
660.607	0.0165359
660.685	0.0167154
660.763	0.0167396
660.841	0.0167590
660.919	0.0167182
660.997	0.0167190
661.075	0.0166679
661.154	0.0165925
661.232	0.0166785
661.310	0.0165628
661.388	0.0164254
661.466	0.0164203
661.544	0.0164298
661.622	0.0165063
661.700	0.0167801
661.779	0.0168717
661.857	0.0168994
661.935	0.0170428
662.013	0.0172503
662.091	0.0172925
662.169	0.0175291
662.247	0.0176102
662.325	0.0176402
662.404	0.0176435
662.482	0.0176461
662.560	0.0173912
662.638	0.0172964
662.716	0.0170940
662.794	0.0169386
662.872	0.0166049
662.950	0.0163150
663.029	0.0161993
663.107	0.0160059
663.185	0.0157413
663.263	0.0156519
663.341	0.0156275
663.419	0.0155246
663.497	0.0156297
663.575	0.0157762
663.654	0.0158581
663.732	0.0159653
663.810	0.0161694
663.888	0.0164108
663.966	0.0164989
664.044	0.0166700
664.122	0.0169386
664.200	0.0166565
664.279	0.0168565
664.357	0.0167595
664.435	0.0166273
664.513	0.0165484
664.591	0.0165334
664.669	0.0164388
664.747	0.0164244
664.825	0.0164771
664.904	0.0163856
664.982	0.0162057
665.060	0.0163235
665.138	0.0162915
665.216	0.0164368
665.294	0.0164604
665.372	0.0164226
665.450	0.0164574
665.529	0.0165506
665.607	0.0165961
665.685	0.0168675
665.763	0.0170963
665.841	0.0172255
665.919	0.0173689
665.997	0.0178942
666.075	0.0181612
666.154	0.0184377
666.232	0.0187495
666.310	0.0189294
666.388	0.0189288
666.466	0.0191122
666.544	0.0186794
666.622	0.0183395
666.700	0.0179147
666.779	0.0174880
666.857	0.0170269
666.935	0.0165200
667.013	0.0158530
667.091	0.0155293
667.169	0.0152572
667.247	0.0149033
667.325	0.0145797
667.404	0.0147680
667.482	0.0147176
667.560	0.0147134
667.638	0.0150195
667.716	0.0152019
667.794	0.0151750
667.872	0.0155603
667.950	0.0156330
668.029	0.0157800
668.107	0.0158292
668.185	0.0159364
668.263	0.0159641
668.341	0.0158547
668.419	0.0158135
668.497	0.0160346
668.575	0.0158588
668.654	0.0158391
668.732	0.0160876
668.810	0.0162579
668.888	0.0165678
668.966	0.0169911
669.044	0.0175532
669.122	0.0180032
669.200	0.0182716
669.279	0.0188000
669.357	0.0192861
669.435	0.0195671
669.513	0.0197772
669.591	0.0199655
669.669	0.0200871
669.747	0.0199280
669.825	0.0196706
669.904	0.0192857
669.982	0.0189761
670.060	0.0183984
670.138	0.0177061
670.216	0.0171942
670.294	0.0165353
670.372	0.0157832
670.450	0.0153907
670.529	0.0148678
670.607	0.0144364
670.685	0.0140600
670.763	0.0136784
670.841	0.0135412
670.919	0.0134241
670.997	0.0132682
671.075	0.0130729
671.154	0.0131243
671.232	0.0132684
671.310	0.0131468
671.388	0.0133554
671.466	0.0136905
671.544	0.0139623
671.622	0.0144115
671.700	0.0149133
671.779	0.0153976
671.857	0.0158262
671.935	0.0164276
672.013	0.0170547
672.091	0.0175864
672.169	0.0184373
672.247	0.0190117
672.325	0.0196568
672.404	0.0202061
672.482	0.0204861
672.560	0.0209655
672.638	0.0211068
672.716	0.0215070
672.794	0.0216636
672.872	0.0217894
672.950	0.0218411
673.029	0.0215678
673.107	0.0214796
673.185	0.0214511
673.263	0.0212055
673.341	0.0206760
673.419	0.0203445
673.497	0.0197279
673.575	0.0191145
673.654	0.0184686
673.732	0.0175692
673.810	0.0165783
673.888	0.0156604
673.966	0.0146353
674.044	0.0136395
674.122	0.0125082
674.200	0.0116328
674.279	0.0107200
674.357	0.00991997
674.435	0.00934387
674.513	0.00896614
674.591	0.00870483
674.669	0.00866570
674.747	0.00885658
674.825	0.00908684
674.904	0.00945061
674.982	0.0100600
675.060	0.0108116
675.138	0.0114879
675.216	0.0125217
675.294	0.0133495
675.372	0.0143811
675.450	0.0154900
675.529	0.0162952
675.607	0.0171904
675.685	0.0181757
675.763	0.0188705
675.841	0.0195695
675.919	0.0203222
675.997	0.0207539
676.075	0.0212975
676.154	0.0216026
676.232	0.0219424
676.310	0.0223835
676.388	0.0226110
676.466	0.0228751
676.544	0.0233235
676.622	0.0235196
676.700	0.0235413
676.779	0.0234063
676.857	0.0233789
676.935	0.0231715
677.013	0.0226892
677.091	0.0221561
677.169	0.0216378
677.247	0.0210800
677.325	0.0203449
677.404	0.0196677
677.482	0.0190233
677.560	0.0184118
677.638	0.0179314
677.716	0.0176580
677.794	0.0173237
677.872	0.0169748
677.950	0.0167028
678.029	0.0164918
678.107	0.0163172
678.185	0.0159502
678.263	0.0154632
678.341	0.0151940
678.419	0.0144891
678.497	0.0136222
678.575	0.0128202
678.654	0.0118204
678.732	0.0107225
678.810	0.00981583
678.888	0.00883301
678.966	0.00798874
679.044	0.00726540
679.122	0.00659157
679.200	0.00617630
679.279	0.00598518
679.357	0.00601059
679.435	0.00627815
679.513	0.00659637
679.591	0.00743423
679.669	0.00838882
679.747	0.00950089
679.825	0.0107755
679.904	0.0120018
679.982	0.0135082
680.060	0.0151648
680.138	0.0167530
680.216	0.0183438
680.294	0.0197640
680.372	0.0213708
680.450	0.0228350
680.529	0.0240909
680.607	0.0250481
680.685	0.0258958
680.763	0.0266415
680.841	0.0269954
680.919	0.0273702
680.997	0.0274883
681.075	0.0275158
681.154	0.0273707
681.232	0.0270487
681.310	0.0266889
681.388	0.0257499
681.466	0.0251256
681.544	0.0242824
681.622	0.0233034
681.700	0.0223015
681.779	0.0211956
681.857	0.0201546
681.935	0.0192133
682.013	0.0183438
682.091	0.0173432
682.169	0.0167314
682.247	0.0159805
682.325	0.0152023
682.404	0.0147803
682.482	0.0142220
682.560	0.0137639
682.638	0.0136134
682.716	0.0133460
682.794	0.0131375
682.872	0.0132357
682.950	0.0131782
683.029	0.0133576
683.107	0.0135262
683.185	0.0136243
683.263	0.0135220
683.341	0.0133281
683.419	0.0131670
683.497	0.0129813
683.575	0.0124377
683.654	0.0119054
683.732	0.0113962
683.810	0.0108389
683.888	0.0100023
683.966	0.00926559
684.044	0.00868088
684.122	0.00812080
684.200	0.00769455
684.279	0.00729530
684.357	0.00722054
684.435	0.00728569
684.513	0.00778824
684.591	0.00844536
684.669	0.00936806
684.747	0.0104719
684.825	0.0118591
684.904	0.0133284
684.982	0.0149971
685.060	0.0167686
685.138	0.0181561
685.216	0.0196569
685.294	0.0211129
685.372	0.0223605
685.450	0.0233420
685.529	0.0240841
685.607	0.0249197
685.685	0.0256773
685.763	0.0260430
685.841	0.0264189
685.919	0.0266967
685.997	0.0267724
686.075	0.0270392
686.154	0.0271378
686.232	0.0271464
686.310	0.0272652
686.388	0.0271606
686.466	0.0269228
686.544	0.0267725
686.622	0.0263377
686.700	0.0259093
686.779	0.0252023
686.857	0.0241019
686.935	0.0227451
687.013	0.0213625
687.091	0.0199079
687.169	0.0183505
687.247	0.0166936
687.325	0.0150677
687.404	0.0135957
687.482	0.0123611
687.560	0.0111197
687.638	0.0102064
687.716	0.00960587
687.794	0.00920471
687.872	0.00901482
687.950	0.00902580
688.029	0.00926346
688.107	0.00961250
688.185	0.0100188
688.263	0.0104646
688.341	0.0106519
688.419	0.0109351
688.497	0.0111516
688.575	0.0111717
688.654	0.0110146
688.732	0.0110098
688.810	0.0107791
688.888	0.0103320
688.966	0.0102056
689.044	0.0100458
689.122	0.00979561
689.200	0.00983772
689.279	0.0101653
689.357	0.0102428
689.435	0.0106595
689.513	0.0116331
689.591	0.0124223
689.669	0.0133347
689.747	0.0143077
689.825	0.0152029
689.904	0.0162739
689.982	0.0172443
690.060	0.0180229
690.138	0.0188501
690.216	0.0194500
690.294	0.0198962
690.372	0.0204658
690.450	0.0210162
690.529	0.0211009
690.607	0.0213488
690.685	0.0218149
690.763	0.0221062
690.841	0.0224550
690.919	0.0228558
690.997	0.0232355
691.075	0.0234242
691.154	0.0238685
691.232	0.0244569
691.310	0.0247913
691.388	0.0251197
691.466	0.0253704
691.544	0.0255526
691.622	0.0257078
691.700	0.0255898
691.779	0.0253587
691.857	0.0251099
691.935	0.0245324
692.013	0.0241212
692.091	0.0231532
692.169	0.0221223
692.247	0.0209312
692.325	0.0196173
692.404	0.0182579
692.482	0.0168200
692.560	0.0152016
692.638	0.0139388
692.716	0.0125661
692.794	0.0112435
692.872	0.0102889
692.950	0.00954971
693.029	0.00887047
693.107	0.00848747
693.185	0.00843620
693.263	0.00846550
693.341	0.00879669
693.419	0.00910667
693.497	0.00958969
693.575	0.00992004
693.654	0.0104211
693.732	0.0107604
693.810	0.0111604
693.888	0.0113811
693.966	0.0116069
694.044	0.0117671
694.122	0.0118010
694.200	0.0118036
694.279	0.0119720
694.357	0.0120614
694.435	0.0122831
694.513	0.0126453
694.591	0.0131202
694.669	0.0136245
694.747	0.0141993
694.825	0.0148609
694.904	0.0156294
694.982	0.0161207
695.060	0.0167239
695.138	0.0174813
695.216	0.0180214
695.294	0.0184550
695.372	0.0189507
695.450	0.0190767
695.529	0.0192612
695.607	0.0193993
695.685	0.0194653
695.763	0.0196973
695.841	0.0195802
695.919	0.0199126
695.997	0.0202877
696.075	0.0205030
696.154	0.0208420
696.232	0.0214639
696.310	0.0219333
696.388	0.0222235
696.466	0.0227909
696.544	0.0229198
696.622	0.0231905
696.700	0.0231733
696.779	0.0231087
696.857	0.0229897
696.935	0.0225832
697.013	0.0220014
697.091	0.0213318
697.169	0.0207888
697.247	0.0200500
697.325	0.0191988
697.404	0.0184331
697.482	0.0176329
697.560	0.0170686
697.638	0.0163129
697.716	0.0155608
697.794	0.0150214
697.872	0.0143999
697.950	0.0141000
698.029	0.0138677
698.107	0.0136365
698.185	0.0135668
698.263	0.0136569
698.341	0.0138638
698.419	0.0141254
698.497	0.0143468
698.575	0.0144802
698.654	0.0149856
698.732	0.0152742
698.810	0.0154149
698.888	0.0155955
698.966	0.0156192
699.044	0.0155945
699.122	0.0153572
699.200	0.0153203
699.279	0.0150352
699.357	0.0146777
699.435	0.0144156
699.513	0.0140326
699.591	0.0135820
699.669	0.0133482
699.747	0.0131055
699.825	0.0128810
699.904	0.0127708
699.982	0.0126608
700.060	0.0126528
700.138	0.0129636
700.216	0.0128843
700.294	0.0131534
700.372	0.0133532
700.450	0.0135508
700.529	0.0137915
700.607	0.0142268
700.685	0.0146243
700.763	0.0149832
700.841	0.0155000
700.919	0.0162531
700.997	0.0169220
701.075	0.0173438
701.154	0.0181304
701.232	0.0188668
701.310	0.0193896
701.388	0.0201946
701.466	0.0206503
701.544	0.0210961
701.622	0.0216708
701.700	0.0219399
701.779	0.0220790
701.857	0.0220835
701.935	0.0220135
702.013	0.0217169
702.091	0.0214424
702.169	0.0211787
702.247	0.0205529
702.325	0.0197708
702.404	0.0190992
702.482	0.0183956
702.560	0.0177389
702.638	0.0170845
702.716	0.0163834
702.794	0.0159751
702.872	0.0154861
702.950	0.0151297
703.029	0.0150995
703.107	0.0150794
703.185	0.0150575
703.263	0.0153669
703.341	0.0155766
703.419	0.0160822
703.497	0.0167111
703.575	0.0170383
703.654	0.0174239
703.732	0.0176812
703.810	0.0178947
703.888	0.0180356
703.966	0.0181568
704.044	0.0181045
704.122	0.0182565
704.200	0.0179385
704.279	0.0177682
704.357	0.0176234
704.435	0.0172623
704.513	0.0169862
704.591	0.0169521
704.669	0.0163866
704.747	0.0160503
704.825	0.0156706
704.904	0.0152803
704.982	0.0150840
705.060	0.0146955
705.138	0.0142563
705.216	0.0140302
705.294	0.0139815
705.372	0.0138565
705.450	0.0137014
705.529	0.0137534
705.607	0.0139420
705.685	0.0139586
705.763	0.0141822
705.841	0.0145529
705.919	0.0147990
705.997	0.0150454
706.075	0.0153449
706.154	0.0157781
706.232	0.0159498
706.310	0.0163607
706.388	0.0166235
706.466	0.0167835
706.544	0.0169793
706.622	0.0171821
706.700	0.0173335
706.779	0.0174955
706.857	0.0175364
706.935	0.0176429
707.013	0.0175699
707.091	0.0174902
707.169	0.0175189
707.247	0.0175919
707.325	0.0174648
707.404	0.0173837
707.482	0.0173660
707.560	0.0171964
707.638	0.0167741
707.716	0.0165696
707.794	0.0166066
707.872	0.0164156
707.950	0.0163573
708.029	0.0162601
708.107	0.0164038
708.185	0.0162399
708.263	0.0165072
708.341	0.0166325
708.419	0.0167403
708.497	0.0170872
708.575	0.0172313
708.654	0.0174564
708.732	0.0178550
708.810	0.0179723
708.888	0.0180627
708.966	0.0182302
709.044	0.0183528
709.122	0.0182307
709.200	0.0182897
709.279	0.0180354
709.357	0.0178265
709.435	0.0176545
709.513	0.0173493
709.591	0.0170788
709.669	0.0169756
709.747	0.0166392
709.825	0.0164989
709.904	0.0163362
709.982	0.0161676
710.060	0.0161717
710.138	0.0161432
710.216	0.0161787
710.294	0.0161948
710.372	0.0162938
710.450	0.0162627
710.529	0.0163354
710.607	0.0164816
710.685	0.0166886
710.763	0.0168117
710.841	0.0168322
710.919	0.0169591
710.997	0.0171922
711.075	0.0172651
711.154	0.0173953
711.232	0.0175666
711.310	0.0178126
711.388	0.0178178
711.466	0.0179656
711.544	0.0180137
711.622	0.0180137
711.700	0.0179602
711.779	0.0180569
711.857	0.0179858
711.935	0.0176253
712.013	0.0173702
712.091	0.0171838
712.169	0.0168220
712.247	0.0167168
712.325	0.0165395
712.404	0.0160294
712.482	0.0158324
712.560	0.0154971
712.638	0.0153490
712.716	0.0150352
712.794	0.0147947
712.872	0.0147057
712.950	0.0144446
713.029	0.0141472
713.107	0.0143278
713.185	0.0142422
713.263	0.0141721
713.341	0.0141895
713.419	0.0142608
713.497	0.0142493
713.575	0.0144685
713.654	0.0145230
713.732	0.0147549
713.810	0.0148494
713.888	0.0150595
713.966	0.0151719
714.044	0.0152689
714.122	0.0154226
714.200	0.0158391
714.279	0.0158559
714.357	0.0160513
714.435	0.0162578
714.513	0.0164558
714.591	0.0166767
714.669	0.0168736
714.747	0.0171333
714.825	0.0174234
714.904	0.0176747
714.982	0.0178960
715.060	0.0181092
715.138	0.0184290
715.216	0.0185344
715.294	0.0188770
715.372	0.0190016
715.450	0.0190475
715.529	0.0191075
715.607	0.0192175
715.685	0.0192695
715.763	0.0189391
715.841	0.0188618
715.919	0.0189116
715.997	0.0187230
716.075	0.0186301
716.154	0.0185314
716.232	0.0181918
716.310	0.0180482
716.388	0.0179284
716.466	0.0179477
716.544	0.0177567
716.622	0.0175733
716.700	0.0176761
716.779	0.0174671
716.857	0.0175043
716.935	0.0174102
717.013	0.0173299
717.091	0.0173666
717.169	0.0173428
717.247	0.0171924
717.325	0.0170798
717.404	0.0172372
717.482	0.0170004
717.560	0.0168153
717.638	0.0166518
717.716	0.0165887
717.794	0.0164853
717.872	0.0162800
717.950	0.0159498
718.029	0.0159859
718.107	0.0156445
718.185	0.0155830
718.263	0.0154488
718.341	0.0155226
718.419	0.0152240
718.497	0.0151132
718.575	0.0149382
718.654	0.0149899
718.732	0.0148425
718.810	0.0146885
718.888	0.0145091
718.966	0.0145661
719.044	0.0145588
719.122	0.0144027
719.200	0.0143211
719.279	0.0143126
719.357	0.0142703
719.435	0.0143330
719.513	0.0143889
719.591	0.0145749
719.669	0.0148483
719.747	0.0150055
719.825	0.0151439
719.904	0.0153596
719.982	0.0156094
720.060	0.0160341
720.138	0.0161347
720.216	0.0163363
720.294	0.0165900
720.372	0.0167207
720.450	0.0170542
720.529	0.0171111
720.607	0.0173342
720.685	0.0175751
720.763	0.0176759
720.841	0.0178664
720.919	0.0181124
720.997	0.0181464
721.075	0.0182599
721.154	0.0182730
721.232	0.0184724
721.310	0.0185602
721.388	0.0185551
721.466	0.0184401
721.544	0.0184964
721.622	0.0184180
721.700	0.0185258
721.779	0.0181991
721.857	0.0182233
721.935	0.0182535
722.013	0.0182027
722.091	0.0182710
722.169	0.0181801
722.247	0.0181362
722.325	0.0181453
722.404	0.0182253
722.482	0.0181949
722.560	0.0181937
722.638	0.0181446
722.716	0.0181562
722.794	0.0177850
722.872	0.0177373
722.950	0.0174242
723.029	0.0174153
723.107	0.0171509
723.185	0.0167110
723.263	0.0163852
723.341	0.0162066
723.419	0.0160914
723.497	0.0158416
723.575	0.0155388
723.654	0.0155236
723.732	0.0153736
723.810	0.0152023
723.888	0.0151527
723.966	0.0151272
724.044	0.0151659
724.122	0.0152708
724.200	0.0152145
724.279	0.0153324
724.357	0.0154272
724.435	0.0155976
724.513	0.0157129
724.591	0.0157478
724.669	0.0158580
724.747	0.0161359
724.825	0.0162776
724.904	0.0164513
724.982	0.0164215
725.060	0.0166392
725.138	0.0166151
725.216	0.0167013
725.294	0.0170210
725.372	0.0171451
725.450	0.0172466
725.529	0.0172312
725.607	0.0173300
725.685	0.0173145
725.763	0.0172199
725.841	0.0173566
725.919	0.0173848
725.997	0.0171829
726.075	0.0170514
726.154	0.0170479
726.232	0.0168645
726.310	0.0167296
726.388	0.0166950
726.466	0.0166073
726.544	0.0164759
726.622	0.0164523
726.700	0.0163934
726.779	0.0163044
726.857	0.0161404
726.935	0.0160181
727.013	0.0160686
727.091	0.0158061
727.169	0.0158054
727.247	0.0156664
727.325	0.0158513
727.404	0.0159295
727.482	0.0159879
727.560	0.0160343
727.638	0.0159921
727.716	0.0160843
727.794	0.0161661
727.872	0.0164098
727.950	0.0165682
728.029	0.0167284
728.107	0.0166888
728.185	0.0168990
728.263	0.0171698
728.341	0.0171431
728.419	0.0172919
728.497	0.0176015
728.575	0.0174201
728.654	0.0175932
728.732	0.0177492
728.810	0.0175663
728.888	0.0178055
728.966	0.0176164
729.044	0.0175150
729.122	0.0175094
729.200	0.0174703
729.279	0.0173568
729.357	0.0172530
729.435	0.0171314
729.513	0.0169530
729.591	0.0169513
729.669	0.0168913
729.747	0.0168771
729.825	0.0168896
729.904	0.0167445
729.982	0.0167139
730.060	0.0168510
730.138	0.0169071
730.216	0.0169319
730.294	0.0169492
730.372	0.0170879
730.450	0.0173064
730.529	0.0172558
730.607	0.0170907
730.685	0.0173236
730.763	0.0173582
730.841	0.0172149
730.919	0.0172374
730.997	0.0171630
731.075	0.0168896
731.154	0.0168764
731.232	0.0167641
731.310	0.0166403
731.388	0.0166584
731.466	0.0164545
731.544	0.0163125
731.622	0.0163642
731.700	0.0162450
731.779	0.0162002
731.857	0.0160449
731.935	0.0160435
732.013	0.0159716
732.091	0.0159435
732.169	0.0159055
732.247	0.0159767
732.325	0.0159235
732.404	0.0157108
732.482	0.0157238
732.560	0.0157123
732.638	0.0156131
732.716	0.0155682
732.794	0.0155402
732.872	0.0155658
732.950	0.0155863
733.029	0.0156140
733.107	0.0156425
733.185	0.0157601
733.263	0.0157200
733.341	0.0159946
733.419	0.0160345
733.497	0.0161671
733.575	0.0162746
733.654	0.0163069
733.732	0.0164673
733.810	0.0165910
733.888	0.0166735
733.966	0.0168744
734.044	0.0169777
734.122	0.0169704
734.200	0.0169193
734.279	0.0169262
734.357	0.0169879
734.435	0.0170601
734.513	0.0171072
734.591	0.0171471
734.669	0.0171278
734.747	0.0171230
734.825	0.0170213
734.904	0.0171421
734.982	0.0173051
735.060	0.0171607
735.138	0.0172806
735.216	0.0172039
735.294	0.0171970
735.372	0.0173284
735.450	0.0172849
735.529	0.0172757
735.607	0.0172180
735.685	0.0172456
735.763	0.0172380
735.841	0.0173528
735.919	0.0173267
735.997	0.0172964
736.075	0.0172032
736.154	0.0172746
736.232	0.0171597
736.310	0.0171196
736.388	0.0170920
736.466	0.0170312
736.544	0.0168859
736.622	0.0167845
736.700	0.0168303
736.779	0.0167823
736.857	0.0169606
736.935	0.0166949
737.013	0.0167712
737.091	0.0166994
737.169	0.0166810
737.247	0.0166890
737.325	0.0165541
737.404	0.0166603
737.482	0.0164756
737.560	0.0165797
737.638	0.0164161
737.716	0.0164460
737.794	0.0162917
737.872	0.0161666
737.950	0.0161316
738.029	0.0161633
738.107	0.0162244
738.185	0.0160889
738.263	0.0162679
738.341	0.0161155
738.419	0.0161945
738.497	0.0162687
738.575	0.0164166
738.654	0.0163958
738.732	0.0165130
738.810	0.0167278
738.888	0.0167240
738.966	0.0167781
739.044	0.0170643
739.122	0.0170740
739.200	0.0170876
739.279	0.0172227
739.357	0.0172677
739.435	0.0171752
739.513	0.0171082
739.591	0.0170718
739.669	0.0170126
739.747	0.0169646
739.825	0.0168286
739.904	0.0166284
739.982	0.0164279
740.060	0.0164268
740.138	0.0162994
740.216	0.0162699
740.294	0.0161382
740.372	0.0160497
740.450	0.0158735
740.529	0.0159489
740.607	0.0160743
740.685	0.0160956
740.763	0.0161919
740.841	0.0161412
740.919	0.0162369
740.997	0.0161304
741.075	0.0161434
741.154	0.0162360
741.232	0.0161649
741.310	0.0163876
741.388	0.0163280
741.466	0.0162900
741.544	0.0163514
741.622	0.0163045
741.700	0.0165086
741.779	0.0163029
741.857	0.0164823
741.935	0.0164986
742.013	0.0164362
742.091	0.0164426
742.169	0.0164607
742.247	0.0164506
742.325	0.0165260
742.404	0.0165748
742.482	0.0164799
742.560	0.0167264
742.638	0.0165046
742.716	0.0167939
742.794	0.0166927
742.872	0.0168754
742.950	0.0170629
743.029	0.0169831
743.107	0.0171210
743.185	0.0170600
743.263	0.0170372
743.341	0.0172050
743.419	0.0172095
743.497	0.0172433
743.575	0.0172992
743.654	0.0172714
743.732	0.0172398
743.810	0.0171394
743.888	0.0171266
743.966	0.0171562
744.044	0.0172542
744.122	0.0171809
744.200	0.0171720
744.279	0.0171905
744.357	0.0172110
744.435	0.0171793
744.513	0.0172846
744.591	0.0172751
744.669	0.0172696
744.747	0.0172449
744.825	0.0173272
744.904	0.0172950
744.982	0.0171883
745.060	0.0172169
745.138	0.0170560
745.216	0.0170093
745.294	0.0170322
745.372	0.0169787
745.450	0.0167895
745.529	0.0168147
745.607	0.0166480
745.685	0.0165990
745.763	0.0166439
745.841	0.0165390
745.919	0.0163390
745.997	0.0162279
746.075	0.0162907
746.154	0.0161933
746.232	0.0163000
746.310	0.0161948
746.388	0.0159818
746.466	0.0156944
746.544	0.0159642
746.622	0.0158569
746.700	0.0157578
746.779	0.0158871
746.857	0.0158037
746.935	0.0157102
747.013	0.0156662
747.091	0.0157515
747.169	0.0156799
747.247	0.0157537
747.325	0.0158945
747.404	0.0157986
747.482	0.0158842
747.560	0.0159131
747.638	0.0160542
747.716	0.0162755
747.794	0.0164329
747.872	0.0164498
747.950	0.0163535
748.029	0.0165128
748.107	0.0166492
748.185	0.0166518
748.263	0.0167904
748.341	0.0168715
748.419	0.0168684
748.497	0.0170338
748.575	0.0169578
748.654	0.0169887
748.732	0.0169640
748.810	0.0171452
748.888	0.0171588
748.966	0.0171149
749.044	0.0171378
749.122	0.0170980
749.200	0.0172131
749.279	0.0170396
749.357	0.0169410
749.435	0.0171313
749.513	0.0170788
749.591	0.0170025
749.669	0.0170818
749.747	0.0169787
749.825	0.0168929
749.904	0.0169661
749.982	0.0168849
750.060	0.0168775
750.138	0.0169726
750.216	0.0167522
750.294	0.0167930
750.372	0.0169077
750.450	0.0168588
750.529	0.0169251
750.607	0.0169062
750.685	0.0168942
750.763	0.0169696
750.841	0.0168659
750.919	0.0167827
750.997	0.0168196
751.075	0.0167811
751.154	0.0168038
751.232	0.0167638
751.310	0.0167026
751.388	0.0166622
751.466	0.0165989
751.544	0.0166354
751.622	0.0165177
751.700	0.0166723
751.779	0.0165705
751.857	0.0165497
751.935	0.0165856
752.013	0.0165574
752.091	0.0167632
752.169	0.0167921
752.247	0.0166825
752.325	0.0169134
752.404	0.0169150
752.482	0.0167921
752.560	0.0169211
752.638	0.0169303
752.716	0.0168639
752.794	0.0168808
752.872	0.0168832
752.950	0.0168588
753.029	0.0169007
753.107	0.0168128
753.185	0.0167591
753.263	0.0167301
753.341	0.0166070
753.419	0.0166178
753.497	0.0166308
753.575	0.0167168
753.654	0.0165731
753.732	0.0164628
753.810	0.0164935
753.888	0.0166184
753.966	0.0166100
754.044	0.0165254
754.122	0.0165472
754.200	0.0164214
754.279	0.0164045
754.357	0.0163541
754.435	0.0164005
754.513	0.0163642
754.591	0.0164277
754.669	0.0163948
754.747	0.0163773
754.825	0.0163282
754.904	0.0162534
754.982	0.0162367
755.060	0.0161404
755.138	0.0162972
755.216	0.0162005
755.294	0.0161016
755.372	0.0161752
755.450	0.0161242
755.529	0.0161538
755.607	0.0162312
755.685	0.0162062
755.763	0.0162399
755.841	0.0163219
755.919	0.0163146
755.997	0.0162019
756.075	0.0161831
756.154	0.0163885
756.232	0.0164010
756.310	0.0164491
756.388	0.0165752
756.466	0.0165521
756.544	0.0166444
756.622	0.0166640
756.700	0.0167771
756.779	0.0166657
756.857	0.0168380
756.935	0.0168468
757.013	0.0167292
757.091	0.0169509
757.169	0.0168954
757.247	0.0168419
757.325	0.0169800
757.404	0.0170815
757.482	0.0171468
757.560	0.0169847
757.638	0.0171539
757.716	0.0172702
757.794	0.0171837
757.872	0.0170915
757.950	0.0170947
758.029	0.0171304
758.107	0.0170815
758.185	0.0172295
758.263	0.0171117
758.341	0.0169354
758.419	0.0169746
758.497	0.0170473
758.575	0.0170712
758.654	0.0169982
758.732	0.0170319
758.810	0.0170332
758.888	0.0171465
758.966	0.0169540
759.044	0.0169955
759.122	0.0169714
759.200	0.0168541
759.279	0.0169218
759.357	0.0170356
759.435	0.0167998
759.513	0.0167818
759.591	0.0167680
759.669	0.0165212
759.747	0.0166135
759.825	0.0166253
759.904	0.0165808
759.982	0.0163096
760.060	0.0163367
760.138	0.0165091
760.216	0.0163571
760.294	0.0162910
760.372	0.0161440
760.450	0.0163918
760.529	0.0164547
760.607	0.0162918
760.685	0.0164476
760.763	0.0162975
760.841	0.0164201
760.919	0.0166096
760.997	0.0164803
761.075	0.0165504
761.154	0.0164706
761.232	0.0164222
761.310	0.0163499
761.388	0.0162434
761.466	0.0165321
761.544	0.0164474
761.622	0.0163331
761.700	0.0163348
761.779	0.0163280
761.857	0.0164452
761.935	0.0163361
762.013	0.0162814
762.091	0.0162317
762.169	0.0166055
762.247	0.0165343
762.325	0.0164629
762.404	0.0166265
762.482	0.0167553
762.560	0.0167915
762.638	0.0166909
762.716	0.0168559
762.794	0.0168559
762.872	0.0166937
762.950	0.0167653
763.029	0.0167142
763.107	0.0168739
763.185	0.0166724
763.263	0.0166271
763.341	0.0166332
763.419	0.0165816
763.497	0.0165858
763.575	0.0165617
763.654	0.0165752
763.732	0.0164845
763.810	0.0164899
763.888	0.0166032
763.966	0.0164420
764.044	0.0164198
764.122	0.0163876
764.200	0.0164935
764.279	0.0166218
764.357	0.0165147
764.435	0.0165166
764.513	0.0165695
764.591	0.0165676
764.669	0.0165766
764.747	0.0167621
764.825	0.0165718
764.904	0.0166941
764.982	0.0166364
765.060	0.0166449
765.138	0.0168548
765.216	0.0168076
765.294	0.0169478
765.372	0.0169214
765.450	0.0169663
765.529	0.0170992
765.607	0.0172308
765.685	0.0171966
765.763	0.0173730
765.841	0.0174089
765.919	0.0175115
765.997	0.0174194
766.075	0.0175947
766.154	0.0175172
766.232	0.0174249
766.310	0.0173100
766.388	0.0172826
766.466	0.0172596
766.544	0.0169716
766.622	0.0170770
766.700	0.0169057
766.779	0.0167435
766.857	0.0168348
766.935	0.0167007
767.013	0.0165153
767.091	0.0165032
767.169	0.0164809
767.247	0.0165394
767.325	0.0164386
767.404	0.0163780
767.482	0.0163553
767.560	0.0164017
767.638	0.0164223
767.716	0.0161941
767.794	0.0162562
767.872	0.0163609
767.950	0.0160892
768.029	0.0161127
768.107	0.0161276
768.185	0.0160457
768.263	0.0160854
768.341	0.0160896
768.419	0.0160843
768.497	0.0160735
768.575	0.0161623
768.654	0.0163513
768.732	0.0164551
768.810	0.0164848
768.888	0.0165601
768.966	0.0165443
769.044	0.0166257
769.122	0.0168365
769.200	0.0168019
769.279	0.0169361
769.357	0.0168700
769.435	0.0170211
769.513	0.0170778
769.591	0.0170901
769.669	0.0169762
769.747	0.0170067
769.825	0.0169598
769.904	0.0170471
769.982	0.0169070
770.060	0.0168113
770.138	0.0167574
770.216	0.0166976
770.294	0.0166032
770.372	0.0164921
770.450	0.0165878
770.529	0.0162746
770.607	0.0164533
770.685	0.0163780
770.763	0.0164008
770.841	0.0163802
770.919	0.0160102
770.997	0.0160635
771.075	0.0161580
771.154	0.0160497
771.232	0.0160047
771.310	0.0160658
771.388	0.0160526
771.466	0.0159220
771.544	0.0160653
771.622	0.0160577
771.700	0.0161433
771.779	0.0162080
771.857	0.0163036
771.935	0.0163548
772.013	0.0166640
772.091	0.0166727
772.169	0.0166833
772.247	0.0168719
772.325	0.0169667
772.404	0.0170227
772.482	0.0171275
772.560	0.0173159
772.638	0.0173554
772.716	0.0173985
772.794	0.0175029
772.872	0.0175849
772.950	0.0176070
773.029	0.0176961
773.107	0.0176611
773.185	0.0177753
773.263	0.0178131
773.341	0.0177328
773.419	0.0175723
773.497	0.0176416
773.575	0.0176831
773.654	0.0175442
773.732	0.0176448
773.810	0.0175539
773.888	0.0174178
773.966	0.0172300
774.044	0.0172574
774.122	0.0170196
774.200	0.0170802
774.279	0.0168772
774.357	0.0168036
774.435	0.0168624
774.513	0.0167433
774.591	0.0165793
774.669	0.0166238
774.747	0.0164457
774.825	0.0162424
774.904	0.0162511
774.982	0.0161418
775.060	0.0159268
775.138	0.0159368
775.216	0.0159209
775.294	0.0157253
775.372	0.0156889
775.450	0.0155455
775.529	0.0155693
775.607	0.0153028
775.685	0.0153997
775.763	0.0155880
775.841	0.0154299
775.919	0.0155679
775.997	0.0156973
776.075	0.0155747
776.154	0.0157523
776.232	0.0160113
776.310	0.0159278
776.388	0.0158622
776.466	0.0162302
776.544	0.0162968
776.622	0.0165238
776.700	0.0166233
776.779	0.0167352
776.857	0.0167432
776.935	0.0169698
777.013	0.0171561
777.091	0.0172321
777.169	0.0173420
777.247	0.0172626
777.325	0.0173473
777.404	0.0176200
777.482	0.0172636
777.560	0.0175620
777.638	0.0175668
777.716	0.0175175
777.794	0.0175723
777.872	0.0175339
777.950	0.0174306
778.029	0.0176003
778.107	0.0173692
778.185	0.0173689
778.263	0.0173904
778.341	0.0173013
778.419	0.0173131
778.497	0.0172165
778.575	0.0172064
778.654	0.0171262
778.732	0.0171465
778.810	0.0171002
778.888	0.0168279
778.966	0.0167422
779.044	0.0168199
779.122	0.0168542
779.200	0.0166840
779.279	0.0165987
779.357	0.0165305
779.435	0.0165112
779.513	0.0163866
779.591	0.0163957
779.669	0.0163708
779.747	0.0161918
779.825	0.0159954
779.904	0.0159914
779.982	0.0160075
780.060	0.0158636
780.138	0.0158720
780.216	0.0157618
780.294	0.0157329
780.372	0.0156557
780.450	0.0156413
780.529	0.0155922
780.607	0.0156486
780.685	0.0156071
780.763	0.0157471
780.841	0.0157018
780.919	0.0156393
780.997	0.0157156
781.075	0.0158215
781.154	0.0159764
781.232	0.0161096
781.310	0.0161778
781.388	0.0164342
781.466	0.0166325
781.544	0.0168929
781.622	0.0169588
781.700	0.0169836
781.779	0.0174135
781.857	0.0174241
781.935	0.0175773
782.013	0.0177017
782.091	0.0176737
782.169	0.0178139
782.247	0.0180241
782.325	0.0180471
782.404	0.0180554
782.482	0.0180961
782.560	0.0181932
782.638	0.0183199
782.716	0.0181649
782.794	0.0180264
782.872	0.0181499
782.950	0.0180466
783.029	0.0179646
783.107	0.0178934
783.185	0.0178613
783.263	0.0177034
783.341	0.0175558
783.419	0.0175686
783.497	0.0174483
783.575	0.0172326
783.654	0.0171145
783.732	0.0169425
783.810	0.0167210
783.888	0.0167306
783.966	0.0163607
784.044	0.0163861
784.122	0.0161224
784.200	0.0160160
784.279	0.0157406
784.357	0.0156858
784.435	0.0154626
784.513	0.0154247
784.591	0.0153191
784.669	0.0153426
784.747	0.0151498
784.825	0.0150854
784.904	0.0152254
784.982	0.0152144
785.060	0.0151836
785.138	0.0151371
785.216	0.0152631
785.294	0.0153283
785.372	0.0154292
785.450	0.0154061
785.529	0.0154350
785.607	0.0156406
785.685	0.0155644
785.763	0.0157511
785.841	0.0157793
785.919	0.0158939
785.997	0.0158932
786.075	0.0160056
786.154	0.0160724
786.232	0.0161837
786.310	0.0163174
786.388	0.0163963
786.466	0.0166228
786.544	0.0166838
786.622	0.0167257
786.700	0.0169250
786.779	0.0171181
786.857	0.0172260
786.935	0.0171542
787.013	0.0174162
787.091	0.0173650
787.169	0.0174606
787.247	0.0175814
787.325	0.0175310
787.404	0.0176096
787.482	0.0177565
787.560	0.0178633
787.638	0.0178133
787.716	0.0179405
787.794	0.0180116
787.872	0.0179943
787.950	0.0180241
788.029	0.0179892
788.107	0.0182918
788.185	0.0181340
788.263	0.0181509
788.341	0.0182411
788.419	0.0181818
788.497	0.0180507
788.575	0.0180272
788.654	0.0179121
788.732	0.0179652
788.810	0.0178276
788.888	0.0177171
788.966	0.0175255
789.044	0.0173197
789.122	0.0171165
789.200	0.0172114
789.279	0.0170453
789.357	0.0167136
789.435	0.0166866
789.513	0.0163783
789.591	0.0162286
789.669	0.0160075
789.747	0.0161205
789.825	0.0159187
789.904	0.0157517
789.982	0.0157555
790.060	0.0157201
790.138	0.0156712
790.216	0.0154899
790.294	0.0154320
790.372	0.0155250
790.450	0.0153851
790.529	0.0152840
790.607	0.0152671
790.685	0.0152487
790.763	0.0152133
790.841	0.0153336
790.919	0.0152411
790.997	0.0152586
791.075	0.0155167
791.154	0.0155576
791.232	0.0155308
791.310	0.0154340
791.388	0.0156266
791.466	0.0158054
791.544	0.0158474
791.622	0.0158209
791.700	0.0158497
791.779	0.0161378
791.857	0.0160699
791.935	0.0162400
792.013	0.0163855
792.091	0.0165695
792.169	0.0165449
792.247	0.0167259
792.325	0.0167451
792.404	0.0169891
792.482	0.0169658
792.560	0.0169468
792.638	0.0171057
792.716	0.0174260
792.794	0.0174116
792.872	0.0174872
792.950	0.0175867
793.029	0.0177216
793.107	0.0176740
793.185	0.0178976
793.263	0.0179602
793.341	0.0179466
793.419	0.0178741
793.497	0.0180550
793.575	0.0178246
793.654	0.0179501
793.732	0.0179450
793.810	0.0179220
793.888	0.0176563
793.966	0.0177480
794.044	0.0175635
794.122	0.0175198
794.200	0.0174440
794.279	0.0173081
794.357	0.0173187
794.435	0.0171780
794.513	0.0172016
794.591	0.0170937
794.669	0.0169760
794.747	0.0168504
794.825	0.0167764
794.904	0.0167860
794.982	0.0166132
795.060	0.0165823
795.138	0.0165205
795.216	0.0165204
795.294	0.0163366
795.372	0.0162764
795.450	0.0162289
795.529	0.0160760
795.607	0.0159602
795.685	0.0158265
795.763	0.0157526
795.841	0.0157609
795.919	0.0156289
795.997	0.0156730
796.075	0.0156486
796.154	0.0154970
796.232	0.0154805
796.310	0.0154659
796.388	0.0154993
796.466	0.0156113
796.544	0.0156659
796.622	0.0157080
796.700	0.0158500
796.779	0.0159358
796.857	0.0158669
796.935	0.0159978
797.013	0.0160147
797.091	0.0162911
797.169	0.0163820
797.247	0.0163447
797.325	0.0165616
797.404	0.0166904
797.482	0.0167849
797.560	0.0169512
797.638	0.0170344
797.716	0.0171456
797.794	0.0172266
797.872	0.0171825
797.950	0.0174959
798.029	0.0174986
798.107	0.0174539
798.185	0.0176484
798.263	0.0177399
798.341	0.0177186
798.419	0.0177779
798.497	0.0178414
798.575	0.0178878
798.654	0.0177826
798.732	0.0175810
798.810	0.0175880
798.888	0.0177597
798.966	0.0175684
799.044	0.0174156
799.122	0.0173550
799.200	0.0171825
799.279	0.0170829
799.357	0.0170264
799.435	0.0169025
799.513	0.0166050
799.591	0.0167180
799.669	0.0166833
799.747	0.0165793
799.825	0.0166425
799.904	0.0165709
799.982	0.0165492
800.060	0.0163570
800.138	0.0165122
800.216	0.0163850
800.294	0.0164187
800.372	0.0163734
800.450	0.0162917
800.529	0.0163637
800.607	0.0162405
800.685	0.0160384
800.763	0.0160300
800.841	0.0158489
800.919	0.0159126
800.997	0.0159282
801.075	0.0159543
801.154	0.0158726
801.232	0.0158760
801.310	0.0159239
801.388	0.0159287
801.466	0.0158194
801.544	0.0158151
801.622	0.0158801
801.700	0.0159142
801.779	0.0159939
801.857	0.0161989
801.935	0.0161130
802.013	0.0160961
802.091	0.0163052
802.169	0.0163294
802.247	0.0162907
802.325	0.0165788
802.404	0.0166120
802.482	0.0165813
802.560	0.0166418
802.638	0.0167762
802.716	0.0168443
802.794	0.0168808
802.872	0.0169707
802.950	0.0169065
803.029	0.0170638
803.107	0.0170907
803.185	0.0170538
803.263	0.0172190
803.341	0.0171839
803.419	0.0173003
803.497	0.0172282
803.575	0.0171759
803.654	0.0171259
803.732	0.0172283
803.810	0.0171389
803.888	0.0171982
803.966	0.0172086
804.044	0.0171049
804.122	0.0170403
804.200	0.0170818
804.279	0.0171091
804.357	0.0170252
804.435	0.0170969
804.513	0.0171715
804.591	0.0172184
804.669	0.0172501
804.747	0.0171457
804.825	0.0171632
804.904	0.0172000
804.982	0.0171967
805.060	0.0172210
805.138	0.0170643
805.216	0.0171104
805.294	0.0169671
805.372	0.0170462
805.450	0.0167821
805.529	0.0167383
805.607	0.0167262
805.685	0.0166269
805.763	0.0165841
805.841	0.0164259
805.919	0.0162483
805.997	0.0163392
806.075	0.0163962
806.154	0.0161629
806.232	0.0161270
806.310	0.0161945
806.388	0.0160976
806.466	0.0159579
806.544	0.0161146
806.622	0.0161288
806.700	0.0161584
806.779	0.0162641
806.857	0.0160683
806.935	0.0162233
807.013	0.0160511
807.091	0.0163557
807.169	0.0163587
807.247	0.0163921
807.325	0.0163242
807.404	0.0164085
807.482	0.0165331
807.560	0.0165477
807.638	0.0164734
807.716	0.0166235
807.794	0.0165403
807.872	0.0166111
807.950	0.0166309
808.029	0.0167083
808.107	0.0166636
808.185	0.0165914
808.263	0.0165733
808.341	0.0167716
808.419	0.0166759
808.497	0.0167258
808.575	0.0167885
808.654	0.0166502
808.732	0.0166484
808.810	0.0168465
808.888	0.0167223
808.966	0.0165675
809.044	0.0167896
809.122	0.0167431
809.200	0.0166286
809.279	0.0166380
809.357	0.0166856
809.435	0.0167126
809.513	0.0166814
809.591	0.0167297
809.669	0.0167303
809.747	0.0167785
809.825	0.0165671
809.904	0.0166060
809.982	0.0167452
810.060	0.0167194
810.138	0.0167305
810.216	0.0167097
810.294	0.0166253
810.372	0.0167587
810.450	0.0167896
810.529	0.0167552
810.607	0.0168307
810.685	0.0168598
810.763	0.0168216
810.841	0.0167080
810.919	0.0167030
810.997	0.0167184
811.075	0.0168195
811.154	0.0168733
811.232	0.0167921
811.310	0.0169084
811.388	0.0169848
811.466	0.0170173
811.544	0.0170051
811.622	0.0170064
811.700	0.0169466
811.779	0.0169631
811.857	0.0169865
811.935	0.0171162
812.013	0.0169942
812.091	0.0169483
812.169	0.0169116
812.247	0.0169354
812.325	0.0168439
812.404	0.0168723
812.482	0.0168549
812.560	0.0168279
812.638	0.0168426
812.716	0.0166195
812.794	0.0167383
812.872	0.0167610
812.950	0.0168317
813.029	0.0168342
813.107	0.0166551
813.185	0.0166145
813.263	0.0167957
813.341	0.0165400
813.419	0.0164211
813.497	0.0166582
813.575	0.0165131
813.654	0.0164426
813.732	0.0165129
813.810	0.0164880
813.888	0.0164639
813.966	0.0164610
814.044	0.0166527
814.122	0.0165539
814.200	0.0164312
814.279	0.0163952
814.357	0.0165379
814.435	0.0163774
814.513	0.0164614
814.591	0.0163503
814.669	0.0164246
814.747	0.0164129
814.825	0.0164680
814.904	0.0164867
814.982	0.0164905
815.060	0.0164099
815.138	0.0162846
815.216	0.0163361
815.294	0.0161649
815.372	0.0163341
815.450	0.0162622
815.529	0.0163509
815.607	0.0162758
815.685	0.0162454
815.763	0.0162965
815.841	0.0162199
815.919	0.0162817
815.997	0.0163303
816.075	0.0162495
816.154	0.0163048
816.232	0.0164177
816.310	0.0164591
816.388	0.0163431
816.466	0.0162967
816.544	0.0163400
816.622	0.0163071
816.700	0.0164975
816.779	0.0165480
816.857	0.0166302
816.935	0.0164687
817.013	0.0165338
817.091	0.0165795
817.169	0.0166261
817.247	0.0167253
817.325	0.0167664
817.404	0.0167051
817.482	0.0167767
817.560	0.0168858
817.638	0.0169987
817.716	0.0168189
817.794	0.0169181
817.872	0.0170619
817.950	0.0171690
818.029	0.0172514
818.107	0.0171134
818.185	0.0171770
818.263	0.0173293
818.341	0.0171902
818.419	0.0173454
818.497	0.0174211
818.575	0.0172776
818.654	0.0173071
818.732	0.0173756
818.810	0.0173590
818.888	0.0173016
818.966	0.0173071
819.044	0.0172076
819.122	0.0170852
819.200	0.0170361
819.279	0.0170676
819.357	0.0169244
819.435	0.0168591
819.513	0.0167590
819.591	0.0167393
819.669	0.0168272
819.747	0.0167741
819.825	0.0166435
819.904	0.0166476
819.982	0.0166070
820.060	0.0166019
820.138	0.0165617
820.216	0.0164890
820.294	0.0165823
820.372	0.0165208
820.450	0.0165192
820.529	0.0166730
820.607	0.0165414
820.685	0.0165916
820.763	0.0164677
820.841	0.0163438
820.919	0.0163200
820.997	0.0164123
821.075	0.0164951
821.154	0.0163371
821.232	0.0162302
821.310	0.0161397
821.388	0.0161508
821.466	0.0161162
821.544	0.0161174
821.622	0.0160772
821.700	0.0161028
821.779	0.0160124
821.857	0.0160193
821.935	0.0160532
822.013	0.0160118
822.091	0.0160870
822.169	0.0162327
822.247	0.0162682
822.325	0.0162492
822.404	0.0164400
822.482	0.0162831
822.560	0.0163400
822.638	0.0162790
822.716	0.0163691
822.794	0.0163335
822.872	0.0164202
822.950	0.0163763
823.029	0.0165531
823.107	0.0165800
823.185	0.0166247
823.263	0.0166433
823.341	0.0165858
823.419	0.0166842
823.497	0.0167245
823.575	0.0168312
823.654	0.0168316
823.732	0.0169225
823.810	0.0168267
823.888	0.0169324
823.966	0.0170081
824.044	0.0170280
824.122	0.0170759
824.200	0.0169837
824.279	0.0170686
824.357	0.0171719
824.435	0.0171102
824.513	0.0171267
824.591	0.0171561
824.669	0.0171368
824.747	0.0169759
824.825	0.0171339
824.904	0.0170614
824.982	0.0170866
825.060	0.0172169
825.138	0.0171188
825.216	0.0170958
825.294	0.0172575
825.372	0.0171209
825.450	0.0169361
825.529	0.0171096
825.607	0.0170518
825.685	0.0168784
825.763	0.0166754
825.841	0.0168520
825.919	0.0167388
825.997	0.0166406
826.075	0.0166866
826.154	0.0164353
826.232	0.0164602
826.310	0.0163898
826.388	0.0162685
826.466	0.0162618
826.544	0.0162012
826.622	0.0161833
826.700	0.0161343
826.779	0.0160415
826.857	0.0162465
826.935	0.0161591
827.013	0.0161053
827.091	0.0162786
827.169	0.0160993
827.247	0.0162701
827.325	0.0164378
827.404	0.0162917
827.482	0.0164455
827.560	0.0165627
827.638	0.0164400
827.716	0.0164804
827.794	0.0165447
827.872	0.0166882
827.950	0.0164959
828.029	0.0166171
828.107	0.0167306
828.185	0.0166494
828.263	0.0166030
828.341	0.0167033
828.419	0.0166634
828.497	0.0167738
828.575	0.0166898
828.654	0.0168534
828.732	0.0167656
828.810	0.0169196
828.888	0.0166917
828.966	0.0168559
829.044	0.0167544
829.122	0.0166302
829.200	0.0168880
829.279	0.0168925
829.357	0.0167545
829.435	0.0166640
829.513	0.0166646
829.591	0.0166685
829.669	0.0165994
829.747	0.0165804
829.825	0.0166677
829.904	0.0164560
829.982	0.0167509
830.060	0.0166554
830.138	0.0166137
830.216	0.0165610
830.294	0.0165119
830.372	0.0166270
830.450	0.0165065
830.529	0.0165350
830.607	0.0164970
830.685	0.0166578
830.763	0.0166676
830.841	0.0166196
830.919	0.0165988
830.997	0.0164526
831.075	0.0163952
831.154	0.0164951
831.232	0.0164647
831.310	0.0164716
831.388	0.0165224
831.466	0.0165062
831.544	0.0165138
831.622	0.0164329
831.700	0.0163279
831.779	0.0163741
831.857	0.0165205
831.935	0.0165006
832.013	0.0163494
832.091	0.0164990
832.169	0.0164285
832.247	0.0163525
832.325	0.0165211
832.404	0.0164005
832.482	0.0165879
832.560	0.0164688
832.638	0.0165388
832.716	0.0164848
832.794	0.0166235
832.872	0.0164986
832.950	0.0166468
833.029	0.0167861
833.107	0.0166774
833.185	0.0166740
833.263	0.0169009
833.341	0.0168032
833.419	0.0168517
833.497	0.0167969
833.575	0.0169022
833.654	0.0170648
833.732	0.0169774
833.810	0.0169363
833.888	0.0169669
833.966	0.0171799
834.044	0.0170779
834.122	0.0171552
834.200	0.0169967
834.279	0.0170470
834.357	0.0169081
834.435	0.0169886
834.513	0.0170106
834.591	0.0169262
834.669	0.0167798
834.747	0.0168881
834.825	0.0168541
834.904	0.0167387
834.982	0.0166502
835.060	0.0167943
835.138	0.0166442
835.216	0.0167638
835.294	0.0167259
835.372	0.0166232
835.450	0.0167117
835.529	0.0167339
835.607	0.0166763
835.685	0.0167625
835.763	0.0167699
835.841	0.0167527
835.919	0.0166768
835.997	0.0168388
836.075	0.0167016
836.154	0.0166442
836.232	0.0166978
836.310	0.0166560
836.388	0.0167565
836.466	0.0165073
836.544	0.0165195
836.622	0.0166376
836.700	0.0165104
836.779	0.0163576
836.857	0.0164149
836.935	0.0165240
837.013	0.0161874
837.091	0.0162370
837.169	0.0162775
837.247	0.0161746
837.325	0.0161052
837.404	0.0159641
837.482	0.0160145
837.560	0.0160358
837.638	0.0159900
837.716	0.0158971
837.794	0.0161411
837.872	0.0160833
837.950	0.0159879
838.029	0.0161461
838.107	0.0161137
838.185	0.0160357
838.263	0.0161719
838.341	0.0162057
838.419	0.0162576
838.497	0.0163375
838.575	0.0163213
838.654	0.0162559
838.732	0.0164140
838.810	0.0165643
838.888	0.0166510
838.966	0.0165215
839.044	0.0165723
839.122	0.0168340
839.200	0.0167749
839.279	0.0167809
839.357	0.0167870
839.435	0.0167250
839.513	0.0168741
839.591	0.0169591
839.669	0.0169974
839.747	0.0170699
839.825	0.0170991
839.904	0.0170479
839.982	0.0172282
840.060	0.0171206
840.138	0.0170760
840.216	0.0170771
840.294	0.0170521
840.372	0.0169613
840.450	0.0170924
840.529	0.0169968
840.607	0.0170290
840.685	0.0169529
840.763	0.0170178
840.841	0.0171074
840.919	0.0171242
840.997	0.0171578
841.075	0.0171338
841.154	0.0170472
841.232	0.0169234
841.310	0.0168681
841.388	0.0170734
841.466	0.0169720
841.544	0.0168152
841.622	0.0168928
841.700	0.0168764
841.779	0.0167238
841.857	0.0166398
841.935	0.0165034
842.013	0.0164043
842.091	0.0164564
842.169	0.0164283
842.247	0.0162999
842.325	0.0164185
842.404	0.0163543
842.482	0.0161429
842.560	0.0162964
842.638	0.0161440
842.716	0.0161766
842.794	0.0162634
842.872	0.0162099
842.950	0.0160699
843.029	0.0162701
843.107	0.0162267
843.185	0.0162074
843.263	0.0164478
843.341	0.0162955
843.419	0.0164628
843.497	0.0164356
843.575	0.0164243
843.654	0.0164809
843.732	0.0164114
843.810	0.0164536
843.888	0.0164584
843.966	0.0164919
844.044	0.0165987
844.122	0.0166273
844.200	0.0166079
844.279	0.0164510
844.357	0.0166701
844.435	0.0167320
844.513	0.0166866
844.591	0.0166348
844.669	0.0167559
844.747	0.0168317
844.825	0.0168555
844.904	0.0168241
844.982	0.0167604
845.060	0.0166095
845.138	0.0166562
845.216	0.0167271
845.294	0.0166897
845.372	0.0166783
845.450	0.0166528
845.529	0.0166979
845.607	0.0166605
845.685	0.0167406
845.763	0.0166967
845.841	0.0167452
845.919	0.0167248
845.997	0.0166360
846.075	0.0166117
846.154	0.0167599
846.232	0.0167712
846.310	0.0167811
846.388	0.0168936
846.466	0.0168145
846.544	0.0167410
846.622	0.0167902
846.700	0.0167122
846.779	0.0166223
846.857	0.0165887
846.935	0.0166852
847.013	0.0166091
847.091	0.0166131
847.169	0.0165536
847.247	0.0164514
847.325	0.0164721
847.404	0.0164026
847.482	0.0165376
847.560	0.0164569
847.638	0.0164906
847.716	0.0165731
847.794	0.0165054
847.872	0.0164405
847.950	0.0165384
848.029	0.0166525
848.107	0.0166400
848.185	0.0165397
848.263	0.0166692
848.341	0.0167678
848.419	0.0168053
848.497	0.0168006
848.575	0.0167907
848.654	0.0167691
848.732	0.0169514
848.810	0.0168520
848.888	0.0167850
848.966	0.0167119
849.044	0.0167456
849.122	0.0167548
849.200	0.0167780
849.279	0.0166988
849.357	0.0166347
849.435	0.0167353
849.513	0.0167702
849.591	0.0166788
849.669	0.0167153
849.747	0.0165008
849.825	0.0165907
849.904	0.0167784
849.982	0.0165832
850.060	0.0165087
850.138	0.0164879
850.216	0.0165104
850.294	0.0165277
850.372	0.0165006
850.450	0.0164507
850.529	0.0165146
850.607	0.0164636
850.685	0.0164462
850.763	0.0164676
850.841	0.0165846
850.919	0.0165211
850.997	0.0164412
851.075	0.0164387
851.154	0.0164473
851.232	0.0164920
851.310	0.0166261
851.388	0.0165676
851.466	0.0165252
851.544	0.0165010
851.622	0.0165763
851.700	0.0166442
851.779	0.0166574
851.857	0.0167313
851.935	0.0164758
852.013	0.0166522
852.091	0.0166575
852.169	0.0165517
852.247	0.0166764
852.325	0.0165511
852.404	0.0167442
852.482	0.0166502
852.560	0.0165659
852.638	0.0168504
852.716	0.0167551
852.794	0.0168326
852.872	0.0167427
852.950	0.0167882
853.029	0.0167381
853.107	0.0167069
853.185	0.0166405
853.263	0.0167780
853.341	0.0167414
853.419	0.0167735
853.497	0.0168884
853.575	0.0168028
853.654	0.0168108
853.732	0.0167329
853.810	0.0168420
853.888	0.0167599
853.966	0.0169115
854.044	0.0169025
854.122	0.0167221
854.200	0.0166947
854.279	0.0167358
854.357	0.0166985
854.435	0.0166658
854.513	0.0167027
854.591	0.0164914
854.669	0.0164655
854.747	0.0163525
854.825	0.0164418
854.904	0.0163641
854.982	0.0164984
855.060	0.0164259
855.138	0.0164463
855.216	0.0164727
855.294	0.0165336
855.372	0.0166628
855.450	0.0166367
855.529	0.0167237
855.607	0.0166403
855.685	0.0168009
855.763	0.0166753
855.841	0.0166497
855.919	0.0166286
855.997	0.0166766
856.075	0.0167245
856.154	0.0167976
856.232	0.0167550
856.310	0.0167130
856.388	0.0167687
856.466	0.0167315
856.544	0.0165717
856.622	0.0166647
856.700	0.0167048
856.779	0.0168443
856.857	0.0167200
856.935	0.0168108
857.013	0.0168658
857.091	0.0168772
857.169	0.0167947
857.247	0.0166943
857.325	0.0167304
857.404	0.0169975
857.482	0.0169073
857.560	0.0168204
857.638	0.0169711
857.716	0.0169430
857.794	0.0170260
857.872	0.0170298
857.950	0.0170629
858.029	0.0171226
858.107	0.0170615
858.185	0.0169607
858.263	0.0168446
858.341	0.0169257
858.419	0.0168123
858.497	0.0168066
858.575	0.0166985
858.654	0.0166518
858.732	0.0165019
858.810	0.0165810
858.888	0.0164530
858.966	0.0164830
859.044	0.0164323
859.122	0.0164400
859.200	0.0163826
859.279	0.0164884
859.357	0.0165043
859.435	0.0166418
859.513	0.0166131
859.591	0.0165775
859.669	0.0166263
859.747	0.0165366
859.825	0.0166773
859.904	0.0169090
859.982	0.0166399
860.060	0.0167021
860.138	0.0165822
860.216	0.0165307
860.294	0.0164841
860.372	0.0165461
860.450	0.0164378
860.529	0.0163688
860.607	0.0164664
860.685	0.0164883
860.763	0.0164525
860.841	0.0164208
860.919	0.0164013
860.997	0.0162944
861.075	0.0165697
861.154	0.0167398
861.232	0.0166026
861.310	0.0166646
861.388	0.0165201
861.466	0.0167566
861.544	0.0168356
861.622	0.0166907
861.700	0.0168075
861.779	0.0168211
861.857	0.0167837
861.935	0.0164923
862.013	0.0166286
862.091	0.0166329
862.169	0.0166476
862.247	0.0164878
862.325	0.0165694
862.404	0.0166531
862.482	0.0166519
862.560	0.0167059
862.638	0.0166203
862.716	0.0166087
862.794	0.0166334
862.872	0.0169021
862.950	0.0168320
863.029	0.0168304
863.107	0.0169426
863.185	0.0170399
863.263	0.0169560
863.341	0.0168575
863.419	0.0170242
863.497	0.0171378
863.575	0.0170992
863.654	0.0171306
863.732	0.0171439
863.810	0.0171255
863.888	0.0171239
863.966	0.0171642
864.044	0.0172549
864.122	0.0171992
864.200	0.0171358
864.279	0.0171657
864.357	0.0171508
864.435	0.0169955
864.513	0.0169794
864.591	0.0169721
864.669	0.0168697
864.747	0.0167211
864.825	0.0166673
864.904	0.0166549
864.982	0.0166006
865.060	0.0165259
865.138	0.0162782
865.216	0.0162029
865.294	0.0162607
865.372	0.0162904
865.450	0.0160741
865.529	0.0159782
865.607	0.0161106
865.685	0.0158443
865.763	0.0157291
865.841	0.0158315
865.919	0.0157871
865.997	0.0157314
866.075	0.0157720
866.154	0.0158266
866.232	0.0159956
866.310	0.0160888
866.388	0.0163135
866.466	0.0162299
866.544	0.0164729
866.622	0.0165718
866.700	0.0166203
866.779	0.0168187
866.857	0.0168141
866.935	0.0171092
867.013	0.0171939
867.091	0.0172179
867.169	0.0174493
867.247	0.0173997
867.325	0.0174280
867.404	0.0175720
867.482	0.0174312
867.560	0.0174456
867.638	0.0173788
867.716	0.0173784
867.794	0.0175173
867.872	0.0173836
867.950	0.0174046
868.029	0.0172610
868.107	0.0170939
868.185	0.0170736
868.263	0.0170497
868.341	0.0171198
868.419	0.0170415
868.497	0.0169775
868.575	0.0169411
868.654	0.0166716
868.732	0.0166541
868.810	0.0165961
868.888	0.0165060
868.966	0.0164203
869.044	0.0164642
869.122	0.0164304
869.200	0.0162705
869.279	0.0163091
869.357	0.0163017
869.435	0.0162766
869.513	0.0164094
869.591	0.0162591
869.669	0.0163921
869.747	0.0162958
869.825	0.0162930
869.904	0.0162972
869.982	0.0163800
870.060	0.0163801
870.138	0.0163324
870.216	0.0161838
870.294	0.0160903
870.372	0.0161633
870.450	0.0159566
870.529	0.0158694
870.607	0.0159413
870.685	0.0159372
870.763	0.0157901
870.841	0.0157818
870.919	0.0159020
870.997	0.0158471
871.075	0.0160858
871.154	0.0160741
871.232	0.0161703
871.310	0.0164383
871.388	0.0166448
871.466	0.0167386
871.544	0.0168408
871.622	0.0170081
871.700	0.0172295
871.779	0.0174821
871.857	0.0176128
871.935	0.0177936
872.013	0.0178958
872.091	0.0178283
872.169	0.0179235
872.247	0.0181203
872.325	0.0180425
872.404	0.0180898
872.482	0.0178707
872.560	0.0177847
872.638	0.0177290
872.716	0.0175903
872.794	0.0175459
872.872	0.0173078
872.950	0.0171999
873.029	0.0170422
873.107	0.0170407
873.185	0.0168414
873.263	0.0166294
873.341	0.0164494
873.419	0.0165066
873.497	0.0165759
873.575	0.0163704
873.654	0.0162790
873.732	0.0161923
873.810	0.0162145
873.888	0.0162311
873.966	0.0161684
874.044	0.0162213
874.122	0.0162013
874.200	0.0160926
874.279	0.0160630
874.357	0.0160633
874.435	0.0162094
874.513	0.0160130
874.591	0.0161069
874.669	0.0162008
874.747	0.0161940
874.825	0.0161977
874.904	0.0161494
874.982	0.0163922
875.060	0.0163478
875.138	0.0161806
875.216	0.0162995
875.294	0.0161958
875.372	0.0161007
875.450	0.0161211
875.529	0.0161951
875.607	0.0160043
875.685	0.0160407
875.763	0.0160091
875.841	0.0160835
875.919	0.0161821
875.997	0.0160945
876.075	0.0161637
876.154	0.0163118
876.232	0.0164583
876.310	0.0166319
876.388	0.0168087
876.466	0.0168514
876.544	0.0171299
876.622	0.0171766
876.700	0.0174308
876.779	0.0175037
876.857	0.0178209
876.935	0.0178178
877.013	0.0177550
877.091	0.0178294
877.169	0.0179248
877.247	0.0179105
877.325	0.0180361
877.404	0.0177709
877.482	0.0175594
877.560	0.0174380
877.638	0.0173861
877.716	0.0171769
877.794	0.0170131
877.872	0.0169970
877.950	0.0169011
878.029	0.0167535
878.107	0.0167522
878.185	0.0166547
878.263	0.0166634
878.341	0.0167762
878.419	0.0165983
878.497	0.0166057
878.575	0.0164728
878.654	0.0166246
878.732	0.0164554
878.810	0.0163988
878.888	0.0162583
878.966	0.0162737
879.044	0.0162602
879.122	0.0159809
879.200	0.0161482
879.279	0.0161475
879.357	0.0160822
879.435	0.0161359
879.513	0.0162624
879.591	0.0161505
879.669	0.0163103
879.747	0.0164728
879.825	0.0165420
879.904	0.0166482
879.982	0.0167070
880.060	0.0166946
880.138	0.0167642
880.216	0.0168715
880.294	0.0168925
880.372	0.0167999
880.450	0.0167628
880.529	0.0167104
880.607	0.0165678
880.685	0.0165102
880.763	0.0165089
880.841	0.0163715
880.919	0.0163366
880.997	0.0163614
881.075	0.0163799
881.154	0.0162698
881.232	0.0163000
881.310	0.0163063
881.388	0.0164829
881.466	0.0165533
881.544	0.0167641
881.622	0.0168987
881.700	0.0169023
881.779	0.0169744
881.857	0.0168976
881.935	0.0168992
882.013	0.0169384
882.091	0.0168841
882.169	0.0169506
882.247	0.0171595
882.325	0.0169167
882.404	0.0168603
882.482	0.0170242
882.560	0.0168520
882.638	0.0167486
882.716	0.0168391
882.794	0.0167986
882.872	0.0169664
882.950	0.0171008
883.029	0.0171093
883.107	0.0170693
883.185	0.0170147
883.263	0.0172129
883.341	0.0171928
883.419	0.0171914
883.497	0.0172778
883.575	0.0172402
883.654	0.0171062
883.732	0.0171050
883.810	0.0171577
883.888	0.0169677
883.966	0.0169032
884.044	0.0167886
884.122	0.0167452
884.200	0.0165431
884.279	0.0165192
884.357	0.0164231
884.435	0.0161888
884.513	0.0161723
884.591	0.0162736
884.669	0.0162471
884.747	0.0161412
884.825	0.0161085
884.904	0.0162036
884.982	0.0163279
885.060	0.0164574
885.138	0.0165227
885.216	0.0166183
885.294	0.0166654
885.372	0.0168298
885.450	0.0168056
885.529	0.0168432
885.607	0.0169798
885.685	0.0168913
885.763	0.0166981
885.841	0.0166824
885.919	0.0167047
885.997	0.0164745
886.075	0.0166008
886.154	0.0165717
886.232	0.0164693
886.310	0.0163231
886.388	0.0163459
886.466	0.0164197
886.544	0.0166185
886.622	0.0166360
886.700	0.0167952
886.779	0.0168271
886.857	0.0167889
886.935	0.0167485
887.013	0.0168652
887.091	0.0168736
887.169	0.0170134
887.247	0.0168936
887.325	0.0168776
887.404	0.0169498
887.482	0.0167847
887.560	0.0168056
887.638	0.0168044
887.716	0.0168277
887.794	0.0168181
887.872	0.0168121
887.950	0.0167945
888.029	0.0168404
888.107	0.0168827
888.185	0.0170592
888.263	0.0168466
888.341	0.0170176
888.419	0.0169746
888.497	0.0169798
888.575	0.0169500
888.654	0.0168568
888.732	0.0167360
888.810	0.0166360
888.888	0.0166200
888.966	0.0165033
889.044	0.0166303
889.122	0.0164606
889.200	0.0163623
889.279	0.0163627
889.357	0.0164408
889.435	0.0164046
889.513	0.0163686
889.591	0.0163838
889.669	0.0164120
889.747	0.0166017
889.825	0.0165053
889.904	0.0166229
889.982	0.0166850
890.060	0.0167682
890.138	0.0167619
890.216	0.0168520
890.294	0.0169551
890.372	0.0169813
890.450	0.0171400
890.529	0.0170557
890.607	0.0170154
890.685	0.0171308
890.763	0.0170968
890.841	0.0169688
890.919	0.0169218
890.997	0.0169475
891.075	0.0167982
891.154	0.0167101
891.232	0.0167194
891.310	0.0166393
891.388	0.0164762
891.466	0.0165295
891.544	0.0164650
891.622	0.0164407
891.700	0.0165608
891.779	0.0165398
891.857	0.0165002
891.935	0.0165546
892.013	0.0165524
892.091	0.0166279
892.169	0.0166978
892.247	0.0167696
892.325	0.0166963
892.404	0.0168010
892.482	0.0168774
892.560	0.0167570
892.638	0.0170613
892.716	0.0169971
892.794	0.0168838
892.872	0.0168793
892.950	0.0170404
893.029	0.0170052
893.107	0.0169483
893.185	0.0170165
893.263	0.0170387
893.341	0.0167932
893.419	0.0168695
893.497	0.0167010
893.575	0.0167088
893.654	0.0166628
893.732	0.0165051
893.810	0.0164011
893.888	0.0163842
893.966	0.0163625
894.044	0.0163138
894.122	0.0160940
894.200	0.0159972
894.279	0.0160913
894.357	0.0160951
894.435	0.0161675
894.513	0.0160088
894.591	0.0160471
894.669	0.0160331
894.747	0.0160500
894.825	0.0163980
894.904	0.0164476
894.982	0.0162234
895.060	0.0167257
895.138	0.0167415
895.216	0.0168939
895.294	0.0168005
895.372	0.0169741
895.450	0.0169321
895.529	0.0170544
895.607	0.0171351
895.685	0.0170331
895.763	0.0170750
895.841	0.0172667
895.919	0.0171881
895.997	0.0170770
896.075	0.0170761
896.154	0.0171616
896.232	0.0170159
896.310	0.0169195
896.388	0.0167913
896.466	0.0167612
896.544	0.0169492
896.622	0.0168344
896.700	0.0167283
896.779	0.0166053
896.857	0.0166503
896.935	0.0166072
897.013	0.0167213
897.091	0.0165774
897.169	0.0166653
897.247	0.0166193
897.325	0.0166638
897.404	0.0166771
897.482	0.0166302
897.560	0.0166734
897.638	0.0168054
897.716	0.0168723
897.794	0.0168364
897.872	0.0168310
897.950	0.0167057
898.029	0.0168870
898.107	0.0169665
898.185	0.0166638
898.263	0.0168553
898.341	0.0167280
898.419	0.0166202
898.497	0.0166975
898.575	0.0166819
898.654	0.0165298
898.732	0.0166520
898.810	0.0164910
898.888	0.0165265
898.966	0.0163960
899.044	0.0166295
899.122	0.0164272
899.200	0.0164243
899.279	0.0164175
899.357	0.0161821
899.435	0.0163741
899.513	0.0163362
899.591	0.0162591
899.669	0.0163791
899.747	0.0162977
899.825	0.0162881
899.904	0.0162878
899.982	0.0163885
900.060	0.0163148
900.138	0.0165292
900.216	0.0164348
900.294	0.0165736
900.372	0.0167211
900.450	0.0166084
900.529	0.0167707
900.607	0.0167440
900.685	0.0168321
900.763	0.0168891
900.841	0.0168526
900.919	0.0168135
900.997	0.0168673
901.075	0.0167847
901.154	0.0166893
901.232	0.0168023
901.310	0.0167562
901.388	0.0166468
901.466	0.0167147
901.544	0.0167131
901.622	0.0165657
901.700	0.0166244
901.779	0.0165976
901.857	0.0165788
901.935	0.0166611
902.013	0.0164143
902.091	0.0165520
902.169	0.0166430
902.247	0.0166206
902.325	0.0166509
902.404	0.0168503
902.482	0.0166790
902.560	0.0166828
902.638	0.0167699
902.716	0.0166529
902.794	0.0169666
902.872	0.0168044
902.950	0.0167697
903.029	0.0168354
903.107	0.0169077
903.185	0.0167944
903.263	0.0168800
903.341	0.0168827
903.419	0.0168129
903.497	0.0168895
903.575	0.0169992
903.654	0.0169788
903.732	0.0168781
903.810	0.0168671
903.888	0.0169699
903.966	0.0168321
904.044	0.0168021
904.122	0.0166593
904.200	0.0166222
904.279	0.0166570
904.357	0.0166812
904.435	0.0165714
904.513	0.0165165
904.591	0.0165372
904.669	0.0165484
904.747	0.0164143
904.825	0.0163142
904.904	0.0164848
904.982	0.0165318
905.060	0.0164872
905.138	0.0165514
905.216	0.0165189
905.294	0.0165145
905.372	0.0165392
905.450	0.0165254
905.529	0.0166499
905.607	0.0166380
905.685	0.0166134
905.763	0.0166267
905.841	0.0166353
905.919	0.0167943
905.997	0.0168373
906.075	0.0167556
906.154	0.0167565
906.232	0.0167831
906.310	0.0166010
906.388	0.0166805
906.466	0.0166817
906.544	0.0165925
906.622	0.0166983
906.700	0.0166375
906.779	0.0165953
906.857	0.0166519
906.935	0.0167020
907.013	0.0165727
907.091	0.0166308
907.169	0.0166756
907.247	0.0167088
907.325	0.0165591
907.404	0.0166534
907.482	0.0166583
907.560	0.0165984
907.638	0.0165820
907.716	0.0166570
907.794	0.0166526
907.872	0.0166550
907.950	0.0164819
908.029	0.0166344
908.107	0.0167104
908.185	0.0166827
908.263	0.0166610
908.341	0.0165981
908.419	0.0167062
908.497	0.0167117
908.575	0.0167593
908.654	0.0167089
908.732	0.0167192
908.810	0.0167612
908.888	0.0167494
908.966	0.0167608
909.044	0.0167106
909.122	0.0167021
909.200	0.0166409
909.279	0.0167271
909.357	0.0166343
909.435	0.0164724
909.513	0.0166175
909.591	0.0167620
909.669	0.0166797
909.747	0.0167032
909.825	0.0165530
909.904	0.0166536
909.982	0.0166212
910.060	0.0166058
910.138	0.0166302
910.216	0.0166752
910.294	0.0166250
910.372	0.0165607
910.450	0.0167215
910.529	0.0167294
910.607	0.0167132
910.685	0.0168751
910.763	0.0169290
910.841	0.0167832
910.919	0.0167862
910.997	0.0168435
911.075	0.0167509
911.154	0.0168551
911.232	0.0167677
911.310	0.0166579
911.388	0.0168584
911.466	0.0169445
911.544	0.0167830
911.622	0.0169459
911.700	0.0168028
911.779	0.0166997
911.857	0.0167406
911.935	0.0168436
912.013	0.0167856
912.091	0.0168993
912.169	0.0166803
912.247	0.0165936
912.325	0.0167171
912.404	0.0165701
912.482	0.0165745
912.560	0.0165370
912.638	0.0163718
912.716	0.0164603
912.794	0.0165289
912.872	0.0163151
912.950	0.0164175
913.029	0.0163488
913.107	0.0163661
913.185	0.0162531
913.263	0.0161433
913.341	0.0161549
913.419	0.0162341
913.497	0.0161266
913.575	0.0162334
913.654	0.0160423
913.732	0.0163742
913.810	0.0161765
913.888	0.0163760
913.966	0.0163615
914.044	0.0163314
914.122	0.0163996
914.200	0.0165627
914.279	0.0165402
914.357	0.0165303
914.435	0.0168004
914.513	0.0167199
914.591	0.0166338
914.669	0.0167178
914.747	0.0166810
914.825	0.0167919
914.904	0.0167341
914.982	0.0167941
915.060	0.0168501
915.138	0.0170023
915.216	0.0169268
915.294	0.0169941
915.372	0.0169627
915.450	0.0170618
915.529	0.0170724
915.607	0.0171644
915.685	0.0173283
915.763	0.0170617
915.841	0.0171321
915.919	0.0172829
915.997	0.0170315
916.075	0.0172825
916.154	0.0172134
916.232	0.0170417
916.310	0.0171982
916.388	0.0172332
916.466	0.0170750
916.544	0.0171164
916.622	0.0169815
916.700	0.0171937
916.779	0.0171620
916.857	0.0170045
916.935	0.0169621
917.013	0.0169593
917.091	0.0168530
917.169	0.0167151
917.247	0.0166730
917.325	0.0165461
917.404	0.0164326
917.482	0.0164641
917.560	0.0162225
917.638	0.0163051
917.716	0.0161308
917.794	0.0160616
917.872	0.0159312
917.950	0.0159832
918.029	0.0160591
918.107	0.0160246
918.185	0.0158791
918.263	0.0159826
918.341	0.0159227
918.419	0.0159805
918.497	0.0159724
918.575	0.0159333
918.654	0.0160015
918.732	0.0160905
918.810	0.0161014
918.888	0.0163004
918.966	0.0164274
919.044	0.0163879
919.122	0.0164687
919.200	0.0165253
919.279	0.0165471
919.357	0.0166467
919.435	0.0167930
919.513	0.0169381
919.591	0.0168308
919.669	0.0169954
919.747	0.0170243
919.825	0.0170786
919.904	0.0171452
