06/01/2022	17:26:34	Ver.	4.1	UNKNOWN
Optical Delay	599.975067	Delta X		0.078125	Sweeps	1	Scan Rate	0/0
Coordinates	Axis 1	NaN	Axis 2	NaN	Axis 3	NaN	Axis 4	NaN	Axis 5	NaN	Axis 6	0.000000
TX Power	0.000000	RX Power	0.000000

599.975	0.0164261
600.053	0.0165039
600.131	0.0162916
600.209	0.0163628
600.288	0.0163794
600.366	0.0164107
600.444	0.0165692
600.522	0.0163200
600.600	0.0164391
600.678	0.0164753
600.756	0.0164445
600.834	0.0164561
600.913	0.0164798
600.991	0.0164724
601.069	0.0164465
601.147	0.0164862
601.225	0.0165005
601.303	0.0165406
601.381	0.0165691
601.459	0.0164617
601.538	0.0164925
601.616	0.0163226
601.694	0.0165327
601.772	0.0164413
601.850	0.0163441
601.928	0.0164561
602.006	0.0163925
602.084	0.0163499
602.163	0.0163579
602.241	0.0163893
602.319	0.0164344
602.397	0.0164239
602.475	0.0164033
602.553	0.0163607
602.631	0.0162348
602.709	0.0163830
602.788	0.0164243
602.866	0.0162889
602.944	0.0163807
603.022	0.0164414
603.100	0.0163560
603.178	0.0164954
603.256	0.0164126
603.334	0.0164882
603.413	0.0165797
603.491	0.0164429
603.569	0.0164320
603.647	0.0163744
603.725	0.0164027
603.803	0.0164110
603.881	0.0164202
603.959	0.0164376
604.038	0.0163036
604.116	0.0162476
604.194	0.0163818
604.272	0.0163752
604.350	0.0164812
604.428	0.0164698
604.506	0.0163456
604.584	0.0164822
604.663	0.0163880
604.741	0.0163592
604.819	0.0162949
604.897	0.0163154
604.975	0.0164542
605.053	0.0164768
605.131	0.0164637
605.209	0.0164667
605.288	0.0164947
605.366	0.0163716
605.444	0.0163560
605.522	0.0164340
605.600	0.0165539
605.678	0.0164746
605.756	0.0163684
605.834	0.0165501
605.913	0.0165298
605.991	0.0165411
606.069	0.0164011
606.147	0.0162966
606.225	0.0165113
606.303	0.0164530
606.381	0.0163472
606.459	0.0165305
606.538	0.0166138
606.616	0.0163892
606.694	0.0163881
606.772	0.0163760
606.850	0.0163519
606.928	0.0164617
607.006	0.0163367
607.084	0.0165221
607.163	0.0165463
607.241	0.0164160
607.319	0.0163241
607.397	0.0163719
607.475	0.0164279
607.553	0.0164062
607.631	0.0163674
607.709	0.0163301
607.788	0.0165056
607.866	0.0164117
607.944	0.0162677
608.022	0.0163419
608.100	0.0162802
608.178	0.0163127
608.256	0.0163306
608.334	0.0164421
608.413	0.0165222
608.491	0.0163919
608.569	0.0163787
608.647	0.0164150
608.725	0.0163515
608.803	0.0163932
608.881	0.0164683
608.959	0.0162727
609.038	0.0164970
609.116	0.0163563
609.194	0.0163468
609.272	0.0163697
609.350	0.0165135
609.428	0.0164447
609.506	0.0163180
609.584	0.0163683
609.663	0.0163960
609.741	0.0163292
609.819	0.0164563
609.897	0.0164447
609.975	0.0164252
610.053	0.0163944
610.131	0.0163120
610.209	0.0163015
610.288	0.0164671
610.366	0.0165034
610.444	0.0164688
610.522	0.0164243
610.600	0.0164201
610.678	0.0165511
610.756	0.0164585
610.834	0.0163272
610.913	0.0163912
610.991	0.0163344
611.069	0.0165798
611.147	0.0165051
611.225	0.0162318
611.303	0.0165950
611.381	0.0164872
611.459	0.0164505
611.538	0.0165272
611.616	0.0164906
611.694	0.0163799
611.772	0.0164281
611.850	0.0164906
611.928	0.0165264
612.006	0.0164056
612.084	0.0164758
612.163	0.0164317
612.241	0.0163969
612.319	0.0164632
612.397	0.0164201
612.475	0.0163796
612.553	0.0164455
612.631	0.0164623
612.709	0.0163464
612.788	0.0164182
612.866	0.0164013
612.944	0.0163280
613.022	0.0163911
613.100	0.0163791
613.178	0.0164910
613.256	0.0163442
613.334	0.0163948
613.413	0.0162402
613.491	0.0163822
613.569	0.0164733
613.647	0.0163003
613.725	0.0163678
613.803	0.0162356
613.881	0.0162475
613.959	0.0163575
614.038	0.0163800
614.116	0.0163535
614.194	0.0164342
614.272	0.0163779
614.350	0.0164175
614.428	0.0164365
614.506	0.0163615
614.584	0.0164539
614.663	0.0162972
614.741	0.0162637
614.819	0.0163123
614.897	0.0164414
614.975	0.0164549
615.053	0.0164294
615.131	0.0163129
615.209	0.0165218
615.288	0.0163962
615.366	0.0163349
615.444	0.0164308
615.522	0.0163512
615.600	0.0163996
615.678	0.0162989
615.756	0.0164952
615.834	0.0163989
615.913	0.0163914
615.991	0.0164126
616.069	0.0164406
616.147	0.0164552
616.225	0.0163215
616.303	0.0164539
616.381	0.0164614
616.459	0.0163915
616.538	0.0162744
616.616	0.0164233
616.694	0.0165057
616.772	0.0164261
616.850	0.0163220
616.928	0.0163657
617.006	0.0163602
617.084	0.0164408
617.163	0.0163940
617.241	0.0162498
617.319	0.0163858
617.397	0.0164288
617.475	0.0164207
617.553	0.0164321
617.631	0.0163723
617.709	0.0162539
617.788	0.0164005
617.866	0.0163485
617.944	0.0165304
618.022	0.0165082
618.100	0.0163289
618.178	0.0162937
618.256	0.0163237
618.334	0.0163158
618.413	0.0164031
618.491	0.0163849
618.569	0.0163781
618.647	0.0163747
618.725	0.0164050
618.803	0.0162899
618.881	0.0165224
618.959	0.0164154
619.038	0.0164414
619.116	0.0164263
619.194	0.0163975
619.272	0.0164375
619.350	0.0164016
619.428	0.0163903
619.506	0.0163422
619.584	0.0163500
619.663	0.0164264
619.741	0.0164509
619.819	0.0163081
619.897	0.0164301
619.975	0.0163230
620.053	0.0163220
620.131	0.0163695
620.209	0.0163686
620.288	0.0163801
620.366	0.0163557
620.444	0.0163613
620.522	0.0163548
620.600	0.0163974
620.678	0.0164541
620.756	0.0164635
620.834	0.0164222
620.913	0.0163811
620.991	0.0163704
621.069	0.0163860
621.147	0.0164524
621.225	0.0165546
621.303	0.0163190
621.381	0.0162906
621.459	0.0165198
621.538	0.0162833
621.616	0.0163531
621.694	0.0163951
621.772	0.0164828
621.850	0.0164153
621.928	0.0164729
622.006	0.0164359
622.084	0.0163879
622.163	0.0164040
622.241	0.0163673
622.319	0.0163829
622.397	0.0164561
622.475	0.0165029
622.553	0.0165132
622.631	0.0163605
622.709	0.0164528
622.788	0.0164660
622.866	0.0163720
622.944	0.0162978
623.022	0.0164261
623.100	0.0164874
623.178	0.0162627
623.256	0.0163406
623.334	0.0164616
623.413	0.0163771
623.491	0.0162223
623.569	0.0164084
623.647	0.0164833
623.725	0.0163361
623.803	0.0164020
623.881	0.0165815
623.959	0.0164315
624.038	0.0165302
624.116	0.0163766
624.194	0.0163229
624.272	0.0165089
624.350	0.0163464
624.428	0.0163924
624.506	0.0164126
624.584	0.0163317
624.663	0.0165087
624.741	0.0164349
624.819	0.0164153
624.897	0.0162941
624.975	0.0164484
625.053	0.0164572
625.131	0.0163792
625.209	0.0161814
625.288	0.0163817
625.366	0.0163025
625.444	0.0164424
625.522	0.0165861
625.600	0.0164578
625.678	0.0164291
625.756	0.0164569
625.834	0.0163368
625.913	0.0164124
625.991	0.0164898
626.069	0.0163895
626.147	0.0164288
626.225	0.0164478
626.303	0.0163633
626.381	0.0164680
626.459	0.0165660
626.538	0.0164718
626.616	0.0165269
626.694	0.0164468
626.772	0.0164098
626.850	0.0164478
626.928	0.0165502
627.006	0.0165872
627.084	0.0163460
627.163	0.0163461
627.241	0.0164907
627.319	0.0164687
627.397	0.0164180
627.475	0.0162994
627.553	0.0165093
627.631	0.0164593
627.709	0.0164584
627.788	0.0163474
627.866	0.0165878
627.944	0.0165425
628.022	0.0164656
628.100	0.0163564
628.178	0.0164556
628.256	0.0164635
628.334	0.0164041
628.413	0.0164071
628.491	0.0163793
628.569	0.0164001
628.647	0.0164400
628.725	0.0163248
628.803	0.0162833
628.881	0.0163506
628.959	0.0163956
629.038	0.0163811
629.116	0.0162698
629.194	0.0163444
629.272	0.0164983
629.350	0.0164587
629.428	0.0165345
629.506	0.0162804
629.584	0.0163486
629.663	0.0163476
629.741	0.0165867
629.819	0.0165475
629.897	0.0163725
629.975	0.0163950
630.053	0.0164620
630.131	0.0164493
630.209	0.0163982
630.288	0.0164134
630.366	0.0164878
630.444	0.0164138
630.522	0.0165042
630.600	0.0164272
630.678	0.0164464
630.756	0.0164123
630.834	0.0163875
630.913	0.0163938
630.991	0.0164508
631.069	0.0163666
631.147	0.0164417
631.225	0.0164178
631.303	0.0164470
631.381	0.0163599
631.459	0.0163768
631.538	0.0163158
631.616	0.0163064
631.694	0.0165121
631.772	0.0164323
631.850	0.0164256
631.928	0.0163969
632.006	0.0163744
632.084	0.0163947
632.163	0.0163634
632.241	0.0164314
632.319	0.0163731
632.397	0.0164227
632.475	0.0164194
632.553	0.0163726
632.631	0.0165337
632.709	0.0164697
632.788	0.0163158
632.866	0.0163097
632.944	0.0163183
633.022	0.0163143
633.100	0.0164012
633.178	0.0164581
633.256	0.0163419
633.334	0.0163801
633.413	0.0164192
633.491	0.0163895
633.569	0.0163255
633.647	0.0164669
633.725	0.0162840
633.803	0.0165227
633.881	0.0163345
633.959	0.0164085
634.038	0.0163783
634.116	0.0163425
634.194	0.0163509
634.272	0.0165891
634.350	0.0164880
634.428	0.0164248
634.506	0.0163435
634.584	0.0163754
634.663	0.0163580
634.741	0.0163136
634.819	0.0163570
634.897	0.0165277
634.975	0.0164000
635.053	0.0165006
635.131	0.0163656
635.209	0.0164272
635.288	0.0164090
635.366	0.0164695
635.444	0.0164112
635.522	0.0164196
635.600	0.0163016
635.678	0.0164401
635.756	0.0164427
635.834	0.0163817
635.913	0.0163734
635.991	0.0164134
636.069	0.0164302
636.147	0.0165268
636.225	0.0165072
636.303	0.0163252
636.381	0.0163835
636.459	0.0164451
636.538	0.0165019
636.616	0.0164817
636.694	0.0164465
636.772	0.0164499
636.850	0.0163428
636.928	0.0164540
637.006	0.0164313
637.084	0.0164064
637.163	0.0163744
637.241	0.0164669
637.319	0.0164587
637.397	0.0164951
637.475	0.0165044
637.553	0.0165195
637.631	0.0163181
637.709	0.0164164
637.788	0.0164646
637.866	0.0164419
637.944	0.0163616
638.022	0.0163912
638.100	0.0164789
638.178	0.0163911
638.256	0.0164674
638.334	0.0164511
638.413	0.0163997
638.491	0.0164691
638.569	0.0163449
638.647	0.0165256
638.725	0.0164422
638.803	0.0163679
638.881	0.0164477
638.959	0.0164448
639.038	0.0163754
639.116	0.0165066
639.194	0.0165442
639.272	0.0164084
639.350	0.0164020
639.428	0.0165123
639.506	0.0163586
639.584	0.0164983
639.663	0.0164358
639.741	0.0163413
639.819	0.0164802
639.897	0.0164291
639.975	0.0163958
640.053	0.0165907
640.131	0.0164528
640.209	0.0163466
640.288	0.0164848
640.366	0.0164661
640.444	0.0165543
640.522	0.0164834
640.600	0.0164436
640.678	0.0163847
640.756	0.0165286
640.834	0.0164558
640.913	0.0163395
640.991	0.0164683
641.069	0.0166148
641.147	0.0163790
641.225	0.0163218
641.303	0.0163989
641.381	0.0164677
641.459	0.0163963
641.538	0.0164405
641.616	0.0164967
641.694	0.0164539
641.772	0.0162863
641.850	0.0163625
641.928	0.0164159
642.006	0.0163515
642.084	0.0164133
642.163	0.0163498
642.241	0.0164243
642.319	0.0164409
642.397	0.0162855
642.475	0.0164530
642.553	0.0164283
642.631	0.0163959
642.709	0.0165054
642.788	0.0164023
642.866	0.0163803
642.944	0.0164442
643.022	0.0164259
643.100	0.0164240
643.178	0.0163828
643.256	0.0163961
643.334	0.0163830
643.413	0.0162688
643.491	0.0163194
643.569	0.0163704
643.647	0.0164881
643.725	0.0163562
643.803	0.0165356
643.881	0.0165122
643.959	0.0163090
644.038	0.0162886
644.116	0.0163936
644.194	0.0163722
644.272	0.0163806
644.350	0.0162093
644.428	0.0164009
644.506	0.0164133
644.584	0.0162324
644.663	0.0163227
644.741	0.0164301
644.819	0.0165034
644.897	0.0163907
644.975	0.0162984
645.053	0.0164554
645.131	0.0163697
645.209	0.0164667
645.288	0.0162965
645.366	0.0164764
645.444	0.0164576
645.522	0.0164059
645.600	0.0163350
645.678	0.0163663
645.756	0.0164710
645.834	0.0164469
645.913	0.0164358
645.991	0.0164403
646.069	0.0162789
646.147	0.0163856
646.225	0.0164111
646.303	0.0164071
646.381	0.0164582
646.459	0.0164091
646.538	0.0165173
646.616	0.0164297
646.694	0.0164146
646.772	0.0164451
646.850	0.0163244
646.928	0.0163963
647.006	0.0165255
647.084	0.0164207
647.163	0.0163426
647.241	0.0163938
647.319	0.0164609
647.397	0.0163708
647.475	0.0164995
647.553	0.0164095
647.631	0.0164392
647.709	0.0164954
647.788	0.0163100
647.866	0.0164915
647.944	0.0166036
648.022	0.0164198
648.100	0.0164661
648.178	0.0163833
648.256	0.0163957
648.334	0.0163892
648.413	0.0164170
648.491	0.0165335
648.569	0.0164904
648.647	0.0164638
648.725	0.0162846
648.803	0.0165161
648.881	0.0164600
648.959	0.0163773
649.038	0.0163816
649.116	0.0163584
649.194	0.0164624
649.272	0.0164645
649.350	0.0163170
649.428	0.0163230
649.506	0.0164695
649.584	0.0164491
649.663	0.0163420
649.741	0.0163276
649.819	0.0165146
649.897	0.0163882
649.975	0.0164353
650.053	0.0164393
650.131	0.0163617
650.209	0.0164129
650.288	0.0163656
650.366	0.0163829
650.444	0.0163923
650.522	0.0164758
650.600	0.0163794
650.678	0.0164135
650.756	0.0164522
650.834	0.0163101
650.913	0.0164368
650.991	0.0163113
651.069	0.0164414
651.147	0.0163593
651.225	0.0163444
651.303	0.0163245
651.381	0.0163685
651.459	0.0163752
651.538	0.0163313
651.616	0.0163235
651.694	0.0163175
651.772	0.0164779
651.850	0.0164068
651.928	0.0164162
652.006	0.0163297
652.084	0.0164931
652.163	0.0163847
652.241	0.0164082
652.319	0.0163290
652.397	0.0162667
652.475	0.0163194
652.553	0.0165579
652.631	0.0162938
652.709	0.0164474
652.788	0.0164571
652.866	0.0164206
652.944	0.0164893
653.022	0.0162980
653.100	0.0164928
653.178	0.0164359
653.256	0.0163578
653.334	0.0163884
653.413	0.0162946
653.491	0.0164764
653.569	0.0163950
653.647	0.0165100
653.725	0.0164314
653.803	0.0164629
653.881	0.0165640
653.959	0.0162968
654.038	0.0165168
654.116	0.0164509
654.194	0.0163430
654.272	0.0164980
654.350	0.0164381
654.428	0.0164487
654.506	0.0164752
654.584	0.0163485
654.663	0.0164308
654.741	0.0165036
654.819	0.0163972
654.897	0.0163187
654.975	0.0163568
655.053	0.0164746
655.131	0.0165502
655.209	0.0164204
655.288	0.0162640
655.366	0.0164912
655.444	0.0164448
655.522	0.0164603
655.600	0.0164094
655.678	0.0163691
655.756	0.0164801
655.834	0.0164395
655.913	0.0163347
655.991	0.0162632
656.069	0.0163334
656.147	0.0163641
656.225	0.0165537
656.303	0.0163849
656.381	0.0164030
656.459	0.0163956
656.538	0.0163060
656.616	0.0163998
656.694	0.0165630
656.772	0.0165370
656.850	0.0165582
656.928	0.0164834
657.006	0.0165917
657.084	0.0164437
657.163	0.0164793
657.241	0.0164968
657.319	0.0166034
657.397	0.0163812
657.475	0.0164290
657.553	0.0166381
657.631	0.0164491
657.709	0.0165105
657.788	0.0164754
657.866	0.0165627
657.944	0.0164675
658.022	0.0165128
658.100	0.0163996
658.178	0.0164139
658.256	0.0163884
658.334	0.0163174
658.413	0.0164188
658.491	0.0163708
658.569	0.0163187
658.647	0.0162459
658.725	0.0163200
658.803	0.0163872
658.881	0.0161966
658.959	0.0161270
659.038	0.0161897
659.116	0.0159431
659.194	0.0161337
659.272	0.0160754
659.350	0.0160597
659.428	0.0162141
659.506	0.0161674
659.584	0.0162343
659.663	0.0163580
659.741	0.0163157
659.819	0.0164971
659.897	0.0165323
659.975	0.0165074
660.053	0.0165634
660.131	0.0165247
660.209	0.0165251
660.288	0.0165892
660.366	0.0164693
660.444	0.0163805
660.522	0.0162267
660.600	0.0163114
660.678	0.0162544
660.756	0.0163213
660.834	0.0162937
660.913	0.0164926
660.991	0.0164915
661.069	0.0168521
661.147	0.0169323
661.225	0.0170559
661.303	0.0171842
661.381	0.0173369
661.459	0.0174246
661.538	0.0173729
661.616	0.0172340
661.694	0.0171382
661.772	0.0170588
661.850	0.0168156
661.928	0.0166138
662.006	0.0163924
662.084	0.0160645
662.163	0.0158276
662.241	0.0156339
662.319	0.0154402
662.397	0.0150746
662.475	0.0150229
662.553	0.0151014
662.631	0.0151789
662.709	0.0152429
662.788	0.0153840
662.866	0.0154583
662.944	0.0158606
663.022	0.0161309
663.100	0.0161227
663.178	0.0164802
663.256	0.0167671
663.334	0.0169469
663.413	0.0168317
663.491	0.0169561
663.569	0.0169551
663.647	0.0169551
663.725	0.0168970
663.803	0.0166530
663.881	0.0165952
663.959	0.0164932
664.038	0.0164115
664.116	0.0164964
664.194	0.0163449
664.272	0.0162721
664.350	0.0161285
664.428	0.0161857
664.506	0.0160712
664.584	0.0161502
664.663	0.0162408
664.741	0.0160650
664.819	0.0162785
664.897	0.0162560
664.975	0.0164784
665.053	0.0166179
665.131	0.0168535
665.209	0.0172505
665.288	0.0176495
665.366	0.0178352
665.444	0.0181230
665.522	0.0183110
665.600	0.0185406
665.678	0.0185907
665.756	0.0183739
665.834	0.0182320
665.913	0.0177912
665.991	0.0172556
666.069	0.0168105
666.147	0.0162889
666.225	0.0159003
666.303	0.0154596
666.381	0.0148173
666.459	0.0145724
666.538	0.0144339
666.616	0.0142612
666.694	0.0142451
666.772	0.0143568
666.850	0.0142528
666.928	0.0145971
667.006	0.0146963
667.084	0.0149917
667.163	0.0151076
667.241	0.0151336
667.319	0.0153098
667.397	0.0154890
667.475	0.0155841
667.553	0.0156573
667.631	0.0156608
667.709	0.0158542
667.788	0.0158744
667.866	0.0160395
667.944	0.0164040
668.022	0.0164745
668.100	0.0167353
668.178	0.0170921
668.256	0.0175112
668.334	0.0177808
668.413	0.0180579
668.491	0.0185370
668.569	0.0186448
668.647	0.0189669
668.725	0.0190717
668.803	0.0190377
668.881	0.0192228
668.959	0.0189618
669.038	0.0187529
669.116	0.0184528
669.194	0.0180410
669.272	0.0176912
669.350	0.0174257
669.428	0.0169456
669.506	0.0164674
669.584	0.0160596
669.663	0.0157400
669.741	0.0152622
669.819	0.0149762
669.897	0.0147627
669.975	0.0143234
670.053	0.0140126
670.131	0.0137821
670.209	0.0135621
670.288	0.0132137
670.366	0.0129803
670.444	0.0128818
670.522	0.0125318
670.600	0.0125468
670.678	0.0125462
670.756	0.0127637
670.834	0.0131580
670.913	0.0137564
670.991	0.0142053
671.069	0.0150442
671.147	0.0158987
671.225	0.0168091
671.303	0.0174953
671.381	0.0183195
671.459	0.0191856
671.538	0.0196641
671.616	0.0202436
671.694	0.0206272
671.772	0.0210349
671.850	0.0213187
671.928	0.0214734
672.006	0.0212732
672.084	0.0211335
672.163	0.0210091
672.241	0.0208707
672.319	0.0206274
672.397	0.0204451
672.475	0.0201569
672.553	0.0197504
672.631	0.0193062
672.709	0.0188411
672.788	0.0182920
672.866	0.0177109
672.944	0.0170297
673.022	0.0162180
673.100	0.0155347
673.178	0.0146098
673.256	0.0135825
673.334	0.0127436
673.413	0.0117655
673.491	0.0109599
673.569	0.0103140
673.647	0.00952774
673.725	0.00907402
673.803	0.00876862
673.881	0.00860229
673.959	0.00853317
674.038	0.00886002
674.116	0.00935875
674.194	0.00974228
674.272	0.0106069
674.350	0.0116882
674.428	0.0125519
674.506	0.0137070
674.584	0.0146665
674.663	0.0158911
674.741	0.0166518
674.819	0.0179507
674.897	0.0187202
674.975	0.0194685
675.053	0.0200275
675.131	0.0206996
675.209	0.0209966
675.288	0.0212837
675.366	0.0216234
675.444	0.0215936
675.522	0.0217081
675.600	0.0221536
675.678	0.0222002
675.756	0.0223404
675.834	0.0222746
675.913	0.0223967
675.991	0.0224434
676.069	0.0223790
676.147	0.0221189
676.225	0.0217973
676.303	0.0211468
676.381	0.0206576
676.459	0.0200182
676.538	0.0191571
676.616	0.0182664
676.694	0.0177129
676.772	0.0170477
676.850	0.0164464
676.928	0.0161938
677.006	0.0161812
677.084	0.0159236
677.163	0.0160037
677.241	0.0160112
677.319	0.0158014
677.397	0.0158753
677.475	0.0157723
677.553	0.0154008
677.631	0.0149428
677.709	0.0144202
677.788	0.0134673
677.866	0.0126367
677.944	0.0115987
678.022	0.0103419
678.100	0.00924423
678.178	0.00836487
678.256	0.00749466
678.334	0.00675331
678.413	0.00627663
678.491	0.00605110
678.569	0.00613869
678.647	0.00626999
678.725	0.00691307
678.803	0.00786774
678.881	0.00877594
678.959	0.00995583
679.038	0.0113508
679.116	0.0127550
679.194	0.0139362
679.272	0.0154549
679.350	0.0168244
679.428	0.0181392
679.506	0.0193271
679.584	0.0205956
679.663	0.0216798
679.741	0.0229395
679.819	0.0238584
679.897	0.0245845
679.975	0.0253936
680.053	0.0261671
680.131	0.0264658
680.209	0.0267055
680.288	0.0269642
680.366	0.0268958
680.444	0.0267077
680.522	0.0263973
680.600	0.0257716
680.678	0.0253333
680.756	0.0245240
680.834	0.0234589
680.913	0.0223366
680.991	0.0213075
681.069	0.0201414
681.147	0.0188895
681.225	0.0178967
681.303	0.0167917
681.381	0.0157333
681.459	0.0149567
681.538	0.0143471
681.616	0.0138169
681.694	0.0133279
681.772	0.0129220
681.850	0.0127779
681.928	0.0126540
682.006	0.0127070
682.084	0.0126962
682.163	0.0128111
682.241	0.0128482
682.319	0.0129505
682.397	0.0129607
682.475	0.0129266
682.553	0.0130584
682.631	0.0128866
682.709	0.0127734
682.788	0.0124004
682.866	0.0120835
682.944	0.0115054
683.022	0.0111021
683.100	0.0104354
683.178	0.00991997
683.256	0.00942909
683.334	0.00873032
683.413	0.00842903
683.491	0.00805290
683.569	0.00778511
683.647	0.00783730
683.725	0.00806297
683.803	0.00860764
683.881	0.00935143
683.959	0.0102885
684.038	0.0113686
684.116	0.0127707
684.194	0.0141749
684.272	0.0157144
684.350	0.0171927
684.428	0.0184984
684.506	0.0199626
684.584	0.0213682
684.663	0.0224449
684.741	0.0233379
684.819	0.0241823
684.897	0.0250015
684.975	0.0255374
685.053	0.0259231
685.131	0.0262377
685.209	0.0265224
685.288	0.0268730
685.366	0.0266663
685.444	0.0267826
685.522	0.0268202
685.600	0.0266978
685.678	0.0265421
685.756	0.0263783
685.834	0.0259007
685.913	0.0252661
685.991	0.0244209
686.069	0.0233786
686.147	0.0220904
686.225	0.0206855
686.303	0.0192387
686.381	0.0176456
686.459	0.0160203
686.538	0.0145152
686.616	0.0129529
686.694	0.0117670
686.772	0.0104691
686.850	0.00958061
686.928	0.00897171
687.006	0.00879478
687.084	0.00868073
687.163	0.00894279
687.241	0.00940506
687.319	0.0100235
687.397	0.0104714
687.475	0.0111907
687.553	0.0118137
687.631	0.0120290
687.709	0.0121677
687.788	0.0123215
687.866	0.0120576
687.944	0.0119485
688.022	0.0116269
688.100	0.0110276
688.178	0.0108199
688.256	0.0105074
688.334	0.0100990
688.413	0.0100194
688.491	0.00985405
688.569	0.0100055
688.647	0.0102435
688.725	0.0107126
688.803	0.0113336
688.881	0.0119377
688.959	0.0127526
689.038	0.0134982
689.116	0.0143030
689.194	0.0151503
689.272	0.0160782
689.350	0.0166217
689.428	0.0173986
689.506	0.0178895
689.584	0.0185056
689.663	0.0191821
689.741	0.0196856
689.819	0.0201147
689.897	0.0207087
689.975	0.0212649
690.053	0.0218820
690.131	0.0224415
690.209	0.0229756
690.288	0.0235905
690.366	0.0240811
690.444	0.0246970
690.522	0.0252229
690.600	0.0255721
690.678	0.0260312
690.756	0.0262531
690.834	0.0262523
690.913	0.0263351
690.991	0.0260954
691.069	0.0257191
691.147	0.0252928
691.225	0.0245543
691.303	0.0235204
691.381	0.0225991
691.459	0.0214862
691.538	0.0198903
691.616	0.0184844
691.694	0.0167695
691.772	0.0152716
691.850	0.0136809
691.928	0.0121925
692.006	0.0109221
692.084	0.00985161
692.163	0.00901810
692.241	0.00851715
692.319	0.00818512
692.397	0.00806892
692.475	0.00834625
692.553	0.00868103
692.631	0.00911987
692.709	0.00977570
692.788	0.0103370
692.866	0.0108939
692.944	0.0113393
693.022	0.0116685
693.100	0.0118407
693.178	0.0120100
693.256	0.0118689
693.334	0.0118467
693.413	0.0116665
693.491	0.0115635
693.569	0.0112599
693.647	0.0111642
693.725	0.0112778
693.803	0.0114574
693.881	0.0116854
693.959	0.0120139
694.038	0.0126440
694.116	0.0132669
694.194	0.0139510
694.272	0.0146906
694.350	0.0153912
694.428	0.0162163
694.506	0.0168476
694.584	0.0174728
694.663	0.0180781
694.741	0.0185083
694.819	0.0189898
694.897	0.0194439
694.975	0.0196394
695.053	0.0200156
695.131	0.0201819
695.209	0.0205906
695.288	0.0208989
695.366	0.0212537
695.444	0.0216216
695.522	0.0221994
695.600	0.0226020
695.678	0.0230291
695.756	0.0233521
695.834	0.0236247
695.913	0.0236320
695.991	0.0235266
696.069	0.0231916
696.147	0.0230506
696.225	0.0224097
696.303	0.0218035
696.381	0.0212563
696.459	0.0204509
696.538	0.0198284
696.616	0.0191374
696.694	0.0179960
696.772	0.0173741
696.850	0.0165858
696.928	0.0158868
697.006	0.0152566
697.084	0.0146991
697.163	0.0140855
697.241	0.0137619
697.319	0.0131419
697.397	0.0132288
697.475	0.0134056
697.553	0.0131275
697.631	0.0133027
697.709	0.0137017
697.788	0.0139883
697.866	0.0142842
697.944	0.0148007
698.022	0.0150594
698.100	0.0150609
698.178	0.0152126
698.256	0.0151720
698.334	0.0149515
698.413	0.0146846
698.491	0.0142992
698.569	0.0138309
698.647	0.0131550
698.725	0.0126550
698.803	0.0122255
698.881	0.0118504
698.959	0.0115477
699.038	0.0113409
699.116	0.0111822
699.194	0.0112406
699.272	0.0113623
699.350	0.0114790
699.428	0.0118692
699.506	0.0122529
699.584	0.0125825
699.663	0.0131493
699.741	0.0135957
699.819	0.0141953
699.897	0.0147119
699.975	0.0152140
700.053	0.0159142
700.131	0.0162573
700.209	0.0169139
700.288	0.0174242
700.366	0.0179942
700.444	0.0186412
700.522	0.0192281
700.600	0.0196935
700.678	0.0203233
700.756	0.0209322
700.834	0.0212991
700.913	0.0218238
700.991	0.0221256
701.069	0.0221696
701.147	0.0223322
701.225	0.0222408
701.303	0.0219994
701.381	0.0217057
701.459	0.0211483
701.538	0.0207323
701.616	0.0201382
701.694	0.0192720
701.772	0.0185786
701.850	0.0176426
701.928	0.0168299
702.006	0.0162864
702.084	0.0156433
702.163	0.0151197
702.241	0.0148241
702.319	0.0147306
702.397	0.0144308
702.475	0.0147208
702.553	0.0147901
702.631	0.0150027
702.709	0.0155370
702.788	0.0159409
702.866	0.0161951
702.944	0.0166837
703.022	0.0169331
703.100	0.0172939
703.178	0.0175272
703.256	0.0176457
703.334	0.0176934
703.413	0.0176949
703.491	0.0176079
703.569	0.0175069
703.647	0.0171622
703.725	0.0168562
703.803	0.0165261
703.881	0.0159890
703.959	0.0156470
704.038	0.0151958
704.116	0.0145715
704.194	0.0142413
704.272	0.0139314
704.350	0.0136278
704.428	0.0130929
704.506	0.0129911
704.584	0.0128097
704.663	0.0127511
704.741	0.0128880
704.819	0.0130857
704.897	0.0133631
704.975	0.0134892
705.053	0.0138708
705.131	0.0142387
705.209	0.0144196
705.288	0.0147307
705.366	0.0150625
705.444	0.0151077
705.522	0.0154475
705.600	0.0159104
705.678	0.0162155
705.756	0.0166057
705.834	0.0170072
705.913	0.0173449
705.991	0.0175015
706.069	0.0176859
706.147	0.0181950
706.225	0.0183459
706.303	0.0185277
706.381	0.0188220
706.459	0.0186811
706.538	0.0185868
706.616	0.0183756
706.694	0.0183144
706.772	0.0180039
706.850	0.0176498
706.928	0.0171307
707.006	0.0168224
707.084	0.0164449
707.163	0.0161044
707.241	0.0157862
707.319	0.0155164
707.397	0.0154592
707.475	0.0153283
707.553	0.0154734
707.631	0.0156854
707.709	0.0158604
707.788	0.0162519
707.866	0.0165943
707.944	0.0168351
708.022	0.0171922
708.100	0.0174706
708.178	0.0178640
708.256	0.0182067
708.334	0.0182269
708.413	0.0181814
708.491	0.0184145
708.569	0.0181701
708.647	0.0178625
708.725	0.0176611
708.803	0.0173804
708.881	0.0171806
708.959	0.0167032
709.038	0.0164111
709.116	0.0160857
709.194	0.0158296
709.272	0.0157623
709.350	0.0156174
709.428	0.0153592
709.506	0.0152464
709.584	0.0151831
709.663	0.0152152
709.741	0.0153878
709.819	0.0153592
709.897	0.0154933
709.975	0.0153994
710.053	0.0156361
710.131	0.0158709
710.209	0.0160428
710.288	0.0161089
710.366	0.0164421
710.444	0.0166191
710.522	0.0167817
710.600	0.0170280
710.678	0.0173311
710.756	0.0176509
710.834	0.0178631
710.913	0.0178081
710.991	0.0180145
711.069	0.0180660
711.147	0.0180402
711.225	0.0179256
711.303	0.0177964
711.381	0.0177335
711.459	0.0174487
711.538	0.0171334
711.616	0.0168745
711.694	0.0164944
711.772	0.0161543
711.850	0.0158355
711.928	0.0155032
712.006	0.0149426
712.084	0.0143957
712.163	0.0140845
712.241	0.0137141
712.319	0.0135378
712.397	0.0131641
712.475	0.0129416
712.553	0.0129552
712.631	0.0129827
712.709	0.0131584
712.788	0.0132888
712.866	0.0136217
712.944	0.0140523
713.022	0.0142429
713.100	0.0146265
713.178	0.0151481
713.256	0.0153249
713.334	0.0159018
713.413	0.0162098
713.491	0.0164034
713.569	0.0163622
713.647	0.0167979
713.725	0.0171499
713.803	0.0170991
713.881	0.0171362
713.959	0.0171440
714.038	0.0173286
714.116	0.0174059
714.194	0.0174654
714.272	0.0176942
714.350	0.0177829
714.428	0.0178293
714.506	0.0179662
714.584	0.0181050
714.663	0.0181620
714.741	0.0182903
714.819	0.0182374
714.897	0.0182962
714.975	0.0181594
715.053	0.0182206
715.131	0.0181669
715.209	0.0180074
715.288	0.0179430
715.366	0.0177696
715.444	0.0177274
715.522	0.0176096
715.600	0.0174129
715.678	0.0173978
715.756	0.0174590
715.834	0.0173396
715.913	0.0172723
715.991	0.0172717
716.069	0.0174354
716.147	0.0174713
716.225	0.0173508
716.303	0.0174590
716.381	0.0174816
716.459	0.0173797
716.538	0.0174074
716.616	0.0173311
716.694	0.0172472
716.772	0.0170715
716.850	0.0168767
716.928	0.0168243
717.006	0.0164868
717.084	0.0163985
717.163	0.0161539
717.241	0.0159620
717.319	0.0155148
717.397	0.0155227
717.475	0.0152058
717.553	0.0151369
717.631	0.0148255
717.709	0.0146074
717.788	0.0146871
717.866	0.0144488
717.944	0.0142783
718.022	0.0142134
718.100	0.0141450
718.178	0.0141636
718.256	0.0141970
718.334	0.0141055
718.413	0.0142854
718.491	0.0142008
718.569	0.0142701
718.647	0.0144576
718.725	0.0144822
718.803	0.0145621
718.881	0.0147564
718.959	0.0147757
719.038	0.0150202
719.116	0.0152027
719.194	0.0153543
719.272	0.0154173
719.350	0.0154567
719.428	0.0156879
719.506	0.0158159
719.584	0.0159782
719.663	0.0160971
719.741	0.0164808
719.819	0.0167181
719.897	0.0167057
719.975	0.0170780
720.053	0.0172861
720.131	0.0173251
720.209	0.0175689
720.288	0.0178919
720.366	0.0179053
720.444	0.0180071
720.522	0.0181255
720.600	0.0181364
720.678	0.0182156
720.756	0.0181661
720.834	0.0180731
720.913	0.0179615
720.991	0.0179829
721.069	0.0179238
721.147	0.0177799
721.225	0.0178830
721.303	0.0178411
721.381	0.0177400
721.459	0.0179340
721.538	0.0179768
721.616	0.0180350
721.694	0.0180801
721.772	0.0180789
721.850	0.0181108
721.928	0.0181413
722.006	0.0180193
722.084	0.0178947
722.163	0.0178100
722.241	0.0177664
722.319	0.0173746
722.397	0.0172280
722.475	0.0169307
722.553	0.0165839
722.631	0.0162683
722.709	0.0158585
722.788	0.0156603
722.866	0.0152873
722.944	0.0150047
723.022	0.0147919
723.100	0.0148139
723.178	0.0147292
723.256	0.0146324
723.334	0.0146095
723.413	0.0146409
723.491	0.0146925
723.569	0.0148811
723.647	0.0150932
723.725	0.0151418
723.803	0.0154588
723.881	0.0155576
723.959	0.0155717
724.038	0.0158794
724.116	0.0159753
724.194	0.0162610
724.272	0.0164613
724.350	0.0165154
724.428	0.0166370
724.506	0.0166811
724.584	0.0168393
724.663	0.0168910
724.741	0.0168343
724.819	0.0170013
724.897	0.0167518
724.975	0.0168197
725.053	0.0168164
725.131	0.0166737
725.209	0.0166210
725.288	0.0164340
725.366	0.0163351
725.444	0.0163151
725.522	0.0163125
725.600	0.0160738
725.678	0.0159627
725.756	0.0159474
725.834	0.0158768
725.913	0.0157065
725.991	0.0157341
726.069	0.0156162
726.147	0.0154945
726.225	0.0154792
726.303	0.0154497
726.381	0.0153584
726.459	0.0153003
726.538	0.0154212
726.616	0.0155535
726.694	0.0155983
726.772	0.0155264
726.850	0.0156337
726.928	0.0159241
727.006	0.0160915
727.084	0.0162984
727.163	0.0166426
727.241	0.0168346
727.319	0.0167888
727.397	0.0169685
727.475	0.0171397
727.553	0.0173308
727.631	0.0175915
727.709	0.0174255
727.788	0.0174748
727.866	0.0176071
727.944	0.0176094
728.022	0.0174038
728.100	0.0174344
728.178	0.0173795
728.256	0.0173956
728.334	0.0172359
728.413	0.0170773
728.491	0.0168488
728.569	0.0168534
728.647	0.0167052
728.725	0.0166262
728.803	0.0163755
728.881	0.0164365
728.959	0.0165398
729.038	0.0163141
729.116	0.0164381
729.194	0.0165079
729.272	0.0164690
729.350	0.0165282
729.428	0.0165821
729.506	0.0167088
729.584	0.0168333
729.663	0.0169125
729.741	0.0169764
729.819	0.0170106
729.897	0.0169152
729.975	0.0168900
730.053	0.0168491
730.131	0.0167231
730.209	0.0167621
730.288	0.0165175
730.366	0.0164125
730.444	0.0162368
730.522	0.0162167
730.600	0.0161275
730.678	0.0160197
730.756	0.0159532
730.834	0.0158911
730.913	0.0157904
730.991	0.0156921
731.069	0.0158263
731.147	0.0158166
731.225	0.0156835
731.303	0.0155986
731.381	0.0155002
731.459	0.0154309
731.538	0.0155272
731.616	0.0155919
731.694	0.0155314
731.772	0.0154427
731.850	0.0152963
731.928	0.0154281
732.006	0.0154266
732.084	0.0153363
732.163	0.0154873
732.241	0.0153976
732.319	0.0153814
732.397	0.0154198
732.475	0.0155794
732.553	0.0157094
732.631	0.0158783
732.709	0.0158738
732.788	0.0159666
732.866	0.0162229
732.944	0.0163015
733.022	0.0162847
733.100	0.0164568
733.178	0.0165729
733.256	0.0165389
733.334	0.0166374
733.413	0.0167163
733.491	0.0167465
733.569	0.0167358
733.647	0.0167290
733.725	0.0166282
733.803	0.0166998
733.881	0.0168340
733.959	0.0167129
734.038	0.0167002
734.116	0.0165977
734.194	0.0166767
734.272	0.0166349
734.350	0.0167323
734.428	0.0167669
734.506	0.0167025
734.584	0.0169273
734.663	0.0168462
734.741	0.0170052
734.819	0.0169421
734.897	0.0170805
734.975	0.0171377
735.053	0.0172903
735.131	0.0171715
735.209	0.0171169
735.288	0.0171564
735.366	0.0172606
735.444	0.0170727
735.522	0.0169629
735.600	0.0170428
735.678	0.0168936
735.756	0.0167946
735.834	0.0165655
735.913	0.0167224
735.991	0.0166317
736.069	0.0163906
736.147	0.0164024
736.225	0.0164165
736.303	0.0163310
736.381	0.0162502
736.459	0.0162397
736.538	0.0162615
736.616	0.0163087
736.694	0.0162507
736.772	0.0161743
736.850	0.0160253
736.928	0.0159687
737.006	0.0160614
737.084	0.0159958
737.163	0.0158762
737.241	0.0159418
737.319	0.0159493
737.397	0.0159376
737.475	0.0160442
737.553	0.0160069
737.631	0.0159666
737.709	0.0159160
737.788	0.0159984
737.866	0.0160604
737.944	0.0162202
738.022	0.0163389
738.100	0.0164591
738.178	0.0166400
738.256	0.0166347
738.334	0.0165154
738.413	0.0166022
738.491	0.0168031
738.569	0.0168633
738.647	0.0168405
738.725	0.0167693
738.803	0.0166706
738.881	0.0167137
738.959	0.0167623
739.038	0.0164549
739.116	0.0164510
739.194	0.0162158
739.272	0.0161513
739.350	0.0161507
739.428	0.0159678
739.506	0.0159108
739.584	0.0159275
739.663	0.0158499
739.741	0.0158087
739.819	0.0157777
739.897	0.0158402
739.975	0.0158643
740.053	0.0157304
740.131	0.0158006
740.209	0.0158656
740.288	0.0159233
740.366	0.0159419
740.444	0.0159712
740.522	0.0160153
740.600	0.0161385
740.678	0.0163023
740.756	0.0162312
740.834	0.0161398
740.913	0.0161197
740.991	0.0162635
741.069	0.0162757
741.147	0.0162013
741.225	0.0161381
741.303	0.0162831
741.381	0.0161941
741.459	0.0161843
741.538	0.0161619
741.616	0.0162376
741.694	0.0162531
741.772	0.0162616
741.850	0.0164787
741.928	0.0164233
742.006	0.0165228
742.084	0.0166050
742.163	0.0167651
742.241	0.0166184
742.319	0.0167801
742.397	0.0169646
742.475	0.0169073
742.553	0.0168336
742.631	0.0167951
742.709	0.0169940
742.788	0.0168945
742.866	0.0168517
742.944	0.0169510
743.022	0.0168903
743.100	0.0169640
743.178	0.0169125
743.256	0.0167327
743.334	0.0167467
743.413	0.0168307
743.491	0.0169032
743.569	0.0168857
743.647	0.0168476
743.725	0.0168511
743.803	0.0170831
743.881	0.0170602
743.959	0.0168485
744.038	0.0168669
744.116	0.0168476
744.194	0.0169167
744.272	0.0169831
744.350	0.0168608
744.428	0.0168610
744.506	0.0167814
744.584	0.0166412
744.663	0.0166181
744.741	0.0165813
744.819	0.0164803
744.897	0.0163831
744.975	0.0163186
745.053	0.0161917
745.131	0.0161985
745.209	0.0160162
745.288	0.0160490
745.366	0.0160661
745.444	0.0159778
745.522	0.0158559
745.600	0.0156729
745.678	0.0157932
745.756	0.0156895
745.834	0.0155637
745.913	0.0156672
745.991	0.0155609
746.069	0.0154855
746.147	0.0156025
746.225	0.0154195
746.303	0.0155353
746.381	0.0154204
746.459	0.0155766
746.538	0.0155896
746.616	0.0154485
746.694	0.0155968
746.772	0.0156839
746.850	0.0155935
746.928	0.0157913
747.006	0.0158816
747.084	0.0159435
747.163	0.0161311
747.241	0.0162711
747.319	0.0163580
747.397	0.0163779
747.475	0.0163896
747.553	0.0165742
747.631	0.0165660
747.709	0.0166810
747.788	0.0167256
747.866	0.0167194
747.944	0.0166261
748.022	0.0168073
748.100	0.0167297
748.178	0.0167194
748.256	0.0167464
748.334	0.0167414
748.413	0.0167030
748.491	0.0166885
748.569	0.0167315
748.647	0.0166070
748.725	0.0166709
748.803	0.0165282
748.881	0.0166549
748.959	0.0165764
749.038	0.0166508
749.116	0.0166705
749.194	0.0165516
749.272	0.0166268
749.350	0.0166926
749.428	0.0167151
749.506	0.0166791
749.584	0.0167415
749.663	0.0165838
749.741	0.0167031
749.819	0.0167377
749.897	0.0167132
749.975	0.0166822
750.053	0.0165804
750.131	0.0166821
750.209	0.0166647
750.288	0.0167386
750.366	0.0165147
750.444	0.0164476
750.522	0.0164380
750.600	0.0164539
750.678	0.0165077
750.756	0.0164234
750.834	0.0163093
750.913	0.0162683
750.991	0.0163933
751.069	0.0163588
751.147	0.0162936
751.225	0.0163889
751.303	0.0164944
751.381	0.0163506
751.459	0.0164542
751.538	0.0165062
751.616	0.0165371
751.694	0.0165453
751.772	0.0166557
751.850	0.0164765
751.928	0.0164643
752.006	0.0165137
752.084	0.0164687
752.163	0.0164883
752.241	0.0165364
752.319	0.0165108
752.397	0.0163359
752.475	0.0163070
752.553	0.0163720
752.631	0.0163909
752.709	0.0162822
752.788	0.0163371
752.866	0.0162001
752.944	0.0163048
753.022	0.0161984
753.100	0.0162639
753.178	0.0161945
753.256	0.0162803
753.334	0.0161164
753.413	0.0162559
753.491	0.0160609
753.569	0.0160313
753.647	0.0160883
753.725	0.0161209
753.803	0.0159805
753.881	0.0159476
753.959	0.0159630
754.038	0.0159502
754.116	0.0158334
754.194	0.0158746
754.272	0.0158759
754.350	0.0159795
754.428	0.0157874
754.506	0.0159101
754.584	0.0157712
754.663	0.0157925
754.741	0.0159535
754.819	0.0159057
754.897	0.0159005
754.975	0.0159522
755.053	0.0161020
755.131	0.0160199
755.209	0.0161057
755.288	0.0161696
755.366	0.0161588
755.444	0.0163622
755.522	0.0162171
755.600	0.0164316
755.678	0.0163005
755.756	0.0164548
755.834	0.0164388
755.913	0.0164495
755.991	0.0165075
756.069	0.0164182
756.147	0.0166067
756.225	0.0165820
756.303	0.0165751
756.381	0.0166766
756.459	0.0168043
756.538	0.0167884
756.616	0.0165847
756.694	0.0167485
756.772	0.0169622
756.850	0.0169379
756.928	0.0170416
757.006	0.0169581
757.084	0.0171009
757.163	0.0168180
757.241	0.0168177
757.319	0.0167915
757.397	0.0168925
757.475	0.0167556
757.553	0.0167187
757.631	0.0167242
757.709	0.0165669
757.788	0.0165942
757.866	0.0165469
757.944	0.0165273
758.022	0.0166698
758.100	0.0165392
758.178	0.0166100
758.256	0.0166636
758.334	0.0167168
758.413	0.0167758
758.491	0.0166110
758.569	0.0165172
758.647	0.0166502
758.725	0.0165704
758.803	0.0165398
758.881	0.0164682
758.959	0.0164558
759.038	0.0163799
759.116	0.0161710
759.194	0.0161739
759.272	0.0160837
759.350	0.0160372
759.428	0.0161703
759.506	0.0162259
759.584	0.0160950
759.663	0.0160600
759.741	0.0160174
759.819	0.0160571
759.897	0.0159700
759.975	0.0160350
760.053	0.0160609
760.131	0.0160218
760.209	0.0161536
760.288	0.0162933
760.366	0.0159810
760.444	0.0160388
760.522	0.0161140
760.600	0.0161610
760.678	0.0161612
760.756	0.0162244
760.834	0.0161545
760.913	0.0159869
760.991	0.0160883
761.069	0.0161131
761.147	0.0161765
761.225	0.0161279
761.303	0.0161731
761.381	0.0161858
761.459	0.0161409
761.538	0.0161872
761.616	0.0163449
761.694	0.0163371
761.772	0.0162959
761.850	0.0164147
761.928	0.0164404
762.006	0.0164842
762.084	0.0163848
762.163	0.0163412
762.241	0.0163734
762.319	0.0164217
762.397	0.0163985
762.475	0.0162141
762.553	0.0162460
762.631	0.0161507
762.709	0.0162916
762.788	0.0162070
762.866	0.0160254
762.944	0.0161329
763.022	0.0162016
763.100	0.0160680
763.178	0.0160106
763.256	0.0160591
763.334	0.0160873
763.413	0.0161256
763.491	0.0162025
763.569	0.0161086
763.647	0.0163046
763.725	0.0162460
763.803	0.0163698
763.881	0.0163251
763.959	0.0163913
764.038	0.0164163
764.116	0.0165662
764.194	0.0163984
764.272	0.0165666
764.350	0.0167419
764.428	0.0166978
764.506	0.0167124
764.584	0.0167833
764.663	0.0168462
764.741	0.0167941
764.819	0.0169018
764.897	0.0169560
764.975	0.0170751
765.053	0.0170868
765.131	0.0170249
765.209	0.0170599
765.288	0.0170171
765.366	0.0170846
765.444	0.0170103
765.522	0.0169628
765.600	0.0170009
765.678	0.0168650
765.756	0.0168109
765.834	0.0167200
765.913	0.0166776
765.991	0.0166165
766.069	0.0165423
766.147	0.0163375
766.225	0.0164172
766.303	0.0163389
766.381	0.0161894
766.459	0.0161390
766.538	0.0160934
766.616	0.0161581
766.694	0.0160719
766.772	0.0159736
766.850	0.0158834
766.928	0.0159797
767.006	0.0158273
767.084	0.0159319
767.163	0.0158695
767.241	0.0157496
767.319	0.0157648
767.397	0.0158086
767.475	0.0158214
767.553	0.0159248
767.631	0.0159455
767.709	0.0159603
767.788	0.0159851
767.866	0.0161024
767.944	0.0161103
768.022	0.0161132
768.100	0.0161330
768.178	0.0161925
768.256	0.0163970
768.334	0.0163596
768.413	0.0164466
768.491	0.0164304
768.569	0.0165491
768.647	0.0164646
768.725	0.0165598
768.803	0.0166890
768.881	0.0166359
768.959	0.0167155
769.038	0.0166625
769.116	0.0167991
769.194	0.0167102
769.272	0.0164854
769.350	0.0164666
769.428	0.0164709
769.506	0.0164536
769.584	0.0164429
769.663	0.0162844
769.741	0.0161774
769.819	0.0160509
769.897	0.0160194
769.975	0.0158384
770.053	0.0156953
770.131	0.0157499
770.209	0.0158055
770.288	0.0158601
770.366	0.0156673
770.444	0.0157455
770.522	0.0157426
770.600	0.0157030
770.678	0.0159462
770.756	0.0159339
770.834	0.0159075
770.913	0.0160120
770.991	0.0160972
771.069	0.0161993
771.147	0.0164005
771.225	0.0165489
771.303	0.0163380
771.381	0.0164909
771.459	0.0166354
771.538	0.0167111
771.616	0.0168555
771.694	0.0169902
771.772	0.0170525
771.850	0.0171519
771.928	0.0171333
772.006	0.0171790
772.084	0.0172670
772.163	0.0172372
772.241	0.0174916
772.319	0.0173930
772.397	0.0174875
772.475	0.0174134
772.553	0.0174316
772.631	0.0173927
772.709	0.0173494
772.788	0.0171712
772.866	0.0172168
772.944	0.0171207
773.022	0.0169395
773.100	0.0171608
773.178	0.0169950
773.256	0.0167850
773.334	0.0166975
773.413	0.0167234
773.491	0.0166741
773.569	0.0166513
773.647	0.0164325
773.725	0.0163718
773.803	0.0162222
773.881	0.0162978
773.959	0.0162166
774.038	0.0159705
774.116	0.0159795
774.194	0.0158497
774.272	0.0157908
774.350	0.0156828
774.428	0.0156028
774.506	0.0154269
774.584	0.0152848
774.663	0.0152875
774.741	0.0151820
774.819	0.0152843
774.897	0.0151237
774.975	0.0153116
775.053	0.0153461
775.131	0.0152332
775.209	0.0154198
775.288	0.0155233
775.366	0.0156458
775.444	0.0155561
775.522	0.0158262
775.600	0.0159171
775.678	0.0160015
775.756	0.0161637
775.834	0.0162240
775.913	0.0163267
775.991	0.0165658
776.069	0.0165527
776.147	0.0166110
776.225	0.0167727
776.303	0.0167590
776.381	0.0169717
776.459	0.0170538
776.538	0.0169726
776.616	0.0171649
776.694	0.0170509
776.772	0.0170683
776.850	0.0170875
776.928	0.0171320
777.006	0.0171796
777.084	0.0170779
777.163	0.0171066
777.241	0.0170254
777.319	0.0169164
777.397	0.0170847
777.475	0.0170773
777.553	0.0169176
777.631	0.0168799
777.709	0.0169366
777.788	0.0167849
777.866	0.0169204
777.944	0.0166876
778.022	0.0165912
778.100	0.0165745
778.178	0.0165837
778.256	0.0165872
778.334	0.0165161
778.413	0.0164756
778.491	0.0163627
778.569	0.0162811
778.647	0.0162353
778.725	0.0160756
778.803	0.0161088
778.881	0.0160254
778.959	0.0159072
779.038	0.0158957
779.116	0.0159219
779.194	0.0155750
779.272	0.0155544
779.350	0.0155669
779.428	0.0154817
779.506	0.0153952
779.584	0.0153772
779.663	0.0153904
779.741	0.0153560
779.819	0.0152883
779.897	0.0154701
779.975	0.0153717
780.053	0.0152811
780.131	0.0154462
780.209	0.0154070
780.288	0.0158237
780.366	0.0157776
780.444	0.0158955
780.522	0.0161348
780.600	0.0162995
780.678	0.0163721
780.756	0.0165167
780.834	0.0165768
780.913	0.0167120
780.991	0.0167683
781.069	0.0170552
781.147	0.0171700
781.225	0.0172184
781.303	0.0174532
781.381	0.0176722
781.459	0.0176318
781.538	0.0176331
781.616	0.0178288
781.694	0.0177999
781.772	0.0177381
781.850	0.0179102
781.928	0.0179588
782.006	0.0178780
782.084	0.0179684
782.163	0.0178351
782.241	0.0177869
782.319	0.0178081
782.397	0.0175405
782.475	0.0174621
782.553	0.0174638
782.631	0.0172978
782.709	0.0171169
782.788	0.0169074
782.866	0.0166489
782.944	0.0166840
783.022	0.0165781
783.100	0.0162156
783.178	0.0160943
783.256	0.0159445
783.334	0.0158173
783.413	0.0156402
783.491	0.0155183
783.569	0.0153752
783.647	0.0152970
783.725	0.0151894
783.803	0.0152203
783.881	0.0150287
783.959	0.0151547
784.038	0.0151741
784.116	0.0150217
784.194	0.0150140
784.272	0.0149580
784.350	0.0149719
784.428	0.0151719
784.506	0.0150771
784.584	0.0151595
784.663	0.0151593
784.741	0.0152480
784.819	0.0152606
784.897	0.0152621
784.975	0.0154957
785.053	0.0154433
785.131	0.0155146
785.209	0.0155203
785.288	0.0157053
785.366	0.0157472
785.444	0.0157997
785.522	0.0159743
785.600	0.0159261
785.678	0.0161267
785.756	0.0165125
785.834	0.0163871
785.913	0.0164834
785.991	0.0166410
786.069	0.0168620
786.147	0.0167979
786.225	0.0169298
786.303	0.0171255
786.381	0.0170761
786.459	0.0171924
786.538	0.0172342
786.616	0.0175228
786.694	0.0174346
786.772	0.0175488
786.850	0.0175950
786.928	0.0175764
787.006	0.0175993
787.084	0.0177177
787.163	0.0178347
787.241	0.0178705
787.319	0.0179095
787.397	0.0178487
787.475	0.0179720
787.553	0.0179646
787.631	0.0178465
787.709	0.0178112
787.788	0.0177836
787.866	0.0177995
787.944	0.0177248
788.022	0.0174933
788.100	0.0174601
788.178	0.0174344
788.256	0.0171968
788.334	0.0171564
788.413	0.0169194
788.491	0.0167628
788.569	0.0165773
788.647	0.0163417
788.725	0.0161942
788.803	0.0160921
788.881	0.0158610
788.959	0.0157603
789.038	0.0157317
789.116	0.0155943
789.194	0.0154943
789.272	0.0153508
789.350	0.0151558
789.428	0.0152585
789.506	0.0150705
789.584	0.0150557
789.663	0.0149992
789.741	0.0149960
789.819	0.0150429
789.897	0.0150275
789.975	0.0150024
790.053	0.0149631
790.131	0.0150198
790.209	0.0150451
790.288	0.0151134
790.366	0.0152029
790.444	0.0151205
790.522	0.0150583
790.600	0.0152536
790.678	0.0153175
790.756	0.0155878
790.834	0.0156946
790.913	0.0156403
790.991	0.0157292
791.069	0.0159380
791.147	0.0159786
791.225	0.0160902
791.303	0.0161962
791.381	0.0163652
791.459	0.0164385
791.538	0.0164975
791.616	0.0167343
791.694	0.0168235
791.772	0.0167582
791.850	0.0168783
791.928	0.0170625
792.006	0.0171242
792.084	0.0172615
792.163	0.0173753
792.241	0.0174377
792.319	0.0174831
792.397	0.0176991
792.475	0.0175392
792.553	0.0175555
792.631	0.0176375
792.709	0.0177868
792.788	0.0176399
792.866	0.0177044
792.944	0.0175802
793.022	0.0175391
793.100	0.0175227
793.178	0.0175791
793.256	0.0174820
793.334	0.0172755
793.413	0.0171917
793.491	0.0172722
793.569	0.0169411
793.647	0.0169704
793.725	0.0168880
793.803	0.0168500
793.881	0.0165780
793.959	0.0166243
794.038	0.0166455
794.116	0.0164785
794.194	0.0163774
794.272	0.0163764
794.350	0.0162968
794.428	0.0160462
794.506	0.0159723
794.584	0.0160942
794.663	0.0159404
794.741	0.0157917
794.819	0.0156738
794.897	0.0155649
794.975	0.0155293
795.053	0.0153865
795.131	0.0151995
795.209	0.0152665
795.288	0.0153500
795.366	0.0153756
795.444	0.0152792
795.522	0.0151691
795.600	0.0153370
795.678	0.0153431
795.756	0.0152686
795.834	0.0155118
795.913	0.0155096
795.991	0.0156525
796.069	0.0156985
796.147	0.0157397
796.225	0.0156733
796.303	0.0161301
796.381	0.0161119
796.459	0.0162476
796.538	0.0163757
796.616	0.0164600
796.694	0.0164587
796.772	0.0165845
796.850	0.0167180
796.928	0.0167488
797.006	0.0168453
797.084	0.0169108
797.163	0.0171902
797.241	0.0173033
797.319	0.0172851
797.397	0.0172781
797.475	0.0171819
797.553	0.0174015
797.631	0.0174198
797.709	0.0175228
797.788	0.0175578
797.866	0.0175949
797.944	0.0174646
798.022	0.0173381
798.100	0.0174173
798.178	0.0174813
798.256	0.0171380
798.334	0.0169897
798.413	0.0171446
798.491	0.0169780
798.569	0.0167588
798.647	0.0168269
798.725	0.0166301
798.803	0.0164515
798.881	0.0163947
798.959	0.0164456
799.038	0.0162483
799.116	0.0162268
799.194	0.0162849
799.272	0.0162460
799.350	0.0160650
799.428	0.0159859
799.506	0.0160895
799.584	0.0159779
799.663	0.0160828
799.741	0.0160436
799.819	0.0159152
799.897	0.0158217
799.975	0.0157497
800.053	0.0157745
800.131	0.0157989
800.209	0.0155937
800.288	0.0155400
800.366	0.0156094
800.444	0.0155328
800.522	0.0155359
800.600	0.0155001
800.678	0.0155323
800.756	0.0156168
800.834	0.0155734
800.913	0.0155846
800.991	0.0156186
801.069	0.0158176
801.147	0.0158228
801.225	0.0157159
801.303	0.0157938
801.381	0.0159335
801.459	0.0160420
801.538	0.0161329
801.616	0.0161749
801.694	0.0162830
801.772	0.0163828
801.850	0.0163877
801.928	0.0163978
802.006	0.0165813
802.084	0.0166953
802.163	0.0166231
802.241	0.0166465
802.319	0.0168057
802.397	0.0168355
802.475	0.0168687
802.553	0.0169654
802.631	0.0169478
802.709	0.0169456
802.788	0.0169753
802.866	0.0170557
802.944	0.0171236
803.022	0.0170033
803.100	0.0168530
803.178	0.0168329
803.256	0.0168262
803.334	0.0168196
803.413	0.0168056
803.491	0.0168942
803.569	0.0169799
803.647	0.0169642
803.725	0.0167663
803.803	0.0167430
803.881	0.0168191
803.959	0.0168949
804.038	0.0169353
804.116	0.0168198
804.194	0.0168661
804.272	0.0168106
804.350	0.0166871
804.428	0.0168805
804.506	0.0168478
804.584	0.0167307
804.663	0.0165842
804.741	0.0166404
804.819	0.0165215
804.897	0.0165867
804.975	0.0163512
805.053	0.0162603
805.131	0.0162597
805.209	0.0161028
805.288	0.0160132
805.366	0.0159741
805.444	0.0158495
805.522	0.0157458
805.600	0.0157474
805.678	0.0157871
805.756	0.0158397
805.834	0.0157580
805.913	0.0157756
805.991	0.0157325
806.069	0.0157581
806.147	0.0157375
806.225	0.0159972
806.303	0.0159631
806.381	0.0159775
806.459	0.0160854
806.538	0.0160347
806.616	0.0161498
806.694	0.0161678
806.772	0.0160835
806.850	0.0160987
806.928	0.0163396
807.006	0.0162878
807.084	0.0163141
807.163	0.0162704
807.241	0.0163645
807.319	0.0163564
807.397	0.0165421
807.475	0.0163519
807.553	0.0162808
807.631	0.0163335
807.709	0.0163518
807.788	0.0164342
807.866	0.0163907
807.944	0.0163548
808.022	0.0162756
808.100	0.0165199
808.178	0.0164331
808.256	0.0164655
808.334	0.0166085
808.413	0.0164104
808.491	0.0163336
808.569	0.0166444
808.647	0.0164420
808.725	0.0164866
808.803	0.0164790
808.881	0.0162609
808.959	0.0163953
809.038	0.0165434
809.116	0.0166581
809.194	0.0164468
809.272	0.0165206
809.350	0.0164943
809.428	0.0166176
809.506	0.0167034
809.584	0.0165705
809.663	0.0164666
809.741	0.0165614
809.819	0.0165064
809.897	0.0164346
809.975	0.0164763
810.053	0.0166315
810.131	0.0166859
810.209	0.0163528
810.288	0.0164799
810.366	0.0164765
810.444	0.0164792
810.522	0.0164294
810.600	0.0165289
810.678	0.0163978
810.756	0.0165187
810.834	0.0165241
810.913	0.0165454
810.991	0.0166769
811.069	0.0165694
811.147	0.0165523
811.225	0.0165567
811.303	0.0164223
811.381	0.0165787
811.459	0.0166650
811.538	0.0165810
811.616	0.0166349
811.694	0.0165734
811.772	0.0165414
811.850	0.0165515
811.928	0.0164512
812.006	0.0166061
812.084	0.0165834
812.163	0.0166237
812.241	0.0165002
812.319	0.0164988
812.397	0.0164567
812.475	0.0164165
812.553	0.0164531
812.631	0.0163079
812.709	0.0162850
812.788	0.0162923
812.866	0.0162512
812.944	0.0160861
813.022	0.0162573
813.100	0.0164059
813.178	0.0162093
813.256	0.0162017
813.334	0.0162470
813.413	0.0161325
813.491	0.0162522
813.569	0.0162197
813.647	0.0161190
813.725	0.0161144
813.803	0.0162408
813.881	0.0161644
813.959	0.0162328
814.038	0.0161279
814.116	0.0161874
814.194	0.0162070
814.272	0.0160899
814.350	0.0161033
814.428	0.0161719
814.506	0.0160674
814.584	0.0160502
814.663	0.0161376
814.741	0.0161652
814.819	0.0159766
814.897	0.0162220
814.975	0.0160529
815.053	0.0161089
815.131	0.0160202
815.209	0.0162133
815.288	0.0159836
815.366	0.0160702
815.444	0.0159608
815.522	0.0159593
815.600	0.0161331
815.678	0.0159976
815.756	0.0161203
815.834	0.0160941
815.913	0.0162837
815.991	0.0162629
816.069	0.0162823
816.147	0.0163333
816.225	0.0163258
816.303	0.0163165
816.381	0.0164851
816.459	0.0164756
816.538	0.0164758
816.616	0.0165527
816.694	0.0165736
816.772	0.0167273
816.850	0.0167289
816.928	0.0167474
817.006	0.0167693
817.084	0.0166469
817.163	0.0167504
817.241	0.0167953
817.319	0.0168200
817.397	0.0168740
817.475	0.0169601
817.553	0.0170174
817.631	0.0170393
817.709	0.0169333
817.788	0.0170271
817.866	0.0170340
817.944	0.0170673
818.022	0.0169663
818.100	0.0169263
818.178	0.0169861
818.256	0.0169511
818.334	0.0169982
818.413	0.0168661
818.491	0.0167583
818.569	0.0167013
818.647	0.0167338
818.725	0.0167126
818.803	0.0165869
818.881	0.0165250
818.959	0.0165228
819.038	0.0165730
819.116	0.0162463
819.194	0.0162064
819.272	0.0163337
819.350	0.0165009
819.428	0.0163618
819.506	0.0164091
819.584	0.0162529
819.663	0.0162511
819.741	0.0163633
819.819	0.0162592
819.897	0.0162849
819.975	0.0161646
820.053	0.0161752
820.131	0.0161021
820.209	0.0159809
820.288	0.0159505
820.366	0.0160549
820.444	0.0159869
820.522	0.0159998
820.600	0.0158854
820.678	0.0158241
820.756	0.0158017
820.834	0.0158685
820.913	0.0159451
820.991	0.0158877
821.069	0.0157258
821.147	0.0158841
821.225	0.0160007
821.303	0.0159316
821.381	0.0160333
821.459	0.0159557
821.538	0.0158633
821.616	0.0161174
821.694	0.0162062
821.772	0.0160821
821.850	0.0161407
821.928	0.0161838
822.006	0.0161848
822.084	0.0162182
822.163	0.0162080
822.241	0.0162441
822.319	0.0163198
822.397	0.0163090
822.475	0.0163641
822.553	0.0164301
822.631	0.0165409
822.709	0.0164491
822.788	0.0165306
822.866	0.0165987
822.944	0.0165387
823.022	0.0166145
823.100	0.0167481
823.178	0.0167406
823.256	0.0166222
823.334	0.0168223
823.413	0.0167392
823.491	0.0168985
823.569	0.0167255
823.647	0.0167734
823.725	0.0167860
823.803	0.0168603
823.881	0.0168450
823.959	0.0168803
824.038	0.0169559
824.116	0.0168518
824.194	0.0166682
824.272	0.0167869
824.350	0.0169067
824.428	0.0165971
824.506	0.0168070
824.584	0.0170477
824.663	0.0168251
824.741	0.0166850
824.819	0.0167031
824.897	0.0166522
824.975	0.0166493
825.053	0.0165645
825.131	0.0163303
825.209	0.0163522
825.288	0.0163847
825.366	0.0162206
825.444	0.0161643
825.522	0.0160815
825.600	0.0160516
825.678	0.0160377
825.756	0.0159013
825.834	0.0158316
825.913	0.0158038
825.991	0.0158760
826.069	0.0157725
826.147	0.0158421
826.225	0.0159562
826.303	0.0159312
826.381	0.0158615
826.459	0.0158895
826.538	0.0160095
826.616	0.0161027
826.694	0.0162624
826.772	0.0163447
826.850	0.0163542
826.928	0.0162137
827.006	0.0161958
827.084	0.0164582
827.163	0.0165355
827.241	0.0163163
827.319	0.0163744
827.397	0.0164505
827.475	0.0163569
827.553	0.0163484
827.631	0.0164779
827.709	0.0165278
827.788	0.0166561
827.866	0.0165185
827.944	0.0164977
828.022	0.0164677
828.100	0.0165098
828.178	0.0164589
828.256	0.0165195
828.334	0.0165430
828.413	0.0165113
828.491	0.0164528
828.569	0.0164688
828.647	0.0164349
828.725	0.0165035
828.803	0.0164400
828.881	0.0164103
828.959	0.0163557
829.038	0.0164877
829.116	0.0163499
829.194	0.0164139
829.272	0.0163428
829.350	0.0162905
829.428	0.0163766
829.506	0.0164439
829.584	0.0163338
829.663	0.0163610
829.741	0.0163764
829.819	0.0164613
829.897	0.0164725
829.975	0.0165437
830.053	0.0163203
830.131	0.0163661
830.209	0.0164634
830.288	0.0161668
830.366	0.0162149
830.444	0.0163034
830.522	0.0163508
830.600	0.0162193
830.678	0.0162256
830.756	0.0162583
830.834	0.0162217
830.913	0.0162411
830.991	0.0161118
831.069	0.0160418
831.147	0.0160756
831.225	0.0160938
831.303	0.0160925
831.381	0.0161132
831.459	0.0161331
831.538	0.0162089
831.616	0.0161473
831.694	0.0161612
831.772	0.0163600
831.850	0.0163592
831.928	0.0162859
832.006	0.0162815
832.084	0.0162722
832.163	0.0164253
832.241	0.0163626
832.319	0.0163565
832.397	0.0163683
832.475	0.0164756
832.553	0.0166634
832.631	0.0165298
832.709	0.0164453
832.788	0.0166264
832.866	0.0166874
832.944	0.0166930
833.022	0.0166460
833.100	0.0165891
833.178	0.0168652
833.256	0.0169064
833.334	0.0167859
833.413	0.0167805
833.491	0.0167404
833.569	0.0167419
833.647	0.0167632
833.725	0.0168420
833.803	0.0166640
833.881	0.0167397
833.959	0.0166457
834.038	0.0166292
834.116	0.0166148
834.194	0.0164842
834.272	0.0165046
834.350	0.0165588
834.428	0.0164056
834.506	0.0164465
834.584	0.0164667
834.663	0.0163145
834.741	0.0163667
834.819	0.0164141
834.897	0.0165369
834.975	0.0164745
835.053	0.0166348
835.131	0.0165618
835.209	0.0164581
835.288	0.0163886
835.366	0.0163703
835.444	0.0164572
835.522	0.0165020
835.600	0.0163337
835.678	0.0163293
835.756	0.0162894
835.834	0.0163641
835.913	0.0162555
835.991	0.0162148
836.069	0.0160563
836.147	0.0161476
836.225	0.0161034
836.303	0.0159559
836.381	0.0159502
836.459	0.0159152
836.538	0.0158344
836.616	0.0157483
836.694	0.0156538
836.772	0.0157283
836.850	0.0157207
836.928	0.0157848
837.006	0.0159045
837.084	0.0157364
837.163	0.0157135
837.241	0.0157256
837.319	0.0158365
837.397	0.0159827
837.475	0.0160220
837.553	0.0160558
837.631	0.0159964
837.709	0.0160524
837.788	0.0161050
837.866	0.0161869
837.944	0.0162605
838.022	0.0163760
838.100	0.0164281
838.178	0.0163733
838.256	0.0164172
838.334	0.0164484
838.413	0.0165879
838.491	0.0165394
838.569	0.0166302
838.647	0.0167411
838.725	0.0167281
838.803	0.0169539
838.881	0.0168047
838.959	0.0169148
839.038	0.0169569
839.116	0.0168118
839.194	0.0167696
839.272	0.0170044
839.350	0.0167440
839.428	0.0168530
839.506	0.0169193
839.584	0.0168084
839.663	0.0166699
839.741	0.0168066
839.819	0.0168342
839.897	0.0168407
839.975	0.0167516
840.053	0.0167767
840.131	0.0166016
840.209	0.0167912
840.288	0.0167180
840.366	0.0167810
840.444	0.0167344
840.522	0.0169329
840.600	0.0166457
840.678	0.0165900
840.756	0.0166163
840.834	0.0165187
840.913	0.0164817
840.991	0.0164296
841.069	0.0163884
841.147	0.0164028
841.225	0.0163067
841.303	0.0161469
841.381	0.0162379
841.459	0.0162043
841.538	0.0160949
841.616	0.0160179
841.694	0.0159622
841.772	0.0160194
841.850	0.0159465
841.928	0.0158865
842.006	0.0159965
842.084	0.0159502
842.163	0.0159922
842.241	0.0159921
842.319	0.0159145
842.397	0.0160226
842.475	0.0160751
842.553	0.0159823
842.631	0.0160035
842.709	0.0162629
842.788	0.0161320
842.866	0.0163058
842.944	0.0163023
843.022	0.0161748
843.100	0.0162229
843.178	0.0163296
843.256	0.0162165
843.334	0.0163264
843.413	0.0163982
843.491	0.0162795
843.569	0.0165564
843.647	0.0165942
843.725	0.0166244
843.803	0.0165645
843.881	0.0165908
843.959	0.0165853
844.038	0.0167025
844.116	0.0165923
844.194	0.0164863
844.272	0.0164714
844.350	0.0165197
844.428	0.0165506
844.506	0.0164523
844.584	0.0164715
844.663	0.0165081
844.741	0.0163625
844.819	0.0164539
844.897	0.0165209
844.975	0.0166013
845.053	0.0164573
845.131	0.0164882
845.209	0.0164953
845.288	0.0166373
845.366	0.0164762
845.444	0.0165531
845.522	0.0165128
845.600	0.0165722
845.678	0.0165468
845.756	0.0165181
845.834	0.0164745
845.913	0.0165891
845.991	0.0164854
846.069	0.0163737
846.147	0.0163560
846.225	0.0164274
846.303	0.0165044
846.381	0.0162743
846.459	0.0162776
846.538	0.0164425
846.616	0.0163524
846.694	0.0161341
846.772	0.0161156
846.850	0.0162321
846.928	0.0162863
847.006	0.0161892
847.084	0.0162392
847.163	0.0163660
847.241	0.0162222
847.319	0.0163376
847.397	0.0163582
847.475	0.0163161
847.553	0.0163397
847.631	0.0163542
847.709	0.0165002
847.788	0.0164342
847.866	0.0164012
847.944	0.0164757
848.022	0.0166155
848.100	0.0163691
848.178	0.0163182
848.256	0.0164725
848.334	0.0163829
848.413	0.0165296
848.491	0.0165707
848.569	0.0163897
848.647	0.0167355
848.725	0.0165627
848.803	0.0163642
848.881	0.0164465
848.959	0.0164922
849.038	0.0165058
849.116	0.0164954
849.194	0.0164882
849.272	0.0164400
849.350	0.0163869
849.428	0.0164219
849.506	0.0163552
849.584	0.0163152
849.663	0.0162436
849.741	0.0162370
849.819	0.0162818
849.897	0.0163006
849.975	0.0162447
850.053	0.0162660
850.131	0.0164008
850.209	0.0162640
850.288	0.0161207
850.366	0.0162997
850.444	0.0162679
850.522	0.0162247
850.600	0.0164293
850.678	0.0162683
850.756	0.0163771
850.834	0.0163248
850.913	0.0164034
850.991	0.0163217
851.069	0.0163417
851.147	0.0162778
851.225	0.0165061
851.303	0.0162539
851.381	0.0162781
851.459	0.0165057
851.538	0.0164806
851.616	0.0164450
851.694	0.0163525
851.772	0.0164536
851.850	0.0166550
851.928	0.0164457
852.006	0.0164310
852.084	0.0164240
852.163	0.0163858
852.241	0.0165182
852.319	0.0164754
852.397	0.0165003
852.475	0.0164893
852.553	0.0166484
852.631	0.0164097
852.709	0.0164658
852.788	0.0165310
852.866	0.0165364
852.944	0.0164808
853.022	0.0166197
853.100	0.0165514
853.178	0.0164629
853.256	0.0165248
853.334	0.0164142
853.413	0.0164264
853.491	0.0162997
853.569	0.0163197
853.647	0.0162929
853.725	0.0163792
853.803	0.0161770
853.881	0.0161584
853.959	0.0162384
854.038	0.0162776
854.116	0.0163159
854.194	0.0162825
854.272	0.0162859
854.350	0.0163460
854.428	0.0162737
854.506	0.0163462
854.584	0.0164848
854.663	0.0164423
854.741	0.0163538
854.819	0.0163409
854.897	0.0166208
854.975	0.0164863
855.053	0.0165280
855.131	0.0164878
855.209	0.0166054
855.288	0.0165383
855.366	0.0165071
855.444	0.0165086
855.522	0.0164433
855.600	0.0164301
855.678	0.0164311
855.756	0.0164368
855.834	0.0165966
855.913	0.0165397
855.991	0.0164485
856.069	0.0166051
856.147	0.0164220
856.225	0.0165700
856.303	0.0165275
856.381	0.0163980
856.459	0.0165304
856.538	0.0166131
856.616	0.0168429
856.694	0.0166923
856.772	0.0166624
856.850	0.0166441
856.928	0.0166738
857.006	0.0166721
857.084	0.0168501
857.163	0.0167236
857.241	0.0168031
857.319	0.0167296
857.397	0.0167834
857.475	0.0168768
857.553	0.0166415
857.631	0.0165815
857.709	0.0165528
857.788	0.0164677
857.866	0.0162659
857.944	0.0163391
858.022	0.0161198
858.100	0.0161002
858.178	0.0159827
858.256	0.0160286
858.334	0.0160800
858.413	0.0161575
858.491	0.0161360
858.569	0.0161283
858.647	0.0160680
858.725	0.0162492
858.803	0.0162989
858.881	0.0163480
858.959	0.0164342
859.038	0.0165198
859.116	0.0164384
859.194	0.0164771
859.272	0.0166103
859.350	0.0164137
859.428	0.0164609
859.506	0.0164688
859.584	0.0163960
859.663	0.0164879
859.741	0.0164274
859.819	0.0163260
859.897	0.0162359
859.975	0.0162950
860.053	0.0164573
860.131	0.0163457
860.209	0.0163268
860.288	0.0163345
860.366	0.0163889
860.444	0.0164478
860.522	0.0163805
860.600	0.0163351
860.678	0.0164703
860.756	0.0165712
860.834	0.0164872
860.913	0.0164835
860.991	0.0162725
861.069	0.0163721
861.147	0.0164360
861.225	0.0164521
861.303	0.0164455
861.381	0.0164845
861.459	0.0163617
861.538	0.0164677
861.616	0.0163880
861.694	0.0165781
861.772	0.0164652
861.850	0.0164628
861.928	0.0164233
862.006	0.0163645
862.084	0.0164458
862.163	0.0163605
862.241	0.0164890
862.319	0.0165532
862.397	0.0166055
862.475	0.0165157
862.553	0.0165630
862.631	0.0166381
862.709	0.0167407
862.788	0.0166216
862.866	0.0166720
862.944	0.0169587
863.022	0.0168566
863.100	0.0170928
863.178	0.0169454
863.256	0.0169927
863.334	0.0168020
863.413	0.0168939
863.491	0.0167188
863.569	0.0166602
863.647	0.0165378
863.725	0.0166127
863.803	0.0165380
863.881	0.0164737
863.959	0.0163714
864.038	0.0162754
864.116	0.0161887
864.194	0.0161854
864.272	0.0160593
864.350	0.0160304
864.428	0.0159976
864.506	0.0159901
864.584	0.0158838
864.663	0.0159148
864.741	0.0159436
864.819	0.0157971
864.897	0.0158137
864.975	0.0157494
865.053	0.0157039
865.131	0.0156848
865.209	0.0156671
865.288	0.0156140
865.366	0.0156985
865.444	0.0158368
865.522	0.0157922
865.600	0.0159504
865.678	0.0160851
865.756	0.0161286
865.834	0.0161483
865.913	0.0163634
865.991	0.0165939
866.069	0.0166998
866.147	0.0168512
866.225	0.0170621
866.303	0.0169326
866.381	0.0171764
866.459	0.0171877
866.538	0.0171896
866.616	0.0171822
866.694	0.0172262
866.772	0.0170763
866.850	0.0171783
866.928	0.0173166
867.006	0.0170987
867.084	0.0171364
867.163	0.0168446
867.241	0.0168050
867.319	0.0168280
867.397	0.0168584
867.475	0.0165871
867.553	0.0165718
867.631	0.0166755
867.709	0.0166565
867.788	0.0166707
867.866	0.0164527
867.944	0.0164164
868.022	0.0163718
868.100	0.0163959
868.178	0.0163283
868.256	0.0161012
868.334	0.0161617
868.413	0.0160950
868.491	0.0159268
868.569	0.0158731
868.647	0.0158700
868.725	0.0158059
868.803	0.0159029
868.881	0.0160172
868.959	0.0160018
869.038	0.0161178
869.116	0.0159984
869.194	0.0160728
869.272	0.0160730
869.350	0.0160415
869.428	0.0158968
869.506	0.0158686
869.584	0.0159386
869.663	0.0158033
869.741	0.0156605
869.819	0.0154929
869.897	0.0155974
869.975	0.0155708
870.053	0.0155608
870.131	0.0156178
870.209	0.0155600
870.288	0.0158088
870.366	0.0159801
870.444	0.0161130
870.522	0.0160404
870.600	0.0162524
870.678	0.0165226
870.756	0.0165513
870.834	0.0168130
870.913	0.0169818
870.991	0.0171498
871.069	0.0172009
871.147	0.0172925
871.225	0.0175281
871.303	0.0174796
871.381	0.0174664
871.459	0.0175508
871.538	0.0176141
871.616	0.0175707
871.694	0.0174589
871.772	0.0174480
871.850	0.0175480
871.928	0.0174297
872.006	0.0172718
872.084	0.0171108
872.163	0.0171748
872.241	0.0168811
872.319	0.0168388
872.397	0.0167981
872.475	0.0164577
872.553	0.0164692
872.631	0.0163351
872.709	0.0163292
872.788	0.0161839
872.866	0.0160207
872.944	0.0158820
873.022	0.0159433
873.100	0.0158308
873.178	0.0158385
873.256	0.0157993
873.334	0.0158132
873.413	0.0158023
873.491	0.0157883
873.569	0.0158679
873.647	0.0158109
873.725	0.0158383
873.803	0.0159117
873.881	0.0159767
873.959	0.0161113
874.038	0.0161713
874.116	0.0160250
874.194	0.0160161
874.272	0.0159907
874.350	0.0160039
874.428	0.0160825
874.506	0.0160188
874.584	0.0158602
874.663	0.0158156
874.741	0.0159724
874.819	0.0158549
874.897	0.0157767
874.975	0.0158502
875.053	0.0157542
875.131	0.0157873
875.209	0.0158635
875.288	0.0158419
875.366	0.0159146
875.444	0.0160207
875.522	0.0160989
875.600	0.0163564
875.678	0.0165042
875.756	0.0166289
875.834	0.0168247
875.913	0.0170853
875.991	0.0173098
876.069	0.0173195
876.147	0.0174007
876.225	0.0175858
876.303	0.0176512
876.381	0.0176122
876.459	0.0176013
876.538	0.0176118
876.616	0.0175397
876.694	0.0175473
876.772	0.0173705
876.850	0.0172904
876.928	0.0170148
877.006	0.0167895
877.084	0.0167912
877.163	0.0166931
877.241	0.0166566
877.319	0.0164884
877.397	0.0164535
877.475	0.0163207
877.553	0.0165221
877.631	0.0163262
877.709	0.0163835
877.788	0.0162402
877.866	0.0160918
877.944	0.0160944
878.022	0.0159766
878.100	0.0158823
878.178	0.0157850
878.256	0.0159570
878.334	0.0158900
878.413	0.0157348
878.491	0.0158179
878.569	0.0158211
878.647	0.0159552
878.725	0.0161324
878.803	0.0160354
878.881	0.0160966
878.959	0.0163403
879.038	0.0162843
879.116	0.0164490
879.194	0.0166326
879.272	0.0166284
879.350	0.0167072
879.428	0.0166740
879.506	0.0166489
879.584	0.0165993
879.663	0.0165255
879.741	0.0163143
879.819	0.0163247
879.897	0.0162536
879.975	0.0161661
880.053	0.0161344
880.131	0.0158948
880.209	0.0160055
880.288	0.0159141
880.366	0.0159665
880.444	0.0159571
880.522	0.0158627
880.600	0.0159827
880.678	0.0160815
880.756	0.0160721
880.834	0.0162125
880.913	0.0163018
880.991	0.0164488
881.069	0.0163876
881.147	0.0164191
881.225	0.0166800
881.303	0.0166171
881.381	0.0166193
881.459	0.0167934
881.538	0.0166869
881.616	0.0168177
881.694	0.0168497
881.772	0.0168239
881.850	0.0168522
881.928	0.0168915
882.006	0.0168652
882.084	0.0169437
882.163	0.0169035
882.241	0.0168524
882.319	0.0169873
882.397	0.0169506
882.475	0.0169204
882.553	0.0169980
882.631	0.0169796
882.709	0.0170767
882.788	0.0168840
882.866	0.0169029
882.944	0.0169001
883.022	0.0168185
883.100	0.0167995
883.178	0.0166744
883.256	0.0164736
883.334	0.0164921
883.413	0.0162976
883.491	0.0161460
883.569	0.0161911
883.647	0.0160075
883.725	0.0159305
883.803	0.0159227
883.881	0.0159589
883.959	0.0159001
884.038	0.0158932
884.116	0.0158592
884.194	0.0161156
884.272	0.0162671
884.350	0.0162983
884.428	0.0164540
884.506	0.0164793
884.584	0.0166338
884.663	0.0166105
884.741	0.0167238
884.819	0.0167687
884.897	0.0166829
884.975	0.0165657
885.053	0.0165209
885.131	0.0164106
885.209	0.0162539
885.288	0.0162366
885.366	0.0161085
885.444	0.0159431
885.522	0.0158168
885.600	0.0159515
885.678	0.0160212
885.756	0.0159798
885.834	0.0160309
885.913	0.0160541
885.991	0.0162290
886.069	0.0163023
886.147	0.0164918
886.225	0.0165867
886.303	0.0166084
886.381	0.0165968
886.459	0.0167373
886.538	0.0168266
886.616	0.0167266
886.694	0.0165712
886.772	0.0166573
886.850	0.0167803
886.928	0.0166721
887.006	0.0165148
887.084	0.0166380
887.163	0.0165873
887.241	0.0164869
887.319	0.0168329
887.397	0.0167056
887.475	0.0166653
887.553	0.0166445
887.631	0.0167113
887.709	0.0165804
887.788	0.0168130
887.866	0.0167482
887.944	0.0164568
888.022	0.0164932
888.100	0.0163721
888.178	0.0164018
888.256	0.0164056
888.334	0.0162814
888.413	0.0162237
888.491	0.0161885
888.569	0.0161210
888.647	0.0160905
888.725	0.0161607
888.803	0.0161604
888.881	0.0161668
888.959	0.0160021
889.038	0.0161599
889.116	0.0163338
889.194	0.0163731
889.272	0.0163412
889.350	0.0166120
889.428	0.0165531
889.506	0.0164967
889.584	0.0166608
889.663	0.0167004
889.741	0.0165282
889.819	0.0168116
889.897	0.0167921
889.975	0.0166218
890.053	0.0167124
890.131	0.0165476
890.209	0.0165091
890.288	0.0164619
890.366	0.0162527
890.444	0.0163347
890.522	0.0162433
890.600	0.0161745
890.678	0.0161314
890.756	0.0161431
890.834	0.0160244
890.913	0.0161705
890.991	0.0161099
891.069	0.0160014
891.147	0.0161536
891.225	0.0161950
891.303	0.0163786
891.381	0.0164165
891.459	0.0164369
891.538	0.0165919
891.616	0.0165739
891.694	0.0166257
891.772	0.0166875
891.850	0.0168261
891.928	0.0168383
892.006	0.0167567
892.084	0.0168551
892.163	0.0167250
892.241	0.0167034
892.319	0.0166856
892.397	0.0166474
892.475	0.0167918
892.553	0.0167513
892.631	0.0165395
892.709	0.0165218
892.788	0.0164411
892.866	0.0164573
892.944	0.0162800
893.022	0.0162357
893.100	0.0162533
893.178	0.0161303
893.256	0.0159769
893.334	0.0159177
893.413	0.0159284
893.491	0.0156696
893.569	0.0158055
893.647	0.0158343
893.725	0.0156155
893.803	0.0156850
893.881	0.0158023
893.959	0.0159837
894.038	0.0158191
894.116	0.0159914
894.194	0.0161428
894.272	0.0162371
894.350	0.0162672
894.428	0.0163792
894.506	0.0165218
894.584	0.0167591
894.663	0.0167841
894.741	0.0167013
894.819	0.0168465
894.897	0.0169153
894.975	0.0169242
895.053	0.0169008
895.131	0.0168788
895.209	0.0169064
895.288	0.0168543
895.366	0.0167072
895.444	0.0167089
895.522	0.0166605
895.600	0.0166499
895.678	0.0166189
895.756	0.0165282
895.834	0.0163622
895.913	0.0163435
895.991	0.0165047
896.069	0.0162496
896.147	0.0163275
896.225	0.0161864
896.303	0.0162946
896.381	0.0162171
896.459	0.0161900
896.538	0.0163570
896.616	0.0163680
896.694	0.0162507
896.772	0.0162715
896.850	0.0164520
896.928	0.0163901
897.006	0.0165108
897.084	0.0165485
897.163	0.0164336
897.241	0.0165121
897.319	0.0167054
897.397	0.0165656
897.475	0.0164101
897.553	0.0164297
897.631	0.0165332
897.709	0.0165213
897.788	0.0164647
897.866	0.0165950
897.944	0.0164835
898.022	0.0164142
898.100	0.0164906
898.178	0.0163373
898.256	0.0163106
898.334	0.0162479
898.413	0.0160845
898.491	0.0161179
898.569	0.0160654
898.647	0.0160384
898.725	0.0159325
898.803	0.0157874
898.881	0.0160336
898.959	0.0158382
899.038	0.0159095
899.116	0.0158386
899.194	0.0160726
899.272	0.0160751
899.350	0.0160030
899.428	0.0161092
899.506	0.0162289
899.584	0.0163890
899.663	0.0164367
899.741	0.0162593
899.819	0.0164827
899.897	0.0166364
899.975	0.0166609
900.053	0.0165750
900.131	0.0165801
900.209	0.0165618
900.288	0.0165340
900.366	0.0166158
900.444	0.0165173
900.522	0.0164724
900.600	0.0164715
900.678	0.0163635
900.756	0.0164191
900.834	0.0162360
900.913	0.0163712
900.991	0.0164156
901.069	0.0161987
901.147	0.0163894
901.225	0.0163596
901.303	0.0162408
901.381	0.0162914
901.459	0.0164290
901.538	0.0162858
901.616	0.0164149
901.694	0.0162324
901.772	0.0163634
901.850	0.0163984
901.928	0.0164720
902.006	0.0163812
902.084	0.0164743
902.163	0.0165760
902.241	0.0165868
902.319	0.0166491
902.397	0.0165763
902.475	0.0165944
902.553	0.0166248
902.631	0.0167081
902.709	0.0168826
902.788	0.0168031
902.866	0.0168053
902.944	0.0167351
903.022	0.0166124
903.100	0.0167442
903.178	0.0165720
903.256	0.0166079
903.334	0.0166141
903.413	0.0165948
903.491	0.0164361
903.569	0.0164874
903.647	0.0163696
903.725	0.0162120
903.803	0.0161580
903.881	0.0162183
903.959	0.0161497
904.038	0.0161165
904.116	0.0161478
904.194	0.0160139
904.272	0.0160287
904.350	0.0162094
904.428	0.0160970
904.506	0.0161745
904.584	0.0162238
904.663	0.0162803
904.741	0.0163603
904.819	0.0165050
904.897	0.0164864
904.975	0.0164244
905.053	0.0164771
905.131	0.0164769
905.209	0.0166335
905.288	0.0166277
905.366	0.0165438
905.444	0.0164825
905.522	0.0165668
905.600	0.0165068
905.678	0.0164902
905.756	0.0163921
905.834	0.0163702
905.913	0.0163888
905.991	0.0164906
906.069	0.0162728
906.147	0.0162786
906.225	0.0161925
906.303	0.0162891
906.381	0.0163072
906.459	0.0163293
906.538	0.0163611
906.616	0.0164352
906.694	0.0163124
906.772	0.0164332
906.850	0.0163728
906.928	0.0162368
907.006	0.0162770
907.084	0.0164722
907.163	0.0164017
907.241	0.0164060
907.319	0.0163364
907.397	0.0163145
907.475	0.0163590
907.553	0.0163434
907.631	0.0164352
907.709	0.0164133
907.788	0.0162993
907.866	0.0163890
907.944	0.0165128
908.022	0.0165291
908.100	0.0165152
908.178	0.0164622
908.256	0.0166191
908.334	0.0164626
908.413	0.0165000
908.491	0.0163483
908.569	0.0164932
908.647	0.0164448
908.725	0.0164529
908.803	0.0163638
908.881	0.0163062
908.959	0.0162570
909.038	0.0162410
909.116	0.0162606
909.194	0.0163573
909.272	0.0161651
909.350	0.0162731
909.428	0.0163347
909.506	0.0162019
909.584	0.0163869
909.663	0.0163548
909.741	0.0163162
909.819	0.0164173
909.897	0.0165347
909.975	0.0165161
910.053	0.0165543
910.131	0.0165241
910.209	0.0165034
910.288	0.0166402
910.366	0.0166151
910.444	0.0165399
910.522	0.0166600
910.600	0.0165477
910.678	0.0166811
910.756	0.0166414
910.834	0.0165015
910.913	0.0164238
910.991	0.0164468
911.069	0.0164778
911.147	0.0164580
911.225	0.0163416
911.303	0.0164302
911.381	0.0163709
911.459	0.0162401
911.538	0.0163641
911.616	0.0162962
911.694	0.0163301
911.772	0.0162975
911.850	0.0161453
911.928	0.0162014
912.006	0.0162706
912.084	0.0160609
912.163	0.0159658
912.241	0.0159148
912.319	0.0159681
912.397	0.0159736
912.475	0.0160279
912.553	0.0158553
912.631	0.0157674
912.709	0.0157612
912.788	0.0159341
912.866	0.0159203
912.944	0.0159722
913.022	0.0159145
913.100	0.0160007
913.178	0.0162099
913.256	0.0160520
913.334	0.0162892
913.413	0.0162849
913.491	0.0162614
913.569	0.0163060
913.647	0.0162780
913.725	0.0164837
913.803	0.0164154
913.881	0.0165078
913.959	0.0164896
914.038	0.0166389
914.116	0.0165459
914.194	0.0164684
914.272	0.0166183
914.350	0.0165851
914.428	0.0166389
914.506	0.0166210
914.584	0.0166877
914.663	0.0168222
914.741	0.0169712
914.819	0.0168760
914.897	0.0167811
914.975	0.0168902
915.053	0.0169183
915.131	0.0169047
915.209	0.0169278
915.288	0.0169800
915.366	0.0168407
915.444	0.0167713
915.522	0.0168537
915.600	0.0169210
915.678	0.0167937
915.756	0.0167503
915.834	0.0167543
915.913	0.0167368
915.991	0.0168111
916.069	0.0167170
916.147	0.0166941
916.225	0.0165722
916.303	0.0164839
916.381	0.0165947
916.459	0.0163953
916.538	0.0163566
916.616	0.0161590
916.694	0.0159425
916.772	0.0160868
916.850	0.0160509
916.928	0.0158156
917.006	0.0157523
917.084	0.0158556
917.163	0.0157024
917.241	0.0156481
917.319	0.0157318
917.397	0.0156165
917.475	0.0156023
917.553	0.0155218
917.631	0.0157417
917.709	0.0157803
917.788	0.0156339
917.866	0.0158592
917.944	0.0158778
918.022	0.0159363
918.100	0.0159208
918.178	0.0161738
918.256	0.0161037
918.334	0.0162515
918.413	0.0163116
918.491	0.0164597
918.569	0.0164314
918.647	0.0165865
918.725	0.0166501
918.803	0.0165770
918.881	0.0167531
918.959	0.0168146
919.038	0.0168317
919.116	0.0168590
919.194	0.0169561
919.272	0.0169714
919.350	0.0169324
919.428	0.0170024
919.506	0.0169150
919.584	0.0169183
919.663	0.0168463
919.741	0.0167142
919.819	0.0167947
919.897	0.0167222
