06/01/2022	17:27:10	Ver.	4.1	UNKNOWN
Optical Delay	599.975067	Delta X		0.078125	Sweeps	1	Scan Rate	0/0
Coordinates	Axis 1	NaN	Axis 2	NaN	Axis 3	NaN	Axis 4	NaN	Axis 5	NaN	Axis 6	0.000000
TX Power	0.000000	RX Power	0.000000

599.975	0.0161176
600.053	0.0161272
600.131	0.0160957
600.209	0.0160223
600.288	0.0160269
600.366	0.0161107
600.444	0.0160210
600.522	0.0161884
600.600	0.0162355
600.678	0.0161375
600.756	0.0160509
600.834	0.0159901
600.913	0.0161501
600.991	0.0159863
601.069	0.0160822
601.147	0.0161423
601.225	0.0161194
601.303	0.0160813
601.381	0.0161085
601.459	0.0160574
601.538	0.0160557
601.616	0.0160509
601.694	0.0161880
601.772	0.0160884
601.850	0.0160424
601.928	0.0160605
602.006	0.0161697
602.084	0.0161117
602.163	0.0160698
602.241	0.0160979
602.319	0.0161442
602.397	0.0160120
602.475	0.0160046
602.553	0.0160522
602.631	0.0161369
602.709	0.0161293
602.788	0.0161757
602.866	0.0160123
602.944	0.0161484
603.022	0.0162984
603.100	0.0162279
603.178	0.0162073
603.256	0.0161118
603.334	0.0161702
603.413	0.0160347
603.491	0.0161987
603.569	0.0161819
603.647	0.0162014
603.725	0.0162051
603.803	0.0162822
603.881	0.0162040
603.959	0.0162154
604.038	0.0162726
604.116	0.0161819
604.194	0.0161745
604.272	0.0160033
604.350	0.0161096
604.428	0.0162022
604.506	0.0162883
604.584	0.0162221
604.663	0.0161216
604.741	0.0162173
604.819	0.0162158
604.897	0.0161719
604.975	0.0161376
605.053	0.0161369
605.131	0.0160738
605.209	0.0160783
605.288	0.0162232
605.366	0.0161793
605.444	0.0161037
605.522	0.0161388
605.600	0.0162106
605.678	0.0162434
605.756	0.0159370
605.834	0.0162120
605.913	0.0162568
605.991	0.0160640
606.069	0.0160880
606.147	0.0160044
606.225	0.0162560
606.303	0.0160430
606.381	0.0159694
606.459	0.0160903
606.538	0.0161256
606.616	0.0161872
606.694	0.0160410
606.772	0.0160348
606.850	0.0159379
606.928	0.0160711
607.006	0.0161256
607.084	0.0161222
607.163	0.0160273
607.241	0.0161714
607.319	0.0161717
607.397	0.0160400
607.475	0.0161734
607.553	0.0162218
607.631	0.0160743
607.709	0.0161642
607.788	0.0161279
607.866	0.0161165
607.944	0.0162132
608.022	0.0161665
608.100	0.0161755
608.178	0.0160555
608.256	0.0162164
608.334	0.0161123
608.413	0.0160619
608.491	0.0161420
608.569	0.0163644
608.647	0.0161926
608.725	0.0161771
608.803	0.0161340
608.881	0.0160732
608.959	0.0162655
609.038	0.0161012
609.116	0.0161543
609.194	0.0161291
609.272	0.0162511
609.350	0.0161814
609.428	0.0161977
609.506	0.0161794
609.584	0.0162958
609.663	0.0161546
609.741	0.0160793
609.819	0.0163152
609.897	0.0162670
609.975	0.0160836
610.053	0.0161955
610.131	0.0160610
610.209	0.0161456
610.288	0.0161038
610.366	0.0161058
610.444	0.0160695
610.522	0.0160810
610.600	0.0160701
610.678	0.0161017
610.756	0.0161282
610.834	0.0162241
610.913	0.0159776
610.991	0.0161156
611.069	0.0161034
611.147	0.0160738
611.225	0.0161800
611.303	0.0159988
611.381	0.0160957
611.459	0.0161477
611.538	0.0160133
611.616	0.0161279
611.694	0.0160229
611.772	0.0159619
611.850	0.0160777
611.928	0.0161323
612.006	0.0160851
612.084	0.0159730
612.163	0.0160968
612.241	0.0162057
612.319	0.0161314
612.397	0.0160881
612.475	0.0160193
612.553	0.0161518
612.631	0.0161413
612.709	0.0160023
612.788	0.0160403
612.866	0.0161256
612.944	0.0160290
613.022	0.0162327
613.100	0.0161600
613.178	0.0162074
613.256	0.0160929
613.334	0.0161398
613.413	0.0161715
613.491	0.0162061
613.569	0.0161456
613.647	0.0162132
613.725	0.0161789
613.803	0.0162689
613.881	0.0161612
613.959	0.0160644
614.038	0.0160683
614.116	0.0161861
614.194	0.0162444
614.272	0.0162607
614.350	0.0161662
614.428	0.0162136
614.506	0.0161665
614.584	0.0162570
614.663	0.0162371
614.741	0.0162064
614.819	0.0162086
614.897	0.0160770
614.975	0.0161569
615.053	0.0162670
615.131	0.0161431
615.209	0.0160851
615.288	0.0162476
615.366	0.0161557
615.444	0.0161556
615.522	0.0161851
615.600	0.0162202
615.678	0.0163014
615.756	0.0161017
615.834	0.0160843
615.913	0.0161564
615.991	0.0162696
616.069	0.0162171
616.147	0.0161523
616.225	0.0161282
616.303	0.0160441
616.381	0.0160660
616.459	0.0162579
616.538	0.0160596
616.616	0.0161417
616.694	0.0161446
616.772	0.0160061
616.850	0.0161682
616.928	0.0160620
617.006	0.0161562
617.084	0.0162204
617.163	0.0161788
617.241	0.0160180
617.319	0.0160384
617.397	0.0159765
617.475	0.0161335
617.553	0.0160233
617.631	0.0160744
617.709	0.0160369
617.788	0.0161408
617.866	0.0160161
617.944	0.0161694
618.022	0.0160249
618.100	0.0158905
618.178	0.0160168
618.256	0.0161362
618.334	0.0161093
618.413	0.0160700
618.491	0.0161552
618.569	0.0160815
618.647	0.0160650
618.725	0.0162295
618.803	0.0161678
618.881	0.0160287
618.959	0.0161398
619.038	0.0159412
619.116	0.0162414
619.194	0.0161313
619.272	0.0161311
619.350	0.0160844
619.428	0.0162131
619.506	0.0160644
619.584	0.0161805
619.663	0.0160252
619.741	0.0160612
619.819	0.0161936
619.897	0.0161232
619.975	0.0160583
620.053	0.0160309
620.131	0.0161941
620.209	0.0162182
620.288	0.0161983
620.366	0.0162328
620.444	0.0162123
620.522	0.0161243
620.600	0.0161990
620.678	0.0160703
620.756	0.0159979
620.834	0.0161697
620.913	0.0161322
620.991	0.0161559
621.069	0.0161494
621.147	0.0161733
621.225	0.0161572
621.303	0.0159951
621.381	0.0161483
621.459	0.0161366
621.538	0.0164092
621.616	0.0160817
621.694	0.0160116
621.772	0.0162523
621.850	0.0161778
621.928	0.0161202
622.006	0.0161241
622.084	0.0160857
622.163	0.0159311
622.241	0.0161856
622.319	0.0161444
622.397	0.0161516
622.475	0.0162485
622.553	0.0161839
622.631	0.0161492
622.709	0.0162116
622.788	0.0160359
622.866	0.0160904
622.944	0.0161302
623.022	0.0162305
623.100	0.0161683
623.178	0.0161755
623.256	0.0162452
623.334	0.0160508
623.413	0.0159949
623.491	0.0161850
623.569	0.0162950
623.647	0.0161529
623.725	0.0161042
623.803	0.0160919
623.881	0.0160915
623.959	0.0161731
624.038	0.0160770
624.116	0.0160591
624.194	0.0160546
624.272	0.0161262
624.350	0.0160622
624.428	0.0161007
624.506	0.0160391
624.584	0.0161597
624.663	0.0161469
624.741	0.0161779
624.819	0.0160788
624.897	0.0161143
624.975	0.0160496
625.053	0.0160358
625.131	0.0161492
625.209	0.0160475
625.288	0.0162290
625.366	0.0160618
625.444	0.0161525
625.522	0.0161545
625.600	0.0160693
625.678	0.0161581
625.756	0.0160436
625.834	0.0160880
625.913	0.0160825
625.991	0.0160840
626.069	0.0160104
626.147	0.0161579
626.225	0.0162080
626.303	0.0161288
626.381	0.0161620
626.459	0.0160645
626.538	0.0159368
626.616	0.0161600
626.694	0.0161474
626.772	0.0160079
626.850	0.0160676
626.928	0.0161468
627.006	0.0161246
627.084	0.0160995
627.163	0.0160816
627.241	0.0161097
627.319	0.0161677
627.397	0.0160395
627.475	0.0160591
627.553	0.0160454
627.631	0.0160251
627.709	0.0160802
627.788	0.0160694
627.866	0.0160967
627.944	0.0160871
628.022	0.0161848
628.100	0.0161002
628.178	0.0161039
628.256	0.0160613
628.334	0.0160328
628.413	0.0161670
628.491	0.0161179
628.569	0.0160376
628.647	0.0160097
628.725	0.0160210
628.803	0.0161785
628.881	0.0161375
628.959	0.0160587
629.038	0.0160535
629.116	0.0160556
629.194	0.0160523
629.272	0.0161973
629.350	0.0161459
629.428	0.0159097
629.506	0.0160879
629.584	0.0161319
629.663	0.0160587
629.741	0.0161667
629.819	0.0162307
629.897	0.0160936
629.975	0.0161181
630.053	0.0160915
630.131	0.0161118
630.209	0.0160732
630.288	0.0160835
630.366	0.0161709
630.444	0.0161081
630.522	0.0159823
630.600	0.0161835
630.678	0.0161298
630.756	0.0161301
630.834	0.0160363
630.913	0.0159819
630.991	0.0161014
631.069	0.0161452
631.147	0.0161197
631.225	0.0161678
631.303	0.0160381
631.381	0.0161430
631.459	0.0161845
631.538	0.0161123
631.616	0.0161066
631.694	0.0160840
631.772	0.0161382
631.850	0.0161604
631.928	0.0161479
632.006	0.0161160
632.084	0.0160032
632.163	0.0160178
632.241	0.0161890
632.319	0.0160695
632.397	0.0160987
632.475	0.0160938
632.553	0.0161016
632.631	0.0161543
632.709	0.0160951
632.788	0.0159690
632.866	0.0160930
632.944	0.0161837
633.022	0.0161039
633.100	0.0161515
633.178	0.0161373
633.256	0.0159901
633.334	0.0160682
633.413	0.0160697
633.491	0.0161463
633.569	0.0160464
633.647	0.0161411
633.725	0.0161007
633.803	0.0160844
633.881	0.0162084
633.959	0.0160759
634.038	0.0159240
634.116	0.0160528
634.194	0.0161810
634.272	0.0160402
634.350	0.0159828
634.428	0.0161198
634.506	0.0160799
634.584	0.0161381
634.663	0.0160166
634.741	0.0160461
634.819	0.0161436
634.897	0.0161039
634.975	0.0163090
635.053	0.0162695
635.131	0.0161018
635.209	0.0160866
635.288	0.0161306
635.366	0.0162517
635.444	0.0161672
635.522	0.0160773
635.600	0.0161116
635.678	0.0161259
635.756	0.0161961
635.834	0.0162383
635.913	0.0160420
635.991	0.0162378
636.069	0.0161937
636.147	0.0160865
636.225	0.0160960
636.303	0.0161287
636.381	0.0163163
636.459	0.0162487
636.538	0.0160721
636.616	0.0160543
636.694	0.0160557
636.772	0.0161027
636.850	0.0161288
636.928	0.0161397
637.006	0.0160530
637.084	0.0161454
637.163	0.0161740
637.241	0.0161600
637.319	0.0161471
637.397	0.0159859
637.475	0.0160831
637.553	0.0160311
637.631	0.0161385
637.709	0.0159727
637.788	0.0159875
637.866	0.0161861
637.944	0.0161581
638.022	0.0161829
638.100	0.0160966
638.178	0.0160352
638.256	0.0161362
638.334	0.0162421
638.413	0.0161256
638.491	0.0160255
638.569	0.0162085
638.647	0.0161944
638.725	0.0161304
638.803	0.0160345
638.881	0.0159763
638.959	0.0159975
639.038	0.0161294
639.116	0.0161755
639.194	0.0161259
639.272	0.0162028
639.350	0.0161436
639.428	0.0161510
639.506	0.0160425
639.584	0.0160886
639.663	0.0161160
639.741	0.0161765
639.819	0.0162161
639.897	0.0161089
639.975	0.0161286
640.053	0.0159589
640.131	0.0158807
640.209	0.0161245
640.288	0.0162490
640.366	0.0160675
640.444	0.0161388
640.522	0.0162071
640.600	0.0161078
640.678	0.0161087
640.756	0.0162682
640.834	0.0161809
640.913	0.0161375
640.991	0.0159927
641.069	0.0160584
641.147	0.0161117
641.225	0.0161799
641.303	0.0160669
641.381	0.0161517
641.459	0.0161924
641.538	0.0161527
641.616	0.0160830
641.694	0.0161648
641.772	0.0162115
641.850	0.0161414
641.928	0.0160312
642.006	0.0161770
642.084	0.0161819
642.163	0.0161063
642.241	0.0159715
642.319	0.0162074
642.397	0.0160889
642.475	0.0162058
642.553	0.0161517
642.631	0.0161734
642.709	0.0160035
642.788	0.0161260
642.866	0.0159763
642.944	0.0162141
643.022	0.0162308
643.100	0.0160759
643.178	0.0160641
643.256	0.0160929
643.334	0.0162087
643.413	0.0161140
643.491	0.0161336
643.569	0.0161935
643.647	0.0161562
643.725	0.0161414
643.803	0.0162264
643.881	0.0160814
643.959	0.0162228
644.038	0.0162107
644.116	0.0161893
644.194	0.0160584
644.272	0.0161343
644.350	0.0163169
644.428	0.0162388
644.506	0.0160880
644.584	0.0162379
644.663	0.0161642
644.741	0.0161349
644.819	0.0161700
644.897	0.0162242
644.975	0.0161118
645.053	0.0160262
645.131	0.0161989
645.209	0.0160422
645.288	0.0162083
645.366	0.0161523
645.444	0.0161543
645.522	0.0161262
645.600	0.0161229
645.678	0.0161941
645.756	0.0161316
645.834	0.0159734
645.913	0.0161349
645.991	0.0162396
646.069	0.0162218
646.147	0.0161646
646.225	0.0161768
646.303	0.0161564
646.381	0.0159500
646.459	0.0161469
646.538	0.0162132
646.616	0.0159233
646.694	0.0161204
646.772	0.0162613
646.850	0.0161679
646.928	0.0162315
647.006	0.0160937
647.084	0.0162276
647.163	0.0161778
647.241	0.0161070
647.319	0.0161800
647.397	0.0162111
647.475	0.0161228
647.553	0.0160645
647.631	0.0161286
647.709	0.0161181
647.788	0.0160610
647.866	0.0159792
647.944	0.0159842
648.022	0.0161015
648.100	0.0161243
648.178	0.0161269
648.256	0.0160831
648.334	0.0159798
648.413	0.0160882
648.491	0.0161922
648.569	0.0161084
648.647	0.0161002
648.725	0.0160940
648.803	0.0161287
648.881	0.0161534
648.959	0.0162885
649.038	0.0161231
649.116	0.0162333
649.194	0.0162563
649.272	0.0160633
649.350	0.0161111
649.428	0.0162215
649.506	0.0161676
649.584	0.0160979
649.663	0.0160544
649.741	0.0160275
649.819	0.0162729
649.897	0.0161355
649.975	0.0161992
650.053	0.0161703
650.131	0.0161267
650.209	0.0160361
650.288	0.0163262
650.366	0.0161946
650.444	0.0161666
650.522	0.0161430
650.600	0.0162086
650.678	0.0161125
650.756	0.0162640
650.834	0.0163007
650.913	0.0161392
650.991	0.0161092
651.069	0.0162115
651.147	0.0161490
651.225	0.0161208
651.303	0.0160629
651.381	0.0161272
651.459	0.0161684
651.538	0.0160989
651.616	0.0161080
651.694	0.0161954
651.772	0.0161797
651.850	0.0161610
651.928	0.0161747
652.006	0.0161317
652.084	0.0162037
652.163	0.0160968
652.241	0.0161097
652.319	0.0160931
652.397	0.0160621
652.475	0.0160703
652.553	0.0162055
652.631	0.0161811
652.709	0.0160463
652.788	0.0160685
652.866	0.0160156
652.944	0.0159392
653.022	0.0161274
653.100	0.0161760
653.178	0.0161095
653.256	0.0160399
653.334	0.0161234
653.413	0.0161160
653.491	0.0162267
653.569	0.0161025
653.647	0.0161520
653.725	0.0162733
653.803	0.0163140
653.881	0.0161487
653.959	0.0162507
654.038	0.0163020
654.116	0.0161476
654.194	0.0163509
654.272	0.0162399
654.350	0.0161020
654.428	0.0162620
654.506	0.0163251
654.584	0.0162675
654.663	0.0162188
654.741	0.0161578
654.819	0.0161484
654.897	0.0162079
654.975	0.0164052
655.053	0.0162254
655.131	0.0162444
655.209	0.0160332
655.288	0.0160780
655.366	0.0162018
655.444	0.0160266
655.522	0.0161751
655.600	0.0160002
655.678	0.0161025
655.756	0.0160149
655.834	0.0159791
655.913	0.0160078
655.991	0.0162434
656.069	0.0160371
656.147	0.0159866
656.225	0.0159147
656.303	0.0160543
656.381	0.0158777
656.459	0.0160171
656.538	0.0160194
656.616	0.0160298
656.694	0.0159627
656.772	0.0158038
656.850	0.0158781
656.928	0.0158933
657.006	0.0160546
657.084	0.0159815
657.163	0.0160488
657.241	0.0161697
657.319	0.0162495
657.397	0.0162822
657.475	0.0163831
657.553	0.0165300
657.631	0.0164375
657.709	0.0165159
657.788	0.0164684
657.866	0.0163697
657.944	0.0163833
658.022	0.0162396
658.100	0.0160863
658.178	0.0159321
658.256	0.0159822
658.334	0.0159607
658.413	0.0159729
658.491	0.0159052
658.569	0.0160406
658.647	0.0161958
658.725	0.0161958
658.803	0.0163559
658.881	0.0167345
658.959	0.0166235
659.038	0.0167373
659.116	0.0168176
659.194	0.0167062
659.272	0.0166731
659.350	0.0165949
659.428	0.0162644
659.506	0.0161656
659.584	0.0159942
659.663	0.0157834
659.741	0.0156106
659.819	0.0153555
659.897	0.0151191
659.975	0.0149847
660.053	0.0147955
660.131	0.0147826
660.209	0.0148241
660.288	0.0148601
660.366	0.0149545
660.444	0.0151768
660.522	0.0152740
660.600	0.0155279
660.678	0.0156926
660.756	0.0160481
660.834	0.0162156
660.913	0.0167555
660.991	0.0169627
661.069	0.0171333
661.147	0.0174683
661.225	0.0176049
661.303	0.0176475
661.381	0.0177010
661.459	0.0174915
661.538	0.0173743
661.616	0.0173456
661.694	0.0169873
661.772	0.0167208
661.850	0.0165059
661.928	0.0161878
662.006	0.0159078
662.084	0.0157198
662.163	0.0155575
662.241	0.0153220
662.319	0.0150779
662.397	0.0149984
662.475	0.0150443
662.553	0.0150996
662.631	0.0150710
662.709	0.0153027
662.788	0.0153938
662.866	0.0157178
662.944	0.0159367
663.022	0.0163666
663.100	0.0166689
663.178	0.0170975
663.256	0.0173611
663.334	0.0177207
663.413	0.0179232
663.491	0.0180178
663.569	0.0180900
663.647	0.0180701
663.725	0.0178370
663.803	0.0175217
663.881	0.0171466
663.959	0.0165881
664.038	0.0160686
664.116	0.0155788
664.194	0.0149484
664.272	0.0145029
664.350	0.0140831
664.428	0.0137469
664.506	0.0134853
664.584	0.0134396
664.663	0.0134873
664.741	0.0135125
664.819	0.0137424
664.897	0.0139216
664.975	0.0141714
665.053	0.0143280
665.131	0.0145465
665.209	0.0148585
665.288	0.0153114
665.366	0.0154171
665.444	0.0159215
665.522	0.0161535
665.600	0.0166471
665.678	0.0169007
665.756	0.0173713
665.834	0.0178771
665.913	0.0180678
665.991	0.0184404
666.069	0.0186300
666.147	0.0188004
666.225	0.0189306
666.303	0.0190566
666.381	0.0189869
666.459	0.0187788
666.538	0.0185646
666.616	0.0183054
666.694	0.0178426
666.772	0.0175128
666.850	0.0172435
666.928	0.0167481
667.006	0.0164113
667.084	0.0160075
667.163	0.0157605
667.241	0.0155927
667.319	0.0154124
667.397	0.0152416
667.475	0.0151445
667.553	0.0152854
667.631	0.0150919
667.709	0.0149412
667.788	0.0148936
667.866	0.0148872
667.944	0.0146214
668.022	0.0144374
668.100	0.0142882
668.178	0.0138689
668.256	0.0136362
668.334	0.0132578
668.413	0.0130114
668.491	0.0128827
668.569	0.0127451
668.647	0.0126231
668.725	0.0128501
668.803	0.0132100
668.881	0.0135599
668.959	0.0140707
669.038	0.0149095
669.116	0.0157671
669.194	0.0166754
669.272	0.0176950
669.350	0.0186159
669.428	0.0193697
669.506	0.0202479
669.584	0.0208817
669.663	0.0214429
669.741	0.0218000
669.819	0.0220910
669.897	0.0220563
669.975	0.0219040
670.053	0.0214339
670.131	0.0207949
670.209	0.0203487
670.288	0.0196229
670.366	0.0188285
670.444	0.0181306
670.522	0.0172503
670.600	0.0164650
670.678	0.0159129
670.756	0.0149685
670.834	0.0143633
670.913	0.0136927
670.991	0.0131490
671.069	0.0126371
671.147	0.0121583
671.225	0.0116675
671.303	0.0111224
671.381	0.0108630
671.459	0.0106601
671.538	0.0107112
671.616	0.0106356
671.694	0.0108131
671.772	0.0108997
671.850	0.0110943
671.928	0.0114102
672.006	0.0117530
672.084	0.0122675
672.163	0.0128392
672.241	0.0135263
672.319	0.0143495
672.397	0.0149274
672.475	0.0155341
672.553	0.0164622
672.631	0.0172592
672.709	0.0181018
672.788	0.0187701
672.866	0.0195605
672.944	0.0198805
673.022	0.0204802
673.100	0.0207439
673.178	0.0210233
673.256	0.0213418
673.334	0.0214508
673.413	0.0214336
673.491	0.0213945
673.569	0.0213247
673.647	0.0212128
673.725	0.0210931
673.803	0.0207593
673.881	0.0205508
673.959	0.0202319
674.038	0.0198064
674.116	0.0193818
674.194	0.0189310
674.272	0.0185382
674.350	0.0179406
674.428	0.0175026
674.506	0.0170432
674.584	0.0165775
674.663	0.0161394
674.741	0.0156337
674.819	0.0151905
674.897	0.0148695
674.975	0.0145673
675.053	0.0141643
675.131	0.0138716
675.209	0.0134998
675.288	0.0131249
675.366	0.0129791
675.444	0.0127108
675.522	0.0123046
675.600	0.0121369
675.678	0.0117837
675.756	0.0114261
675.834	0.0111890
675.913	0.0109370
675.991	0.0105358
676.069	0.0103766
676.147	0.0101830
676.225	0.0100549
676.303	0.0100184
676.381	0.0100054
676.459	0.0103243
676.538	0.0107066
676.616	0.0111631
676.694	0.0116032
676.772	0.0121141
676.850	0.0129770
676.928	0.0138977
677.006	0.0149324
677.084	0.0155737
677.163	0.0164028
677.241	0.0174198
677.319	0.0183447
677.397	0.0189909
677.475	0.0198603
677.553	0.0205122
677.631	0.0212620
677.709	0.0220830
677.788	0.0226845
677.866	0.0232860
677.944	0.0236627
678.022	0.0240463
678.100	0.0242252
678.178	0.0243273
678.256	0.0242611
678.334	0.0239999
678.413	0.0237127
678.491	0.0234186
678.569	0.0228915
678.647	0.0222419
678.725	0.0216653
678.803	0.0207433
678.881	0.0198563
678.959	0.0190199
679.038	0.0182359
679.116	0.0173687
679.194	0.0166383
679.272	0.0160076
679.350	0.0153716
679.428	0.0144758
679.506	0.0141295
679.584	0.0136835
679.663	0.0131239
679.741	0.0126492
679.819	0.0125867
679.897	0.0121917
679.975	0.0118948
680.053	0.0118017
680.131	0.0116473
680.209	0.0115499
680.288	0.0115696
680.366	0.0116618
680.444	0.0116061
680.522	0.0116854
680.600	0.0116281
680.678	0.0116209
680.756	0.0113972
680.834	0.0113611
680.913	0.0109590
680.991	0.0106937
681.069	0.0101955
681.147	0.0100428
681.225	0.00951828
681.303	0.00935333
681.381	0.00909035
681.459	0.00916145
681.538	0.00930000
681.616	0.00964180
681.694	0.0102607
681.772	0.0108848
681.850	0.0117296
681.928	0.0126949
682.006	0.0139572
682.084	0.0152764
682.163	0.0165087
682.241	0.0178695
682.319	0.0193715
682.397	0.0204823
682.475	0.0214728
682.553	0.0226617
682.631	0.0234997
682.709	0.0243982
682.788	0.0251777
682.866	0.0254848
682.944	0.0260641
683.022	0.0264268
683.100	0.0264315
683.178	0.0265814
683.256	0.0264109
683.334	0.0264776
683.413	0.0260365
683.491	0.0255997
683.569	0.0251871
683.647	0.0246657
683.725	0.0237766
683.803	0.0230550
683.881	0.0218974
683.959	0.0206432
684.038	0.0194701
684.116	0.0180123
684.194	0.0166097
684.272	0.0150260
684.350	0.0136800
684.428	0.0124106
684.506	0.0113783
684.584	0.0103174
684.663	0.00937180
684.741	0.00868927
684.819	0.00849556
684.897	0.00868797
684.975	0.00881783
685.053	0.00920433
685.131	0.00968674
685.209	0.0103164
685.288	0.0109420
685.366	0.0117168
685.444	0.0123108
685.522	0.0126064
685.600	0.0130061
685.678	0.0132351
685.756	0.0133737
685.834	0.0132629
685.913	0.0133514
685.991	0.0131657
686.069	0.0128423
686.147	0.0127481
686.225	0.0126166
686.303	0.0124156
686.381	0.0121844
686.459	0.0122225
686.538	0.0121059
686.616	0.0120813
686.694	0.0122283
686.772	0.0122026
686.850	0.0122395
686.928	0.0124834
687.006	0.0127212
687.084	0.0131215
687.163	0.0134307
687.241	0.0138714
687.319	0.0143970
687.397	0.0149781
687.475	0.0155688
687.553	0.0166232
687.631	0.0174399
687.709	0.0183179
687.788	0.0192867
687.866	0.0201779
687.944	0.0211099
688.022	0.0221268
688.100	0.0228844
688.178	0.0236819
688.256	0.0243824
688.334	0.0248293
688.413	0.0252985
688.491	0.0258723
688.569	0.0261172
688.647	0.0264055
688.725	0.0264449
688.803	0.0264334
688.881	0.0263366
688.959	0.0260812
689.038	0.0253908
689.116	0.0246283
689.194	0.0236948
689.272	0.0224251
689.350	0.0209002
689.428	0.0192548
689.506	0.0175346
689.584	0.0158056
689.663	0.0141090
689.741	0.0125403
689.819	0.0111282
689.897	0.00999069
689.975	0.00912521
690.053	0.00841400
690.131	0.00841347
690.209	0.00850708
690.288	0.00866486
690.366	0.00928268
690.444	0.00978027
690.522	0.0104927
690.600	0.0112405
690.678	0.0117744
690.756	0.0123336
690.834	0.0126629
690.913	0.0127515
690.991	0.0129148
691.069	0.0130950
691.147	0.0126437
691.225	0.0124648
691.303	0.0121841
691.381	0.0117101
691.459	0.0114687
691.538	0.0111184
691.616	0.0109387
691.694	0.0108221
691.772	0.0108702
691.850	0.0110126
691.928	0.0111133
692.006	0.0115616
692.084	0.0120020
692.163	0.0125754
692.241	0.0132220
692.319	0.0136747
692.397	0.0143549
692.475	0.0149198
692.553	0.0155029
692.631	0.0159814
692.709	0.0166602
692.788	0.0170657
692.866	0.0178316
692.944	0.0183342
693.022	0.0192229
693.100	0.0198901
693.178	0.0204774
693.256	0.0213132
693.334	0.0218007
693.413	0.0223357
693.491	0.0230710
693.569	0.0235628
693.647	0.0239001
693.725	0.0241878
693.803	0.0242702
693.881	0.0242745
693.959	0.0240961
694.038	0.0239632
694.116	0.0235226
694.194	0.0231731
694.272	0.0226530
694.350	0.0223178
694.428	0.0217558
694.506	0.0211078
694.584	0.0204261
694.663	0.0196241
694.741	0.0185898
694.819	0.0178606
694.897	0.0169767
694.975	0.0159685
695.053	0.0150275
695.131	0.0142902
695.209	0.0135802
695.288	0.0129328
695.366	0.0125278
695.444	0.0123654
695.522	0.0123708
695.600	0.0124393
695.678	0.0126791
695.756	0.0129297
695.834	0.0132037
695.913	0.0136309
695.991	0.0138410
696.069	0.0142384
696.147	0.0142731
696.225	0.0140869
696.303	0.0139886
696.381	0.0136301
696.459	0.0132478
696.538	0.0126610
696.616	0.0122136
696.694	0.0115791
696.772	0.0110950
696.850	0.0105992
696.928	0.0100570
697.006	0.00978180
697.084	0.00964005
697.163	0.00935020
697.241	0.00923714
697.319	0.00952896
697.397	0.00980621
697.475	0.0103515
697.553	0.0109171
697.631	0.0115814
697.709	0.0122520
697.788	0.0131464
697.866	0.0140417
697.944	0.0148579
698.022	0.0158316
698.100	0.0168430
698.178	0.0177743
698.256	0.0184510
698.334	0.0193148
698.413	0.0199672
698.491	0.0206371
698.569	0.0212438
698.647	0.0217487
698.725	0.0221045
698.803	0.0227007
698.881	0.0226167
698.959	0.0228183
699.038	0.0229692
699.116	0.0228132
699.194	0.0225758
699.272	0.0223434
699.350	0.0219975
699.428	0.0215350
699.506	0.0208759
699.584	0.0205372
699.663	0.0199216
699.741	0.0192039
699.819	0.0185453
699.897	0.0180177
699.975	0.0175217
700.053	0.0168465
700.131	0.0162621
700.209	0.0158355
700.288	0.0154070
700.366	0.0153303
700.444	0.0150108
700.522	0.0148502
700.600	0.0147959
700.678	0.0149892
700.756	0.0150745
700.834	0.0152396
700.913	0.0156532
700.991	0.0159375
701.069	0.0161855
701.147	0.0165219
701.225	0.0167019
701.303	0.0170486
701.381	0.0171181
701.459	0.0171603
701.538	0.0169849
701.616	0.0167378
701.694	0.0164171
701.772	0.0158342
701.850	0.0151472
701.928	0.0145683
702.006	0.0139727
702.084	0.0132616
702.163	0.0123103
702.241	0.0117629
702.319	0.0113106
702.397	0.0108012
702.475	0.0106411
702.553	0.0102934
702.631	0.0102837
702.709	0.0104425
702.788	0.0108328
702.866	0.0111789
702.944	0.0117035
703.022	0.0121729
703.100	0.0125986
703.178	0.0131535
703.256	0.0137391
703.334	0.0143651
703.413	0.0146379
703.491	0.0153196
703.569	0.0158030
703.647	0.0162443
703.725	0.0168230
703.803	0.0174326
703.881	0.0178898
703.959	0.0184602
704.038	0.0188794
704.116	0.0194038
704.194	0.0196765
704.272	0.0198124
704.350	0.0199738
704.428	0.0200773
704.506	0.0201747
704.584	0.0199340
704.663	0.0195918
704.741	0.0193580
704.819	0.0191388
704.897	0.0186952
704.975	0.0181580
705.053	0.0177621
705.131	0.0171446
705.209	0.0167478
705.288	0.0164069
705.366	0.0160207
705.444	0.0156432
705.522	0.0154398
705.600	0.0153076
705.678	0.0154500
705.756	0.0155794
705.834	0.0156564
705.913	0.0156923
705.991	0.0161317
706.069	0.0163862
706.147	0.0169039
706.225	0.0170290
706.303	0.0173183
706.381	0.0175680
706.459	0.0177723
706.538	0.0177629
706.616	0.0177858
706.694	0.0177546
706.772	0.0175999
706.850	0.0175491
706.928	0.0172664
707.006	0.0169408
707.084	0.0165527
707.163	0.0162772
707.241	0.0158095
707.319	0.0154088
707.397	0.0151778
707.475	0.0146463
707.553	0.0141684
707.631	0.0138914
707.709	0.0136787
707.788	0.0133878
707.866	0.0133251
707.944	0.0133039
708.022	0.0133831
708.100	0.0135869
708.178	0.0136063
708.256	0.0140952
708.334	0.0145351
708.413	0.0150300
708.491	0.0153224
708.569	0.0157603
708.647	0.0162482
708.725	0.0167365
708.803	0.0170831
708.881	0.0175179
708.959	0.0176817
709.038	0.0180155
709.116	0.0181931
709.194	0.0183693
709.272	0.0182578
709.350	0.0182014
709.428	0.0181139
709.506	0.0179727
709.584	0.0176363
709.663	0.0172421
709.741	0.0168894
709.819	0.0166220
709.897	0.0161050
709.975	0.0154956
710.053	0.0151067
710.131	0.0144817
710.209	0.0140046
710.288	0.0136606
710.366	0.0133748
710.444	0.0131382
710.522	0.0128442
710.600	0.0128703
710.678	0.0129565
710.756	0.0129693
710.834	0.0131310
710.913	0.0136245
710.991	0.0138548
711.069	0.0143144
711.147	0.0147037
711.225	0.0152929
711.303	0.0159332
711.381	0.0164204
711.459	0.0168602
711.538	0.0174172
711.616	0.0178315
711.694	0.0180885
711.772	0.0183896
711.850	0.0185414
711.928	0.0188979
712.006	0.0188766
712.084	0.0189108
712.163	0.0187263
712.241	0.0187734
712.319	0.0185261
712.397	0.0183093
712.475	0.0179774
712.553	0.0178201
712.631	0.0174489
712.709	0.0170727
712.788	0.0167134
712.866	0.0164461
712.944	0.0160339
713.022	0.0157944
713.100	0.0156621
713.178	0.0154236
713.256	0.0153538
713.334	0.0153709
713.413	0.0152887
713.491	0.0154163
713.569	0.0154706
713.647	0.0155061
713.725	0.0158696
713.803	0.0160196
713.881	0.0161703
713.959	0.0165870
714.038	0.0168874
714.116	0.0170455
714.194	0.0172549
714.272	0.0174374
714.350	0.0175916
714.428	0.0178237
714.506	0.0179493
714.584	0.0178953
714.663	0.0178342
714.741	0.0178802
714.819	0.0177087
714.897	0.0176860
714.975	0.0174688
715.053	0.0173615
715.131	0.0170151
715.209	0.0166844
715.288	0.0163914
715.366	0.0161102
715.444	0.0155305
715.522	0.0149477
715.600	0.0146051
715.678	0.0143098
715.756	0.0140181
715.834	0.0137582
715.913	0.0134294
715.991	0.0131992
716.069	0.0130581
716.147	0.0129550
716.225	0.0131055
716.303	0.0131431
716.381	0.0133756
716.459	0.0137933
716.538	0.0140176
716.616	0.0144574
716.694	0.0147283
716.772	0.0151156
716.850	0.0154264
716.928	0.0156477
717.006	0.0159302
717.084	0.0161182
717.163	0.0162649
717.241	0.0163607
717.319	0.0164632
717.397	0.0165575
717.475	0.0165110
717.553	0.0164026
717.631	0.0163332
717.709	0.0163866
717.788	0.0162968
717.866	0.0162329
717.944	0.0162326
718.022	0.0161380
718.100	0.0161895
718.178	0.0161458
718.256	0.0161411
718.334	0.0162353
718.413	0.0161866
718.491	0.0164831
718.569	0.0165546
718.647	0.0166074
718.725	0.0166530
718.803	0.0167532
718.881	0.0171263
718.959	0.0172544
719.038	0.0173792
719.116	0.0175159
719.194	0.0175662
719.272	0.0176698
719.350	0.0177714
719.428	0.0179338
719.506	0.0179973
719.584	0.0179279
719.663	0.0180208
719.741	0.0180594
719.819	0.0178114
719.897	0.0180019
719.975	0.0180333
720.053	0.0177702
720.131	0.0175983
720.209	0.0176253
720.288	0.0174152
720.366	0.0171417
720.444	0.0170735
720.522	0.0167510
720.600	0.0165096
720.678	0.0161805
720.756	0.0159109
720.834	0.0155585
720.913	0.0152087
720.991	0.0149616
721.069	0.0147903
721.147	0.0143776
721.225	0.0140538
721.303	0.0141853
721.381	0.0141839
721.459	0.0140603
721.538	0.0142306
721.616	0.0143279
721.694	0.0144430
721.772	0.0146964
721.850	0.0149212
721.928	0.0152657
722.006	0.0158021
722.084	0.0159469
722.163	0.0162358
722.241	0.0165727
722.319	0.0170247
722.397	0.0171066
722.475	0.0170668
722.553	0.0170883
722.631	0.0172518
722.709	0.0171925
722.788	0.0171721
722.866	0.0167667
722.944	0.0166118
723.022	0.0165476
723.100	0.0161658
723.178	0.0158398
723.256	0.0154911
723.334	0.0152875
723.413	0.0151279
723.491	0.0148479
723.569	0.0145459
723.647	0.0142922
723.725	0.0141483
723.803	0.0141775
723.881	0.0140702
723.959	0.0140691
724.038	0.0141074
724.116	0.0140862
724.194	0.0142118
724.272	0.0142898
724.350	0.0145336
724.428	0.0147040
724.506	0.0149362
724.584	0.0151321
724.663	0.0154012
724.741	0.0157766
724.819	0.0159697
724.897	0.0163027
724.975	0.0166496
725.053	0.0169911
725.131	0.0172906
725.209	0.0173976
725.288	0.0175911
725.366	0.0178872
725.444	0.0180022
725.522	0.0181754
725.600	0.0181557
725.678	0.0182230
725.756	0.0182506
725.834	0.0181799
725.913	0.0181115
725.991	0.0180057
726.069	0.0177537
726.147	0.0175088
726.225	0.0173279
726.303	0.0170630
726.381	0.0167406
726.459	0.0165689
726.538	0.0163058
726.616	0.0160880
726.694	0.0159582
726.772	0.0157834
726.850	0.0158584
726.928	0.0156942
727.006	0.0157156
727.084	0.0158112
727.163	0.0159225
727.241	0.0160650
727.319	0.0161333
727.397	0.0162988
727.475	0.0165137
727.553	0.0165609
727.631	0.0167269
727.709	0.0167622
727.788	0.0167299
727.866	0.0167848
727.944	0.0167814
728.022	0.0169757
728.100	0.0167886
728.178	0.0167298
728.256	0.0164590
728.334	0.0163612
728.413	0.0160981
728.491	0.0160042
728.569	0.0158921
728.647	0.0154742
728.725	0.0153220
728.803	0.0152963
728.881	0.0150787
728.959	0.0148905
729.038	0.0148578
729.116	0.0149186
729.194	0.0146347
729.272	0.0147340
729.350	0.0144571
729.428	0.0147498
729.506	0.0147450
729.584	0.0147471
729.663	0.0149258
729.741	0.0149133
729.819	0.0149235
729.897	0.0148801
729.975	0.0150725
730.053	0.0152288
730.131	0.0154335
730.209	0.0155975
730.288	0.0156536
730.366	0.0157755
730.444	0.0159517
730.522	0.0160719
730.600	0.0162612
730.678	0.0163626
730.756	0.0164204
730.834	0.0165867
730.913	0.0166142
730.991	0.0164803
731.069	0.0166329
731.147	0.0166235
731.225	0.0165702
731.303	0.0164240
731.381	0.0163107
731.459	0.0162573
731.538	0.0161610
731.616	0.0158754
731.694	0.0159143
731.772	0.0159634
731.850	0.0159740
731.928	0.0157806
732.006	0.0158768
732.084	0.0159497
732.163	0.0160970
732.241	0.0161353
732.319	0.0163038
732.397	0.0165187
732.475	0.0166277
732.553	0.0168685
732.631	0.0170891
732.709	0.0170759
732.788	0.0171239
732.866	0.0173604
732.944	0.0176228
733.022	0.0175903
733.100	0.0173868
733.178	0.0173379
733.256	0.0175704
733.334	0.0174252
733.413	0.0173164
733.491	0.0172338
733.569	0.0171066
733.647	0.0170842
733.725	0.0168815
733.803	0.0166989
733.881	0.0166742
733.959	0.0165620
734.038	0.0163448
734.116	0.0161993
734.194	0.0161045
734.272	0.0158504
734.350	0.0157484
734.428	0.0157815
734.506	0.0156175
734.584	0.0155518
734.663	0.0154199
734.741	0.0153735
734.819	0.0154330
734.897	0.0154678
734.975	0.0153563
735.053	0.0153127
735.131	0.0152951
735.209	0.0153177
735.288	0.0153493
735.366	0.0155914
735.444	0.0153832
735.522	0.0154954
735.600	0.0158337
735.678	0.0158097
735.756	0.0159333
735.834	0.0158286
735.913	0.0160136
735.991	0.0163708
736.069	0.0163269
736.147	0.0164363
736.225	0.0165342
736.303	0.0165441
736.381	0.0164317
736.459	0.0165341
736.538	0.0164908
736.616	0.0164642
736.694	0.0163480
736.772	0.0163127
736.850	0.0160873
736.928	0.0159204
737.006	0.0159971
737.084	0.0158548
737.163	0.0157245
737.241	0.0156444
737.319	0.0154076
737.397	0.0154568
737.475	0.0153431
737.553	0.0154427
737.631	0.0154727
737.709	0.0153143
737.788	0.0153497
737.866	0.0155658
737.944	0.0156398
738.022	0.0155935
738.100	0.0159011
738.178	0.0158368
738.256	0.0157974
738.334	0.0159587
738.413	0.0164014
738.491	0.0161793
738.569	0.0162805
738.647	0.0162802
738.725	0.0160839
738.803	0.0161285
738.881	0.0162974
738.959	0.0161021
739.038	0.0161309
739.116	0.0160036
739.194	0.0161297
739.272	0.0159649
739.350	0.0161384
739.428	0.0159244
739.506	0.0160583
739.584	0.0161177
739.663	0.0160342
739.741	0.0158599
739.819	0.0161633
739.897	0.0162649
739.975	0.0163975
740.053	0.0162899
740.131	0.0163851
740.209	0.0165379
740.288	0.0166370
740.366	0.0166333
740.444	0.0167530
740.522	0.0167403
740.600	0.0167553
740.678	0.0168548
740.756	0.0168118
740.834	0.0166440
740.913	0.0167263
740.991	0.0166646
741.069	0.0167394
741.147	0.0166777
741.225	0.0166319
741.303	0.0167163
741.381	0.0167096
741.459	0.0166595
741.538	0.0168342
741.616	0.0167367
741.694	0.0167096
741.772	0.0167751
741.850	0.0168178
741.928	0.0166525
742.006	0.0165883
742.084	0.0165599
742.163	0.0164645
742.241	0.0163963
742.319	0.0161333
742.397	0.0160603
742.475	0.0160294
742.553	0.0160564
742.631	0.0159336
742.709	0.0157819
742.788	0.0156825
742.866	0.0156667
742.944	0.0157716
743.022	0.0157071
743.100	0.0156057
743.178	0.0157233
743.256	0.0156512
743.334	0.0157052
743.413	0.0157259
743.491	0.0156964
743.569	0.0157552
743.647	0.0156782
743.725	0.0157519
743.803	0.0155749
743.881	0.0156548
743.959	0.0156891
744.038	0.0154988
744.116	0.0155157
744.194	0.0155983
744.272	0.0156588
744.350	0.0154010
744.428	0.0152905
744.506	0.0154216
744.584	0.0156013
744.663	0.0153806
744.741	0.0154442
744.819	0.0157335
744.897	0.0156435
744.975	0.0157648
745.053	0.0157122
745.131	0.0157046
745.209	0.0159354
745.288	0.0160352
745.366	0.0160632
745.444	0.0162174
745.522	0.0163907
745.600	0.0162580
745.678	0.0163881
745.756	0.0163007
745.834	0.0162717
745.913	0.0165633
745.991	0.0164968
746.069	0.0164639
746.147	0.0165740
746.225	0.0165118
746.303	0.0163403
746.381	0.0164285
746.459	0.0163999
746.538	0.0164175
746.616	0.0163736
746.694	0.0164101
746.772	0.0164933
746.850	0.0164684
746.928	0.0165415
747.006	0.0165987
747.084	0.0164762
747.163	0.0166532
747.241	0.0166734
747.319	0.0167411
747.397	0.0167500
747.475	0.0166973
747.553	0.0166335
747.631	0.0165717
747.709	0.0164508
747.788	0.0164339
747.866	0.0164407
747.944	0.0162358
748.022	0.0163229
748.100	0.0161814
748.178	0.0160172
748.256	0.0161321
748.334	0.0161893
748.413	0.0160966
748.491	0.0161243
748.569	0.0160777
748.647	0.0162926
748.725	0.0163641
748.803	0.0163862
748.881	0.0164606
748.959	0.0163749
749.038	0.0163654
749.116	0.0165443
749.194	0.0165952
749.272	0.0165599
749.350	0.0165804
749.428	0.0164548
749.506	0.0164089
749.584	0.0163474
749.663	0.0163232
749.741	0.0163121
749.819	0.0160888
749.897	0.0160894
749.975	0.0160287
750.053	0.0159534
750.131	0.0160086
750.209	0.0160051
750.288	0.0159969
750.366	0.0160704
750.444	0.0158709
750.522	0.0160365
750.600	0.0160365
750.678	0.0159422
750.756	0.0160115
750.834	0.0159673
750.913	0.0160117
750.991	0.0160203
751.069	0.0158843
751.147	0.0158786
751.225	0.0156677
751.303	0.0159406
751.381	0.0157496
751.459	0.0155965
751.538	0.0157656
751.616	0.0156276
751.694	0.0156151
751.772	0.0155562
751.850	0.0155760
751.928	0.0156715
752.006	0.0156515
752.084	0.0156490
752.163	0.0154977
752.241	0.0155093
752.319	0.0155534
752.397	0.0156958
752.475	0.0157333
752.553	0.0156995
752.631	0.0156339
752.709	0.0157320
752.788	0.0156930
752.866	0.0157135
752.944	0.0157623
753.022	0.0158862
753.100	0.0159202
753.178	0.0158976
753.256	0.0158556
753.334	0.0160413
753.413	0.0160271
753.491	0.0161610
753.569	0.0162569
753.647	0.0163645
753.725	0.0163526
753.803	0.0163311
753.881	0.0162757
753.959	0.0166232
754.038	0.0167129
754.116	0.0165470
754.194	0.0166517
754.272	0.0166431
754.350	0.0167307
754.428	0.0168085
754.506	0.0166822
754.584	0.0166521
754.663	0.0169081
754.741	0.0167236
754.819	0.0167202
754.897	0.0166909
754.975	0.0166829
755.053	0.0167486
755.131	0.0166134
755.209	0.0165689
755.288	0.0164933
755.366	0.0163604
755.444	0.0163082
755.522	0.0162166
755.600	0.0162634
755.678	0.0162518
755.756	0.0161974
755.834	0.0161959
755.913	0.0160698
755.991	0.0160603
756.069	0.0162536
756.147	0.0163624
756.225	0.0162848
756.303	0.0161713
756.381	0.0161907
756.459	0.0163530
756.538	0.0162164
756.616	0.0162265
756.694	0.0161848
756.772	0.0162513
756.850	0.0162188
756.928	0.0161399
757.006	0.0161453
757.084	0.0160590
757.163	0.0161380
757.241	0.0160966
757.319	0.0161153
757.397	0.0161609
757.475	0.0160837
757.553	0.0161668
757.631	0.0160808
757.709	0.0159216
757.788	0.0160572
757.866	0.0161501
757.944	0.0160371
758.022	0.0158231
758.100	0.0160836
758.178	0.0159309
758.256	0.0157030
758.334	0.0158743
758.413	0.0157928
758.491	0.0157189
758.569	0.0158297
758.647	0.0156979
758.725	0.0156849
758.803	0.0158993
758.881	0.0158704
758.959	0.0157420
759.038	0.0159300
759.116	0.0158871
759.194	0.0159696
759.272	0.0160141
759.350	0.0159448
759.428	0.0161285
759.506	0.0162050
759.584	0.0161539
759.663	0.0161536
759.741	0.0163371
759.819	0.0163811
759.897	0.0161417
759.975	0.0162864
760.053	0.0160742
760.131	0.0162261
760.209	0.0160766
760.288	0.0160223
760.366	0.0159621
760.444	0.0158681
760.522	0.0158892
760.600	0.0157497
760.678	0.0158794
760.756	0.0157325
760.834	0.0157410
760.913	0.0157506
760.991	0.0158195
761.069	0.0158607
761.147	0.0158760
761.225	0.0157766
761.303	0.0158584
761.381	0.0160573
761.459	0.0159725
761.538	0.0160973
761.616	0.0162470
761.694	0.0162037
761.772	0.0162885
761.850	0.0164622
761.928	0.0165787
762.006	0.0166073
762.084	0.0166721
762.163	0.0167590
762.241	0.0167498
762.319	0.0168306
762.397	0.0168343
762.475	0.0167387
762.553	0.0167674
762.631	0.0168253
762.709	0.0167640
762.788	0.0168484
762.866	0.0168495
762.944	0.0168352
763.022	0.0167118
763.100	0.0167620
763.178	0.0166692
763.256	0.0166798
763.334	0.0165592
763.413	0.0164946
763.491	0.0166057
763.569	0.0164268
763.647	0.0164414
763.725	0.0165128
763.803	0.0163393
763.881	0.0164362
763.959	0.0161820
764.038	0.0162375
764.116	0.0163626
764.194	0.0162140
764.272	0.0160694
764.350	0.0161435
764.428	0.0160860
764.506	0.0160147
764.584	0.0159332
764.663	0.0157291
764.741	0.0158012
764.819	0.0157367
764.897	0.0155207
764.975	0.0155789
765.053	0.0157359
765.131	0.0155045
765.209	0.0154279
765.288	0.0155939
765.366	0.0154867
765.444	0.0155763
765.522	0.0156212
765.600	0.0156772
765.678	0.0157140
765.756	0.0156387
765.834	0.0156316
765.913	0.0157704
765.991	0.0160259
766.069	0.0160461
766.147	0.0160109
766.225	0.0160202
766.303	0.0161516
766.381	0.0160967
766.459	0.0161900
766.538	0.0162571
766.616	0.0162363
766.694	0.0161100
766.772	0.0161968
766.850	0.0162608
766.928	0.0163782
767.006	0.0163128
767.084	0.0162582
767.163	0.0162127
767.241	0.0161244
767.319	0.0162401
767.397	0.0162347
767.475	0.0160596
767.553	0.0159135
767.631	0.0158652
767.709	0.0159766
767.788	0.0159205
767.866	0.0157177
767.944	0.0157195
768.022	0.0156259
768.100	0.0157561
768.178	0.0156406
768.256	0.0156271
768.334	0.0155370
768.413	0.0156383
768.491	0.0156068
768.569	0.0158558
768.647	0.0159249
768.725	0.0159594
768.803	0.0159377
768.881	0.0159855
768.959	0.0161201
769.038	0.0162245
769.116	0.0163627
769.194	0.0166018
769.272	0.0165369
769.350	0.0165905
769.428	0.0166739
769.506	0.0167133
769.584	0.0168989
769.663	0.0170313
769.741	0.0169882
769.819	0.0170309
769.897	0.0169455
769.975	0.0172090
770.053	0.0171166
770.131	0.0170726
770.209	0.0170785
770.288	0.0170291
770.366	0.0171129
770.444	0.0169659
770.522	0.0169740
770.600	0.0169656
770.678	0.0167980
770.756	0.0166916
770.834	0.0165880
770.913	0.0167763
770.991	0.0165981
771.069	0.0163377
771.147	0.0163261
771.225	0.0163195
771.303	0.0161870
771.381	0.0159707
771.459	0.0159437
771.538	0.0159925
771.616	0.0158648
771.694	0.0156628
771.772	0.0157008
771.850	0.0156634
771.928	0.0154952
772.006	0.0155863
772.084	0.0154645
772.163	0.0154119
772.241	0.0153161
772.319	0.0153277
772.397	0.0153004
772.475	0.0152421
772.553	0.0153510
772.631	0.0153349
772.709	0.0153394
772.788	0.0153104
772.866	0.0153283
772.944	0.0152534
773.022	0.0153562
773.100	0.0154026
773.178	0.0153781
773.256	0.0153312
773.334	0.0155566
773.413	0.0156103
773.491	0.0157028
773.569	0.0157632
773.647	0.0159794
773.725	0.0160816
773.803	0.0161622
773.881	0.0162940
773.959	0.0162421
774.038	0.0164237
774.116	0.0165279
774.194	0.0165635
774.272	0.0166956
774.350	0.0167953
774.428	0.0167102
774.506	0.0167752
774.584	0.0165855
774.663	0.0167177
774.741	0.0168156
774.819	0.0168852
774.897	0.0167979
774.975	0.0167339
775.053	0.0167513
775.131	0.0166191
775.209	0.0166813
775.288	0.0166326
775.366	0.0165832
775.444	0.0164910
775.522	0.0165732
775.600	0.0165929
775.678	0.0165033
775.756	0.0164917
775.834	0.0164431
775.913	0.0164420
775.991	0.0161878
776.069	0.0161955
776.147	0.0163126
776.225	0.0163112
776.303	0.0160360
776.381	0.0160880
776.459	0.0159093
776.538	0.0160165
776.616	0.0159106
776.694	0.0157651
776.772	0.0157621
776.850	0.0157395
776.928	0.0156461
777.006	0.0155532
777.084	0.0154989
777.163	0.0153776
777.241	0.0154097
777.319	0.0154262
777.397	0.0153806
777.475	0.0152947
777.553	0.0154755
777.631	0.0153203
777.709	0.0151897
777.788	0.0152460
777.866	0.0152950
777.944	0.0153864
778.022	0.0154115
778.100	0.0155264
778.178	0.0155853
778.256	0.0155533
778.334	0.0157774
778.413	0.0158796
778.491	0.0159059
778.569	0.0160023
778.647	0.0163963
778.725	0.0165750
778.803	0.0165813
778.881	0.0168320
778.959	0.0169290
779.038	0.0169493
779.116	0.0172980
779.194	0.0173830
779.272	0.0174110
779.350	0.0172964
779.428	0.0174071
779.506	0.0175900
779.584	0.0174817
779.663	0.0174545
779.741	0.0175240
779.819	0.0174938
779.897	0.0173506
779.975	0.0174966
780.053	0.0173051
780.131	0.0173597
780.209	0.0171478
780.288	0.0170317
780.366	0.0169065
780.444	0.0169096
780.522	0.0166782
780.600	0.0166114
780.678	0.0165085
780.756	0.0162216
780.834	0.0160593
780.913	0.0158467
780.991	0.0157711
781.069	0.0157045
781.147	0.0153200
781.225	0.0153177
781.303	0.0152615
781.381	0.0150343
781.459	0.0149976
781.538	0.0148890
781.616	0.0149270
781.694	0.0149506
781.772	0.0148453
781.850	0.0150124
781.928	0.0150916
782.006	0.0150498
782.084	0.0149074
782.163	0.0151377
782.241	0.0150748
782.319	0.0151011
782.397	0.0150912
782.475	0.0153017
782.553	0.0153616
782.631	0.0153458
782.709	0.0153082
782.788	0.0153739
782.866	0.0154915
782.944	0.0153954
783.022	0.0155200
783.100	0.0155265
783.178	0.0153490
783.256	0.0154115
783.334	0.0154989
783.413	0.0155780
783.491	0.0157767
783.569	0.0157738
783.647	0.0157169
783.725	0.0158923
783.803	0.0160193
783.881	0.0162687
783.959	0.0163648
784.038	0.0164478
784.116	0.0166211
784.194	0.0166100
784.272	0.0167728
784.350	0.0169322
784.428	0.0170233
784.506	0.0173328
784.584	0.0172784
784.663	0.0173716
784.741	0.0174613
784.819	0.0176094
784.897	0.0175699
784.975	0.0176678
785.053	0.0178177
785.131	0.0177507
785.209	0.0178249
785.288	0.0178686
785.366	0.0179381
785.444	0.0178416
785.522	0.0177752
785.600	0.0177097
785.678	0.0176031
785.756	0.0175693
785.834	0.0172622
785.913	0.0172556
785.991	0.0172528
786.069	0.0170547
786.147	0.0167433
786.225	0.0167049
786.303	0.0165148
786.381	0.0163806
786.459	0.0161895
786.538	0.0160177
786.616	0.0157990
786.694	0.0156953
786.772	0.0156456
786.850	0.0155304
786.928	0.0152889
787.006	0.0152556
787.084	0.0152621
787.163	0.0152438
787.241	0.0151134
787.319	0.0149851
787.397	0.0149587
787.475	0.0148300
787.553	0.0148309
787.631	0.0148199
787.709	0.0148597
787.788	0.0149312
787.866	0.0148087
787.944	0.0146671
788.022	0.0146585
788.100	0.0147752
788.178	0.0148519
788.256	0.0148470
788.334	0.0150685
788.413	0.0148002
788.491	0.0149709
788.569	0.0150957
788.647	0.0152463
788.725	0.0153531
788.803	0.0153988
788.881	0.0154484
788.959	0.0156846
789.038	0.0157220
789.116	0.0157307
789.194	0.0159055
789.272	0.0160936
789.350	0.0162831
789.428	0.0163668
789.506	0.0164747
789.584	0.0165897
789.663	0.0166907
789.741	0.0165617
789.819	0.0167564
789.897	0.0169678
789.975	0.0169420
790.053	0.0171174
790.131	0.0171759
790.209	0.0171700
790.288	0.0172475
790.366	0.0173778
790.444	0.0172643
790.522	0.0173255
790.600	0.0175120
790.678	0.0174726
790.756	0.0174152
790.834	0.0174857
790.913	0.0174663
790.991	0.0174238
791.069	0.0173196
791.147	0.0172449
791.225	0.0171908
791.303	0.0171422
791.381	0.0170406
791.459	0.0168405
791.538	0.0168927
791.616	0.0167690
791.694	0.0167151
791.772	0.0164923
791.850	0.0163559
791.928	0.0163723
792.006	0.0162740
792.084	0.0161777
792.163	0.0160843
792.241	0.0158169
792.319	0.0159321
792.397	0.0157952
792.475	0.0156377
792.553	0.0154617
792.631	0.0154684
792.709	0.0154447
792.788	0.0153107
792.866	0.0151871
792.944	0.0150642
793.022	0.0152687
793.100	0.0150228
793.178	0.0149989
793.256	0.0150531
793.334	0.0148975
793.413	0.0150409
793.491	0.0149619
793.569	0.0149899
793.647	0.0153082
793.725	0.0152054
793.803	0.0152609
793.881	0.0154198
793.959	0.0154086
794.038	0.0154595
794.116	0.0156363
794.194	0.0156397
794.272	0.0157428
794.350	0.0158805
794.428	0.0158324
794.506	0.0160120
794.584	0.0162907
794.663	0.0163490
794.741	0.0163369
794.819	0.0164310
794.897	0.0163763
794.975	0.0166662
795.053	0.0166547
795.131	0.0167976
795.209	0.0167905
795.288	0.0169646
795.366	0.0169191
795.444	0.0170198
795.522	0.0171991
795.600	0.0171774
795.678	0.0171645
795.756	0.0172170
795.834	0.0172591
795.913	0.0170621
795.991	0.0170810
796.069	0.0170272
796.147	0.0170718
796.225	0.0170134
796.303	0.0168757
796.381	0.0168134
796.459	0.0167672
796.538	0.0165192
796.616	0.0165124
796.694	0.0164194
796.772	0.0164020
796.850	0.0164420
796.928	0.0162965
797.006	0.0162028
797.084	0.0161664
797.163	0.0161839
797.241	0.0161707
797.319	0.0159545
797.397	0.0161023
797.475	0.0160011
797.553	0.0158825
797.631	0.0159258
797.709	0.0158153
797.788	0.0156620
797.866	0.0155940
797.944	0.0155921
798.022	0.0153429
798.100	0.0154394
798.178	0.0155063
798.256	0.0153448
798.334	0.0152607
798.413	0.0151807
798.491	0.0151678
798.569	0.0151454
798.647	0.0150584
798.725	0.0151553
798.803	0.0151430
798.881	0.0151414
798.959	0.0151255
799.038	0.0153405
799.116	0.0153997
799.194	0.0153326
799.272	0.0154253
799.350	0.0156680
799.428	0.0156601
799.506	0.0157317
799.584	0.0157999
799.663	0.0157446
799.741	0.0160523
799.819	0.0160991
799.897	0.0159837
799.975	0.0162387
800.053	0.0162934
800.131	0.0164462
800.209	0.0163190
800.288	0.0165491
800.366	0.0165310
800.444	0.0164953
800.522	0.0166586
800.600	0.0167339
800.678	0.0166579
800.756	0.0167406
800.834	0.0168431
800.913	0.0170670
800.991	0.0168106
801.069	0.0168727
801.147	0.0170573
801.225	0.0169952
801.303	0.0169027
801.381	0.0168520
801.459	0.0169085
801.538	0.0169585
801.616	0.0167245
801.694	0.0168894
801.772	0.0167656
801.850	0.0167772
801.928	0.0166747
802.006	0.0164866
802.084	0.0167169
802.163	0.0166200
802.241	0.0164676
802.319	0.0165324
802.397	0.0164605
802.475	0.0163783
802.553	0.0164294
802.631	0.0163974
802.709	0.0163215
802.788	0.0162244
802.866	0.0163228
802.944	0.0161849
803.022	0.0159145
803.100	0.0159862
803.178	0.0159121
803.256	0.0157199
803.334	0.0156857
803.413	0.0156902
803.491	0.0155408
803.569	0.0155914
803.647	0.0155632
803.725	0.0154449
803.803	0.0152850
803.881	0.0154870
803.959	0.0154142
804.038	0.0153209
804.116	0.0152936
804.194	0.0154251
804.272	0.0153345
804.350	0.0153999
804.428	0.0155381
804.506	0.0155488
804.584	0.0156021
804.663	0.0156977
804.741	0.0157049
804.819	0.0160204
804.897	0.0158178
804.975	0.0159644
805.053	0.0159531
805.131	0.0158548
805.209	0.0159715
805.288	0.0159277
805.366	0.0158717
805.444	0.0158962
805.522	0.0161977
805.600	0.0161136
805.678	0.0161956
805.756	0.0161160
805.834	0.0162138
805.913	0.0161816
805.991	0.0162487
806.069	0.0160868
806.147	0.0161530
806.225	0.0161701
806.303	0.0161110
806.381	0.0162040
806.459	0.0163300
806.538	0.0161172
806.616	0.0163460
806.694	0.0163166
806.772	0.0162692
806.850	0.0163235
806.928	0.0162260
807.006	0.0163046
807.084	0.0162775
807.163	0.0162798
807.241	0.0165259
807.319	0.0163586
807.397	0.0164637
807.475	0.0163769
807.553	0.0164127
807.631	0.0163042
807.709	0.0164429
807.788	0.0165046
807.866	0.0164689
807.944	0.0163953
808.022	0.0163721
808.100	0.0164019
808.178	0.0164887
808.256	0.0165455
808.334	0.0163614
808.413	0.0164110
808.491	0.0163154
808.569	0.0164459
808.647	0.0164037
808.725	0.0162646
808.803	0.0163162
808.881	0.0162107
808.959	0.0161370
809.038	0.0162156
809.116	0.0160072
809.194	0.0160474
809.272	0.0160497
809.350	0.0161983
809.428	0.0161036
809.506	0.0160691
809.584	0.0161752
809.663	0.0161874
809.741	0.0161552
809.819	0.0161086
809.897	0.0161576
809.975	0.0161748
810.053	0.0161610
810.131	0.0159618
810.209	0.0159720
810.288	0.0160699
810.366	0.0160316
810.444	0.0159947
810.522	0.0158624
810.600	0.0158836
810.678	0.0158363
810.756	0.0158671
810.834	0.0158327
810.913	0.0156760
810.991	0.0157829
811.069	0.0159071
811.147	0.0160587
811.225	0.0159241
811.303	0.0159196
811.381	0.0159885
811.459	0.0159926
811.538	0.0160170
811.616	0.0161005
811.694	0.0160302
811.772	0.0160440
811.850	0.0160654
811.928	0.0159272
812.006	0.0159893
812.084	0.0159650
812.163	0.0160082
812.241	0.0158663
812.319	0.0158530
812.397	0.0159302
812.475	0.0159455
812.553	0.0160404
812.631	0.0157922
812.709	0.0158425
812.788	0.0157600
812.866	0.0158125
812.944	0.0157850
813.022	0.0156588
813.100	0.0158040
813.178	0.0157858
813.256	0.0157989
813.334	0.0157198
813.413	0.0158015
813.491	0.0157664
813.569	0.0158665
813.647	0.0158282
813.725	0.0158199
813.803	0.0159558
813.881	0.0158634
813.959	0.0159401
814.038	0.0159868
814.116	0.0159998
814.194	0.0160178
814.272	0.0161395
814.350	0.0160591
814.428	0.0161113
814.506	0.0161188
814.584	0.0161616
814.663	0.0162670
814.741	0.0163126
814.819	0.0163246
814.897	0.0164474
814.975	0.0165890
815.053	0.0165728
815.131	0.0165865
815.209	0.0167004
815.288	0.0167757
815.366	0.0166953
815.444	0.0168089
815.522	0.0166891
815.600	0.0167650
815.678	0.0165088
815.756	0.0165206
815.834	0.0166976
815.913	0.0165781
815.991	0.0165439
816.069	0.0165053
816.147	0.0165099
816.225	0.0166523
816.303	0.0163277
816.381	0.0163926
816.459	0.0164776
816.538	0.0162849
816.616	0.0162918
816.694	0.0162208
816.772	0.0162238
816.850	0.0161245
816.928	0.0161853
817.006	0.0162228
817.084	0.0162182
817.163	0.0160289
817.241	0.0161898
817.319	0.0159361
817.397	0.0159656
817.475	0.0159785
817.553	0.0159706
817.631	0.0158799
817.709	0.0157059
817.788	0.0158131
817.866	0.0158035
817.944	0.0157230
818.022	0.0156659
818.100	0.0157680
818.178	0.0156995
818.256	0.0155851
818.334	0.0156808
818.413	0.0155801
818.491	0.0155618
818.569	0.0156561
818.647	0.0157854
818.725	0.0156973
818.803	0.0156409
818.881	0.0156440
818.959	0.0158543
819.038	0.0157983
819.116	0.0157452
819.194	0.0158982
819.272	0.0158736
819.350	0.0157161
819.428	0.0156901
819.506	0.0157738
819.584	0.0157184
819.663	0.0155822
819.741	0.0157044
819.819	0.0156251
819.897	0.0158294
819.975	0.0158980
820.053	0.0157710
820.131	0.0158756
820.209	0.0159811
820.288	0.0159766
820.366	0.0160664
820.444	0.0160235
820.522	0.0162236
820.600	0.0162690
820.678	0.0161250
820.756	0.0161833
820.834	0.0163404
820.913	0.0162622
820.991	0.0164099
821.069	0.0164210
821.147	0.0164642
821.225	0.0165504
821.303	0.0164961
821.381	0.0164458
821.459	0.0165213
821.538	0.0165595
821.616	0.0164786
821.694	0.0164694
821.772	0.0163876
821.850	0.0166128
821.928	0.0165524
822.006	0.0163662
822.084	0.0164261
822.163	0.0165214
822.241	0.0165569
822.319	0.0164738
822.397	0.0165309
822.475	0.0163499
822.553	0.0163937
822.631	0.0164471
822.709	0.0163164
822.788	0.0162196
822.866	0.0162595
822.944	0.0162707
823.022	0.0162342
823.100	0.0161447
823.178	0.0161159
823.256	0.0160670
823.334	0.0158263
823.413	0.0159369
823.491	0.0158760
823.569	0.0158669
823.647	0.0156701
823.725	0.0157044
823.803	0.0156908
823.881	0.0155933
823.959	0.0155508
824.038	0.0156212
824.116	0.0156974
824.194	0.0156606
824.272	0.0158302
824.350	0.0157980
824.428	0.0158506
824.506	0.0160712
824.584	0.0159795
824.663	0.0160580
824.741	0.0159565
824.819	0.0160868
824.897	0.0161197
824.975	0.0161615
825.053	0.0160963
825.131	0.0161565
825.209	0.0162286
825.288	0.0161367
825.366	0.0160822
825.444	0.0161283
825.522	0.0161106
825.600	0.0160519
825.678	0.0161262
825.756	0.0160831
825.834	0.0161062
825.913	0.0160911
825.991	0.0161942
826.069	0.0161874
826.147	0.0161449
826.225	0.0160692
826.303	0.0162154
826.381	0.0160755
826.459	0.0162146
826.538	0.0162727
826.616	0.0159922
826.694	0.0162764
826.772	0.0161906
826.850	0.0162902
826.928	0.0161338
827.006	0.0162072
827.084	0.0161622
827.163	0.0161338
827.241	0.0162049
827.319	0.0161386
827.397	0.0161707
827.475	0.0161806
827.553	0.0161690
827.631	0.0162130
827.709	0.0159816
827.788	0.0159986
827.866	0.0160011
827.944	0.0162495
828.022	0.0163445
828.100	0.0161154
828.178	0.0160487
828.256	0.0162016
828.334	0.0161333
828.413	0.0160453
828.491	0.0161110
828.569	0.0158953
828.647	0.0160094
828.725	0.0160011
828.803	0.0160178
828.881	0.0159962
828.959	0.0160706
829.038	0.0159512
829.116	0.0157774
829.194	0.0158256
829.272	0.0159237
829.350	0.0158721
829.428	0.0158305
829.506	0.0160496
829.584	0.0159087
829.663	0.0160551
829.741	0.0160485
829.819	0.0158508
829.897	0.0161063
829.975	0.0161012
830.053	0.0160365
830.131	0.0161926
830.209	0.0163795
830.288	0.0162943
830.366	0.0162573
830.444	0.0162492
830.522	0.0162330
830.600	0.0164649
830.678	0.0164312
830.756	0.0164982
830.834	0.0163422
830.913	0.0164129
830.991	0.0165134
831.069	0.0165791
831.147	0.0164038
831.225	0.0165192
831.303	0.0163728
831.381	0.0164557
831.459	0.0164567
831.538	0.0163970
831.616	0.0164406
831.694	0.0164139
831.772	0.0163908
831.850	0.0163908
831.928	0.0163747
832.006	0.0163314
832.084	0.0164301
832.163	0.0163783
832.241	0.0161834
832.319	0.0162710
832.397	0.0162785
832.475	0.0162109
832.553	0.0162258
832.631	0.0162492
832.709	0.0163223
832.788	0.0163136
832.866	0.0161459
832.944	0.0161984
833.022	0.0162078
833.100	0.0160442
833.178	0.0159315
833.256	0.0161496
833.334	0.0160080
833.413	0.0160432
833.491	0.0160649
833.569	0.0159875
833.647	0.0159669
833.725	0.0158440
833.803	0.0159069
833.881	0.0158819
833.959	0.0156452
834.038	0.0156487
834.116	0.0155631
834.194	0.0156940
834.272	0.0156329
834.350	0.0155524
834.428	0.0153879
834.506	0.0153764
834.584	0.0154056
834.663	0.0153345
834.741	0.0152737
834.819	0.0154446
834.897	0.0153868
834.975	0.0156544
835.053	0.0156083
835.131	0.0153763
835.209	0.0155906
835.288	0.0156109
835.366	0.0155343
835.444	0.0158518
835.522	0.0158821
835.600	0.0158618
835.678	0.0157986
835.756	0.0161717
835.834	0.0161419
835.913	0.0161355
835.991	0.0161480
836.069	0.0162757
836.147	0.0164727
836.225	0.0164718
836.303	0.0164555
836.381	0.0165943
836.459	0.0165849
836.538	0.0165723
836.616	0.0166689
836.694	0.0167969
836.772	0.0167126
836.850	0.0167826
836.928	0.0167033
837.006	0.0168060
837.084	0.0167197
837.163	0.0166759
837.241	0.0165984
837.319	0.0165271
837.397	0.0165553
837.475	0.0166858
837.553	0.0166830
837.631	0.0166090
837.709	0.0164909
837.788	0.0166866
837.866	0.0166307
837.944	0.0164821
838.022	0.0165593
838.100	0.0165498
838.178	0.0165731
838.256	0.0164759
838.334	0.0164730
838.413	0.0164106
838.491	0.0164138
838.569	0.0163036
838.647	0.0162434
838.725	0.0161676
838.803	0.0160739
838.881	0.0159148
838.959	0.0158152
839.038	0.0159429
839.116	0.0160129
839.194	0.0157488
839.272	0.0157513
839.350	0.0157698
839.428	0.0156716
839.506	0.0155975
839.584	0.0156013
839.663	0.0155209
839.741	0.0155523
839.819	0.0157099
839.897	0.0156694
839.975	0.0155631
840.053	0.0155995
840.131	0.0156460
840.209	0.0158097
840.288	0.0157109
840.366	0.0158463
840.444	0.0157813
840.522	0.0159897
840.600	0.0159295
840.678	0.0158832
840.756	0.0159816
840.834	0.0159561
840.913	0.0160889
840.991	0.0160262
841.069	0.0161816
841.147	0.0162151
841.225	0.0161234
841.303	0.0162740
841.381	0.0163635
841.459	0.0162105
841.538	0.0163634
841.616	0.0164153
841.694	0.0163638
841.772	0.0163431
841.850	0.0163680
841.928	0.0163296
842.006	0.0163265
842.084	0.0162550
842.163	0.0162542
842.241	0.0163720
842.319	0.0163358
842.397	0.0162747
842.475	0.0162294
842.553	0.0161877
842.631	0.0161822
842.709	0.0162870
842.788	0.0162733
842.866	0.0162306
842.944	0.0162251
843.022	0.0161019
843.100	0.0163132
843.178	0.0163976
843.256	0.0162233
843.334	0.0163211
843.413	0.0163626
843.491	0.0164311
843.569	0.0163412
843.647	0.0162222
843.725	0.0161966
843.803	0.0163885
843.881	0.0161893
843.959	0.0161747
844.038	0.0161353
844.116	0.0161394
844.194	0.0159759
844.272	0.0160175
844.350	0.0161398
844.428	0.0159114
844.506	0.0159212
844.584	0.0159274
844.663	0.0159390
844.741	0.0158482
844.819	0.0160533
844.897	0.0159769
844.975	0.0160294
845.053	0.0159448
845.131	0.0159211
845.209	0.0159443
845.288	0.0159885
845.366	0.0160445
845.444	0.0160748
845.522	0.0159441
845.600	0.0160397
845.678	0.0162228
845.756	0.0161763
845.834	0.0160811
845.913	0.0161741
845.991	0.0161395
846.069	0.0161893
846.147	0.0161536
846.225	0.0161812
846.303	0.0162573
846.381	0.0161649
846.459	0.0164126
846.538	0.0163583
846.616	0.0163866
846.694	0.0162959
846.772	0.0161922
846.850	0.0163015
846.928	0.0164354
847.006	0.0163049
847.084	0.0162475
847.163	0.0161458
847.241	0.0161658
847.319	0.0162202
847.397	0.0161382
847.475	0.0161160
847.553	0.0160258
847.631	0.0161940
847.709	0.0160536
847.788	0.0160007
847.866	0.0160513
847.944	0.0158857
848.022	0.0161067
848.100	0.0159409
848.178	0.0160838
848.256	0.0160670
848.334	0.0160606
848.413	0.0160491
848.491	0.0160017
848.569	0.0161581
848.647	0.0162772
848.725	0.0160501
848.803	0.0161102
848.881	0.0161008
848.959	0.0161200
849.038	0.0162466
849.116	0.0161440
849.194	0.0162306
849.272	0.0162851
849.350	0.0160989
849.428	0.0162593
849.506	0.0161745
849.584	0.0161879
849.663	0.0162278
849.741	0.0161382
849.819	0.0161835
849.897	0.0162131
849.975	0.0161346
850.053	0.0162233
850.131	0.0162035
850.209	0.0161270
850.288	0.0161258
850.366	0.0162094
850.444	0.0161347
850.522	0.0161282
850.600	0.0161650
850.678	0.0162078
850.756	0.0162709
850.834	0.0161146
850.913	0.0160816
850.991	0.0160587
851.069	0.0160694
851.147	0.0158652
851.225	0.0158613
851.303	0.0159863
851.381	0.0159745
851.459	0.0159431
851.538	0.0159766
851.616	0.0160920
851.694	0.0160182
851.772	0.0159698
851.850	0.0159428
851.928	0.0160698
852.006	0.0159879
852.084	0.0162483
852.163	0.0161015
852.241	0.0161931
852.319	0.0162103
852.397	0.0163142
852.475	0.0163181
852.553	0.0163272
852.631	0.0163857
852.709	0.0164500
852.788	0.0163759
852.866	0.0163100
852.944	0.0165890
853.022	0.0165269
853.100	0.0163146
853.178	0.0164708
853.256	0.0163495
853.334	0.0163332
853.413	0.0163354
853.491	0.0162341
853.569	0.0163020
853.647	0.0162083
853.725	0.0162746
853.803	0.0161018
853.881	0.0162181
853.959	0.0161994
854.038	0.0162362
854.116	0.0161221
854.194	0.0161935
854.272	0.0161973
854.350	0.0162601
854.428	0.0162656
854.506	0.0163514
854.584	0.0165227
854.663	0.0164819
854.741	0.0164232
854.819	0.0164231
854.897	0.0163319
854.975	0.0163707
855.053	0.0164232
855.131	0.0165951
855.209	0.0165019
855.288	0.0163608
855.366	0.0163467
855.444	0.0162279
855.522	0.0162303
855.600	0.0161604
855.678	0.0160204
855.756	0.0159494
855.834	0.0159212
855.913	0.0158724
855.991	0.0156053
856.069	0.0155571
856.147	0.0155964
856.225	0.0156089
856.303	0.0156310
856.381	0.0155860
856.459	0.0156113
856.538	0.0157793
856.616	0.0159164
856.694	0.0158788
856.772	0.0158508
856.850	0.0159536
856.928	0.0161021
857.006	0.0162084
857.084	0.0161710
857.163	0.0161607
857.241	0.0162920
857.319	0.0162887
857.397	0.0162256
857.475	0.0163441
857.553	0.0163924
857.631	0.0163548
857.709	0.0162333
857.788	0.0162901
857.866	0.0162514
857.944	0.0162092
858.022	0.0161218
858.100	0.0162950
858.178	0.0162486
858.256	0.0160822
858.334	0.0160996
858.413	0.0160936
858.491	0.0160634
858.569	0.0161092
858.647	0.0160796
858.725	0.0161350
858.803	0.0161521
858.881	0.0161521
858.959	0.0162693
859.038	0.0163203
859.116	0.0161659
859.194	0.0162099
859.272	0.0162952
859.350	0.0163245
859.428	0.0163268
859.506	0.0162495
859.584	0.0162780
859.663	0.0163249
859.741	0.0163814
859.819	0.0164123
859.897	0.0163213
859.975	0.0163396
860.053	0.0161900
860.131	0.0162566
860.209	0.0161658
860.288	0.0161724
860.366	0.0163398
860.444	0.0162045
860.522	0.0160821
860.600	0.0161952
860.678	0.0161981
860.756	0.0162574
860.834	0.0163923
860.913	0.0163358
860.991	0.0163464
861.069	0.0165565
861.147	0.0164697
861.225	0.0163540
861.303	0.0164725
861.381	0.0165010
861.459	0.0164050
861.538	0.0163821
861.616	0.0162312
861.694	0.0161469
861.772	0.0160345
861.850	0.0160124
861.928	0.0159251
862.006	0.0158669
862.084	0.0157800
862.163	0.0157487
862.241	0.0156364
862.319	0.0156445
862.397	0.0156441
862.475	0.0157420
862.553	0.0155581
862.631	0.0155527
862.709	0.0156371
862.788	0.0156505
862.866	0.0155133
862.944	0.0156609
863.022	0.0157541
863.100	0.0156665
863.178	0.0157505
863.256	0.0157509
863.334	0.0158149
863.413	0.0157813
863.491	0.0158289
863.569	0.0160587
863.647	0.0160474
863.725	0.0162142
863.803	0.0162513
863.881	0.0162510
863.959	0.0164773
864.038	0.0165754
864.116	0.0166093
864.194	0.0167204
864.272	0.0167535
864.350	0.0167744
864.428	0.0167698
864.506	0.0166753
864.584	0.0167818
864.663	0.0168119
864.741	0.0169102
864.819	0.0169431
864.897	0.0169398
864.975	0.0166453
865.053	0.0166653
865.131	0.0166328
865.209	0.0166538
865.288	0.0166501
865.366	0.0164946
865.444	0.0163260
865.522	0.0163059
865.600	0.0163717
865.678	0.0161796
865.756	0.0162560
865.834	0.0161531
865.913	0.0160186
865.991	0.0161172
866.069	0.0159082
866.147	0.0159297
866.225	0.0158835
866.303	0.0158926
866.381	0.0158318
866.459	0.0157058
866.538	0.0156731
866.616	0.0157153
866.694	0.0157303
866.772	0.0156716
866.850	0.0156067
866.928	0.0155742
867.006	0.0155128
867.084	0.0156470
867.163	0.0155043
867.241	0.0156419
867.319	0.0156007
867.397	0.0154465
867.475	0.0156613
867.553	0.0157302
867.631	0.0156573
867.709	0.0155904
867.788	0.0157687
867.866	0.0157655
867.944	0.0158591
868.022	0.0158288
868.100	0.0159869
868.178	0.0158722
868.256	0.0160040
868.334	0.0161131
868.413	0.0160180
868.491	0.0161697
868.569	0.0163707
868.647	0.0165356
868.725	0.0166711
868.803	0.0166885
868.881	0.0168139
868.959	0.0167698
869.038	0.0170287
869.116	0.0170666
869.194	0.0170380
869.272	0.0171806
869.350	0.0171400
869.428	0.0171629
869.506	0.0171934
869.584	0.0170995
869.663	0.0170496
869.741	0.0171024
869.819	0.0168209
869.897	0.0169792
869.975	0.0168549
870.053	0.0168350
870.131	0.0166032
870.209	0.0164500
870.288	0.0164659
870.366	0.0163416
870.444	0.0162483
870.522	0.0160675
870.600	0.0160712
870.678	0.0161331
870.756	0.0160139
870.834	0.0158715
870.913	0.0158508
870.991	0.0157602
871.069	0.0156664
871.147	0.0156473
871.225	0.0156438
871.303	0.0156515
871.381	0.0156924
871.459	0.0155978
871.538	0.0156787
871.616	0.0155475
871.694	0.0155385
871.772	0.0156356
871.850	0.0156329
871.928	0.0156096
872.006	0.0157231
872.084	0.0157213
872.163	0.0158161
872.241	0.0158099
872.319	0.0156361
872.397	0.0156325
872.475	0.0155780
872.553	0.0156202
872.631	0.0156408
872.709	0.0155571
872.788	0.0155646
872.866	0.0155463
872.944	0.0156100
873.022	0.0157110
873.100	0.0155610
873.178	0.0156039
873.256	0.0157626
873.334	0.0157405
873.413	0.0158810
873.491	0.0158350
873.569	0.0160696
873.647	0.0164265
873.725	0.0165356
873.803	0.0167226
873.881	0.0168486
873.959	0.0169997
874.038	0.0171222
874.116	0.0171688
874.194	0.0172552
874.272	0.0172489
874.350	0.0171837
874.428	0.0172624
874.506	0.0172245
874.584	0.0171349
874.663	0.0170081
874.741	0.0169514
874.819	0.0168176
874.897	0.0169130
874.975	0.0167348
875.053	0.0165423
875.131	0.0163992
875.209	0.0164174
875.288	0.0163668
875.366	0.0163120
875.444	0.0161003
875.522	0.0161227
875.600	0.0160423
875.678	0.0158447
875.756	0.0158508
875.834	0.0156940
875.913	0.0156489
875.991	0.0157359
876.069	0.0156499
876.147	0.0156789
876.225	0.0157533
876.303	0.0156503
876.381	0.0156954
876.459	0.0159205
876.538	0.0159274
876.616	0.0158908
876.694	0.0160429
876.772	0.0161585
876.850	0.0162261
876.928	0.0162759
877.006	0.0163680
877.084	0.0164840
877.163	0.0163706
877.241	0.0163641
877.319	0.0165483
877.397	0.0163871
877.475	0.0163760
877.553	0.0162041
877.631	0.0161862
877.709	0.0160854
877.788	0.0158372
877.866	0.0158468
877.944	0.0157125
878.022	0.0155494
878.100	0.0156407
878.178	0.0154333
878.256	0.0154610
878.334	0.0154256
878.413	0.0155889
878.491	0.0153981
878.569	0.0153908
878.647	0.0155824
878.725	0.0156297
878.803	0.0157175
878.881	0.0157788
878.959	0.0157506
879.038	0.0157581
879.116	0.0160671
879.194	0.0160796
879.272	0.0162718
879.350	0.0164117
879.428	0.0163552
879.506	0.0163347
879.584	0.0166946
879.663	0.0168389
879.741	0.0167749
879.819	0.0168446
879.897	0.0168806
879.975	0.0168483
880.053	0.0168882
880.131	0.0169538
880.209	0.0170390
880.288	0.0168359
880.366	0.0168939
880.444	0.0168621
880.522	0.0169096
880.600	0.0167480
880.678	0.0168098
880.756	0.0165689
880.834	0.0164285
880.913	0.0164923
880.991	0.0164211
881.069	0.0163285
881.147	0.0161583
881.225	0.0160306
881.303	0.0157821
881.381	0.0157508
881.459	0.0156912
881.538	0.0156054
881.616	0.0155665
881.694	0.0155247
881.772	0.0155982
881.850	0.0155408
881.928	0.0159431
882.006	0.0159464
882.084	0.0159034
882.163	0.0160348
882.241	0.0162795
882.319	0.0163176
882.397	0.0164683
882.475	0.0165470
882.553	0.0167249
882.631	0.0165363
882.709	0.0165350
882.788	0.0166346
882.866	0.0164910
882.944	0.0162935
883.022	0.0162103
883.100	0.0161130
883.178	0.0159097
883.256	0.0158852
883.334	0.0156371
883.413	0.0155949
883.491	0.0155119
883.569	0.0156149
883.647	0.0153868
883.725	0.0155994
883.803	0.0155587
883.881	0.0156762
883.959	0.0156715
884.038	0.0157192
884.116	0.0158564
884.194	0.0159702
884.272	0.0160296
884.350	0.0162016
884.428	0.0162756
884.506	0.0163388
884.584	0.0163056
884.663	0.0164939
884.741	0.0163679
884.819	0.0163272
884.897	0.0164787
884.975	0.0164660
885.053	0.0165025
885.131	0.0164938
885.209	0.0164971
885.288	0.0164539
885.366	0.0166143
885.444	0.0164586
885.522	0.0164193
885.600	0.0164542
885.678	0.0162866
885.756	0.0163872
885.834	0.0163270
885.913	0.0162621
885.991	0.0163047
886.069	0.0164038
886.147	0.0163357
886.225	0.0163096
886.303	0.0162877
886.381	0.0162343
886.459	0.0160677
886.538	0.0161900
886.616	0.0159650
886.694	0.0160114
886.772	0.0161031
886.850	0.0159696
886.928	0.0159237
887.006	0.0160349
887.084	0.0157142
887.163	0.0158672
887.241	0.0159095
887.319	0.0160658
887.397	0.0162082
887.475	0.0161543
887.553	0.0162831
887.631	0.0162627
887.709	0.0162389
887.788	0.0164835
887.866	0.0163811
887.944	0.0164489
888.022	0.0164281
888.100	0.0161933
888.178	0.0162167
888.256	0.0161615
888.334	0.0160707
888.413	0.0159673
888.491	0.0157668
888.569	0.0158063
888.647	0.0156551
888.725	0.0155482
888.803	0.0155703
888.881	0.0155035
888.959	0.0156145
889.038	0.0156882
889.116	0.0158163
889.194	0.0159049
889.272	0.0160374
889.350	0.0161520
889.428	0.0162110
889.506	0.0163277
889.584	0.0165012
889.663	0.0165205
889.741	0.0167424
889.819	0.0165994
889.897	0.0167147
889.975	0.0167847
890.053	0.0165170
890.131	0.0167219
890.209	0.0167673
890.288	0.0166470
890.366	0.0165952
890.444	0.0165936
890.522	0.0164285
890.600	0.0164613
890.678	0.0163229
890.756	0.0162366
890.834	0.0161749
890.913	0.0160124
890.991	0.0158813
891.069	0.0158730
891.147	0.0159554
891.225	0.0158326
891.303	0.0157859
891.381	0.0156673
891.459	0.0155349
891.538	0.0157253
891.616	0.0156619
891.694	0.0155751
891.772	0.0156908
891.850	0.0157315
891.928	0.0156627
892.006	0.0157430
892.084	0.0157671
892.163	0.0158908
892.241	0.0159963
892.319	0.0160573
892.397	0.0162125
892.475	0.0162455
892.553	0.0161977
892.631	0.0164221
892.709	0.0165595
892.788	0.0163899
892.866	0.0166441
892.944	0.0166746
893.022	0.0166625
893.100	0.0165807
893.178	0.0165556
893.256	0.0166460
893.334	0.0166688
893.413	0.0165604
893.491	0.0165530
893.569	0.0162978
893.647	0.0161431
893.725	0.0162456
893.803	0.0161012
893.881	0.0160471
893.959	0.0159689
894.038	0.0158751
894.116	0.0158743
894.194	0.0157920
894.272	0.0158475
894.350	0.0158316
894.428	0.0158792
894.506	0.0158939
894.584	0.0160848
894.663	0.0160950
894.741	0.0161297
894.819	0.0161753
894.897	0.0160957
894.975	0.0162658
895.053	0.0163621
895.131	0.0162082
895.209	0.0162880
895.288	0.0163408
895.366	0.0163141
895.444	0.0164826
895.522	0.0162688
895.600	0.0163631
895.678	0.0163623
895.756	0.0162362
895.834	0.0163005
895.913	0.0163074
895.991	0.0162879
896.069	0.0162197
896.147	0.0160998
896.225	0.0161268
896.303	0.0160564
896.381	0.0160134
896.459	0.0159134
896.538	0.0158945
896.616	0.0157561
896.694	0.0156573
896.772	0.0156523
896.850	0.0156731
896.928	0.0155877
897.006	0.0154966
897.084	0.0157656
897.163	0.0156971
897.241	0.0156850
897.319	0.0158256
897.397	0.0158369
897.475	0.0159485
897.553	0.0159988
897.631	0.0160732
897.709	0.0162492
897.788	0.0162043
897.866	0.0162943
897.944	0.0163145
898.022	0.0162976
898.100	0.0164020
898.178	0.0164940
898.256	0.0164370
898.334	0.0165376
898.413	0.0165319
898.491	0.0163553
898.569	0.0163221
898.647	0.0162267
898.725	0.0161497
898.803	0.0163278
898.881	0.0161602
898.959	0.0161702
899.038	0.0161877
899.116	0.0159862
899.194	0.0160526
899.272	0.0161244
899.350	0.0160338
899.428	0.0160316
899.506	0.0161107
899.584	0.0160403
899.663	0.0160295
899.741	0.0159481
899.819	0.0161564
899.897	0.0161622
899.975	0.0163037
900.053	0.0163360
900.131	0.0162400
900.209	0.0164207
900.288	0.0164486
900.366	0.0164194
900.444	0.0165999
900.522	0.0166009
900.600	0.0165582
900.678	0.0164954
900.756	0.0165924
900.834	0.0166394
900.913	0.0165730
900.991	0.0164477
901.069	0.0164832
901.147	0.0164934
901.225	0.0164644
901.303	0.0163327
901.381	0.0161619
901.459	0.0159633
901.538	0.0160446
901.616	0.0159225
901.694	0.0158082
901.772	0.0158774
901.850	0.0156702
901.928	0.0155252
902.006	0.0156773
902.084	0.0157248
902.163	0.0157587
902.241	0.0157658
902.319	0.0157446
902.397	0.0156885
902.475	0.0159465
902.553	0.0159892
902.631	0.0159957
902.709	0.0159844
902.788	0.0161492
902.866	0.0162056
902.944	0.0161398
903.022	0.0162868
903.100	0.0164347
903.178	0.0164146
903.256	0.0163378
903.334	0.0164417
903.413	0.0163303
903.491	0.0163991
903.569	0.0162152
903.647	0.0160780
903.725	0.0162067
903.803	0.0160441
903.881	0.0160341
903.959	0.0160606
904.038	0.0159329
904.116	0.0158456
904.194	0.0159133
904.272	0.0158319
904.350	0.0159768
904.428	0.0159299
904.506	0.0159128
904.584	0.0158590
904.663	0.0159348
904.741	0.0159051
904.819	0.0159259
904.897	0.0160542
904.975	0.0159753
905.053	0.0160687
905.131	0.0160352
905.209	0.0160483
905.288	0.0161589
905.366	0.0160371
905.444	0.0161907
905.522	0.0162032
905.600	0.0161397
905.678	0.0162756
905.756	0.0162663
905.834	0.0162681
905.913	0.0163609
905.991	0.0165149
906.069	0.0163541
906.147	0.0164916
906.225	0.0163729
906.303	0.0163268
906.381	0.0163189
906.459	0.0163487
906.538	0.0164835
906.616	0.0163258
906.694	0.0162946
906.772	0.0160738
906.850	0.0162054
906.928	0.0161861
907.006	0.0161398
907.084	0.0160529
907.163	0.0159807
907.241	0.0159525
907.319	0.0159809
907.397	0.0159813
907.475	0.0157957
907.553	0.0159624
907.631	0.0159373
907.709	0.0160033
907.788	0.0160728
907.866	0.0161166
907.944	0.0162003
908.022	0.0162297
908.100	0.0162527
908.178	0.0163131
908.256	0.0163022
908.334	0.0164591
908.413	0.0165722
908.491	0.0163520
908.569	0.0162489
908.647	0.0164883
908.725	0.0163491
908.803	0.0161802
908.881	0.0162750
908.959	0.0162899
909.038	0.0161256
909.116	0.0161552
909.194	0.0159194
909.272	0.0159519
909.350	0.0158850
909.428	0.0158535
909.506	0.0157905
909.584	0.0157451
909.663	0.0158730
909.741	0.0158179
909.819	0.0158307
909.897	0.0158530
909.975	0.0156649
910.053	0.0156618
910.131	0.0156789
910.209	0.0157163
910.288	0.0155846
910.366	0.0156973
910.444	0.0156747
910.522	0.0156010
910.600	0.0155762
910.678	0.0156696
910.756	0.0157980
910.834	0.0158035
910.913	0.0158060
910.991	0.0157751
911.069	0.0158820
911.147	0.0159286
911.225	0.0161048
911.303	0.0161884
911.381	0.0161198
911.459	0.0162036
911.538	0.0162506
911.616	0.0161997
911.694	0.0163969
911.772	0.0163356
911.850	0.0164486
911.928	0.0164754
912.006	0.0165034
912.084	0.0164043
912.163	0.0163715
912.241	0.0164382
912.319	0.0165475
912.397	0.0164337
912.475	0.0163982
912.553	0.0163701
912.631	0.0164820
912.709	0.0163513
912.788	0.0164054
912.866	0.0165407
912.944	0.0164855
913.022	0.0164573
913.100	0.0166203
913.178	0.0165908
913.256	0.0164380
913.334	0.0164190
913.413	0.0164684
913.491	0.0164425
913.569	0.0165027
913.647	0.0165566
913.725	0.0165166
913.803	0.0164391
913.881	0.0164257
913.959	0.0164163
914.038	0.0163332
914.116	0.0162991
914.194	0.0162033
914.272	0.0161398
914.350	0.0161271
914.428	0.0159321
914.506	0.0158328
914.584	0.0157657
914.663	0.0158228
914.741	0.0158086
914.819	0.0155386
914.897	0.0155978
914.975	0.0156090
915.053	0.0155621
915.131	0.0154276
915.209	0.0154493
915.288	0.0153100
915.366	0.0153838
915.444	0.0154121
915.522	0.0155304
915.600	0.0156598
915.678	0.0155180
915.756	0.0156580
915.834	0.0156146
915.913	0.0157543
915.991	0.0159135
916.069	0.0159393
916.147	0.0160168
916.225	0.0160905
916.303	0.0162845
916.381	0.0163384
916.459	0.0164828
916.538	0.0163898
916.616	0.0164153
916.694	0.0165714
916.772	0.0166114
916.850	0.0167204
916.928	0.0167953
917.006	0.0166084
917.084	0.0166174
917.163	0.0166293
917.241	0.0165981
917.319	0.0165210
917.397	0.0165865
917.475	0.0165291
917.553	0.0164285
917.631	0.0165384
917.709	0.0164674
917.788	0.0164086
917.866	0.0161967
917.944	0.0161818
918.022	0.0162897
918.100	0.0162277
918.178	0.0162384
918.256	0.0161624
918.334	0.0161878
918.413	0.0161885
918.491	0.0161839
918.569	0.0159046
918.647	0.0162186
918.725	0.0162773
918.803	0.0162695
918.881	0.0161044
918.959	0.0161882
919.038	0.0163455
919.116	0.0161607
919.194	0.0161481
919.272	0.0162679
919.350	0.0162539
919.428	0.0161295
919.506	0.0162038
919.584	0.0161325
919.663	0.0160155
919.741	0.0161166
919.819	0.0159970
919.897	0.0159422
