06/01/2022	17:27:45	Ver.	4.1	UNKNOWN
Optical Delay	599.981738	Delta X		0.078125	Sweeps	1	Scan Rate	0/0
Coordinates	Axis 1	NaN	Axis 2	NaN	Axis 3	NaN	Axis 4	NaN	Axis 5	NaN	Axis 6	0.000000
TX Power	0.000000	RX Power	0.000000

599.982	0.0169616
600.060	0.0169416
600.138	0.0169187
600.216	0.0169257
600.294	0.0170267
600.372	0.0168684
600.450	0.0168703
600.529	0.0169293
600.607	0.0169339
600.685	0.0169819
600.763	0.0169893
600.841	0.0168716
600.919	0.0168568
600.997	0.0169402
601.075	0.0170502
601.154	0.0169471
601.232	0.0169573
601.310	0.0170137
601.388	0.0170218
601.466	0.0169882
601.544	0.0171319
601.622	0.0170683
601.700	0.0170572
601.779	0.0170285
601.857	0.0170531
601.935	0.0170818
602.013	0.0171083
602.091	0.0170936
602.169	0.0170373
602.247	0.0170784
602.325	0.0169347
602.404	0.0171623
602.482	0.0170313
602.560	0.0170242
602.638	0.0169534
602.716	0.0169992
602.794	0.0171297
602.872	0.0170872
602.950	0.0170295
603.029	0.0169112
603.107	0.0169917
603.185	0.0170885
603.263	0.0170666
603.341	0.0169348
603.419	0.0169039
603.497	0.0169788
603.575	0.0171288
603.654	0.0169659
603.732	0.0170812
603.810	0.0170322
603.888	0.0169562
603.966	0.0168118
604.044	0.0169927
604.122	0.0168529
604.200	0.0169229
604.279	0.0169467
604.357	0.0169881
604.435	0.0168210
604.513	0.0169771
604.591	0.0169555
604.669	0.0169463
604.747	0.0169388
604.825	0.0169427
604.904	0.0167888
604.982	0.0170058
605.060	0.0170853
605.138	0.0169576
605.216	0.0169388
605.294	0.0170371
605.372	0.0169299
605.450	0.0168684
605.529	0.0169978
605.607	0.0169810
605.685	0.0170504
605.763	0.0169027
605.841	0.0169290
605.919	0.0169511
605.997	0.0170554
606.075	0.0169508
606.154	0.0168985
606.232	0.0169826
606.310	0.0168761
606.388	0.0168951
606.466	0.0170185
606.544	0.0170361
606.622	0.0170251
606.700	0.0168412
606.779	0.0169493
606.857	0.0169915
606.935	0.0170532
607.013	0.0170348
607.091	0.0169436
607.169	0.0169388
607.247	0.0169949
607.325	0.0169028
607.404	0.0169651
607.482	0.0169999
607.560	0.0169539
607.638	0.0170377
607.716	0.0170183
607.794	0.0169098
607.872	0.0168791
607.950	0.0169322
608.029	0.0170010
608.107	0.0168546
608.185	0.0170284
608.263	0.0169810
608.341	0.0169501
608.419	0.0170693
608.497	0.0171113
608.575	0.0169399
608.654	0.0168796
608.732	0.0169650
608.810	0.0168855
608.888	0.0170263
608.966	0.0169546
609.044	0.0170363
609.122	0.0169769
609.200	0.0168900
609.279	0.0170574
609.357	0.0168813
609.435	0.0170045
609.513	0.0169198
609.591	0.0169427
609.669	0.0168243
609.747	0.0169767
609.825	0.0168133
609.904	0.0169776
609.982	0.0170063
610.060	0.0171251
610.138	0.0170120
610.216	0.0169341
610.294	0.0170656
610.372	0.0168273
610.450	0.0169404
610.529	0.0168835
610.607	0.0169194
610.685	0.0169023
610.763	0.0169502
610.841	0.0168909
610.919	0.0170198
610.997	0.0170064
611.075	0.0169784
611.154	0.0169783
611.232	0.0168243
611.310	0.0170601
611.388	0.0170212
611.466	0.0169135
611.544	0.0169447
611.622	0.0168854
611.700	0.0170403
611.779	0.0168199
611.857	0.0169391
611.935	0.0169884
612.013	0.0170235
612.091	0.0169710
612.169	0.0170218
612.247	0.0169836
612.325	0.0169349
612.404	0.0169518
612.482	0.0169322
612.560	0.0169382
612.638	0.0169176
612.716	0.0169519
612.794	0.0171109
612.872	0.0169926
612.950	0.0168008
613.029	0.0169618
613.107	0.0168881
613.185	0.0171062
613.263	0.0170535
613.341	0.0170074
613.419	0.0169614
613.497	0.0170679
613.575	0.0170333
613.654	0.0168922
613.732	0.0169881
613.810	0.0171223
613.888	0.0169598
613.966	0.0170224
614.044	0.0169407
614.122	0.0169120
614.200	0.0170123
614.279	0.0170271
614.357	0.0170162
614.435	0.0168456
614.513	0.0170500
614.591	0.0169900
614.669	0.0169566
614.747	0.0169103
614.825	0.0168948
614.904	0.0169691
614.982	0.0169059
615.060	0.0168913
615.138	0.0168954
615.216	0.0170702
615.294	0.0170702
615.372	0.0170007
615.450	0.0168192
615.529	0.0170553
615.607	0.0169143
615.685	0.0169685
615.763	0.0169210
615.841	0.0168800
615.919	0.0169439
615.997	0.0169358
616.075	0.0169661
616.154	0.0169493
616.232	0.0169669
616.310	0.0170026
616.388	0.0169023
616.466	0.0169801
616.544	0.0170274
616.622	0.0169894
616.700	0.0169463
616.779	0.0170148
616.857	0.0169817
616.935	0.0169709
617.013	0.0168851
617.091	0.0169922
617.169	0.0170641
617.247	0.0170135
617.325	0.0169524
617.404	0.0168989
617.482	0.0170067
617.560	0.0169306
617.638	0.0170391
617.716	0.0170288
617.794	0.0170344
617.872	0.0169460
617.950	0.0169550
618.029	0.0170631
618.107	0.0170846
618.185	0.0170338
618.263	0.0170156
618.341	0.0169735
618.419	0.0170064
618.497	0.0172187
618.575	0.0172025
618.654	0.0169717
618.732	0.0169418
618.810	0.0171036
618.888	0.0170560
618.966	0.0170428
619.044	0.0169416
619.122	0.0169947
619.200	0.0169371
619.279	0.0170012
619.357	0.0170412
619.435	0.0170159
619.513	0.0170567
619.591	0.0170481
619.669	0.0170087
619.747	0.0170211
619.825	0.0169205
619.904	0.0169474
619.982	0.0169785
620.060	0.0169644
620.138	0.0169430
620.216	0.0168660
620.294	0.0170474
620.372	0.0168946
620.450	0.0168987
620.529	0.0169749
620.607	0.0169553
620.685	0.0170926
620.763	0.0170697
620.841	0.0169383
620.919	0.0168595
620.997	0.0168572
621.075	0.0169212
621.154	0.0168576
621.232	0.0171242
621.310	0.0168728
621.388	0.0169704
621.466	0.0170892
621.544	0.0170291
621.622	0.0167552
621.700	0.0169141
621.779	0.0169886
621.857	0.0170592
621.935	0.0170167
622.013	0.0169591
622.091	0.0169306
622.169	0.0168914
622.247	0.0169899
622.325	0.0169241
622.404	0.0169019
622.482	0.0169503
622.560	0.0169530
622.638	0.0169025
622.716	0.0169477
622.794	0.0170010
622.872	0.0170216
622.950	0.0171416
623.029	0.0170986
623.107	0.0169395
623.185	0.0170240
623.263	0.0170499
623.341	0.0169256
623.419	0.0169333
623.497	0.0170444
623.575	0.0170142
623.654	0.0169748
623.732	0.0170119
623.810	0.0169732
623.888	0.0169391
623.966	0.0168822
624.044	0.0169357
624.122	0.0170257
624.200	0.0170281
624.279	0.0169584
624.357	0.0169573
624.435	0.0170223
624.513	0.0169518
624.591	0.0169125
624.669	0.0170195
624.747	0.0170058
624.825	0.0170318
624.904	0.0169435
624.982	0.0170928
625.060	0.0169432
625.138	0.0169968
625.216	0.0170603
625.294	0.0171397
625.372	0.0170154
625.450	0.0170238
625.529	0.0168191
625.607	0.0169988
625.685	0.0170085
625.763	0.0171421
625.841	0.0170597
625.919	0.0169452
625.997	0.0169395
626.075	0.0169651
626.154	0.0169930
626.232	0.0169440
626.310	0.0169864
626.388	0.0169160
626.466	0.0170820
626.544	0.0171613
626.622	0.0168998
626.700	0.0170023
626.779	0.0170000
626.857	0.0169286
626.935	0.0170197
627.013	0.0170547
627.091	0.0168584
627.169	0.0168677
627.247	0.0170850
627.325	0.0169205
627.404	0.0170070
627.482	0.0170172
627.560	0.0170034
627.638	0.0170439
627.716	0.0170300
627.794	0.0169443
627.872	0.0168732
627.950	0.0169361
628.029	0.0170034
628.107	0.0169970
628.185	0.0169070
628.263	0.0170097
628.341	0.0169962
628.419	0.0170110
628.497	0.0170920
628.575	0.0169264
628.654	0.0168828
628.732	0.0169318
628.810	0.0170141
628.888	0.0170246
628.966	0.0169821
629.044	0.0169419
629.122	0.0168374
629.200	0.0170181
629.279	0.0169446
629.357	0.0169099
629.435	0.0169131
629.513	0.0168634
629.591	0.0169164
629.669	0.0168562
629.747	0.0169850
629.825	0.0170351
629.904	0.0169662
629.982	0.0169737
630.060	0.0169592
630.138	0.0169062
630.216	0.0170490
630.294	0.0170147
630.372	0.0170135
630.450	0.0171051
630.529	0.0169352
630.607	0.0169822
630.685	0.0169532
630.763	0.0169358
630.841	0.0169709
630.919	0.0169261
630.997	0.0170555
631.075	0.0170778
631.154	0.0170219
631.232	0.0169473
631.310	0.0169907
631.388	0.0171089
631.466	0.0169833
631.544	0.0170010
631.622	0.0169257
631.700	0.0170272
631.779	0.0169881
631.857	0.0170103
631.935	0.0168725
632.013	0.0169415
632.091	0.0169440
632.169	0.0170009
632.247	0.0169532
632.325	0.0170755
632.404	0.0168520
632.482	0.0168829
632.560	0.0170016
632.638	0.0169401
632.716	0.0168800
632.794	0.0170330
632.872	0.0169838
632.950	0.0169914
633.029	0.0171153
633.107	0.0169839
633.185	0.0169951
633.263	0.0170863
633.341	0.0169275
633.419	0.0169084
633.497	0.0169417
633.575	0.0170359
633.654	0.0169550
633.732	0.0169358
633.810	0.0170679
633.888	0.0169328
633.966	0.0170336
634.044	0.0168629
634.122	0.0169403
634.200	0.0170443
634.279	0.0170801
634.357	0.0170425
634.435	0.0170599
634.513	0.0168481
634.591	0.0168364
634.669	0.0169875
634.747	0.0169296
634.825	0.0169689
634.904	0.0168852
634.982	0.0168879
635.060	0.0169686
635.138	0.0167794
635.216	0.0168175
635.294	0.0168714
635.372	0.0168348
635.450	0.0170361
635.529	0.0167793
635.607	0.0167626
635.685	0.0169733
635.763	0.0168550
635.841	0.0169860
635.919	0.0169739
635.997	0.0169497
636.075	0.0167400
636.154	0.0169077
636.232	0.0169736
636.310	0.0168496
636.388	0.0168443
636.466	0.0168436
636.544	0.0169387
636.622	0.0169532
636.700	0.0169392
636.779	0.0168551
636.857	0.0169406
636.935	0.0168559
637.013	0.0168918
637.091	0.0169177
637.169	0.0168480
637.247	0.0168761
637.325	0.0168430
637.404	0.0169423
637.482	0.0170053
637.560	0.0169310
637.638	0.0169809
637.716	0.0168201
637.794	0.0168084
637.872	0.0169602
637.950	0.0168444
638.029	0.0169382
638.107	0.0169721
638.185	0.0168619
638.263	0.0168944
638.341	0.0169400
638.419	0.0170141
638.497	0.0169843
638.575	0.0169031
638.654	0.0171169
638.732	0.0169357
638.810	0.0169275
638.888	0.0170278
638.966	0.0169428
639.044	0.0169508
639.122	0.0169489
639.200	0.0168849
639.279	0.0169344
639.357	0.0169728
639.435	0.0169798
639.513	0.0169638
639.591	0.0170195
639.669	0.0169364
639.747	0.0168000
639.825	0.0169759
639.904	0.0170991
639.982	0.0170111
640.060	0.0169717
640.138	0.0170300
640.216	0.0169698
640.294	0.0170408
640.372	0.0170141
640.450	0.0168858
640.529	0.0169125
640.607	0.0170348
640.685	0.0169523
640.763	0.0170557
640.841	0.0169556
640.919	0.0170805
640.997	0.0170104
641.075	0.0170319
641.154	0.0170382
641.232	0.0170440
641.310	0.0169633
641.388	0.0168559
641.466	0.0169428
641.544	0.0168899
641.622	0.0169563
641.700	0.0169928
641.779	0.0170047
641.857	0.0171026
641.935	0.0169936
642.013	0.0169749
642.091	0.0168221
642.169	0.0170213
642.247	0.0170268
642.325	0.0169749
642.404	0.0169950
642.482	0.0168637
642.560	0.0170036
642.638	0.0168598
642.716	0.0169803
642.794	0.0169666
642.872	0.0169760
642.950	0.0169672
643.029	0.0169899
643.107	0.0169009
643.185	0.0169370
643.263	0.0170933
643.341	0.0169318
643.419	0.0168931
643.497	0.0170743
643.575	0.0168926
643.654	0.0167896
643.732	0.0169401
643.810	0.0169052
643.888	0.0168988
643.966	0.0169350
644.044	0.0169233
644.122	0.0169292
644.200	0.0169595
644.279	0.0169519
644.357	0.0169067
644.435	0.0169416
644.513	0.0168295
644.591	0.0169543
644.669	0.0169911
644.747	0.0170512
644.825	0.0170766
644.904	0.0169135
644.982	0.0168856
645.060	0.0168793
645.138	0.0169968
645.216	0.0171159
645.294	0.0170760
645.372	0.0169467
645.450	0.0170644
645.529	0.0170013
645.607	0.0169389
645.685	0.0171219
645.763	0.0170290
645.841	0.0169047
645.919	0.0169054
645.997	0.0168794
646.075	0.0169045
646.154	0.0169844
646.232	0.0170249
646.310	0.0169878
646.388	0.0169864
646.466	0.0168761
646.544	0.0170048
646.622	0.0168988
646.700	0.0168064
646.779	0.0169102
646.857	0.0170540
646.935	0.0169440
647.013	0.0169131
647.091	0.0169187
647.169	0.0169778
647.247	0.0169198
647.325	0.0170751
647.404	0.0171896
647.482	0.0170484
647.560	0.0169677
647.638	0.0170529
647.716	0.0169958
647.794	0.0168432
647.872	0.0170815
647.950	0.0169850
648.029	0.0169196
648.107	0.0169502
648.185	0.0170577
648.263	0.0169012
648.341	0.0168787
648.419	0.0169281
648.497	0.0169695
648.575	0.0169990
648.654	0.0170319
648.732	0.0168532
648.810	0.0168594
648.888	0.0169773
648.966	0.0171323
649.044	0.0170847
649.122	0.0169400
649.200	0.0170235
649.279	0.0170318
649.357	0.0170217
649.435	0.0170680
649.513	0.0170389
649.591	0.0169915
649.669	0.0170554
649.747	0.0169331
649.825	0.0168941
649.904	0.0169924
649.982	0.0170371
650.060	0.0170092
650.138	0.0169663
650.216	0.0170071
650.294	0.0169070
650.372	0.0168690
650.450	0.0168943
650.529	0.0169382
650.607	0.0169307
650.685	0.0169161
650.763	0.0168896
650.841	0.0170154
650.919	0.0168635
650.997	0.0169266
651.075	0.0170199
651.154	0.0169813
651.232	0.0169872
651.310	0.0169854
651.388	0.0170312
651.466	0.0170175
651.544	0.0169731
651.622	0.0171301
651.700	0.0170830
651.779	0.0170273
651.857	0.0168252
651.935	0.0171201
652.013	0.0171569
652.091	0.0169760
652.169	0.0170499
652.247	0.0170654
652.325	0.0169035
652.404	0.0170510
652.482	0.0170292
652.560	0.0170510
652.638	0.0169582
652.716	0.0169036
652.794	0.0169286
652.872	0.0169757
652.950	0.0169247
653.029	0.0169095
653.107	0.0169700
653.185	0.0169104
653.263	0.0169917
653.341	0.0169383
653.419	0.0168302
653.497	0.0167579
653.575	0.0168295
653.654	0.0167060
653.732	0.0168150
653.810	0.0169164
653.888	0.0166360
653.966	0.0168125
654.044	0.0169263
654.122	0.0167777
654.200	0.0168091
654.279	0.0168864
654.357	0.0167744
654.435	0.0167921
654.513	0.0168710
654.591	0.0167810
654.669	0.0168813
654.747	0.0170514
654.825	0.0170004
654.904	0.0169422
654.982	0.0170516
655.060	0.0170851
655.138	0.0171729
655.216	0.0172224
655.294	0.0172373
655.372	0.0174207
655.450	0.0171988
655.529	0.0172083
655.607	0.0173228
655.685	0.0173035
655.763	0.0172137
655.841	0.0171271
655.919	0.0170359
655.997	0.0168888
656.075	0.0168504
656.154	0.0166856
656.232	0.0166440
656.310	0.0165769
656.388	0.0165133
656.466	0.0165451
656.544	0.0166959
656.622	0.0168622
656.700	0.0170632
656.779	0.0170686
656.857	0.0171336
656.935	0.0173448
657.013	0.0173226
657.091	0.0173368
657.169	0.0173371
657.247	0.0173434
657.325	0.0171393
657.404	0.0170793
657.482	0.0167867
657.560	0.0166784
657.638	0.0165426
657.716	0.0164436
657.794	0.0162574
657.872	0.0161545
657.950	0.0159722
658.029	0.0160377
658.107	0.0159296
658.185	0.0160391
658.263	0.0161123
658.341	0.0161636
658.419	0.0162582
658.497	0.0164694
658.575	0.0166003
658.654	0.0166288
658.732	0.0169993
658.810	0.0172970
658.888	0.0176807
658.966	0.0179239
659.044	0.0181554
659.122	0.0183424
659.200	0.0186881
659.279	0.0187853
659.357	0.0187418
659.435	0.0188523
659.513	0.0187055
659.591	0.0185735
659.669	0.0182392
659.747	0.0178140
659.825	0.0175179
659.904	0.0172217
659.982	0.0167535
660.060	0.0164591
660.138	0.0161141
660.216	0.0157101
660.294	0.0154892
660.372	0.0153228
660.450	0.0151215
660.529	0.0151653
660.607	0.0153438
660.685	0.0152664
660.763	0.0155130
660.841	0.0158851
660.919	0.0162799
660.997	0.0167532
661.075	0.0170771
661.154	0.0173837
661.232	0.0177223
661.310	0.0180956
661.388	0.0184154
661.466	0.0186726
661.544	0.0187999
661.622	0.0187700
661.700	0.0187322
661.779	0.0186752
661.857	0.0184080
661.935	0.0181532
662.013	0.0177042
662.091	0.0174207
662.169	0.0170176
662.247	0.0166599
662.325	0.0159777
662.404	0.0155512
662.482	0.0151637
662.560	0.0147717
662.638	0.0144994
662.716	0.0142732
662.794	0.0142320
662.872	0.0140282
662.950	0.0141828
663.029	0.0144002
663.107	0.0146997
663.185	0.0151212
663.263	0.0155154
663.341	0.0160481
663.419	0.0165211
663.497	0.0169176
663.575	0.0174461
663.654	0.0178365
663.732	0.0183010
663.810	0.0187346
663.888	0.0188845
663.966	0.0192786
664.044	0.0195560
664.122	0.0197730
664.200	0.0199973
664.279	0.0201637
664.357	0.0202940
664.435	0.0201192
664.513	0.0200618
664.591	0.0200607
664.669	0.0196417
664.747	0.0192123
664.825	0.0187492
664.904	0.0180887
664.982	0.0174337
665.060	0.0167670
665.138	0.0161886
665.216	0.0156509
665.294	0.0151994
665.372	0.0148505
665.450	0.0146832
665.529	0.0144459
665.607	0.0143719
665.685	0.0144357
665.763	0.0146241
665.841	0.0147646
665.919	0.0150250
665.997	0.0154661
666.075	0.0154934
666.154	0.0155721
666.232	0.0156535
666.310	0.0157548
666.388	0.0159351
666.466	0.0159251
666.544	0.0157831
666.622	0.0158462
666.700	0.0156980
666.779	0.0156125
666.857	0.0157641
666.935	0.0157995
667.013	0.0159031
667.091	0.0160493
667.169	0.0163966
667.247	0.0167491
667.325	0.0169976
667.404	0.0175218
667.482	0.0179664
667.560	0.0185855
667.638	0.0190781
667.716	0.0195643
667.794	0.0198794
667.872	0.0202299
667.950	0.0206774
668.029	0.0209805
668.107	0.0211153
668.185	0.0212675
668.263	0.0214162
668.341	0.0211752
668.419	0.0209772
668.497	0.0206363
668.575	0.0200125
668.654	0.0195304
668.732	0.0189693
668.810	0.0180826
668.888	0.0168896
668.966	0.0160257
669.044	0.0153106
669.122	0.0144085
669.200	0.0136398
669.279	0.0127319
669.357	0.0122980
669.435	0.0117757
669.513	0.0114162
669.591	0.0113618
669.669	0.0111951
669.747	0.0113474
669.825	0.0116306
669.904	0.0119186
669.982	0.0125945
670.060	0.0131935
670.138	0.0138868
670.216	0.0145611
670.294	0.0153322
670.372	0.0161211
670.450	0.0169304
670.529	0.0175994
670.607	0.0182236
670.685	0.0187769
670.763	0.0190833
670.841	0.0193922
670.919	0.0197831
670.997	0.0197488
671.075	0.0198519
671.154	0.0198065
671.232	0.0196918
671.310	0.0197841
671.388	0.0197829
671.466	0.0200434
671.544	0.0201261
671.622	0.0204091
671.700	0.0206861
671.779	0.0208862
671.857	0.0209646
671.935	0.0213377
672.013	0.0213092
672.091	0.0212321
672.169	0.0211295
672.247	0.0207109
672.325	0.0202068
672.404	0.0198151
672.482	0.0190143
672.560	0.0183868
672.638	0.0177364
672.716	0.0172372
672.794	0.0165234
672.872	0.0159790
672.950	0.0157059
673.029	0.0153833
673.107	0.0149223
673.185	0.0146335
673.263	0.0145784
673.341	0.0142308
673.419	0.0141992
673.497	0.0137407
673.575	0.0134187
673.654	0.0129438
673.732	0.0123492
673.810	0.0119886
673.888	0.0114668
673.966	0.0112270
674.044	0.0106508
674.122	0.0108265
674.200	0.0106480
674.279	0.0108585
674.357	0.0111674
674.435	0.0116605
674.513	0.0123962
674.591	0.0133392
674.669	0.0141759
674.747	0.0152195
674.825	0.0161874
674.904	0.0170119
674.982	0.0178611
675.060	0.0185928
675.138	0.0191721
675.216	0.0196698
675.294	0.0201283
675.372	0.0202807
675.450	0.0205299
675.529	0.0204259
675.607	0.0206975
675.685	0.0210276
675.763	0.0210345
675.841	0.0213535
675.919	0.0215165
675.997	0.0217038
676.075	0.0222677
676.154	0.0222872
676.232	0.0225999
676.310	0.0228385
676.388	0.0228365
676.466	0.0227426
676.544	0.0223606
676.622	0.0220213
676.700	0.0215997
676.779	0.0209986
676.857	0.0203133
676.935	0.0196268
677.013	0.0188319
677.091	0.0180014
677.169	0.0176828
677.247	0.0169566
677.325	0.0164052
677.404	0.0160995
677.482	0.0158005
677.560	0.0155589
677.638	0.0155305
677.716	0.0155070
677.794	0.0156332
677.872	0.0154282
677.950	0.0151963
678.029	0.0154150
678.107	0.0150670
678.185	0.0148691
678.263	0.0146061
678.341	0.0141650
678.419	0.0138151
678.497	0.0134216
678.575	0.0130251
678.654	0.0127201
678.732	0.0122707
678.810	0.0120928
678.888	0.0117421
678.966	0.0114170
679.044	0.0111369
679.122	0.0110603
679.200	0.0110205
679.279	0.0109595
679.357	0.0108846
679.435	0.0109915
679.513	0.0111826
679.591	0.0113284
679.669	0.0114933
679.747	0.0119619
679.825	0.0125929
679.904	0.0130754
679.982	0.0140050
680.060	0.0147473
680.138	0.0156162
680.216	0.0164158
680.294	0.0176277
680.372	0.0186169
680.450	0.0194809
680.529	0.0204379
680.607	0.0215143
680.685	0.0223833
680.763	0.0233590
680.841	0.0241401
680.919	0.0248019
680.997	0.0256138
681.075	0.0264364
681.154	0.0270525
681.232	0.0274396
681.310	0.0275430
681.388	0.0274338
681.466	0.0275504
681.544	0.0271143
681.622	0.0266505
681.700	0.0260585
681.779	0.0250532
681.857	0.0240652
681.935	0.0228728
682.013	0.0214877
682.091	0.0202416
682.169	0.0187027
682.247	0.0171327
682.325	0.0157497
682.404	0.0144634
682.482	0.0132209
682.560	0.0123251
682.638	0.0112928
682.716	0.0107253
682.794	0.0101514
682.872	0.00996529
682.950	0.0101010
683.029	0.0103062
683.107	0.0105302
683.185	0.0112528
683.263	0.0117664
683.341	0.0122732
683.419	0.0129819
683.497	0.0132745
683.575	0.0135645
683.654	0.0138151
683.732	0.0138436
683.810	0.0137361
683.888	0.0138216
683.966	0.0137680
684.044	0.0138840
684.122	0.0136655
684.200	0.0136728
684.279	0.0136806
684.357	0.0137154
684.435	0.0138095
684.513	0.0139038
684.591	0.0139640
684.669	0.0139170
684.747	0.0141232
684.825	0.0141676
684.904	0.0141262
684.982	0.0139138
685.060	0.0140364
685.138	0.0140670
685.216	0.0142043
685.294	0.0143564
685.372	0.0146520
685.450	0.0151408
685.529	0.0158480
685.607	0.0163855
685.685	0.0169409
685.763	0.0178728
685.841	0.0188981
685.919	0.0198914
685.997	0.0207312
686.075	0.0216837
686.154	0.0223532
686.232	0.0231861
686.310	0.0238142
686.388	0.0245486
686.466	0.0249767
686.544	0.0253350
686.622	0.0256607
686.700	0.0260710
686.779	0.0262529
686.857	0.0264540
686.935	0.0264425
687.013	0.0264380
687.091	0.0258740
687.169	0.0253745
687.247	0.0248634
687.325	0.0239324
687.404	0.0227769
687.482	0.0212595
687.560	0.0199052
687.638	0.0181616
687.716	0.0164677
687.794	0.0150237
687.872	0.0133889
687.950	0.0120934
688.029	0.0110773
688.107	0.0103349
688.185	0.00989990
688.263	0.00953133
688.341	0.00963020
688.419	0.00996147
688.497	0.0103500
688.575	0.0110573
688.654	0.0118500
688.732	0.0124747
688.810	0.0132459
688.888	0.0139163
688.966	0.0144763
689.044	0.0148504
689.122	0.0149558
689.200	0.0149538
689.279	0.0147716
689.357	0.0143263
689.435	0.0139597
689.513	0.0136686
689.591	0.0133047
689.669	0.0128217
689.747	0.0126220
689.825	0.0127300
689.904	0.0125483
689.982	0.0127710
690.060	0.0129413
690.138	0.0131961
690.216	0.0135207
690.294	0.0139764
690.372	0.0143564
690.450	0.0146725
690.529	0.0150244
690.607	0.0152590
690.685	0.0153448
690.763	0.0157600
690.841	0.0159673
690.919	0.0161463
690.997	0.0164173
691.075	0.0167364
691.154	0.0172478
691.232	0.0176926
691.310	0.0182950
691.388	0.0189204
691.466	0.0198313
691.544	0.0205731
691.622	0.0213830
691.700	0.0221114
691.779	0.0228362
691.857	0.0235529
691.935	0.0242064
692.013	0.0245786
692.091	0.0249600
692.169	0.0253046
692.247	0.0255135
692.325	0.0255418
692.404	0.0256565
692.482	0.0254417
692.560	0.0251720
692.638	0.0247554
692.716	0.0241588
692.794	0.0233181
692.872	0.0225082
692.950	0.0213677
693.029	0.0201513
693.107	0.0190916
693.185	0.0178130
693.263	0.0168023
693.341	0.0155376
693.419	0.0145641
693.497	0.0138228
693.575	0.0132583
693.654	0.0127933
693.732	0.0126802
693.810	0.0124915
693.888	0.0125970
693.966	0.0129595
694.044	0.0132229
694.122	0.0134122
694.200	0.0138324
694.279	0.0141474
694.357	0.0141682
694.435	0.0143763
694.513	0.0140627
694.591	0.0140636
694.669	0.0139039
694.747	0.0135818
694.825	0.0131356
694.904	0.0127348
694.982	0.0123846
695.060	0.0119865
695.138	0.0116132
695.216	0.0112897
695.294	0.0108865
695.372	0.0108553
695.450	0.0107851
695.529	0.0108765
695.607	0.0112284
695.685	0.0113828
695.763	0.0119054
695.841	0.0123477
695.919	0.0128105
695.997	0.0135674
696.075	0.0142328
696.154	0.0149180
696.232	0.0158286
696.310	0.0164641
696.388	0.0173569
696.466	0.0180175
696.544	0.0189852
696.622	0.0197514
696.700	0.0203918
696.779	0.0209484
696.857	0.0216987
696.935	0.0221553
697.013	0.0224657
697.091	0.0226739
697.169	0.0231592
697.247	0.0231786
697.325	0.0229266
697.404	0.0229508
697.482	0.0227890
697.560	0.0226584
697.638	0.0224628
697.716	0.0223100
697.794	0.0220402
697.872	0.0219067
697.950	0.0215954
698.029	0.0213162
698.107	0.0211298
698.185	0.0207578
698.263	0.0202956
698.341	0.0197847
698.419	0.0193586
698.497	0.0188943
698.575	0.0183549
698.654	0.0178483
698.732	0.0173016
698.810	0.0168554
698.888	0.0164113
698.966	0.0162467
699.044	0.0159523
699.122	0.0156865
699.200	0.0158250
699.279	0.0159205
699.357	0.0161282
699.435	0.0163857
699.513	0.0166628
699.591	0.0167612
699.669	0.0168581
699.747	0.0168742
699.825	0.0169594
699.904	0.0166956
699.982	0.0164311
700.060	0.0159879
700.138	0.0156380
700.216	0.0148784
700.294	0.0143724
700.372	0.0137380
700.450	0.0131143
700.529	0.0125182
700.607	0.0119418
700.685	0.0114979
700.763	0.0111360
700.841	0.0108701
700.919	0.0107465
700.997	0.0108335
701.075	0.0108384
701.154	0.0110697
701.232	0.0112334
701.310	0.0116774
701.388	0.0121280
701.466	0.0125687
701.544	0.0131055
701.622	0.0136587
701.700	0.0144601
701.779	0.0152318
701.857	0.0160542
701.935	0.0168118
702.013	0.0176470
702.091	0.0184206
702.169	0.0192728
702.247	0.0199283
702.325	0.0206463
702.404	0.0210204
702.482	0.0211675
702.560	0.0214276
702.638	0.0214058
702.716	0.0216148
702.794	0.0215363
702.872	0.0211433
702.950	0.0208108
703.029	0.0206913
703.107	0.0205132
703.185	0.0200491
703.263	0.0198612
703.341	0.0198233
703.419	0.0194576
703.497	0.0192469
703.575	0.0190357
703.654	0.0190347
703.732	0.0188739
703.810	0.0187092
703.888	0.0187204
703.966	0.0184692
704.044	0.0182839
704.122	0.0182384
704.200	0.0178958
704.279	0.0178228
704.357	0.0176791
704.435	0.0174493
704.513	0.0172373
704.591	0.0171512
704.669	0.0171907
704.747	0.0170283
704.825	0.0170392
704.904	0.0170133
704.982	0.0172712
705.060	0.0171659
705.138	0.0172066
705.216	0.0172834
705.294	0.0174230
705.372	0.0173744
705.450	0.0171152
705.529	0.0168876
705.607	0.0168446
705.685	0.0165825
705.763	0.0159304
705.841	0.0157254
705.919	0.0154452
705.997	0.0150636
706.075	0.0146111
706.154	0.0142117
706.232	0.0140557
706.310	0.0139207
706.388	0.0136899
706.466	0.0138097
706.544	0.0140714
706.622	0.0140606
706.700	0.0143731
706.779	0.0147960
706.857	0.0150071
706.935	0.0155376
707.013	0.0159404
707.091	0.0165324
707.169	0.0168295
707.247	0.0173508
707.325	0.0176170
707.404	0.0178951
707.482	0.0181306
707.560	0.0182487
707.638	0.0182541
707.716	0.0182921
707.794	0.0181315
707.872	0.0180184
707.950	0.0178070
708.029	0.0173574
708.107	0.0170071
708.185	0.0169079
708.263	0.0163940
708.341	0.0161438
708.419	0.0160438
708.497	0.0159388
708.575	0.0157523
708.654	0.0156694
708.732	0.0156666
708.810	0.0156654
708.888	0.0157858
708.966	0.0159261
709.044	0.0160466
709.122	0.0161305
709.200	0.0165689
709.279	0.0166538
709.357	0.0169083
709.435	0.0172928
709.513	0.0175628
709.591	0.0175585
709.669	0.0179359
709.747	0.0182397
709.825	0.0185065
709.904	0.0189574
709.982	0.0190582
710.060	0.0192913
710.138	0.0194381
710.216	0.0193401
710.294	0.0195309
710.372	0.0195871
710.450	0.0195247
710.529	0.0195923
710.607	0.0194680
710.685	0.0192139
710.763	0.0189330
710.841	0.0187543
710.919	0.0184563
710.997	0.0180845
711.075	0.0175784
711.154	0.0172200
711.232	0.0168616
711.310	0.0163530
711.388	0.0160557
711.466	0.0157284
711.544	0.0153294
711.622	0.0149661
711.700	0.0148969
711.779	0.0148639
711.857	0.0147013
711.935	0.0148998
712.013	0.0150130
712.091	0.0151764
712.169	0.0154937
712.247	0.0157633
712.325	0.0161898
712.404	0.0165067
712.482	0.0167296
712.560	0.0172535
712.638	0.0176675
712.716	0.0180755
712.794	0.0184303
712.872	0.0185524
712.950	0.0186679
713.029	0.0187890
713.107	0.0189105
713.185	0.0187448
713.263	0.0185543
713.341	0.0183624
713.419	0.0180350
713.497	0.0175903
713.575	0.0173022
713.654	0.0167229
713.732	0.0163263
713.810	0.0160419
713.888	0.0155216
713.966	0.0152451
714.044	0.0149168
714.122	0.0148248
714.200	0.0147487
714.279	0.0146728
714.357	0.0145280
714.435	0.0146926
714.513	0.0149039
714.591	0.0149841
714.669	0.0152563
714.747	0.0153712
714.825	0.0155621
714.904	0.0157249
714.982	0.0159920
715.060	0.0162374
715.138	0.0164436
715.216	0.0165548
715.294	0.0167099
715.372	0.0170335
715.450	0.0171379
715.529	0.0172025
715.607	0.0172910
715.685	0.0174786
715.763	0.0175916
715.841	0.0178152
715.919	0.0179371
715.997	0.0179716
716.075	0.0178481
716.154	0.0177982
716.232	0.0178799
716.310	0.0177210
716.388	0.0177073
716.466	0.0175238
716.544	0.0174638
716.622	0.0172194
716.700	0.0170204
716.779	0.0169756
716.857	0.0169115
716.935	0.0168189
717.013	0.0169489
717.091	0.0168571
717.169	0.0167376
717.247	0.0170117
717.325	0.0171487
717.404	0.0172965
717.482	0.0175218
717.560	0.0176714
717.638	0.0176753
717.716	0.0180320
717.794	0.0180762
717.872	0.0182008
717.950	0.0182648
718.029	0.0184935
718.107	0.0184871
718.185	0.0186586
718.263	0.0187768
718.341	0.0187530
718.419	0.0184693
718.497	0.0184014
718.575	0.0181607
718.654	0.0181353
718.732	0.0178306
718.810	0.0176467
718.888	0.0173476
718.966	0.0170018
719.044	0.0167715
719.122	0.0162879
719.200	0.0161562
719.279	0.0160016
719.357	0.0156746
719.435	0.0154667
719.513	0.0153355
719.591	0.0153453
719.669	0.0152709
719.747	0.0154595
719.825	0.0155132
719.904	0.0157470
719.982	0.0158595
720.060	0.0162078
720.138	0.0164119
720.216	0.0166735
720.294	0.0169661
720.372	0.0173754
720.450	0.0176607
720.529	0.0177226
720.607	0.0178673
720.685	0.0181846
720.763	0.0180779
720.841	0.0180960
720.919	0.0181005
720.997	0.0180753
721.075	0.0178822
721.154	0.0176785
721.232	0.0174207
721.310	0.0171966
721.388	0.0170451
721.466	0.0168787
721.544	0.0164799
721.622	0.0161761
721.700	0.0160094
721.779	0.0156011
721.857	0.0152930
721.935	0.0152034
722.013	0.0148258
722.091	0.0146177
722.169	0.0144260
722.247	0.0142688
722.325	0.0141987
722.404	0.0142532
722.482	0.0143616
722.560	0.0145501
722.638	0.0145068
722.716	0.0149311
722.794	0.0152101
722.872	0.0154211
722.950	0.0160499
723.029	0.0163804
723.107	0.0167774
723.185	0.0172654
723.263	0.0177365
723.341	0.0180259
723.419	0.0185414
723.497	0.0188757
723.575	0.0191185
723.654	0.0194572
723.732	0.0195988
723.810	0.0196668
723.888	0.0197849
723.966	0.0197215
724.044	0.0196011
724.122	0.0193621
724.200	0.0191745
724.279	0.0188114
724.357	0.0185036
724.435	0.0181902
724.513	0.0178291
724.591	0.0176033
724.669	0.0173796
724.747	0.0170534
724.825	0.0169199
724.904	0.0166850
724.982	0.0166006
725.060	0.0164897
725.138	0.0165880
725.216	0.0165820
725.294	0.0165218
725.372	0.0168064
725.450	0.0169202
725.529	0.0170535
725.607	0.0172762
725.685	0.0172453
725.763	0.0174080
725.841	0.0176507
725.919	0.0176204
725.997	0.0178265
726.075	0.0176987
726.154	0.0178117
726.232	0.0177071
726.310	0.0177418
726.388	0.0175438
726.466	0.0175887
726.544	0.0174613
726.622	0.0172311
726.700	0.0171240
726.779	0.0169457
726.857	0.0168279
726.935	0.0167394
727.013	0.0164278
727.091	0.0161834
727.169	0.0159799
727.247	0.0157882
727.325	0.0159345
727.404	0.0156853
727.482	0.0154735
727.560	0.0153532
727.638	0.0154317
727.716	0.0152664
727.794	0.0153078
727.872	0.0151865
727.950	0.0151092
728.029	0.0151896
728.107	0.0151672
728.185	0.0151736
728.263	0.0154025
728.341	0.0155062
728.419	0.0156319
728.497	0.0158479
728.575	0.0160839
728.654	0.0162879
728.732	0.0164551
728.810	0.0167433
728.888	0.0169747
728.966	0.0172226
729.044	0.0174175
729.122	0.0175830
729.200	0.0176290
729.279	0.0176178
729.357	0.0176739
729.435	0.0177695
729.513	0.0175422
729.591	0.0174760
729.669	0.0173984
729.747	0.0171610
729.825	0.0170805
729.904	0.0169706
729.982	0.0167346
730.060	0.0165635
730.138	0.0165757
730.216	0.0163876
730.294	0.0165993
730.372	0.0165281
730.450	0.0166904
730.529	0.0168009
730.607	0.0170467
730.685	0.0172047
730.763	0.0173495
730.841	0.0175870
730.919	0.0178522
730.997	0.0181806
731.075	0.0183747
731.154	0.0185174
731.232	0.0186726
731.310	0.0188064
731.388	0.0189623
731.466	0.0189339
731.544	0.0188670
731.622	0.0187486
731.700	0.0187939
731.779	0.0186445
731.857	0.0185204
731.935	0.0182278
732.013	0.0180791
732.091	0.0177742
732.169	0.0176006
732.247	0.0174109
732.325	0.0171819
732.404	0.0171027
732.482	0.0168271
732.560	0.0165197
732.638	0.0164161
732.716	0.0162294
732.794	0.0161867
732.872	0.0160703
732.950	0.0159843
733.029	0.0159352
733.107	0.0158667
733.185	0.0159122
733.263	0.0159419
733.341	0.0157549
733.419	0.0158648
733.497	0.0158521
733.575	0.0159150
733.654	0.0159785
733.732	0.0160909
733.810	0.0161786
733.888	0.0162189
733.966	0.0165384
734.044	0.0165620
734.122	0.0166360
734.200	0.0169070
734.279	0.0170680
734.357	0.0172772
734.435	0.0173044
734.513	0.0174828
734.591	0.0174761
734.669	0.0175552
734.747	0.0175873
734.825	0.0174722
734.904	0.0175011
734.982	0.0174396
735.060	0.0172772
735.138	0.0173664
735.216	0.0169398
735.294	0.0167437
735.372	0.0165317
735.450	0.0163885
735.529	0.0163242
735.607	0.0159330
735.685	0.0157278
735.763	0.0156786
735.841	0.0157195
735.919	0.0156122
735.997	0.0156778
736.075	0.0154942
736.154	0.0157611
736.232	0.0159599
736.310	0.0158976
736.388	0.0160970
736.466	0.0162778
736.544	0.0166308
736.622	0.0167625
736.700	0.0169933
736.779	0.0170951
736.857	0.0171938
736.935	0.0173856
737.013	0.0175601
737.091	0.0177217
737.169	0.0177156
737.247	0.0176376
737.325	0.0176253
737.404	0.0175164
737.482	0.0175170
737.560	0.0174374
737.638	0.0174458
737.716	0.0174593
737.794	0.0172505
737.872	0.0172221
737.950	0.0172598
738.029	0.0170425
738.107	0.0171553
738.185	0.0171735
738.263	0.0172253
738.341	0.0172981
738.419	0.0172298
738.497	0.0174217
738.575	0.0174506
738.654	0.0173821
738.732	0.0174861
738.810	0.0174103
738.888	0.0173431
738.966	0.0173331
739.044	0.0172846
739.122	0.0175048
739.200	0.0174541
739.279	0.0175930
739.357	0.0174207
739.435	0.0176002
739.513	0.0175098
739.591	0.0176471
739.669	0.0176320
739.747	0.0178015
739.825	0.0177156
739.904	0.0176830
739.982	0.0177884
740.060	0.0176453
740.138	0.0175972
740.216	0.0175991
740.294	0.0175558
740.372	0.0174216
740.450	0.0171805
740.529	0.0169877
740.607	0.0168584
740.685	0.0166902
740.763	0.0165195
740.841	0.0163691
740.919	0.0162398
740.997	0.0159621
741.075	0.0159704
741.154	0.0159254
741.232	0.0157214
741.310	0.0156940
741.388	0.0156104
741.466	0.0158631
741.544	0.0158677
741.622	0.0158751
741.700	0.0157663
741.779	0.0159756
741.857	0.0160614
741.935	0.0162950
742.013	0.0165090
742.091	0.0165180
742.169	0.0166998
742.247	0.0168335
742.325	0.0169176
742.404	0.0169621
742.482	0.0170238
742.560	0.0169806
742.638	0.0170400
742.716	0.0170695
742.794	0.0169740
742.872	0.0168722
742.950	0.0168690
743.029	0.0167989
743.107	0.0168472
743.185	0.0169123
743.263	0.0167793
743.341	0.0167166
743.419	0.0168483
743.497	0.0166684
743.575	0.0168390
743.654	0.0169678
743.732	0.0169058
743.810	0.0168603
743.888	0.0168617
743.966	0.0172086
744.044	0.0171478
744.122	0.0170869
744.200	0.0171098
744.279	0.0170121
744.357	0.0172536
744.435	0.0171133
744.513	0.0169527
744.591	0.0169669
744.669	0.0170932
744.747	0.0170477
744.825	0.0169996
744.904	0.0172169
744.982	0.0172861
745.060	0.0173837
745.138	0.0176092
745.216	0.0177041
745.294	0.0176534
745.372	0.0177140
745.450	0.0179223
745.529	0.0178504
745.607	0.0177686
745.685	0.0177895
745.763	0.0178067
745.841	0.0175711
745.919	0.0174905
745.997	0.0174339
746.075	0.0173344
746.154	0.0170456
746.232	0.0169453
746.310	0.0168444
746.388	0.0167279
746.466	0.0165408
746.544	0.0166138
746.622	0.0166589
746.700	0.0166440
746.779	0.0165420
746.857	0.0165682
746.935	0.0166745
747.013	0.0167222
747.091	0.0167561
747.169	0.0168745
747.247	0.0169852
747.325	0.0169798
747.404	0.0170476
747.482	0.0171474
747.560	0.0170617
747.638	0.0172298
747.716	0.0173084
747.794	0.0173559
747.872	0.0171907
747.950	0.0172829
748.029	0.0171524
748.107	0.0169918
748.185	0.0171885
748.263	0.0171140
748.341	0.0171100
748.419	0.0170795
748.497	0.0169370
748.575	0.0169047
748.654	0.0169737
748.732	0.0168886
748.810	0.0168326
748.888	0.0168002
748.966	0.0167391
749.044	0.0165366
749.122	0.0165267
749.200	0.0165354
749.279	0.0164725
749.357	0.0165421
749.435	0.0165125
749.513	0.0162695
749.591	0.0162511
749.669	0.0163665
749.747	0.0161672
749.825	0.0163068
749.904	0.0161353
749.982	0.0160825
750.060	0.0162042
750.138	0.0161719
750.216	0.0161776
750.294	0.0161803
750.372	0.0162178
750.450	0.0164354
750.529	0.0164070
750.607	0.0166109
750.685	0.0164983
750.763	0.0166990
750.841	0.0168291
750.919	0.0167287
750.997	0.0168170
751.075	0.0170592
751.154	0.0170947
751.232	0.0169794
751.310	0.0168719
751.388	0.0169271
751.466	0.0170849
751.544	0.0170525
751.622	0.0170868
751.700	0.0170772
751.779	0.0170068
751.857	0.0170644
751.935	0.0172464
752.013	0.0171043
752.091	0.0171687
752.169	0.0171813
752.247	0.0172289
752.325	0.0173606
752.404	0.0174909
752.482	0.0174296
752.560	0.0174155
752.638	0.0174371
752.716	0.0175800
752.794	0.0176074
752.872	0.0178242
752.950	0.0177229
753.029	0.0178686
753.107	0.0177351
753.185	0.0175536
753.263	0.0175697
753.341	0.0174280
753.419	0.0176053
753.497	0.0172675
753.575	0.0173311
753.654	0.0172858
753.732	0.0172848
753.810	0.0171207
753.888	0.0169431
753.966	0.0168912
754.044	0.0170630
754.122	0.0169786
754.200	0.0170741
754.279	0.0170777
754.357	0.0169852
754.435	0.0170200
754.513	0.0170290
754.591	0.0170737
754.669	0.0171361
754.747	0.0169727
754.825	0.0169788
754.904	0.0169804
754.982	0.0169745
755.060	0.0167641
755.138	0.0168497
755.216	0.0168366
755.294	0.0168109
755.372	0.0168439
755.450	0.0167773
755.529	0.0168636
755.607	0.0169058
755.685	0.0169614
755.763	0.0169447
755.841	0.0168446
755.919	0.0169375
755.997	0.0169346
756.075	0.0168876
756.154	0.0167845
756.232	0.0168669
756.310	0.0168252
756.388	0.0168782
756.466	0.0167445
756.544	0.0168745
756.622	0.0166820
756.700	0.0168165
756.779	0.0167619
756.857	0.0166924
756.935	0.0168213
757.013	0.0166726
757.091	0.0166628
757.169	0.0167929
757.247	0.0167616
757.325	0.0167635
757.404	0.0167324
757.482	0.0164992
757.560	0.0167447
757.638	0.0167153
757.716	0.0167747
757.794	0.0166624
757.872	0.0167043
757.950	0.0166341
758.029	0.0166122
758.107	0.0167928
758.185	0.0168440
758.263	0.0167222
758.341	0.0169011
758.419	0.0167635
758.497	0.0167616
758.575	0.0167911
758.654	0.0168665
758.732	0.0167825
758.810	0.0166752
758.888	0.0164688
758.966	0.0166396
759.044	0.0167573
759.122	0.0166745
759.200	0.0166783
759.279	0.0167349
759.357	0.0167570
759.435	0.0167660
759.513	0.0169800
759.591	0.0169936
759.669	0.0170453
759.747	0.0171049
759.825	0.0172026
759.904	0.0173471
759.982	0.0173475
760.060	0.0175223
760.138	0.0175143
760.216	0.0175873
760.294	0.0177547
760.372	0.0176505
760.450	0.0177550
760.529	0.0176911
760.607	0.0176035
760.685	0.0176793
760.763	0.0176859
760.841	0.0176669
760.919	0.0176576
760.997	0.0175627
761.075	0.0175228
761.154	0.0175203
761.232	0.0175288
761.310	0.0174633
761.388	0.0173602
761.466	0.0171493
761.544	0.0173112
761.622	0.0172269
761.700	0.0172073
761.779	0.0172247
761.857	0.0170840
761.935	0.0170412
762.013	0.0171288
762.091	0.0171986
762.169	0.0169601
762.247	0.0169448
762.325	0.0169335
762.404	0.0169769
762.482	0.0169760
762.560	0.0168465
762.638	0.0169126
762.716	0.0167015
762.794	0.0167107
762.872	0.0165332
762.950	0.0165443
763.029	0.0165174
763.107	0.0165407
763.185	0.0163830
763.263	0.0163687
763.341	0.0161697
763.419	0.0161645
763.497	0.0161720
763.575	0.0162327
763.654	0.0162002
763.732	0.0162174
763.810	0.0163735
763.888	0.0163343
763.966	0.0164471
764.044	0.0164483
764.122	0.0164513
764.200	0.0165206
764.279	0.0166542
764.357	0.0168159
764.435	0.0168760
764.513	0.0168383
764.591	0.0167871
764.669	0.0170901
764.747	0.0170718
764.825	0.0170074
764.904	0.0171910
764.982	0.0171293
765.060	0.0172884
765.138	0.0171439
765.216	0.0172726
765.294	0.0172255
765.372	0.0170297
765.450	0.0170457
765.529	0.0171152
765.607	0.0168515
765.685	0.0168784
765.763	0.0167789
765.841	0.0166996
765.919	0.0166462
765.997	0.0166177
766.075	0.0166948
766.154	0.0166035
766.232	0.0165383
766.310	0.0164999
766.388	0.0166553
766.466	0.0165591
766.544	0.0166418
766.622	0.0166882
766.700	0.0167097
766.779	0.0168629
766.857	0.0168436
766.935	0.0169513
767.013	0.0171061
767.091	0.0170235
767.169	0.0170608
767.247	0.0170458
767.325	0.0171486
767.404	0.0172563
767.482	0.0172624
767.560	0.0174397
767.638	0.0174146
767.716	0.0174942
767.794	0.0175933
767.872	0.0177750
767.950	0.0178350
768.029	0.0179705
768.107	0.0178822
768.185	0.0178977
768.263	0.0179993
768.341	0.0180065
768.419	0.0179695
768.497	0.0178629
768.575	0.0178487
768.654	0.0178571
768.732	0.0177270
768.810	0.0175677
768.888	0.0174631
768.966	0.0173358
769.044	0.0172292
769.122	0.0171777
769.200	0.0171561
769.279	0.0170459
769.357	0.0170668
769.435	0.0168979
769.513	0.0167123
769.591	0.0167118
769.669	0.0165945
769.747	0.0165121
769.825	0.0163575
769.904	0.0162428
769.982	0.0162293
770.060	0.0162045
770.138	0.0161942
770.216	0.0160572
770.294	0.0159919
770.372	0.0160644
770.450	0.0159623
770.529	0.0161141
770.607	0.0162294
770.685	0.0161469
770.763	0.0162299
770.841	0.0163007
770.919	0.0164351
770.997	0.0165253
771.075	0.0164791
771.154	0.0165028
771.232	0.0166544
771.310	0.0165617
771.388	0.0166773
771.466	0.0167650
771.544	0.0165835
771.622	0.0166549
771.700	0.0167551
771.779	0.0167334
771.857	0.0169176
771.935	0.0168803
772.013	0.0169254
772.091	0.0168861
772.169	0.0170583
772.247	0.0169936
772.325	0.0171992
772.404	0.0172367
772.482	0.0171623
772.560	0.0171767
772.638	0.0172986
772.716	0.0174312
772.794	0.0173621
772.872	0.0173522
772.950	0.0174135
773.029	0.0175564
773.107	0.0174254
773.185	0.0174628
773.263	0.0173953
773.341	0.0174463
773.419	0.0172324
773.497	0.0173576
773.575	0.0174629
773.654	0.0172638
773.732	0.0172514
773.810	0.0172909
773.888	0.0172801
773.966	0.0172214
774.044	0.0171797
774.122	0.0171426
774.200	0.0171449
774.279	0.0169869
774.357	0.0169862
774.435	0.0168907
774.513	0.0170931
774.591	0.0169035
774.669	0.0167428
774.747	0.0166232
774.825	0.0168001
774.904	0.0166725
774.982	0.0166095
775.060	0.0164967
775.138	0.0164835
775.216	0.0164049
775.294	0.0163806
775.372	0.0163161
775.450	0.0162946
775.529	0.0164756
775.607	0.0163640
775.685	0.0163931
775.763	0.0163631
775.841	0.0164256
775.919	0.0163549
775.997	0.0165117
776.075	0.0165257
776.154	0.0165594
776.232	0.0164816
776.310	0.0167125
776.388	0.0168216
776.466	0.0168909
776.544	0.0169989
776.622	0.0171599
776.700	0.0170134
776.779	0.0172455
776.857	0.0172005
776.935	0.0173090
777.013	0.0174676
777.091	0.0174457
777.169	0.0175845
777.247	0.0177211
777.325	0.0179182
777.404	0.0180423
777.482	0.0179247
777.560	0.0180544
777.638	0.0181645
777.716	0.0182748
777.794	0.0181767
777.872	0.0181674
777.950	0.0181399
778.029	0.0181731
778.107	0.0181660
778.185	0.0179749
778.263	0.0180450
778.341	0.0178622
778.419	0.0177819
778.497	0.0175725
778.575	0.0174402
778.654	0.0174229
778.732	0.0171733
778.810	0.0168900
778.888	0.0168794
778.966	0.0168532
779.044	0.0166672
779.122	0.0165588
779.200	0.0162663
779.279	0.0161610
779.357	0.0161089
779.435	0.0160577
779.513	0.0160213
779.591	0.0159672
779.669	0.0159749
779.747	0.0159333
779.825	0.0159380
779.904	0.0157677
779.982	0.0158823
780.060	0.0158006
780.138	0.0159857
780.216	0.0160454
780.294	0.0159010
780.372	0.0161865
780.450	0.0161697
780.529	0.0161040
780.607	0.0161081
780.685	0.0161451
780.763	0.0161990
780.841	0.0162666
780.919	0.0162309
780.997	0.0163419
781.075	0.0163316
781.154	0.0162920
781.232	0.0163602
781.310	0.0164474
781.388	0.0163749
781.466	0.0167417
781.544	0.0165830
781.622	0.0166663
781.700	0.0166502
781.779	0.0168079
781.857	0.0169117
781.935	0.0169491
782.013	0.0170432
782.091	0.0169988
782.169	0.0172363
782.247	0.0173951
782.325	0.0174570
782.404	0.0176138
782.482	0.0176801
782.560	0.0178414
782.638	0.0178622
782.716	0.0179733
782.794	0.0180594
782.872	0.0181084
782.950	0.0182066
783.029	0.0182739
783.107	0.0184172
783.185	0.0185245
783.263	0.0184909
783.341	0.0185902
783.419	0.0185747
783.497	0.0186489
783.575	0.0185453
783.654	0.0185570
783.732	0.0184862
783.810	0.0184289
783.888	0.0182399
783.966	0.0181736
784.044	0.0179912
784.122	0.0178156
784.200	0.0176759
784.279	0.0174347
784.357	0.0174018
784.435	0.0172401
784.513	0.0170840
784.591	0.0170074
784.669	0.0166898
784.747	0.0166280
784.825	0.0164763
784.904	0.0163920
784.982	0.0162099
785.060	0.0162387
785.138	0.0160238
785.216	0.0161172
785.294	0.0159934
785.372	0.0159969
785.450	0.0158070
785.529	0.0158659
785.607	0.0157771
785.685	0.0157658
785.763	0.0157647
785.841	0.0157061
785.919	0.0156730
785.997	0.0157032
786.075	0.0156931
786.154	0.0157435
786.232	0.0156847
786.310	0.0158318
786.388	0.0156672
786.466	0.0157945
786.544	0.0159593
786.622	0.0160128
786.700	0.0160035
786.779	0.0161099
786.857	0.0161516
786.935	0.0163244
787.013	0.0162757
787.091	0.0164166
787.169	0.0165101
787.247	0.0164330
787.325	0.0166254
787.404	0.0167929
787.482	0.0167278
787.560	0.0168822
787.638	0.0170332
787.716	0.0171812
787.794	0.0173235
787.872	0.0173208
787.950	0.0174484
788.029	0.0175275
788.107	0.0177446
788.185	0.0177601
788.263	0.0178967
788.341	0.0178775
788.419	0.0179436
788.497	0.0180519
788.575	0.0180691
788.654	0.0183189
788.732	0.0182810
788.810	0.0182250
788.888	0.0182478
788.966	0.0184062
789.044	0.0183738
789.122	0.0184226
789.200	0.0183388
789.279	0.0182547
789.357	0.0181207
789.435	0.0182666
789.513	0.0182652
789.591	0.0180496
789.669	0.0179375
789.747	0.0179026
789.825	0.0177390
789.904	0.0176706
789.982	0.0175717
790.060	0.0175284
790.138	0.0172381
790.216	0.0172305
790.294	0.0171165
790.372	0.0169127
790.450	0.0168484
790.529	0.0166591
790.607	0.0164302
790.685	0.0164709
790.763	0.0163109
790.841	0.0161558
790.919	0.0161054
790.997	0.0159985
791.075	0.0161446
791.154	0.0160339
791.232	0.0159654
791.310	0.0158682
791.388	0.0158989
791.466	0.0160251
791.544	0.0158118
791.622	0.0158757
791.700	0.0158314
791.779	0.0159618
791.857	0.0158319
791.935	0.0159052
792.013	0.0160348
792.091	0.0160989
792.169	0.0161169
792.247	0.0161110
792.325	0.0162750
792.404	0.0162745
792.482	0.0165714
792.560	0.0166967
792.638	0.0166699
792.716	0.0167669
792.794	0.0168963
792.872	0.0169818
792.950	0.0172020
793.029	0.0172935
793.107	0.0173428
793.185	0.0173627
793.263	0.0174946
793.341	0.0175472
793.419	0.0175738
793.497	0.0175778
793.575	0.0178262
793.654	0.0177704
793.732	0.0177630
793.810	0.0177809
793.888	0.0178074
793.966	0.0178011
794.044	0.0179115
794.122	0.0179736
794.200	0.0178165
794.279	0.0178887
794.357	0.0178228
794.435	0.0177835
794.513	0.0176704
794.591	0.0177086
794.669	0.0176230
794.747	0.0175767
794.825	0.0175667
794.904	0.0174940
794.982	0.0174258
795.060	0.0172369
795.138	0.0173248
795.216	0.0171828
795.294	0.0173661
795.372	0.0172289
795.450	0.0171709
795.529	0.0169777
795.607	0.0169305
795.685	0.0169142
795.763	0.0168021
795.841	0.0166238
795.919	0.0167039
795.997	0.0167348
796.075	0.0165484
796.154	0.0164826
796.232	0.0164832
796.310	0.0163431
796.388	0.0163104
796.466	0.0161324
796.544	0.0162903
796.622	0.0161617
796.700	0.0160801
796.779	0.0158786
796.857	0.0159952
796.935	0.0159195
797.013	0.0159376
797.091	0.0159657
797.169	0.0160993
797.247	0.0159280
797.325	0.0160728
797.404	0.0159885
797.482	0.0160793
797.560	0.0162232
797.638	0.0164106
797.716	0.0163155
797.794	0.0164944
797.872	0.0165916
797.950	0.0166968
798.029	0.0167474
798.107	0.0168940
798.185	0.0168448
798.263	0.0170242
798.341	0.0169904
798.419	0.0171371
798.497	0.0170836
798.575	0.0173353
798.654	0.0173936
798.732	0.0173677
798.810	0.0174198
798.888	0.0174997
798.966	0.0176490
799.044	0.0177244
799.122	0.0175042
799.200	0.0178840
799.279	0.0178367
799.357	0.0178637
799.435	0.0179214
799.513	0.0178929
799.591	0.0179162
799.669	0.0177341
799.747	0.0177270
799.825	0.0179203
799.904	0.0177337
799.982	0.0176803
800.060	0.0177449
800.138	0.0175421
800.216	0.0174544
800.294	0.0175253
800.372	0.0174811
800.450	0.0173785
800.529	0.0174574
800.607	0.0172016
800.685	0.0173373
800.763	0.0171757
800.841	0.0171507
800.919	0.0170767
800.997	0.0170705
801.075	0.0171733
801.154	0.0169723
801.232	0.0168883
801.310	0.0169240
801.388	0.0168555
801.466	0.0167587
801.544	0.0166841
801.622	0.0167633
801.700	0.0165469
801.779	0.0164526
801.857	0.0165673
801.935	0.0164754
802.013	0.0164483
802.091	0.0164355
802.169	0.0162952
802.247	0.0162126
802.325	0.0161475
802.404	0.0161986
802.482	0.0161440
802.560	0.0162924
802.638	0.0163203
802.716	0.0162444
802.794	0.0161649
802.872	0.0161967
802.950	0.0163972
803.029	0.0163092
803.107	0.0163576
803.185	0.0164831
803.263	0.0165894
803.341	0.0167313
803.419	0.0165557
803.497	0.0165590
803.575	0.0167120
803.654	0.0168282
803.732	0.0167559
803.810	0.0168122
803.888	0.0167741
803.966	0.0168635
804.044	0.0168172
804.122	0.0168259
804.200	0.0169247
804.279	0.0168929
804.357	0.0170762
804.435	0.0170911
804.513	0.0169088
804.591	0.0169501
804.669	0.0170948
804.747	0.0170396
804.825	0.0170113
804.904	0.0171777
804.982	0.0171967
805.060	0.0171185
805.138	0.0172860
805.216	0.0173509
805.294	0.0173737
805.372	0.0173125
805.450	0.0174087
805.529	0.0173084
805.607	0.0174445
805.685	0.0174276
805.763	0.0174260
805.841	0.0175797
805.919	0.0174540
805.997	0.0175195
806.075	0.0173584
806.154	0.0174895
806.232	0.0175602
806.310	0.0175452
806.388	0.0175573
806.466	0.0175343
806.544	0.0175900
806.622	0.0175970
806.700	0.0174967
806.779	0.0174998
806.857	0.0174595
806.935	0.0174189
807.013	0.0173492
807.091	0.0173202
807.169	0.0172770
807.247	0.0171725
807.325	0.0170491
807.404	0.0170495
807.482	0.0168087
807.560	0.0169891
807.638	0.0168830
807.716	0.0167731
807.794	0.0167972
807.872	0.0166853
807.950	0.0168642
808.029	0.0166983
808.107	0.0166495
808.185	0.0166103
808.263	0.0166363
808.341	0.0166856
808.419	0.0164960
808.497	0.0165089
808.575	0.0164616
808.654	0.0165292
808.732	0.0165511
808.810	0.0165282
808.888	0.0164945
808.966	0.0165545
809.044	0.0166907
809.122	0.0167141
809.200	0.0165833
809.279	0.0166083
809.357	0.0167280
809.435	0.0167178
809.513	0.0167887
809.591	0.0168577
809.669	0.0167226
809.747	0.0167469
809.825	0.0166988
809.904	0.0165040
809.982	0.0168243
810.060	0.0167204
810.138	0.0168541
810.216	0.0167737
810.294	0.0167161
810.372	0.0168108
810.450	0.0167633
810.529	0.0168071
810.607	0.0168489
810.685	0.0168193
810.763	0.0168183
810.841	0.0167245
810.919	0.0166968
810.997	0.0166990
811.075	0.0167125
811.154	0.0168332
811.232	0.0168304
811.310	0.0168507
811.388	0.0167886
811.466	0.0167840
811.544	0.0169077
811.622	0.0167585
811.700	0.0169595
811.779	0.0169125
811.857	0.0169601
811.935	0.0168536
812.013	0.0169383
812.091	0.0170473
812.169	0.0169640
812.247	0.0169789
812.325	0.0169602
812.404	0.0170509
812.482	0.0170941
812.560	0.0171936
812.638	0.0172201
812.716	0.0171526
812.794	0.0171595
812.872	0.0172601
812.950	0.0171394
813.029	0.0171810
813.107	0.0173257
813.185	0.0173017
813.263	0.0174246
813.341	0.0174614
813.419	0.0174788
813.497	0.0175103
813.575	0.0175576
813.654	0.0174377
813.732	0.0174754
813.810	0.0175497
813.888	0.0174680
813.966	0.0175274
814.044	0.0175671
814.122	0.0175241
814.200	0.0175343
814.279	0.0172800
814.357	0.0174017
814.435	0.0172512
814.513	0.0172020
814.591	0.0171591
814.669	0.0172351
814.747	0.0170603
814.825	0.0169213
814.904	0.0170566
814.982	0.0170023
815.060	0.0169273
815.138	0.0169209
815.216	0.0168941
815.294	0.0168295
815.372	0.0168898
815.450	0.0168494
815.529	0.0167238
815.607	0.0167479
815.685	0.0166243
815.763	0.0165838
815.841	0.0165973
815.919	0.0166892
815.997	0.0167994
816.075	0.0165420
816.154	0.0163976
816.232	0.0166777
816.310	0.0166086
816.388	0.0163995
816.466	0.0166000
816.544	0.0166714
816.622	0.0165114
816.700	0.0166129
816.779	0.0167440
816.857	0.0165965
816.935	0.0168094
817.013	0.0166969
817.091	0.0167854
817.169	0.0167294
817.247	0.0167077
817.325	0.0168132
817.404	0.0167545
817.482	0.0166421
817.560	0.0168180
817.638	0.0168701
817.716	0.0166710
817.794	0.0166640
817.872	0.0168039
817.950	0.0167847
818.029	0.0168340
818.107	0.0167840
818.185	0.0167572
818.263	0.0167086
818.341	0.0168755
818.419	0.0169435
818.497	0.0168673
818.575	0.0169904
818.654	0.0169888
818.732	0.0171269
818.810	0.0171100
818.888	0.0172668
818.966	0.0172017
819.044	0.0173067
819.122	0.0173097
819.200	0.0172899
819.279	0.0173831
819.357	0.0173116
819.435	0.0172572
819.513	0.0173669
819.591	0.0173971
819.669	0.0173190
819.747	0.0174228
819.825	0.0175142
819.904	0.0174183
819.982	0.0174395
820.060	0.0173187
820.138	0.0171656
820.216	0.0173087
820.294	0.0173181
820.372	0.0173582
820.450	0.0173359
820.529	0.0173031
820.607	0.0171783
820.685	0.0172623
820.763	0.0172034
820.841	0.0171364
820.919	0.0171342
820.997	0.0170638
821.075	0.0171639
821.154	0.0170606
821.232	0.0170914
821.310	0.0169133
821.388	0.0168508
821.466	0.0167076
821.544	0.0166835
821.622	0.0167352
821.700	0.0168133
821.779	0.0166108
821.857	0.0165749
821.935	0.0166650
822.013	0.0165394
822.091	0.0166416
822.169	0.0166708
822.247	0.0166522
822.325	0.0167330
822.404	0.0167156
822.482	0.0167733
822.560	0.0166943
822.638	0.0168512
822.716	0.0170498
822.794	0.0170291
822.872	0.0170869
822.950	0.0170164
823.029	0.0170413
823.107	0.0170664
823.185	0.0169819
823.263	0.0169949
823.341	0.0171394
823.419	0.0170419
823.497	0.0170255
823.575	0.0169340
823.654	0.0169202
823.732	0.0171119
823.810	0.0169064
823.888	0.0169112
823.966	0.0168871
824.044	0.0168469
824.122	0.0170730
824.200	0.0168121
824.279	0.0169859
824.357	0.0168526
824.435	0.0169042
824.513	0.0169893
824.591	0.0170351
824.669	0.0170280
824.747	0.0170235
824.825	0.0170811
824.904	0.0170036
824.982	0.0172114
825.060	0.0170667
825.138	0.0169990
825.216	0.0169263
825.294	0.0168649
825.372	0.0170573
825.450	0.0167811
825.529	0.0168626
825.607	0.0169490
825.685	0.0168433
825.763	0.0168850
825.841	0.0168362
825.919	0.0169163
825.997	0.0168746
826.075	0.0168581
826.154	0.0167045
826.232	0.0166717
826.310	0.0167766
826.388	0.0168545
826.466	0.0167496
826.544	0.0167668
826.622	0.0167863
826.700	0.0166559
826.779	0.0168881
826.857	0.0165630
826.935	0.0167534
827.013	0.0168391
827.091	0.0167612
827.169	0.0166957
827.247	0.0166671
827.325	0.0168188
827.404	0.0168218
827.482	0.0168781
827.560	0.0167791
827.638	0.0168721
827.716	0.0168890
827.794	0.0169629
827.872	0.0170914
827.950	0.0169553
828.029	0.0170133
828.107	0.0172530
828.185	0.0172078
828.263	0.0170457
828.341	0.0170660
828.419	0.0171771
828.497	0.0170987
828.575	0.0172560
828.654	0.0172461
828.732	0.0171778
828.810	0.0170909
828.888	0.0172339
828.966	0.0172269
829.044	0.0174031
829.122	0.0173260
829.200	0.0171832
829.279	0.0171831
829.357	0.0171803
829.435	0.0172853
829.513	0.0174000
829.591	0.0173221
829.669	0.0172554
829.747	0.0172152
829.825	0.0172927
829.904	0.0171281
829.982	0.0171990
830.060	0.0170750
830.138	0.0171024
830.216	0.0172227
830.294	0.0171301
830.372	0.0170824
830.450	0.0171452
830.529	0.0171186
830.607	0.0170296
830.685	0.0171246
830.763	0.0171069
830.841	0.0170290
830.919	0.0170052
830.997	0.0170229
831.075	0.0169932
831.154	0.0170792
831.232	0.0170385
831.310	0.0169507
831.388	0.0168340
831.466	0.0168922
831.544	0.0169736
831.622	0.0168070
831.700	0.0167798
831.779	0.0168112
831.857	0.0167099
831.935	0.0166599
832.013	0.0166315
832.091	0.0166204
832.169	0.0164523
832.247	0.0163024
832.325	0.0164799
832.404	0.0162969
832.482	0.0163204
832.560	0.0160995
832.638	0.0162972
832.716	0.0162775
832.794	0.0162564
832.872	0.0165162
832.950	0.0163511
833.029	0.0162948
833.107	0.0164266
833.185	0.0164047
833.263	0.0164332
833.341	0.0164561
833.419	0.0166570
833.497	0.0166814
833.575	0.0168166
833.654	0.0168944
833.732	0.0168441
833.810	0.0169044
833.888	0.0168250
833.966	0.0170609
834.044	0.0171024
834.122	0.0169601
834.200	0.0172649
834.279	0.0173357
834.357	0.0174044
834.435	0.0174024
834.513	0.0174224
834.591	0.0174311
834.669	0.0174783
834.747	0.0174958
834.825	0.0175236
834.904	0.0176178
834.982	0.0176379
835.060	0.0175024
835.138	0.0175591
835.216	0.0176021
835.294	0.0176781
835.372	0.0175393
835.450	0.0174306
835.529	0.0175503
835.607	0.0174821
835.685	0.0173913
835.763	0.0175166
835.841	0.0174025
835.919	0.0173215
835.997	0.0175484
836.075	0.0175041
836.154	0.0173932
836.232	0.0173336
836.310	0.0174758
836.388	0.0174229
836.466	0.0172041
836.544	0.0172700
836.622	0.0173025
836.700	0.0173989
836.779	0.0171853
836.857	0.0170914
836.935	0.0170907
837.013	0.0170425
837.091	0.0167966
837.169	0.0169733
837.247	0.0167577
837.325	0.0166866
837.404	0.0166653
837.482	0.0165462
837.560	0.0164964
837.638	0.0163832
837.716	0.0165706
837.794	0.0165897
837.872	0.0163098
837.950	0.0163680
838.029	0.0165167
838.107	0.0164450
838.185	0.0164749
838.263	0.0164804
838.341	0.0166267
838.419	0.0165322
838.497	0.0166523
838.575	0.0166016
838.654	0.0164911
838.732	0.0167113
838.810	0.0168600
838.888	0.0169061
838.966	0.0169185
839.044	0.0170007
839.122	0.0169952
839.200	0.0170042
839.279	0.0170735
839.357	0.0170502
839.435	0.0171393
839.513	0.0171757
839.591	0.0171503
839.669	0.0171561
839.747	0.0171249
839.825	0.0172335
839.904	0.0172615
839.982	0.0170250
840.060	0.0172880
840.138	0.0171142
840.216	0.0171816
840.294	0.0171263
840.372	0.0171220
840.450	0.0170250
840.529	0.0170337
840.607	0.0171699
840.685	0.0169058
840.763	0.0169866
840.841	0.0170000
840.919	0.0172272
840.997	0.0172184
841.075	0.0171764
841.154	0.0171472
841.232	0.0169801
841.310	0.0171184
841.388	0.0171755
841.466	0.0172375
841.544	0.0170717
841.622	0.0171198
841.700	0.0172050
841.779	0.0171703
841.857	0.0172733
841.935	0.0171325
842.013	0.0171886
842.091	0.0170518
842.169	0.0169478
842.247	0.0169627
842.325	0.0170878
842.404	0.0170410
842.482	0.0168613
842.560	0.0169774
842.638	0.0169640
842.716	0.0167780
842.794	0.0167309
842.872	0.0168040
842.950	0.0169609
843.029	0.0167377
843.107	0.0169025
843.185	0.0167826
843.263	0.0167681
843.341	0.0167645
843.419	0.0167654
843.497	0.0167384
843.575	0.0167456
843.654	0.0168508
843.732	0.0167550
843.810	0.0168235
843.888	0.0168639
843.966	0.0168394
844.044	0.0169498
844.122	0.0170376
844.200	0.0169869
844.279	0.0169808
844.357	0.0169939
844.435	0.0170092
844.513	0.0170317
844.591	0.0171125
844.669	0.0170364
844.747	0.0170514
844.825	0.0170903
844.904	0.0170082
844.982	0.0169382
845.060	0.0170156
845.138	0.0170409
845.216	0.0169463
845.294	0.0170645
845.372	0.0170612
845.450	0.0169997
845.529	0.0170684
845.607	0.0170966
845.685	0.0170798
845.763	0.0169908
845.841	0.0169806
845.919	0.0170095
845.997	0.0168752
846.075	0.0168817
846.154	0.0169836
846.232	0.0169865
846.310	0.0171033
846.388	0.0169341
846.466	0.0170970
846.544	0.0169093
846.622	0.0170519
846.700	0.0170157
846.779	0.0171643
846.857	0.0172015
846.935	0.0171929
847.013	0.0172185
847.091	0.0172005
847.169	0.0171609
847.247	0.0171673
847.325	0.0172989
847.404	0.0171953
847.482	0.0171729
847.560	0.0169441
847.638	0.0170814
847.716	0.0171295
847.794	0.0170193
847.872	0.0169079
847.950	0.0170147
848.029	0.0170409
848.107	0.0170095
848.185	0.0168851
848.263	0.0170562
848.341	0.0169962
848.419	0.0168001
848.497	0.0168511
848.575	0.0168651
848.654	0.0167977
848.732	0.0169524
848.810	0.0169778
848.888	0.0168041
848.966	0.0168987
849.044	0.0167928
849.122	0.0168806
849.200	0.0166965
849.279	0.0166551
849.357	0.0167107
849.435	0.0167014
849.513	0.0167513
849.591	0.0168153
849.669	0.0167752
849.747	0.0167104
849.825	0.0169717
849.904	0.0169411
849.982	0.0169225
850.060	0.0170611
850.138	0.0171101
850.216	0.0169583
850.294	0.0170107
850.372	0.0170741
850.450	0.0170927
850.529	0.0171656
850.607	0.0173333
850.685	0.0172821
850.763	0.0171066
850.841	0.0172501
850.919	0.0173300
850.997	0.0173260
851.075	0.0174543
851.154	0.0173504
851.232	0.0172575
851.310	0.0173198
851.388	0.0173656
851.466	0.0172807
851.544	0.0171311
851.622	0.0172830
851.700	0.0169563
851.779	0.0171674
851.857	0.0171130
851.935	0.0169731
852.013	0.0172067
852.091	0.0170898
852.169	0.0170054
852.247	0.0169745
852.325	0.0169727
852.404	0.0171865
852.482	0.0171407
852.560	0.0172311
852.638	0.0171693
852.716	0.0172315
852.794	0.0173547
852.872	0.0172232
852.950	0.0172953
853.029	0.0172590
853.107	0.0173434
853.185	0.0173337
853.263	0.0171454
853.341	0.0171004
853.419	0.0170794
853.497	0.0171694
853.575	0.0170763
853.654	0.0170358
853.732	0.0169138
853.810	0.0168909
853.888	0.0167770
853.966	0.0166795
854.044	0.0166520
854.122	0.0167074
854.200	0.0165845
854.279	0.0164011
854.357	0.0164806
854.435	0.0165324
854.513	0.0165152
854.591	0.0163182
854.669	0.0163774
854.747	0.0164876
854.825	0.0164379
854.904	0.0165297
854.982	0.0166797
855.060	0.0168027
855.138	0.0166395
855.216	0.0170741
855.294	0.0169382
855.372	0.0169701
855.450	0.0170533
855.529	0.0170382
855.607	0.0168955
855.685	0.0170967
855.763	0.0170210
855.841	0.0172066
855.919	0.0171502
855.997	0.0169806
856.075	0.0170215
856.154	0.0171132
856.232	0.0171021
856.310	0.0170747
856.388	0.0169308
856.466	0.0170782
856.544	0.0169820
856.622	0.0170054
856.700	0.0169430
856.779	0.0169891
856.857	0.0169164
856.935	0.0169555
857.013	0.0169283
857.091	0.0168760
857.169	0.0168764
857.247	0.0170631
857.325	0.0171610
857.404	0.0170913
857.482	0.0173186
857.560	0.0172340
857.638	0.0173417
857.716	0.0173322
857.794	0.0174261
857.872	0.0175576
857.950	0.0174095
858.029	0.0176044
858.107	0.0174671
858.185	0.0172441
858.263	0.0173893
858.341	0.0172648
858.419	0.0171877
858.497	0.0170982
858.575	0.0171819
858.654	0.0169283
858.732	0.0167835
858.810	0.0169904
858.888	0.0169889
858.966	0.0169583
859.044	0.0169058
859.122	0.0170496
859.200	0.0169779
859.279	0.0168705
859.357	0.0170761
859.435	0.0171969
859.513	0.0171319
859.591	0.0170695
859.669	0.0170057
859.747	0.0171323
859.825	0.0172305
859.904	0.0170017
859.982	0.0170037
860.060	0.0170201
860.138	0.0168623
860.216	0.0169353
860.294	0.0169566
860.372	0.0169768
860.450	0.0168139
860.529	0.0167751
860.607	0.0166252
860.685	0.0164767
860.763	0.0165418
860.841	0.0165048
860.919	0.0164919
860.997	0.0162121
861.075	0.0163241
861.154	0.0163292
861.232	0.0163821
861.310	0.0165478
861.388	0.0164600
861.466	0.0166069
861.544	0.0168152
861.622	0.0168177
861.700	0.0170014
861.779	0.0170240
861.857	0.0170517
861.935	0.0173264
862.013	0.0172932
862.091	0.0173861
862.169	0.0173585
862.247	0.0175661
862.325	0.0177004
862.404	0.0177119
862.482	0.0177200
862.560	0.0175166
862.638	0.0177576
862.716	0.0176482
862.794	0.0176227
862.872	0.0175825
862.950	0.0175036
863.029	0.0175633
863.107	0.0175022
863.185	0.0174984
863.263	0.0175507
863.341	0.0173753
863.419	0.0174049
863.497	0.0172456
863.575	0.0174480
863.654	0.0174166
863.732	0.0173120
863.810	0.0171747
863.888	0.0171367
863.966	0.0169147
864.044	0.0168481
864.122	0.0169664
864.200	0.0168317
864.279	0.0165329
864.357	0.0165410
864.435	0.0164340
864.513	0.0164037
864.591	0.0164857
864.669	0.0164086
864.747	0.0163922
864.825	0.0166377
864.904	0.0165420
864.982	0.0165505
865.060	0.0166183
865.138	0.0165846
865.216	0.0165815
865.294	0.0166227
865.372	0.0167046
865.450	0.0166250
865.529	0.0165321
865.607	0.0164859
865.685	0.0163383
865.763	0.0164845
865.841	0.0164718
865.919	0.0165206
865.997	0.0165981
866.075	0.0165826
866.154	0.0167336
866.232	0.0166541
866.310	0.0169387
866.388	0.0170184
866.466	0.0170678
866.544	0.0172530
866.622	0.0173321
866.700	0.0175018
866.779	0.0174036
866.857	0.0173855
866.935	0.0175906
867.013	0.0175958
867.091	0.0175690
867.169	0.0176384
867.247	0.0173115
867.325	0.0176077
867.404	0.0175669
867.482	0.0174393
867.560	0.0176175
867.638	0.0176395
867.716	0.0176759
867.794	0.0175410
867.872	0.0176511
867.950	0.0178777
868.029	0.0176529
868.107	0.0175353
868.185	0.0174477
868.263	0.0174216
868.341	0.0174023
868.419	0.0171822
868.497	0.0171226
868.575	0.0170654
868.654	0.0170492
868.732	0.0168629
868.810	0.0169161
868.888	0.0166921
868.966	0.0165824
869.044	0.0168116
869.122	0.0165759
869.200	0.0167607
869.279	0.0165776
869.357	0.0167084
869.435	0.0167239
869.513	0.0166227
869.591	0.0166390
869.669	0.0167321
869.747	0.0166660
869.825	0.0166505
869.904	0.0166599
869.982	0.0165353
870.060	0.0164567
870.138	0.0166116
870.216	0.0164680
870.294	0.0162287
870.372	0.0163150
870.450	0.0163592
870.529	0.0162888
870.607	0.0162350
870.685	0.0163185
870.763	0.0163218
870.841	0.0164219
870.919	0.0164653
870.997	0.0164281
871.075	0.0166389
871.154	0.0165984
871.232	0.0165727
871.310	0.0165493
871.388	0.0167381
871.466	0.0168622
871.544	0.0168931
871.622	0.0169259
871.700	0.0170605
871.779	0.0171482
871.857	0.0172426
871.935	0.0172897
872.013	0.0173267
872.091	0.0174636
872.169	0.0177109
872.247	0.0177603
872.325	0.0177254
872.404	0.0177146
872.482	0.0178210
872.560	0.0177777
872.638	0.0178271
872.716	0.0180193
872.794	0.0179385
872.872	0.0177833
872.950	0.0179464
873.029	0.0177859
873.107	0.0176839
873.185	0.0177222
873.263	0.0175472
873.341	0.0174603
873.419	0.0174123
873.497	0.0171228
873.575	0.0169607
873.654	0.0169462
873.732	0.0169454
873.810	0.0168263
873.888	0.0167542
873.966	0.0165591
874.044	0.0166906
874.122	0.0164888
874.200	0.0164668
874.279	0.0165206
874.357	0.0164342
874.435	0.0166460
874.513	0.0166553
874.591	0.0167050
874.669	0.0167683
874.747	0.0168960
874.825	0.0171651
874.904	0.0170335
874.982	0.0171950
875.060	0.0172833
875.138	0.0173278
875.216	0.0173452
875.294	0.0172162
875.372	0.0172475
875.450	0.0172690
875.529	0.0170750
875.607	0.0170007
875.685	0.0170572
875.763	0.0169872
875.841	0.0167994
875.919	0.0165546
875.997	0.0166296
876.075	0.0166606
876.154	0.0165701
876.232	0.0165749
876.310	0.0165322
876.388	0.0165157
876.466	0.0164846
876.544	0.0164169
876.622	0.0164491
876.700	0.0164465
876.779	0.0165024
876.857	0.0163688
876.935	0.0164718
877.013	0.0164101
877.091	0.0165202
877.169	0.0165304
877.247	0.0166183
877.325	0.0167208
877.404	0.0168933
877.482	0.0168872
877.560	0.0170617
877.638	0.0172623
877.716	0.0172964
877.794	0.0175282
877.872	0.0174673
877.950	0.0176027
878.029	0.0177090
878.107	0.0177919
878.185	0.0176643
878.263	0.0177783
878.341	0.0178259
878.419	0.0176271
878.497	0.0177090
878.575	0.0176836
878.654	0.0176381
878.732	0.0175426
878.810	0.0174879
878.888	0.0175400
878.966	0.0174366
879.044	0.0174491
879.122	0.0171909
879.200	0.0171051
879.279	0.0171040
879.357	0.0168704
879.435	0.0167071
879.513	0.0166662
879.591	0.0165632
879.669	0.0165051
879.747	0.0165618
879.825	0.0164606
879.904	0.0164806
879.982	0.0165933
880.060	0.0166220
880.138	0.0167535
880.216	0.0169350
880.294	0.0170488
880.372	0.0172039
880.450	0.0173804
880.529	0.0174104
880.607	0.0174754
880.685	0.0174290
880.763	0.0176300
880.841	0.0174463
880.919	0.0174194
880.997	0.0174932
881.075	0.0171555
881.154	0.0170480
881.232	0.0169843
881.310	0.0169038
881.388	0.0167167
881.466	0.0167972
881.544	0.0164698
881.622	0.0163723
881.700	0.0163550
881.779	0.0164881
881.857	0.0164460
881.935	0.0164869
882.013	0.0165975
882.091	0.0166309
882.169	0.0164983
882.247	0.0166271
882.325	0.0167277
882.404	0.0167410
882.482	0.0165562
882.560	0.0166798
882.638	0.0166637
882.716	0.0167354
882.794	0.0167796
882.872	0.0168831
882.950	0.0169276
883.029	0.0170056
883.107	0.0169952
883.185	0.0171518
883.263	0.0171718
883.341	0.0172270
883.419	0.0172311
883.497	0.0172594
883.575	0.0175470
883.654	0.0174487
883.732	0.0173851
883.810	0.0174921
883.888	0.0175146
883.966	0.0174987
884.044	0.0174683
884.122	0.0173720
884.200	0.0173353
884.279	0.0174102
884.357	0.0173605
884.435	0.0173679
884.513	0.0173245
884.591	0.0170560
884.669	0.0170364
884.747	0.0170274
884.825	0.0170557
884.904	0.0168289
884.982	0.0167736
885.060	0.0166611
885.138	0.0167962
885.216	0.0167513
885.294	0.0167610
885.372	0.0166480
885.450	0.0167960
885.529	0.0168439
885.607	0.0169643
885.685	0.0169658
885.763	0.0170277
885.841	0.0170610
885.919	0.0169811
885.997	0.0170605
886.075	0.0173465
886.154	0.0172351
886.232	0.0171990
886.310	0.0171387
886.388	0.0172018
886.466	0.0170602
886.544	0.0168432
886.622	0.0168712
886.700	0.0167604
886.779	0.0164966
886.857	0.0166834
886.935	0.0166184
887.013	0.0164986
887.091	0.0165551
887.169	0.0165524
887.247	0.0165491
887.325	0.0164928
887.404	0.0166565
887.482	0.0168185
887.560	0.0167452
887.638	0.0168288
887.716	0.0169984
887.794	0.0171243
887.872	0.0170831
887.950	0.0171420
888.029	0.0172559
888.107	0.0173981
888.185	0.0173682
888.263	0.0174108
888.341	0.0174728
888.419	0.0174586
888.497	0.0173028
888.575	0.0172733
888.654	0.0172294
888.732	0.0172034
888.810	0.0172199
888.888	0.0170498
888.966	0.0170550
889.044	0.0169848
889.122	0.0168539
889.200	0.0170065
889.279	0.0168505
889.357	0.0167713
889.435	0.0166586
889.513	0.0166554
889.591	0.0167016
889.669	0.0169530
889.747	0.0167599
889.825	0.0166718
889.904	0.0168983
889.982	0.0168697
890.060	0.0169878
890.138	0.0168874
890.216	0.0168771
890.294	0.0168818
890.372	0.0170016
890.450	0.0168301
890.529	0.0170119
890.607	0.0169810
890.685	0.0170286
890.763	0.0170525
890.841	0.0171112
890.919	0.0172319
890.997	0.0171400
891.075	0.0171286
891.154	0.0172147
891.232	0.0173628
891.310	0.0172646
891.388	0.0173257
891.466	0.0173806
891.544	0.0173415
891.622	0.0173660
891.700	0.0171909
891.779	0.0171442
891.857	0.0171406
891.935	0.0170547
892.013	0.0169501
892.091	0.0169073
892.169	0.0167054
892.247	0.0166523
892.325	0.0167155
892.404	0.0166199
892.482	0.0166433
892.560	0.0165962
892.638	0.0165541
892.716	0.0165585
892.794	0.0166545
892.872	0.0168012
892.950	0.0168335
893.029	0.0169384
893.107	0.0167887
893.185	0.0170037
893.263	0.0169550
893.341	0.0170993
893.419	0.0172207
893.497	0.0173579
893.575	0.0172823
893.654	0.0172580
893.732	0.0173869
893.810	0.0173663
893.888	0.0174117
893.966	0.0172636
894.044	0.0171889
894.122	0.0171931
894.200	0.0171507
894.279	0.0172108
894.357	0.0169579
894.435	0.0169494
894.513	0.0167301
894.591	0.0167114
894.669	0.0165897
894.747	0.0166127
894.825	0.0165729
894.904	0.0165408
894.982	0.0164432
895.060	0.0165895
895.138	0.0165562
895.216	0.0165636
895.294	0.0166666
895.372	0.0165147
895.450	0.0167944
895.529	0.0168116
895.607	0.0168805
895.685	0.0168839
895.763	0.0169382
895.841	0.0170924
895.919	0.0169791
895.997	0.0170728
896.075	0.0170362
896.154	0.0170871
896.232	0.0171121
896.310	0.0170452
896.388	0.0171399
896.466	0.0171426
896.544	0.0173375
896.622	0.0169760
896.700	0.0171490
896.779	0.0172295
896.857	0.0171101
896.935	0.0172028
897.013	0.0171298
897.091	0.0170647
897.169	0.0168826
897.247	0.0170904
897.325	0.0171490
897.404	0.0171250
897.482	0.0170921
897.560	0.0169756
897.638	0.0170795
897.716	0.0169073
897.794	0.0168506
897.872	0.0166696
897.950	0.0167838
898.029	0.0169167
898.107	0.0168733
898.185	0.0168634
898.263	0.0169357
898.341	0.0170638
898.419	0.0170387
898.497	0.0170467
898.575	0.0171379
898.654	0.0172112
898.732	0.0172596
898.810	0.0173174
898.888	0.0174974
898.966	0.0173922
899.044	0.0174270
899.122	0.0174101
899.200	0.0174260
899.279	0.0173869
899.357	0.0173680
899.435	0.0171845
899.513	0.0172305
899.591	0.0170226
899.669	0.0169568
899.747	0.0169640
899.825	0.0169540
899.904	0.0168693
899.982	0.0167200
900.060	0.0166713
900.138	0.0165585
900.216	0.0165527
900.294	0.0166508
900.372	0.0165635
900.450	0.0165553
900.529	0.0165923
900.607	0.0165778
900.685	0.0166168
900.763	0.0167699
900.841	0.0167504
900.919	0.0168851
900.997	0.0169789
901.075	0.0167390
901.154	0.0169389
901.232	0.0170674
901.310	0.0170626
901.388	0.0170152
901.466	0.0170011
901.544	0.0170635
901.622	0.0171099
901.700	0.0169730
901.779	0.0169995
901.857	0.0168934
901.935	0.0169250
902.013	0.0170874
902.091	0.0168441
902.169	0.0169138
902.247	0.0168691
902.325	0.0168356
902.404	0.0168990
902.482	0.0168524
902.560	0.0167472
902.638	0.0167398
902.716	0.0167294
902.794	0.0167668
902.872	0.0167738
902.950	0.0167645
903.029	0.0168981
903.107	0.0167365
903.185	0.0167934
903.263	0.0168340
903.341	0.0169039
903.419	0.0169650
903.497	0.0168661
903.575	0.0171447
903.654	0.0170495
903.732	0.0170245
903.810	0.0169746
903.888	0.0170937
903.966	0.0173084
904.044	0.0172171
904.122	0.0174062
904.200	0.0173818
904.279	0.0172109
904.357	0.0172923
904.435	0.0173104
904.513	0.0172528
904.591	0.0172445
904.669	0.0173438
904.747	0.0173356
904.825	0.0172529
904.904	0.0171760
904.982	0.0173284
905.060	0.0171690
905.138	0.0169605
905.216	0.0169566
905.294	0.0167741
905.372	0.0167657
905.450	0.0168468
905.529	0.0168404
905.607	0.0167825
905.685	0.0167484
905.763	0.0166855
905.841	0.0166474
905.919	0.0167432
905.997	0.0167061
906.075	0.0167207
906.154	0.0166695
906.232	0.0168327
906.310	0.0169453
906.388	0.0169866
906.466	0.0170553
906.544	0.0170995
906.622	0.0170764
906.700	0.0170600
906.779	0.0170921
906.857	0.0172043
906.935	0.0170934
907.013	0.0170899
907.091	0.0170919
907.169	0.0171440
907.247	0.0170396
907.325	0.0170260
907.404	0.0168542
907.482	0.0168628
907.560	0.0167772
907.638	0.0167930
907.716	0.0168006
907.794	0.0168076
907.872	0.0166459
907.950	0.0167378
908.029	0.0167526
908.107	0.0166623
908.185	0.0165053
908.263	0.0164793
908.341	0.0165569
908.419	0.0164719
908.497	0.0165775
908.575	0.0165171
908.654	0.0164559
908.732	0.0165207
908.810	0.0166435
908.888	0.0167590
908.966	0.0167065
909.044	0.0167506
909.122	0.0167137
909.200	0.0168536
909.279	0.0169820
909.357	0.0168549
909.435	0.0169945
909.513	0.0171007
909.591	0.0171365
909.669	0.0171546
909.747	0.0173114
909.825	0.0171403
909.904	0.0172602
909.982	0.0173157
910.060	0.0173405
910.138	0.0173254
910.216	0.0172724
910.294	0.0173297
910.372	0.0173307
910.450	0.0173818
910.529	0.0172396
910.607	0.0173556
910.685	0.0171723
910.763	0.0173227
910.841	0.0172393
910.919	0.0172139
910.997	0.0171784
911.075	0.0170034
911.154	0.0171961
911.232	0.0171661
911.310	0.0172008
911.388	0.0171391
911.466	0.0171936
911.544	0.0173331
911.622	0.0173316
911.700	0.0172189
911.779	0.0172182
911.857	0.0173161
911.935	0.0171337
912.013	0.0172915
912.091	0.0171780
912.169	0.0170562
912.247	0.0171108
912.325	0.0171517
912.404	0.0169860
912.482	0.0169434
912.560	0.0167877
912.638	0.0167245
912.716	0.0168329
912.794	0.0168213
912.872	0.0166953
912.950	0.0164799
913.029	0.0165524
913.107	0.0165232
913.185	0.0164373
913.263	0.0163245
913.341	0.0163032
913.419	0.0163821
913.497	0.0163399
913.575	0.0164163
913.654	0.0163339
913.732	0.0163956
913.810	0.0164513
913.888	0.0164423
913.966	0.0163937
914.044	0.0165710
914.122	0.0166320
914.200	0.0166301
914.279	0.0168333
914.357	0.0168926
914.435	0.0168442
914.513	0.0169516
914.591	0.0170696
914.669	0.0171201
914.747	0.0171891
914.825	0.0172920
914.904	0.0174210
914.982	0.0174725
915.060	0.0174035
915.138	0.0175037
915.216	0.0174332
915.294	0.0176115
915.372	0.0174371
915.450	0.0174370
915.529	0.0174890
915.607	0.0173255
915.685	0.0172174
915.763	0.0171884
915.841	0.0171469
915.919	0.0170732
915.997	0.0170956
916.075	0.0171212
916.154	0.0169720
916.232	0.0168630
916.310	0.0169856
916.388	0.0170313
916.466	0.0168940
916.544	0.0169588
916.622	0.0172070
916.700	0.0171078
916.779	0.0169859
916.857	0.0170945
916.935	0.0171662
917.013	0.0170119
917.091	0.0172012
917.169	0.0172794
917.247	0.0171477
917.325	0.0171000
917.404	0.0171989
917.482	0.0170934
917.560	0.0170631
917.638	0.0171425
917.716	0.0170979
917.794	0.0170894
917.872	0.0170661
917.950	0.0168567
918.029	0.0168465
918.107	0.0169566
918.185	0.0169389
918.263	0.0169469
918.341	0.0168275
918.419	0.0168742
918.497	0.0167871
918.575	0.0166549
918.654	0.0165681
918.732	0.0167397
918.810	0.0167650
918.888	0.0165179
918.966	0.0165128
919.044	0.0164803
919.122	0.0165948
919.200	0.0167219
919.279	0.0168156
919.357	0.0166093
919.435	0.0166560
919.513	0.0167631
919.591	0.0169004
919.669	0.0167403
919.747	0.0168630
919.825	0.0169809
919.904	0.0169611
