06/01/2022	17:28:00	Ver.	4.1	UNKNOWN
Optical Delay	599.975067	Delta X		0.078125	Sweeps	1	Scan Rate	0/0
Coordinates	Axis 1	NaN	Axis 2	NaN	Axis 3	NaN	Axis 4	NaN	Axis 5	NaN	Axis 6	0.000000
TX Power	0.000000	RX Power	0.000000

599.975	0.0170100
600.053	0.0170126
600.131	0.0169873
600.209	0.0170490
600.288	0.0169685
600.366	0.0170422
600.444	0.0170087
600.522	0.0169378
600.600	0.0169638
600.678	0.0169209
600.756	0.0171015
600.834	0.0170608
600.913	0.0168964
600.991	0.0169397
601.069	0.0170912
601.147	0.0170129
601.225	0.0170639
601.303	0.0169996
601.381	0.0170527
601.459	0.0170701
601.538	0.0170428
601.616	0.0170835
601.694	0.0172249
601.772	0.0170661
601.850	0.0170396
601.928	0.0169312
602.006	0.0169256
602.084	0.0170474
602.163	0.0169408
602.241	0.0169975
602.319	0.0170227
602.397	0.0169189
602.475	0.0170187
602.553	0.0169161
602.631	0.0170139
602.709	0.0170274
602.788	0.0169904
602.866	0.0170071
602.944	0.0169698
603.022	0.0170200
603.100	0.0170356
603.178	0.0169730
603.256	0.0169946
603.334	0.0169969
603.413	0.0169949
603.491	0.0169440
603.569	0.0171300
603.647	0.0169011
603.725	0.0170305
603.803	0.0170267
603.881	0.0169981
603.959	0.0170081
604.038	0.0168204
604.116	0.0169434
604.194	0.0169891
604.272	0.0168906
604.350	0.0171253
604.428	0.0171236
604.506	0.0169659
604.584	0.0169962
604.663	0.0170904
604.741	0.0169915
604.819	0.0170021
604.897	0.0170956
604.975	0.0169275
605.053	0.0168745
605.131	0.0170293
605.209	0.0170474
605.288	0.0170852
605.366	0.0171976
605.444	0.0169338
605.522	0.0169506
605.600	0.0170683
605.678	0.0172329
605.756	0.0170738
605.834	0.0170431
605.913	0.0170483
605.991	0.0171634
606.069	0.0170519
606.147	0.0169865
606.225	0.0170967
606.303	0.0170367
606.381	0.0170334
606.459	0.0170151
606.538	0.0171607
606.616	0.0171234
606.694	0.0169740
606.772	0.0170049
606.850	0.0170914
606.928	0.0171244
607.006	0.0170518
607.084	0.0169232
607.163	0.0168486
607.241	0.0170325
607.319	0.0171088
607.397	0.0170171
607.475	0.0168543
607.553	0.0169169
607.631	0.0170020
607.709	0.0169901
607.788	0.0168463
607.866	0.0170039
607.944	0.0170826
608.022	0.0170207
608.100	0.0169034
608.178	0.0169755
608.256	0.0170617
608.334	0.0171198
608.413	0.0171024
608.491	0.0168931
608.569	0.0169816
608.647	0.0170399
608.725	0.0168968
608.803	0.0169750
608.881	0.0170386
608.959	0.0170302
609.038	0.0169316
609.116	0.0169410
609.194	0.0169416
609.272	0.0170451
609.350	0.0171551
609.428	0.0168886
609.506	0.0170837
609.584	0.0168624
609.663	0.0169892
609.741	0.0171144
609.819	0.0170461
609.897	0.0168554
609.975	0.0169277
610.053	0.0169296
610.131	0.0170988
610.209	0.0171418
610.288	0.0169101
610.366	0.0168464
610.444	0.0170490
610.522	0.0170791
610.600	0.0170515
610.678	0.0169399
610.756	0.0170486
610.834	0.0169887
610.913	0.0169846
610.991	0.0170452
611.069	0.0169125
611.147	0.0169907
611.225	0.0169557
611.303	0.0170160
611.381	0.0169228
611.459	0.0169424
611.538	0.0170882
611.616	0.0170963
611.694	0.0171511
611.772	0.0169772
611.850	0.0170319
611.928	0.0170650
612.006	0.0169251
612.084	0.0169936
612.163	0.0170643
612.241	0.0171758
612.319	0.0170565
612.397	0.0170912
612.475	0.0170795
612.553	0.0169921
612.631	0.0171147
612.709	0.0169165
612.788	0.0171155
612.866	0.0168301
612.944	0.0168314
613.022	0.0170404
613.100	0.0169363
613.178	0.0170541
613.256	0.0170408
613.334	0.0170453
613.413	0.0171098
613.491	0.0169523
613.569	0.0168779
613.647	0.0169427
613.725	0.0170147
613.803	0.0170869
613.881	0.0171754
613.959	0.0170164
614.038	0.0169397
614.116	0.0170470
614.194	0.0170940
614.272	0.0169749
614.350	0.0170162
614.428	0.0170091
614.506	0.0170815
614.584	0.0170786
614.663	0.0170430
614.741	0.0171514
614.819	0.0171181
614.897	0.0169628
614.975	0.0168588
615.053	0.0168899
615.131	0.0169913
615.209	0.0170890
615.288	0.0169821
615.366	0.0169311
615.444	0.0169443
615.522	0.0170057
615.600	0.0169802
615.678	0.0171040
615.756	0.0170052
615.834	0.0170724
615.913	0.0170586
615.991	0.0169662
616.069	0.0170355
616.147	0.0171015
616.225	0.0171844
616.303	0.0171210
616.381	0.0170908
616.459	0.0170715
616.538	0.0170875
616.616	0.0170476
616.694	0.0169711
616.772	0.0170452
616.850	0.0170011
616.928	0.0169499
617.006	0.0169306
617.084	0.0170839
617.163	0.0171700
617.241	0.0171280
617.319	0.0169707
617.397	0.0171355
617.475	0.0170656
617.553	0.0171276
617.631	0.0170129
617.709	0.0171362
617.788	0.0171703
617.866	0.0170628
617.944	0.0169563
618.022	0.0170617
618.100	0.0169962
618.178	0.0170993
618.256	0.0169569
618.334	0.0170491
618.413	0.0170551
618.491	0.0169519
618.569	0.0169695
618.647	0.0170116
618.725	0.0170401
618.803	0.0169820
618.881	0.0170181
618.959	0.0170423
619.038	0.0170457
619.116	0.0170480
619.194	0.0168781
619.272	0.0170103
619.350	0.0171558
619.428	0.0170457
619.506	0.0169708
619.584	0.0169360
619.663	0.0171173
619.741	0.0170403
619.819	0.0169398
619.897	0.0170233
619.975	0.0170485
620.053	0.0170015
620.131	0.0170847
620.209	0.0169787
620.288	0.0169350
620.366	0.0170337
620.444	0.0169986
620.522	0.0170711
620.600	0.0171338
620.678	0.0168961
620.756	0.0169032
620.834	0.0170992
620.913	0.0170309
620.991	0.0170974
621.069	0.0170184
621.147	0.0169775
621.225	0.0169777
621.303	0.0169484
621.381	0.0170090
621.459	0.0170248
621.538	0.0170776
621.616	0.0168283
621.694	0.0169599
621.772	0.0171043
621.850	0.0170184
621.928	0.0171500
622.006	0.0170448
622.084	0.0170989
622.163	0.0169218
622.241	0.0169106
622.319	0.0171185
622.397	0.0171124
622.475	0.0168657
622.553	0.0170345
622.631	0.0170258
622.709	0.0169205
622.788	0.0170874
622.866	0.0170939
622.944	0.0169777
623.022	0.0169308
623.100	0.0169794
623.178	0.0169370
623.256	0.0169621
623.334	0.0170550
623.413	0.0169713
623.491	0.0169495
623.569	0.0170181
623.647	0.0169688
623.725	0.0171556
623.803	0.0170652
623.881	0.0170761
623.959	0.0169518
624.038	0.0169616
624.116	0.0171426
624.194	0.0170030
624.272	0.0169096
624.350	0.0169484
624.428	0.0170380
624.506	0.0170571
624.584	0.0170981
624.663	0.0170013
624.741	0.0170039
624.819	0.0169474
624.897	0.0169472
624.975	0.0171027
625.053	0.0170026
625.131	0.0169073
625.209	0.0169830
625.288	0.0170467
625.366	0.0170017
625.444	0.0169319
625.522	0.0169556
625.600	0.0170758
625.678	0.0170954
625.756	0.0169699
625.834	0.0169656
625.913	0.0170091
625.991	0.0169914
626.069	0.0170343
626.147	0.0170522
626.225	0.0171218
626.303	0.0170285
626.381	0.0168631
626.459	0.0169305
626.538	0.0171016
626.616	0.0171630
626.694	0.0171116
626.772	0.0169896
626.850	0.0170877
626.928	0.0169740
627.006	0.0171102
627.084	0.0171504
627.163	0.0170222
627.241	0.0171346
627.319	0.0171028
627.397	0.0170502
627.475	0.0170018
627.553	0.0170632
627.631	0.0169596
627.709	0.0171431
627.788	0.0172258
627.866	0.0169666
627.944	0.0170448
628.022	0.0169477
628.100	0.0170452
628.178	0.0170469
628.256	0.0170418
628.334	0.0171298
628.413	0.0170338
628.491	0.0168855
628.569	0.0170095
628.647	0.0170564
628.725	0.0169395
628.803	0.0171301
628.881	0.0169614
628.959	0.0170158
629.038	0.0171137
629.116	0.0169967
629.194	0.0170917
629.272	0.0170927
629.350	0.0170240
629.428	0.0170216
629.506	0.0170750
629.584	0.0170360
629.663	0.0171268
629.741	0.0170304
629.819	0.0170345
629.897	0.0169807
629.975	0.0171348
630.053	0.0170602
630.131	0.0169778
630.209	0.0169434
630.288	0.0169965
630.366	0.0169875
630.444	0.0171114
630.522	0.0170356
630.600	0.0170007
630.678	0.0171101
630.756	0.0168829
630.834	0.0169370
630.913	0.0168655
630.991	0.0170055
631.069	0.0169839
631.147	0.0168307
631.225	0.0169431
631.303	0.0171789
631.381	0.0170286
631.459	0.0170606
631.538	0.0170638
631.616	0.0169360
631.694	0.0169706
631.772	0.0168858
631.850	0.0168851
631.928	0.0169778
632.006	0.0169829
632.084	0.0169615
632.163	0.0168721
632.241	0.0170271
632.319	0.0169615
632.397	0.0169930
632.475	0.0169199
632.553	0.0168970
632.631	0.0169515
632.709	0.0169988
632.788	0.0171084
632.866	0.0170133
632.944	0.0169899
633.022	0.0170728
633.100	0.0170242
633.178	0.0169289
633.256	0.0169952
633.334	0.0168935
633.413	0.0170564
633.491	0.0170007
633.569	0.0169048
633.647	0.0170047
633.725	0.0169827
633.803	0.0170396
633.881	0.0170559
633.959	0.0170295
634.038	0.0168893
634.116	0.0169890
634.194	0.0170242
634.272	0.0170146
634.350	0.0169501
634.428	0.0171370
634.506	0.0169261
634.584	0.0171036
634.663	0.0169852
634.741	0.0169572
634.819	0.0169753
634.897	0.0170165
634.975	0.0171288
635.053	0.0170350
635.131	0.0169239
635.209	0.0169499
635.288	0.0170251
635.366	0.0169560
635.444	0.0171288
635.522	0.0169971
635.600	0.0168267
635.678	0.0169467
635.756	0.0170803
635.834	0.0170438
635.913	0.0169521
635.991	0.0169184
636.069	0.0169678
636.147	0.0170451
636.225	0.0171043
636.303	0.0171146
636.381	0.0169631
636.459	0.0169547
636.538	0.0170618
636.616	0.0171133
636.694	0.0169486
636.772	0.0170236
636.850	0.0169920
636.928	0.0168933
637.006	0.0171036
637.084	0.0171995
637.163	0.0170069
637.241	0.0169913
637.319	0.0168526
637.397	0.0170316
637.475	0.0171867
637.553	0.0170894
637.631	0.0169765
637.709	0.0170556
637.788	0.0169891
637.866	0.0171259
637.944	0.0170629
638.022	0.0171246
638.100	0.0171055
638.178	0.0170830
638.256	0.0171279
638.334	0.0170863
638.413	0.0170253
638.491	0.0171079
638.569	0.0171632
638.647	0.0170880
638.725	0.0170054
638.803	0.0169314
638.881	0.0170739
638.959	0.0170810
639.038	0.0171461
639.116	0.0169826
639.194	0.0171184
639.272	0.0170886
639.350	0.0169955
639.428	0.0171047
639.506	0.0169507
639.584	0.0168353
639.663	0.0171571
639.741	0.0170248
639.819	0.0169577
639.897	0.0169632
639.975	0.0170551
640.053	0.0169234
640.131	0.0170788
640.209	0.0170602
640.288	0.0169271
640.366	0.0171181
640.444	0.0168513
640.522	0.0170419
640.600	0.0170644
640.678	0.0169849
640.756	0.0170152
640.834	0.0170786
640.913	0.0170473
640.991	0.0168965
641.069	0.0170613
641.147	0.0170707
641.225	0.0169312
641.303	0.0170102
641.381	0.0170084
641.459	0.0169193
641.538	0.0170625
641.616	0.0169030
641.694	0.0169173
641.772	0.0171020
641.850	0.0169776
641.928	0.0169469
642.006	0.0169550
642.084	0.0169982
642.163	0.0170007
642.241	0.0169400
642.319	0.0169169
642.397	0.0169090
642.475	0.0168520
642.553	0.0169820
642.631	0.0170138
642.709	0.0171083
642.788	0.0170077
642.866	0.0170827
642.944	0.0171366
643.022	0.0171243
643.100	0.0168989
643.178	0.0169485
643.256	0.0169324
643.334	0.0169735
643.413	0.0169760
643.491	0.0170956
643.569	0.0169260
643.647	0.0170813
643.725	0.0170097
643.803	0.0170313
643.881	0.0170088
643.959	0.0170229
644.038	0.0171001
644.116	0.0171534
644.194	0.0170933
644.272	0.0168595
644.350	0.0169260
644.428	0.0170987
644.506	0.0169476
644.584	0.0169595
644.663	0.0170189
644.741	0.0170397
644.819	0.0169341
644.897	0.0170177
644.975	0.0169865
645.053	0.0170549
645.131	0.0170605
645.209	0.0171214
645.288	0.0170823
645.366	0.0170248
645.444	0.0172350
645.522	0.0170777
645.600	0.0170443
645.678	0.0170036
645.756	0.0170415
645.834	0.0170435
645.913	0.0170635
645.991	0.0170706
646.069	0.0170568
646.147	0.0170435
646.225	0.0170862
646.303	0.0171286
646.381	0.0170148
646.459	0.0169839
646.538	0.0171489
646.616	0.0171508
646.694	0.0170214
646.772	0.0169549
646.850	0.0169707
646.928	0.0171187
647.006	0.0170905
647.084	0.0169291
647.163	0.0169819
647.241	0.0170622
647.319	0.0170139
647.397	0.0169124
647.475	0.0170287
647.553	0.0170341
647.631	0.0169268
647.709	0.0170718
647.788	0.0170027
647.866	0.0170412
647.944	0.0170743
648.022	0.0170419
648.100	0.0169860
648.178	0.0169451
648.256	0.0169961
648.334	0.0171815
648.413	0.0169036
648.491	0.0170193
648.569	0.0170895
648.647	0.0170112
648.725	0.0168869
648.803	0.0169737
648.881	0.0169270
648.959	0.0170142
649.038	0.0170427
649.116	0.0169720
649.194	0.0168784
649.272	0.0169366
649.350	0.0170425
649.428	0.0170816
649.506	0.0169843
649.584	0.0171547
649.663	0.0170293
649.741	0.0170480
649.819	0.0171450
649.897	0.0169932
649.975	0.0170107
650.053	0.0171350
650.131	0.0170497
650.209	0.0171825
650.288	0.0170698
650.366	0.0169537
650.444	0.0171062
650.522	0.0172211
650.600	0.0170621
650.678	0.0170095
650.756	0.0171008
650.834	0.0170789
650.913	0.0169655
650.991	0.0168928
651.069	0.0169594
651.147	0.0170412
651.225	0.0169954
651.303	0.0168730
651.381	0.0170115
651.459	0.0169367
651.538	0.0168750
651.616	0.0169939
651.694	0.0168768
651.772	0.0170963
651.850	0.0171367
651.928	0.0169660
652.006	0.0168324
652.084	0.0169961
652.163	0.0169498
652.241	0.0169521
652.319	0.0170330
652.397	0.0169002
652.475	0.0168381
652.553	0.0170365
652.631	0.0170267
652.709	0.0170351
652.788	0.0170692
652.866	0.0170094
652.944	0.0169608
653.022	0.0170431
653.100	0.0171307
653.178	0.0171052
653.256	0.0169515
653.334	0.0171205
653.413	0.0168966
653.491	0.0170299
653.569	0.0170081
653.647	0.0172373
653.725	0.0170564
653.803	0.0172526
653.881	0.0171323
653.959	0.0173381
654.038	0.0173299
654.116	0.0175137
654.194	0.0174630
654.272	0.0173271
654.350	0.0174118
654.428	0.0172701
654.506	0.0173538
654.584	0.0170565
654.663	0.0168177
654.741	0.0167979
654.819	0.0166890
654.897	0.0165015
654.975	0.0164579
655.053	0.0164244
655.131	0.0163686
655.209	0.0165051
655.288	0.0166798
655.366	0.0167427
655.444	0.0168623
655.522	0.0169649
655.600	0.0172456
655.678	0.0173193
655.756	0.0172395
655.834	0.0174454
655.913	0.0173711
655.991	0.0173305
656.069	0.0172366
656.147	0.0170193
656.225	0.0168467
656.303	0.0166134
656.381	0.0165759
656.459	0.0165413
656.538	0.0162206
656.616	0.0162460
656.694	0.0162578
656.772	0.0162226
656.850	0.0162341
656.928	0.0163191
657.006	0.0163121
657.084	0.0163690
657.163	0.0164945
657.241	0.0166805
657.319	0.0166939
657.397	0.0169572
657.475	0.0172395
657.553	0.0174181
657.631	0.0177453
657.709	0.0180962
657.788	0.0182023
657.866	0.0183537
657.944	0.0185040
658.022	0.0188582
658.100	0.0188298
658.178	0.0189492
658.256	0.0187534
658.334	0.0185100
658.413	0.0181120
658.491	0.0179464
658.569	0.0174423
658.647	0.0171736
658.725	0.0165294
658.803	0.0161768
658.881	0.0157509
658.959	0.0155497
659.038	0.0152125
659.116	0.0149007
659.194	0.0148865
659.272	0.0147394
659.350	0.0150072
659.428	0.0152742
659.506	0.0153992
659.584	0.0157719
659.663	0.0159743
659.741	0.0164679
659.819	0.0169265
659.897	0.0174893
659.975	0.0178990
660.053	0.0182880
660.131	0.0186467
660.209	0.0188525
660.288	0.0188011
660.366	0.0187802
660.444	0.0187597
660.522	0.0186594
660.600	0.0182940
660.678	0.0180939
660.756	0.0179350
660.834	0.0173862
660.913	0.0170518
660.991	0.0167724
661.069	0.0162312
661.147	0.0159673
661.225	0.0155400
661.303	0.0153471
661.381	0.0149763
661.459	0.0150081
661.538	0.0147882
661.616	0.0146181
661.694	0.0145927
661.772	0.0147296
661.850	0.0149081
661.928	0.0151413
662.006	0.0155080
662.084	0.0159111
662.163	0.0163437
662.241	0.0167266
662.319	0.0172926
662.397	0.0177213
662.475	0.0180637
662.553	0.0186359
662.631	0.0190045
662.709	0.0193087
662.788	0.0196159
662.866	0.0200135
662.944	0.0201299
663.022	0.0202888
663.100	0.0201611
663.178	0.0200751
663.256	0.0201043
663.334	0.0198237
663.413	0.0195471
663.491	0.0191312
663.569	0.0185904
663.647	0.0182018
663.725	0.0174583
663.803	0.0169040
663.881	0.0162905
663.959	0.0157761
664.038	0.0151960
664.116	0.0147618
664.194	0.0143735
664.272	0.0140430
664.350	0.0141863
664.428	0.0140383
664.506	0.0142072
664.584	0.0144722
664.663	0.0145552
664.741	0.0149886
664.819	0.0151538
664.897	0.0156805
664.975	0.0158472
665.053	0.0160478
665.131	0.0161040
665.209	0.0161456
665.288	0.0162228
665.366	0.0163660
665.444	0.0161459
665.522	0.0161121
665.600	0.0163148
665.678	0.0164650
665.756	0.0164931
665.834	0.0168377
665.913	0.0169197
665.991	0.0174393
666.069	0.0176733
666.147	0.0179898
666.225	0.0183610
666.303	0.0187204
666.381	0.0187980
666.459	0.0189978
666.538	0.0192094
666.616	0.0194072
666.694	0.0196142
666.772	0.0196452
666.850	0.0195906
666.928	0.0197295
667.006	0.0197393
667.084	0.0196967
667.163	0.0195691
667.241	0.0195422
667.319	0.0196394
667.397	0.0193213
667.475	0.0190395
667.553	0.0185758
667.631	0.0182166
667.709	0.0177661
667.788	0.0169753
667.866	0.0165906
667.944	0.0157695
668.022	0.0150394
668.100	0.0143803
668.178	0.0138129
668.256	0.0131031
668.334	0.0125659
668.413	0.0123061
668.491	0.0120710
668.569	0.0118269
668.647	0.0117185
668.725	0.0118449
668.803	0.0121187
668.881	0.0124565
668.959	0.0129472
669.038	0.0136562
669.116	0.0145480
669.194	0.0151910
669.272	0.0162619
669.350	0.0171322
669.428	0.0179918
669.506	0.0186626
669.584	0.0193186
669.663	0.0198753
669.741	0.0203384
669.819	0.0205128
669.897	0.0205910
669.975	0.0206563
670.053	0.0206680
670.131	0.0206989
670.209	0.0204301
670.288	0.0204690
670.366	0.0205354
670.444	0.0207049
670.522	0.0207150
670.600	0.0205099
670.678	0.0204765
670.756	0.0203426
670.834	0.0201815
670.913	0.0199996
670.991	0.0196624
671.069	0.0192992
671.147	0.0190385
671.225	0.0185659
671.303	0.0181096
671.381	0.0176257
671.459	0.0174208
671.538	0.0169659
671.616	0.0165841
671.694	0.0161083
671.772	0.0159965
671.850	0.0156302
671.928	0.0153585
672.006	0.0151238
672.084	0.0147503
672.163	0.0145084
672.241	0.0142129
672.319	0.0139706
672.397	0.0134684
672.475	0.0130540
672.553	0.0126122
672.631	0.0122089
672.709	0.0116995
672.788	0.0113553
672.866	0.0112081
672.944	0.0109200
673.022	0.0107136
673.100	0.0110616
673.178	0.0114282
673.256	0.0117663
673.334	0.0125846
673.413	0.0134071
673.491	0.0142684
673.569	0.0153793
673.647	0.0163692
673.725	0.0174943
673.803	0.0187213
673.881	0.0195141
673.959	0.0203931
674.038	0.0209600
674.116	0.0216514
674.194	0.0220234
674.272	0.0223318
674.350	0.0224531
674.428	0.0224158
674.506	0.0224878
674.584	0.0223238
674.663	0.0221120
674.741	0.0218871
674.819	0.0217393
674.897	0.0215378
674.975	0.0213988
675.053	0.0211642
675.131	0.0210170
675.209	0.0207538
675.288	0.0205661
675.366	0.0205069
675.444	0.0200426
675.522	0.0196124
675.600	0.0193123
675.678	0.0188731
675.756	0.0182643
675.834	0.0178628
675.913	0.0173647
675.991	0.0168146
676.069	0.0162607
676.147	0.0159539
676.225	0.0157496
676.303	0.0153973
676.381	0.0151904
676.459	0.0150710
676.538	0.0149345
676.616	0.0150713
676.694	0.0150360
676.772	0.0150117
676.850	0.0150420
676.928	0.0149561
677.006	0.0149345
677.084	0.0148917
677.163	0.0147571
677.241	0.0146954
677.319	0.0143410
677.397	0.0140318
677.475	0.0137774
677.553	0.0135477
677.631	0.0132986
677.709	0.0127097
677.788	0.0124414
677.866	0.0120676
677.944	0.0117992
678.022	0.0117007
678.100	0.0114900
678.178	0.0114809
678.256	0.0114950
678.334	0.0115433
678.413	0.0117256
678.491	0.0121677
678.569	0.0125203
678.647	0.0130905
678.725	0.0137269
678.803	0.0143394
678.881	0.0153220
678.959	0.0160052
679.038	0.0168857
679.116	0.0178546
679.194	0.0188275
679.272	0.0199273
679.350	0.0206122
679.428	0.0214587
679.506	0.0222845
679.584	0.0232147
679.663	0.0241507
679.741	0.0249808
679.819	0.0255197
679.897	0.0263504
679.975	0.0268698
680.053	0.0272054
680.131	0.0273626
680.209	0.0273808
680.288	0.0271604
680.366	0.0266515
680.444	0.0259739
680.522	0.0250932
680.600	0.0240733
680.678	0.0230437
680.756	0.0217410
680.834	0.0203168
680.913	0.0188438
680.991	0.0174405
681.069	0.0160075
681.147	0.0147732
681.225	0.0137135
681.303	0.0127651
681.381	0.0118327
681.459	0.0110839
681.538	0.0107658
681.616	0.0104207
681.694	0.0105715
681.772	0.0108201
681.850	0.0110641
681.928	0.0112569
682.006	0.0118633
682.084	0.0124231
682.163	0.0128928
682.241	0.0132548
682.319	0.0136804
682.397	0.0138245
682.475	0.0140704
682.553	0.0140580
682.631	0.0140154
682.709	0.0138274
682.788	0.0140017
682.866	0.0139967
682.944	0.0139767
683.022	0.0138127
683.100	0.0139079
683.178	0.0138422
683.256	0.0138552
683.334	0.0138737
683.413	0.0137153
683.491	0.0138472
683.569	0.0139162
683.647	0.0138573
683.725	0.0138546
683.803	0.0138180
683.881	0.0139860
683.959	0.0141671
684.038	0.0143241
684.116	0.0147805
684.194	0.0151882
684.272	0.0158368
684.350	0.0164636
684.428	0.0173000
684.506	0.0182449
684.584	0.0191567
684.663	0.0200227
684.741	0.0207410
684.819	0.0216787
684.897	0.0224635
684.975	0.0233009
685.053	0.0237534
685.131	0.0241892
685.209	0.0248112
685.288	0.0251061
685.366	0.0255291
685.444	0.0258500
685.522	0.0259458
685.600	0.0261672
685.678	0.0262894
685.756	0.0262211
685.834	0.0260105
685.913	0.0253833
685.991	0.0248403
686.069	0.0240327
686.147	0.0228888
686.225	0.0214493
686.303	0.0201163
686.381	0.0185184
686.459	0.0169112
686.538	0.0153903
686.616	0.0137305
686.694	0.0124169
686.772	0.0114645
686.850	0.0104635
686.928	0.00998886
687.006	0.00965408
687.084	0.00966240
687.163	0.00978409
687.241	0.0100912
687.319	0.0107140
687.397	0.0113897
687.475	0.0121510
687.553	0.0128831
687.631	0.0135368
687.709	0.0141404
687.788	0.0146059
687.866	0.0151331
687.944	0.0152800
688.022	0.0152195
688.100	0.0151115
688.178	0.0149641
688.256	0.0146101
688.334	0.0142561
688.413	0.0139513
688.491	0.0138644
688.569	0.0136657
688.647	0.0136543
688.725	0.0135831
688.803	0.0137270
688.881	0.0138580
688.959	0.0142171
689.038	0.0143483
689.116	0.0146740
689.194	0.0148326
689.272	0.0149790
689.350	0.0150377
689.428	0.0152284
689.506	0.0151897
689.584	0.0153418
689.663	0.0155611
689.741	0.0155866
689.819	0.0158769
689.897	0.0162566
689.975	0.0168414
690.053	0.0172709
690.131	0.0178792
690.209	0.0185556
690.288	0.0192809
690.366	0.0200549
690.444	0.0207340
690.522	0.0214979
690.600	0.0221600
690.678	0.0227923
690.756	0.0234782
690.834	0.0241629
690.913	0.0245007
690.991	0.0250352
691.069	0.0253155
691.147	0.0257794
691.225	0.0259630
691.303	0.0257628
691.381	0.0256749
691.459	0.0252977
691.538	0.0246196
691.616	0.0239568
691.694	0.0230241
691.772	0.0218676
691.850	0.0207043
691.928	0.0194965
692.006	0.0182166
692.084	0.0168434
692.163	0.0157675
692.241	0.0148190
692.319	0.0140466
692.397	0.0133828
692.475	0.0127085
692.553	0.0124970
692.631	0.0122133
692.709	0.0122806
692.788	0.0125105
692.866	0.0126713
692.944	0.0129262
693.022	0.0132030
693.100	0.0134411
693.178	0.0137797
693.256	0.0138620
693.334	0.0140424
693.413	0.0139848
693.491	0.0138197
693.569	0.0136647
693.647	0.0133529
693.725	0.0131284
693.803	0.0126930
693.881	0.0122128
693.959	0.0119410
694.038	0.0117052
694.116	0.0114101
694.194	0.0113382
694.272	0.0114651
694.350	0.0113944
694.428	0.0117297
694.506	0.0120631
694.584	0.0123748
694.663	0.0129088
694.741	0.0135076
694.819	0.0141806
694.897	0.0149476
694.975	0.0154172
695.053	0.0161697
695.131	0.0168438
695.209	0.0173949
695.288	0.0182118
695.366	0.0187514
695.444	0.0192695
695.522	0.0196381
695.600	0.0202345
695.678	0.0206647
695.756	0.0208659
695.834	0.0212288
695.913	0.0215598
695.991	0.0217183
696.069	0.0218936
696.147	0.0219206
696.225	0.0220711
696.303	0.0220341
696.381	0.0220562
696.459	0.0220702
696.538	0.0220947
696.616	0.0222573
696.694	0.0222468
696.772	0.0220879
696.850	0.0220058
696.928	0.0220521
697.006	0.0219100
697.084	0.0213390
697.163	0.0210439
697.241	0.0206882
697.319	0.0202763
697.397	0.0195220
697.475	0.0190343
697.553	0.0183488
697.631	0.0179301
697.709	0.0174360
697.788	0.0170081
697.866	0.0165978
697.944	0.0162951
698.022	0.0161696
698.100	0.0159807
698.178	0.0160120
698.256	0.0159569
698.334	0.0160285
698.413	0.0161248
698.491	0.0161721
698.569	0.0160281
698.647	0.0159185
698.725	0.0159004
698.803	0.0155701
698.881	0.0153745
698.959	0.0151436
699.038	0.0146829
699.116	0.0142121
699.194	0.0137643
699.272	0.0134224
699.350	0.0129446
699.428	0.0125463
699.506	0.0121002
699.584	0.0118377
699.663	0.0114963
699.741	0.0112151
699.819	0.0110601
699.897	0.0109640
699.975	0.0109578
700.053	0.0110412
700.131	0.0114005
700.209	0.0114433
700.288	0.0118285
700.366	0.0124137
700.444	0.0128383
700.522	0.0135680
700.600	0.0142756
700.678	0.0153906
700.756	0.0162074
700.834	0.0170611
700.913	0.0178558
700.991	0.0188145
701.069	0.0195274
701.147	0.0201089
701.225	0.0207600
701.303	0.0210770
701.381	0.0212186
701.459	0.0214398
701.538	0.0214919
701.616	0.0214798
701.694	0.0213522
701.772	0.0210276
701.850	0.0208359
701.928	0.0206189
702.006	0.0204620
702.084	0.0202156
702.163	0.0202081
702.241	0.0201214
702.319	0.0199416
702.397	0.0198042
702.475	0.0199510
702.553	0.0199007
702.631	0.0197621
702.709	0.0197881
702.788	0.0195842
702.866	0.0194560
702.944	0.0192717
703.022	0.0190163
703.100	0.0186940
703.178	0.0184663
703.256	0.0178814
703.334	0.0176359
703.413	0.0172618
703.491	0.0168653
703.569	0.0167753
703.647	0.0165755
703.725	0.0165402
703.803	0.0165750
703.881	0.0165465
703.959	0.0167912
704.038	0.0168273
704.116	0.0167800
704.194	0.0170279
704.272	0.0170432
704.350	0.0169233
704.428	0.0168322
704.506	0.0167744
704.584	0.0164453
704.663	0.0159914
704.741	0.0159344
704.819	0.0155968
704.897	0.0150959
704.975	0.0147442
705.053	0.0145246
705.131	0.0141097
705.209	0.0140205
705.288	0.0137907
705.366	0.0138985
705.444	0.0137648
705.522	0.0138844
705.600	0.0141122
705.678	0.0143394
705.756	0.0146478
705.834	0.0150063
705.913	0.0153836
705.991	0.0157329
706.069	0.0161266
706.147	0.0165866
706.225	0.0167593
706.303	0.0169376
706.381	0.0171978
706.459	0.0173353
706.538	0.0171397
706.616	0.0171840
706.694	0.0171756
706.772	0.0171874
706.850	0.0170114
706.928	0.0168929
707.006	0.0167475
707.084	0.0166005
707.163	0.0164540
707.241	0.0164658
707.319	0.0163607
707.397	0.0163953
707.475	0.0163188
707.553	0.0164730
707.631	0.0164941
707.709	0.0166457
707.788	0.0166322
707.866	0.0168472
707.944	0.0170621
708.022	0.0173053
708.100	0.0176719
708.178	0.0179990
708.256	0.0180890
708.334	0.0183701
708.413	0.0187350
708.491	0.0190136
708.569	0.0191368
708.647	0.0193712
708.725	0.0196921
708.803	0.0195232
708.881	0.0196427
708.959	0.0196447
709.038	0.0195673
709.116	0.0193783
709.194	0.0192680
709.272	0.0191644
709.350	0.0190069
709.428	0.0187722
709.506	0.0185658
709.584	0.0183035
709.663	0.0181290
709.741	0.0178749
709.819	0.0176640
709.897	0.0175214
709.975	0.0169981
710.053	0.0170036
710.131	0.0166517
710.209	0.0161928
710.288	0.0161732
710.366	0.0159038
710.444	0.0154956
710.522	0.0153799
710.600	0.0150621
710.678	0.0150130
710.756	0.0149738
710.834	0.0147607
710.913	0.0148869
710.991	0.0149239
711.069	0.0150729
711.147	0.0154221
711.225	0.0155914
711.303	0.0161090
711.381	0.0163557
711.459	0.0166409
711.538	0.0171249
711.616	0.0174437
711.694	0.0177438
711.772	0.0180052
711.850	0.0182735
711.928	0.0184928
712.006	0.0184284
712.084	0.0183755
712.163	0.0182864
712.241	0.0179276
712.319	0.0177333
712.397	0.0173102
712.475	0.0169838
712.553	0.0165779
712.631	0.0161293
712.709	0.0159194
712.788	0.0154458
712.866	0.0151778
712.944	0.0149370
713.022	0.0148656
713.100	0.0148361
713.178	0.0150132
713.256	0.0150434
713.334	0.0152217
713.413	0.0153955
713.491	0.0158112
713.569	0.0158925
713.647	0.0160922
713.725	0.0162796
713.803	0.0166480
713.881	0.0167769
713.959	0.0170433
714.038	0.0172607
714.116	0.0172975
714.194	0.0173638
714.272	0.0175578
714.350	0.0176955
714.428	0.0177841
714.506	0.0177467
714.584	0.0179246
714.663	0.0179253
714.741	0.0179092
714.819	0.0178846
714.897	0.0179743
714.975	0.0178085
715.053	0.0178504
715.131	0.0177773
715.209	0.0176645
715.288	0.0177055
715.366	0.0177777
715.444	0.0176411
715.522	0.0176350
715.600	0.0175813
715.678	0.0173704
715.756	0.0174599
715.834	0.0173311
715.913	0.0171220
715.991	0.0171305
716.069	0.0171114
716.147	0.0170765
716.225	0.0170824
716.303	0.0170501
716.381	0.0171630
716.459	0.0169843
716.538	0.0172094
716.616	0.0172563
716.694	0.0173634
716.772	0.0175526
716.850	0.0176221
716.928	0.0177382
717.006	0.0177730
717.084	0.0179532
717.163	0.0179984
717.241	0.0180246
717.319	0.0181259
717.397	0.0180593
717.475	0.0179221
717.553	0.0179575
717.631	0.0175784
717.709	0.0175340
717.788	0.0173442
717.866	0.0170025
717.944	0.0167437
718.022	0.0164942
718.100	0.0162688
718.178	0.0159918
718.256	0.0159131
718.334	0.0157015
718.413	0.0155296
718.491	0.0154244
718.569	0.0155386
718.647	0.0156255
718.725	0.0157378
718.803	0.0160759
718.881	0.0161893
718.959	0.0164610
719.038	0.0168406
719.116	0.0170900
719.194	0.0174632
719.272	0.0177831
719.350	0.0179879
719.428	0.0181322
719.506	0.0182734
719.584	0.0184946
719.663	0.0184648
719.741	0.0184824
719.819	0.0181783
719.897	0.0179609
719.975	0.0179118
720.053	0.0176958
720.131	0.0173429
720.209	0.0170274
720.288	0.0166988
720.366	0.0164188
720.444	0.0161346
720.522	0.0157444
720.600	0.0154723
720.678	0.0152228
720.756	0.0149678
720.834	0.0148812
720.913	0.0146465
720.991	0.0145550
721.069	0.0145737
721.147	0.0146165
721.225	0.0145448
721.303	0.0145771
721.381	0.0146846
721.459	0.0147860
721.538	0.0150280
721.616	0.0153541
721.694	0.0155835
721.772	0.0158295
721.850	0.0162814
721.928	0.0165321
722.006	0.0169222
722.084	0.0172314
722.163	0.0177818
722.241	0.0182385
722.319	0.0185948
722.397	0.0189274
722.475	0.0192090
722.553	0.0193838
722.631	0.0195670
722.709	0.0197871
722.788	0.0196451
722.866	0.0195535
722.944	0.0195198
723.022	0.0192082
723.100	0.0189140
723.178	0.0187032
723.256	0.0183953
723.334	0.0182185
723.413	0.0178463
723.491	0.0175379
723.569	0.0172546
723.647	0.0170332
723.725	0.0169205
723.803	0.0166362
723.881	0.0166581
723.959	0.0165865
724.038	0.0166620
724.116	0.0165510
724.194	0.0165797
724.272	0.0167143
724.350	0.0167759
724.428	0.0170257
724.506	0.0171798
724.584	0.0173468
724.663	0.0175573
724.741	0.0176976
724.819	0.0177466
724.897	0.0179589
724.975	0.0179008
725.053	0.0180495
725.131	0.0180257
725.209	0.0179711
725.288	0.0179536
725.366	0.0178168
725.444	0.0176270
725.522	0.0174357
725.600	0.0172205
725.678	0.0170542
725.756	0.0168626
725.834	0.0166698
725.913	0.0163888
725.991	0.0161904
726.069	0.0159863
726.147	0.0158297
726.225	0.0157601
726.303	0.0156674
726.381	0.0155543
726.459	0.0154855
726.538	0.0153697
726.616	0.0154536
726.694	0.0153437
726.772	0.0151791
726.850	0.0152474
726.928	0.0154599
727.006	0.0154260
727.084	0.0154121
727.163	0.0154771
727.241	0.0156455
727.319	0.0157209
727.397	0.0158094
727.475	0.0160434
727.553	0.0162699
727.631	0.0166258
727.709	0.0166125
727.788	0.0168835
727.866	0.0171165
727.944	0.0171948
728.022	0.0173225
728.100	0.0174770
728.178	0.0174080
728.256	0.0175681
728.334	0.0175777
728.413	0.0176235
728.491	0.0173598
728.569	0.0173277
728.647	0.0173109
728.725	0.0170935
728.803	0.0170523
728.881	0.0170357
728.959	0.0169319
729.038	0.0167796
729.116	0.0167722
729.194	0.0167556
729.272	0.0168969
729.350	0.0169042
729.428	0.0169502
729.506	0.0172929
729.584	0.0173345
729.663	0.0175866
729.741	0.0176511
729.819	0.0178973
729.897	0.0180135
729.975	0.0181767
730.053	0.0184332
730.131	0.0185690
730.209	0.0188292
730.288	0.0187717
730.366	0.0189948
730.444	0.0191376
730.522	0.0191175
730.600	0.0190434
730.678	0.0188300
730.756	0.0186760
730.834	0.0185056
730.913	0.0183231
730.991	0.0179664
731.069	0.0178565
731.147	0.0175929
731.225	0.0172092
731.303	0.0170410
731.381	0.0167549
731.459	0.0165601
731.538	0.0162491
731.616	0.0161920
731.694	0.0161020
731.772	0.0159568
731.850	0.0158304
731.928	0.0158631
732.006	0.0157692
732.084	0.0158488
732.163	0.0159737
732.241	0.0158145
732.319	0.0159833
732.397	0.0159949
732.475	0.0160786
732.553	0.0161196
732.631	0.0162174
732.709	0.0163206
732.788	0.0165476
732.866	0.0167370
732.944	0.0167341
733.022	0.0168910
733.100	0.0170143
733.178	0.0171226
733.256	0.0172552
733.334	0.0172993
733.413	0.0174506
733.491	0.0174703
733.569	0.0175181
733.647	0.0175312
733.725	0.0174289
733.803	0.0174602
733.881	0.0174159
733.959	0.0172734
734.038	0.0170658
734.116	0.0168894
734.194	0.0167145
734.272	0.0163345
734.350	0.0162864
734.428	0.0160957
734.506	0.0159062
734.584	0.0157895
734.663	0.0156360
734.741	0.0155287
734.819	0.0155132
734.897	0.0153923
734.975	0.0155566
735.053	0.0156040
735.131	0.0156987
735.209	0.0158426
735.288	0.0159303
735.366	0.0162836
735.444	0.0164741
735.522	0.0166710
735.600	0.0168554
735.678	0.0170725
735.756	0.0172229
735.834	0.0176598
735.913	0.0177116
735.991	0.0178497
736.069	0.0180263
736.147	0.0181428
736.225	0.0179955
736.303	0.0181978
736.381	0.0181770
736.459	0.0180962
736.538	0.0180668
736.616	0.0179646
736.694	0.0178382
736.772	0.0179277
736.850	0.0177540
736.928	0.0176721
737.006	0.0175982
737.084	0.0176004
737.163	0.0174504
737.241	0.0174809
737.319	0.0173415
737.397	0.0172955
737.475	0.0172370
737.553	0.0172805
737.631	0.0172829
737.709	0.0172870
737.788	0.0172019
737.866	0.0171770
737.944	0.0173644
738.022	0.0172441
738.100	0.0174330
738.178	0.0174185
738.256	0.0174844
738.334	0.0175423
738.413	0.0177910
738.491	0.0178895
738.569	0.0177174
738.647	0.0178541
738.725	0.0177859
738.803	0.0178349
738.881	0.0176482
738.959	0.0177238
739.038	0.0175809
739.116	0.0174355
739.194	0.0173181
739.272	0.0170956
739.350	0.0170613
739.428	0.0169816
739.506	0.0166395
739.584	0.0165189
739.663	0.0163866
739.741	0.0162691
739.819	0.0160324
739.897	0.0159627
739.975	0.0159106
740.053	0.0157690
740.131	0.0157577
740.209	0.0158346
740.288	0.0156383
740.366	0.0156679
740.444	0.0156766
740.522	0.0155478
740.600	0.0158669
740.678	0.0159642
740.756	0.0160781
740.834	0.0161040
740.913	0.0161142
740.991	0.0165359
741.069	0.0166977
741.147	0.0166597
741.225	0.0168470
741.303	0.0170446
741.381	0.0169707
741.459	0.0170354
741.538	0.0170193
741.616	0.0173109
741.694	0.0174229
741.772	0.0173337
741.850	0.0171838
741.928	0.0172448
742.006	0.0170465
742.084	0.0170354
742.163	0.0169161
742.241	0.0170816
742.319	0.0170089
742.397	0.0170364
742.475	0.0169846
742.553	0.0171332
742.631	0.0169562
742.709	0.0170329
742.788	0.0169482
742.866	0.0168855
742.944	0.0169373
743.022	0.0168884
743.100	0.0169631
743.178	0.0169051
743.256	0.0168797
743.334	0.0168419
743.413	0.0169779
743.491	0.0169206
743.569	0.0170261
743.647	0.0171585
743.725	0.0171629
743.803	0.0173048
743.881	0.0174262
743.959	0.0176495
744.038	0.0178788
744.116	0.0179585
744.194	0.0178740
744.272	0.0181635
744.350	0.0181725
744.428	0.0181493
744.506	0.0180623
744.584	0.0179806
744.663	0.0177757
744.741	0.0176857
744.819	0.0175787
744.897	0.0174253
744.975	0.0171944
745.053	0.0171780
745.131	0.0170612
745.209	0.0168835
745.288	0.0167999
745.366	0.0167102
745.444	0.0166534
745.522	0.0166140
745.600	0.0166124
745.678	0.0166027
745.756	0.0166559
745.834	0.0165628
745.913	0.0167274
745.991	0.0167443
746.069	0.0167103
746.147	0.0168732
746.225	0.0168533
746.303	0.0168279
746.381	0.0169921
746.459	0.0171258
746.538	0.0170744
746.616	0.0171249
746.694	0.0171386
746.772	0.0172013
746.850	0.0172242
746.928	0.0171381
747.006	0.0170665
747.084	0.0171740
747.163	0.0172350
747.241	0.0171537
747.319	0.0171034
747.397	0.0170496
747.475	0.0169537
747.553	0.0170821
747.631	0.0168560
747.709	0.0167905
747.788	0.0168525
747.866	0.0166777
747.944	0.0166864
748.022	0.0164967
748.100	0.0165366
748.178	0.0165715
748.256	0.0164148
748.334	0.0163340
748.413	0.0163335
748.491	0.0163865
748.569	0.0163188
748.647	0.0162202
748.725	0.0161221
748.803	0.0161362
748.881	0.0161019
748.959	0.0161283
749.038	0.0162414
749.116	0.0162712
749.194	0.0164359
749.272	0.0164500
749.350	0.0163144
749.428	0.0165145
749.506	0.0166559
749.584	0.0167471
749.663	0.0168384
749.741	0.0168726
749.819	0.0169733
749.897	0.0171944
749.975	0.0171989
750.053	0.0171320
750.131	0.0173209
750.209	0.0172540
750.288	0.0172096
750.366	0.0173426
750.444	0.0171922
750.522	0.0173808
750.600	0.0172641
750.678	0.0173074
750.756	0.0173761
750.834	0.0173200
750.913	0.0172718
750.991	0.0172088
751.069	0.0171828
751.147	0.0171972
751.225	0.0171828
751.303	0.0172478
751.381	0.0174157
751.459	0.0174598
751.538	0.0174643
751.616	0.0175396
751.694	0.0175699
751.772	0.0175809
751.850	0.0176583
751.928	0.0175790
752.006	0.0176170
752.084	0.0176808
752.163	0.0175821
752.241	0.0174912
752.319	0.0173815
752.397	0.0174747
752.475	0.0173945
752.553	0.0173444
752.631	0.0172725
752.709	0.0172451
752.788	0.0173505
752.866	0.0173622
752.944	0.0172013
753.022	0.0172536
753.100	0.0172161
753.178	0.0171059
753.256	0.0171786
753.334	0.0170835
753.413	0.0171201
753.491	0.0170597
753.569	0.0170493
753.647	0.0169090
753.725	0.0169608
753.803	0.0168251
753.881	0.0168179
753.959	0.0169512
754.038	0.0168255
754.116	0.0166824
754.194	0.0168392
754.272	0.0167886
754.350	0.0168311
754.428	0.0168703
754.506	0.0168378
754.584	0.0168355
754.663	0.0168253
754.741	0.0167258
754.819	0.0170824
754.897	0.0169602
754.975	0.0167227
755.053	0.0168401
755.131	0.0168565
755.209	0.0167205
755.288	0.0168041
755.366	0.0167632
755.444	0.0168337
755.522	0.0169110
755.600	0.0168404
755.678	0.0168399
755.756	0.0168427
755.834	0.0167010
755.913	0.0167704
755.991	0.0168959
756.069	0.0168636
756.147	0.0167886
756.225	0.0169139
756.303	0.0167850
756.381	0.0167171
756.459	0.0166856
756.538	0.0166853
756.616	0.0167310
756.694	0.0166219
756.772	0.0167071
756.850	0.0167653
756.928	0.0166924
757.006	0.0167153
757.084	0.0166259
757.163	0.0166479
757.241	0.0166228
757.319	0.0166721
757.397	0.0167278
757.475	0.0167689
757.553	0.0166915
757.631	0.0168381
757.709	0.0167690
757.788	0.0167525
757.866	0.0168027
757.944	0.0168363
758.022	0.0168334
758.100	0.0169321
758.178	0.0170101
758.256	0.0170545
758.334	0.0172198
758.413	0.0172400
758.491	0.0173333
758.569	0.0175028
758.647	0.0173977
758.725	0.0173534
758.803	0.0176492
758.881	0.0176122
758.959	0.0176318
759.038	0.0177419
759.116	0.0177444
759.194	0.0177577
759.272	0.0177160
759.350	0.0178149
759.428	0.0178047
759.506	0.0179456
759.584	0.0177576
759.663	0.0175886
759.741	0.0176062
759.819	0.0176510
759.897	0.0176251
759.975	0.0175090
760.053	0.0174371
760.131	0.0173029
760.209	0.0173083
760.288	0.0174110
760.366	0.0171746
760.444	0.0171996
760.522	0.0172912
760.600	0.0172267
760.678	0.0171834
760.756	0.0171544
760.834	0.0170712
760.913	0.0171124
760.991	0.0172089
761.069	0.0171391
761.147	0.0169997
761.225	0.0171572
761.303	0.0169749
761.381	0.0170106
761.459	0.0168874
761.538	0.0167799
761.616	0.0167957
761.694	0.0167242
761.772	0.0167831
761.850	0.0165049
761.928	0.0165374
762.006	0.0165897
762.084	0.0164968
762.163	0.0165283
762.241	0.0163082
762.319	0.0162974
762.397	0.0163401
762.475	0.0164037
762.553	0.0163629
762.631	0.0164426
762.709	0.0163493
762.788	0.0164822
762.866	0.0163506
762.944	0.0165156
763.022	0.0166267
763.100	0.0166122
763.178	0.0166192
763.256	0.0168870
763.334	0.0167693
763.413	0.0170350
763.491	0.0171632
763.569	0.0170392
763.647	0.0171265
763.725	0.0172096
763.803	0.0171257
763.881	0.0171394
763.959	0.0170925
764.038	0.0171712
764.116	0.0173264
764.194	0.0172675
764.272	0.0171323
764.350	0.0169923
764.428	0.0169335
764.506	0.0168607
764.584	0.0169051
764.663	0.0167478
764.741	0.0167317
764.819	0.0166579
764.897	0.0166850
764.975	0.0166339
765.053	0.0166001
765.131	0.0165818
765.209	0.0167368
765.288	0.0166281
765.366	0.0167313
765.444	0.0168043
765.522	0.0168510
765.600	0.0169239
765.678	0.0168722
765.756	0.0169770
765.834	0.0170167
765.913	0.0171410
765.991	0.0171574
766.069	0.0173410
766.147	0.0174097
766.225	0.0174321
766.303	0.0176437
766.381	0.0176897
766.459	0.0176207
766.538	0.0176689
766.616	0.0178122
766.694	0.0178462
766.772	0.0179904
766.850	0.0180255
766.928	0.0180180
767.006	0.0179848
767.084	0.0180581
767.163	0.0181543
767.241	0.0179449
767.319	0.0178270
767.397	0.0178802
767.475	0.0177496
767.553	0.0176360
767.631	0.0176646
767.709	0.0174096
767.788	0.0174693
767.866	0.0172517
767.944	0.0172980
768.022	0.0171857
768.100	0.0170594
768.178	0.0168613
768.256	0.0168676
768.334	0.0166251
768.413	0.0165793
768.491	0.0165897
768.569	0.0163733
768.647	0.0163708
768.725	0.0162065
768.803	0.0161865
768.881	0.0161374
768.959	0.0161819
769.038	0.0159867
769.116	0.0159955
769.194	0.0161249
769.272	0.0160955
769.350	0.0159972
769.428	0.0161580
769.506	0.0161095
769.584	0.0161048
769.663	0.0162560
769.741	0.0164667
769.819	0.0166234
769.897	0.0166196
769.975	0.0165717
770.053	0.0167405
770.131	0.0168303
770.209	0.0168733
770.288	0.0169933
770.366	0.0170293
770.444	0.0168574
770.522	0.0170167
770.600	0.0170860
770.678	0.0171126
770.756	0.0170709
770.834	0.0170889
770.913	0.0171301
770.991	0.0172491
771.069	0.0171475
771.147	0.0171532
771.225	0.0170683
771.303	0.0171958
771.381	0.0172195
771.459	0.0170879
771.538	0.0171416
771.616	0.0171832
771.694	0.0171968
771.772	0.0172897
771.850	0.0172546
771.928	0.0173219
772.006	0.0172320
772.084	0.0174042
772.163	0.0175018
772.241	0.0173642
772.319	0.0174812
772.397	0.0173302
772.475	0.0173303
772.553	0.0174175
772.631	0.0173063
772.709	0.0173714
772.788	0.0172839
772.866	0.0172176
772.944	0.0172765
773.022	0.0171710
773.100	0.0171877
773.178	0.0170770
773.256	0.0170695
773.334	0.0169553
773.413	0.0169538
773.491	0.0168232
773.569	0.0168693
773.647	0.0168514
773.725	0.0166215
773.803	0.0166471
773.881	0.0165315
773.959	0.0165471
774.038	0.0164432
774.116	0.0164621
774.194	0.0163258
774.272	0.0164891
774.350	0.0164008
774.428	0.0164338
774.506	0.0164849
774.584	0.0163342
774.663	0.0166727
774.741	0.0165903
774.819	0.0165824
774.897	0.0166850
774.975	0.0168912
775.053	0.0167545
775.131	0.0170251
775.209	0.0169875
775.288	0.0170148
775.366	0.0171768
775.444	0.0172836
775.522	0.0173450
775.600	0.0174523
775.678	0.0175135
775.756	0.0176177
775.834	0.0175270
775.913	0.0176388
775.991	0.0176906
776.069	0.0177757
776.147	0.0179186
776.225	0.0178355
776.303	0.0178667
776.381	0.0179259
776.459	0.0180202
776.538	0.0180177
776.616	0.0180893
776.694	0.0181610
776.772	0.0180022
776.850	0.0180920
776.928	0.0178747
777.006	0.0178860
777.084	0.0177702
777.163	0.0176734
777.241	0.0175404
777.319	0.0174857
777.397	0.0173618
777.475	0.0172021
777.553	0.0171121
777.631	0.0169867
777.709	0.0167976
777.788	0.0166616
777.866	0.0165420
777.944	0.0163765
778.022	0.0163493
778.100	0.0161408
778.178	0.0161876
778.256	0.0161275
778.334	0.0159967
778.413	0.0160120
778.491	0.0160815
778.569	0.0160401
778.647	0.0160565
778.725	0.0160480
778.803	0.0160465
778.881	0.0160754
778.959	0.0160162
779.038	0.0160912
779.116	0.0161310
779.194	0.0161367
779.272	0.0161388
779.350	0.0162135
779.428	0.0163676
779.506	0.0161798
779.584	0.0162211
779.663	0.0162758
779.741	0.0162592
779.819	0.0164471
779.897	0.0165262
779.975	0.0164619
780.053	0.0165176
780.131	0.0165395
780.209	0.0165875
780.288	0.0167792
780.366	0.0166863
780.444	0.0168194
780.522	0.0168917
780.600	0.0170098
780.678	0.0169412
780.756	0.0171609
780.834	0.0173040
780.913	0.0173257
780.991	0.0173446
781.069	0.0173876
781.147	0.0176786
781.225	0.0177757
781.303	0.0178052
781.381	0.0179305
781.459	0.0180196
781.538	0.0180292
781.616	0.0182670
781.694	0.0181215
781.772	0.0184026
781.850	0.0183344
781.928	0.0184342
782.006	0.0185793
782.084	0.0185693
782.163	0.0185513
782.241	0.0183733
782.319	0.0185635
782.397	0.0185041
782.475	0.0184940
782.553	0.0184521
782.631	0.0182616
782.709	0.0181237
782.788	0.0181094
782.866	0.0178946
782.944	0.0178362
783.022	0.0176670
783.100	0.0174155
783.178	0.0174763
783.256	0.0171338
783.334	0.0169495
783.413	0.0169750
783.491	0.0167203
783.569	0.0164735
783.647	0.0165084
783.725	0.0164590
783.803	0.0162830
783.881	0.0162403
783.959	0.0161115
784.038	0.0161507
784.116	0.0160541
784.194	0.0159615
784.272	0.0159695
784.350	0.0157977
784.428	0.0160171
784.506	0.0158280
784.584	0.0158551
784.663	0.0158736
784.741	0.0157809
784.819	0.0158608
784.897	0.0158466
784.975	0.0157944
785.053	0.0157865
785.131	0.0159411
785.209	0.0158638
785.288	0.0158630
785.366	0.0160027
785.444	0.0159258
785.522	0.0160387
785.600	0.0161368
785.678	0.0162533
785.756	0.0162309
785.834	0.0162910
785.913	0.0164330
785.991	0.0165395
786.069	0.0165261
786.147	0.0167159
786.225	0.0168331
786.303	0.0169731
786.381	0.0169718
786.459	0.0169740
786.538	0.0172749
786.616	0.0173777
786.694	0.0174190
786.772	0.0176139
786.850	0.0175252
786.928	0.0176908
787.006	0.0176587
787.084	0.0179610
787.163	0.0179321
787.241	0.0180856
787.319	0.0180418
787.397	0.0181574
787.475	0.0183642
787.553	0.0183299
787.631	0.0183640
787.709	0.0183879
787.788	0.0184297
787.866	0.0184731
787.944	0.0183789
788.022	0.0183400
788.100	0.0184138
788.178	0.0182352
788.256	0.0183125
788.334	0.0181464
788.413	0.0180801
788.491	0.0179449
788.569	0.0179310
788.647	0.0179184
788.725	0.0176064
788.803	0.0175074
788.881	0.0175653
788.959	0.0172433
789.038	0.0171802
789.116	0.0170599
789.194	0.0169758
789.272	0.0167888
789.350	0.0167408
789.428	0.0166942
789.506	0.0163577
789.584	0.0163007
789.663	0.0162740
789.741	0.0160689
789.819	0.0160257
789.897	0.0159596
789.975	0.0158533
790.053	0.0158459
790.131	0.0158393
790.209	0.0159846
790.288	0.0158652
790.366	0.0159387
790.444	0.0157172
790.522	0.0159018
790.600	0.0159648
790.678	0.0158572
790.756	0.0160690
790.834	0.0160732
790.913	0.0161484
790.991	0.0162502
791.069	0.0162280
791.147	0.0163619
791.225	0.0163834
791.303	0.0164646
791.381	0.0166444
791.459	0.0166232
791.538	0.0167938
791.616	0.0169909
791.694	0.0169858
791.772	0.0170224
791.850	0.0172067
791.928	0.0174377
792.006	0.0173308
792.084	0.0175039
792.163	0.0175682
792.241	0.0177107
792.319	0.0175813
792.397	0.0176373
792.475	0.0177760
792.553	0.0176893
792.631	0.0178037
792.709	0.0178428
792.788	0.0179217
792.866	0.0179198
792.944	0.0179062
793.022	0.0178164
793.100	0.0178210
793.178	0.0178490
793.256	0.0178677
793.334	0.0176752
793.413	0.0175755
793.491	0.0177409
793.569	0.0176881
793.647	0.0176273
793.725	0.0175114
793.803	0.0174820
793.881	0.0175370
793.959	0.0174821
794.038	0.0173751
794.116	0.0173235
794.194	0.0173379
794.272	0.0171835
794.350	0.0171425
794.428	0.0170302
794.506	0.0169294
794.584	0.0168464
794.663	0.0169176
794.741	0.0168050
794.819	0.0166685
794.897	0.0166015
794.975	0.0165917
795.053	0.0165006
795.131	0.0162814
795.209	0.0162962
795.288	0.0162399
795.366	0.0163139
795.444	0.0160378
795.522	0.0160821
795.600	0.0160589
795.678	0.0161424
795.756	0.0160137
795.834	0.0159753
795.913	0.0162315
795.991	0.0160736
796.069	0.0160959
796.147	0.0160468
796.225	0.0161334
796.303	0.0161702
796.381	0.0162183
796.459	0.0163623
796.538	0.0164051
796.616	0.0165742
796.694	0.0165930
796.772	0.0165865
796.850	0.0166540
796.928	0.0167003
797.006	0.0168533
797.084	0.0169807
797.163	0.0170749
797.241	0.0171201
797.319	0.0173937
797.397	0.0173071
797.475	0.0173330
797.553	0.0173653
797.631	0.0176340
797.709	0.0176250
797.788	0.0176451
797.866	0.0177196
797.944	0.0175507
798.022	0.0177390
798.100	0.0178681
798.178	0.0178244
798.256	0.0179546
798.334	0.0180083
798.413	0.0178705
798.491	0.0178841
798.569	0.0176935
798.647	0.0177544
798.725	0.0177569
798.803	0.0177962
798.881	0.0175741
798.959	0.0175454
799.038	0.0176504
799.116	0.0175320
799.194	0.0173383
799.272	0.0174297
799.350	0.0174884
799.428	0.0174689
799.506	0.0172124
799.584	0.0171906
799.663	0.0171822
799.741	0.0171048
799.819	0.0170374
799.897	0.0170159
799.975	0.0170561
800.053	0.0170441
800.131	0.0169099
800.209	0.0168789
800.288	0.0168618
800.366	0.0167497
800.444	0.0166857
800.522	0.0167520
800.600	0.0166817
800.678	0.0167582
800.756	0.0165560
800.834	0.0164627
800.913	0.0165083
800.991	0.0163499
801.069	0.0164670
801.147	0.0164156
801.225	0.0163063
801.303	0.0163361
801.381	0.0162637
801.459	0.0161433
801.538	0.0161240
801.616	0.0162269
801.694	0.0161611
801.772	0.0162863
801.850	0.0163456
801.928	0.0163357
802.006	0.0162426
802.084	0.0164699
802.163	0.0165058
802.241	0.0164620
802.319	0.0165162
802.397	0.0166230
802.475	0.0166805
802.553	0.0166200
802.631	0.0167095
802.709	0.0167971
802.788	0.0168085
802.866	0.0167928
802.944	0.0168896
803.022	0.0169556
803.100	0.0167000
803.178	0.0170190
803.256	0.0170456
803.334	0.0168822
803.413	0.0168632
803.491	0.0169988
803.569	0.0170396
803.647	0.0171446
803.725	0.0171696
803.803	0.0172434
803.881	0.0173317
803.959	0.0172884
804.038	0.0173082
804.116	0.0173380
804.194	0.0173856
804.272	0.0175208
804.350	0.0174517
804.428	0.0173886
804.506	0.0174676
804.584	0.0175438
804.663	0.0174776
804.741	0.0175250
804.819	0.0176176
804.897	0.0175879
804.975	0.0176185
805.053	0.0177432
805.131	0.0176975
805.209	0.0176801
805.288	0.0176160
805.366	0.0176529
805.444	0.0177190
805.522	0.0176080
805.600	0.0176176
805.678	0.0174672
805.756	0.0174475
805.834	0.0174360
805.913	0.0173501
805.991	0.0173441
806.069	0.0173158
806.147	0.0172110
806.225	0.0172697
806.303	0.0170104
806.381	0.0171170
806.459	0.0168648
806.538	0.0168569
806.616	0.0168874
806.694	0.0167782
806.772	0.0167145
806.850	0.0166960
806.928	0.0167552
807.006	0.0164960
807.084	0.0165264
807.163	0.0164331
807.241	0.0164370
807.319	0.0163313
807.397	0.0164169
807.475	0.0164405
807.553	0.0164565
807.631	0.0165131
807.709	0.0164427
807.788	0.0164972
807.866	0.0165874
807.944	0.0165681
808.022	0.0167042
808.100	0.0166502
808.178	0.0166324
808.256	0.0167860
808.334	0.0167482
808.413	0.0167086
808.491	0.0168232
808.569	0.0167838
808.647	0.0166730
808.725	0.0169090
808.803	0.0167812
808.881	0.0167543
808.959	0.0167605
809.038	0.0167845
809.116	0.0168098
809.194	0.0166862
809.272	0.0168458
809.350	0.0167441
809.428	0.0167818
809.506	0.0167400
809.584	0.0169170
809.663	0.0168073
809.741	0.0167725
809.819	0.0168158
809.897	0.0168902
809.975	0.0167217
810.053	0.0168976
810.131	0.0169194
810.209	0.0168805
810.288	0.0170667
810.366	0.0170420
810.444	0.0171782
810.522	0.0170517
810.600	0.0169750
810.678	0.0170228
810.756	0.0169960
810.834	0.0170682
810.913	0.0171775
810.991	0.0170506
811.069	0.0171723
811.147	0.0171011
811.225	0.0171069
811.303	0.0171892
811.381	0.0173045
811.459	0.0172268
811.538	0.0172179
811.616	0.0171765
811.694	0.0172954
811.772	0.0173259
811.850	0.0173302
811.928	0.0174571
812.006	0.0173926
812.084	0.0174580
812.163	0.0174928
812.241	0.0174756
812.319	0.0175184
812.397	0.0173632
812.475	0.0174421
812.553	0.0175770
812.631	0.0175186
812.709	0.0174223
812.788	0.0174109
812.866	0.0173869
812.944	0.0173090
813.022	0.0173599
813.100	0.0173434
813.178	0.0171462
813.256	0.0172185
813.334	0.0171973
813.413	0.0171452
813.491	0.0171851
813.569	0.0171971
813.647	0.0169256
813.725	0.0168662
813.803	0.0170074
813.881	0.0170006
813.959	0.0169254
814.038	0.0169289
814.116	0.0166976
814.194	0.0168496
814.272	0.0168161
814.350	0.0166885
814.428	0.0167065
814.506	0.0164594
814.584	0.0165243
814.663	0.0166632
814.741	0.0165250
814.819	0.0165392
814.897	0.0165096
814.975	0.0165986
815.053	0.0165410
815.131	0.0165520
815.209	0.0165863
815.288	0.0165704
815.366	0.0165659
815.444	0.0165023
815.522	0.0166241
815.600	0.0167022
815.678	0.0166632
815.756	0.0166377
815.834	0.0166404
815.913	0.0168182
815.991	0.0168327
816.069	0.0167852
816.147	0.0167935
816.225	0.0167170
816.303	0.0167644
816.381	0.0168536
816.459	0.0168005
816.538	0.0168092
816.616	0.0168829
816.694	0.0169082
816.772	0.0168712
816.850	0.0167182
816.928	0.0167807
817.006	0.0168991
817.084	0.0168195
817.163	0.0170184
817.241	0.0169343
817.319	0.0168710
817.397	0.0169822
817.475	0.0169044
817.553	0.0171304
817.631	0.0172074
817.709	0.0171798
817.788	0.0173293
817.866	0.0172084
817.944	0.0172701
818.022	0.0172105
818.100	0.0173092
818.178	0.0172769
818.256	0.0174012
818.334	0.0173062
818.413	0.0172452
818.491	0.0172198
818.569	0.0172756
818.647	0.0173415
818.725	0.0173506
818.803	0.0172166
818.881	0.0172052
818.959	0.0172086
819.038	0.0172369
819.116	0.0173024
819.194	0.0172912
819.272	0.0172868
819.350	0.0172488
819.428	0.0173179
819.506	0.0170753
819.584	0.0171611
819.663	0.0170924
819.741	0.0169839
819.819	0.0170930
819.897	0.0170108
819.975	0.0169048
820.053	0.0169685
820.131	0.0168925
820.209	0.0168542
820.288	0.0167130
820.366	0.0167296
820.444	0.0166738
820.522	0.0166071
820.600	0.0166650
820.678	0.0167382
820.756	0.0166171
820.834	0.0165688
820.913	0.0165949
820.991	0.0167082
821.069	0.0168453
821.147	0.0168787
821.225	0.0168786
821.303	0.0169005
821.381	0.0168366
821.459	0.0170201
821.538	0.0170202
821.616	0.0170300
821.694	0.0171191
821.772	0.0173390
821.850	0.0170875
821.928	0.0169905
822.006	0.0170406
822.084	0.0169524
822.163	0.0169821
822.241	0.0169626
822.319	0.0169344
822.397	0.0169920
822.475	0.0170448
822.553	0.0168180
822.631	0.0170168
822.709	0.0168796
822.788	0.0170274
822.866	0.0170625
822.944	0.0170242
823.022	0.0169244
823.100	0.0170739
823.178	0.0170802
823.256	0.0170906
823.334	0.0170197
823.413	0.0171083
823.491	0.0171243
823.569	0.0170724
823.647	0.0170818
823.725	0.0170881
823.803	0.0169581
823.881	0.0172743
823.959	0.0170292
824.038	0.0169998
824.116	0.0170470
824.194	0.0170304
824.272	0.0168571
824.350	0.0169077
824.428	0.0169631
824.506	0.0169195
824.584	0.0168153
824.663	0.0168261
824.741	0.0169392
824.819	0.0169179
824.897	0.0168855
824.975	0.0168401
825.053	0.0167666
825.131	0.0167402
825.209	0.0168974
825.288	0.0167612
825.366	0.0166393
825.444	0.0167567
825.522	0.0167327
825.600	0.0167546
825.678	0.0166306
825.756	0.0167724
825.834	0.0168142
825.913	0.0168048
825.991	0.0167347
826.069	0.0167581
826.147	0.0167820
826.225	0.0167139
826.303	0.0166678
826.381	0.0169906
826.459	0.0169556
826.538	0.0168494
826.616	0.0168761
826.694	0.0170935
826.772	0.0171832
826.850	0.0171722
826.928	0.0170072
827.006	0.0171783
827.084	0.0172209
827.163	0.0171375
827.241	0.0172128
827.319	0.0172054
827.397	0.0172517
827.475	0.0172378
827.553	0.0173194
827.631	0.0173158
827.709	0.0173357
827.788	0.0172882
827.866	0.0172236
827.944	0.0172968
828.022	0.0172772
828.100	0.0172703
828.178	0.0172563
828.256	0.0173957
828.334	0.0171996
828.413	0.0170979
828.491	0.0171508
828.569	0.0173873
828.647	0.0171398
828.725	0.0171389
828.803	0.0171311
828.881	0.0172035
828.959	0.0171596
829.038	0.0170782
829.116	0.0171488
829.194	0.0172036
829.272	0.0170947
829.350	0.0172352
829.428	0.0171452
829.506	0.0170853
829.584	0.0171847
829.663	0.0171454
829.741	0.0170238
829.819	0.0169215
829.897	0.0169683
829.975	0.0170100
830.053	0.0169868
830.131	0.0169247
830.209	0.0169644
830.288	0.0168646
830.366	0.0168700
830.444	0.0169539
830.522	0.0168053
830.600	0.0167779
830.678	0.0167169
830.756	0.0167075
830.834	0.0166078
830.913	0.0166882
830.991	0.0165267
831.069	0.0163394
831.147	0.0165124
831.225	0.0163956
831.303	0.0163067
831.381	0.0162519
831.459	0.0162275
831.538	0.0162261
831.616	0.0162406
831.694	0.0162418
831.772	0.0162396
831.850	0.0163905
831.928	0.0164675
832.006	0.0163712
832.084	0.0163931
832.163	0.0164698
832.241	0.0166451
832.319	0.0166705
832.397	0.0167569
832.475	0.0168005
832.553	0.0168751
832.631	0.0170084
832.709	0.0168612
832.788	0.0170747
832.866	0.0171107
832.944	0.0169692
833.022	0.0171440
833.100	0.0172491
833.178	0.0172150
833.256	0.0173138
833.334	0.0173936
833.413	0.0173244
833.491	0.0174079
833.569	0.0175603
833.647	0.0174905
833.725	0.0174425
833.803	0.0174371
833.881	0.0174769
833.959	0.0175706
834.038	0.0175421
834.116	0.0174998
834.194	0.0174983
834.272	0.0175088
834.350	0.0175075
834.428	0.0174398
834.506	0.0173882
834.584	0.0174158
834.663	0.0174931
834.741	0.0173871
834.819	0.0174335
834.897	0.0172753
834.975	0.0175078
835.053	0.0174047
835.131	0.0175071
835.209	0.0174036
835.288	0.0173809
835.366	0.0174517
835.444	0.0173230
835.522	0.0171218
835.600	0.0171244
835.678	0.0171439
835.756	0.0170891
835.834	0.0169366
835.913	0.0167619
835.991	0.0168171
836.069	0.0168417
836.147	0.0167616
836.225	0.0166567
836.303	0.0166061
836.381	0.0164653
836.459	0.0164825
836.538	0.0165038
836.616	0.0165667
836.694	0.0163814
836.772	0.0165364
836.850	0.0164317
836.928	0.0163532
837.006	0.0163721
837.084	0.0163704
837.163	0.0165901
837.241	0.0165661
837.319	0.0165370
837.397	0.0165482
837.475	0.0165453
837.553	0.0167319
837.631	0.0167434
837.709	0.0168126
837.788	0.0167646
837.866	0.0170097
837.944	0.0167850
838.022	0.0169403
838.100	0.0170213
838.178	0.0171291
838.256	0.0170749
838.334	0.0171333
838.413	0.0172715
838.491	0.0172345
838.569	0.0171420
838.647	0.0171496
838.725	0.0171719
838.803	0.0170909
838.881	0.0170763
838.959	0.0170225
839.038	0.0171725
839.116	0.0171554
839.194	0.0171142
839.272	0.0172143
839.350	0.0172199
839.428	0.0171407
839.506	0.0172891
839.584	0.0170567
839.663	0.0172018
839.741	0.0171037
839.819	0.0172085
839.897	0.0171181
839.975	0.0172530
840.053	0.0172231
840.131	0.0171946
840.209	0.0171983
840.288	0.0171634
840.366	0.0173578
840.444	0.0172610
840.522	0.0172589
840.600	0.0171181
840.678	0.0170686
840.756	0.0171879
840.834	0.0172445
840.913	0.0171352
840.991	0.0171463
841.069	0.0170304
841.147	0.0170609
841.225	0.0170141
841.303	0.0168645
841.381	0.0169469
841.459	0.0168705
841.538	0.0168568
841.616	0.0168144
841.694	0.0167326
841.772	0.0169177
841.850	0.0168457
841.928	0.0168978
842.006	0.0168650
842.084	0.0168348
842.163	0.0168050
842.241	0.0168044
842.319	0.0166434
842.397	0.0168547
842.475	0.0167560
842.553	0.0168349
842.631	0.0168610
842.709	0.0167353
842.788	0.0168568
842.866	0.0168437
842.944	0.0168835
843.022	0.0169913
843.100	0.0168964
843.178	0.0169688
843.256	0.0171028
843.334	0.0170061
843.413	0.0171121
843.491	0.0170556
843.569	0.0171239
843.647	0.0170981
843.725	0.0168705
843.803	0.0169842
843.881	0.0170061
843.959	0.0168753
844.038	0.0170444
844.116	0.0170268
844.194	0.0168882
844.272	0.0169228
844.350	0.0169907
844.428	0.0170902
844.506	0.0170224
844.584	0.0168324
844.663	0.0170174
844.741	0.0169884
844.819	0.0168542
844.897	0.0170251
844.975	0.0171686
845.053	0.0169546
845.131	0.0169583
845.209	0.0171901
845.288	0.0171616
845.366	0.0171079
845.444	0.0170845
845.522	0.0171351
845.600	0.0172633
845.678	0.0171980
845.756	0.0173711
845.834	0.0171951
845.913	0.0170855
845.991	0.0171647
846.069	0.0172741
846.147	0.0173634
846.225	0.0171784
846.303	0.0171464
846.381	0.0171433
846.459	0.0170951
846.538	0.0170559
846.616	0.0170352
846.694	0.0168928
846.772	0.0169987
846.850	0.0170174
846.928	0.0169805
847.006	0.0170165
847.084	0.0171024
847.163	0.0170785
847.241	0.0169979
847.319	0.0170350
847.397	0.0171515
847.475	0.0169156
847.553	0.0169260
847.631	0.0168365
847.709	0.0168446
847.788	0.0167705
847.866	0.0166401
847.944	0.0166852
848.022	0.0167371
848.100	0.0166120
848.178	0.0166266
848.256	0.0167258
848.334	0.0167673
848.413	0.0167654
848.491	0.0168014
848.569	0.0168093
848.647	0.0169146
848.725	0.0169823
848.803	0.0170425
848.881	0.0170143
848.959	0.0170116
849.038	0.0170439
849.116	0.0173134
849.194	0.0172076
849.272	0.0171312
849.350	0.0172311
849.428	0.0173719
849.506	0.0172157
849.584	0.0173652
849.663	0.0173300
849.741	0.0172788
849.819	0.0172312
849.897	0.0173225
849.975	0.0172782
850.053	0.0172205
850.131	0.0171880
850.209	0.0172420
850.288	0.0172572
850.366	0.0170783
850.444	0.0172392
850.522	0.0170313
850.600	0.0171129
850.678	0.0170164
850.756	0.0169911
850.834	0.0169846
850.913	0.0170869
850.991	0.0170771
851.069	0.0171567
851.147	0.0171055
851.225	0.0171279
851.303	0.0171655
851.381	0.0172496
851.459	0.0171785
851.538	0.0174372
851.616	0.0173219
851.694	0.0173838
851.772	0.0173462
851.850	0.0173884
851.928	0.0173879
852.006	0.0172997
852.084	0.0171786
852.163	0.0172307
852.241	0.0172285
852.319	0.0170842
852.397	0.0170081
852.475	0.0169470
852.553	0.0169339
852.631	0.0168214
852.709	0.0168163
852.788	0.0168913
852.866	0.0167170
852.944	0.0168149
853.022	0.0168065
853.100	0.0165608
853.178	0.0164454
853.256	0.0164952
853.334	0.0165256
853.413	0.0166792
853.491	0.0165417
853.569	0.0165767
853.647	0.0166455
853.725	0.0167702
853.803	0.0166835
853.881	0.0167836
853.959	0.0168175
854.038	0.0169330
854.116	0.0169564
854.194	0.0170706
854.272	0.0170693
854.350	0.0170052
854.428	0.0170397
854.506	0.0171231
854.584	0.0172451
854.663	0.0171859
854.741	0.0170575
854.819	0.0171026
854.897	0.0171253
854.975	0.0170995
855.053	0.0169967
855.131	0.0170579
855.209	0.0170193
855.288	0.0171418
855.366	0.0168917
855.444	0.0170815
855.522	0.0170142
855.600	0.0169630
855.678	0.0168648
855.756	0.0169385
855.834	0.0169595
855.913	0.0168916
855.991	0.0169623
856.069	0.0170340
856.147	0.0170677
856.225	0.0171800
856.303	0.0172418
856.381	0.0172610
856.459	0.0174791
856.538	0.0173909
856.616	0.0173679
856.694	0.0175153
856.772	0.0174321
856.850	0.0174055
856.928	0.0173331
857.006	0.0173644
857.084	0.0173122
857.163	0.0173106
857.241	0.0172295
857.319	0.0171865
857.397	0.0171664
857.475	0.0171471
857.553	0.0170786
857.631	0.0171100
857.709	0.0170939
857.788	0.0170271
857.866	0.0171556
857.944	0.0170875
858.022	0.0169485
858.100	0.0170694
858.178	0.0168856
858.256	0.0170820
858.334	0.0170727
858.413	0.0169028
858.491	0.0169736
858.569	0.0169437
858.647	0.0168040
858.725	0.0169685
858.803	0.0169066
858.881	0.0168616
858.959	0.0168922
859.038	0.0168161
859.116	0.0169139
859.194	0.0168247
859.272	0.0168873
859.350	0.0168128
859.428	0.0165950
859.506	0.0165978
859.584	0.0166417
859.663	0.0165533
859.741	0.0167174
859.819	0.0165228
859.897	0.0164264
859.975	0.0164936
860.053	0.0164674
860.131	0.0165063
860.209	0.0165410
860.288	0.0166628
860.366	0.0167368
860.444	0.0166779
860.522	0.0167245
860.600	0.0169509
860.678	0.0169208
860.756	0.0170363
860.834	0.0173347
860.913	0.0173410
860.991	0.0174975
861.069	0.0174864
861.147	0.0176165
861.225	0.0178184
861.303	0.0178275
861.381	0.0177481
861.459	0.0176939
861.538	0.0178675
861.616	0.0176839
861.694	0.0175938
861.772	0.0176023
861.850	0.0176052
861.928	0.0174395
862.006	0.0173656
862.084	0.0174480
862.163	0.0172643
862.241	0.0172535
862.319	0.0173470
862.397	0.0171069
862.475	0.0171035
862.553	0.0170404
862.631	0.0170691
862.709	0.0169551
862.788	0.0168805
862.866	0.0168179
862.944	0.0167854
863.022	0.0166783
863.100	0.0166686
863.178	0.0164130
863.256	0.0165143
863.334	0.0166035
863.413	0.0165449
863.491	0.0164931
863.569	0.0165388
863.647	0.0165819
863.725	0.0166011
863.803	0.0166852
863.881	0.0166152
863.959	0.0166989
864.038	0.0165979
864.116	0.0165079
864.194	0.0166203
864.272	0.0166724
864.350	0.0165298
864.428	0.0165608
864.506	0.0166036
864.584	0.0164980
864.663	0.0166026
864.741	0.0164899
864.819	0.0166116
864.897	0.0166684
864.975	0.0166492
865.053	0.0167530
865.131	0.0169970
865.209	0.0172017
865.288	0.0171317
865.366	0.0172155
865.444	0.0172718
865.522	0.0174500
865.600	0.0175333
865.678	0.0176191
865.756	0.0176420
865.834	0.0177036
865.913	0.0175154
865.991	0.0176714
866.069	0.0177371
866.147	0.0176545
866.225	0.0175305
866.303	0.0174686
866.381	0.0174828
866.459	0.0174503
866.538	0.0175105
866.616	0.0174744
866.694	0.0173904
866.772	0.0173691
866.850	0.0173960
866.928	0.0173160
867.006	0.0173335
867.084	0.0172593
867.163	0.0172988
867.241	0.0171334
867.319	0.0172538
867.397	0.0171673
867.475	0.0171405
867.553	0.0170306
867.631	0.0168951
867.709	0.0169301
867.788	0.0167812
867.866	0.0167229
867.944	0.0167493
868.022	0.0166582
868.100	0.0167664
868.178	0.0168417
868.256	0.0166839
868.334	0.0165946
868.413	0.0166115
868.491	0.0167355
868.569	0.0167594
868.647	0.0167222
868.725	0.0167665
868.803	0.0166859
868.881	0.0165903
868.959	0.0166211
869.038	0.0165571
869.116	0.0165668
869.194	0.0163663
869.272	0.0164160
869.350	0.0164325
869.428	0.0164058
869.506	0.0164725
869.584	0.0166129
869.663	0.0164656
869.741	0.0164085
869.819	0.0164577
869.897	0.0165387
869.975	0.0165022
870.053	0.0165831
870.131	0.0165768
870.209	0.0166825
870.288	0.0168019
870.366	0.0171433
870.444	0.0170026
870.522	0.0173029
870.600	0.0172601
870.678	0.0173123
870.756	0.0174574
870.834	0.0173254
870.913	0.0174517
870.991	0.0175981
871.069	0.0176469
871.147	0.0177468
871.225	0.0177183
871.303	0.0177995
871.381	0.0178126
871.459	0.0177792
871.538	0.0179143
871.616	0.0178951
871.694	0.0177964
871.772	0.0178501
871.850	0.0179135
871.928	0.0177133
872.006	0.0177874
872.084	0.0175417
872.163	0.0175098
872.241	0.0173246
872.319	0.0172322
872.397	0.0169627
872.475	0.0168739
872.553	0.0168953
872.631	0.0167834
872.709	0.0166418
872.788	0.0166509
872.866	0.0165143
872.944	0.0165007
873.022	0.0165723
873.100	0.0166968
873.178	0.0168310
873.256	0.0169049
873.334	0.0168754
873.413	0.0169181
873.491	0.0170139
873.569	0.0171442
873.647	0.0170982
873.725	0.0173241
873.803	0.0173109
873.881	0.0173441
873.959	0.0173857
874.038	0.0172225
874.116	0.0171836
874.194	0.0170963
874.272	0.0170385
874.350	0.0170155
874.428	0.0168584
874.506	0.0168119
874.584	0.0168214
874.663	0.0167355
874.741	0.0167137
874.819	0.0166547
874.897	0.0166172
874.975	0.0166320
875.053	0.0165389
875.131	0.0166457
875.209	0.0164635
875.288	0.0164931
875.366	0.0165656
875.444	0.0165252
875.522	0.0166245
875.600	0.0164536
875.678	0.0165539
875.756	0.0165023
875.834	0.0164796
875.913	0.0165850
875.991	0.0166381
876.069	0.0167225
876.147	0.0169409
876.225	0.0169225
876.303	0.0169984
876.381	0.0172549
876.459	0.0172564
876.538	0.0173647
876.616	0.0173115
876.694	0.0175479
876.772	0.0176028
876.850	0.0176067
876.928	0.0176148
877.006	0.0175479
877.084	0.0175836
877.163	0.0175204
877.241	0.0176067
877.319	0.0176340
877.397	0.0176482
877.475	0.0176102
877.553	0.0175072
877.631	0.0175064
877.709	0.0174766
877.788	0.0175189
877.866	0.0171930
877.944	0.0172090
878.022	0.0170319
878.100	0.0169558
878.178	0.0167893
878.256	0.0167642
878.334	0.0167516
878.413	0.0166911
878.491	0.0167105
878.569	0.0165976
878.647	0.0164867
878.725	0.0166696
878.803	0.0167110
878.881	0.0167879
878.959	0.0170885
879.038	0.0170914
879.116	0.0172277
879.194	0.0173914
879.272	0.0173697
879.350	0.0175214
879.428	0.0175615
879.506	0.0174555
879.584	0.0174268
879.663	0.0175723
879.741	0.0174328
879.819	0.0171528
879.897	0.0170644
879.975	0.0169144
880.053	0.0168616
880.131	0.0168231
880.209	0.0166142
880.288	0.0167059
880.366	0.0165359
880.444	0.0163509
880.522	0.0164230
880.600	0.0165343
880.678	0.0165010
880.756	0.0164532
880.834	0.0164666
880.913	0.0165657
880.991	0.0166286
881.069	0.0165571
881.147	0.0167577
881.225	0.0165901
881.303	0.0166454
881.381	0.0166975
881.459	0.0167431
881.538	0.0165723
881.616	0.0166502
881.694	0.0168359
881.772	0.0169085
881.850	0.0169273
881.928	0.0168996
882.006	0.0170237
882.084	0.0170383
882.163	0.0171155
882.241	0.0172395
882.319	0.0173392
882.397	0.0173305
882.475	0.0174064
882.553	0.0175577
882.631	0.0173766
882.709	0.0175065
882.788	0.0176491
882.866	0.0174734
882.944	0.0174190
883.022	0.0175079
883.100	0.0174875
883.178	0.0174503
883.256	0.0174071
883.334	0.0173289
883.413	0.0172797
883.491	0.0169806
883.569	0.0169778
883.647	0.0169603
883.725	0.0168814
883.803	0.0168627
883.881	0.0168004
883.959	0.0168287
884.038	0.0166379
884.116	0.0163803
884.194	0.0166293
884.272	0.0167290
884.350	0.0168692
884.428	0.0167451
884.506	0.0168562
884.584	0.0169912
884.663	0.0171168
884.741	0.0169066
884.819	0.0172164
884.897	0.0173573
884.975	0.0173412
885.053	0.0170807
885.131	0.0171762
885.209	0.0171804
885.288	0.0170526
885.366	0.0170975
885.444	0.0170505
885.522	0.0169277
885.600	0.0168990
885.678	0.0168018
885.756	0.0165952
885.834	0.0167393
885.913	0.0167175
885.991	0.0165907
886.069	0.0165564
886.147	0.0167030
886.225	0.0167940
886.303	0.0168283
886.381	0.0168053
886.459	0.0168087
886.538	0.0171789
886.616	0.0171747
886.694	0.0171545
886.772	0.0172473
886.850	0.0173105
886.928	0.0171592
887.006	0.0172216
887.084	0.0173430
887.163	0.0173244
887.241	0.0172412
887.319	0.0172577
887.397	0.0172942
887.475	0.0171270
887.553	0.0170352
887.631	0.0169517
887.709	0.0170826
887.788	0.0169631
887.866	0.0169093
887.944	0.0169231
888.022	0.0167709
888.100	0.0168155
888.178	0.0168771
888.256	0.0169242
888.334	0.0169017
888.413	0.0169469
888.491	0.0168772
888.569	0.0169114
888.647	0.0171448
888.725	0.0170098
888.803	0.0170525
888.881	0.0170044
888.959	0.0169694
889.038	0.0168500
889.116	0.0170145
889.194	0.0171109
889.272	0.0171372
889.350	0.0170666
889.428	0.0168269
889.506	0.0170170
889.584	0.0170521
889.663	0.0170412
889.741	0.0170786
889.819	0.0171057
889.897	0.0171259
889.975	0.0171725
890.053	0.0170696
890.131	0.0173095
890.209	0.0172369
890.288	0.0172572
890.366	0.0172705
890.444	0.0172453
890.522	0.0172012
890.600	0.0171599
890.678	0.0170743
890.756	0.0173088
890.834	0.0169434
890.913	0.0168929
890.991	0.0168958
891.069	0.0166757
891.147	0.0168024
891.225	0.0167506
891.303	0.0166473
891.381	0.0166994
891.459	0.0167347
891.538	0.0167447
891.616	0.0167459
891.694	0.0166293
891.772	0.0167918
891.850	0.0168235
891.928	0.0168709
892.006	0.0169435
892.084	0.0169681
892.163	0.0171059
892.241	0.0171877
892.319	0.0173224
892.397	0.0172791
892.475	0.0173204
892.553	0.0174249
892.631	0.0173566
892.709	0.0173544
892.788	0.0173173
892.866	0.0174355
892.944	0.0173185
893.022	0.0172670
893.100	0.0171287
893.178	0.0171206
893.256	0.0170429
893.334	0.0168243
893.413	0.0167419
893.491	0.0167947
893.569	0.0165290
893.647	0.0164932
893.725	0.0165438
893.803	0.0164580
893.881	0.0165520
893.959	0.0167381
894.038	0.0164951
894.116	0.0167171
894.194	0.0166317
894.272	0.0167621
894.350	0.0168623
894.428	0.0170564
894.506	0.0170606
894.584	0.0170216
894.663	0.0170118
894.741	0.0171369
894.819	0.0173132
894.897	0.0172298
894.975	0.0171883
895.053	0.0171472
895.131	0.0171835
895.209	0.0171878
895.288	0.0171851
895.366	0.0172039
895.444	0.0171606
895.522	0.0173006
895.600	0.0171525
895.678	0.0171668
895.756	0.0173166
895.834	0.0171273
895.913	0.0172173
895.991	0.0172115
896.069	0.0172395
896.147	0.0172559
896.225	0.0171623
896.303	0.0172318
896.381	0.0169784
896.459	0.0170601
896.538	0.0169820
896.616	0.0169102
896.694	0.0169737
896.772	0.0169403
896.850	0.0170348
896.928	0.0170404
897.006	0.0168812
897.084	0.0168837
897.163	0.0170358
897.241	0.0169665
897.319	0.0170233
897.397	0.0171944
897.475	0.0171395
897.553	0.0172309
897.631	0.0172427
897.709	0.0173714
897.788	0.0172835
897.866	0.0173778
897.944	0.0174488
898.022	0.0174174
898.100	0.0174790
898.178	0.0172500
898.256	0.0171633
898.334	0.0171616
898.413	0.0171796
898.491	0.0170380
898.569	0.0169462
898.647	0.0167839
898.725	0.0169025
898.803	0.0168325
898.881	0.0168067
898.959	0.0168018
899.038	0.0166743
899.116	0.0165282
899.194	0.0167489
899.272	0.0165552
899.350	0.0166781
899.428	0.0167554
899.506	0.0167272
899.584	0.0167497
899.663	0.0169083
899.741	0.0168261
899.819	0.0167300
899.897	0.0168689
899.975	0.0169695
900.053	0.0170078
900.131	0.0170070
900.209	0.0171631
900.288	0.0170570
900.366	0.0170691
900.444	0.0170737
900.522	0.0170035
900.600	0.0168563
900.678	0.0169540
900.756	0.0169486
900.834	0.0169082
900.913	0.0169154
900.991	0.0169730
901.069	0.0167680
901.147	0.0167703
901.225	0.0168857
901.303	0.0167813
901.381	0.0169892
901.459	0.0167950
901.538	0.0168584
901.616	0.0169025
901.694	0.0169717
901.772	0.0168772
901.850	0.0169477
901.928	0.0170103
902.006	0.0170112
902.084	0.0169090
902.163	0.0169838
902.241	0.0169984
902.319	0.0169253
902.397	0.0171715
902.475	0.0170488
902.553	0.0170588
902.631	0.0171923
902.709	0.0171513
902.788	0.0170532
902.866	0.0172859
902.944	0.0172080
903.022	0.0171867
903.100	0.0172534
903.178	0.0173829
903.256	0.0173478
903.334	0.0173749
903.413	0.0174128
903.491	0.0173106
903.569	0.0173138
903.647	0.0172269
903.725	0.0172958
903.803	0.0171970
903.881	0.0171868
903.959	0.0170290
904.038	0.0170942
904.116	0.0170787
904.194	0.0168715
904.272	0.0168450
904.350	0.0169305
904.428	0.0166683
904.506	0.0166971
904.584	0.0168436
904.663	0.0167413
904.741	0.0167612
904.819	0.0168096
904.897	0.0167982
904.975	0.0168752
905.053	0.0168861
905.131	0.0168736
905.209	0.0168472
905.288	0.0170777
905.366	0.0170766
905.444	0.0170249
905.522	0.0170603
905.600	0.0170551
905.678	0.0171649
905.756	0.0171171
905.834	0.0171140
905.913	0.0170776
905.991	0.0170285
906.069	0.0170441
906.147	0.0170120
906.225	0.0169951
906.303	0.0169923
906.381	0.0168523
906.459	0.0167616
906.538	0.0166907
906.616	0.0166965
906.694	0.0168238
906.772	0.0167803
906.850	0.0167696
906.928	0.0166900
907.006	0.0166935
907.084	0.0166549
907.163	0.0166441
907.241	0.0167843
907.319	0.0166722
907.397	0.0165774
907.475	0.0165266
907.553	0.0166718
907.631	0.0167445
907.709	0.0167120
907.788	0.0167176
907.866	0.0168221
907.944	0.0169014
908.022	0.0169356
908.100	0.0169865
908.178	0.0170265
908.256	0.0170947
908.334	0.0172950
908.413	0.0173129
908.491	0.0172443
908.569	0.0173782
908.647	0.0173608
908.725	0.0173393
908.803	0.0174178
908.881	0.0174642
908.959	0.0173561
909.038	0.0174326
909.116	0.0173560
909.194	0.0175232
909.272	0.0174127
909.350	0.0173238
909.428	0.0174757
909.506	0.0173518
909.584	0.0172159
909.663	0.0172484
909.741	0.0172453
909.819	0.0173612
909.897	0.0173009
909.975	0.0171330
910.053	0.0170422
910.131	0.0170962
910.209	0.0172771
910.288	0.0171956
910.366	0.0172834
910.444	0.0171922
910.522	0.0172331
910.600	0.0174873
910.678	0.0173094
910.756	0.0172393
910.834	0.0171212
910.913	0.0171056
910.991	0.0172073
911.069	0.0170636
911.147	0.0170853
911.225	0.0170506
911.303	0.0170416
911.381	0.0169759
911.459	0.0168263
911.538	0.0167007
911.616	0.0166841
911.694	0.0168228
911.772	0.0166335
911.850	0.0164937
911.928	0.0166867
912.006	0.0164174
912.084	0.0164753
912.163	0.0165243
912.241	0.0165633
912.319	0.0166483
912.397	0.0165708
912.475	0.0164436
912.553	0.0166147
912.631	0.0165896
912.709	0.0166687
912.788	0.0166348
912.866	0.0166782
912.944	0.0167210
913.022	0.0167423
913.100	0.0169818
913.178	0.0169057
913.256	0.0170861
913.334	0.0171108
913.413	0.0170322
913.491	0.0171325
913.569	0.0173862
913.647	0.0172092
913.725	0.0173775
913.803	0.0175089
913.881	0.0173773
913.959	0.0173795
914.038	0.0174295
914.116	0.0174094
914.194	0.0174294
914.272	0.0174722
914.350	0.0175430
914.428	0.0173314
914.506	0.0173885
914.584	0.0172166
914.663	0.0170942
914.741	0.0172443
914.819	0.0171080
914.897	0.0170992
914.975	0.0172414
915.053	0.0169604
915.131	0.0169411
915.209	0.0170155
915.288	0.0170431
915.366	0.0170486
915.444	0.0169246
915.522	0.0169912
915.600	0.0170602
915.678	0.0169907
915.756	0.0171487
915.834	0.0170625
915.913	0.0171487
915.991	0.0171833
916.069	0.0171149
916.147	0.0171976
916.225	0.0171186
916.303	0.0171111
916.381	0.0170222
916.459	0.0170843
916.538	0.0171600
916.616	0.0170880
916.694	0.0170980
916.772	0.0171272
916.850	0.0169730
916.928	0.0170214
917.006	0.0171479
917.084	0.0168869
917.163	0.0168958
917.241	0.0169328
917.319	0.0169535
917.397	0.0168490
917.475	0.0166528
917.553	0.0167132
917.631	0.0166741
917.709	0.0166618
917.788	0.0166666
917.866	0.0167146
917.944	0.0166700
918.022	0.0166333
918.100	0.0166418
918.178	0.0167825
918.256	0.0168968
918.334	0.0167882
918.413	0.0168562
918.491	0.0168353
918.569	0.0168806
918.647	0.0169333
918.725	0.0170109
918.803	0.0169990
918.881	0.0170277
918.959	0.0171480
919.038	0.0171905
919.116	0.0172479
919.194	0.0174267
919.272	0.0171722
919.350	0.0172935
919.428	0.0173319
919.506	0.0173866
919.584	0.0174698
919.663	0.0173347
919.741	0.0174791
919.819	0.0173242
919.897	0.0173560
