06/01/2022	17:28:15	Ver.	4.1	UNKNOWN
Optical Delay	599.975067	Delta X		0.078125	Sweeps	1	Scan Rate	0/0
Coordinates	Axis 1	NaN	Axis 2	NaN	Axis 3	NaN	Axis 4	NaN	Axis 5	NaN	Axis 6	0.000000
TX Power	0.000000	RX Power	0.000000

599.975	0.0170127
600.053	0.0170435
600.131	0.0170198
600.209	0.0169270
600.288	0.0170916
600.366	0.0168856
600.444	0.0170071
600.522	0.0171142
600.600	0.0170026
600.678	0.0170527
600.756	0.0170589
600.834	0.0170290
600.913	0.0169746
600.991	0.0169569
601.069	0.0169880
601.147	0.0170604
601.225	0.0169504
601.303	0.0170017
601.381	0.0169273
601.459	0.0170892
601.538	0.0169868
601.616	0.0170107
601.694	0.0170280
601.772	0.0169000
601.850	0.0168895
601.928	0.0168946
602.006	0.0169115
602.084	0.0169970
602.163	0.0170487
602.241	0.0169287
602.319	0.0169425
602.397	0.0168614
602.475	0.0170020
602.553	0.0168757
602.631	0.0170171
602.709	0.0170168
602.788	0.0170731
602.866	0.0169407
602.944	0.0169714
603.022	0.0169166
603.100	0.0169061
603.178	0.0170114
603.256	0.0171858
603.334	0.0170748
603.413	0.0170616
603.491	0.0170081
603.569	0.0169764
603.647	0.0170188
603.725	0.0168322
603.803	0.0169456
603.881	0.0169669
603.959	0.0171111
604.038	0.0169935
604.116	0.0169115
604.194	0.0170392
604.272	0.0170135
604.350	0.0169188
604.428	0.0170805
604.506	0.0170534
604.584	0.0169792
604.663	0.0170827
604.741	0.0170134
604.819	0.0169756
604.897	0.0169859
604.975	0.0169750
605.053	0.0172211
605.131	0.0170648
605.209	0.0170386
605.288	0.0170375
605.366	0.0171501
605.444	0.0168663
605.522	0.0169802
605.600	0.0170029
605.678	0.0169759
605.756	0.0170563
605.834	0.0171671
605.913	0.0171145
605.991	0.0170798
606.069	0.0170535
606.147	0.0169691
606.225	0.0169858
606.303	0.0168315
606.381	0.0169224
606.459	0.0169540
606.538	0.0169420
606.616	0.0168464
606.694	0.0168890
606.772	0.0169990
606.850	0.0169320
606.928	0.0169791
607.006	0.0170364
607.084	0.0170393
607.163	0.0170822
607.241	0.0170332
607.319	0.0169198
607.397	0.0170358
607.475	0.0170052
607.553	0.0169009
607.631	0.0170605
607.709	0.0170592
607.788	0.0169749
607.866	0.0170784
607.944	0.0169887
608.022	0.0170530
608.100	0.0170364
608.178	0.0171030
608.256	0.0169966
608.334	0.0169633
608.413	0.0170698
608.491	0.0169761
608.569	0.0169766
608.647	0.0169852
608.725	0.0169970
608.803	0.0170026
608.881	0.0169861
608.959	0.0170422
609.038	0.0170766
609.116	0.0169617
609.194	0.0169839
609.272	0.0170142
609.350	0.0169722
609.428	0.0169591
609.506	0.0170113
609.584	0.0169800
609.663	0.0170805
609.741	0.0170085
609.819	0.0169793
609.897	0.0170222
609.975	0.0169952
610.053	0.0168139
610.131	0.0170433
610.209	0.0169952
610.288	0.0170410
610.366	0.0169940
610.444	0.0171229
610.522	0.0170568
610.600	0.0171151
610.678	0.0170931
610.756	0.0171005
610.834	0.0169112
610.913	0.0170011
610.991	0.0170768
611.069	0.0168790
611.147	0.0169655
611.225	0.0169894
611.303	0.0171122
611.381	0.0170937
611.459	0.0169604
611.538	0.0170783
611.616	0.0169724
611.694	0.0170609
611.772	0.0169989
611.850	0.0170366
611.928	0.0168948
612.006	0.0169550
612.084	0.0169166
612.163	0.0169893
612.241	0.0170107
612.319	0.0170942
612.397	0.0170026
612.475	0.0169538
612.553	0.0169591
612.631	0.0170321
612.709	0.0170822
612.788	0.0169354
612.866	0.0169043
612.944	0.0169107
613.022	0.0169314
613.100	0.0171458
613.178	0.0170522
613.256	0.0168246
613.334	0.0168226
613.413	0.0170867
613.491	0.0168645
613.569	0.0168182
613.647	0.0169910
613.725	0.0169979
613.803	0.0169743
613.881	0.0168658
613.959	0.0169571
614.038	0.0169092
614.116	0.0169557
614.194	0.0169466
614.272	0.0169661
614.350	0.0169243
614.428	0.0169401
614.506	0.0169923
614.584	0.0169283
614.663	0.0171186
614.741	0.0168777
614.819	0.0169857
614.897	0.0170685
614.975	0.0169884
615.053	0.0170669
615.131	0.0170084
615.209	0.0169719
615.288	0.0170415
615.366	0.0169534
615.444	0.0170275
615.522	0.0170004
615.600	0.0169510
615.678	0.0169456
615.756	0.0170390
615.834	0.0169784
615.913	0.0170208
615.991	0.0170341
616.069	0.0170235
616.147	0.0169793
616.225	0.0170065
616.303	0.0170042
616.381	0.0169596
616.459	0.0169563
616.538	0.0170327
616.616	0.0170686
616.694	0.0170673
616.772	0.0171184
616.850	0.0169957
616.928	0.0169187
617.006	0.0169597
617.084	0.0170182
617.163	0.0169746
617.241	0.0169677
617.319	0.0168916
617.397	0.0169701
617.475	0.0170094
617.553	0.0169098
617.631	0.0169422
617.709	0.0170528
617.788	0.0170620
617.866	0.0169870
617.944	0.0169163
618.022	0.0169794
618.100	0.0170645
618.178	0.0170537
618.256	0.0171008
618.334	0.0169262
618.413	0.0169616
618.491	0.0169601
618.569	0.0169891
618.647	0.0168784
618.725	0.0169971
618.803	0.0168683
618.881	0.0169604
618.959	0.0170076
619.038	0.0168814
619.116	0.0169576
619.194	0.0169967
619.272	0.0169765
619.350	0.0168876
619.428	0.0168378
619.506	0.0169959
619.584	0.0168856
619.663	0.0169270
619.741	0.0168983
619.819	0.0170180
619.897	0.0170239
619.975	0.0169799
620.053	0.0167900
620.131	0.0170685
620.209	0.0169683
620.288	0.0170290
620.366	0.0168397
620.444	0.0169582
620.522	0.0170546
620.600	0.0169414
620.678	0.0169418
620.756	0.0169370
620.834	0.0168195
620.913	0.0170107
620.991	0.0170514
621.069	0.0170808
621.147	0.0169568
621.225	0.0170081
621.303	0.0170219
621.381	0.0170714
621.459	0.0171001
621.538	0.0170027
621.616	0.0170000
621.694	0.0170644
621.772	0.0170374
621.850	0.0169708
621.928	0.0169515
622.006	0.0169226
622.084	0.0169121
622.163	0.0170362
622.241	0.0170029
622.319	0.0170325
622.397	0.0170035
622.475	0.0170238
622.553	0.0168790
622.631	0.0169701
622.709	0.0169199
622.788	0.0170570
622.866	0.0170367
622.944	0.0170757
623.022	0.0169609
623.100	0.0169794
623.178	0.0169850
623.256	0.0169471
623.334	0.0169290
623.413	0.0171463
623.491	0.0169046
623.569	0.0169270
623.647	0.0170919
623.725	0.0170477
623.803	0.0169318
623.881	0.0172014
623.959	0.0171587
624.038	0.0170219
624.116	0.0170329
624.194	0.0170831
624.272	0.0170531
624.350	0.0170168
624.428	0.0170154
624.506	0.0170621
624.584	0.0170381
624.663	0.0171702
624.741	0.0168887
624.819	0.0169322
624.897	0.0169700
624.975	0.0170614
625.053	0.0170857
625.131	0.0169755
625.209	0.0169591
625.288	0.0169920
625.366	0.0170370
625.444	0.0170155
625.522	0.0169597
625.600	0.0169286
625.678	0.0169054
625.756	0.0170699
625.834	0.0169371
625.913	0.0168907
625.991	0.0170629
626.069	0.0170090
626.147	0.0168370
626.225	0.0169044
626.303	0.0169162
626.381	0.0170441
626.459	0.0169312
626.538	0.0169314
626.616	0.0169730
626.694	0.0170352
626.772	0.0169253
626.850	0.0169173
626.928	0.0169522
627.006	0.0168913
627.084	0.0170586
627.163	0.0169864
627.241	0.0169659
627.319	0.0168539
627.397	0.0170075
627.475	0.0170076
627.553	0.0170221
627.631	0.0170034
627.709	0.0169151
627.788	0.0169795
627.866	0.0169447
627.944	0.0169975
628.022	0.0168887
628.100	0.0168431
628.178	0.0169917
628.256	0.0169620
628.334	0.0170925
628.413	0.0170266
628.491	0.0169155
628.569	0.0170493
628.647	0.0171710
628.725	0.0171165
628.803	0.0170389
628.881	0.0168861
628.959	0.0169750
629.038	0.0170090
629.116	0.0169354
629.194	0.0169985
629.272	0.0170187
629.350	0.0169418
629.428	0.0169552
629.506	0.0170156
629.584	0.0168517
629.663	0.0171700
629.741	0.0170303
629.819	0.0168804
629.897	0.0169864
629.975	0.0169303
630.053	0.0170355
630.131	0.0167592
630.209	0.0168625
630.288	0.0170770
630.366	0.0170502
630.444	0.0169524
630.522	0.0169064
630.600	0.0167900
630.678	0.0168784
630.756	0.0169835
630.834	0.0169134
630.913	0.0170496
630.991	0.0169260
631.069	0.0169397
631.147	0.0170919
631.225	0.0170153
631.303	0.0169187
631.381	0.0169891
631.459	0.0169512
631.538	0.0169125
631.616	0.0169453
631.694	0.0169525
631.772	0.0170142
631.850	0.0170419
631.928	0.0170311
632.006	0.0169791
632.084	0.0168533
632.163	0.0168263
632.241	0.0169881
632.319	0.0170094
632.397	0.0169682
632.475	0.0170406
632.553	0.0170608
632.631	0.0169720
632.709	0.0169288
632.788	0.0170470
632.866	0.0169723
632.944	0.0170197
633.022	0.0169478
633.100	0.0169541
633.178	0.0170428
633.256	0.0169677
633.334	0.0169974
633.413	0.0170367
633.491	0.0170068
633.569	0.0170405
633.647	0.0169228
633.725	0.0169366
633.803	0.0170382
633.881	0.0170508
633.959	0.0169153
634.038	0.0168157
634.116	0.0170363
634.194	0.0170289
634.272	0.0170368
634.350	0.0169492
634.428	0.0169831
634.506	0.0169571
634.584	0.0169556
634.663	0.0170465
634.741	0.0169760
634.819	0.0170040
634.897	0.0169829
634.975	0.0168422
635.053	0.0168788
635.131	0.0170207
635.209	0.0170956
635.288	0.0169997
635.366	0.0169978
635.444	0.0169405
635.522	0.0169600
635.600	0.0168945
635.678	0.0169958
635.756	0.0169630
635.834	0.0169301
635.913	0.0169183
635.991	0.0169525
636.069	0.0170840
636.147	0.0169373
636.225	0.0170018
636.303	0.0170940
636.381	0.0169922
636.459	0.0170357
636.538	0.0169884
636.616	0.0169759
636.694	0.0170114
636.772	0.0169597
636.850	0.0169880
636.928	0.0170251
637.006	0.0170325
637.084	0.0170042
637.163	0.0167986
637.241	0.0169380
637.319	0.0170071
637.397	0.0169724
637.475	0.0170937
637.553	0.0169431
637.631	0.0170094
637.709	0.0170174
637.788	0.0169338
637.866	0.0170404
637.944	0.0169905
638.022	0.0170363
638.100	0.0170023
638.178	0.0168971
638.256	0.0169968
638.334	0.0170356
638.413	0.0170503
638.491	0.0169912
638.569	0.0168620
638.647	0.0170681
638.725	0.0170507
638.803	0.0169830
638.881	0.0170135
638.959	0.0170158
639.038	0.0169856
639.116	0.0170203
639.194	0.0168695
639.272	0.0169881
639.350	0.0169320
639.428	0.0170424
639.506	0.0170026
639.584	0.0170831
639.663	0.0169360
639.741	0.0170187
639.819	0.0169640
639.897	0.0169511
639.975	0.0169910
640.053	0.0170093
640.131	0.0170615
640.209	0.0169606
640.288	0.0169916
640.366	0.0169800
640.444	0.0170203
640.522	0.0170874
640.600	0.0168825
640.678	0.0168073
640.756	0.0170552
640.834	0.0170383
640.913	0.0169575
640.991	0.0171066
641.069	0.0170269
641.147	0.0169121
641.225	0.0169356
641.303	0.0170059
641.381	0.0168482
641.459	0.0170522
641.538	0.0170512
641.616	0.0168403
641.694	0.0170515
641.772	0.0170806
641.850	0.0169186
641.928	0.0169612
642.006	0.0169783
642.084	0.0169660
642.163	0.0169456
642.241	0.0170203
642.319	0.0169313
642.397	0.0170057
642.475	0.0170636
642.553	0.0170461
642.631	0.0171368
642.709	0.0168894
642.788	0.0170272
642.866	0.0169727
642.944	0.0171101
643.022	0.0170419
643.100	0.0170082
643.178	0.0169646
643.256	0.0170099
643.334	0.0170055
643.413	0.0169241
643.491	0.0169097
643.569	0.0169006
643.647	0.0170396
643.725	0.0170443
643.803	0.0169848
643.881	0.0169494
643.959	0.0170135
644.038	0.0170935
644.116	0.0169714
644.194	0.0169919
644.272	0.0170697
644.350	0.0168793
644.428	0.0170131
644.506	0.0170068
644.584	0.0170425
644.663	0.0169365
644.741	0.0170329
644.819	0.0168874
644.897	0.0169253
644.975	0.0170890
645.053	0.0170843
645.131	0.0170465
645.209	0.0169622
645.288	0.0169085
645.366	0.0169777
645.444	0.0169237
645.522	0.0169934
645.600	0.0168600
645.678	0.0167968
645.756	0.0170176
645.834	0.0169730
645.913	0.0169875
645.991	0.0170493
646.069	0.0169342
646.147	0.0170810
646.225	0.0170937
646.303	0.0170271
646.381	0.0170260
646.459	0.0170944
646.538	0.0170888
646.616	0.0169119
646.694	0.0170270
646.772	0.0170977
646.850	0.0169221
646.928	0.0169489
647.006	0.0170445
647.084	0.0170972
647.163	0.0170792
647.241	0.0171023
647.319	0.0171628
647.397	0.0168999
647.475	0.0169254
647.553	0.0171803
647.631	0.0170459
647.709	0.0169737
647.788	0.0169253
647.866	0.0170703
647.944	0.0171090
648.022	0.0170015
648.100	0.0169949
648.178	0.0170670
648.256	0.0169202
648.334	0.0170018
648.413	0.0170040
648.491	0.0170654
648.569	0.0170055
648.647	0.0171815
648.725	0.0171393
648.803	0.0169563
648.881	0.0170723
648.959	0.0171432
649.038	0.0170791
649.116	0.0171535
649.194	0.0170419
649.272	0.0170209
649.350	0.0170779
649.428	0.0169997
649.506	0.0169968
649.584	0.0169038
649.663	0.0170741
649.741	0.0170330
649.819	0.0169736
649.897	0.0168948
649.975	0.0169741
650.053	0.0168978
650.131	0.0168993
650.209	0.0169138
650.288	0.0169682
650.366	0.0170350
650.444	0.0170338
650.522	0.0169537
650.600	0.0171313
650.678	0.0170936
650.756	0.0169360
650.834	0.0169083
650.913	0.0170807
650.991	0.0169321
651.069	0.0169054
651.147	0.0169599
651.225	0.0170380
651.303	0.0168877
651.381	0.0170587
651.459	0.0170412
651.538	0.0170526
651.616	0.0171280
651.694	0.0169921
651.772	0.0169235
651.850	0.0169610
651.928	0.0169914
652.006	0.0170100
652.084	0.0169961
652.163	0.0169234
652.241	0.0169673
652.319	0.0169102
652.397	0.0171185
652.475	0.0169626
652.553	0.0170609
652.631	0.0170432
652.709	0.0172720
652.788	0.0171725
652.866	0.0173432
652.944	0.0174414
653.022	0.0173608
653.100	0.0173117
653.178	0.0171969
653.256	0.0172321
653.334	0.0169373
653.413	0.0168925
653.491	0.0167384
653.569	0.0165862
653.647	0.0165198
653.725	0.0162399
653.803	0.0163456
653.881	0.0161646
653.959	0.0162218
654.038	0.0164807
654.116	0.0164940
654.194	0.0165446
654.272	0.0168471
654.350	0.0171474
654.428	0.0171165
654.506	0.0172025
654.584	0.0174393
654.663	0.0176736
654.741	0.0177145
654.819	0.0175568
654.897	0.0171989
654.975	0.0171977
655.053	0.0170330
655.131	0.0169858
655.209	0.0167178
655.288	0.0165546
655.366	0.0165269
655.444	0.0164375
655.522	0.0164053
655.600	0.0163457
655.678	0.0163060
655.756	0.0164682
655.834	0.0164669
655.913	0.0166380
655.991	0.0167373
656.069	0.0167078
656.147	0.0168190
656.225	0.0171093
656.303	0.0170969
656.381	0.0172870
656.459	0.0177067
656.538	0.0176778
656.616	0.0177679
656.694	0.0180577
656.772	0.0183449
656.850	0.0185323
656.928	0.0187553
657.006	0.0188200
657.084	0.0187649
657.163	0.0187200
657.241	0.0185124
657.319	0.0181922
657.397	0.0179274
657.475	0.0174042
657.553	0.0169466
657.631	0.0163297
657.709	0.0159782
657.788	0.0154234
657.866	0.0151984
657.944	0.0147339
658.022	0.0146298
658.100	0.0145451
658.178	0.0146321
658.256	0.0146651
658.334	0.0147831
658.413	0.0151557
658.491	0.0154485
658.569	0.0160341
658.647	0.0164330
658.725	0.0169297
658.803	0.0174081
658.881	0.0179147
658.959	0.0181696
659.038	0.0186083
659.116	0.0189080
659.194	0.0189750
659.272	0.0192279
659.350	0.0189684
659.428	0.0187637
659.506	0.0185092
659.584	0.0183276
659.663	0.0180219
659.741	0.0176697
659.819	0.0172766
659.897	0.0169186
659.975	0.0165945
660.053	0.0164053
660.131	0.0159985
660.209	0.0159327
660.288	0.0156345
660.366	0.0153504
660.444	0.0154455
660.522	0.0152711
660.600	0.0151815
660.678	0.0152021
660.756	0.0152798
660.834	0.0154084
660.913	0.0155632
660.991	0.0157915
661.069	0.0159453
661.147	0.0162350
661.225	0.0167316
661.303	0.0169685
661.381	0.0174416
661.459	0.0179284
661.538	0.0183054
661.616	0.0187302
661.694	0.0193685
661.772	0.0195130
661.850	0.0199058
661.928	0.0201395
662.006	0.0201591
662.084	0.0200885
662.163	0.0199919
662.241	0.0197449
662.319	0.0196005
662.397	0.0190981
662.475	0.0186844
662.553	0.0180947
662.631	0.0175884
662.709	0.0169071
662.788	0.0164500
662.866	0.0159586
662.944	0.0154604
663.022	0.0151429
663.100	0.0147901
663.178	0.0145264
663.256	0.0144452
663.334	0.0143366
663.413	0.0143365
663.491	0.0142560
663.569	0.0143594
663.647	0.0145792
663.725	0.0147807
663.803	0.0149186
663.881	0.0151209
663.959	0.0153474
664.038	0.0155880
664.116	0.0156435
664.194	0.0158498
664.272	0.0161384
664.350	0.0162302
664.428	0.0163982
664.506	0.0167216
664.584	0.0168871
664.663	0.0172514
664.741	0.0174994
664.819	0.0178481
664.897	0.0182423
664.975	0.0185470
665.053	0.0186865
665.131	0.0188358
665.209	0.0191617
665.288	0.0192372
665.366	0.0191725
665.444	0.0191457
665.522	0.0190386
665.600	0.0190478
665.678	0.0188483
665.756	0.0187072
665.834	0.0184902
665.913	0.0184622
665.991	0.0183900
666.069	0.0182525
666.147	0.0183170
666.225	0.0182624
666.303	0.0182059
666.381	0.0180919
666.459	0.0180064
666.538	0.0180930
666.616	0.0179513
666.694	0.0176215
666.772	0.0172860
666.850	0.0171249
666.928	0.0166948
667.006	0.0162612
667.084	0.0158585
667.163	0.0154684
667.241	0.0150816
667.319	0.0145334
667.397	0.0139637
667.475	0.0137743
667.553	0.0133139
667.631	0.0129716
667.709	0.0126785
667.788	0.0124989
667.866	0.0124151
667.944	0.0124585
668.022	0.0128423
668.100	0.0130704
668.178	0.0135316
668.256	0.0143944
668.334	0.0151798
668.413	0.0158652
668.491	0.0169594
668.569	0.0178918
668.647	0.0186626
668.725	0.0194067
668.803	0.0201407
668.881	0.0207748
668.959	0.0211780
669.038	0.0215341
669.116	0.0218778
669.194	0.0217699
669.272	0.0217612
669.350	0.0218346
669.428	0.0216520
669.506	0.0214134
669.584	0.0212933
669.663	0.0208155
669.741	0.0206097
669.819	0.0199958
669.897	0.0194917
669.975	0.0189818
670.053	0.0184914
670.131	0.0178495
670.209	0.0172964
670.288	0.0167803
670.366	0.0165085
670.444	0.0161769
670.522	0.0157896
670.600	0.0156328
670.678	0.0154976
670.756	0.0155006
670.834	0.0154732
670.913	0.0152399
670.991	0.0152126
671.069	0.0150959
671.147	0.0147755
671.225	0.0144102
671.303	0.0139680
671.381	0.0136218
671.459	0.0131930
671.538	0.0128630
671.616	0.0124866
671.694	0.0121111
671.772	0.0119921
671.850	0.0117934
671.928	0.0117245
672.006	0.0120272
672.084	0.0123381
672.163	0.0127573
672.241	0.0134084
672.319	0.0138611
672.397	0.0145226
672.475	0.0152296
672.553	0.0160420
672.631	0.0168724
672.709	0.0174880
672.788	0.0182622
672.866	0.0190061
672.944	0.0195234
673.022	0.0203152
673.100	0.0209064
673.178	0.0214626
673.256	0.0217719
673.334	0.0221839
673.413	0.0224795
673.491	0.0227403
673.569	0.0228238
673.647	0.0228688
673.725	0.0228638
673.803	0.0226711
673.881	0.0224599
673.959	0.0220625
674.038	0.0215893
674.116	0.0209800
674.194	0.0203301
674.272	0.0196965
674.350	0.0190890
674.428	0.0183903
674.506	0.0178290
674.584	0.0171514
674.663	0.0167216
674.741	0.0162726
674.819	0.0160097
674.897	0.0156303
674.975	0.0154256
675.053	0.0153417
675.131	0.0152114
675.209	0.0150745
675.288	0.0151241
675.366	0.0150903
675.444	0.0150465
675.522	0.0149016
675.600	0.0147228
675.678	0.0147660
675.756	0.0147105
675.834	0.0146192
675.913	0.0146143
675.991	0.0144993
676.069	0.0145730
676.147	0.0146175
676.225	0.0148022
676.303	0.0145030
676.381	0.0144738
676.459	0.0143765
676.538	0.0143195
676.616	0.0143597
676.694	0.0141811
676.772	0.0137859
676.850	0.0138314
676.928	0.0135397
677.006	0.0134843
677.084	0.0133789
677.163	0.0130936
677.241	0.0129898
677.319	0.0129272
677.397	0.0130013
677.475	0.0131330
677.553	0.0132965
677.631	0.0136366
677.709	0.0140648
677.788	0.0145700
677.866	0.0152632
677.944	0.0160037
678.022	0.0168013
678.100	0.0175541
678.178	0.0183652
678.256	0.0193392
678.334	0.0203052
678.413	0.0211807
678.491	0.0221694
678.569	0.0230373
678.647	0.0238558
678.725	0.0246806
678.803	0.0252081
678.881	0.0256738
678.959	0.0259807
679.038	0.0260381
679.116	0.0260896
679.194	0.0259454
679.272	0.0255885
679.350	0.0248244
679.428	0.0241962
679.506	0.0232435
679.584	0.0223141
679.663	0.0211145
679.741	0.0200011
679.819	0.0190304
679.897	0.0178064
679.975	0.0168194
680.053	0.0157574
680.131	0.0148942
680.209	0.0141260
680.288	0.0134698
680.366	0.0128967
680.444	0.0125797
680.522	0.0122785
680.600	0.0122070
680.678	0.0120026
680.756	0.0121296
680.834	0.0122617
680.913	0.0122242
680.991	0.0124672
681.069	0.0126847
681.147	0.0128535
681.225	0.0129514
681.303	0.0131541
681.381	0.0132733
681.459	0.0133633
681.538	0.0134811
681.616	0.0135609
681.694	0.0134957
681.772	0.0137158
681.850	0.0138618
681.928	0.0140710
682.006	0.0144037
682.084	0.0143047
682.163	0.0144234
682.241	0.0144099
682.319	0.0142998
682.397	0.0142802
682.475	0.0139452
682.553	0.0139169
682.631	0.0134290
682.709	0.0133303
682.788	0.0133701
682.866	0.0132792
682.944	0.0136346
683.022	0.0139491
683.100	0.0144405
683.178	0.0150728
683.256	0.0158432
683.334	0.0168242
683.413	0.0177756
683.491	0.0187212
683.569	0.0198103
683.647	0.0208863
683.725	0.0217023
683.803	0.0227296
683.881	0.0234561
683.959	0.0240347
684.038	0.0245306
684.116	0.0248695
684.194	0.0253773
684.272	0.0255565
684.350	0.0256751
684.428	0.0261472
684.506	0.0261729
684.584	0.0262540
684.663	0.0261235
684.741	0.0258620
684.819	0.0253049
684.897	0.0245583
684.975	0.0236554
685.053	0.0227060
685.131	0.0214722
685.209	0.0200513
685.288	0.0185609
685.366	0.0169806
685.444	0.0153587
685.522	0.0140759
685.600	0.0126646
685.678	0.0117132
685.756	0.0105915
685.834	0.00998985
685.913	0.00956978
685.991	0.00953545
686.069	0.00968636
686.147	0.00987862
686.225	0.0102605
686.303	0.0108712
686.381	0.0113945
686.459	0.0122991
686.538	0.0130737
686.616	0.0137538
686.694	0.0144208
686.772	0.0148499
686.850	0.0152228
686.928	0.0151663
687.006	0.0152126
687.084	0.0152991
687.163	0.0151123
687.241	0.0148365
687.319	0.0145965
687.397	0.0144627
687.475	0.0144453
687.553	0.0143393
687.631	0.0144576
687.709	0.0146838
687.788	0.0147199
687.866	0.0151420
687.944	0.0153745
688.022	0.0153224
688.100	0.0154697
688.178	0.0157573
688.256	0.0155331
688.334	0.0153287
688.413	0.0153648
688.491	0.0152343
688.569	0.0151833
688.647	0.0152250
688.725	0.0152908
688.803	0.0154865
688.881	0.0157316
688.959	0.0162387
689.038	0.0167303
689.116	0.0172128
689.194	0.0179397
689.272	0.0187056
689.350	0.0193893
689.428	0.0201054
689.506	0.0208730
689.584	0.0214917
689.663	0.0221813
689.741	0.0227981
689.819	0.0232991
689.897	0.0240263
689.975	0.0243338
690.053	0.0247445
690.131	0.0251044
690.209	0.0253168
690.288	0.0255408
690.366	0.0254610
690.444	0.0251141
690.522	0.0245717
690.600	0.0239582
690.678	0.0233204
690.756	0.0223395
690.834	0.0212637
690.913	0.0200364
690.991	0.0188034
691.069	0.0177193
691.147	0.0165112
691.225	0.0153656
691.303	0.0144891
691.381	0.0136516
691.459	0.0130247
691.538	0.0126227
691.616	0.0122005
691.694	0.0120751
691.772	0.0119312
691.850	0.0121485
691.928	0.0121527
692.006	0.0125358
692.084	0.0127769
692.163	0.0129350
692.241	0.0133716
692.319	0.0132491
692.397	0.0134383
692.475	0.0135930
692.553	0.0137540
692.631	0.0135892
692.709	0.0133225
692.788	0.0131298
692.866	0.0128658
692.944	0.0127155
693.022	0.0123140
693.100	0.0121732
693.178	0.0120821
693.256	0.0120387
693.334	0.0121095
693.413	0.0123432
693.491	0.0127672
693.569	0.0132006
693.647	0.0136025
693.725	0.0142358
693.803	0.0147533
693.881	0.0153252
693.959	0.0158512
694.038	0.0165179
694.116	0.0170598
694.194	0.0175752
694.272	0.0178989
694.350	0.0183578
694.428	0.0185970
694.506	0.0188923
694.584	0.0189789
694.663	0.0192871
694.741	0.0195177
694.819	0.0195210
694.897	0.0196700
694.975	0.0198860
695.053	0.0201949
695.131	0.0202812
695.209	0.0204482
695.288	0.0208095
695.366	0.0211228
695.444	0.0213033
695.522	0.0216443
695.600	0.0220007
695.678	0.0222011
695.756	0.0223778
695.834	0.0224686
695.913	0.0225416
695.991	0.0225138
696.069	0.0222782
696.147	0.0218719
696.225	0.0215555
696.303	0.0211687
696.381	0.0207270
696.459	0.0199897
696.538	0.0194363
696.616	0.0190054
696.694	0.0186821
696.772	0.0179107
696.850	0.0176787
696.928	0.0172379
697.006	0.0170927
697.084	0.0167250
697.163	0.0164273
697.241	0.0162489
697.319	0.0160983
697.397	0.0159502
697.475	0.0156819
697.553	0.0153909
697.631	0.0153514
697.709	0.0149995
697.788	0.0146968
697.866	0.0145000
697.944	0.0143272
698.022	0.0139090
698.100	0.0137939
698.178	0.0136127
698.256	0.0133385
698.334	0.0130522
698.413	0.0129355
698.491	0.0126603
698.569	0.0123585
698.647	0.0121689
698.725	0.0120709
698.803	0.0118092
698.881	0.0116136
698.959	0.0116872
699.038	0.0115746
699.116	0.0113562
699.194	0.0114619
699.272	0.0117847
699.350	0.0121776
699.428	0.0126261
699.506	0.0130986
699.584	0.0137389
699.663	0.0145685
699.741	0.0152349
699.819	0.0161440
699.897	0.0169809
699.975	0.0177665
700.053	0.0183948
700.131	0.0192569
700.209	0.0197077
700.288	0.0201022
700.366	0.0203899
700.444	0.0204690
700.522	0.0205200
700.600	0.0205540
700.678	0.0205516
700.756	0.0204415
700.834	0.0202436
700.913	0.0200268
700.991	0.0200603
701.069	0.0199744
701.147	0.0200823
701.225	0.0201281
701.303	0.0201770
701.381	0.0202880
701.459	0.0205754
701.538	0.0206006
701.616	0.0207181
701.694	0.0207629
701.772	0.0208727
701.850	0.0208900
701.928	0.0207125
702.006	0.0205608
702.084	0.0203611
702.163	0.0199673
702.241	0.0196097
702.319	0.0191299
702.397	0.0183811
702.475	0.0180077
702.553	0.0174581
702.631	0.0173138
702.709	0.0166895
702.788	0.0162665
702.866	0.0160719
702.944	0.0160972
703.022	0.0159804
703.100	0.0159492
703.178	0.0159541
703.256	0.0159769
703.334	0.0160838
703.413	0.0161655
703.491	0.0162682
703.569	0.0162453
703.647	0.0160507
703.725	0.0161005
703.803	0.0158942
703.881	0.0155725
703.959	0.0153838
704.038	0.0152142
704.116	0.0148545
704.194	0.0144352
704.272	0.0142728
704.350	0.0142385
704.428	0.0141590
704.506	0.0140298
704.584	0.0139496
704.663	0.0140588
704.741	0.0140831
704.819	0.0142072
704.897	0.0144411
704.975	0.0146286
705.053	0.0148203
705.131	0.0149571
705.209	0.0152075
705.288	0.0153499
705.366	0.0156024
705.444	0.0155314
705.522	0.0156686
705.600	0.0159323
705.678	0.0159738
705.756	0.0158659
705.834	0.0158993
705.913	0.0160142
705.991	0.0160916
706.069	0.0161938
706.147	0.0164700
706.225	0.0165281
706.303	0.0167467
706.381	0.0167565
706.459	0.0170184
706.538	0.0171546
706.616	0.0171255
706.694	0.0173650
706.772	0.0175984
706.850	0.0176752
706.928	0.0178197
707.006	0.0181017
707.084	0.0184374
707.163	0.0187804
707.241	0.0191721
707.319	0.0195382
707.397	0.0197739
707.475	0.0201348
707.553	0.0204768
707.631	0.0206350
707.709	0.0206686
707.788	0.0207078
707.866	0.0207654
707.944	0.0205138
708.022	0.0203188
708.100	0.0199099
708.178	0.0196196
708.256	0.0192183
708.334	0.0189878
708.413	0.0185165
708.491	0.0181255
708.569	0.0178596
708.647	0.0176424
708.725	0.0172133
708.803	0.0171609
708.881	0.0168926
708.959	0.0167715
709.038	0.0166227
709.116	0.0165395
709.194	0.0163660
709.272	0.0162643
709.350	0.0161343
709.428	0.0157952
709.506	0.0158401
709.584	0.0156341
709.663	0.0154478
709.741	0.0153565
709.819	0.0150948
709.897	0.0150703
709.975	0.0150537
710.053	0.0150850
710.131	0.0152682
710.209	0.0153143
710.288	0.0154857
710.366	0.0156186
710.444	0.0160197
710.522	0.0162026
710.600	0.0164667
710.678	0.0167738
710.756	0.0168737
710.834	0.0171579
710.913	0.0173089
710.991	0.0174187
711.069	0.0174031
711.147	0.0173042
711.225	0.0171138
711.303	0.0168420
711.381	0.0167628
711.459	0.0164613
711.538	0.0162362
711.616	0.0159715
711.694	0.0159686
711.772	0.0157441
711.850	0.0155595
711.928	0.0154996
712.006	0.0152890
712.084	0.0153831
712.163	0.0154032
712.241	0.0154257
712.319	0.0155299
712.397	0.0155818
712.475	0.0158220
712.553	0.0160696
712.631	0.0162292
712.709	0.0165793
712.788	0.0168410
712.866	0.0171873
712.944	0.0174372
713.022	0.0176767
713.100	0.0180537
713.178	0.0181956
713.256	0.0185371
713.334	0.0185963
713.413	0.0186202
713.491	0.0187128
713.569	0.0187177
713.647	0.0187566
713.725	0.0184774
713.803	0.0183781
713.881	0.0182277
713.959	0.0179971
714.038	0.0178790
714.116	0.0177573
714.194	0.0175377
714.272	0.0175561
714.350	0.0175019
714.428	0.0174307
714.506	0.0172353
714.584	0.0174731
714.663	0.0173711
714.741	0.0175279
714.819	0.0174032
714.897	0.0174994
714.975	0.0175538
715.053	0.0175522
715.131	0.0174908
715.209	0.0172713
715.288	0.0173631
715.366	0.0171645
715.444	0.0170573
715.522	0.0170125
715.600	0.0169201
715.678	0.0168084
715.756	0.0168992
715.834	0.0165903
715.913	0.0167558
715.991	0.0166608
716.069	0.0166486
716.147	0.0164957
716.225	0.0167863
716.303	0.0169173
716.381	0.0169668
716.459	0.0171288
716.538	0.0171306
716.616	0.0171427
716.694	0.0170887
716.772	0.0170451
716.850	0.0171024
716.928	0.0170727
717.006	0.0168575
717.084	0.0166834
717.163	0.0166561
717.241	0.0164200
717.319	0.0162513
717.397	0.0162548
717.475	0.0160848
717.553	0.0160728
717.631	0.0159512
717.709	0.0160461
717.788	0.0162547
717.866	0.0163718
717.944	0.0165431
718.022	0.0168143
718.100	0.0169647
718.178	0.0171569
718.256	0.0173378
718.334	0.0177567
718.413	0.0179651
718.491	0.0181102
718.569	0.0182438
718.647	0.0183701
718.725	0.0184895
718.803	0.0184070
718.881	0.0182106
718.959	0.0182048
719.038	0.0181277
719.116	0.0176768
719.194	0.0174651
719.272	0.0172046
719.350	0.0165548
719.428	0.0163136
719.506	0.0160759
719.584	0.0158157
719.663	0.0154237
719.741	0.0150851
719.819	0.0150183
719.897	0.0149632
719.975	0.0148045
720.053	0.0147340
720.131	0.0147673
720.209	0.0148976
720.288	0.0150733
720.366	0.0151550
720.444	0.0152421
720.522	0.0155247
720.600	0.0156770
720.678	0.0159000
720.756	0.0161086
720.834	0.0163634
720.913	0.0166087
720.991	0.0167957
721.069	0.0171906
721.147	0.0174013
721.225	0.0176315
721.303	0.0178558
721.381	0.0180351
721.459	0.0181578
721.538	0.0184171
721.616	0.0185906
721.694	0.0186689
721.772	0.0187649
721.850	0.0188840
721.928	0.0188390
722.006	0.0186850
722.084	0.0187584
722.163	0.0186086
722.241	0.0184779
722.319	0.0183588
722.397	0.0180000
722.475	0.0177496
722.553	0.0176096
722.631	0.0174353
722.709	0.0170280
722.788	0.0170455
722.866	0.0169635
722.944	0.0167957
723.022	0.0166967
723.100	0.0166523
723.178	0.0167202
723.256	0.0165294
723.334	0.0168143
723.413	0.0167368
723.491	0.0168137
723.569	0.0170963
723.647	0.0172756
723.725	0.0173478
723.803	0.0174009
723.881	0.0176958
723.959	0.0177541
724.038	0.0178952
724.116	0.0179939
724.194	0.0179900
724.272	0.0180897
724.350	0.0178616
724.428	0.0178650
724.506	0.0178325
724.584	0.0176215
724.663	0.0175287
724.741	0.0172319
724.819	0.0169933
724.897	0.0168196
724.975	0.0165907
725.053	0.0164262
725.131	0.0160954
725.209	0.0158614
725.288	0.0157560
725.366	0.0157117
725.444	0.0154076
725.522	0.0152690
725.600	0.0151254
725.678	0.0151137
725.756	0.0151424
725.834	0.0151221
725.913	0.0152811
725.991	0.0153413
726.069	0.0153645
726.147	0.0156655
726.225	0.0156107
726.303	0.0158587
726.381	0.0159764
726.459	0.0160885
726.538	0.0163371
726.616	0.0164639
726.694	0.0164948
726.772	0.0166055
726.850	0.0168021
726.928	0.0168232
727.006	0.0169448
727.084	0.0170235
727.163	0.0170808
727.241	0.0171606
727.319	0.0170550
727.397	0.0171870
727.475	0.0169820
727.553	0.0169901
727.631	0.0170557
727.709	0.0171574
727.788	0.0170466
727.866	0.0172572
727.944	0.0173222
728.022	0.0171896
728.100	0.0170709
728.178	0.0172441
728.256	0.0173380
728.334	0.0174337
728.413	0.0173930
728.491	0.0175353
728.569	0.0175110
728.647	0.0175314
728.725	0.0176699
728.803	0.0178596
728.881	0.0177976
728.959	0.0180160
729.038	0.0179868
729.116	0.0182030
729.194	0.0182905
729.272	0.0183440
729.350	0.0184244
729.428	0.0185555
729.506	0.0185760
729.584	0.0186330
729.663	0.0185303
729.741	0.0186031
729.819	0.0185168
729.897	0.0184882
729.975	0.0183543
730.053	0.0180256
730.131	0.0179491
730.209	0.0176704
730.288	0.0174588
730.366	0.0173428
730.444	0.0170341
730.522	0.0168325
730.600	0.0167175
730.678	0.0164736
730.756	0.0161552
730.834	0.0160950
730.913	0.0159671
730.991	0.0158413
731.069	0.0159031
731.147	0.0159407
731.225	0.0158675
731.303	0.0158015
731.381	0.0158820
731.459	0.0158587
731.538	0.0159431
731.616	0.0160359
731.694	0.0162450
731.772	0.0164056
731.850	0.0164941
731.928	0.0166291
732.006	0.0168466
732.084	0.0168194
732.163	0.0169742
732.241	0.0172340
732.319	0.0172608
732.397	0.0173936
732.475	0.0174509
732.553	0.0174863
732.631	0.0175846
732.709	0.0174135
732.788	0.0173899
732.866	0.0173293
732.944	0.0170684
733.022	0.0168745
733.100	0.0167418
733.178	0.0166204
733.256	0.0163850
733.334	0.0163392
733.413	0.0160400
733.491	0.0159284
733.569	0.0158667
733.647	0.0156883
733.725	0.0155640
733.803	0.0154609
733.881	0.0154973
733.959	0.0154740
734.038	0.0155241
734.116	0.0155860
734.194	0.0155771
734.272	0.0157054
734.350	0.0158714
734.428	0.0160184
734.506	0.0162533
734.584	0.0165248
734.663	0.0167199
734.741	0.0168682
734.819	0.0169725
734.897	0.0172232
734.975	0.0174568
735.053	0.0177103
735.131	0.0178613
735.209	0.0181390
735.288	0.0182384
735.366	0.0183447
735.444	0.0184443
735.522	0.0185246
735.600	0.0186390
735.678	0.0186094
735.756	0.0184620
735.834	0.0183643
735.913	0.0183573
735.991	0.0183075
736.069	0.0181770
736.147	0.0181000
736.225	0.0178973
736.303	0.0177831
736.381	0.0175339
736.459	0.0174786
736.538	0.0173849
736.616	0.0174271
736.694	0.0172155
736.772	0.0172211
736.850	0.0172305
736.928	0.0171482
737.006	0.0172211
737.084	0.0171571
737.163	0.0173112
737.241	0.0172825
737.319	0.0173382
737.397	0.0174666
737.475	0.0175794
737.553	0.0175771
737.631	0.0176790
737.709	0.0177847
737.788	0.0177042
737.866	0.0175704
737.944	0.0176105
738.022	0.0176174
738.100	0.0174996
738.178	0.0174177
738.256	0.0173460
738.334	0.0171852
738.413	0.0169250
738.491	0.0168623
738.569	0.0166899
738.647	0.0164523
738.725	0.0164502
738.803	0.0161639
738.881	0.0160832
738.959	0.0158515
739.038	0.0157838
739.116	0.0156706
739.194	0.0157173
739.272	0.0156883
739.350	0.0156730
739.428	0.0156021
739.506	0.0156479
739.584	0.0156709
739.663	0.0157536
739.741	0.0156884
739.819	0.0159818
739.897	0.0160484
739.975	0.0162991
740.053	0.0162712
740.131	0.0163663
740.209	0.0166029
740.288	0.0167928
740.366	0.0167567
740.444	0.0169396
740.522	0.0171091
740.600	0.0170655
740.678	0.0172253
740.756	0.0171423
740.834	0.0171285
740.913	0.0172848
740.991	0.0173215
741.069	0.0171416
741.147	0.0171367
741.225	0.0171636
741.303	0.0172910
741.381	0.0171255
741.459	0.0172313
741.538	0.0173061
741.616	0.0172864
741.694	0.0171306
741.772	0.0171482
741.850	0.0171610
741.928	0.0170682
742.006	0.0170296
742.084	0.0169698
742.163	0.0170219
742.241	0.0169173
742.319	0.0168104
742.397	0.0169482
742.475	0.0169754
742.553	0.0168829
742.631	0.0170839
742.709	0.0172310
742.788	0.0173801
742.866	0.0174332
742.944	0.0176420
743.022	0.0176421
743.100	0.0175775
743.178	0.0178444
743.256	0.0178884
743.334	0.0181655
743.413	0.0180523
743.491	0.0180641
743.569	0.0180856
743.647	0.0180317
743.725	0.0178537
743.803	0.0178350
743.881	0.0176904
743.959	0.0177428
744.038	0.0175538
744.116	0.0173649
744.194	0.0173859
744.272	0.0172279
744.350	0.0171010
744.428	0.0169639
744.506	0.0167001
744.584	0.0168444
744.663	0.0168581
744.741	0.0167521
744.819	0.0165797
744.897	0.0166367
744.975	0.0165933
745.053	0.0164343
745.131	0.0165594
745.209	0.0164130
745.288	0.0165096
745.366	0.0165904
745.444	0.0165383
745.522	0.0167205
745.600	0.0168624
745.678	0.0168954
745.756	0.0169070
745.834	0.0170534
745.913	0.0170052
745.991	0.0171285
746.069	0.0171779
746.147	0.0171771
746.225	0.0172951
746.303	0.0172387
746.381	0.0171723
746.459	0.0172166
746.538	0.0171088
746.616	0.0172283
746.694	0.0168881
746.772	0.0169071
746.850	0.0167950
746.928	0.0168061
747.006	0.0164904
747.084	0.0164158
747.163	0.0164806
747.241	0.0163934
747.319	0.0162502
747.397	0.0163165
747.475	0.0161160
747.553	0.0161729
747.631	0.0161782
747.709	0.0161359
747.788	0.0161717
747.866	0.0162453
747.944	0.0162135
748.022	0.0161839
748.100	0.0163625
748.178	0.0161963
748.256	0.0165087
748.334	0.0165363
748.413	0.0165627
748.491	0.0166264
748.569	0.0168130
748.647	0.0166608
748.725	0.0167334
748.803	0.0170055
748.881	0.0170637
748.959	0.0172092
749.038	0.0171166
749.116	0.0172780
749.194	0.0173363
749.272	0.0173426
749.350	0.0173650
749.428	0.0175249
749.506	0.0174387
749.584	0.0175337
749.663	0.0175198
749.741	0.0174827
749.819	0.0175110
749.897	0.0173344
749.975	0.0175836
750.053	0.0174921
750.131	0.0173731
750.209	0.0174847
750.288	0.0175724
750.366	0.0174438
750.444	0.0174430
750.522	0.0174229
750.600	0.0174317
750.678	0.0174701
750.756	0.0172867
750.834	0.0174412
750.913	0.0173684
750.991	0.0173148
751.069	0.0172678
751.147	0.0172748
751.225	0.0173573
751.303	0.0172758
751.381	0.0172108
751.459	0.0172217
751.538	0.0175201
751.616	0.0173602
751.694	0.0173640
751.772	0.0174216
751.850	0.0175219
751.928	0.0174452
752.006	0.0173741
752.084	0.0174586
752.163	0.0174242
752.241	0.0173275
752.319	0.0172182
752.397	0.0172279
752.475	0.0170835
752.553	0.0171486
752.631	0.0169397
752.709	0.0170210
752.788	0.0170564
752.866	0.0168978
752.944	0.0166530
753.022	0.0167361
753.100	0.0167644
753.178	0.0167299
753.256	0.0166631
753.334	0.0167411
753.413	0.0167068
753.491	0.0167424
753.569	0.0167390
753.647	0.0166949
753.725	0.0165437
753.803	0.0166915
753.881	0.0166790
753.959	0.0166344
754.038	0.0166925
754.116	0.0165203
754.194	0.0165951
754.272	0.0166708
754.350	0.0165929
754.428	0.0166113
754.506	0.0167714
754.584	0.0167779
754.663	0.0167812
754.741	0.0167229
754.819	0.0166831
754.897	0.0168028
754.975	0.0169018
755.053	0.0168301
755.131	0.0168407
755.209	0.0169118
755.288	0.0170240
755.366	0.0167284
755.444	0.0168215
755.522	0.0168853
755.600	0.0168366
755.678	0.0167965
755.756	0.0167744
755.834	0.0167104
755.913	0.0167876
755.991	0.0168132
756.069	0.0166550
756.147	0.0165786
756.225	0.0165858
756.303	0.0166901
756.381	0.0166286
756.459	0.0165028
756.538	0.0165404
756.616	0.0165131
756.694	0.0166689
756.772	0.0165900
756.850	0.0167770
756.928	0.0168166
757.006	0.0169007
757.084	0.0169439
757.163	0.0170356
757.241	0.0171494
757.319	0.0172501
757.397	0.0171843
757.475	0.0173682
757.553	0.0173489
757.631	0.0175391
757.709	0.0176522
757.788	0.0177787
757.866	0.0179669
757.944	0.0179034
758.022	0.0178042
758.100	0.0179520
758.178	0.0178934
758.256	0.0178865
758.334	0.0177650
758.413	0.0177123
758.491	0.0177348
758.569	0.0177060
758.647	0.0176281
758.725	0.0175748
758.803	0.0175101
758.881	0.0173952
758.959	0.0172662
759.038	0.0173235
759.116	0.0172874
759.194	0.0171322
759.272	0.0170627
759.350	0.0170620
759.428	0.0169758
759.506	0.0168999
759.584	0.0170414
759.663	0.0169447
759.741	0.0170133
759.819	0.0169956
759.897	0.0169164
759.975	0.0169286
760.053	0.0169548
760.131	0.0168784
760.209	0.0170724
760.288	0.0169823
760.366	0.0168353
760.444	0.0169736
760.522	0.0169891
760.600	0.0167470
760.678	0.0168013
760.756	0.0167127
760.834	0.0166828
760.913	0.0168060
760.991	0.0166315
761.069	0.0166778
761.147	0.0166038
761.225	0.0165376
761.303	0.0164515
761.381	0.0164653
761.459	0.0164129
761.538	0.0164355
761.616	0.0164680
761.694	0.0164588
761.772	0.0164531
761.850	0.0165198
761.928	0.0164951
762.006	0.0165357
762.084	0.0166346
762.163	0.0166384
762.241	0.0167767
762.319	0.0167319
762.397	0.0168403
762.475	0.0169173
762.553	0.0170657
762.631	0.0169941
762.709	0.0170441
762.788	0.0171468
762.866	0.0172954
762.944	0.0172811
763.022	0.0171960
763.100	0.0172375
763.178	0.0172630
763.256	0.0173547
763.334	0.0170805
763.413	0.0171062
763.491	0.0170312
763.569	0.0169598
763.647	0.0170332
763.725	0.0169070
763.803	0.0167647
763.881	0.0166983
763.959	0.0166627
764.038	0.0166492
764.116	0.0166945
764.194	0.0165962
764.272	0.0166199
764.350	0.0165626
764.428	0.0166133
764.506	0.0167955
764.584	0.0166486
764.663	0.0168380
764.741	0.0169295
764.819	0.0168547
764.897	0.0169624
764.975	0.0171590
765.053	0.0172415
765.131	0.0173706
765.209	0.0174675
765.288	0.0174547
765.366	0.0174728
765.444	0.0176805
765.522	0.0177679
765.600	0.0178790
765.678	0.0180711
765.756	0.0179223
765.834	0.0182013
765.913	0.0181168
765.991	0.0180769
766.069	0.0180685
766.147	0.0181898
766.225	0.0179762
766.303	0.0178426
766.381	0.0179082
766.459	0.0178941
766.538	0.0176737
766.616	0.0175628
766.694	0.0175605
766.772	0.0174931
766.850	0.0173605
766.928	0.0171514
767.006	0.0171490
767.084	0.0171580
767.163	0.0169899
767.241	0.0168050
767.319	0.0167437
767.397	0.0166688
767.475	0.0165982
767.553	0.0164706
767.631	0.0161356
767.709	0.0161330
767.788	0.0161420
767.866	0.0161053
767.944	0.0159454
768.022	0.0159789
768.100	0.0159924
768.178	0.0160603
768.256	0.0159905
768.334	0.0161214
768.413	0.0161031
768.491	0.0161562
768.569	0.0164218
768.647	0.0165939
768.725	0.0164779
768.803	0.0165198
768.881	0.0166472
768.959	0.0166190
769.038	0.0168252
769.116	0.0168510
769.194	0.0168495
769.272	0.0170105
769.350	0.0169926
769.428	0.0170822
769.506	0.0171499
769.584	0.0171655
769.663	0.0172130
769.741	0.0172604
769.819	0.0172476
769.897	0.0172382
769.975	0.0173293
770.053	0.0172198
770.131	0.0171853
770.209	0.0173150
770.288	0.0170908
770.366	0.0172050
770.444	0.0171365
770.522	0.0171025
770.600	0.0171577
770.678	0.0170985
770.756	0.0170473
770.834	0.0170640
770.913	0.0171280
770.991	0.0170531
771.069	0.0170313
771.147	0.0172482
771.225	0.0172067
771.303	0.0172524
771.381	0.0171764
771.459	0.0172630
771.538	0.0173212
771.616	0.0173518
771.694	0.0173943
771.772	0.0173858
771.850	0.0173193
771.928	0.0171974
772.006	0.0172098
772.084	0.0172907
772.163	0.0172877
772.241	0.0171193
772.319	0.0170133
772.397	0.0168962
772.475	0.0168713
772.553	0.0167220
772.631	0.0168434
772.709	0.0165878
772.788	0.0165306
772.866	0.0166875
772.944	0.0165356
773.022	0.0164514
773.100	0.0166978
773.178	0.0164019
773.256	0.0165830
773.334	0.0163177
773.413	0.0163383
773.491	0.0165520
773.569	0.0164862
773.647	0.0165415
773.725	0.0166092
773.803	0.0167078
773.881	0.0167022
773.959	0.0168410
774.038	0.0168960
774.116	0.0169545
774.194	0.0171351
774.272	0.0172339
774.350	0.0173579
774.428	0.0174548
774.506	0.0173982
774.584	0.0176141
774.663	0.0176040
774.741	0.0176185
774.819	0.0176854
774.897	0.0178271
774.975	0.0177386
775.053	0.0178098
775.131	0.0178987
775.209	0.0180281
775.288	0.0178342
775.366	0.0178772
775.444	0.0178657
775.522	0.0178074
775.600	0.0176633
775.678	0.0177416
775.756	0.0176889
775.834	0.0176923
775.913	0.0175599
775.991	0.0176364
776.069	0.0174954
776.147	0.0174969
776.225	0.0173418
776.303	0.0172536
776.381	0.0170850
776.459	0.0171291
776.538	0.0168185
776.616	0.0169038
776.694	0.0165948
776.772	0.0166475
776.850	0.0164323
776.928	0.0163335
777.006	0.0163407
777.084	0.0161948
777.163	0.0161808
777.241	0.0162081
777.319	0.0161316
777.397	0.0160572
777.475	0.0160415
777.553	0.0161405
777.631	0.0161991
777.709	0.0162331
777.788	0.0160753
777.866	0.0160629
777.944	0.0161167
778.022	0.0162781
778.100	0.0162361
778.178	0.0161905
778.256	0.0162596
778.334	0.0163599
778.413	0.0161851
778.491	0.0162260
778.569	0.0163669
778.647	0.0164051
778.725	0.0162505
778.803	0.0162920
778.881	0.0164577
778.959	0.0165801
779.038	0.0166428
779.116	0.0164726
779.194	0.0165546
779.272	0.0167458
779.350	0.0168114
779.428	0.0168652
779.506	0.0169610
779.584	0.0169587
779.663	0.0171375
779.741	0.0172036
779.819	0.0173446
779.897	0.0174121
779.975	0.0174823
780.053	0.0176842
780.131	0.0176968
780.209	0.0177872
780.288	0.0179180
780.366	0.0179109
780.444	0.0181175
780.522	0.0182233
780.600	0.0182445
780.678	0.0183967
780.756	0.0184850
780.834	0.0183559
780.913	0.0185402
780.991	0.0186483
781.069	0.0185506
781.147	0.0185821
781.225	0.0184599
781.303	0.0184335
781.381	0.0184454
781.459	0.0183935
781.538	0.0182465
781.616	0.0182050
781.694	0.0179933
781.772	0.0180195
781.850	0.0178914
781.928	0.0176683
782.006	0.0174390
782.084	0.0173435
782.163	0.0172697
782.241	0.0169448
782.319	0.0167877
782.397	0.0168152
782.475	0.0166122
782.553	0.0164106
782.631	0.0162103
782.709	0.0162292
782.788	0.0162727
782.866	0.0161437
782.944	0.0159388
783.022	0.0160103
783.100	0.0157784
783.178	0.0159224
783.256	0.0158757
783.334	0.0158703
783.413	0.0158080
783.491	0.0159457
783.569	0.0159286
783.647	0.0157997
783.725	0.0157998
783.803	0.0158521
783.881	0.0158859
783.959	0.0158360
784.038	0.0159906
784.116	0.0159626
784.194	0.0160452
784.272	0.0159183
784.350	0.0161005
784.428	0.0160352
784.506	0.0162816
784.584	0.0161082
784.663	0.0161758
784.741	0.0162984
784.819	0.0163635
784.897	0.0163982
784.975	0.0164917
785.053	0.0165284
785.131	0.0165926
785.209	0.0166458
785.288	0.0168501
785.366	0.0169523
785.444	0.0170216
785.522	0.0173312
785.600	0.0174026
785.678	0.0174594
785.756	0.0174332
785.834	0.0177374
785.913	0.0177544
785.991	0.0177808
786.069	0.0179705
786.147	0.0180323
786.225	0.0179784
786.303	0.0180905
786.381	0.0181799
786.459	0.0182884
786.538	0.0181913
786.616	0.0183081
786.694	0.0182861
786.772	0.0184439
786.850	0.0185401
786.928	0.0184527
787.006	0.0183781
787.084	0.0184939
787.163	0.0183405
787.241	0.0182263
787.319	0.0182617
787.397	0.0180346
787.475	0.0180379
787.553	0.0179741
787.631	0.0178563
787.709	0.0177504
787.788	0.0175375
787.866	0.0174447
787.944	0.0172165
788.022	0.0170165
788.100	0.0169491
788.178	0.0169063
788.256	0.0167284
788.334	0.0164774
788.413	0.0164032
788.491	0.0162765
788.569	0.0160076
788.647	0.0160327
788.725	0.0161855
788.803	0.0159953
788.881	0.0158899
788.959	0.0159189
789.038	0.0157351
789.116	0.0157671
789.194	0.0159617
789.272	0.0159953
789.350	0.0158431
789.428	0.0158738
789.506	0.0159079
789.584	0.0159463
789.663	0.0161792
789.741	0.0161353
789.819	0.0161451
789.897	0.0162881
789.975	0.0163242
790.053	0.0164036
790.131	0.0163258
790.209	0.0164996
790.288	0.0166178
790.366	0.0167285
790.444	0.0167749
790.522	0.0168532
790.600	0.0169559
790.678	0.0170070
790.756	0.0171195
790.834	0.0171491
790.913	0.0172752
790.991	0.0173872
791.069	0.0174599
791.147	0.0173312
791.225	0.0174245
791.303	0.0175117
791.381	0.0173418
791.459	0.0175236
791.538	0.0176598
791.616	0.0174802
791.694	0.0176768
791.772	0.0176929
791.850	0.0176830
791.928	0.0177002
792.006	0.0175714
792.084	0.0176130
792.163	0.0177592
792.241	0.0177168
792.319	0.0178061
792.397	0.0176359
792.475	0.0176163
792.553	0.0175838
792.631	0.0176160
792.709	0.0175694
792.788	0.0174917
792.866	0.0174427
792.944	0.0174851
793.022	0.0172911
793.100	0.0173858
793.178	0.0173207
793.256	0.0172574
793.334	0.0172153
793.413	0.0170970
793.491	0.0170473
793.569	0.0169099
793.647	0.0167883
793.725	0.0167191
793.803	0.0168113
793.881	0.0166727
793.959	0.0165714
794.038	0.0165482
794.116	0.0164556
794.194	0.0162913
794.272	0.0162156
794.350	0.0163416
794.428	0.0161698
794.506	0.0161774
794.584	0.0160519
794.663	0.0160667
794.741	0.0160857
794.819	0.0161089
794.897	0.0160233
794.975	0.0160982
795.053	0.0160326
795.131	0.0160825
795.209	0.0163150
795.288	0.0163195
795.366	0.0162514
795.444	0.0161946
795.522	0.0163829
795.600	0.0165019
795.678	0.0164786
795.756	0.0166016
795.834	0.0166087
795.913	0.0167147
795.991	0.0168378
796.069	0.0169924
796.147	0.0170442
796.225	0.0170267
796.303	0.0170152
796.381	0.0172173
796.459	0.0172195
796.538	0.0174624
796.616	0.0174593
796.694	0.0175298
796.772	0.0177233
796.850	0.0177268
796.928	0.0176532
797.006	0.0176539
797.084	0.0177593
797.163	0.0178053
797.241	0.0177400
797.319	0.0177612
797.397	0.0177742
797.475	0.0178280
797.553	0.0177119
797.631	0.0176743
797.709	0.0177449
797.788	0.0176574
797.866	0.0174366
797.944	0.0175799
798.022	0.0175974
798.100	0.0176240
798.178	0.0174435
798.256	0.0174545
798.334	0.0172535
798.413	0.0173639
798.491	0.0173113
798.569	0.0172569
798.647	0.0172048
798.725	0.0172490
798.803	0.0171524
798.881	0.0171523
798.959	0.0170738
799.038	0.0170772
799.116	0.0169809
799.194	0.0170387
799.272	0.0169334
799.350	0.0169257
799.428	0.0167772
799.506	0.0168820
799.584	0.0166906
799.663	0.0165915
799.741	0.0166476
799.819	0.0164891
799.897	0.0164512
799.975	0.0165762
800.053	0.0164978
800.131	0.0163642
800.209	0.0162953
800.288	0.0162511
800.366	0.0161330
800.444	0.0162396
800.522	0.0162020
800.600	0.0162437
800.678	0.0162647
800.756	0.0162328
800.834	0.0163010
800.913	0.0162004
800.991	0.0162622
801.069	0.0163229
801.147	0.0163255
801.225	0.0163641
801.303	0.0163131
801.381	0.0163973
801.459	0.0163085
801.538	0.0165321
801.616	0.0166731
801.694	0.0165727
801.772	0.0166428
801.850	0.0167148
801.928	0.0167165
802.006	0.0167563
802.084	0.0167653
802.163	0.0168190
802.241	0.0168847
802.319	0.0168849
802.397	0.0169903
802.475	0.0170126
802.553	0.0170851
802.631	0.0170761
802.709	0.0171235
802.788	0.0172509
802.866	0.0172618
802.944	0.0173367
803.022	0.0173199
803.100	0.0173305
803.178	0.0174008
803.256	0.0175254
803.334	0.0174284
803.413	0.0174685
803.491	0.0175570
803.569	0.0174196
803.647	0.0175285
803.725	0.0176871
803.803	0.0177386
803.881	0.0176482
803.959	0.0176919
804.038	0.0177676
804.116	0.0176303
804.194	0.0177576
804.272	0.0176628
804.350	0.0176151
804.428	0.0176025
804.506	0.0174427
804.584	0.0175857
804.663	0.0175753
804.741	0.0173815
804.819	0.0174760
804.897	0.0174447
804.975	0.0173102
805.053	0.0172665
805.131	0.0172260
805.209	0.0170793
805.288	0.0171558
805.366	0.0169254
805.444	0.0170049
805.522	0.0168853
805.600	0.0168483
805.678	0.0168297
805.756	0.0167120
805.834	0.0166916
805.913	0.0166451
805.991	0.0166102
806.069	0.0164558
806.147	0.0163343
806.225	0.0164754
806.303	0.0164370
806.381	0.0164141
806.459	0.0163434
806.538	0.0163631
806.616	0.0164709
806.694	0.0164819
806.772	0.0165165
806.850	0.0164787
806.928	0.0165396
807.006	0.0165549
807.084	0.0166930
807.163	0.0167830
807.241	0.0168521
807.319	0.0167017
807.397	0.0166188
807.475	0.0168122
807.553	0.0168339
807.631	0.0168101
807.709	0.0166333
807.788	0.0166650
807.866	0.0167155
807.944	0.0168007
808.022	0.0167085
808.100	0.0168797
808.178	0.0167998
808.256	0.0167789
808.334	0.0168318
808.413	0.0167628
808.491	0.0165970
808.569	0.0165776
808.647	0.0169997
808.725	0.0168021
808.803	0.0169049
808.881	0.0167762
808.959	0.0167891
809.038	0.0168852
809.116	0.0169052
809.194	0.0168601
809.272	0.0170106
809.350	0.0170672
809.428	0.0170697
809.506	0.0169921
809.584	0.0170350
809.663	0.0170615
809.741	0.0172634
809.819	0.0172984
809.897	0.0172034
809.975	0.0172680
810.053	0.0172639
810.131	0.0172387
810.209	0.0173215
810.288	0.0173244
810.366	0.0173915
810.444	0.0173283
810.522	0.0173702
810.600	0.0173739
810.678	0.0174319
810.756	0.0175601
810.834	0.0175794
810.913	0.0175021
810.991	0.0175365
811.069	0.0175691
811.147	0.0174730
811.225	0.0175132
811.303	0.0175790
811.381	0.0176287
811.459	0.0176040
811.538	0.0174459
811.616	0.0174564
811.694	0.0174738
811.772	0.0173561
811.850	0.0174982
811.928	0.0172452
812.006	0.0172251
812.084	0.0171651
812.163	0.0170601
812.241	0.0171003
812.319	0.0171495
812.397	0.0169460
812.475	0.0169816
812.553	0.0168644
812.631	0.0168003
812.709	0.0167918
812.788	0.0169994
812.866	0.0169054
812.944	0.0168226
813.022	0.0167273
813.100	0.0167385
813.178	0.0167522
813.256	0.0167532
813.334	0.0168977
813.413	0.0166340
813.491	0.0165057
813.569	0.0165375
813.647	0.0165084
813.725	0.0164576
813.803	0.0164143
813.881	0.0164111
813.959	0.0164478
814.038	0.0163548
814.116	0.0163762
814.194	0.0165310
814.272	0.0168092
814.350	0.0165350
814.428	0.0165098
814.506	0.0166602
814.584	0.0166037
814.663	0.0167010
814.741	0.0166814
814.819	0.0167706
814.897	0.0167722
814.975	0.0167503
815.053	0.0167705
815.131	0.0168088
815.209	0.0169337
815.288	0.0168977
815.366	0.0168511
815.444	0.0166840
815.522	0.0168904
815.600	0.0169119
815.678	0.0168598
815.756	0.0167725
815.834	0.0168143
815.913	0.0167960
815.991	0.0170554
816.069	0.0168803
816.147	0.0169167
816.225	0.0168961
816.303	0.0169466
816.381	0.0171343
816.459	0.0171056
816.538	0.0169728
816.616	0.0171474
816.694	0.0172464
816.772	0.0172549
816.850	0.0173653
816.928	0.0174023
817.006	0.0174078
817.084	0.0173486
817.163	0.0172993
817.241	0.0174388
817.319	0.0172922
817.397	0.0174104
817.475	0.0173650
817.553	0.0173669
817.631	0.0172926
817.709	0.0172664
817.788	0.0172618
817.866	0.0172946
817.944	0.0171931
818.022	0.0172683
818.100	0.0171809
818.178	0.0170773
818.256	0.0171255
818.334	0.0171404
818.413	0.0170977
818.491	0.0171925
818.569	0.0170766
818.647	0.0170422
818.725	0.0170676
818.803	0.0168044
818.881	0.0169640
818.959	0.0168230
819.038	0.0166922
819.116	0.0167540
819.194	0.0166678
819.272	0.0165974
819.350	0.0165934
819.428	0.0164885
819.506	0.0165702
819.584	0.0166889
819.663	0.0165786
819.741	0.0167972
819.819	0.0167555
819.897	0.0167153
819.975	0.0166596
820.053	0.0166946
820.131	0.0168381
820.209	0.0168934
820.288	0.0167661
820.366	0.0169860
820.444	0.0170605
820.522	0.0171423
820.600	0.0170255
820.678	0.0169891
820.756	0.0171448
820.834	0.0171226
820.913	0.0169341
820.991	0.0172487
821.069	0.0171924
821.147	0.0170051
821.225	0.0168878
821.303	0.0168391
821.381	0.0168969
821.459	0.0168954
821.538	0.0168848
821.616	0.0169660
821.694	0.0168550
821.772	0.0168083
821.850	0.0169588
821.928	0.0168564
822.006	0.0168504
822.084	0.0168613
822.163	0.0169983
822.241	0.0170200
822.319	0.0170274
822.397	0.0170920
822.475	0.0171043
822.553	0.0171372
822.631	0.0171460
822.709	0.0170985
822.788	0.0171482
822.866	0.0170981
822.944	0.0171384
823.022	0.0170181
823.100	0.0171790
823.178	0.0170223
823.256	0.0168102
823.334	0.0169444
823.413	0.0169572
823.491	0.0169360
823.569	0.0168613
823.647	0.0167467
823.725	0.0166998
823.803	0.0166685
823.881	0.0167889
823.959	0.0168783
824.038	0.0167469
824.116	0.0165389
824.194	0.0166955
824.272	0.0166925
824.350	0.0166958
824.428	0.0165928
824.506	0.0166103
824.584	0.0167337
824.663	0.0165782
824.741	0.0166822
824.819	0.0167181
824.897	0.0167133
824.975	0.0167168
825.053	0.0167568
825.131	0.0167370
825.209	0.0167257
825.288	0.0167594
825.366	0.0167700
825.444	0.0167831
825.522	0.0168806
825.600	0.0169271
825.678	0.0169768
825.756	0.0171019
825.834	0.0169948
825.913	0.0171005
825.991	0.0171535
826.069	0.0171930
826.147	0.0170929
826.225	0.0170823
826.303	0.0172553
826.381	0.0172507
826.459	0.0172926
826.538	0.0173137
826.616	0.0172186
826.694	0.0173989
826.772	0.0173420
826.850	0.0173749
826.928	0.0173238
827.006	0.0173819
827.084	0.0173502
827.163	0.0172774
827.241	0.0171870
827.319	0.0172057
827.397	0.0172577
827.475	0.0172053
827.553	0.0171453
827.631	0.0171382
827.709	0.0171680
827.788	0.0171568
827.866	0.0170689
827.944	0.0171615
828.022	0.0173092
828.100	0.0172052
828.178	0.0171606
828.256	0.0171646
828.334	0.0172186
828.413	0.0172430
828.491	0.0171959
828.569	0.0171905
828.647	0.0173289
828.725	0.0171130
828.803	0.0170617
828.881	0.0170530
828.959	0.0171072
829.038	0.0169958
829.116	0.0170005
829.194	0.0170293
829.272	0.0169556
829.350	0.0167852
829.428	0.0167685
829.506	0.0166602
829.584	0.0167278
829.663	0.0167146
829.741	0.0166180
829.819	0.0166237
829.897	0.0165437
829.975	0.0165179
830.053	0.0164861
830.131	0.0164289
830.209	0.0163139
830.288	0.0163083
830.366	0.0164201
830.444	0.0162557
830.522	0.0161273
830.600	0.0163005
830.678	0.0164729
830.756	0.0163593
830.834	0.0164013
830.913	0.0164027
830.991	0.0165067
831.069	0.0164567
831.147	0.0165205
831.225	0.0167815
831.303	0.0167451
831.381	0.0166879
831.459	0.0166864
831.538	0.0169303
831.616	0.0169100
831.694	0.0170930
831.772	0.0170770
831.850	0.0171397
831.928	0.0171854
832.006	0.0172654
832.084	0.0173244
832.163	0.0173151
832.241	0.0174245
832.319	0.0175243
832.397	0.0175105
832.475	0.0175415
832.553	0.0175818
832.631	0.0176204
832.709	0.0175607
832.788	0.0175283
832.866	0.0174509
832.944	0.0173840
833.022	0.0175280
833.100	0.0175163
833.178	0.0176053
833.256	0.0174339
833.334	0.0172567
833.413	0.0174728
833.491	0.0174551
833.569	0.0173767
833.647	0.0174323
833.725	0.0175587
833.803	0.0175245
833.881	0.0174278
833.959	0.0174470
834.038	0.0174885
834.116	0.0174329
834.194	0.0174322
834.272	0.0173554
834.350	0.0173737
834.428	0.0171915
834.506	0.0173634
834.584	0.0171622
834.663	0.0171310
834.741	0.0169860
834.819	0.0170235
834.897	0.0169615
834.975	0.0169233
835.053	0.0169406
835.131	0.0167723
835.209	0.0167108
835.288	0.0166180
835.366	0.0166649
835.444	0.0167470
835.522	0.0166491
835.600	0.0164999
835.678	0.0165334
835.756	0.0165766
835.834	0.0164102
835.913	0.0164593
835.991	0.0165815
836.069	0.0164354
836.147	0.0164814
836.225	0.0165093
836.303	0.0164069
836.381	0.0165279
836.459	0.0165680
836.538	0.0165285
836.616	0.0166692
836.694	0.0167410
836.772	0.0167544
836.850	0.0167456
836.928	0.0169695
837.006	0.0169171
837.084	0.0168465
837.163	0.0170470
837.241	0.0168597
837.319	0.0169147
837.397	0.0170183
837.475	0.0170621
837.553	0.0169475
837.631	0.0169715
837.709	0.0170704
837.788	0.0171176
837.866	0.0168282
837.944	0.0170033
838.022	0.0171519
838.100	0.0170711
838.178	0.0170882
838.256	0.0171611
838.334	0.0171192
838.413	0.0170686
838.491	0.0171290
838.569	0.0171214
838.647	0.0170233
838.725	0.0171111
838.803	0.0171180
838.881	0.0172723
838.959	0.0173663
839.038	0.0172319
839.116	0.0171758
839.194	0.0172327
839.272	0.0171500
839.350	0.0173264
839.428	0.0171943
839.506	0.0172430
839.584	0.0172188
839.663	0.0171742
839.741	0.0170918
839.819	0.0170581
839.897	0.0172410
839.975	0.0172774
840.053	0.0171126
840.131	0.0171418
840.209	0.0171008
840.288	0.0170206
840.366	0.0170490
840.444	0.0171304
840.522	0.0170674
840.600	0.0170880
840.678	0.0169666
840.756	0.0170520
840.834	0.0170077
840.913	0.0170123
840.991	0.0168293
841.069	0.0169849
841.147	0.0169941
841.225	0.0168922
841.303	0.0169555
841.381	0.0169510
841.459	0.0168055
841.538	0.0169392
841.616	0.0167566
841.694	0.0167068
841.772	0.0169293
841.850	0.0169260
841.928	0.0167620
842.006	0.0167997
842.084	0.0167786
842.163	0.0169846
842.241	0.0168314
842.319	0.0168343
842.397	0.0168753
842.475	0.0169198
842.553	0.0168937
842.631	0.0168095
842.709	0.0168775
842.788	0.0169827
842.866	0.0169524
842.944	0.0166631
843.022	0.0169074
843.100	0.0168271
843.178	0.0168441
843.256	0.0169568
843.334	0.0168880
843.413	0.0169045
843.491	0.0169360
843.569	0.0170318
843.647	0.0169103
843.725	0.0170162
843.803	0.0170516
843.881	0.0170415
843.959	0.0170811
844.038	0.0170122
844.116	0.0169662
844.194	0.0171030
844.272	0.0171908
844.350	0.0170656
844.428	0.0172836
844.506	0.0170393
844.584	0.0170883
844.663	0.0172200
844.741	0.0170271
844.819	0.0170718
844.897	0.0172255
844.975	0.0171038
845.053	0.0170715
845.131	0.0172589
845.209	0.0171790
845.288	0.0172273
845.366	0.0171468
845.444	0.0170951
845.522	0.0171016
845.600	0.0171150
845.678	0.0170184
845.756	0.0170299
845.834	0.0170120
845.913	0.0170764
845.991	0.0172758
846.069	0.0170570
846.147	0.0170084
846.225	0.0170783
846.303	0.0170245
846.381	0.0171025
846.459	0.0169598
846.538	0.0168315
846.616	0.0167332
846.694	0.0167868
846.772	0.0168446
846.850	0.0167141
846.928	0.0166261
847.006	0.0167427
847.084	0.0166580
847.163	0.0166212
847.241	0.0167651
847.319	0.0168163
847.397	0.0166756
847.475	0.0167437
847.553	0.0167728
847.631	0.0170288
847.709	0.0170123
847.788	0.0170699
847.866	0.0170426
847.944	0.0172168
848.022	0.0171210
848.100	0.0171141
848.178	0.0171317
848.256	0.0171979
848.334	0.0172269
848.413	0.0172308
848.491	0.0171745
848.569	0.0173183
848.647	0.0174300
848.725	0.0172315
848.803	0.0173339
848.881	0.0173465
848.959	0.0171463
849.038	0.0171771
849.116	0.0173029
849.194	0.0170937
849.272	0.0171658
849.350	0.0170924
849.428	0.0170441
849.506	0.0170192
849.584	0.0169527
849.663	0.0169006
849.741	0.0170689
849.819	0.0169527
849.897	0.0170148
849.975	0.0169771
850.053	0.0170567
850.131	0.0171395
850.209	0.0171568
850.288	0.0172258
850.366	0.0172330
850.444	0.0173270
850.522	0.0172659
850.600	0.0174054
850.678	0.0173416
850.756	0.0173937
850.834	0.0173479
850.913	0.0173623
850.991	0.0173318
851.069	0.0173710
851.147	0.0172839
851.225	0.0170686
851.303	0.0170489
851.381	0.0171810
851.459	0.0170389
851.538	0.0169057
851.616	0.0168626
851.694	0.0168265
851.772	0.0167162
851.850	0.0167217
851.928	0.0167539
852.006	0.0167567
852.084	0.0167308
852.163	0.0166336
852.241	0.0165375
852.319	0.0165439
852.397	0.0168546
852.475	0.0167754
852.553	0.0167587
852.631	0.0166436
852.709	0.0166573
852.788	0.0168565
852.866	0.0167243
852.944	0.0168936
853.022	0.0168763
853.100	0.0168532
853.178	0.0168745
853.256	0.0169613
853.334	0.0170718
853.413	0.0171019
853.491	0.0171622
853.569	0.0171999
853.647	0.0170870
853.725	0.0172057
853.803	0.0171721
853.881	0.0170567
853.959	0.0170286
854.038	0.0170211
854.116	0.0169958
854.194	0.0170033
854.272	0.0169267
854.350	0.0168266
854.428	0.0167799
854.506	0.0167801
854.584	0.0167957
854.663	0.0167228
854.741	0.0167273
854.819	0.0169634
854.897	0.0168904
854.975	0.0169730
855.053	0.0172349
855.131	0.0170767
855.209	0.0170332
855.288	0.0171501
855.366	0.0172768
855.444	0.0173105
855.522	0.0174173
855.600	0.0174780
855.678	0.0175133
855.756	0.0173717
855.834	0.0174367
855.913	0.0174387
855.991	0.0175104
856.069	0.0174630
856.147	0.0174129
856.225	0.0173987
856.303	0.0174229
856.381	0.0171765
856.459	0.0173521
856.538	0.0173293
856.616	0.0172939
856.694	0.0171836
856.772	0.0172683
856.850	0.0172026
856.928	0.0172550
857.006	0.0171845
857.084	0.0170700
857.163	0.0170486
857.241	0.0170088
857.319	0.0169405
857.397	0.0167866
857.475	0.0168313
857.553	0.0168704
857.631	0.0168786
857.709	0.0167672
857.788	0.0168109
857.866	0.0166840
857.944	0.0168316
858.022	0.0166306
858.100	0.0168318
858.178	0.0168188
858.256	0.0167297
858.334	0.0167400
858.413	0.0167252
858.491	0.0166833
858.569	0.0168091
858.647	0.0168151
858.725	0.0166393
858.803	0.0167632
858.881	0.0166650
858.959	0.0165260
859.038	0.0166154
859.116	0.0165984
859.194	0.0165636
859.272	0.0166181
859.350	0.0168869
859.428	0.0167372
859.506	0.0167880
859.584	0.0168447
859.663	0.0167981
859.741	0.0169161
859.819	0.0170515
859.897	0.0171295
859.975	0.0172679
860.053	0.0173094
860.131	0.0174266
860.209	0.0174365
860.288	0.0176480
860.366	0.0177345
860.444	0.0177019
860.522	0.0178001
860.600	0.0176363
860.678	0.0177390
860.756	0.0176141
860.834	0.0176207
860.913	0.0175623
860.991	0.0175380
861.069	0.0173927
861.147	0.0172427
861.225	0.0172850
861.303	0.0171891
861.381	0.0170681
861.459	0.0170865
861.538	0.0170404
861.616	0.0169165
861.694	0.0168835
861.772	0.0169067
861.850	0.0166814
861.928	0.0166946
862.006	0.0166828
862.084	0.0166557
862.163	0.0164912
862.241	0.0164848
862.319	0.0166003
862.397	0.0165790
862.475	0.0166503
862.553	0.0166659
862.631	0.0166751
862.709	0.0165955
862.788	0.0166441
862.866	0.0166451
862.944	0.0166500
863.022	0.0165802
863.100	0.0164992
863.178	0.0166689
863.256	0.0166319
863.334	0.0165781
863.413	0.0166366
863.491	0.0165139
863.569	0.0166682
863.647	0.0167696
863.725	0.0168779
863.803	0.0167942
863.881	0.0169427
863.959	0.0168529
864.038	0.0171921
864.116	0.0170983
864.194	0.0171133
864.272	0.0172418
864.350	0.0173357
864.428	0.0172685
864.506	0.0172721
864.584	0.0174307
864.663	0.0174766
864.741	0.0173795
864.819	0.0174966
864.897	0.0175483
864.975	0.0175296
865.053	0.0175526
865.131	0.0174243
865.209	0.0175186
865.288	0.0175233
865.366	0.0176077
865.444	0.0174699
865.522	0.0174708
865.600	0.0174093
865.678	0.0173996
865.756	0.0173687
865.834	0.0171909
865.913	0.0171416
865.991	0.0171120
866.069	0.0171129
866.147	0.0170687
866.225	0.0169907
866.303	0.0171522
866.381	0.0170985
866.459	0.0170436
866.538	0.0171296
866.616	0.0170277
866.694	0.0169858
866.772	0.0170518
866.850	0.0170168
866.928	0.0170496
867.006	0.0169829
867.084	0.0169817
867.163	0.0168559
867.241	0.0168076
867.319	0.0166364
867.397	0.0167024
867.475	0.0166415
867.553	0.0165892
867.631	0.0165298
867.709	0.0164782
867.788	0.0165842
867.866	0.0165707
867.944	0.0166293
868.022	0.0165987
868.100	0.0166502
868.178	0.0166597
868.256	0.0165221
868.334	0.0165778
868.413	0.0166698
868.491	0.0166401
868.569	0.0163393
868.647	0.0164412
868.725	0.0165305
868.803	0.0165359
868.881	0.0165131
868.959	0.0165781
869.038	0.0165823
869.116	0.0166687
869.194	0.0167936
869.272	0.0169597
869.350	0.0168956
869.428	0.0171073
869.506	0.0171585
869.584	0.0171305
869.663	0.0172980
869.741	0.0173442
869.819	0.0174802
869.897	0.0175897
869.975	0.0174506
870.053	0.0176096
870.131	0.0175787
870.209	0.0175925
870.288	0.0177175
870.366	0.0175304
870.444	0.0176764
870.522	0.0176876
870.600	0.0176383
870.678	0.0175090
870.756	0.0176637
870.834	0.0175911
870.913	0.0174452
870.991	0.0175292
871.069	0.0174249
871.147	0.0173694
871.225	0.0172476
871.303	0.0169972
871.381	0.0170486
871.459	0.0169813
871.538	0.0169755
871.616	0.0169733
871.694	0.0168708
871.772	0.0167198
871.850	0.0168160
871.928	0.0168857
872.006	0.0169055
872.084	0.0167413
872.163	0.0169984
872.241	0.0169909
872.319	0.0169733
872.397	0.0171746
872.475	0.0172118
872.553	0.0171664
872.631	0.0171671
872.709	0.0172883
872.788	0.0171871
872.866	0.0173016
872.944	0.0172240
873.022	0.0171083
873.100	0.0169591
873.178	0.0170161
873.256	0.0169076
873.334	0.0167657
873.413	0.0168594
873.491	0.0168964
873.569	0.0168402
873.647	0.0167728
873.725	0.0166937
873.803	0.0166317
873.881	0.0167970
873.959	0.0167712
874.038	0.0166399
874.116	0.0164975
874.194	0.0165998
874.272	0.0163685
874.350	0.0165848
874.428	0.0165572
874.506	0.0164420
874.584	0.0164047
874.663	0.0164644
874.741	0.0166172
874.819	0.0165306
874.897	0.0166550
874.975	0.0167092
875.053	0.0169419
875.131	0.0170989
875.209	0.0171622
875.288	0.0172612
875.366	0.0172359
875.444	0.0175725
875.522	0.0174603
875.600	0.0175152
875.678	0.0174573
875.756	0.0174261
875.834	0.0175066
875.913	0.0173699
875.991	0.0174963
876.069	0.0174734
876.147	0.0174345
876.225	0.0173240
876.303	0.0173959
876.381	0.0173212
876.459	0.0172964
876.538	0.0171491
876.616	0.0171806
876.694	0.0171745
876.772	0.0170972
876.850	0.0170159
876.928	0.0170001
877.006	0.0170167
877.084	0.0168823
877.163	0.0167505
877.241	0.0167151
877.319	0.0167261
877.397	0.0166336
877.475	0.0166179
877.553	0.0167077
877.631	0.0167970
877.709	0.0168185
877.788	0.0170911
877.866	0.0170770
877.944	0.0171396
878.022	0.0172252
878.100	0.0174691
878.178	0.0173732
878.256	0.0175083
878.334	0.0174983
878.413	0.0176653
878.491	0.0175267
878.569	0.0174193
878.647	0.0174120
878.725	0.0172810
878.803	0.0171992
878.881	0.0169645
878.959	0.0169735
879.038	0.0167686
879.116	0.0165707
879.194	0.0165652
879.272	0.0164489
879.350	0.0165131
879.428	0.0164038
879.506	0.0163541
879.584	0.0164555
879.663	0.0165945
879.741	0.0166576
879.819	0.0166740
879.897	0.0166603
879.975	0.0167103
880.053	0.0165706
880.131	0.0166190
880.209	0.0166859
880.288	0.0166687
880.366	0.0166711
880.444	0.0166227
880.522	0.0166068
880.600	0.0166317
880.678	0.0168011
880.756	0.0169201
880.834	0.0169659
880.913	0.0169801
880.991	0.0169315
881.069	0.0172260
881.147	0.0171626
881.225	0.0173029
881.303	0.0172845
881.381	0.0174406
881.459	0.0172929
881.538	0.0173121
881.616	0.0173846
881.694	0.0174977
881.772	0.0174151
881.850	0.0175822
881.928	0.0173142
882.006	0.0174011
882.084	0.0175637
882.163	0.0174998
882.241	0.0173536
882.319	0.0173074
882.397	0.0173477
882.475	0.0173066
882.553	0.0172237
882.631	0.0171590
882.709	0.0169588
882.788	0.0169166
882.866	0.0167651
882.944	0.0166780
883.022	0.0166678
883.100	0.0167796
883.178	0.0166807
883.256	0.0167393
883.334	0.0166233
883.413	0.0167279
883.491	0.0169654
883.569	0.0170446
883.647	0.0169464
883.725	0.0169444
883.803	0.0171014
883.881	0.0170367
883.959	0.0172798
884.038	0.0172867
884.116	0.0171242
884.194	0.0173534
884.272	0.0171594
884.350	0.0171880
884.428	0.0171425
884.506	0.0170769
884.584	0.0169781
884.663	0.0169498
884.741	0.0168604
884.819	0.0169418
884.897	0.0168364
884.975	0.0167178
885.053	0.0168055
885.131	0.0167427
885.209	0.0168877
885.288	0.0168284
885.366	0.0168156
885.444	0.0169078
885.522	0.0169495
885.600	0.0169856
885.678	0.0171040
885.756	0.0171161
885.834	0.0172054
885.913	0.0171597
885.991	0.0172109
886.069	0.0172746
886.147	0.0172303
886.225	0.0170563
886.303	0.0169701
886.381	0.0168561
886.459	0.0168222
886.538	0.0168861
886.616	0.0167511
886.694	0.0167968
886.772	0.0167632
886.850	0.0166811
886.928	0.0166892
887.006	0.0167744
887.084	0.0167265
887.163	0.0168547
887.241	0.0167642
887.319	0.0167596
887.397	0.0168456
887.475	0.0170997
887.553	0.0170242
887.631	0.0169176
887.709	0.0170032
887.788	0.0170760
887.866	0.0172714
887.944	0.0172537
888.022	0.0169450
888.100	0.0171004
888.178	0.0170896
888.256	0.0170965
888.334	0.0169806
888.413	0.0170238
888.491	0.0169930
888.569	0.0170216
888.647	0.0170508
888.725	0.0169028
888.803	0.0168951
888.881	0.0170061
888.959	0.0171380
889.038	0.0169692
889.116	0.0172476
889.194	0.0170481
889.272	0.0171233
889.350	0.0171366
889.428	0.0171789
889.506	0.0172061
889.584	0.0173003
889.663	0.0173102
889.741	0.0170404
889.819	0.0171021
889.897	0.0170747
889.975	0.0169532
890.053	0.0168631
890.131	0.0168478
890.209	0.0169276
890.288	0.0170804
890.366	0.0168047
890.444	0.0166122
890.522	0.0169229
890.600	0.0167424
890.678	0.0167265
890.756	0.0168734
890.834	0.0168755
890.913	0.0167600
890.991	0.0167938
891.069	0.0169032
891.147	0.0169771
891.225	0.0170789
891.303	0.0171001
891.381	0.0171665
891.459	0.0170383
891.538	0.0172328
891.616	0.0172479
891.694	0.0172675
891.772	0.0172477
891.850	0.0171410
891.928	0.0172657
892.006	0.0172168
892.084	0.0171201
892.163	0.0169996
892.241	0.0168132
892.319	0.0167109
892.397	0.0166209
892.475	0.0167291
892.553	0.0165807
892.631	0.0164859
892.709	0.0164878
892.788	0.0165010
892.866	0.0164845
892.944	0.0163685
893.022	0.0165463
893.100	0.0166872
893.178	0.0165881
893.256	0.0168242
893.334	0.0169314
893.413	0.0168986
893.491	0.0169711
893.569	0.0171410
893.647	0.0171997
893.725	0.0171477
893.803	0.0172116
893.881	0.0172948
893.959	0.0172105
894.038	0.0172044
894.116	0.0171727
894.194	0.0171717
894.272	0.0171474
894.350	0.0171231
894.428	0.0171255
894.506	0.0171658
894.584	0.0169917
894.663	0.0170876
894.741	0.0171667
894.819	0.0171309
894.897	0.0171885
894.975	0.0170369
895.053	0.0172300
895.131	0.0171731
895.209	0.0173345
895.288	0.0172495
895.366	0.0172516
895.444	0.0172073
895.522	0.0172758
895.600	0.0170875
895.678	0.0172421
895.756	0.0171394
895.834	0.0170419
895.913	0.0170084
895.991	0.0170271
896.069	0.0169386
896.147	0.0168961
896.225	0.0169743
896.303	0.0170108
896.381	0.0170858
896.459	0.0170792
896.538	0.0169666
896.616	0.0169219
896.694	0.0169472
896.772	0.0169974
896.850	0.0170638
896.928	0.0170561
897.006	0.0170743
897.084	0.0170251
897.163	0.0172314
897.241	0.0170901
897.319	0.0170026
897.397	0.0168959
897.475	0.0170364
897.553	0.0169964
897.631	0.0167063
897.709	0.0168888
897.788	0.0167455
897.866	0.0166047
897.944	0.0166546
898.022	0.0167765
898.100	0.0166986
898.178	0.0166325
898.256	0.0167093
898.334	0.0167525
898.413	0.0167252
898.491	0.0167131
898.569	0.0164770
898.647	0.0168031
898.725	0.0169009
898.803	0.0167693
898.881	0.0167677
898.959	0.0168263
899.038	0.0168143
899.116	0.0169097
899.194	0.0169074
899.272	0.0169891
899.350	0.0169688
899.428	0.0170636
899.506	0.0169646
899.584	0.0169994
899.663	0.0168855
899.741	0.0169133
899.819	0.0168983
899.897	0.0169051
899.975	0.0167672
900.053	0.0167143
900.131	0.0169253
900.209	0.0168166
900.288	0.0169286
900.366	0.0168115
900.444	0.0168107
900.522	0.0170370
900.600	0.0169634
900.678	0.0171099
900.756	0.0171971
900.834	0.0169830
900.913	0.0170512
900.991	0.0170971
901.069	0.0172127
901.147	0.0172079
901.225	0.0171081
901.303	0.0170859
901.381	0.0171659
901.459	0.0171250
901.538	0.0168750
901.616	0.0170790
901.694	0.0171087
901.772	0.0170465
901.850	0.0171525
901.928	0.0170483
902.006	0.0172701
902.084	0.0170889
902.163	0.0172196
902.241	0.0171635
902.319	0.0172024
902.397	0.0172664
902.475	0.0172417
902.553	0.0172459
902.631	0.0172375
902.709	0.0172002
902.788	0.0172731
902.866	0.0170522
902.944	0.0171899
903.022	0.0168838
903.100	0.0169801
903.178	0.0169866
903.256	0.0168938
903.334	0.0168311
903.413	0.0168128
903.491	0.0167188
903.569	0.0167711
903.647	0.0167737
903.725	0.0168944
903.803	0.0168023
903.881	0.0168304
903.959	0.0167674
904.038	0.0166994
904.116	0.0169446
904.194	0.0169753
904.272	0.0169456
904.350	0.0169745
904.428	0.0169315
904.506	0.0169826
904.584	0.0169713
904.663	0.0170461
904.741	0.0169691
904.819	0.0171135
904.897	0.0170870
904.975	0.0170542
905.053	0.0170667
905.131	0.0171548
905.209	0.0169540
905.288	0.0168242
905.366	0.0169575
905.444	0.0169480
905.522	0.0169260
905.600	0.0168678
905.678	0.0167421
905.756	0.0166663
905.834	0.0166354
905.913	0.0167063
905.991	0.0166354
906.069	0.0165225
906.147	0.0166259
906.225	0.0165830
906.303	0.0165291
906.381	0.0165974
906.459	0.0167303
906.538	0.0165556
906.616	0.0167718
906.694	0.0167390
906.772	0.0168807
906.850	0.0168844
906.928	0.0169434
907.006	0.0170295
907.084	0.0169929
907.163	0.0169789
907.241	0.0170165
907.319	0.0170992
907.397	0.0171677
907.475	0.0171315
907.553	0.0171180
907.631	0.0171386
907.709	0.0173112
907.788	0.0172874
907.866	0.0172751
907.944	0.0172173
908.022	0.0173059
908.100	0.0173643
908.178	0.0173341
908.256	0.0175278
908.334	0.0173643
908.413	0.0173786
908.491	0.0173873
908.569	0.0172993
908.647	0.0173374
908.725	0.0172382
908.803	0.0172421
908.881	0.0173372
908.959	0.0171085
909.038	0.0170538
909.116	0.0171897
909.194	0.0171592
909.272	0.0170929
909.350	0.0170852
909.428	0.0172259
909.506	0.0171983
909.584	0.0170763
909.663	0.0171935
909.741	0.0170268
909.819	0.0170685
909.897	0.0169956
909.975	0.0169971
910.053	0.0169957
910.131	0.0169254
910.209	0.0168505
910.288	0.0169115
910.366	0.0169698
910.444	0.0168700
910.522	0.0167799
910.600	0.0168555
910.678	0.0167994
910.756	0.0167615
910.834	0.0165518
910.913	0.0164609
910.991	0.0166941
911.069	0.0166900
911.147	0.0166376
911.225	0.0165456
911.303	0.0166381
911.381	0.0165816
911.459	0.0165409
911.538	0.0166344
911.616	0.0166693
911.694	0.0166908
911.772	0.0166537
911.850	0.0167049
911.928	0.0167489
912.006	0.0168710
912.084	0.0167889
912.163	0.0168529
912.241	0.0169709
912.319	0.0170477
912.397	0.0170057
912.475	0.0171813
912.553	0.0171238
912.631	0.0170303
912.709	0.0170468
912.788	0.0171268
912.866	0.0172994
912.944	0.0172208
913.022	0.0172397
913.100	0.0174232
913.178	0.0172511
913.256	0.0171578
913.334	0.0172405
913.413	0.0172526
913.491	0.0172495
913.569	0.0170796
913.647	0.0172043
913.725	0.0172074
913.803	0.0171983
913.881	0.0170856
913.959	0.0170399
914.038	0.0172210
914.116	0.0172159
914.194	0.0169839
914.272	0.0170345
914.350	0.0170007
914.428	0.0169787
914.506	0.0170666
914.584	0.0169529
914.663	0.0169872
914.741	0.0169991
914.819	0.0169261
914.897	0.0169781
914.975	0.0169740
915.053	0.0171598
915.131	0.0170853
915.209	0.0170151
915.288	0.0171240
915.366	0.0170082
915.444	0.0170815
915.522	0.0169854
915.600	0.0169701
915.678	0.0170320
915.756	0.0171689
915.834	0.0170773
915.913	0.0171236
915.991	0.0170872
916.069	0.0170444
916.147	0.0169534
916.225	0.0170395
916.303	0.0168569
916.381	0.0167377
916.459	0.0167641
916.538	0.0166329
916.616	0.0167595
916.694	0.0168184
916.772	0.0166799
916.850	0.0167203
916.928	0.0165730
917.006	0.0166820
917.084	0.0167921
917.163	0.0168269
917.241	0.0167101
917.319	0.0166850
917.397	0.0168485
917.475	0.0169516
917.553	0.0169585
917.631	0.0169912
917.709	0.0169489
917.788	0.0169428
917.866	0.0171053
917.944	0.0170930
918.022	0.0170195
918.100	0.0170261
918.178	0.0170542
918.256	0.0171212
918.334	0.0170899
918.413	0.0171820
918.491	0.0171921
918.569	0.0173071
918.647	0.0172063
918.725	0.0172630
918.803	0.0171845
918.881	0.0171827
918.959	0.0171497
919.038	0.0173645
919.116	0.0173296
919.194	0.0171693
919.272	0.0171881
919.350	0.0171162
919.428	0.0171230
919.506	0.0171073
919.584	0.0172070
919.663	0.0171002
919.741	0.0170274
919.819	0.0171032
919.897	0.0170644
