06/01/2022	17:29:10	Ver.	4.1	UNKNOWN
Optical Delay	599.981738	Delta X		0.078125	Sweeps	1	Scan Rate	0/0
Coordinates	Axis 1	NaN	Axis 2	NaN	Axis 3	NaN	Axis 4	NaN	Axis 5	NaN	Axis 6	0.000000
TX Power	0.000000	RX Power	0.000000

599.982	0.0169262
600.060	0.0168743
600.138	0.0167816
600.216	0.0168120
600.294	0.0168626
600.372	0.0169701
600.450	0.0170130
600.529	0.0168661
600.607	0.0168082
600.685	0.0169304
600.763	0.0169351
600.841	0.0169661
600.919	0.0169038
600.997	0.0168843
601.075	0.0168463
601.154	0.0169306
601.232	0.0169442
601.310	0.0168801
601.388	0.0169623
601.466	0.0169265
601.544	0.0169149
601.622	0.0169737
601.700	0.0169569
601.779	0.0169284
601.857	0.0170301
601.935	0.0170266
602.013	0.0169153
602.091	0.0168613
602.169	0.0168720
602.247	0.0170840
602.325	0.0169479
602.404	0.0169387
602.482	0.0168795
602.560	0.0168759
602.638	0.0169292
602.716	0.0169357
602.794	0.0170280
602.872	0.0168212
602.950	0.0168330
603.029	0.0169724
603.107	0.0169863
603.185	0.0168634
603.263	0.0169424
603.341	0.0167898
603.419	0.0170761
603.497	0.0168304
603.575	0.0168574
603.654	0.0169733
603.732	0.0169409
603.810	0.0167866
603.888	0.0169120
603.966	0.0169202
604.044	0.0167950
604.122	0.0168268
604.200	0.0169501
604.279	0.0169691
604.357	0.0169524
604.435	0.0170146
604.513	0.0168551
604.591	0.0170025
604.669	0.0169010
604.747	0.0169037
604.825	0.0168938
604.904	0.0168438
604.982	0.0169677
605.060	0.0169292
605.138	0.0169273
605.216	0.0169437
605.294	0.0169379
605.372	0.0169623
605.450	0.0169283
605.529	0.0170247
605.607	0.0169294
605.685	0.0169196
605.763	0.0169279
605.841	0.0169688
605.919	0.0170457
605.997	0.0168746
606.075	0.0169195
606.154	0.0168899
606.232	0.0170343
606.310	0.0170999
606.388	0.0169839
606.466	0.0169931
606.544	0.0168136
606.622	0.0169781
606.700	0.0169105
606.779	0.0169130
606.857	0.0170614
606.935	0.0169026
607.013	0.0169682
607.091	0.0169818
607.169	0.0168610
607.247	0.0168979
607.325	0.0168961
607.404	0.0169289
607.482	0.0169205
607.560	0.0169925
607.638	0.0170194
607.716	0.0170922
607.794	0.0169468
607.872	0.0169027
607.950	0.0169131
608.029	0.0168999
608.107	0.0168561
608.185	0.0168988
608.263	0.0169399
608.341	0.0168733
608.419	0.0168704
608.497	0.0169023
608.575	0.0170285
608.654	0.0168504
608.732	0.0168851
608.810	0.0168460
608.888	0.0168178
608.966	0.0169024
609.044	0.0168593
609.122	0.0168937
609.200	0.0168256
609.279	0.0167979
609.357	0.0169346
609.435	0.0170782
609.513	0.0167960
609.591	0.0168679
609.669	0.0168446
609.747	0.0170712
609.825	0.0169140
609.904	0.0168970
609.982	0.0168130
610.060	0.0168196
610.138	0.0170211
610.216	0.0169422
610.294	0.0169284
610.372	0.0169786
610.450	0.0168880
610.529	0.0169634
610.607	0.0169056
610.685	0.0170281
610.763	0.0168832
610.841	0.0168653
610.919	0.0169692
610.997	0.0168554
611.075	0.0170412
611.154	0.0169909
611.232	0.0169634
611.310	0.0169882
611.388	0.0169386
611.466	0.0168900
611.544	0.0170729
611.622	0.0169633
611.700	0.0169514
611.779	0.0169311
611.857	0.0168907
611.935	0.0169687
612.013	0.0168579
612.091	0.0166657
612.169	0.0169095
612.247	0.0169851
612.325	0.0168831
612.404	0.0169057
612.482	0.0169692
612.560	0.0167679
612.638	0.0170316
612.716	0.0168528
612.794	0.0168410
612.872	0.0168496
612.950	0.0169099
613.029	0.0169265
613.107	0.0169791
613.185	0.0170306
613.263	0.0169613
613.341	0.0168944
613.419	0.0169513
613.497	0.0168858
613.575	0.0169261
613.654	0.0169495
613.732	0.0169463
613.810	0.0168137
613.888	0.0169905
613.966	0.0169018
614.044	0.0168740
614.122	0.0168182
614.200	0.0169006
614.279	0.0168529
614.357	0.0168660
614.435	0.0168674
614.513	0.0168491
614.591	0.0168710
614.669	0.0168743
614.747	0.0168864
614.825	0.0167466
614.904	0.0169936
614.982	0.0168553
615.060	0.0168661
615.138	0.0169529
615.216	0.0169553
615.294	0.0169824
615.372	0.0168630
615.450	0.0169253
615.529	0.0167319
615.607	0.0169018
615.685	0.0170045
615.763	0.0169843
615.841	0.0167982
615.919	0.0169554
615.997	0.0168839
616.075	0.0168604
616.154	0.0168694
616.232	0.0168176
616.310	0.0169695
616.388	0.0168414
616.466	0.0169066
616.544	0.0168980
616.622	0.0168037
616.700	0.0168547
616.779	0.0168797
616.857	0.0170054
616.935	0.0169349
617.013	0.0168140
617.091	0.0169441
617.169	0.0169442
617.247	0.0167964
617.325	0.0168819
617.404	0.0168417
617.482	0.0169190
617.560	0.0168437
617.638	0.0169445
617.716	0.0169246
617.794	0.0169280
617.872	0.0168245
617.950	0.0167775
618.029	0.0169385
618.107	0.0169212
618.185	0.0170304
618.263	0.0169205
618.341	0.0169034
618.419	0.0170183
618.497	0.0168433
618.575	0.0169382
618.654	0.0168202
618.732	0.0169717
618.810	0.0169805
618.888	0.0169495
618.966	0.0169594
619.044	0.0170039
619.122	0.0169643
619.200	0.0170004
619.279	0.0169480
619.357	0.0169803
619.435	0.0171082
619.513	0.0168451
619.591	0.0170374
619.669	0.0169782
619.747	0.0168915
619.825	0.0168658
619.904	0.0169513
619.982	0.0169736
620.060	0.0169553
620.138	0.0168988
620.216	0.0169104
620.294	0.0169551
620.372	0.0169176
620.450	0.0169156
620.529	0.0168713
620.607	0.0168839
620.685	0.0168655
620.763	0.0169084
620.841	0.0169390
620.919	0.0168555
620.997	0.0168716
621.075	0.0169614
621.154	0.0168871
621.232	0.0168689
621.310	0.0169434
621.388	0.0168430
621.466	0.0169245
621.544	0.0168921
621.622	0.0170186
621.700	0.0170038
621.779	0.0169514
621.857	0.0168981
621.935	0.0170319
622.013	0.0169501
622.091	0.0169141
622.169	0.0169006
622.247	0.0167825
622.325	0.0166669
622.404	0.0167462
622.482	0.0169434
622.560	0.0170127
622.638	0.0168873
622.716	0.0168959
622.794	0.0168594
622.872	0.0168147
622.950	0.0170469
623.029	0.0169893
623.107	0.0167776
623.185	0.0167863
623.263	0.0169588
623.341	0.0167863
623.419	0.0168942
623.497	0.0168523
623.575	0.0168868
623.654	0.0169594
623.732	0.0169256
623.810	0.0169957
623.888	0.0169455
623.966	0.0167586
624.044	0.0169515
624.122	0.0169199
624.200	0.0169005
624.279	0.0170420
624.357	0.0168091
624.435	0.0167979
624.513	0.0169543
624.591	0.0169155
624.669	0.0168363
624.747	0.0168810
624.825	0.0168962
624.904	0.0168410
624.982	0.0168929
625.060	0.0169189
625.138	0.0169611
625.216	0.0169002
625.294	0.0168939
625.372	0.0169647
625.450	0.0168985
625.529	0.0167887
625.607	0.0169174
625.685	0.0169972
625.763	0.0170485
625.841	0.0169443
625.919	0.0168056
625.997	0.0167738
626.075	0.0168536
626.154	0.0169078
626.232	0.0169333
626.310	0.0169920
626.388	0.0169335
626.466	0.0169187
626.544	0.0167627
626.622	0.0168179
626.700	0.0167580
626.779	0.0167815
626.857	0.0168030
626.935	0.0168056
627.013	0.0169277
627.091	0.0170146
627.169	0.0170644
627.247	0.0168382
627.325	0.0168478
627.404	0.0169234
627.482	0.0168321
627.560	0.0170535
627.638	0.0169407
627.716	0.0169969
627.794	0.0170247
627.872	0.0167640
627.950	0.0168239
628.029	0.0168732
628.107	0.0168957
628.185	0.0168680
628.263	0.0168887
628.341	0.0169400
628.419	0.0169360
628.497	0.0169670
628.575	0.0169351
628.654	0.0168349
628.732	0.0170281
628.810	0.0169975
628.888	0.0168405
628.966	0.0169929
629.044	0.0169859
629.122	0.0167894
629.200	0.0169601
629.279	0.0170486
629.357	0.0169580
629.435	0.0169473
629.513	0.0169511
629.591	0.0168813
629.669	0.0170831
629.747	0.0169012
629.825	0.0168903
629.904	0.0169485
629.982	0.0168489
630.060	0.0168624
630.138	0.0169132
630.216	0.0169309
630.294	0.0169506
630.372	0.0169808
630.450	0.0170005
630.529	0.0169368
630.607	0.0169555
630.685	0.0169637
630.763	0.0168580
630.841	0.0169258
630.919	0.0169860
630.997	0.0168925
631.075	0.0169105
631.154	0.0168649
631.232	0.0168597
631.310	0.0169715
631.388	0.0169382
631.466	0.0168141
631.544	0.0170361
631.622	0.0170728
631.700	0.0169387
631.779	0.0169387
631.857	0.0168583
631.935	0.0169749
632.013	0.0169454
632.091	0.0168620
632.169	0.0169530
632.247	0.0168984
632.325	0.0170719
632.404	0.0168626
632.482	0.0168884
632.560	0.0168655
632.638	0.0169843
632.716	0.0169179
632.794	0.0169118
632.872	0.0168723
632.950	0.0169791
633.029	0.0169144
633.107	0.0168383
633.185	0.0167908
633.263	0.0169474
633.341	0.0169339
633.419	0.0168153
633.497	0.0169188
633.575	0.0169885
633.654	0.0167828
633.732	0.0168494
633.810	0.0167973
633.888	0.0168768
633.966	0.0168497
634.044	0.0168668
634.122	0.0168543
634.200	0.0169067
634.279	0.0169344
634.357	0.0169303
634.435	0.0167674
634.513	0.0168516
634.591	0.0169341
634.669	0.0169775
634.747	0.0168953
634.825	0.0170564
634.904	0.0169073
634.982	0.0170064
635.060	0.0169714
635.138	0.0169517
635.216	0.0169700
635.294	0.0168945
635.372	0.0168583
635.450	0.0170460
635.529	0.0169714
635.607	0.0169090
635.685	0.0168765
635.763	0.0168704
635.841	0.0168170
635.919	0.0168660
635.997	0.0168362
636.075	0.0169087
636.154	0.0169131
636.232	0.0169225
636.310	0.0168334
636.388	0.0169492
636.466	0.0169379
636.544	0.0168797
636.622	0.0168803
636.700	0.0168164
636.779	0.0167709
636.857	0.0168775
636.935	0.0169414
637.013	0.0170144
637.091	0.0169523
637.169	0.0168174
637.247	0.0168624
637.325	0.0169315
637.404	0.0169086
637.482	0.0168327
637.560	0.0168369
637.638	0.0169349
637.716	0.0168932
637.794	0.0168559
637.872	0.0169817
637.950	0.0169413
638.029	0.0169327
638.107	0.0169029
638.185	0.0169461
638.263	0.0168948
638.341	0.0167870
638.419	0.0168349
638.497	0.0170383
638.575	0.0168562
638.654	0.0169249
638.732	0.0167972
638.810	0.0169205
638.888	0.0168394
638.966	0.0167812
639.044	0.0170114
639.122	0.0169350
639.200	0.0168655
639.279	0.0169570
639.357	0.0169989
639.435	0.0170011
639.513	0.0167986
639.591	0.0168890
639.669	0.0169329
639.747	0.0169846
639.825	0.0169511
639.904	0.0168884
639.982	0.0168237
640.060	0.0168579
640.138	0.0169463
640.216	0.0168835
640.294	0.0168561
640.372	0.0169144
640.450	0.0170315
640.529	0.0169174
640.607	0.0170077
640.685	0.0167935
640.763	0.0167581
640.841	0.0169089
640.919	0.0168417
640.997	0.0168976
641.075	0.0169053
641.154	0.0169817
641.232	0.0169270
641.310	0.0168034
641.388	0.0168118
641.466	0.0169940
641.544	0.0169113
641.622	0.0169321
641.700	0.0168696
641.779	0.0169139
641.857	0.0170068
641.935	0.0169989
642.013	0.0169227
642.091	0.0169669
642.169	0.0168723
642.247	0.0168837
642.325	0.0168545
642.404	0.0170011
642.482	0.0169521
642.560	0.0169466
642.638	0.0169549
642.716	0.0169945
642.794	0.0169711
642.872	0.0170428
642.950	0.0168285
643.029	0.0168650
643.107	0.0168383
643.185	0.0169174
643.263	0.0169926
643.341	0.0169846
643.419	0.0171032
643.497	0.0169633
643.575	0.0170434
643.654	0.0170561
643.732	0.0170180
643.810	0.0170126
643.888	0.0168093
643.966	0.0171074
644.044	0.0170819
644.122	0.0169551
644.200	0.0169795
644.279	0.0169701
644.357	0.0168650
644.435	0.0169906
644.513	0.0168835
644.591	0.0167945
644.669	0.0168817
644.747	0.0169644
644.825	0.0169342
644.904	0.0168070
644.982	0.0166644
645.060	0.0168808
645.138	0.0167252
645.216	0.0167813
645.294	0.0168456
645.372	0.0168031
645.450	0.0167677
645.529	0.0167691
645.607	0.0167891
645.685	0.0168491
645.763	0.0169125
645.841	0.0167480
645.919	0.0168130
645.997	0.0169247
646.075	0.0169194
646.154	0.0167311
646.232	0.0168513
646.310	0.0169342
646.388	0.0168067
646.466	0.0166727
646.544	0.0168626
646.622	0.0168884
646.700	0.0168863
646.779	0.0169875
646.857	0.0169607
646.935	0.0169491
647.013	0.0169333
647.091	0.0168141
647.169	0.0168842
647.247	0.0170281
647.325	0.0169717
647.404	0.0169440
647.482	0.0169496
647.560	0.0170277
647.638	0.0170379
647.716	0.0170992
647.794	0.0170754
647.872	0.0169346
647.950	0.0169316
648.029	0.0169379
648.107	0.0169257
648.185	0.0168385
648.263	0.0167639
648.341	0.0168830
648.419	0.0166312
648.497	0.0168433
648.575	0.0168016
648.654	0.0167381
648.732	0.0168269
648.810	0.0169958
648.888	0.0170360
648.966	0.0171490
649.044	0.0168947
649.122	0.0170412
649.200	0.0170261
649.279	0.0170104
649.357	0.0169925
649.435	0.0168667
649.513	0.0166424
649.591	0.0165170
649.669	0.0164848
649.747	0.0163963
649.825	0.0163309
649.904	0.0163139
649.982	0.0162600
650.060	0.0161245
650.138	0.0162874
650.216	0.0165363
650.294	0.0165864
650.372	0.0167075
650.450	0.0170634
650.529	0.0172695
650.607	0.0174400
650.685	0.0175092
650.763	0.0176786
650.841	0.0178788
650.919	0.0178369
650.997	0.0177433
651.075	0.0174990
651.154	0.0175980
651.232	0.0175103
651.310	0.0173675
651.388	0.0169032
651.466	0.0166833
651.544	0.0165462
651.622	0.0162589
651.700	0.0162040
651.779	0.0161284
651.857	0.0160674
651.935	0.0160683
652.013	0.0160930
652.091	0.0163497
652.169	0.0162936
652.247	0.0164279
652.325	0.0166286
652.404	0.0169590
652.482	0.0169525
652.560	0.0171561
652.638	0.0172662
652.716	0.0174226
652.794	0.0176584
652.872	0.0175326
652.950	0.0178249
653.029	0.0180465
653.107	0.0182178
653.185	0.0182247
653.263	0.0182875
653.341	0.0183547
653.419	0.0181658
653.497	0.0180334
653.575	0.0177587
653.654	0.0176614
653.732	0.0174550
653.810	0.0169342
653.888	0.0165110
653.966	0.0160301
654.044	0.0155760
654.122	0.0151041
654.200	0.0148074
654.279	0.0144524
654.357	0.0142471
654.435	0.0141779
654.513	0.0142767
654.591	0.0145194
654.669	0.0146740
654.747	0.0148479
654.825	0.0154043
654.904	0.0159614
654.982	0.0164330
655.060	0.0168929
655.138	0.0173308
655.216	0.0176804
655.294	0.0181181
655.372	0.0185205
655.450	0.0188098
655.529	0.0190045
655.607	0.0192120
655.685	0.0195029
655.763	0.0197829
655.841	0.0198182
655.919	0.0195506
655.997	0.0192880
656.075	0.0191636
656.154	0.0187016
656.232	0.0181921
656.310	0.0177254
656.388	0.0170690
656.466	0.0166900
656.544	0.0161228
656.622	0.0156402
656.700	0.0152262
656.779	0.0151814
656.857	0.0151681
656.935	0.0151836
657.013	0.0151908
657.091	0.0153914
657.169	0.0153944
657.247	0.0157901
657.325	0.0158884
657.404	0.0160954
657.482	0.0161833
657.560	0.0160789
657.638	0.0160690
657.716	0.0161943
657.794	0.0159715
657.872	0.0160439
657.950	0.0163035
658.029	0.0163686
658.107	0.0165208
658.185	0.0168356
658.263	0.0173515
658.341	0.0177653
658.419	0.0181651
658.497	0.0187804
658.575	0.0193490
658.654	0.0195630
658.732	0.0199766
658.810	0.0201522
658.888	0.0200405
658.966	0.0199722
659.044	0.0195985
659.122	0.0191238
659.200	0.0183236
659.279	0.0178423
659.357	0.0170013
659.435	0.0162416
659.513	0.0156027
659.591	0.0151369
659.669	0.0146217
659.747	0.0141783
659.825	0.0140174
659.904	0.0140730
659.982	0.0139482
660.060	0.0141271
660.138	0.0144068
660.216	0.0145779
660.294	0.0148058
660.372	0.0150426
660.450	0.0151972
660.529	0.0151331
660.607	0.0155150
660.685	0.0153434
660.763	0.0154374
660.841	0.0158369
660.919	0.0157917
660.997	0.0158530
661.075	0.0161075
661.154	0.0165157
661.232	0.0170818
661.310	0.0175512
661.388	0.0180822
661.466	0.0186497
661.544	0.0192684
661.622	0.0197677
661.700	0.0200020
661.779	0.0203800
661.857	0.0208141
661.935	0.0208535
662.013	0.0208611
662.091	0.0207145
662.169	0.0204773
662.247	0.0200789
662.325	0.0196194
662.404	0.0191174
662.482	0.0184830
662.560	0.0180530
662.638	0.0173235
662.716	0.0167412
662.794	0.0160604
662.872	0.0157228
662.950	0.0153979
663.029	0.0149611
663.107	0.0149827
663.185	0.0149580
663.263	0.0149370
663.341	0.0148575
663.419	0.0150059
663.497	0.0151517
663.575	0.0152214
663.654	0.0151509
663.732	0.0151625
663.810	0.0149773
663.888	0.0150069
663.966	0.0150439
664.044	0.0150644
664.122	0.0148208
664.200	0.0149335
664.279	0.0149956
664.357	0.0152059
664.435	0.0154775
664.513	0.0156760
664.591	0.0159590
664.669	0.0162931
664.747	0.0163965
664.825	0.0165137
664.904	0.0164893
664.982	0.0164120
665.060	0.0164992
665.138	0.0165969
665.216	0.0165154
665.294	0.0164671
665.372	0.0165952
665.450	0.0166864
665.529	0.0171663
665.607	0.0175903
665.685	0.0178848
665.763	0.0185097
665.841	0.0190250
665.919	0.0195777
665.997	0.0201155
666.075	0.0205585
666.154	0.0207884
666.232	0.0212171
666.310	0.0212968
666.388	0.0212418
666.466	0.0211434
666.544	0.0209775
666.622	0.0205653
666.700	0.0204594
666.779	0.0199541
666.857	0.0195444
666.935	0.0190887
667.013	0.0182325
667.091	0.0174773
667.169	0.0169853
667.247	0.0161276
667.325	0.0153598
667.404	0.0144517
667.482	0.0135435
667.560	0.0128243
667.638	0.0123497
667.716	0.0118131
667.794	0.0113425
667.872	0.0112055
667.950	0.0110368
668.029	0.0110156
668.107	0.0111933
668.185	0.0114228
668.263	0.0117165
668.341	0.0122309
668.419	0.0129179
668.497	0.0135581
668.575	0.0143387
668.654	0.0150890
668.732	0.0156980
668.810	0.0164709
668.888	0.0172260
668.966	0.0180302
669.044	0.0185861
669.122	0.0193979
669.200	0.0199614
669.279	0.0204986
669.357	0.0210092
669.435	0.0212492
669.513	0.0214398
669.591	0.0216550
669.669	0.0215025
669.747	0.0214087
669.825	0.0212728
669.904	0.0209235
669.982	0.0205717
670.060	0.0201040
670.138	0.0197382
670.216	0.0192159
670.294	0.0187039
670.372	0.0181457
670.450	0.0177886
670.529	0.0175181
670.607	0.0173039
670.685	0.0169517
670.763	0.0169457
670.841	0.0169527
670.919	0.0169553
670.997	0.0168206
671.075	0.0168656
671.154	0.0171333
671.232	0.0171283
671.310	0.0173405
671.388	0.0172656
671.466	0.0170780
671.544	0.0170224
671.622	0.0169254
671.700	0.0168947
671.779	0.0165045
671.857	0.0162426
671.935	0.0161491
672.013	0.0159240
672.091	0.0157447
672.169	0.0156209
672.247	0.0154117
672.325	0.0153156
672.404	0.0151611
672.482	0.0149306
672.560	0.0147951
672.638	0.0146486
672.716	0.0143257
672.794	0.0140185
672.872	0.0139156
672.950	0.0135433
673.029	0.0132170
673.107	0.0130124
673.185	0.0127071
673.263	0.0127714
673.341	0.0127820
673.419	0.0127370
673.497	0.0128677
673.575	0.0134008
673.654	0.0138831
673.732	0.0142849
673.810	0.0150688
673.888	0.0158363
673.966	0.0165004
674.044	0.0173799
674.122	0.0179919
674.200	0.0185536
674.279	0.0190627
674.357	0.0196828
674.435	0.0200040
674.513	0.0202740
674.591	0.0204903
674.669	0.0205670
674.747	0.0207634
674.825	0.0208482
674.904	0.0208305
674.982	0.0209911
675.060	0.0212067
675.138	0.0212850
675.216	0.0212292
675.294	0.0214423
675.372	0.0216685
675.450	0.0219263
675.529	0.0217499
675.607	0.0218440
675.685	0.0213935
675.763	0.0210454
675.841	0.0205415
675.919	0.0200387
675.997	0.0192200
676.075	0.0185291
676.154	0.0175276
676.232	0.0166070
676.310	0.0157648
676.388	0.0150376
676.466	0.0144568
676.544	0.0139626
676.622	0.0136576
676.700	0.0136146
676.779	0.0136157
676.857	0.0136728
676.935	0.0140174
677.013	0.0144164
677.091	0.0147798
677.169	0.0152058
677.247	0.0156733
677.325	0.0158726
677.404	0.0161490
677.482	0.0161365
677.560	0.0160852
677.638	0.0159302
677.716	0.0157825
677.794	0.0154145
677.872	0.0152272
677.950	0.0149227
678.029	0.0147050
678.107	0.0144630
678.185	0.0143109
678.263	0.0144543
678.341	0.0144068
678.419	0.0143475
678.497	0.0144230
678.575	0.0144911
678.654	0.0143511
678.732	0.0142983
678.810	0.0141171
678.888	0.0138548
678.966	0.0135678
679.044	0.0133184
679.122	0.0130934
679.200	0.0129093
679.279	0.0129482
679.357	0.0128661
679.435	0.0131602
679.513	0.0135115
679.591	0.0140016
679.669	0.0146567
679.747	0.0154212
679.825	0.0164465
679.904	0.0174498
679.982	0.0183289
680.060	0.0194115
680.138	0.0203754
680.216	0.0211731
680.294	0.0219978
680.372	0.0229548
680.450	0.0235573
680.529	0.0239886
680.607	0.0246066
680.685	0.0248854
680.763	0.0252735
680.841	0.0253390
680.919	0.0255193
680.997	0.0256129
681.075	0.0253385
681.154	0.0251414
681.232	0.0248218
681.310	0.0239964
681.388	0.0235038
681.466	0.0225595
681.544	0.0216828
681.622	0.0203724
681.700	0.0192484
681.779	0.0179944
681.857	0.0167902
681.935	0.0155522
682.013	0.0145966
682.091	0.0134481
682.169	0.0125686
682.247	0.0115827
682.325	0.0108601
682.404	0.0106097
682.482	0.0101917
682.560	0.00993668
682.638	0.0102200
682.716	0.0104326
682.794	0.0107701
682.872	0.0111492
682.950	0.0117296
683.029	0.0124199
683.107	0.0127374
683.185	0.0132205
683.263	0.0138917
683.341	0.0141702
683.419	0.0143932
683.497	0.0145768
683.575	0.0146668
683.654	0.0147179
683.732	0.0148277
683.810	0.0149876
683.888	0.0151031
683.966	0.0152589
684.044	0.0155293
684.122	0.0157754
684.200	0.0159352
684.279	0.0160271
684.357	0.0163652
684.435	0.0167607
684.513	0.0168386
684.591	0.0167161
684.669	0.0166418
684.747	0.0165044
684.825	0.0163462
684.904	0.0161378
684.982	0.0159382
685.060	0.0157162
685.138	0.0154090
685.216	0.0153273
685.294	0.0154030
685.372	0.0154718
685.450	0.0156657
685.529	0.0158250
685.607	0.0161440
685.685	0.0168383
685.763	0.0172301
685.841	0.0180016
685.919	0.0185946
685.997	0.0192683
686.075	0.0200517
686.154	0.0209040
686.232	0.0216919
686.310	0.0222156
686.388	0.0229222
686.466	0.0234935
686.544	0.0239596
686.622	0.0244014
686.700	0.0246051
686.779	0.0246227
686.857	0.0248725
686.935	0.0248346
687.013	0.0244792
687.091	0.0240045
687.169	0.0235560
687.247	0.0225765
687.325	0.0216920
687.404	0.0207141
687.482	0.0196292
687.560	0.0185967
687.638	0.0172701
687.716	0.0162572
687.794	0.0152917
687.872	0.0140936
687.950	0.0130429
688.029	0.0124106
688.107	0.0116711
688.185	0.0112966
688.263	0.0108804
688.341	0.0108331
688.419	0.0107394
688.497	0.0108282
688.575	0.0110268
688.654	0.0112965
688.732	0.0117808
688.810	0.0121658
688.888	0.0126994
688.966	0.0130631
689.044	0.0135114
689.122	0.0138571
689.200	0.0139619
689.279	0.0141668
689.357	0.0140113
689.435	0.0141348
689.513	0.0140764
689.591	0.0140298
689.669	0.0138821
689.747	0.0139685
689.825	0.0142326
689.904	0.0144236
689.982	0.0147221
690.060	0.0154282
690.138	0.0157722
690.216	0.0164501
690.294	0.0168645
690.372	0.0172577
690.450	0.0177676
690.529	0.0180687
690.607	0.0182530
690.685	0.0183305
690.763	0.0183884
690.841	0.0181384
690.919	0.0179671
690.997	0.0177046
691.075	0.0173965
691.154	0.0169215
691.232	0.0167611
691.310	0.0164249
691.388	0.0163097
691.466	0.0163374
691.544	0.0163726
691.622	0.0165100
691.700	0.0168099
691.779	0.0171836
691.857	0.0177323
691.935	0.0184065
692.013	0.0190977
692.091	0.0197136
692.169	0.0205280
692.247	0.0211926
692.325	0.0217252
692.404	0.0222222
692.482	0.0224816
692.560	0.0226237
692.638	0.0228147
692.716	0.0226707
692.794	0.0226067
692.872	0.0223012
692.950	0.0218690
693.029	0.0215008
693.107	0.0208893
693.185	0.0204843
693.263	0.0200201
693.341	0.0196379
693.419	0.0191010
693.497	0.0186234
693.575	0.0181969
693.654	0.0177338
693.732	0.0171500
693.810	0.0165405
693.888	0.0161339
693.966	0.0154625
694.044	0.0148875
694.122	0.0144175
694.200	0.0138923
694.279	0.0134489
694.357	0.0131615
694.435	0.0128033
694.513	0.0128553
694.591	0.0129230
694.669	0.0127785
694.747	0.0128296
694.825	0.0128764
694.904	0.0129758
694.982	0.0131897
695.060	0.0131850
695.138	0.0133862
695.216	0.0134649
695.294	0.0134068
695.372	0.0132136
695.450	0.0133304
695.529	0.0133360
695.607	0.0131156
695.685	0.0131576
695.763	0.0132275
695.841	0.0134667
695.919	0.0135674
695.997	0.0137900
696.075	0.0144174
696.154	0.0149741
696.232	0.0153771
696.310	0.0160928
696.388	0.0168554
696.466	0.0171727
696.544	0.0177065
696.622	0.0179835
696.700	0.0181788
696.779	0.0185100
696.857	0.0183359
696.935	0.0181693
697.013	0.0179700
697.091	0.0174771
697.169	0.0173637
697.247	0.0171030
697.325	0.0169640
697.404	0.0168669
697.482	0.0168025
697.560	0.0169640
697.638	0.0171693
697.716	0.0174367
697.794	0.0178090
697.872	0.0183729
697.950	0.0187849
698.029	0.0193501
698.107	0.0199150
698.185	0.0201746
698.263	0.0206635
698.341	0.0209534
698.419	0.0211679
698.497	0.0213974
698.575	0.0215090
698.654	0.0214445
698.732	0.0213355
698.810	0.0211755
698.888	0.0209524
698.966	0.0206093
699.044	0.0204076
699.122	0.0200699
699.200	0.0196689
699.279	0.0193237
699.357	0.0190617
699.435	0.0189191
699.513	0.0186608
699.591	0.0183594
699.669	0.0179819
699.747	0.0177007
699.825	0.0173335
699.904	0.0170552
699.982	0.0167144
700.060	0.0164141
700.138	0.0159798
700.216	0.0156975
700.294	0.0154605
700.372	0.0151164
700.450	0.0147880
700.529	0.0148156
700.607	0.0147009
700.685	0.0145538
700.763	0.0145703
700.841	0.0145477
700.919	0.0145450
700.997	0.0144526
701.075	0.0144951
701.154	0.0143496
701.232	0.0142891
701.310	0.0142281
701.388	0.0139957
701.466	0.0138204
701.544	0.0135580
701.622	0.0133052
701.700	0.0129556
701.779	0.0129952
701.857	0.0128539
701.935	0.0129163
702.013	0.0129105
702.091	0.0132036
702.169	0.0132425
702.247	0.0136392
702.325	0.0139267
702.404	0.0144666
702.482	0.0148970
702.560	0.0154302
702.638	0.0157293
702.716	0.0161580
702.794	0.0162988
702.872	0.0164407
702.950	0.0166911
703.029	0.0168674
703.107	0.0168259
703.185	0.0169122
703.263	0.0169745
703.341	0.0169830
703.419	0.0170600
703.497	0.0172826
703.575	0.0173872
703.654	0.0177177
703.732	0.0180441
703.810	0.0184850
703.888	0.0189059
703.966	0.0194404
704.044	0.0200272
704.122	0.0205126
704.200	0.0211140
704.279	0.0214428
704.357	0.0217872
704.435	0.0220857
704.513	0.0222057
704.591	0.0222610
704.669	0.0221561
704.747	0.0218577
704.825	0.0216319
704.904	0.0213509
704.982	0.0209102
705.060	0.0204144
705.138	0.0197511
705.216	0.0193411
705.294	0.0188493
705.372	0.0184698
705.450	0.0178920
705.529	0.0174937
705.607	0.0170081
705.685	0.0165767
705.763	0.0163282
705.841	0.0159574
705.919	0.0158237
705.997	0.0156195
706.075	0.0154559
706.154	0.0151939
706.232	0.0151518
706.310	0.0152028
706.388	0.0152635
706.466	0.0154375
706.544	0.0154053
706.622	0.0156143
706.700	0.0157596
706.779	0.0158921
706.857	0.0160748
706.935	0.0161312
707.013	0.0161929
707.091	0.0161272
707.169	0.0159451
707.247	0.0158728
707.325	0.0154795
707.404	0.0153384
707.482	0.0150132
707.560	0.0148120
707.638	0.0145283
707.716	0.0142763
707.794	0.0140936
707.872	0.0140331
707.950	0.0139812
708.029	0.0138697
708.107	0.0139555
708.185	0.0141315
708.263	0.0143038
708.341	0.0143819
708.419	0.0146523
708.497	0.0149613
708.575	0.0150647
708.654	0.0153444
708.732	0.0155128
708.810	0.0155737
708.888	0.0158142
708.966	0.0158730
709.044	0.0160019
709.122	0.0161438
709.200	0.0161231
709.279	0.0162092
709.357	0.0163962
709.435	0.0165871
709.513	0.0167521
709.591	0.0169851
709.669	0.0173869
709.747	0.0178861
709.825	0.0181269
709.904	0.0185056
709.982	0.0188409
710.060	0.0191871
710.138	0.0196876
710.216	0.0200303
710.294	0.0201626
710.372	0.0206457
710.450	0.0206196
710.529	0.0207304
710.607	0.0205574
710.685	0.0204604
710.763	0.0203188
710.841	0.0201378
710.919	0.0201263
710.997	0.0199082
711.075	0.0194725
711.154	0.0191972
711.232	0.0188299
711.310	0.0185355
711.388	0.0183586
711.466	0.0180039
711.544	0.0175355
711.622	0.0172514
711.700	0.0170882
711.779	0.0166736
711.857	0.0164761
711.935	0.0164025
712.013	0.0160440
712.091	0.0159366
712.169	0.0157581
712.247	0.0155550
712.325	0.0154941
712.404	0.0155764
712.482	0.0156944
712.560	0.0156247
712.638	0.0156795
712.716	0.0158177
712.794	0.0159418
712.872	0.0159588
712.950	0.0159834
713.029	0.0162157
713.107	0.0160873
713.185	0.0160120
713.263	0.0160136
713.341	0.0158478
713.419	0.0158315
713.497	0.0157370
713.575	0.0156597
713.654	0.0156726
713.732	0.0156822
713.810	0.0157898
713.888	0.0157166
713.966	0.0156934
714.044	0.0157509
714.122	0.0160215
714.200	0.0160299
714.279	0.0162255
714.357	0.0162815
714.435	0.0164833
714.513	0.0167469
714.591	0.0166751
714.669	0.0167064
714.747	0.0166908
714.825	0.0167992
714.904	0.0169193
714.982	0.0168972
715.060	0.0168420
715.138	0.0168460
715.216	0.0168130
715.294	0.0167738
715.372	0.0167902
715.450	0.0168287
715.529	0.0167038
715.607	0.0167931
715.685	0.0167161
715.763	0.0166760
715.841	0.0169559
715.919	0.0168488
715.997	0.0167509
716.075	0.0168980
716.154	0.0170333
716.232	0.0170182
716.310	0.0170763
716.388	0.0172314
716.466	0.0172235
716.544	0.0172228
716.622	0.0172689
716.700	0.0171434
716.779	0.0173098
716.857	0.0172730
716.935	0.0172075
717.013	0.0173132
717.091	0.0171149
717.169	0.0173315
717.247	0.0171706
717.325	0.0172235
717.404	0.0171945
717.482	0.0172689
717.560	0.0174229
717.638	0.0173432
717.716	0.0173347
717.794	0.0174687
717.872	0.0173051
717.950	0.0175342
718.029	0.0175768
718.107	0.0175842
718.185	0.0177163
718.263	0.0176670
718.341	0.0176247
718.419	0.0175031
718.497	0.0174384
718.575	0.0174635
718.654	0.0172807
718.732	0.0171789
718.810	0.0173335
718.888	0.0169214
718.966	0.0167863
719.044	0.0166521
719.122	0.0165807
719.200	0.0164465
719.279	0.0164672
719.357	0.0162564
719.435	0.0164391
719.513	0.0163203
719.591	0.0162272
719.669	0.0162534
719.747	0.0163209
719.825	0.0164087
719.904	0.0166209
719.982	0.0167084
720.060	0.0167416
720.138	0.0168810
720.216	0.0172380
720.294	0.0170595
720.372	0.0172874
720.450	0.0173130
720.529	0.0173151
720.607	0.0172918
720.685	0.0173549
720.763	0.0171846
720.841	0.0172623
720.919	0.0170855
720.997	0.0169182
721.075	0.0167850
721.154	0.0168038
721.232	0.0168290
721.310	0.0165839
721.388	0.0167305
721.466	0.0165559
721.544	0.0165764
721.622	0.0165521
721.700	0.0167715
721.779	0.0168047
721.857	0.0167738
721.935	0.0168829
722.013	0.0169463
722.091	0.0170682
722.169	0.0168468
722.247	0.0168865
722.325	0.0167965
722.404	0.0167854
722.482	0.0167136
722.560	0.0164497
722.638	0.0164778
722.716	0.0163316
722.794	0.0161924
722.872	0.0161061
722.950	0.0160372
723.029	0.0160341
723.107	0.0160021
723.185	0.0160765
723.263	0.0161823
723.341	0.0162633
723.419	0.0161156
723.497	0.0162345
723.575	0.0163563
723.654	0.0164853
723.732	0.0163776
723.810	0.0166068
723.888	0.0167334
723.966	0.0165990
724.044	0.0167354
724.122	0.0168237
724.200	0.0169245
724.279	0.0169762
724.357	0.0170062
724.435	0.0170186
724.513	0.0171980
724.591	0.0170923
724.669	0.0172392
724.747	0.0173407
724.825	0.0172994
724.904	0.0172283
724.982	0.0173035
725.060	0.0173013
725.138	0.0173248
725.216	0.0171861
725.294	0.0173750
725.372	0.0173757
725.450	0.0173209
725.529	0.0174799
725.607	0.0175420
725.685	0.0176628
725.763	0.0175917
725.841	0.0177321
725.919	0.0178389
725.997	0.0177895
726.075	0.0178485
726.154	0.0180669
726.232	0.0180922
726.310	0.0179234
726.388	0.0178768
726.466	0.0176902
726.544	0.0175562
726.622	0.0175119
726.700	0.0174924
726.779	0.0174158
726.857	0.0171766
726.935	0.0169752
727.013	0.0169227
727.091	0.0167666
727.169	0.0168208
727.247	0.0166189
727.325	0.0165749
727.404	0.0167902
727.482	0.0164584
727.560	0.0166692
727.638	0.0166639
727.716	0.0165888
727.794	0.0166518
727.872	0.0167353
727.950	0.0166418
728.029	0.0166663
728.107	0.0166234
728.185	0.0166104
728.263	0.0166668
728.341	0.0166217
728.419	0.0166356
728.497	0.0166839
728.575	0.0166634
728.654	0.0168425
728.732	0.0167292
728.810	0.0168076
728.888	0.0168173
728.966	0.0169909
729.044	0.0169225
729.122	0.0168362
729.200	0.0169524
729.279	0.0169862
729.357	0.0168488
729.435	0.0166484
729.513	0.0167758
729.591	0.0167038
729.669	0.0165591
729.747	0.0165646
729.825	0.0163762
729.904	0.0163196
729.982	0.0161970
730.060	0.0160370
730.138	0.0160419
730.216	0.0159338
730.294	0.0159042
730.372	0.0158029
730.450	0.0157465
730.529	0.0156329
730.607	0.0157455
730.685	0.0158351
730.763	0.0158206
730.841	0.0159373
730.919	0.0158543
730.997	0.0160143
731.075	0.0160154
731.154	0.0162033
731.232	0.0162269
731.310	0.0163218
731.388	0.0165358
731.466	0.0168056
731.544	0.0167928
731.622	0.0170548
731.700	0.0171887
731.779	0.0173437
731.857	0.0174966
731.935	0.0176852
732.013	0.0176550
732.091	0.0180005
732.169	0.0180958
732.247	0.0180845
732.325	0.0181152
732.404	0.0181912
732.482	0.0183175
732.560	0.0182281
732.638	0.0181322
732.716	0.0181137
732.794	0.0180618
732.872	0.0180154
732.950	0.0179584
733.029	0.0178091
733.107	0.0177045
733.185	0.0177091
733.263	0.0176304
733.341	0.0174997
733.419	0.0174766
733.497	0.0176272
733.575	0.0173831
733.654	0.0173707
733.732	0.0174709
733.810	0.0174296
733.888	0.0174482
733.966	0.0174458
734.044	0.0174278
734.122	0.0174143
734.200	0.0174878
734.279	0.0173287
734.357	0.0172096
734.435	0.0171461
734.513	0.0173140
734.591	0.0172851
734.669	0.0170743
734.747	0.0171041
734.825	0.0168970
734.904	0.0170013
734.982	0.0169285
735.060	0.0166967
735.138	0.0165562
735.216	0.0165640
735.294	0.0164616
735.372	0.0164447
735.450	0.0163186
735.529	0.0162127
735.607	0.0161745
735.685	0.0160259
735.763	0.0162228
735.841	0.0160938
735.919	0.0161566
735.997	0.0159559
736.075	0.0160076
736.154	0.0160447
736.232	0.0160954
736.310	0.0161705
736.388	0.0160847
736.466	0.0161087
736.544	0.0161385
736.622	0.0162669
736.700	0.0162424
736.779	0.0160644
736.857	0.0162314
736.935	0.0163146
737.013	0.0162328
737.091	0.0161066
737.169	0.0162527
737.247	0.0160999
737.325	0.0161798
737.404	0.0161841
737.482	0.0162726
737.560	0.0162842
737.638	0.0164229
737.716	0.0164601
737.794	0.0166484
737.872	0.0166290
737.950	0.0167284
738.029	0.0167780
738.107	0.0169066
738.185	0.0170818
738.263	0.0171317
738.341	0.0170338
738.419	0.0170034
738.497	0.0170687
738.575	0.0171235
738.654	0.0171669
738.732	0.0170770
738.810	0.0170688
738.888	0.0170103
738.966	0.0170660
739.044	0.0170873
739.122	0.0171635
739.200	0.0172502
739.279	0.0173648
739.357	0.0173573
739.435	0.0174681
739.513	0.0175383
739.591	0.0177699
739.669	0.0178976
739.747	0.0178488
739.825	0.0178835
739.904	0.0178699
739.982	0.0179794
740.060	0.0178625
740.138	0.0182169
740.216	0.0181181
740.294	0.0180542
740.372	0.0180185
740.450	0.0180006
740.529	0.0179296
740.607	0.0178942
740.685	0.0177123
740.763	0.0176687
740.841	0.0176820
740.919	0.0176057
740.997	0.0175444
741.075	0.0173742
741.154	0.0172978
741.232	0.0171095
741.310	0.0169463
741.388	0.0169794
741.466	0.0167535
741.544	0.0168008
741.622	0.0167277
741.700	0.0166109
741.779	0.0164837
741.857	0.0163930
741.935	0.0163261
742.013	0.0163712
742.091	0.0163548
742.169	0.0162114
742.247	0.0161811
742.325	0.0162476
742.404	0.0162981
742.482	0.0164416
742.560	0.0164485
742.638	0.0163730
742.716	0.0164080
742.794	0.0164364
742.872	0.0165730
742.950	0.0165054
743.029	0.0164394
743.107	0.0165399
743.185	0.0165499
743.263	0.0166167
743.341	0.0166969
743.419	0.0165762
743.497	0.0166133
743.575	0.0164830
743.654	0.0164272
743.732	0.0164375
743.810	0.0164321
743.888	0.0163248
743.966	0.0163279
744.044	0.0164129
744.122	0.0162448
744.200	0.0161789
744.279	0.0161653
744.357	0.0162432
744.435	0.0162389
744.513	0.0161095
744.591	0.0161765
744.669	0.0162518
744.747	0.0162258
744.825	0.0163908
744.904	0.0163380
744.982	0.0165366
745.060	0.0165375
745.138	0.0165474
745.216	0.0166148
745.294	0.0167404
745.372	0.0166727
745.450	0.0167704
745.529	0.0168344
745.607	0.0170524
745.685	0.0172259
745.763	0.0172332
745.841	0.0171762
745.919	0.0173915
745.997	0.0173701
746.075	0.0175719
746.154	0.0176055
746.232	0.0174898
746.310	0.0176640
746.388	0.0175967
746.466	0.0178528
746.544	0.0176681
746.622	0.0178301
746.700	0.0178639
746.779	0.0178223
746.857	0.0177730
746.935	0.0178500
747.013	0.0176747
747.091	0.0177486
747.169	0.0177516
747.247	0.0176217
747.325	0.0176422
747.404	0.0176606
747.482	0.0174932
747.560	0.0174772
747.638	0.0173544
747.716	0.0173395
747.794	0.0171178
747.872	0.0173206
747.950	0.0172025
748.029	0.0171861
748.107	0.0170884
748.185	0.0172552
748.263	0.0171849
748.341	0.0171563
748.419	0.0171412
748.497	0.0170920
748.575	0.0170441
748.654	0.0171117
748.732	0.0170995
748.810	0.0171429
748.888	0.0170199
748.966	0.0170958
749.044	0.0170391
749.122	0.0169144
749.200	0.0169398
749.279	0.0168634
749.357	0.0168884
749.435	0.0168778
749.513	0.0168416
749.591	0.0170472
749.669	0.0168208
749.747	0.0166758
749.825	0.0167432
749.904	0.0168288
749.982	0.0166893
750.060	0.0164864
750.138	0.0164354
750.216	0.0164731
750.294	0.0164040
750.372	0.0164742
750.450	0.0164362
750.529	0.0163496
750.607	0.0161772
750.685	0.0161152
750.763	0.0160965
750.841	0.0160389
750.919	0.0160757
750.997	0.0160081
751.075	0.0159904
751.154	0.0161268
751.232	0.0161450
751.310	0.0161543
751.388	0.0162060
751.466	0.0162686
751.544	0.0164159
751.622	0.0165309
751.700	0.0165956
751.779	0.0167876
751.857	0.0167749
751.935	0.0168761
752.013	0.0170757
752.091	0.0170776
752.169	0.0171353
752.247	0.0172600
752.325	0.0172207
752.404	0.0172831
752.482	0.0171925
752.560	0.0172175
752.638	0.0170896
752.716	0.0170501
752.794	0.0169851
752.872	0.0170182
752.950	0.0169585
753.029	0.0170502
753.107	0.0170283
753.185	0.0167364
753.263	0.0169244
753.341	0.0169676
753.419	0.0169100
753.497	0.0170216
753.575	0.0169718
753.654	0.0170444
753.732	0.0170724
753.810	0.0169658
753.888	0.0171695
753.966	0.0171114
754.044	0.0171915
754.122	0.0171724
754.200	0.0173853
754.279	0.0175830
754.357	0.0173704
754.435	0.0175639
754.513	0.0177155
754.591	0.0176694
754.669	0.0176515
754.747	0.0175943
754.825	0.0177133
754.904	0.0177744
754.982	0.0176589
755.060	0.0176782
755.138	0.0177489
755.216	0.0176383
755.294	0.0176179
755.372	0.0174734
755.450	0.0172602
755.529	0.0174351
755.607	0.0173709
755.685	0.0172229
755.763	0.0170600
755.841	0.0171289
755.919	0.0169690
755.997	0.0169489
756.075	0.0168880
756.154	0.0168218
756.232	0.0168542
756.310	0.0167580
756.388	0.0167000
756.466	0.0166291
756.544	0.0164861
756.622	0.0165430
756.700	0.0165775
756.779	0.0165862
756.857	0.0164550
756.935	0.0164281
757.013	0.0164219
757.091	0.0164280
757.169	0.0163941
757.247	0.0164929
757.325	0.0163036
757.404	0.0164203
757.482	0.0165084
757.560	0.0164062
757.638	0.0164095
757.716	0.0164336
757.794	0.0166040
757.872	0.0167059
757.950	0.0166460
758.029	0.0165740
758.107	0.0167545
758.185	0.0167682
758.263	0.0167622
758.341	0.0167596
758.419	0.0168761
758.497	0.0169700
758.575	0.0168663
758.654	0.0167921
758.732	0.0168638
758.810	0.0169224
758.888	0.0169857
758.966	0.0169644
759.044	0.0169870
759.122	0.0167400
759.200	0.0167287
759.279	0.0168094
759.357	0.0168203
759.435	0.0168476
759.513	0.0167822
759.591	0.0167509
759.669	0.0166901
759.747	0.0168081
759.825	0.0167571
759.904	0.0166415
759.982	0.0166666
760.060	0.0167204
760.138	0.0167059
760.216	0.0167010
760.294	0.0167075
760.372	0.0166930
760.450	0.0168073
760.529	0.0167509
760.607	0.0167110
760.685	0.0167542
760.763	0.0168784
760.841	0.0168248
760.919	0.0168053
760.997	0.0168571
761.075	0.0166975
761.154	0.0167398
761.232	0.0167741
761.310	0.0169141
761.388	0.0168859
761.466	0.0170093
761.544	0.0169891
761.622	0.0170675
761.700	0.0171155
761.779	0.0171284
761.857	0.0172723
761.935	0.0171993
762.013	0.0173900
762.091	0.0176163
762.169	0.0175230
762.247	0.0175595
762.325	0.0176077
762.404	0.0179291
762.482	0.0179407
762.560	0.0179202
762.638	0.0179265
762.716	0.0179304
762.794	0.0180471
762.872	0.0178795
762.950	0.0177293
763.029	0.0178654
763.107	0.0178724
763.185	0.0176610
763.263	0.0175816
763.341	0.0173153
763.419	0.0171680
763.497	0.0170783
763.575	0.0168996
763.654	0.0167659
763.732	0.0167586
763.810	0.0164651
763.888	0.0164717
763.966	0.0164834
764.044	0.0162653
764.122	0.0162611
764.200	0.0160584
764.279	0.0158434
764.357	0.0160681
764.435	0.0160330
764.513	0.0160726
764.591	0.0161990
764.669	0.0161008
764.747	0.0161086
764.825	0.0161939
764.904	0.0161897
764.982	0.0161622
765.060	0.0163593
765.138	0.0163732
765.216	0.0164325
765.294	0.0165004
765.372	0.0164242
765.450	0.0165737
765.529	0.0168161
765.607	0.0166158
765.685	0.0167078
765.763	0.0167204
765.841	0.0167626
765.919	0.0167840
765.997	0.0170071
766.075	0.0169170
766.154	0.0168516
766.232	0.0169093
766.310	0.0169730
766.388	0.0169981
766.466	0.0169962
766.544	0.0170640
766.622	0.0169435
766.700	0.0169254
766.779	0.0167181
766.857	0.0166723
766.935	0.0167457
767.013	0.0166506
767.091	0.0168929
767.169	0.0167079
767.247	0.0168222
767.325	0.0169317
767.404	0.0168526
767.482	0.0168697
767.560	0.0169540
767.638	0.0169297
767.716	0.0169301
767.794	0.0168104
767.872	0.0168394
767.950	0.0169422
768.029	0.0170158
768.107	0.0169820
768.185	0.0170341
768.263	0.0169794
768.341	0.0171506
768.419	0.0172108
768.497	0.0170406
768.575	0.0170752
768.654	0.0172280
768.732	0.0170326
768.810	0.0169569
768.888	0.0170146
768.966	0.0170634
769.044	0.0169563
769.122	0.0170296
769.200	0.0168851
769.279	0.0168546
769.357	0.0167927
769.435	0.0167621
769.513	0.0167812
769.591	0.0166898
769.669	0.0165697
769.747	0.0167265
769.825	0.0166878
769.904	0.0166483
769.982	0.0166999
770.060	0.0166553
770.138	0.0168128
770.216	0.0168974
770.294	0.0168559
770.372	0.0170142
770.450	0.0169243
770.529	0.0171317
770.607	0.0172420
770.685	0.0171947
770.763	0.0173214
770.841	0.0174236
770.919	0.0174129
770.997	0.0173712
771.075	0.0174104
771.154	0.0175431
771.232	0.0176939
771.310	0.0176690
771.388	0.0175914
771.466	0.0177148
771.544	0.0176761
771.622	0.0176177
771.700	0.0176200
771.779	0.0176031
771.857	0.0175974
771.935	0.0175094
772.013	0.0174307
772.091	0.0174081
772.169	0.0173465
772.247	0.0173043
772.325	0.0172034
772.404	0.0172502
772.482	0.0171654
772.560	0.0169931
772.638	0.0169768
772.716	0.0168690
772.794	0.0167316
772.872	0.0166686
772.950	0.0164034
773.029	0.0165139
773.107	0.0162640
773.185	0.0163150
773.263	0.0162728
773.341	0.0160138
773.419	0.0162236
773.497	0.0160466
773.575	0.0162112
773.654	0.0161841
773.732	0.0160832
773.810	0.0161057
773.888	0.0161037
773.966	0.0160575
774.044	0.0160015
774.122	0.0161576
774.200	0.0161360
774.279	0.0161745
774.357	0.0162425
774.435	0.0162566
774.513	0.0161752
774.591	0.0163021
774.669	0.0163263
774.747	0.0163007
774.825	0.0164247
774.904	0.0164906
774.982	0.0165553
775.060	0.0163918
775.138	0.0163820
775.216	0.0164340
775.294	0.0164349
775.372	0.0166165
775.450	0.0167030
775.529	0.0166429
775.607	0.0166156
775.685	0.0166863
775.763	0.0167394
775.841	0.0168236
775.919	0.0169496
775.997	0.0168768
776.075	0.0168720
776.154	0.0169529
776.232	0.0171017
776.310	0.0169864
776.388	0.0170894
776.466	0.0172039
776.544	0.0174223
776.622	0.0174915
776.700	0.0175894
776.779	0.0175505
776.857	0.0178024
776.935	0.0178973
777.013	0.0178951
777.091	0.0181584
777.169	0.0182660
777.247	0.0181498
777.325	0.0182334
777.404	0.0182452
777.482	0.0182552
777.560	0.0184435
777.638	0.0183699
777.716	0.0182980
777.794	0.0183245
777.872	0.0183077
777.950	0.0181632
778.029	0.0182171
778.107	0.0179599
778.185	0.0177122
778.263	0.0176357
778.341	0.0174752
778.419	0.0173356
778.497	0.0173851
778.575	0.0171750
778.654	0.0169160
778.732	0.0168868
778.810	0.0165598
778.888	0.0164857
778.966	0.0164851
779.044	0.0164198
779.122	0.0162183
779.200	0.0159939
779.279	0.0161689
779.357	0.0161032
779.435	0.0159599
779.513	0.0158659
779.591	0.0158484
779.669	0.0160188
779.747	0.0158328
779.825	0.0158940
779.904	0.0159364
779.982	0.0158293
780.060	0.0158858
780.138	0.0158571
780.216	0.0158949
780.294	0.0159031
780.372	0.0159540
780.450	0.0159587
780.529	0.0159599
780.607	0.0161118
780.685	0.0161039
780.763	0.0160521
780.841	0.0161069
780.919	0.0162972
780.997	0.0163988
781.075	0.0162768
781.154	0.0163184
781.232	0.0163717
781.310	0.0164189
781.388	0.0164072
781.466	0.0164075
781.544	0.0164446
781.622	0.0165945
781.700	0.0165473
781.779	0.0166584
781.857	0.0167648
781.935	0.0166698
782.013	0.0168709
782.091	0.0169905
782.169	0.0171066
782.247	0.0171415
782.325	0.0172053
782.404	0.0172792
782.482	0.0173159
782.560	0.0175403
782.638	0.0176463
782.716	0.0178063
782.794	0.0178864
782.872	0.0179021
782.950	0.0180591
783.029	0.0180087
783.107	0.0180821
783.185	0.0180324
783.263	0.0181414
783.341	0.0182545
783.419	0.0181444
783.497	0.0183298
783.575	0.0182087
783.654	0.0182372
783.732	0.0181602
783.810	0.0180327
783.888	0.0179693
783.966	0.0178742
784.044	0.0178301
784.122	0.0177378
784.200	0.0176576
784.279	0.0174104
784.357	0.0172918
784.435	0.0170809
784.513	0.0169558
784.591	0.0168581
784.669	0.0166147
784.747	0.0166167
784.825	0.0166437
784.904	0.0163178
784.982	0.0160854
785.060	0.0159925
785.138	0.0159274
785.216	0.0160589
785.294	0.0159661
785.372	0.0159168
785.450	0.0159052
785.529	0.0159268
785.607	0.0159882
785.685	0.0158189
785.763	0.0159029
785.841	0.0160485
785.919	0.0159610
785.997	0.0161115
786.075	0.0161516
786.154	0.0161973
786.232	0.0162816
786.310	0.0163465
786.388	0.0164703
786.466	0.0165838
786.544	0.0165801
786.622	0.0166015
786.700	0.0167039
786.779	0.0168015
786.857	0.0167310
786.935	0.0167288
787.013	0.0169115
787.091	0.0170582
787.169	0.0169770
787.247	0.0168732
787.325	0.0169464
787.404	0.0170276
787.482	0.0170239
787.560	0.0169451
787.638	0.0169784
787.716	0.0167991
787.794	0.0170087
787.872	0.0170444
787.950	0.0169687
788.029	0.0169377
788.107	0.0169698
788.185	0.0170460
788.263	0.0168981
788.341	0.0170126
788.419	0.0170872
788.497	0.0170601
788.575	0.0171436
788.654	0.0172298
788.732	0.0171819
788.810	0.0172554
788.888	0.0172209
788.966	0.0172253
789.044	0.0173251
789.122	0.0175567
789.200	0.0175392
789.279	0.0174469
789.357	0.0174653
789.435	0.0175761
789.513	0.0175686
789.591	0.0175362
789.669	0.0176180
789.747	0.0174696
789.825	0.0174469
789.904	0.0172386
789.982	0.0172142
790.060	0.0172655
790.138	0.0170447
790.216	0.0170033
790.294	0.0170327
790.372	0.0168488
790.450	0.0168114
790.529	0.0166228
790.607	0.0166415
790.685	0.0165671
790.763	0.0162440
790.841	0.0161591
790.919	0.0161419
790.997	0.0161278
791.075	0.0160751
791.154	0.0160799
791.232	0.0160696
791.310	0.0159976
791.388	0.0160431
791.466	0.0160271
791.544	0.0161011
791.622	0.0161386
791.700	0.0161624
791.779	0.0160792
791.857	0.0160616
791.935	0.0163628
792.013	0.0163382
792.091	0.0163458
792.169	0.0163911
792.247	0.0165195
792.325	0.0164119
792.404	0.0165884
792.482	0.0167094
792.560	0.0166129
792.638	0.0167645
792.716	0.0169709
792.794	0.0169884
792.872	0.0170302
792.950	0.0170996
793.029	0.0171737
793.107	0.0172915
793.185	0.0173716
793.263	0.0174059
793.341	0.0173206
793.419	0.0174388
793.497	0.0173689
793.575	0.0175022
793.654	0.0174292
793.732	0.0177010
793.810	0.0174816
793.888	0.0175472
793.966	0.0176418
794.044	0.0173576
794.122	0.0174857
794.200	0.0173369
794.279	0.0173888
794.357	0.0172427
794.435	0.0172154
794.513	0.0174174
794.591	0.0171568
794.669	0.0173311
794.747	0.0173008
794.825	0.0171225
794.904	0.0171288
794.982	0.0173053
795.060	0.0170840
795.138	0.0170924
795.216	0.0171119
795.294	0.0171436
795.372	0.0171317
795.450	0.0171535
795.529	0.0170950
795.607	0.0170624
795.685	0.0171379
795.763	0.0171337
795.841	0.0169398
795.919	0.0170182
795.997	0.0171115
796.075	0.0169331
796.154	0.0166031
796.232	0.0168670
796.310	0.0166951
796.388	0.0166145
796.466	0.0165272
796.544	0.0164895
796.622	0.0163711
796.700	0.0162793
796.779	0.0163093
796.857	0.0163204
796.935	0.0160998
797.013	0.0162176
797.091	0.0162836
797.169	0.0163482
797.247	0.0160236
797.325	0.0160811
797.404	0.0163313
797.482	0.0163860
797.560	0.0162951
797.638	0.0163460
797.716	0.0162805
797.794	0.0163389
797.872	0.0162595
797.950	0.0163612
798.029	0.0162485
798.107	0.0162593
798.185	0.0163610
798.263	0.0162907
798.341	0.0162782
798.419	0.0164756
798.497	0.0163857
798.575	0.0165018
798.654	0.0166593
798.732	0.0165736
798.810	0.0166265
798.888	0.0167191
798.966	0.0168799
799.044	0.0169054
799.122	0.0169566
799.200	0.0169977
799.279	0.0171047
799.357	0.0172803
799.435	0.0171739
799.513	0.0172891
799.591	0.0172530
799.669	0.0174397
799.747	0.0173962
799.825	0.0174840
799.904	0.0173761
799.982	0.0173788
800.060	0.0174614
800.138	0.0173139
800.216	0.0173600
800.294	0.0173383
800.372	0.0174503
800.450	0.0174847
800.529	0.0174369
800.607	0.0174531
800.685	0.0174960
800.763	0.0174827
800.841	0.0173221
800.919	0.0175214
800.997	0.0175933
801.075	0.0175066
801.154	0.0175829
801.232	0.0176746
801.310	0.0175774
801.388	0.0175848
801.466	0.0175192
801.544	0.0174217
801.622	0.0174223
801.700	0.0175550
801.779	0.0173389
801.857	0.0173037
801.935	0.0173440
802.013	0.0172295
802.091	0.0171880
802.169	0.0169456
802.247	0.0169707
802.325	0.0168564
802.404	0.0167067
802.482	0.0167010
802.560	0.0166369
802.638	0.0165607
802.716	0.0164984
802.794	0.0164596
802.872	0.0163487
802.950	0.0164631
803.029	0.0163468
803.107	0.0164032
803.185	0.0163129
803.263	0.0164024
803.341	0.0163923
803.419	0.0163949
803.497	0.0165017
803.575	0.0163807
803.654	0.0164715
803.732	0.0164417
803.810	0.0164526
803.888	0.0163503
803.966	0.0163994
804.044	0.0162897
804.122	0.0165177
804.200	0.0163818
804.279	0.0162313
804.357	0.0162274
804.435	0.0161868
804.513	0.0162958
804.591	0.0163755
804.669	0.0163070
804.747	0.0164041
804.825	0.0164632
804.904	0.0164337
804.982	0.0165118
805.060	0.0165427
805.138	0.0166352
805.216	0.0167185
805.294	0.0166220
805.372	0.0166377
805.450	0.0167036
805.529	0.0167230
805.607	0.0166067
805.685	0.0167709
805.763	0.0167396
805.841	0.0167528
805.919	0.0168742
805.997	0.0168329
806.075	0.0169879
806.154	0.0167892
806.232	0.0170007
806.310	0.0171682
806.388	0.0170582
806.466	0.0170895
806.544	0.0171605
806.622	0.0172305
806.700	0.0173969
806.779	0.0173794
806.857	0.0174649
806.935	0.0174834
807.013	0.0175468
807.091	0.0176594
807.169	0.0176460
807.247	0.0177985
807.325	0.0178871
807.404	0.0177292
807.482	0.0178094
807.560	0.0178278
807.638	0.0179020
807.716	0.0177904
807.794	0.0177678
807.872	0.0177663
807.950	0.0177045
808.029	0.0176545
808.107	0.0175945
808.185	0.0174392
808.263	0.0173595
808.341	0.0173104
808.419	0.0172581
808.497	0.0172408
808.575	0.0169989
808.654	0.0169002
808.732	0.0168884
808.810	0.0168571
808.888	0.0168303
808.966	0.0166615
809.044	0.0167934
809.122	0.0166047
809.200	0.0164288
809.279	0.0164629
809.357	0.0166097
809.435	0.0165422
809.513	0.0163778
809.591	0.0164614
809.669	0.0164111
809.747	0.0164481
809.825	0.0164427
809.904	0.0162692
809.982	0.0162624
810.060	0.0163351
810.138	0.0163993
810.216	0.0163421
810.294	0.0163631
810.372	0.0164702
810.450	0.0163836
810.529	0.0164178
810.607	0.0163624
810.685	0.0165532
810.763	0.0164742
810.841	0.0165216
810.919	0.0165876
810.997	0.0165514
811.075	0.0164863
811.154	0.0163488
811.232	0.0165590
811.310	0.0166374
811.388	0.0165457
811.466	0.0165351
811.544	0.0166671
811.622	0.0167165
811.700	0.0166006
811.779	0.0166644
811.857	0.0166604
811.935	0.0167486
812.013	0.0167919
812.091	0.0166274
812.169	0.0166737
812.247	0.0169295
812.325	0.0168802
812.404	0.0168650
812.482	0.0169653
812.560	0.0167703
812.638	0.0168830
812.716	0.0168943
812.794	0.0172548
812.872	0.0171420
812.950	0.0171696
813.029	0.0171967
813.107	0.0171501
813.185	0.0173078
813.263	0.0172471
813.341	0.0173589
813.419	0.0174584
813.497	0.0174304
813.575	0.0176038
813.654	0.0175657
813.732	0.0173560
813.810	0.0174552
813.888	0.0173704
813.966	0.0173714
814.044	0.0174363
814.122	0.0172084
814.200	0.0173066
814.279	0.0170484
814.357	0.0170386
814.435	0.0170512
814.513	0.0170771
814.591	0.0168204
814.669	0.0170243
814.747	0.0170504
814.825	0.0168713
814.904	0.0169189
814.982	0.0167753
815.060	0.0168995
815.138	0.0168642
815.216	0.0167925
815.294	0.0168144
815.372	0.0166450
815.450	0.0166209
815.529	0.0167600
815.607	0.0166276
815.685	0.0167953
815.763	0.0167271
815.841	0.0166284
815.919	0.0166735
815.997	0.0166695
816.075	0.0167126
816.154	0.0165521
816.232	0.0167339
816.310	0.0167642
816.388	0.0168557
816.466	0.0167168
816.544	0.0166415
816.622	0.0168969
816.700	0.0168365
816.779	0.0167648
816.857	0.0170527
816.935	0.0170206
817.013	0.0170490
817.091	0.0169944
817.169	0.0169893
817.247	0.0169388
817.325	0.0171062
817.404	0.0168063
817.482	0.0170783
817.560	0.0170827
817.638	0.0170849
817.716	0.0168469
817.794	0.0170037
817.872	0.0169654
817.950	0.0169217
818.029	0.0169119
818.107	0.0166628
818.185	0.0168867
818.263	0.0168664
818.341	0.0168722
818.419	0.0169492
818.497	0.0168618
818.575	0.0168579
818.654	0.0169945
818.732	0.0168967
818.810	0.0169529
818.888	0.0169859
818.966	0.0170885
819.044	0.0170370
819.122	0.0170984
819.200	0.0170055
819.279	0.0169533
819.357	0.0168855
819.435	0.0169268
819.513	0.0169843
819.591	0.0169399
819.669	0.0168317
819.747	0.0169064
819.825	0.0169249
819.904	0.0169335
819.982	0.0167067
820.060	0.0167728
820.138	0.0167196
820.216	0.0167760
820.294	0.0167420
820.372	0.0167260
820.450	0.0166489
820.529	0.0166489
820.607	0.0166850
820.685	0.0167931
820.763	0.0164117
820.841	0.0166937
820.919	0.0165826
820.997	0.0164761
821.075	0.0167381
821.154	0.0166855
821.232	0.0165634
821.310	0.0165549
821.388	0.0166280
821.466	0.0166563
821.544	0.0165557
821.622	0.0166129
821.700	0.0167131
821.779	0.0167238
821.857	0.0167117
821.935	0.0167347
822.013	0.0167431
822.091	0.0168568
822.169	0.0169353
822.247	0.0168640
822.325	0.0168224
822.404	0.0170388
822.482	0.0170126
822.560	0.0170607
822.638	0.0173023
822.716	0.0171500
822.794	0.0172690
822.872	0.0172350
822.950	0.0173904
823.029	0.0173035
823.107	0.0172508
823.185	0.0171258
823.263	0.0173167
823.341	0.0173106
823.419	0.0172296
823.497	0.0173696
823.575	0.0173335
823.654	0.0173860
823.732	0.0172124
823.810	0.0173335
823.888	0.0172264
823.966	0.0170336
824.044	0.0171625
824.122	0.0172431
824.200	0.0170709
824.279	0.0170947
824.357	0.0170750
824.435	0.0168283
824.513	0.0168488
824.591	0.0169650
824.669	0.0170412
824.747	0.0169220
824.825	0.0170184
824.904	0.0168955
824.982	0.0170228
825.060	0.0170517
825.138	0.0170283
825.216	0.0170422
825.294	0.0167650
825.372	0.0169067
825.450	0.0170007
825.529	0.0169989
825.607	0.0169164
825.685	0.0168775
825.763	0.0167149
825.841	0.0168360
825.919	0.0167548
825.997	0.0167836
826.075	0.0166250
826.154	0.0165601
826.232	0.0166019
826.310	0.0165646
826.388	0.0165310
826.466	0.0164847
826.544	0.0164507
826.622	0.0164781
826.700	0.0164452
826.779	0.0164362
826.857	0.0163993
826.935	0.0163736
827.013	0.0164372
827.091	0.0164592
827.169	0.0164786
827.247	0.0163082
827.325	0.0164870
827.404	0.0164961
827.482	0.0164294
827.560	0.0164908
827.638	0.0163908
827.716	0.0164550
827.794	0.0167151
827.872	0.0164990
827.950	0.0165097
828.029	0.0165810
828.107	0.0165985
828.185	0.0166339
828.263	0.0167113
828.341	0.0169522
828.419	0.0168674
828.497	0.0169325
828.575	0.0170638
828.654	0.0171363
828.732	0.0172651
828.810	0.0172236
828.888	0.0172458
828.966	0.0174336
829.044	0.0172996
829.122	0.0174516
829.200	0.0174447
829.279	0.0174047
829.357	0.0174649
829.435	0.0173457
829.513	0.0173550
829.591	0.0174840
829.669	0.0172279
829.747	0.0172347
829.825	0.0174109
829.904	0.0173249
829.982	0.0172548
830.060	0.0171616
830.138	0.0172527
830.216	0.0172884
830.294	0.0171848
830.372	0.0172815
830.450	0.0171676
830.529	0.0170318
830.607	0.0171472
830.685	0.0172540
830.763	0.0170645
830.841	0.0170300
830.919	0.0170998
830.997	0.0172363
831.075	0.0170112
831.154	0.0169312
831.232	0.0171413
831.310	0.0169424
831.388	0.0169865
831.466	0.0168979
831.544	0.0169231
831.622	0.0168296
831.700	0.0167262
831.779	0.0168185
831.857	0.0166122
831.935	0.0165538
832.013	0.0165923
832.091	0.0165887
832.169	0.0166736
832.247	0.0166523
832.325	0.0164953
832.404	0.0165565
832.482	0.0166003
832.560	0.0166180
832.638	0.0166441
832.716	0.0165004
832.794	0.0165318
832.872	0.0166881
832.950	0.0166023
833.029	0.0166601
833.107	0.0168116
833.185	0.0167232
833.263	0.0166702
833.341	0.0166877
833.419	0.0166575
833.497	0.0168463
833.575	0.0166820
833.654	0.0166577
833.732	0.0167053
833.810	0.0166961
833.888	0.0166603
833.966	0.0166616
834.044	0.0166185
834.122	0.0166147
834.200	0.0166459
834.279	0.0166776
834.357	0.0167554
834.435	0.0168459
834.513	0.0167226
834.591	0.0167272
834.669	0.0168159
834.747	0.0169741
834.825	0.0168275
834.904	0.0169317
834.982	0.0169730
835.060	0.0168990
835.138	0.0169544
835.216	0.0169453
835.294	0.0170806
835.372	0.0170265
835.450	0.0171357
835.529	0.0170061
835.607	0.0169626
835.685	0.0170728
835.763	0.0170532
835.841	0.0170673
835.919	0.0170388
835.997	0.0169844
836.075	0.0168927
836.154	0.0170425
836.232	0.0169801
836.310	0.0169564
836.388	0.0169992
836.466	0.0169214
836.544	0.0170135
836.622	0.0170933
836.700	0.0171338
836.779	0.0170643
836.857	0.0172523
836.935	0.0170765
837.013	0.0171878
837.091	0.0172657
837.169	0.0172350
837.247	0.0171898
837.325	0.0172911
837.404	0.0172371
837.482	0.0171310
837.560	0.0169243
837.638	0.0170155
837.716	0.0170582
837.794	0.0169650
837.872	0.0169349
837.950	0.0169682
838.029	0.0168539
838.107	0.0168647
838.185	0.0168766
838.263	0.0169618
838.341	0.0168423
838.419	0.0167709
838.497	0.0167522
838.575	0.0168280
838.654	0.0167388
838.732	0.0166816
838.810	0.0168182
838.888	0.0168696
838.966	0.0167760
839.044	0.0167031
839.122	0.0167838
839.200	0.0168406
839.279	0.0167363
839.357	0.0166650
839.435	0.0167171
839.513	0.0168354
839.591	0.0169333
839.669	0.0167027
839.747	0.0167128
839.825	0.0168410
839.904	0.0168272
839.982	0.0168054
840.060	0.0168526
840.138	0.0169118
840.216	0.0167140
840.294	0.0169583
840.372	0.0169257
840.450	0.0170179
840.529	0.0170426
840.607	0.0170280
840.685	0.0170741
840.763	0.0170145
840.841	0.0170481
840.919	0.0171858
840.997	0.0172095
841.075	0.0170458
841.154	0.0170313
841.232	0.0169701
841.310	0.0170329
841.388	0.0170527
841.466	0.0169569
841.544	0.0169441
841.622	0.0169212
841.700	0.0170000
841.779	0.0171230
841.857	0.0170277
841.935	0.0169543
842.013	0.0170724
842.091	0.0169358
842.169	0.0170162
842.247	0.0169912
842.325	0.0170576
842.404	0.0172224
842.482	0.0170748
842.560	0.0170495
842.638	0.0171314
842.716	0.0169495
842.794	0.0170175
842.872	0.0170338
842.950	0.0169127
843.029	0.0168827
843.107	0.0170045
843.185	0.0170316
843.263	0.0169930
843.341	0.0168605
843.419	0.0170814
843.497	0.0168195
843.575	0.0167381
843.654	0.0168996
843.732	0.0167947
843.810	0.0169859
843.888	0.0169872
843.966	0.0169700
844.044	0.0170832
844.122	0.0170217
844.200	0.0170169
844.279	0.0168982
844.357	0.0169390
844.435	0.0170272
844.513	0.0169593
844.591	0.0169846
844.669	0.0169479
844.747	0.0168611
844.825	0.0168978
844.904	0.0168570
844.982	0.0167773
845.060	0.0168073
845.138	0.0168353
845.216	0.0168471
845.294	0.0169096
845.372	0.0168878
845.450	0.0168100
845.529	0.0167313
845.607	0.0168209
845.685	0.0167510
845.763	0.0167876
845.841	0.0166436
845.919	0.0166715
845.997	0.0166982
846.075	0.0167359
846.154	0.0168308
846.232	0.0168057
846.310	0.0167768
846.388	0.0168371
846.466	0.0169509
846.544	0.0169196
846.622	0.0171207
846.700	0.0170042
846.779	0.0169946
846.857	0.0171028
846.935	0.0171247
847.013	0.0172068
847.091	0.0172921
847.169	0.0171016
847.247	0.0172033
847.325	0.0173313
847.404	0.0173133
847.482	0.0172002
847.560	0.0173583
847.638	0.0171425
847.716	0.0173522
847.794	0.0172303
847.872	0.0171808
847.950	0.0171859
848.029	0.0170637
848.107	0.0170022
848.185	0.0168270
848.263	0.0167725
848.341	0.0168216
848.419	0.0167539
848.497	0.0166058
848.575	0.0166893
848.654	0.0166393
848.732	0.0167370
848.810	0.0168694
848.888	0.0169546
848.966	0.0167391
849.044	0.0168179
849.122	0.0168861
849.200	0.0169579
849.279	0.0168029
849.357	0.0169196
849.435	0.0169063
849.513	0.0168518
849.591	0.0166962
849.669	0.0168074
849.747	0.0167866
849.825	0.0167716
849.904	0.0168848
849.982	0.0169473
850.060	0.0170228
850.138	0.0170405
850.216	0.0169483
850.294	0.0168005
850.372	0.0170014
850.450	0.0170077
850.529	0.0170763
850.607	0.0169853
850.685	0.0168812
850.763	0.0169172
850.841	0.0168523
850.919	0.0165918
850.997	0.0165567
851.075	0.0165271
851.154	0.0167146
851.232	0.0165806
851.310	0.0164288
851.388	0.0165739
851.466	0.0164650
851.544	0.0165871
851.622	0.0166412
851.700	0.0167938
851.779	0.0168723
851.857	0.0168370
851.935	0.0169718
852.013	0.0171220
852.091	0.0170922
852.169	0.0171654
852.247	0.0171520
852.325	0.0172981
852.404	0.0172504
852.482	0.0172200
852.560	0.0171194
852.638	0.0170602
852.716	0.0171635
852.794	0.0171780
852.872	0.0170599
852.950	0.0170341
853.029	0.0171361
853.107	0.0170399
853.185	0.0171947
853.263	0.0173604
853.341	0.0173574
853.419	0.0170999
853.497	0.0172970
853.575	0.0172700
853.654	0.0171955
853.732	0.0171542
853.810	0.0170837
853.888	0.0170934
853.966	0.0169827
854.044	0.0168527
854.122	0.0168718
854.200	0.0168697
854.279	0.0167033
854.357	0.0165875
854.435	0.0165578
854.513	0.0165967
854.591	0.0165766
854.669	0.0166924
854.747	0.0165415
854.825	0.0166236
854.904	0.0167055
854.982	0.0168298
855.060	0.0167214
855.138	0.0168027
855.216	0.0167387
855.294	0.0168076
855.372	0.0168867
855.450	0.0170033
855.529	0.0169942
855.607	0.0168782
855.685	0.0167353
855.763	0.0168757
855.841	0.0169566
855.919	0.0168436
855.997	0.0167159
856.075	0.0170383
856.154	0.0167117
856.232	0.0166869
856.310	0.0169511
856.388	0.0169444
856.466	0.0170460
856.544	0.0169230
856.622	0.0168176
856.700	0.0169280
856.779	0.0168867
856.857	0.0170000
856.935	0.0169209
857.013	0.0168687
857.091	0.0168811
857.169	0.0169909
857.247	0.0169467
857.325	0.0169814
857.404	0.0170416
857.482	0.0170981
857.560	0.0172802
857.638	0.0171511
857.716	0.0172881
857.794	0.0172478
857.872	0.0172732
857.950	0.0172276
858.029	0.0171980
858.107	0.0172671
858.185	0.0172285
858.263	0.0170823
858.341	0.0170681
858.419	0.0169882
858.497	0.0169009
858.575	0.0168549
858.654	0.0167779
858.732	0.0167356
858.810	0.0167235
858.888	0.0166026
858.966	0.0165504
859.044	0.0164012
859.122	0.0164524
859.200	0.0164887
859.279	0.0164362
859.357	0.0163752
859.435	0.0164212
859.513	0.0163796
859.591	0.0162542
859.669	0.0165181
859.747	0.0165611
859.825	0.0164414
859.904	0.0164712
859.982	0.0167449
860.060	0.0168745
860.138	0.0170447
860.216	0.0169118
860.294	0.0170747
860.372	0.0171208
860.450	0.0170919
860.529	0.0171284
860.607	0.0171956
860.685	0.0172223
860.763	0.0172701
860.841	0.0173477
860.919	0.0172839
860.997	0.0172611
861.075	0.0173273
861.154	0.0173565
861.232	0.0172850
861.310	0.0172808
861.388	0.0173512
861.466	0.0173331
861.544	0.0172205
861.622	0.0171188
861.700	0.0170432
861.779	0.0171190
861.857	0.0171655
861.935	0.0169082
862.013	0.0168555
862.091	0.0170307
862.169	0.0169098
862.247	0.0167854
862.325	0.0168763
862.404	0.0168159
862.482	0.0167704
862.560	0.0168390
862.638	0.0169759
862.716	0.0170255
862.794	0.0169765
862.872	0.0170338
862.950	0.0169950
863.029	0.0169863
863.107	0.0169994
863.185	0.0170193
863.263	0.0169993
863.341	0.0169919
863.419	0.0169311
863.497	0.0168551
863.575	0.0169626
863.654	0.0167757
863.732	0.0166395
863.810	0.0169053
863.888	0.0167905
863.966	0.0165486
864.044	0.0166820
864.122	0.0167664
864.200	0.0167390
864.279	0.0167440
864.357	0.0167536
864.435	0.0166885
864.513	0.0166118
864.591	0.0166006
864.669	0.0166049
864.747	0.0164778
864.825	0.0164314
864.904	0.0166291
864.982	0.0166724
865.060	0.0166154
865.138	0.0164657
865.216	0.0166074
865.294	0.0166047
865.372	0.0167667
865.450	0.0168417
865.529	0.0170237
865.607	0.0172443
865.685	0.0170872
865.763	0.0171166
865.841	0.0172117
865.919	0.0174405
865.997	0.0174818
866.075	0.0174497
866.154	0.0173646
866.232	0.0173189
866.310	0.0174084
866.388	0.0172684
866.466	0.0171587
866.544	0.0173546
866.622	0.0172954
866.700	0.0171300
866.779	0.0172119
866.857	0.0171137
866.935	0.0171711
867.013	0.0172568
867.091	0.0169911
867.169	0.0171356
867.247	0.0171777
867.325	0.0171195
867.404	0.0170513
867.482	0.0169398
867.560	0.0169020
867.638	0.0169295
867.716	0.0169805
867.794	0.0168504
867.872	0.0167989
867.950	0.0166872
868.029	0.0167250
868.107	0.0167616
868.185	0.0167407
868.263	0.0168604
868.341	0.0168349
868.419	0.0167649
868.497	0.0168879
868.575	0.0170068
868.654	0.0169893
868.732	0.0170467
868.810	0.0173368
868.888	0.0173145
868.966	0.0171354
869.044	0.0172488
869.122	0.0173125
869.200	0.0171233
869.279	0.0172980
869.357	0.0172300
869.435	0.0171512
869.513	0.0169314
869.591	0.0169497
869.669	0.0168726
869.747	0.0167664
869.825	0.0167883
869.904	0.0169071
869.982	0.0167049
870.060	0.0165398
870.138	0.0164783
870.216	0.0167624
870.294	0.0166798
870.372	0.0166414
870.450	0.0165485
870.529	0.0166124
870.607	0.0165227
870.685	0.0165340
870.763	0.0163805
870.841	0.0163705
870.919	0.0163480
870.997	0.0164664
871.075	0.0164487
871.154	0.0166116
871.232	0.0165639
871.310	0.0165670
871.388	0.0168102
871.466	0.0167127
871.544	0.0168382
871.622	0.0170372
871.700	0.0171262
871.779	0.0171486
871.857	0.0171495
871.935	0.0173472
872.013	0.0174312
872.091	0.0173338
872.169	0.0172942
872.247	0.0174022
872.325	0.0174632
872.404	0.0174061
872.482	0.0173526
872.560	0.0175243
872.638	0.0174190
872.716	0.0173981
872.794	0.0173083
872.872	0.0173310
872.950	0.0173428
873.029	0.0170971
873.107	0.0171377
873.185	0.0170657
873.263	0.0169543
873.341	0.0168772
873.419	0.0167713
873.497	0.0167081
873.575	0.0166023
873.654	0.0165693
873.732	0.0164133
873.810	0.0166120
873.888	0.0165548
873.966	0.0165405
874.044	0.0165348
874.122	0.0165804
874.200	0.0166931
874.279	0.0167159
874.357	0.0168418
874.435	0.0169026
874.513	0.0170029
874.591	0.0171066
874.669	0.0170792
874.747	0.0172172
874.825	0.0170998
874.904	0.0170067
874.982	0.0172179
875.060	0.0171639
875.138	0.0172774
875.216	0.0170467
875.294	0.0170139
875.372	0.0171842
875.450	0.0171712
875.529	0.0168202
875.607	0.0167622
875.685	0.0167542
875.763	0.0167529
875.841	0.0167535
875.919	0.0166556
875.997	0.0167489
876.075	0.0165936
876.154	0.0166913
876.232	0.0166242
876.310	0.0166659
876.388	0.0165491
876.466	0.0165256
876.544	0.0165816
876.622	0.0165275
876.700	0.0164359
876.779	0.0165546
876.857	0.0164524
876.935	0.0164642
877.013	0.0164310
877.091	0.0165840
877.169	0.0167663
877.247	0.0166132
877.325	0.0167457
877.404	0.0167830
877.482	0.0171041
877.560	0.0170358
877.638	0.0170854
877.716	0.0172060
877.794	0.0172499
877.872	0.0174951
877.950	0.0174324
878.029	0.0173127
878.107	0.0175497
878.185	0.0173251
878.263	0.0172794
878.341	0.0173808
878.419	0.0174521
878.497	0.0172982
878.575	0.0172842
878.654	0.0172683
878.732	0.0170792
878.810	0.0171798
878.888	0.0170785
878.966	0.0168665
879.044	0.0169832
879.122	0.0168877
879.200	0.0167577
879.279	0.0167725
879.357	0.0168179
879.435	0.0166099
879.513	0.0165056
879.591	0.0165328
879.669	0.0164465
879.747	0.0164799
879.825	0.0163735
879.904	0.0163956
879.982	0.0165383
880.060	0.0166251
880.138	0.0166476
880.216	0.0167937
880.294	0.0167534
880.372	0.0168599
880.450	0.0169440
880.529	0.0170119
880.607	0.0170775
880.685	0.0171434
880.763	0.0172372
880.841	0.0170879
880.919	0.0172373
880.997	0.0170152
881.075	0.0171005
881.154	0.0171008
881.232	0.0170071
881.310	0.0170203
881.388	0.0170016
881.466	0.0169559
881.544	0.0169440
881.622	0.0169461
881.700	0.0168465
881.779	0.0169257
881.857	0.0169615
881.935	0.0169494
882.013	0.0171114
882.091	0.0170617
882.169	0.0170147
882.247	0.0170631
882.325	0.0170042
882.404	0.0168912
882.482	0.0168147
882.560	0.0168792
882.638	0.0167867
882.716	0.0167598
882.794	0.0167200
882.872	0.0165594
882.950	0.0164262
883.029	0.0163378
883.107	0.0163595
883.185	0.0163240
883.263	0.0163748
883.341	0.0164564
883.419	0.0164325
883.497	0.0165678
883.575	0.0166401
883.654	0.0167321
883.732	0.0168332
883.810	0.0169382
883.888	0.0169476
883.966	0.0170815
884.044	0.0170798
884.122	0.0171616
884.200	0.0170886
884.279	0.0171555
884.357	0.0172564
884.435	0.0172495
884.513	0.0171703
884.591	0.0171166
884.669	0.0171245
884.747	0.0169551
884.825	0.0168705
884.904	0.0169255
884.982	0.0168076
885.060	0.0168081
885.138	0.0167577
885.216	0.0167142
885.294	0.0168102
885.372	0.0168398
885.450	0.0166970
885.529	0.0166268
885.607	0.0166437
885.685	0.0167470
885.763	0.0167184
885.841	0.0167682
885.919	0.0167638
885.997	0.0167804
886.075	0.0168990
886.154	0.0168429
886.232	0.0166543
886.310	0.0168973
886.388	0.0170821
886.466	0.0170593
886.544	0.0170808
886.622	0.0171101
886.700	0.0172141
886.779	0.0173717
886.857	0.0172539
886.935	0.0172906
887.013	0.0171528
887.091	0.0173103
887.169	0.0171333
887.247	0.0171842
887.325	0.0172343
887.404	0.0172015
887.482	0.0170341
887.560	0.0169409
887.638	0.0169525
887.716	0.0170916
887.794	0.0170802
887.872	0.0170290
887.950	0.0170412
888.029	0.0171162
888.107	0.0169527
888.185	0.0170794
888.263	0.0170107
888.341	0.0170373
888.419	0.0168855
888.497	0.0167828
888.575	0.0167297
888.654	0.0167339
888.732	0.0166824
888.810	0.0163709
888.888	0.0164713
888.966	0.0162376
889.044	0.0162135
889.122	0.0161540
889.200	0.0163412
889.279	0.0163729
889.357	0.0162495
889.435	0.0163581
889.513	0.0164523
889.591	0.0165938
889.669	0.0167567
889.747	0.0166932
889.825	0.0168187
889.904	0.0169720
889.982	0.0170638
890.060	0.0170805
890.138	0.0170277
890.216	0.0172726
890.294	0.0173254
890.372	0.0171603
890.450	0.0172527
890.529	0.0173088
890.607	0.0173444
890.685	0.0171380
890.763	0.0172832
890.841	0.0172676
890.919	0.0169986
890.997	0.0171093
891.075	0.0169674
891.154	0.0169836
891.232	0.0170213
891.310	0.0168771
891.388	0.0168204
891.466	0.0169721
891.544	0.0170273
891.622	0.0170304
891.700	0.0169859
891.779	0.0170917
891.857	0.0170975
891.935	0.0170501
892.013	0.0169974
892.091	0.0170632
892.169	0.0171613
892.247	0.0169858
892.325	0.0170990
892.404	0.0172043
892.482	0.0171020
892.560	0.0171043
892.638	0.0171555
892.716	0.0171754
892.794	0.0170673
892.872	0.0171257
892.950	0.0171066
893.029	0.0170456
893.107	0.0170268
893.185	0.0170959
893.263	0.0170373
893.341	0.0169993
893.419	0.0168081
893.497	0.0167389
893.575	0.0167725
893.654	0.0168096
893.732	0.0167528
893.810	0.0168008
893.888	0.0168577
893.966	0.0168797
894.044	0.0166811
894.122	0.0168444
894.200	0.0167689
894.279	0.0168459
894.357	0.0167854
894.435	0.0168937
894.513	0.0167702
894.591	0.0168072
894.669	0.0167335
894.747	0.0168471
894.825	0.0166100
894.904	0.0166055
894.982	0.0166607
895.060	0.0165852
895.138	0.0165215
895.216	0.0165364
895.294	0.0165271
895.372	0.0166042
895.450	0.0165978
895.529	0.0166972
895.607	0.0166102
895.685	0.0166898
895.763	0.0167862
895.841	0.0167904
895.919	0.0168961
895.997	0.0169860
896.075	0.0170366
896.154	0.0170574
896.232	0.0170818
896.310	0.0171056
896.388	0.0169723
896.466	0.0170404
896.544	0.0169952
896.622	0.0170142
896.700	0.0169349
896.779	0.0169418
896.857	0.0169402
896.935	0.0168845
897.013	0.0168918
897.091	0.0169640
897.169	0.0169575
897.247	0.0167756
897.325	0.0168818
897.404	0.0168543
897.482	0.0170521
897.560	0.0168854
897.638	0.0169703
897.716	0.0169912
897.794	0.0170411
897.872	0.0170181
897.950	0.0170457
898.029	0.0169920
898.107	0.0170951
898.185	0.0170872
898.263	0.0172009
898.341	0.0171076
898.419	0.0172386
898.497	0.0171869
898.575	0.0170789
898.654	0.0169779
898.732	0.0169982
898.810	0.0170574
898.888	0.0169922
898.966	0.0168842
899.044	0.0168787
899.122	0.0169341
899.200	0.0168063
899.279	0.0167301
899.357	0.0167257
899.435	0.0167908
899.513	0.0167421
899.591	0.0168481
899.669	0.0168186
899.747	0.0169305
899.825	0.0168132
899.904	0.0169096
899.982	0.0171622
900.060	0.0169128
900.138	0.0169650
900.216	0.0170816
900.294	0.0170669
900.372	0.0169991
900.450	0.0169140
900.529	0.0170657
900.607	0.0170193
900.685	0.0169025
900.763	0.0168626
900.841	0.0168998
900.919	0.0167513
900.997	0.0167719
901.075	0.0168184
901.154	0.0166602
901.232	0.0166179
901.310	0.0167332
901.388	0.0165891
901.466	0.0165792
901.544	0.0167891
901.622	0.0168005
901.700	0.0166757
901.779	0.0168947
901.857	0.0167714
901.935	0.0168143
902.013	0.0169253
902.091	0.0168109
902.169	0.0168214
902.247	0.0168634
902.325	0.0169152
902.404	0.0168567
902.482	0.0167140
902.560	0.0168411
902.638	0.0166394
902.716	0.0167514
902.794	0.0166398
902.872	0.0167635
902.950	0.0167480
903.029	0.0166174
903.107	0.0166870
903.185	0.0167886
903.263	0.0167942
903.341	0.0167551
903.419	0.0167831
903.497	0.0169423
903.575	0.0168816
903.654	0.0168759
903.732	0.0168945
903.810	0.0170947
903.888	0.0169526
903.966	0.0170095
904.044	0.0169865
904.122	0.0171297
904.200	0.0169697
904.279	0.0168699
904.357	0.0170021
904.435	0.0170712
904.513	0.0171339
904.591	0.0170878
904.669	0.0171767
904.747	0.0170815
904.825	0.0172443
904.904	0.0171748
904.982	0.0170306
905.060	0.0171194
905.138	0.0171772
905.216	0.0171109
905.294	0.0171511
905.372	0.0170687
905.450	0.0170343
905.529	0.0171789
905.607	0.0172215
905.685	0.0172318
905.763	0.0170820
905.841	0.0170202
905.919	0.0171516
905.997	0.0170773
906.075	0.0170464
906.154	0.0169841
906.232	0.0169153
906.310	0.0169648
906.388	0.0168422
906.466	0.0167697
906.544	0.0167718
906.622	0.0166577
906.700	0.0167420
906.779	0.0166187
906.857	0.0166290
906.935	0.0167249
907.013	0.0165206
907.091	0.0166840
907.169	0.0166331
907.247	0.0166047
907.325	0.0165232
907.404	0.0165316
907.482	0.0166246
907.560	0.0168012
907.638	0.0167593
907.716	0.0167453
907.794	0.0168122
907.872	0.0166663
907.950	0.0167455
908.029	0.0167985
908.107	0.0168790
908.185	0.0169372
908.263	0.0169032
908.341	0.0168048
908.419	0.0169093
908.497	0.0169437
908.575	0.0169559
908.654	0.0168304
908.732	0.0170390
908.810	0.0167986
908.888	0.0169462
908.966	0.0168585
909.044	0.0168447
909.122	0.0168790
909.200	0.0168877
909.279	0.0169503
909.357	0.0169083
909.435	0.0168782
909.513	0.0167403
909.591	0.0168707
909.669	0.0167656
909.747	0.0169322
909.825	0.0169510
909.904	0.0170090
909.982	0.0169235
910.060	0.0169797
910.138	0.0169523
910.216	0.0168957
910.294	0.0170592
910.372	0.0170516
910.450	0.0169727
910.529	0.0169958
910.607	0.0171062
910.685	0.0170671
910.763	0.0170853
910.841	0.0170893
910.919	0.0170330
910.997	0.0170973
911.075	0.0171136
911.154	0.0171002
911.232	0.0170732
911.310	0.0171102
911.388	0.0170658
911.466	0.0171331
911.544	0.0170264
911.622	0.0170207
911.700	0.0171780
911.779	0.0171110
911.857	0.0170159
911.935	0.0170350
912.013	0.0170574
912.091	0.0169429
912.169	0.0168320
912.247	0.0168621
912.325	0.0168024
912.404	0.0167502
912.482	0.0168056
912.560	0.0167271
912.638	0.0167115
912.716	0.0167721
912.794	0.0166878
912.872	0.0167559
912.950	0.0167191
913.029	0.0167703
913.107	0.0167438
913.185	0.0169122
913.263	0.0168233
913.341	0.0167428
913.419	0.0167907
913.497	0.0168754
913.575	0.0168824
913.654	0.0169038
913.732	0.0170630
913.810	0.0170142
913.888	0.0169645
913.966	0.0169947
914.044	0.0170789
914.122	0.0171451
914.200	0.0171441
914.279	0.0169088
914.357	0.0169568
914.435	0.0170303
914.513	0.0170883
914.591	0.0169785
914.669	0.0169173
914.747	0.0168837
914.825	0.0170061
914.904	0.0169430
914.982	0.0168256
915.060	0.0169884
915.138	0.0168585
915.216	0.0169736
915.294	0.0169345
915.372	0.0168663
915.450	0.0168130
915.529	0.0167892
915.607	0.0167653
915.685	0.0169054
915.763	0.0169956
915.841	0.0169025
915.919	0.0167088
915.997	0.0168569
916.075	0.0169517
916.154	0.0170680
916.232	0.0170950
916.310	0.0169814
916.388	0.0168850
916.466	0.0170074
916.544	0.0168159
916.622	0.0169643
916.700	0.0169739
916.779	0.0171130
916.857	0.0169073
916.935	0.0169083
917.013	0.0169306
917.091	0.0167442
917.169	0.0169758
917.247	0.0168877
917.325	0.0167409
917.404	0.0167896
917.482	0.0169969
917.560	0.0168219
917.638	0.0166743
917.716	0.0165921
917.794	0.0167435
917.872	0.0168089
917.950	0.0168147
918.029	0.0167132
918.107	0.0166927
918.185	0.0166766
918.263	0.0166638
918.341	0.0166537
918.419	0.0167239
918.497	0.0167809
918.575	0.0167936
918.654	0.0165881
918.732	0.0166547
918.810	0.0167743
918.888	0.0167662
918.966	0.0169447
919.044	0.0168754
919.122	0.0168187
919.200	0.0169607
919.279	0.0168884
919.357	0.0169337
919.435	0.0170411
919.513	0.0172166
919.591	0.0170894
919.669	0.0170592
919.747	0.0169885
919.825	0.0170129
919.904	0.0170650
