06/01/2022	17:29:45	Ver.	4.1	UNKNOWN
Optical Delay	599.975067	Delta X		0.078125	Sweeps	1	Scan Rate	0/0
Coordinates	Axis 1	NaN	Axis 2	NaN	Axis 3	NaN	Axis 4	NaN	Axis 5	NaN	Axis 6	0.000000
TX Power	0.000000	RX Power	0.000000

599.975	0.0172861
600.053	0.0173712
600.131	0.0172264
600.209	0.0173124
600.288	0.0173309
600.366	0.0173463
600.444	0.0172908
600.522	0.0172307
600.600	0.0173662
600.678	0.0173215
600.756	0.0174220
600.834	0.0172369
600.913	0.0171945
600.991	0.0172879
601.069	0.0173641
601.147	0.0172047
601.225	0.0171824
601.303	0.0172044
601.381	0.0174261
601.459	0.0172555
601.538	0.0172820
601.616	0.0172471
601.694	0.0172755
601.772	0.0172301
601.850	0.0172717
601.928	0.0172366
602.006	0.0172786
602.084	0.0173176
602.163	0.0173018
602.241	0.0173490
602.319	0.0172668
602.397	0.0173120
602.475	0.0175116
602.553	0.0173214
602.631	0.0171574
602.709	0.0174407
602.788	0.0173713
602.866	0.0172407
602.944	0.0172179
603.022	0.0172581
603.100	0.0172358
603.178	0.0172555
603.256	0.0173034
603.334	0.0173126
603.413	0.0174277
603.491	0.0173668
603.569	0.0172976
603.647	0.0172868
603.725	0.0172142
603.803	0.0171825
603.881	0.0173052
603.959	0.0175089
604.038	0.0174030
604.116	0.0171832
604.194	0.0172647
604.272	0.0173096
604.350	0.0173081
604.428	0.0174236
604.506	0.0172308
604.584	0.0172606
604.663	0.0173575
604.741	0.0174258
604.819	0.0173956
604.897	0.0173685
604.975	0.0173821
605.053	0.0173105
605.131	0.0174196
605.209	0.0174684
605.288	0.0173589
605.366	0.0173950
605.444	0.0173755
605.522	0.0173902
605.600	0.0173219
605.678	0.0172964
605.756	0.0172327
605.834	0.0175239
605.913	0.0173557
605.991	0.0173700
606.069	0.0174397
606.147	0.0173086
606.225	0.0172192
606.303	0.0173645
606.381	0.0174345
606.459	0.0173548
606.538	0.0173554
606.616	0.0173809
606.694	0.0174155
606.772	0.0174196
606.850	0.0174077
606.928	0.0172012
607.006	0.0173534
607.084	0.0173413
607.163	0.0172495
607.241	0.0173384
607.319	0.0171484
607.397	0.0172069
607.475	0.0172735
607.553	0.0172643
607.631	0.0172852
607.709	0.0174404
607.788	0.0174497
607.866	0.0172326
607.944	0.0173478
608.022	0.0173026
608.100	0.0173181
608.178	0.0172669
608.256	0.0173766
608.334	0.0174377
608.413	0.0173414
608.491	0.0173479
608.569	0.0174513
608.647	0.0172410
608.725	0.0173141
608.803	0.0173800
608.881	0.0173502
608.959	0.0173508
609.038	0.0171161
609.116	0.0172727
609.194	0.0173879
609.272	0.0173649
609.350	0.0172534
609.428	0.0173023
609.506	0.0172089
609.584	0.0172388
609.663	0.0173555
609.741	0.0171961
609.819	0.0173468
609.897	0.0172729
609.975	0.0172141
610.053	0.0172266
610.131	0.0172841
610.209	0.0172963
610.288	0.0173568
610.366	0.0174874
610.444	0.0172479
610.522	0.0171609
610.600	0.0173071
610.678	0.0172762
610.756	0.0174404
610.834	0.0173985
610.913	0.0173695
610.991	0.0173789
611.069	0.0172564
611.147	0.0172754
611.225	0.0173254
611.303	0.0173376
611.381	0.0173088
611.459	0.0173978
611.538	0.0173029
611.616	0.0173683
611.694	0.0175169
611.772	0.0172908
611.850	0.0173225
611.928	0.0174072
612.006	0.0174375
612.084	0.0172739
612.163	0.0173489
612.241	0.0172771
612.319	0.0172809
612.397	0.0172582
612.475	0.0173535
612.553	0.0173358
612.631	0.0173392
612.709	0.0171265
612.788	0.0172553
612.866	0.0174552
612.944	0.0172576
613.022	0.0173191
613.100	0.0173918
613.178	0.0173207
613.256	0.0173942
613.334	0.0173993
613.413	0.0172052
613.491	0.0171923
613.569	0.0174695
613.647	0.0173480
613.725	0.0172644
613.803	0.0173755
613.881	0.0173165
613.959	0.0173040
614.038	0.0173531
614.116	0.0173605
614.194	0.0173813
614.272	0.0172845
614.350	0.0172855
614.428	0.0173412
614.506	0.0172535
614.584	0.0172257
614.663	0.0172714
614.741	0.0172361
614.819	0.0171852
614.897	0.0173087
614.975	0.0173102
615.053	0.0172549
615.131	0.0173196
615.209	0.0173456
615.288	0.0173354
615.366	0.0173521
615.444	0.0172523
615.522	0.0171780
615.600	0.0174180
615.678	0.0173305
615.756	0.0173429
615.834	0.0172960
615.913	0.0173027
615.991	0.0174221
616.069	0.0172369
616.147	0.0173073
616.225	0.0172711
616.303	0.0173469
616.381	0.0172982
616.459	0.0173313
616.538	0.0172803
616.616	0.0172240
616.694	0.0171855
616.772	0.0172771
616.850	0.0174748
616.928	0.0172799
617.006	0.0172368
617.084	0.0173759
617.163	0.0173440
617.241	0.0173104
617.319	0.0172517
617.397	0.0173034
617.475	0.0174617
617.553	0.0172388
617.631	0.0172087
617.709	0.0173164
617.788	0.0172235
617.866	0.0172524
617.944	0.0173159
618.022	0.0172388
618.100	0.0172651
618.178	0.0173465
618.256	0.0173406
618.334	0.0173536
618.413	0.0173540
618.491	0.0173215
618.569	0.0173396
618.647	0.0173087
618.725	0.0172665
618.803	0.0172522
618.881	0.0173305
618.959	0.0172458
619.038	0.0174353
619.116	0.0172780
619.194	0.0173494
619.272	0.0173780
619.350	0.0172809
619.428	0.0172546
619.506	0.0172592
619.584	0.0173470
619.663	0.0173829
619.741	0.0172549
619.819	0.0171943
619.897	0.0172707
619.975	0.0172474
620.053	0.0172421
620.131	0.0171669
620.209	0.0173198
620.288	0.0172710
620.366	0.0171777
620.444	0.0174337
620.522	0.0173972
620.600	0.0173691
620.678	0.0172220
620.756	0.0173489
620.834	0.0174522
620.913	0.0172186
620.991	0.0171284
621.069	0.0172475
621.147	0.0174072
621.225	0.0172350
621.303	0.0173479
621.381	0.0172112
621.459	0.0173328
621.538	0.0173680
621.616	0.0174799
621.694	0.0172530
621.772	0.0174283
621.850	0.0174139
621.928	0.0173019
622.006	0.0172152
622.084	0.0173838
622.163	0.0172356
622.241	0.0173330
622.319	0.0174059
622.397	0.0173588
622.475	0.0172673
622.553	0.0172298
622.631	0.0172536
622.709	0.0173894
622.788	0.0173880
622.866	0.0173915
622.944	0.0171927
623.022	0.0172596
623.100	0.0173770
623.178	0.0172629
623.256	0.0172634
623.334	0.0172931
623.413	0.0172354
623.491	0.0174187
623.569	0.0175301
623.647	0.0172044
623.725	0.0173190
623.803	0.0172952
623.881	0.0173691
623.959	0.0173145
624.038	0.0173057
624.116	0.0174391
624.194	0.0172659
624.272	0.0173580
624.350	0.0173266
624.428	0.0172782
624.506	0.0174829
624.584	0.0173852
624.663	0.0174554
624.741	0.0174417
624.819	0.0173645
624.897	0.0172636
624.975	0.0172935
625.053	0.0172194
625.131	0.0174269
625.209	0.0173020
625.288	0.0173670
625.366	0.0174370
625.444	0.0173455
625.522	0.0172114
625.600	0.0172972
625.678	0.0173339
625.756	0.0174030
625.834	0.0173798
625.913	0.0173007
625.991	0.0172797
626.069	0.0174307
626.147	0.0174026
626.225	0.0173179
626.303	0.0172916
626.381	0.0173653
626.459	0.0173478
626.538	0.0175378
626.616	0.0173016
626.694	0.0174200
626.772	0.0173261
626.850	0.0173279
626.928	0.0173116
627.006	0.0172274
627.084	0.0172507
627.163	0.0172462
627.241	0.0174201
627.319	0.0173490
627.397	0.0172549
627.475	0.0172146
627.553	0.0173137
627.631	0.0173300
627.709	0.0173050
627.788	0.0172961
627.866	0.0174217
627.944	0.0173123
628.022	0.0172941
628.100	0.0171954
628.178	0.0172898
628.256	0.0172921
628.334	0.0172087
628.413	0.0174168
628.491	0.0172803
628.569	0.0173582
628.647	0.0173071
628.725	0.0173331
628.803	0.0173835
628.881	0.0173845
628.959	0.0172723
629.038	0.0171795
629.116	0.0172797
629.194	0.0173843
629.272	0.0172607
629.350	0.0173048
629.428	0.0174104
629.506	0.0173362
629.584	0.0172484
629.663	0.0171143
629.741	0.0172144
629.819	0.0172216
629.897	0.0172864
629.975	0.0172947
630.053	0.0173354
630.131	0.0172488
630.209	0.0171882
630.288	0.0172459
630.366	0.0173402
630.444	0.0172689
630.522	0.0171721
630.600	0.0172569
630.678	0.0174395
630.756	0.0173042
630.834	0.0172926
630.913	0.0172751
630.991	0.0171294
631.069	0.0172208
631.147	0.0172560
631.225	0.0172575
631.303	0.0172768
631.381	0.0172846
631.459	0.0174380
631.538	0.0171928
631.616	0.0173009
631.694	0.0173448
631.772	0.0172072
631.850	0.0172578
631.928	0.0171820
632.006	0.0173683
632.084	0.0173322
632.163	0.0172950
632.241	0.0173529
632.319	0.0173130
632.397	0.0172541
632.475	0.0172522
632.553	0.0173222
632.631	0.0172817
632.709	0.0172419
632.788	0.0173113
632.866	0.0172529
632.944	0.0172924
633.022	0.0173702
633.100	0.0173363
633.178	0.0173156
633.256	0.0173609
633.334	0.0171873
633.413	0.0172925
633.491	0.0173660
633.569	0.0172720
633.647	0.0173144
633.725	0.0172559
633.803	0.0173333
633.881	0.0172217
633.959	0.0172044
634.038	0.0171838
634.116	0.0172744
634.194	0.0172594
634.272	0.0173608
634.350	0.0172758
634.428	0.0171801
634.506	0.0171293
634.584	0.0173152
634.663	0.0172205
634.741	0.0172274
634.819	0.0173895
634.897	0.0172575
634.975	0.0171595
635.053	0.0172986
635.131	0.0172876
635.209	0.0172176
635.288	0.0173135
635.366	0.0172923
635.444	0.0174171
635.522	0.0173589
635.600	0.0173447
635.678	0.0172491
635.756	0.0172031
635.834	0.0173853
635.913	0.0173367
635.991	0.0173079
636.069	0.0173704
636.147	0.0172623
636.225	0.0172624
636.303	0.0173682
636.381	0.0173503
636.459	0.0173403
636.538	0.0172988
636.616	0.0173560
636.694	0.0173587
636.772	0.0173392
636.850	0.0172871
636.928	0.0173060
637.006	0.0173840
637.084	0.0173893
637.163	0.0174850
637.241	0.0172022
637.319	0.0172617
637.397	0.0173290
637.475	0.0172564
637.553	0.0173515
637.631	0.0172797
637.709	0.0172974
637.788	0.0173041
637.866	0.0172417
637.944	0.0173220
638.022	0.0173420
638.100	0.0173867
638.178	0.0173121
638.256	0.0173150
638.334	0.0172556
638.413	0.0173161
638.491	0.0173190
638.569	0.0173662
638.647	0.0174110
638.725	0.0173351
638.803	0.0173251
638.881	0.0173109
638.959	0.0174788
639.038	0.0174516
639.116	0.0173363
639.194	0.0172587
639.272	0.0174414
639.350	0.0173379
639.428	0.0173863
639.506	0.0173741
639.584	0.0172901
639.663	0.0174094
639.741	0.0173053
639.819	0.0173872
639.897	0.0173902
639.975	0.0173402
640.053	0.0173285
640.131	0.0173397
640.209	0.0173000
640.288	0.0173981
640.366	0.0172623
640.444	0.0172754
640.522	0.0173158
640.600	0.0171426
640.678	0.0172901
640.756	0.0174042
640.834	0.0173259
640.913	0.0172811
640.991	0.0173740
641.069	0.0174420
641.147	0.0173944
641.225	0.0172816
641.303	0.0173624
641.381	0.0173278
641.459	0.0174474
641.538	0.0173335
641.616	0.0173519
641.694	0.0172801
641.772	0.0172305
641.850	0.0173885
641.928	0.0173518
642.006	0.0172033
642.084	0.0172764
642.163	0.0171826
642.241	0.0172191
642.319	0.0172955
642.397	0.0172312
642.475	0.0172878
642.553	0.0171766
642.631	0.0172236
642.709	0.0173137
642.788	0.0173019
642.866	0.0173539
642.944	0.0172289
643.022	0.0173619
643.100	0.0174793
643.178	0.0172984
643.256	0.0173405
643.334	0.0173847
643.413	0.0172819
643.491	0.0175518
643.569	0.0174857
643.647	0.0174418
643.725	0.0173804
643.803	0.0173028
643.881	0.0174030
643.959	0.0175256
644.038	0.0173480
644.116	0.0173633
644.194	0.0173617
644.272	0.0174916
644.350	0.0174527
644.428	0.0173891
644.506	0.0173055
644.584	0.0174165
644.663	0.0173995
644.741	0.0173492
644.819	0.0174187
644.897	0.0175873
644.975	0.0174262
645.053	0.0174546
645.131	0.0175138
645.209	0.0173999
645.288	0.0174839
645.366	0.0173972
645.444	0.0174670
645.522	0.0174962
645.600	0.0173837
645.678	0.0173257
645.756	0.0172909
645.834	0.0173569
645.913	0.0173590
645.991	0.0172619
646.069	0.0171193
646.147	0.0171832
646.225	0.0171133
646.303	0.0170663
646.381	0.0172220
646.459	0.0171635
646.538	0.0169971
646.616	0.0171153
646.694	0.0171871
646.772	0.0172863
646.850	0.0173095
646.928	0.0174565
647.006	0.0174158
647.084	0.0174734
647.163	0.0174302
647.241	0.0175157
647.319	0.0174155
647.397	0.0172969
647.475	0.0173415
647.553	0.0172144
647.631	0.0170444
647.709	0.0169091
647.788	0.0170334
647.866	0.0169289
647.944	0.0166588
648.022	0.0168758
648.100	0.0169120
648.178	0.0168768
648.256	0.0170274
648.334	0.0172840
648.413	0.0174638
648.491	0.0175597
648.569	0.0177220
648.647	0.0179595
648.725	0.0180790
648.803	0.0181438
648.881	0.0180753
648.959	0.0183112
649.038	0.0180875
649.116	0.0180022
649.194	0.0178255
649.272	0.0175175
649.350	0.0174425
649.428	0.0171217
649.506	0.0169550
649.584	0.0169406
649.663	0.0165630
649.741	0.0165923
649.819	0.0164059
649.897	0.0162689
649.975	0.0164482
650.053	0.0164310
650.131	0.0165874
650.209	0.0166676
650.288	0.0168295
650.366	0.0170283
650.444	0.0173559
650.522	0.0173364
650.600	0.0175929
650.678	0.0177493
650.756	0.0179423
650.834	0.0180712
650.913	0.0181155
650.991	0.0183941
651.069	0.0184019
651.147	0.0185623
651.225	0.0185380
651.303	0.0184749
651.381	0.0184318
651.459	0.0183514
651.538	0.0181116
651.616	0.0179440
651.694	0.0176448
651.772	0.0174424
651.850	0.0171146
651.928	0.0167567
652.006	0.0162737
652.084	0.0160153
652.163	0.0157544
652.241	0.0155225
652.319	0.0152847
652.397	0.0151222
652.475	0.0150758
652.553	0.0149545
652.631	0.0152479
652.709	0.0153165
652.788	0.0156729
652.866	0.0161451
652.944	0.0163833
653.022	0.0167743
653.100	0.0172871
653.178	0.0176505
653.256	0.0181533
653.334	0.0185268
653.413	0.0188098
653.491	0.0191463
653.569	0.0194011
653.647	0.0196148
653.725	0.0198569
653.803	0.0200143
653.881	0.0201521
653.959	0.0199194
654.038	0.0198661
654.116	0.0198888
654.194	0.0196132
654.272	0.0192373
654.350	0.0187885
654.428	0.0183924
654.506	0.0176907
654.584	0.0172008
654.663	0.0166286
654.741	0.0160792
654.819	0.0155891
654.897	0.0152686
654.975	0.0149122
655.053	0.0148180
655.131	0.0148358
655.209	0.0149564
655.288	0.0148830
655.366	0.0152148
655.444	0.0154579
655.522	0.0157932
655.600	0.0159647
655.678	0.0162466
655.756	0.0165757
655.834	0.0167775
655.913	0.0168839
655.991	0.0169868
656.069	0.0171578
656.147	0.0171436
656.225	0.0172474
656.303	0.0175204
656.381	0.0176461
656.459	0.0177735
656.538	0.0181612
656.616	0.0184858
656.694	0.0187679
656.772	0.0190742
656.850	0.0193140
656.928	0.0195614
657.006	0.0196980
657.084	0.0198344
657.163	0.0199481
657.241	0.0197900
657.319	0.0195167
657.397	0.0192054
657.475	0.0188236
657.553	0.0183377
657.631	0.0177866
657.709	0.0171526
657.788	0.0163940
657.866	0.0158671
657.944	0.0154101
658.022	0.0148685
658.100	0.0145068
658.178	0.0144267
658.256	0.0142813
658.334	0.0141943
658.413	0.0142754
658.491	0.0144892
658.569	0.0145438
658.647	0.0148978
658.725	0.0150570
658.803	0.0154134
658.881	0.0157462
658.959	0.0161034
659.038	0.0163646
659.116	0.0168906
659.194	0.0170559
659.272	0.0172796
659.350	0.0177180
659.428	0.0180012
659.506	0.0182688
659.584	0.0185547
659.663	0.0189897
659.741	0.0193684
659.819	0.0195930
659.897	0.0198138
659.975	0.0200768
660.053	0.0203146
660.131	0.0204800
660.209	0.0205291
660.288	0.0206477
660.366	0.0205737
660.444	0.0204863
660.522	0.0204247
660.600	0.0202308
660.678	0.0198367
660.756	0.0193654
660.834	0.0187792
660.913	0.0181107
660.991	0.0175183
661.069	0.0168955
661.147	0.0161040
661.225	0.0155657
661.303	0.0150996
661.381	0.0145750
661.459	0.0142762
661.538	0.0143338
661.616	0.0141836
661.694	0.0141687
661.772	0.0144517
661.850	0.0146323
661.928	0.0148232
662.006	0.0148586
662.084	0.0149309
662.163	0.0151044
662.241	0.0152933
662.319	0.0153881
662.397	0.0153641
662.475	0.0153822
662.553	0.0156441
662.631	0.0158490
662.709	0.0161359
662.788	0.0164547
662.866	0.0167429
662.944	0.0172020
663.022	0.0176665
663.100	0.0179794
663.178	0.0182255
663.256	0.0185036
663.334	0.0188647
663.413	0.0190997
663.491	0.0190078
663.569	0.0190720
663.647	0.0192941
663.725	0.0192286
663.803	0.0191070
663.881	0.0192042
663.959	0.0192399
664.038	0.0191689
664.116	0.0191639
664.194	0.0192114
664.272	0.0190967
664.350	0.0190063
664.428	0.0190810
664.506	0.0191006
664.584	0.0189932
664.663	0.0188293
664.741	0.0188142
664.819	0.0188204
664.897	0.0186606
664.975	0.0186879
665.053	0.0186022
665.131	0.0183968
665.209	0.0183978
665.288	0.0182397
665.366	0.0180341
665.444	0.0177564
665.522	0.0177048
665.600	0.0174551
665.678	0.0170665
665.756	0.0166467
665.834	0.0162308
665.913	0.0158504
665.991	0.0152059
666.069	0.0146919
666.147	0.0141573
666.225	0.0136261
666.303	0.0128442
666.381	0.0125703
666.459	0.0122486
666.538	0.0120065
666.616	0.0121410
666.694	0.0122861
666.772	0.0126200
666.850	0.0131586
666.928	0.0138226
667.006	0.0145522
667.084	0.0154464
667.163	0.0163536
667.241	0.0174049
667.319	0.0182580
667.397	0.0190093
667.475	0.0198540
667.553	0.0205434
667.631	0.0211544
667.709	0.0215918
667.788	0.0219315
667.866	0.0221332
667.944	0.0221946
668.022	0.0223305
668.100	0.0221762
668.178	0.0222145
668.256	0.0218764
668.334	0.0215011
668.413	0.0210500
668.491	0.0206264
668.569	0.0200426
668.647	0.0193569
668.725	0.0188676
668.803	0.0184033
668.881	0.0176888
668.959	0.0170844
669.038	0.0167947
669.116	0.0163509
669.194	0.0160078
669.272	0.0157178
669.350	0.0153912
669.428	0.0153659
669.506	0.0153676
669.584	0.0153560
669.663	0.0153541
669.741	0.0154684
669.819	0.0155209
669.897	0.0157955
669.975	0.0160136
670.053	0.0159801
670.131	0.0162710
670.209	0.0165860
670.288	0.0169715
670.366	0.0171376
670.444	0.0173669
670.522	0.0174627
670.600	0.0175146
670.678	0.0174978
670.756	0.0175848
670.834	0.0172938
670.913	0.0170583
670.991	0.0167513
671.069	0.0163393
671.147	0.0157261
671.225	0.0153047
671.303	0.0148343
671.381	0.0145019
671.459	0.0139922
671.538	0.0135214
671.616	0.0132556
671.694	0.0131125
671.772	0.0131496
671.850	0.0131988
671.928	0.0134773
672.006	0.0139688
672.084	0.0144545
672.163	0.0150391
672.241	0.0156827
672.319	0.0164520
672.397	0.0172708
672.475	0.0179639
672.553	0.0187134
672.631	0.0194707
672.709	0.0202633
672.788	0.0211539
672.866	0.0216142
672.944	0.0221050
673.022	0.0225602
673.100	0.0231232
673.178	0.0232784
673.256	0.0232643
673.334	0.0234522
673.413	0.0233022
673.491	0.0232175
673.569	0.0229368
673.647	0.0225343
673.725	0.0221214
673.803	0.0215184
673.881	0.0211832
673.959	0.0203625
674.038	0.0197150
674.116	0.0190342
674.194	0.0181709
674.272	0.0174119
674.350	0.0166853
674.428	0.0159185
674.506	0.0151195
674.584	0.0144923
674.663	0.0139475
674.741	0.0135633
674.819	0.0131273
674.897	0.0129671
674.975	0.0129196
675.053	0.0129239
675.131	0.0130495
675.209	0.0135825
675.288	0.0138245
675.366	0.0143841
675.444	0.0149593
675.522	0.0153785
675.600	0.0156481
675.678	0.0158488
675.756	0.0162013
675.834	0.0164597
675.913	0.0166541
675.991	0.0166776
676.069	0.0167522
676.147	0.0168098
676.225	0.0168503
676.303	0.0168126
676.381	0.0168234
676.459	0.0168876
676.538	0.0167850
676.616	0.0166399
676.694	0.0166354
676.772	0.0165612
676.850	0.0162857
676.928	0.0160891
677.006	0.0158302
677.084	0.0154658
677.163	0.0151394
677.241	0.0149129
677.319	0.0146671
677.397	0.0143688
677.475	0.0143783
677.553	0.0144582
677.631	0.0146792
677.709	0.0147104
677.788	0.0149966
677.866	0.0153647
677.944	0.0157301
678.022	0.0161604
678.100	0.0169176
678.178	0.0176660
678.256	0.0183617
678.334	0.0192496
678.413	0.0199261
678.491	0.0207133
678.569	0.0216497
678.647	0.0224389
678.725	0.0232539
678.803	0.0240776
678.881	0.0246076
678.959	0.0250010
679.038	0.0252299
679.116	0.0254216
679.194	0.0251199
679.272	0.0248797
679.350	0.0245584
679.428	0.0237641
679.506	0.0229559
679.584	0.0219450
679.663	0.0211154
679.741	0.0200764
679.819	0.0193317
679.897	0.0183521
679.975	0.0172292
680.053	0.0164318
680.131	0.0157465
680.209	0.0150983
680.288	0.0144589
680.366	0.0140130
680.444	0.0137184
680.522	0.0134168
680.600	0.0132344
680.678	0.0129606
680.756	0.0128608
680.834	0.0128061
680.913	0.0127651
680.991	0.0128693
681.069	0.0128814
681.147	0.0128580
681.225	0.0128754
681.303	0.0129455
681.381	0.0129734
681.459	0.0130522
681.538	0.0132410
681.616	0.0133537
681.694	0.0137910
681.772	0.0141663
681.850	0.0145221
681.928	0.0148878
682.006	0.0153844
682.084	0.0158179
682.163	0.0164500
682.241	0.0165851
682.319	0.0171918
682.397	0.0175893
682.475	0.0175867
682.553	0.0177307
682.631	0.0176955
682.709	0.0176111
682.788	0.0175140
682.866	0.0172070
682.944	0.0169540
683.022	0.0166607
683.100	0.0161994
683.178	0.0159456
683.256	0.0159723
683.334	0.0157410
683.413	0.0157851
683.491	0.0157105
683.569	0.0157436
683.647	0.0160897
683.725	0.0165810
683.803	0.0170940
683.881	0.0175038
683.959	0.0180817
684.038	0.0186990
684.116	0.0193700
684.194	0.0200747
684.272	0.0207169
684.350	0.0210853
684.428	0.0216232
684.506	0.0221239
684.584	0.0225496
684.663	0.0230864
684.741	0.0234103
684.819	0.0238797
684.897	0.0240632
684.975	0.0243703
685.053	0.0246379
685.131	0.0246203
685.209	0.0244318
685.288	0.0240018
685.366	0.0235151
685.444	0.0229047
685.522	0.0220481
685.600	0.0211032
685.678	0.0201328
685.756	0.0191192
685.834	0.0180735
685.913	0.0169282
685.991	0.0159093
686.069	0.0149602
686.147	0.0141391
686.225	0.0134750
686.303	0.0127836
686.381	0.0123396
686.459	0.0119801
686.538	0.0117156
686.616	0.0114849
686.694	0.0113640
686.772	0.0112953
686.850	0.0112720
686.928	0.0113369
687.006	0.0115171
687.084	0.0117622
687.163	0.0119688
687.241	0.0124313
687.319	0.0124545
687.397	0.0127760
687.475	0.0131784
687.553	0.0133678
687.631	0.0136077
687.709	0.0140644
687.788	0.0144425
687.866	0.0149837
687.944	0.0155079
688.022	0.0160765
688.100	0.0166979
688.178	0.0172057
688.256	0.0177429
688.334	0.0185045
688.413	0.0188878
688.491	0.0192239
688.569	0.0197588
688.647	0.0197849
688.725	0.0199062
688.803	0.0199064
688.881	0.0196212
688.959	0.0193257
689.038	0.0188179
689.116	0.0183455
689.194	0.0178164
689.272	0.0172801
689.350	0.0168448
689.428	0.0163625
689.506	0.0160393
689.584	0.0158793
689.663	0.0156598
689.741	0.0155473
689.819	0.0157392
689.897	0.0161244
689.975	0.0164973
690.053	0.0172389
690.131	0.0178635
690.209	0.0185815
690.288	0.0193933
690.366	0.0202625
690.444	0.0209742
690.522	0.0215855
690.600	0.0220984
690.678	0.0225650
690.756	0.0225719
690.834	0.0228320
690.913	0.0229534
690.991	0.0229161
691.069	0.0227505
691.147	0.0225397
691.225	0.0223335
691.303	0.0220972
691.381	0.0217149
691.459	0.0212869
691.538	0.0209486
691.616	0.0204057
691.694	0.0198575
691.772	0.0193856
691.850	0.0187524
691.928	0.0180647
692.006	0.0175719
692.084	0.0168017
692.163	0.0160799
692.241	0.0154017
692.319	0.0148779
692.397	0.0142822
692.475	0.0137663
692.553	0.0133900
692.631	0.0131275
692.709	0.0128485
692.788	0.0127662
692.866	0.0127242
692.944	0.0126900
693.022	0.0126990
693.100	0.0128629
693.178	0.0129109
693.256	0.0130625
693.334	0.0132078
693.413	0.0133315
693.491	0.0134776
693.569	0.0135255
693.647	0.0135584
693.725	0.0136507
693.803	0.0139104
693.881	0.0141091
693.959	0.0144302
694.038	0.0147183
694.116	0.0151599
694.194	0.0157890
694.272	0.0162560
694.350	0.0167841
694.428	0.0174414
694.506	0.0179992
694.584	0.0186852
694.663	0.0190088
694.741	0.0194415
694.819	0.0195140
694.897	0.0195174
694.975	0.0193967
695.053	0.0192666
695.131	0.0189079
695.209	0.0184003
695.288	0.0179864
695.366	0.0175642
695.444	0.0171664
695.522	0.0168988
695.600	0.0164502
695.678	0.0162942
695.756	0.0164255
695.834	0.0165130
695.913	0.0166223
695.991	0.0168951
696.069	0.0172472
696.147	0.0176897
696.225	0.0180982
696.303	0.0186514
696.381	0.0191171
696.459	0.0196642
696.538	0.0201721
696.616	0.0207095
696.694	0.0208541
696.772	0.0210613
696.850	0.0212642
696.928	0.0212561
697.006	0.0212868
697.084	0.0211151
697.163	0.0210380
697.241	0.0209657
697.319	0.0206163
697.397	0.0206152
697.475	0.0206557
697.553	0.0203622
697.631	0.0201138
697.709	0.0199915
697.788	0.0197256
697.866	0.0194328
697.944	0.0193291
698.022	0.0189883
698.100	0.0187502
698.178	0.0181346
698.256	0.0178436
698.334	0.0173976
698.413	0.0169701
698.491	0.0167060
698.569	0.0161885
698.647	0.0158220
698.725	0.0156128
698.803	0.0155416
698.881	0.0151829
698.959	0.0150758
699.038	0.0150007
699.116	0.0148325
699.194	0.0148566
699.272	0.0147076
699.350	0.0145031
699.428	0.0144726
699.506	0.0142477
699.584	0.0141438
699.663	0.0138969
699.741	0.0138306
699.819	0.0135441
699.897	0.0133452
699.975	0.0132159
700.053	0.0132125
700.131	0.0129839
700.209	0.0131754
700.288	0.0133975
700.366	0.0136449
700.444	0.0139684
700.522	0.0143769
700.600	0.0149271
700.678	0.0155383
700.756	0.0158858
700.834	0.0163028
700.913	0.0167249
700.991	0.0170602
701.069	0.0173083
701.147	0.0176066
701.225	0.0177002
701.303	0.0175905
701.381	0.0175675
701.459	0.0174402
701.538	0.0173747
701.616	0.0172427
701.694	0.0174738
701.772	0.0175105
701.850	0.0176198
701.928	0.0177797
702.006	0.0180315
702.084	0.0184186
702.163	0.0187068
702.241	0.0191187
702.319	0.0196269
702.397	0.0200158
702.475	0.0204407
702.553	0.0207010
702.631	0.0210409
702.709	0.0214225
702.788	0.0215472
702.866	0.0214774
702.944	0.0216917
703.022	0.0215371
703.100	0.0214255
703.178	0.0211743
703.256	0.0209608
703.334	0.0207323
703.413	0.0205106
703.491	0.0200830
703.569	0.0198476
703.647	0.0196906
703.725	0.0194008
703.803	0.0190382
703.881	0.0187842
703.959	0.0185168
704.038	0.0181236
704.116	0.0178966
704.194	0.0176633
704.272	0.0172703
704.350	0.0171514
704.428	0.0170235
704.506	0.0166505
704.584	0.0165071
704.663	0.0164524
704.741	0.0163708
704.819	0.0163459
704.897	0.0162881
704.975	0.0162416
705.053	0.0161346
705.131	0.0161783
705.209	0.0161005
705.288	0.0159733
705.366	0.0157901
705.444	0.0157403
705.522	0.0154935
705.600	0.0152298
705.678	0.0150598
705.756	0.0146769
705.834	0.0145060
705.913	0.0143302
705.991	0.0140377
706.069	0.0136404
706.147	0.0136166
706.225	0.0135345
706.303	0.0134637
706.381	0.0134087
706.459	0.0137233
706.538	0.0139610
706.616	0.0141877
706.694	0.0143765
706.772	0.0147836
706.850	0.0150613
706.928	0.0155738
707.006	0.0158128
707.084	0.0161362
707.163	0.0163362
707.241	0.0165737
707.319	0.0167442
707.397	0.0167193
707.475	0.0170034
707.553	0.0170887
707.631	0.0171584
707.709	0.0170678
707.788	0.0171831
707.866	0.0173529
707.944	0.0174768
708.022	0.0175750
708.100	0.0178728
708.178	0.0181258
708.256	0.0184595
708.334	0.0187813
708.413	0.0191217
708.491	0.0195704
708.569	0.0198835
708.647	0.0202409
708.725	0.0205366
708.803	0.0209473
708.881	0.0212148
708.959	0.0212150
709.038	0.0213593
709.116	0.0213491
709.194	0.0212542
709.272	0.0213488
709.350	0.0210032
709.428	0.0207635
709.506	0.0205736
709.584	0.0203355
709.663	0.0199886
709.741	0.0195432
709.819	0.0192223
709.897	0.0186874
709.975	0.0182366
710.053	0.0178754
710.131	0.0174241
710.209	0.0169979
710.288	0.0165185
710.366	0.0162655
710.444	0.0161491
710.522	0.0158737
710.600	0.0155473
710.678	0.0157393
710.756	0.0156148
710.834	0.0156067
710.913	0.0158091
710.991	0.0159243
711.069	0.0158930
711.147	0.0161457
711.225	0.0162160
711.303	0.0162259
711.381	0.0164678
711.459	0.0165948
711.538	0.0167089
711.616	0.0166022
711.694	0.0165723
711.772	0.0164775
711.850	0.0163616
711.928	0.0161481
712.006	0.0160838
712.084	0.0161189
712.163	0.0160172
712.241	0.0158220
712.319	0.0157236
712.397	0.0157313
712.475	0.0156580
712.553	0.0156779
712.631	0.0157900
712.709	0.0159635
712.788	0.0161433
712.866	0.0161848
712.944	0.0164622
713.022	0.0165343
713.100	0.0165994
713.178	0.0168526
713.256	0.0168402
713.334	0.0169952
713.413	0.0169287
713.491	0.0169660
713.569	0.0168473
713.647	0.0166060
713.725	0.0164600
713.803	0.0164708
713.881	0.0162882
713.959	0.0161301
714.038	0.0162291
714.116	0.0162267
714.194	0.0164735
714.272	0.0164500
714.350	0.0165475
714.428	0.0168329
714.506	0.0171452
714.584	0.0176231
714.663	0.0177847
714.741	0.0179899
714.819	0.0185471
714.897	0.0187384
714.975	0.0190051
715.053	0.0192536
715.131	0.0192507
715.209	0.0194649
715.288	0.0195499
715.366	0.0194547
715.444	0.0194437
715.522	0.0193632
715.600	0.0194264
715.678	0.0193377
715.756	0.0191551
715.834	0.0190213
715.913	0.0187745
715.991	0.0188407
716.069	0.0186803
716.147	0.0184974
716.225	0.0183546
716.303	0.0180783
716.381	0.0179151
716.459	0.0176875
716.538	0.0176562
716.616	0.0175219
716.694	0.0173130
716.772	0.0172615
716.850	0.0171779
716.928	0.0170452
717.006	0.0169707
717.084	0.0168022
717.163	0.0166836
717.241	0.0167833
717.319	0.0166808
717.397	0.0165824
717.475	0.0166162
717.553	0.0168062
717.631	0.0168008
717.709	0.0167117
717.788	0.0165963
717.866	0.0166903
717.944	0.0166724
718.022	0.0166195
718.100	0.0167235
718.178	0.0166225
718.256	0.0165996
718.334	0.0164747
718.413	0.0165836
718.491	0.0166871
718.569	0.0167614
718.647	0.0167229
718.725	0.0168521
718.803	0.0168294
718.881	0.0171486
718.959	0.0171253
719.038	0.0173859
719.116	0.0174070
719.194	0.0174468
719.272	0.0173374
719.350	0.0173554
719.428	0.0172064
719.506	0.0173201
719.584	0.0170844
719.663	0.0169994
719.741	0.0170436
719.819	0.0168307
719.897	0.0167906
719.975	0.0165919
720.053	0.0166008
720.131	0.0164801
720.209	0.0167014
720.288	0.0166475
720.366	0.0168559
720.444	0.0168775
720.522	0.0171163
720.600	0.0171929
720.678	0.0171478
720.756	0.0172836
720.834	0.0174584
720.913	0.0172786
720.991	0.0174473
721.069	0.0175600
721.147	0.0174842
721.225	0.0174830
721.303	0.0173290
721.381	0.0174902
721.459	0.0174555
721.538	0.0173894
721.616	0.0173568
721.694	0.0172121
721.772	0.0171761
721.850	0.0172878
721.928	0.0172272
722.006	0.0173256
722.084	0.0173169
722.163	0.0172989
722.241	0.0171948
722.319	0.0173621
722.397	0.0173339
722.475	0.0174133
722.553	0.0174899
722.631	0.0174230
722.709	0.0175401
722.788	0.0174207
722.866	0.0175735
722.944	0.0176434
723.022	0.0176491
723.100	0.0175391
723.178	0.0177147
723.256	0.0177213
723.334	0.0176212
723.413	0.0177444
723.491	0.0176610
723.569	0.0179307
723.647	0.0178272
723.725	0.0177800
723.803	0.0179286
723.881	0.0178686
723.959	0.0177513
724.038	0.0177896
724.116	0.0176344
724.194	0.0175591
724.272	0.0176220
724.350	0.0175116
724.428	0.0173662
724.506	0.0174030
724.584	0.0174207
724.663	0.0175847
724.741	0.0175765
724.819	0.0175354
724.897	0.0175309
724.975	0.0175417
725.053	0.0176311
725.131	0.0177138
725.209	0.0175665
725.288	0.0173783
725.366	0.0173840
725.444	0.0174928
725.522	0.0174052
725.600	0.0171800
725.678	0.0171039
725.756	0.0171048
725.834	0.0171129
725.913	0.0169289
725.991	0.0168525
726.069	0.0168686
726.147	0.0168219
726.225	0.0166045
726.303	0.0167872
726.381	0.0168341
726.459	0.0168427
726.538	0.0169778
726.616	0.0170851
726.694	0.0172209
726.772	0.0173309
726.850	0.0173383
726.928	0.0174899
727.006	0.0174720
727.084	0.0174795
727.163	0.0175491
727.241	0.0176797
727.319	0.0175999
727.397	0.0174570
727.475	0.0175555
727.553	0.0174373
727.631	0.0173957
727.709	0.0171462
727.788	0.0171597
727.866	0.0170595
727.944	0.0166917
728.022	0.0166320
728.100	0.0167649
728.178	0.0166806
728.256	0.0165125
728.334	0.0164172
728.413	0.0163969
728.491	0.0164398
728.569	0.0162754
728.647	0.0163167
728.725	0.0164114
728.803	0.0165170
728.881	0.0162961
728.959	0.0162740
729.038	0.0165675
729.116	0.0166738
729.194	0.0166988
729.272	0.0168378
729.350	0.0169277
729.428	0.0170514
729.506	0.0172426
729.584	0.0173899
729.663	0.0173918
729.741	0.0174826
729.819	0.0175253
729.897	0.0175336
729.975	0.0176903
730.053	0.0177351
730.131	0.0177259
730.209	0.0178524
730.288	0.0177794
730.366	0.0177414
730.444	0.0178860
730.522	0.0177499
730.600	0.0178239
730.678	0.0178563
730.756	0.0179980
730.834	0.0179628
730.913	0.0180808
730.991	0.0181883
731.069	0.0181514
731.147	0.0183274
731.225	0.0182785
731.303	0.0181828
731.381	0.0183607
731.459	0.0184051
731.538	0.0181348
731.616	0.0180652
731.694	0.0181057
731.772	0.0178583
731.850	0.0178777
731.928	0.0177669
732.006	0.0176423
732.084	0.0176642
732.163	0.0176421
732.241	0.0176043
732.319	0.0173630
732.397	0.0174291
732.475	0.0175179
732.553	0.0175036
732.631	0.0175205
732.709	0.0175795
732.788	0.0174109
732.866	0.0175240
732.944	0.0176746
733.022	0.0175248
733.100	0.0175229
733.178	0.0174725
733.256	0.0174839
733.334	0.0174423
733.413	0.0174337
733.491	0.0172744
733.569	0.0170412
733.647	0.0169682
733.725	0.0169740
733.803	0.0169524
733.881	0.0167574
733.959	0.0167756
734.038	0.0167608
734.116	0.0164518
734.194	0.0164465
734.272	0.0165321
734.350	0.0164993
734.428	0.0165681
734.506	0.0165235
734.584	0.0164814
734.663	0.0165790
734.741	0.0166196
734.819	0.0166213
734.897	0.0166443
734.975	0.0165477
735.053	0.0167162
735.131	0.0167266
735.209	0.0167786
735.288	0.0165633
735.366	0.0166199
735.444	0.0167965
735.522	0.0166660
735.600	0.0166611
735.678	0.0168150
735.756	0.0166295
735.834	0.0166561
735.913	0.0167480
735.991	0.0166830
736.069	0.0167544
736.147	0.0166509
736.225	0.0166833
736.303	0.0166674
736.381	0.0168754
736.459	0.0170472
736.538	0.0169458
736.616	0.0170473
736.694	0.0171792
736.772	0.0170900
736.850	0.0173254
736.928	0.0173917
737.006	0.0174828
737.084	0.0176081
737.163	0.0178396
737.241	0.0178690
737.319	0.0179209
737.397	0.0178545
737.475	0.0179559
737.553	0.0180745
737.631	0.0181214
737.709	0.0180852
737.788	0.0180718
737.866	0.0180700
737.944	0.0180586
738.022	0.0181332
738.100	0.0180824
738.178	0.0181976
738.256	0.0182056
738.334	0.0181164
738.413	0.0181969
738.491	0.0183231
738.569	0.0183734
738.647	0.0182079
738.725	0.0181682
738.803	0.0183553
738.881	0.0182322
738.959	0.0181221
739.038	0.0181600
739.116	0.0181604
739.194	0.0180820
739.272	0.0179523
739.350	0.0178719
739.428	0.0179195
739.506	0.0177470
739.584	0.0177061
739.663	0.0176013
739.741	0.0174773
739.819	0.0172612
739.897	0.0172676
739.975	0.0171887
740.053	0.0171548
740.131	0.0169966
740.209	0.0169734
740.288	0.0168418
740.366	0.0167814
740.444	0.0166068
740.522	0.0166604
740.600	0.0165878
740.678	0.0167213
740.756	0.0168619
740.834	0.0168322
740.913	0.0167925
740.991	0.0168773
741.069	0.0169139
741.147	0.0169211
741.225	0.0170162
741.303	0.0169261
741.381	0.0170669
741.459	0.0171039
741.538	0.0170897
741.616	0.0169250
741.694	0.0169234
741.772	0.0168359
741.850	0.0169256
741.928	0.0168447
742.006	0.0168176
742.084	0.0167105
742.163	0.0165362
742.241	0.0164642
742.319	0.0164170
742.397	0.0164833
742.475	0.0164840
742.553	0.0162846
742.631	0.0163843
742.709	0.0165043
742.788	0.0163851
742.866	0.0163313
742.944	0.0166305
743.022	0.0166978
743.100	0.0166164
743.178	0.0167532
743.256	0.0171323
743.334	0.0169337
743.413	0.0172475
743.491	0.0172235
743.569	0.0171555
743.647	0.0174268
743.725	0.0173780
743.803	0.0173967
743.881	0.0175420
743.959	0.0176370
744.038	0.0176814
744.116	0.0175624
744.194	0.0177740
744.272	0.0177579
744.350	0.0179086
744.428	0.0178882
744.506	0.0179462
744.584	0.0179864
744.663	0.0180020
744.741	0.0180932
744.819	0.0182442
744.897	0.0181712
744.975	0.0181093
745.053	0.0181245
745.131	0.0182613
745.209	0.0181518
745.288	0.0183999
745.366	0.0183733
745.444	0.0183423
745.522	0.0183535
745.600	0.0181165
745.678	0.0181487
745.756	0.0181332
745.834	0.0181500
745.913	0.0179082
745.991	0.0178677
746.069	0.0179017
746.147	0.0179168
746.225	0.0177070
746.303	0.0176735
746.381	0.0177298
746.459	0.0176784
746.538	0.0175294
746.616	0.0174858
746.694	0.0175879
746.772	0.0175420
746.850	0.0174934
746.928	0.0173942
747.006	0.0173913
747.084	0.0173667
747.163	0.0172314
747.241	0.0172258
747.319	0.0173503
747.397	0.0173786
747.475	0.0173447
747.553	0.0172770
747.631	0.0171655
747.709	0.0173080
747.788	0.0172678
747.866	0.0172139
747.944	0.0171252
748.022	0.0171142
748.100	0.0171700
748.178	0.0169444
748.256	0.0169038
748.334	0.0168388
748.413	0.0167107
748.491	0.0167069
748.569	0.0166470
748.647	0.0165780
748.725	0.0164072
748.803	0.0164283
748.881	0.0165133
748.959	0.0164552
749.038	0.0163300
749.116	0.0165563
749.194	0.0164304
749.272	0.0164996
749.350	0.0165390
749.428	0.0165712
749.506	0.0164771
749.584	0.0167274
749.663	0.0167777
749.741	0.0168121
749.819	0.0170300
749.897	0.0169131
749.975	0.0170429
750.053	0.0171281
750.131	0.0170580
750.209	0.0171423
750.288	0.0173008
750.366	0.0170632
750.444	0.0171546
750.522	0.0173062
750.600	0.0174247
750.678	0.0174039
750.756	0.0172073
750.834	0.0172005
750.913	0.0172699
750.991	0.0173511
751.069	0.0173994
751.147	0.0173804
751.225	0.0173825
751.303	0.0174263
751.381	0.0173981
751.459	0.0175530
751.538	0.0176191
751.616	0.0175568
751.694	0.0175436
751.772	0.0174672
751.850	0.0175111
751.928	0.0176051
752.006	0.0175940
752.084	0.0176973
752.163	0.0176797
752.241	0.0175654
752.319	0.0176923
752.397	0.0177112
752.475	0.0178659
752.553	0.0177982
752.631	0.0178546
752.709	0.0179319
752.788	0.0181010
752.866	0.0179992
752.944	0.0181839
753.022	0.0182615
753.100	0.0182817
753.178	0.0181787
753.256	0.0182764
753.334	0.0181903
753.413	0.0182030
753.491	0.0181118
753.569	0.0181604
753.647	0.0181506
753.725	0.0179164
753.803	0.0178698
753.881	0.0177544
753.959	0.0176543
754.038	0.0176661
754.116	0.0175780
754.194	0.0174542
754.272	0.0174411
754.350	0.0171622
754.428	0.0171250
754.506	0.0171693
754.584	0.0169437
754.663	0.0169915
754.741	0.0169820
754.819	0.0168178
754.897	0.0167588
754.975	0.0168515
755.053	0.0168131
755.131	0.0167528
755.209	0.0166993
755.288	0.0166473
755.366	0.0167751
755.444	0.0166856
755.522	0.0168637
755.600	0.0167072
755.678	0.0167101
755.756	0.0166426
755.834	0.0167154
755.913	0.0166169
755.991	0.0166763
756.069	0.0168079
756.147	0.0168779
756.225	0.0168071
756.303	0.0168042
756.381	0.0169773
756.459	0.0169218
756.538	0.0170202
756.616	0.0170321
756.694	0.0171523
756.772	0.0171788
756.850	0.0171997
756.928	0.0173018
757.006	0.0173953
757.084	0.0172572
757.163	0.0174124
757.241	0.0174634
757.319	0.0174488
757.397	0.0175373
757.475	0.0174092
757.553	0.0173216
757.631	0.0173342
757.709	0.0173956
757.788	0.0172206
757.866	0.0170737
757.944	0.0170544
758.022	0.0169669
758.100	0.0170916
758.178	0.0168214
758.256	0.0168874
758.334	0.0169377
758.413	0.0169891
758.491	0.0169343
758.569	0.0167363
758.647	0.0170049
758.725	0.0170049
758.803	0.0170739
758.881	0.0171607
758.959	0.0171792
759.038	0.0171979
759.116	0.0172411
759.194	0.0173614
759.272	0.0175320
759.350	0.0175005
759.428	0.0176680
759.506	0.0177309
759.584	0.0178266
759.663	0.0178488
759.741	0.0179618
759.819	0.0179338
759.897	0.0179020
759.975	0.0180523
760.053	0.0181973
760.131	0.0182112
760.209	0.0181145
760.288	0.0180000
760.366	0.0179385
760.444	0.0181226
760.522	0.0179779
760.600	0.0180103
760.678	0.0180527
760.756	0.0180537
760.834	0.0179236
760.913	0.0179698
760.991	0.0179502
761.069	0.0179704
761.147	0.0179566
761.225	0.0177918
761.303	0.0177466
761.381	0.0176619
761.459	0.0175834
761.538	0.0175659
761.616	0.0174428
761.694	0.0174873
761.772	0.0174329
761.850	0.0173218
761.928	0.0173257
762.006	0.0171029
762.084	0.0170559
762.163	0.0169794
762.241	0.0168411
762.319	0.0168606
762.397	0.0165976
762.475	0.0165749
762.553	0.0164906
762.631	0.0164891
762.709	0.0164030
762.788	0.0164389
762.866	0.0164862
762.944	0.0163552
763.022	0.0163886
763.100	0.0163292
763.178	0.0165659
763.256	0.0165485
763.334	0.0167503
763.413	0.0167564
763.491	0.0167892
763.569	0.0168260
763.647	0.0169698
763.725	0.0169922
763.803	0.0172387
763.881	0.0171989
763.959	0.0171683
764.038	0.0172648
764.116	0.0174427
764.194	0.0174745
764.272	0.0175354
764.350	0.0173144
764.428	0.0174382
764.506	0.0173206
764.584	0.0174661
764.663	0.0173864
764.741	0.0172571
764.819	0.0173795
764.897	0.0172765
764.975	0.0171839
765.053	0.0170718
765.131	0.0171720
765.209	0.0170417
765.288	0.0171230
765.366	0.0172129
765.444	0.0170732
765.522	0.0171891
765.600	0.0172164
765.678	0.0172178
765.756	0.0171703
765.834	0.0173552
765.913	0.0174374
765.991	0.0174596
766.069	0.0174335
766.147	0.0174181
766.225	0.0174994
766.303	0.0176431
766.381	0.0175964
766.459	0.0176299
766.538	0.0175821
766.616	0.0176765
766.694	0.0177966
766.772	0.0176144
766.850	0.0175287
766.928	0.0177614
767.006	0.0176212
767.084	0.0173724
767.163	0.0174152
767.241	0.0173430
767.319	0.0172404
767.397	0.0172071
767.475	0.0170407
767.553	0.0172045
767.631	0.0171431
767.709	0.0170094
767.788	0.0171589
767.866	0.0170541
767.944	0.0170163
768.022	0.0170042
768.100	0.0171906
768.178	0.0171268
768.256	0.0170851
768.334	0.0171088
768.413	0.0172258
768.491	0.0173789
768.569	0.0172974
768.647	0.0174822
768.725	0.0175851
768.803	0.0175681
768.881	0.0177482
768.959	0.0178415
769.038	0.0176950
769.116	0.0177703
769.194	0.0181162
769.272	0.0180770
769.350	0.0180351
769.428	0.0179826
769.506	0.0179039
769.584	0.0180051
769.663	0.0181174
769.741	0.0178427
769.819	0.0179532
769.897	0.0180068
769.975	0.0179255
770.053	0.0178806
770.131	0.0177145
770.209	0.0177477
770.288	0.0176826
770.366	0.0176450
770.444	0.0174550
770.522	0.0175054
770.600	0.0173466
770.678	0.0172437
770.756	0.0172739
770.834	0.0170628
770.913	0.0170766
770.991	0.0170315
771.069	0.0168439
771.147	0.0167988
771.225	0.0168130
771.303	0.0166387
771.381	0.0166322
771.459	0.0164742
771.538	0.0165021
771.616	0.0165617
771.694	0.0164710
771.772	0.0164832
771.850	0.0165010
771.928	0.0164328
772.006	0.0165894
772.084	0.0165066
772.163	0.0164886
772.241	0.0164703
772.319	0.0165354
772.397	0.0166117
772.475	0.0166438
772.553	0.0166083
772.631	0.0166178
772.709	0.0168958
772.788	0.0168719
772.866	0.0168227
772.944	0.0168624
773.022	0.0168346
773.100	0.0169222
773.178	0.0169845
773.256	0.0170457
773.334	0.0171073
773.413	0.0169327
773.491	0.0171400
773.569	0.0172323
773.647	0.0170212
773.725	0.0170910
773.803	0.0170839
773.881	0.0171355
773.959	0.0172250
774.038	0.0172988
774.116	0.0172004
774.194	0.0172939
774.272	0.0174411
774.350	0.0175259
774.428	0.0177340
774.506	0.0175837
774.584	0.0177145
774.663	0.0177078
774.741	0.0178239
774.819	0.0179130
774.897	0.0180060
774.975	0.0179251
775.053	0.0180712
775.131	0.0182668
775.209	0.0184249
775.288	0.0183387
775.366	0.0184096
775.444	0.0184172
775.522	0.0185303
775.600	0.0185886
775.678	0.0185259
775.756	0.0185212
775.834	0.0185152
775.913	0.0184406
775.991	0.0184340
776.069	0.0184320
776.147	0.0182953
776.225	0.0181400
776.303	0.0181512
776.381	0.0180898
776.459	0.0181492
776.538	0.0177329
776.616	0.0176682
776.694	0.0176409
776.772	0.0175315
776.850	0.0174882
776.928	0.0172466
777.006	0.0171985
777.084	0.0169521
777.163	0.0169194
777.241	0.0168356
777.319	0.0167206
777.397	0.0166171
777.475	0.0163171
777.553	0.0163713
777.631	0.0162341
777.709	0.0163313
777.788	0.0162606
777.866	0.0162348
777.944	0.0162617
778.022	0.0162383
778.100	0.0161419
778.178	0.0161276
778.256	0.0161700
778.334	0.0165166
778.413	0.0164117
778.491	0.0163896
778.569	0.0164626
778.647	0.0166376
778.725	0.0165443
778.803	0.0165282
778.881	0.0166157
778.959	0.0168037
779.038	0.0167296
779.116	0.0166683
779.194	0.0167811
779.272	0.0168389
779.350	0.0168539
779.428	0.0168615
779.506	0.0168372
779.584	0.0167936
779.663	0.0168951
779.741	0.0168844
779.819	0.0169209
779.897	0.0169602
779.975	0.0170212
780.053	0.0171600
780.131	0.0171207
780.209	0.0172163
780.288	0.0173044
780.366	0.0174466
780.444	0.0175468
780.522	0.0175259
780.600	0.0177876
780.678	0.0177290
780.756	0.0177785
780.834	0.0180021
780.913	0.0180940
780.991	0.0181190
781.069	0.0182262
781.147	0.0183054
781.225	0.0183356
781.303	0.0183559
781.381	0.0183566
781.459	0.0184848
781.538	0.0187155
781.616	0.0184936
781.694	0.0184406
781.772	0.0184112
781.850	0.0184943
781.928	0.0182626
782.006	0.0183939
782.084	0.0183424
782.163	0.0181066
782.241	0.0181931
782.319	0.0180990
782.397	0.0179597
782.475	0.0177636
782.553	0.0175534
782.631	0.0174472
782.709	0.0174677
782.788	0.0171625
782.866	0.0171412
782.944	0.0170905
783.022	0.0168640
783.100	0.0168301
783.178	0.0166689
783.256	0.0166225
783.334	0.0164423
783.413	0.0165711
783.491	0.0166412
783.569	0.0163443
783.647	0.0164230
783.725	0.0164056
783.803	0.0164593
783.881	0.0165765
783.959	0.0164777
784.038	0.0164224
784.116	0.0167198
784.194	0.0167323
784.272	0.0167040
784.350	0.0166766
784.428	0.0168443
784.506	0.0167928
784.584	0.0169448
784.663	0.0170528
784.741	0.0170161
784.819	0.0171627
784.897	0.0171838
784.975	0.0172472
785.053	0.0173606
785.131	0.0173502
785.209	0.0175172
785.288	0.0173968
785.366	0.0173577
785.444	0.0173732
785.522	0.0172918
785.600	0.0173248
785.678	0.0174332
785.756	0.0173331
785.834	0.0173425
785.913	0.0172159
785.991	0.0172372
786.069	0.0172646
786.147	0.0172673
786.225	0.0172326
786.303	0.0171681
786.381	0.0172323
786.459	0.0172852
786.538	0.0173444
786.616	0.0173355
786.694	0.0173911
786.772	0.0172589
786.850	0.0174612
786.928	0.0174798
787.006	0.0176018
787.084	0.0174724
787.163	0.0176119
787.241	0.0175874
787.319	0.0176128
787.397	0.0177136
787.475	0.0178296
787.553	0.0177848
787.631	0.0177365
787.709	0.0179300
787.788	0.0179095
787.866	0.0178864
787.944	0.0178208
788.022	0.0178510
788.100	0.0178009
788.178	0.0177185
788.256	0.0175197
788.334	0.0176648
788.413	0.0175108
788.491	0.0174078
788.569	0.0173081
788.647	0.0170589
788.725	0.0170962
788.803	0.0170056
788.881	0.0169942
788.959	0.0168089
789.038	0.0167016
789.116	0.0167157
789.194	0.0166794
789.272	0.0166437
789.350	0.0165847
789.428	0.0165878
789.506	0.0164970
789.584	0.0165144
789.663	0.0165942
789.741	0.0164924
789.819	0.0164388
789.897	0.0166551
789.975	0.0165536
790.053	0.0166673
790.131	0.0166985
790.209	0.0167652
790.288	0.0168138
790.366	0.0169270
790.444	0.0169659
790.522	0.0169994
790.600	0.0172270
790.678	0.0173212
790.756	0.0172770
790.834	0.0173396
790.913	0.0175228
790.991	0.0176195
791.069	0.0175767
791.147	0.0177613
791.225	0.0178436
791.303	0.0178892
791.381	0.0178836
791.459	0.0179440
791.538	0.0179116
791.616	0.0178266
791.694	0.0179624
791.772	0.0179673
791.850	0.0178732
791.928	0.0179082
792.006	0.0178798
792.084	0.0178774
792.163	0.0177862
792.241	0.0176516
792.319	0.0177116
792.397	0.0176987
792.475	0.0176279
792.553	0.0176870
792.631	0.0176089
792.709	0.0176001
792.788	0.0176104
792.866	0.0175075
792.944	0.0173628
793.022	0.0175001
793.100	0.0173699
793.178	0.0174627
793.256	0.0173846
793.334	0.0173997
793.413	0.0173637
793.491	0.0174938
793.569	0.0175549
793.647	0.0175182
793.725	0.0175648
793.803	0.0174968
793.881	0.0174657
793.959	0.0174598
794.038	0.0174184
794.116	0.0175357
794.194	0.0173854
794.272	0.0174760
794.350	0.0174291
794.428	0.0173405
794.506	0.0171519
794.584	0.0172326
794.663	0.0170890
794.741	0.0169893
794.819	0.0169435
794.897	0.0169501
794.975	0.0168756
795.053	0.0168569
795.131	0.0168600
795.209	0.0168496
795.288	0.0167728
795.366	0.0167534
795.444	0.0168736
795.522	0.0167606
795.600	0.0166129
795.678	0.0167979
795.756	0.0166611
795.834	0.0167191
795.913	0.0167512
795.991	0.0167080
796.069	0.0166539
796.147	0.0166354
796.225	0.0167270
796.303	0.0167601
796.381	0.0167537
796.459	0.0167688
796.538	0.0168120
796.616	0.0167930
796.694	0.0169046
796.772	0.0170015
796.850	0.0170507
796.928	0.0170127
797.006	0.0172498
797.084	0.0172218
797.163	0.0174048
797.241	0.0173766
797.319	0.0175744
797.397	0.0174766
797.475	0.0175727
797.553	0.0177221
797.631	0.0177261
797.709	0.0178040
797.788	0.0176692
797.866	0.0176278
797.944	0.0177861
798.022	0.0177979
798.100	0.0177947
798.178	0.0178472
798.256	0.0178307
798.334	0.0178054
798.413	0.0177463
798.491	0.0177960
798.569	0.0177404
798.647	0.0177406
798.725	0.0177384
798.803	0.0177940
798.881	0.0178371
798.959	0.0177169
799.038	0.0178072
799.116	0.0178741
799.194	0.0177763
799.272	0.0180068
799.350	0.0179546
799.428	0.0180140
799.506	0.0179939
799.584	0.0179893
799.663	0.0179333
799.741	0.0180443
799.819	0.0179095
799.897	0.0179025
799.975	0.0179107
800.053	0.0178830
800.131	0.0176969
800.209	0.0176279
800.288	0.0177327
800.366	0.0176724
800.444	0.0176109
800.522	0.0174574
800.600	0.0173686
800.678	0.0173199
800.756	0.0172073
800.834	0.0170670
800.913	0.0169654
800.991	0.0169934
801.069	0.0170692
801.147	0.0169097
801.225	0.0169977
801.303	0.0169598
801.381	0.0168410
801.459	0.0169467
801.538	0.0168236
801.616	0.0168291
801.694	0.0168983
801.772	0.0169096
801.850	0.0168955
801.928	0.0167622
802.006	0.0168332
802.084	0.0166346
802.163	0.0166698
802.241	0.0165536
802.319	0.0166354
802.397	0.0166251
802.475	0.0166473
802.553	0.0165776
802.631	0.0165927
802.709	0.0165264
802.788	0.0166048
802.866	0.0166772
802.944	0.0165626
803.022	0.0167076
803.100	0.0168190
803.178	0.0167937
803.256	0.0167602
803.334	0.0169563
803.413	0.0169654
803.491	0.0170594
803.569	0.0171018
803.647	0.0171525
803.725	0.0172336
803.803	0.0172569
803.881	0.0172018
803.959	0.0171941
804.038	0.0172453
804.116	0.0173444
804.194	0.0174049
804.272	0.0173634
804.350	0.0173052
804.428	0.0175035
804.506	0.0174208
804.584	0.0174345
804.663	0.0175230
804.741	0.0175930
804.819	0.0175156
804.897	0.0175629
804.975	0.0177035
805.053	0.0178183
805.131	0.0179118
805.209	0.0178632
805.288	0.0179976
805.366	0.0179766
805.444	0.0181229
805.522	0.0180603
805.600	0.0182174
805.678	0.0182803
805.756	0.0182176
805.834	0.0183193
805.913	0.0183112
805.991	0.0183117
806.069	0.0182030
806.147	0.0182345
806.225	0.0181873
806.303	0.0179526
806.381	0.0180583
806.459	0.0178850
806.538	0.0178445
806.616	0.0178094
806.694	0.0176320
806.772	0.0175978
806.850	0.0175822
806.928	0.0172134
807.006	0.0172969
807.084	0.0172552
807.163	0.0172824
807.241	0.0171640
807.319	0.0170283
807.397	0.0170647
807.475	0.0170679
807.553	0.0169487
807.631	0.0169028
807.709	0.0168702
807.788	0.0169897
807.866	0.0169304
807.944	0.0168633
808.022	0.0168998
808.100	0.0167934
808.178	0.0168609
808.256	0.0168889
808.334	0.0168013
808.413	0.0168910
808.491	0.0168102
808.569	0.0167670
808.647	0.0167941
808.725	0.0166008
808.803	0.0166840
808.881	0.0168553
808.959	0.0167207
809.038	0.0168882
809.116	0.0168396
809.194	0.0168045
809.272	0.0168103
809.350	0.0167154
809.428	0.0167781
809.506	0.0168807
809.584	0.0168950
809.663	0.0168636
809.741	0.0169441
809.819	0.0168858
809.897	0.0170023
809.975	0.0170115
810.053	0.0171355
810.131	0.0169667
810.209	0.0169205
810.288	0.0170941
810.366	0.0170689
810.444	0.0172653
810.522	0.0172289
810.600	0.0171564
810.678	0.0172575
810.756	0.0174085
810.834	0.0174004
810.913	0.0174463
810.991	0.0173779
811.069	0.0175147
811.147	0.0175421
811.225	0.0176496
811.303	0.0177493
811.381	0.0176440
811.459	0.0177530
811.538	0.0179364
811.616	0.0179011
811.694	0.0179970
811.772	0.0179640
811.850	0.0180163
811.928	0.0181515
812.006	0.0180398
812.084	0.0180364
812.163	0.0180830
812.241	0.0179749
812.319	0.0180428
812.397	0.0177981
812.475	0.0178780
812.553	0.0177734
812.631	0.0176808
812.709	0.0176731
812.788	0.0174554
812.866	0.0175524
812.944	0.0174371
813.022	0.0173101
813.100	0.0173706
813.178	0.0171107
813.256	0.0172411
813.334	0.0170954
813.413	0.0170435
813.491	0.0170986
813.569	0.0171924
813.647	0.0169907
813.725	0.0168894
813.803	0.0171510
813.881	0.0171104
813.959	0.0171120
814.038	0.0170693
814.116	0.0171517
814.194	0.0170839
814.272	0.0171615
814.350	0.0171248
814.428	0.0171259
814.506	0.0171146
814.584	0.0170428
814.663	0.0171561
814.741	0.0171906
814.819	0.0171779
814.897	0.0173408
814.975	0.0172628
815.053	0.0172756
815.131	0.0173614
815.209	0.0172669
815.288	0.0171661
815.366	0.0173625
815.444	0.0173193
815.522	0.0173698
815.600	0.0173787
815.678	0.0172430
815.756	0.0172145
815.834	0.0173412
815.913	0.0171692
815.991	0.0171949
816.069	0.0172100
816.147	0.0171922
816.225	0.0171566
816.303	0.0172501
816.381	0.0170047
816.459	0.0172216
816.538	0.0171938
816.616	0.0171075
816.694	0.0171818
816.772	0.0173077
816.850	0.0172997
816.928	0.0172887
817.006	0.0172804
817.084	0.0171997
817.163	0.0173562
817.241	0.0175417
817.319	0.0174734
817.397	0.0173199
817.475	0.0175164
817.553	0.0175360
817.631	0.0175032
817.709	0.0174541
817.788	0.0173504
817.866	0.0173663
817.944	0.0174558
818.022	0.0174097
818.100	0.0175122
818.178	0.0173221
818.256	0.0172764
818.334	0.0173312
818.413	0.0172771
818.491	0.0172375
818.569	0.0171576
818.647	0.0170663
818.725	0.0169942
818.803	0.0171133
818.881	0.0171565
818.959	0.0169677
819.038	0.0169358
819.116	0.0171933
819.194	0.0169905
819.272	0.0169950
819.350	0.0169731
819.428	0.0169958
819.506	0.0171510
819.584	0.0171939
819.663	0.0171398
819.741	0.0170468
819.819	0.0170821
819.897	0.0171091
819.975	0.0172746
820.053	0.0172723
820.131	0.0173895
820.209	0.0173373
820.288	0.0172771
820.366	0.0173628
820.444	0.0173509
820.522	0.0173481
820.600	0.0173255
820.678	0.0174670
820.756	0.0175204
820.834	0.0175352
820.913	0.0176391
820.991	0.0176575
821.069	0.0176127
821.147	0.0174816
821.225	0.0176738
821.303	0.0176666
821.381	0.0177129
821.459	0.0177702
821.538	0.0176611
821.616	0.0175733
821.694	0.0177811
821.772	0.0176303
821.850	0.0175442
821.928	0.0175251
822.006	0.0175336
822.084	0.0175397
822.163	0.0174329
822.241	0.0174073
822.319	0.0174630
822.397	0.0173274
822.475	0.0172875
822.553	0.0172688
822.631	0.0172967
822.709	0.0174070
822.788	0.0172305
822.866	0.0171476
822.944	0.0173317
823.022	0.0173743
823.100	0.0172134
823.178	0.0173677
823.256	0.0174311
823.334	0.0172929
823.413	0.0173503
823.491	0.0174633
823.569	0.0174501
823.647	0.0173417
823.725	0.0174032
823.803	0.0173539
823.881	0.0173083
823.959	0.0171819
824.038	0.0172298
824.116	0.0172840
824.194	0.0173141
824.272	0.0171824
824.350	0.0171017
824.428	0.0172828
824.506	0.0172931
824.584	0.0169894
824.663	0.0170525
824.741	0.0171252
824.819	0.0170348
824.897	0.0169205
824.975	0.0170191
825.053	0.0170261
825.131	0.0169443
825.209	0.0170265
825.288	0.0169128
825.366	0.0170107
825.444	0.0169581
825.522	0.0169390
825.600	0.0169097
825.678	0.0169345
825.756	0.0169387
825.834	0.0169885
825.913	0.0169452
825.991	0.0169470
826.069	0.0171815
826.147	0.0169971
826.225	0.0170432
826.303	0.0170472
826.381	0.0170971
826.459	0.0171099
826.538	0.0172231
826.616	0.0172451
826.694	0.0173524
826.772	0.0174777
826.850	0.0174829
826.928	0.0174448
827.006	0.0176700
827.084	0.0176768
827.163	0.0177686
827.241	0.0178410
827.319	0.0178040
827.397	0.0176775
827.475	0.0177667
827.553	0.0178713
827.631	0.0177599
827.709	0.0177408
827.788	0.0178058
827.866	0.0177184
827.944	0.0177154
828.022	0.0176257
828.100	0.0176453
828.178	0.0176363
828.256	0.0175751
828.334	0.0174969
828.413	0.0175410
828.491	0.0174401
828.569	0.0175752
828.647	0.0175314
828.725	0.0175251
828.803	0.0174148
828.881	0.0173582
828.959	0.0174461
829.038	0.0172633
829.116	0.0174938
829.194	0.0174401
829.272	0.0175070
829.350	0.0175002
829.428	0.0173415
829.506	0.0174266
829.584	0.0174520
829.663	0.0173239
829.741	0.0174278
829.819	0.0173213
829.897	0.0172557
829.975	0.0172315
830.053	0.0171246
830.131	0.0171944
830.209	0.0172636
830.288	0.0171076
830.366	0.0171484
830.444	0.0171719
830.522	0.0171504
830.600	0.0170181
830.678	0.0171870
830.756	0.0171996
830.834	0.0169849
830.913	0.0172078
830.991	0.0171761
831.069	0.0171815
831.147	0.0170267
831.225	0.0171060
831.303	0.0171284
831.381	0.0172437
831.459	0.0172471
831.538	0.0172384
831.616	0.0171598
831.694	0.0172131
831.772	0.0171012
831.850	0.0172205
831.928	0.0171976
832.006	0.0171372
832.084	0.0170850
832.163	0.0171387
832.241	0.0172199
832.319	0.0171996
832.397	0.0172079
832.475	0.0172115
832.553	0.0170721
832.631	0.0172469
832.709	0.0171941
832.788	0.0171370
832.866	0.0171960
832.944	0.0173271
833.022	0.0172926
833.100	0.0172762
833.178	0.0173785
833.256	0.0172752
833.334	0.0172794
833.413	0.0173510
833.491	0.0172948
833.569	0.0173744
833.647	0.0173048
833.725	0.0174762
833.803	0.0173746
833.881	0.0173606
833.959	0.0174783
834.038	0.0173577
834.116	0.0173731
834.194	0.0174207
834.272	0.0173569
834.350	0.0173529
834.428	0.0173161
834.506	0.0174103
834.584	0.0173902
834.663	0.0173468
834.741	0.0173557
834.819	0.0173182
834.897	0.0174701
834.975	0.0174882
835.053	0.0174044
835.131	0.0172959
835.209	0.0174483
835.288	0.0174765
835.366	0.0175667
835.444	0.0174467
835.522	0.0174663
835.600	0.0174733
835.678	0.0176685
835.756	0.0174581
835.834	0.0174841
835.913	0.0175287
835.991	0.0175688
836.069	0.0176514
836.147	0.0175165
836.225	0.0174576
836.303	0.0173711
836.381	0.0174281
836.459	0.0173952
836.538	0.0172626
836.616	0.0171821
836.694	0.0172841
836.772	0.0172391
836.850	0.0173064
836.928	0.0174843
837.006	0.0173852
837.084	0.0171701
837.163	0.0172601
837.241	0.0172781
837.319	0.0171189
837.397	0.0172558
837.475	0.0171439
837.553	0.0171437
837.631	0.0170736
837.709	0.0170375
837.788	0.0172491
837.866	0.0171622
837.944	0.0170854
838.022	0.0170687
838.100	0.0171209
838.178	0.0171365
838.256	0.0172741
838.334	0.0171480
838.413	0.0172655
838.491	0.0172321
838.569	0.0172325
838.647	0.0173310
838.725	0.0173133
838.803	0.0172208
838.881	0.0173148
838.959	0.0174047
839.038	0.0172997
839.116	0.0173286
839.194	0.0174197
839.272	0.0174225
839.350	0.0172989
839.428	0.0173064
839.506	0.0172240
839.584	0.0174151
839.663	0.0173396
839.741	0.0173603
839.819	0.0173746
839.897	0.0173967
839.975	0.0175246
840.053	0.0174577
840.131	0.0176169
840.209	0.0175885
840.288	0.0175146
840.366	0.0174870
840.444	0.0175768
840.522	0.0175497
840.600	0.0175227
840.678	0.0173676
840.756	0.0173381
840.834	0.0174464
840.913	0.0172456
840.991	0.0172729
841.069	0.0173893
841.147	0.0174083
841.225	0.0173517
841.303	0.0174351
841.381	0.0172967
841.459	0.0172379
841.538	0.0172600
841.616	0.0174825
841.694	0.0173639
841.772	0.0174375
841.850	0.0174294
841.928	0.0174983
842.006	0.0176246
842.084	0.0176923
842.163	0.0174959
842.241	0.0173831
842.319	0.0173356
842.397	0.0174584
842.475	0.0173882
842.553	0.0173221
842.631	0.0174120
842.709	0.0172398
842.788	0.0172713
842.866	0.0171771
842.944	0.0171075
843.022	0.0170797
843.100	0.0172556
843.178	0.0171190
843.256	0.0171352
843.334	0.0172821
843.413	0.0171420
843.491	0.0171787
843.569	0.0170367
843.647	0.0170526
843.725	0.0171979
843.803	0.0170765
843.881	0.0170866
843.959	0.0170087
844.038	0.0172086
844.116	0.0170911
844.194	0.0171107
844.272	0.0171044
844.350	0.0171478
844.428	0.0171802
844.506	0.0171960
844.584	0.0172380
844.663	0.0171904
844.741	0.0173149
844.819	0.0174100
844.897	0.0174150
844.975	0.0172942
845.053	0.0174362
845.131	0.0174724
845.209	0.0175465
845.288	0.0175117
845.366	0.0175238
845.444	0.0175373
845.522	0.0175774
845.600	0.0177584
845.678	0.0175729
845.756	0.0176763
845.834	0.0176421
845.913	0.0176449
845.991	0.0176358
846.069	0.0174854
846.147	0.0176564
846.225	0.0174992
846.303	0.0173408
846.381	0.0172108
846.459	0.0172382
846.538	0.0171495
846.616	0.0170650
846.694	0.0170573
846.772	0.0170628
846.850	0.0170809
846.928	0.0170982
847.006	0.0171235
847.084	0.0170927
847.163	0.0170978
847.241	0.0171590
847.319	0.0172713
847.397	0.0172107
847.475	0.0174197
847.553	0.0174329
847.631	0.0173245
847.709	0.0173122
847.788	0.0173504
847.866	0.0174165
847.944	0.0173151
848.022	0.0173083
848.100	0.0173573
848.178	0.0173618
848.256	0.0173494
848.334	0.0173423
848.413	0.0173682
848.491	0.0174432
848.569	0.0174314
848.647	0.0172599
848.725	0.0173100
848.803	0.0171859
848.881	0.0171886
848.959	0.0172900
849.038	0.0172045
849.116	0.0171693
849.194	0.0172746
849.272	0.0171403
849.350	0.0171647
849.428	0.0171050
849.506	0.0170803
849.584	0.0170551
849.663	0.0170436
849.741	0.0170737
849.819	0.0171113
849.897	0.0170804
849.975	0.0169985
850.053	0.0172214
850.131	0.0171097
850.209	0.0172678
850.288	0.0173548
850.366	0.0173807
850.444	0.0174472
850.522	0.0173360
850.600	0.0173740
850.678	0.0175348
850.756	0.0175082
850.834	0.0174883
850.913	0.0174451
850.991	0.0173133
851.069	0.0173149
851.147	0.0173531
851.225	0.0174419
851.303	0.0175130
851.381	0.0174193
851.459	0.0175043
851.538	0.0176065
851.616	0.0174643
851.694	0.0175381
851.772	0.0176491
851.850	0.0175382
851.928	0.0174788
852.006	0.0175539
852.084	0.0175433
852.163	0.0174723
852.241	0.0176688
852.319	0.0175705
852.397	0.0174917
852.475	0.0174449
852.553	0.0173192
852.631	0.0173138
852.709	0.0172594
852.788	0.0173799
852.866	0.0170863
852.944	0.0171767
853.022	0.0171238
853.100	0.0170316
853.178	0.0170934
853.256	0.0172033
853.334	0.0171291
853.413	0.0170965
853.491	0.0171339
853.569	0.0173544
853.647	0.0173848
853.725	0.0172221
853.803	0.0172350
853.881	0.0173111
853.959	0.0173999
854.038	0.0174406
854.116	0.0173955
854.194	0.0174059
854.272	0.0173712
854.350	0.0172893
854.428	0.0172900
854.506	0.0173509
854.584	0.0173252
854.663	0.0172372
854.741	0.0173677
854.819	0.0173772
854.897	0.0172614
854.975	0.0173869
855.053	0.0173078
855.131	0.0173808
855.209	0.0174303
855.288	0.0173677
855.366	0.0174285
855.444	0.0173325
855.522	0.0172174
855.600	0.0173881
855.678	0.0172482
855.756	0.0171884
855.834	0.0174112
855.913	0.0174163
855.991	0.0173144
856.069	0.0174178
856.147	0.0173614
856.225	0.0172446
856.303	0.0172678
856.381	0.0172778
856.459	0.0172572
856.538	0.0173801
856.616	0.0171259
856.694	0.0171075
856.772	0.0172362
856.850	0.0172599
856.928	0.0170763
857.006	0.0172237
857.084	0.0171620
857.163	0.0171189
857.241	0.0171711
857.319	0.0170335
857.397	0.0171184
857.475	0.0170855
857.553	0.0170730
857.631	0.0170399
857.709	0.0170839
857.788	0.0170090
857.866	0.0168868
857.944	0.0169998
858.022	0.0168288
858.100	0.0169030
858.178	0.0169554
858.256	0.0170986
858.334	0.0169395
858.413	0.0170644
858.491	0.0171717
858.569	0.0172784
858.647	0.0173072
858.725	0.0174501
858.803	0.0176261
858.881	0.0175256
858.959	0.0176501
859.038	0.0178016
859.116	0.0178808
859.194	0.0179051
859.272	0.0179168
859.350	0.0180162
859.428	0.0177444
859.506	0.0177998
859.584	0.0178103
859.663	0.0176111
859.741	0.0177816
859.819	0.0176921
859.897	0.0176082
859.975	0.0175577
860.053	0.0174063
860.131	0.0174390
860.209	0.0174988
860.288	0.0174783
860.366	0.0172765
860.444	0.0173190
860.522	0.0172115
860.600	0.0172520
860.678	0.0170606
860.756	0.0170689
860.834	0.0171497
860.913	0.0171136
860.991	0.0170981
861.069	0.0171152
861.147	0.0171899
861.225	0.0170950
861.303	0.0171133
861.381	0.0173515
861.459	0.0172662
861.538	0.0170573
861.616	0.0170248
861.694	0.0172802
861.772	0.0171247
861.850	0.0171085
861.928	0.0173531
862.006	0.0172025
862.084	0.0172894
862.163	0.0173921
862.241	0.0173058
862.319	0.0171962
862.397	0.0173154
862.475	0.0173310
862.553	0.0171431
862.631	0.0170502
862.709	0.0170625
862.788	0.0169759
862.866	0.0170142
862.944	0.0171267
863.022	0.0167065
863.100	0.0168920
863.178	0.0168723
863.256	0.0169505
863.334	0.0168461
863.413	0.0169233
863.491	0.0171111
863.569	0.0171563
863.647	0.0170436
863.725	0.0171276
863.803	0.0173252
863.881	0.0173698
863.959	0.0174958
864.038	0.0174023
864.116	0.0175941
864.194	0.0176772
864.272	0.0177082
864.350	0.0178394
864.428	0.0178674
864.506	0.0178152
864.584	0.0178156
864.663	0.0178657
864.741	0.0176546
864.819	0.0177329
864.897	0.0175201
864.975	0.0177465
865.053	0.0177286
865.131	0.0175246
865.209	0.0175397
865.288	0.0174141
865.366	0.0174844
865.444	0.0174937
865.522	0.0174369
865.600	0.0173158
865.678	0.0172411
865.756	0.0172519
865.834	0.0173972
865.913	0.0172744
865.991	0.0171349
866.069	0.0171900
866.147	0.0171631
866.225	0.0169956
866.303	0.0171574
866.381	0.0171179
866.459	0.0171249
866.538	0.0171380
866.616	0.0172092
866.694	0.0172495
866.772	0.0172824
866.850	0.0172315
866.928	0.0171626
867.006	0.0173053
867.084	0.0173378
867.163	0.0172867
867.241	0.0175140
867.319	0.0174316
867.397	0.0176134
867.475	0.0174477
867.553	0.0175138
867.631	0.0175887
867.709	0.0174636
867.788	0.0174187
867.866	0.0173511
867.944	0.0174086
868.022	0.0172409
868.100	0.0173215
868.178	0.0172308
868.256	0.0172007
868.334	0.0171818
868.413	0.0171289
868.491	0.0171103
868.569	0.0169778
868.647	0.0169853
868.725	0.0170322
868.803	0.0168005
868.881	0.0168117
868.959	0.0167938
869.038	0.0168966
869.116	0.0167177
869.194	0.0168314
869.272	0.0169045
869.350	0.0169096
869.428	0.0169623
869.506	0.0170078
869.584	0.0169952
869.663	0.0170354
869.741	0.0172290
869.819	0.0174148
869.897	0.0172881
869.975	0.0174176
870.053	0.0175233
870.131	0.0175013
870.209	0.0176336
870.288	0.0177952
870.366	0.0177573
870.444	0.0177752
870.522	0.0178043
870.600	0.0179002
870.678	0.0177548
870.756	0.0179272
870.834	0.0179384
870.913	0.0176202
870.991	0.0176875
871.069	0.0177539
871.147	0.0176898
871.225	0.0174610
871.303	0.0173457
871.381	0.0171825
871.459	0.0173605
871.538	0.0171024
871.616	0.0170351
871.694	0.0171130
871.772	0.0170149
871.850	0.0168615
871.928	0.0170003
872.006	0.0172204
872.084	0.0171460
872.163	0.0172378
872.241	0.0171830
872.319	0.0173401
872.397	0.0172587
872.475	0.0174322
872.553	0.0175379
872.631	0.0174052
872.709	0.0174210
872.788	0.0174407
872.866	0.0173590
872.944	0.0173954
873.022	0.0173891
873.100	0.0174496
873.178	0.0171895
873.256	0.0171305
873.334	0.0172556
873.413	0.0172623
873.491	0.0172630
873.569	0.0171793
873.647	0.0170950
873.725	0.0171841
873.803	0.0170922
873.881	0.0171442
873.959	0.0171527
874.038	0.0171184
874.116	0.0170833
874.194	0.0170921
874.272	0.0171076
874.350	0.0169971
874.428	0.0171479
874.506	0.0170655
874.584	0.0171288
874.663	0.0169228
874.741	0.0169260
874.819	0.0169483
874.897	0.0169127
874.975	0.0169009
875.053	0.0168136
875.131	0.0168681
875.209	0.0170081
875.288	0.0169632
875.366	0.0171358
875.444	0.0172784
875.522	0.0172275
875.600	0.0175820
875.678	0.0175336
875.756	0.0175677
875.834	0.0175475
875.913	0.0175345
875.991	0.0176254
876.069	0.0176617
876.147	0.0178377
876.225	0.0177676
876.303	0.0177871
876.381	0.0176600
876.459	0.0176142
876.538	0.0177676
876.616	0.0177032
876.694	0.0177002
876.772	0.0176739
876.850	0.0176411
876.928	0.0176060
877.006	0.0176688
877.084	0.0175992
877.163	0.0176134
877.241	0.0174705
877.319	0.0173996
877.397	0.0174489
877.475	0.0172437
877.553	0.0171072
877.631	0.0170840
877.709	0.0170577
877.788	0.0170556
877.866	0.0169902
877.944	0.0169003
878.022	0.0169449
878.100	0.0169920
878.178	0.0169594
878.256	0.0170276
878.334	0.0170811
878.413	0.0170720
878.491	0.0171246
878.569	0.0170712
878.647	0.0172069
878.725	0.0171854
878.803	0.0173520
878.881	0.0172504
878.959	0.0174801
879.038	0.0173529
879.116	0.0173089
879.194	0.0174098
879.272	0.0174976
879.350	0.0175768
879.428	0.0175539
879.506	0.0174632
879.584	0.0174244
879.663	0.0174706
879.741	0.0175716
879.819	0.0175272
879.897	0.0174054
879.975	0.0176300
880.053	0.0176460
880.131	0.0175460
880.209	0.0175800
880.288	0.0174895
880.366	0.0173539
880.444	0.0173898
880.522	0.0174136
880.600	0.0173354
880.678	0.0172807
880.756	0.0171375
880.834	0.0170994
880.913	0.0169831
880.991	0.0170146
881.069	0.0169450
881.147	0.0169439
881.225	0.0168523
881.303	0.0168610
881.381	0.0168421
881.459	0.0169344
881.538	0.0169769
881.616	0.0170453
881.694	0.0169441
881.772	0.0170859
881.850	0.0173476
881.928	0.0171939
882.006	0.0173081
882.084	0.0173321
882.163	0.0175113
882.241	0.0175354
882.319	0.0173869
882.397	0.0174570
882.475	0.0175687
882.553	0.0176006
882.631	0.0175254
882.709	0.0174778
882.788	0.0174110
882.866	0.0173622
882.944	0.0174609
883.022	0.0173029
883.100	0.0173286
883.178	0.0173864
883.256	0.0172846
883.334	0.0172518
883.413	0.0172931
883.491	0.0173347
883.569	0.0174051
883.647	0.0172036
883.725	0.0171297
883.803	0.0172153
883.881	0.0170776
883.959	0.0170238
884.038	0.0171620
884.116	0.0171993
884.194	0.0171673
884.272	0.0172176
884.350	0.0171659
884.428	0.0171105
884.506	0.0172932
884.584	0.0174041
884.663	0.0174153
884.741	0.0175275
884.819	0.0174597
884.897	0.0173825
884.975	0.0176164
885.053	0.0176495
885.131	0.0176447
885.209	0.0176048
885.288	0.0175369
885.366	0.0176134
885.444	0.0176756
885.522	0.0175508
885.600	0.0175666
885.678	0.0176890
885.756	0.0177280
885.834	0.0176357
885.913	0.0175891
885.991	0.0174777
886.069	0.0174431
886.147	0.0176387
886.225	0.0175236
886.303	0.0174151
886.381	0.0173721
886.459	0.0172163
886.538	0.0173354
886.616	0.0173495
886.694	0.0169846
886.772	0.0170483
886.850	0.0168941
886.928	0.0169176
887.006	0.0167393
887.084	0.0166254
887.163	0.0164411
887.241	0.0164571
887.319	0.0163927
887.397	0.0165605
887.475	0.0165012
887.553	0.0165027
887.631	0.0166013
887.709	0.0166634
887.788	0.0168570
887.866	0.0169323
887.944	0.0169550
888.022	0.0171950
888.100	0.0172901
888.178	0.0175138
888.256	0.0174091
888.334	0.0174417
888.413	0.0174815
888.491	0.0176876
888.569	0.0176197
888.647	0.0177140
888.725	0.0177397
888.803	0.0177805
888.881	0.0176591
888.959	0.0176210
889.038	0.0176208
889.116	0.0176176
889.194	0.0174965
889.272	0.0174833
889.350	0.0174158
889.428	0.0174693
889.506	0.0174176
889.584	0.0175033
889.663	0.0173734
889.741	0.0173281
889.819	0.0173252
889.897	0.0173687
889.975	0.0173750
890.053	0.0173899
890.131	0.0173338
890.209	0.0173727
890.288	0.0173710
890.366	0.0172837
890.444	0.0173257
890.522	0.0173489
890.600	0.0173914
890.678	0.0173161
890.756	0.0172972
890.834	0.0173830
890.913	0.0174196
890.991	0.0174175
891.069	0.0175177
891.147	0.0175141
891.225	0.0174906
891.303	0.0173827
891.381	0.0173682
891.459	0.0173897
891.538	0.0174425
891.616	0.0171503
891.694	0.0172373
891.772	0.0174610
891.850	0.0172986
891.928	0.0174135
892.006	0.0173721
892.084	0.0173281
892.163	0.0172784
892.241	0.0173773
892.319	0.0173574
892.397	0.0173092
892.475	0.0172078
892.553	0.0172704
892.631	0.0172343
892.709	0.0171583
892.788	0.0171428
892.866	0.0170927
892.944	0.0169841
893.022	0.0169270
893.100	0.0169590
893.178	0.0168404
893.256	0.0167355
893.334	0.0168592
893.413	0.0167934
893.491	0.0167017
893.569	0.0168380
893.647	0.0168351
893.725	0.0168276
893.803	0.0169372
893.881	0.0168486
893.959	0.0169772
894.038	0.0169912
894.116	0.0170660
894.194	0.0171008
894.272	0.0173785
894.350	0.0173798
894.428	0.0175397
894.506	0.0174037
894.584	0.0175391
894.663	0.0174431
894.741	0.0175585
894.819	0.0173967
894.897	0.0175334
894.975	0.0175203
895.053	0.0175349
895.131	0.0175208
895.209	0.0173723
895.288	0.0175930
895.366	0.0174604
895.444	0.0173159
895.522	0.0174251
895.600	0.0174847
895.678	0.0175583
895.756	0.0175249
895.834	0.0175787
895.913	0.0174935
895.991	0.0174530
896.069	0.0173819
896.147	0.0172926
896.225	0.0173659
896.303	0.0174662
896.381	0.0174849
896.459	0.0173591
896.538	0.0171677
896.616	0.0173669
896.694	0.0175149
896.772	0.0174281
896.850	0.0174277
896.928	0.0174139
897.006	0.0175299
897.084	0.0174609
897.163	0.0174495
897.241	0.0173973
897.319	0.0173729
897.397	0.0173037
897.475	0.0173891
897.553	0.0174070
897.631	0.0174404
897.709	0.0174043
897.788	0.0173277
897.866	0.0173622
897.944	0.0173074
898.022	0.0173907
898.100	0.0173695
898.178	0.0171874
898.256	0.0174145
898.334	0.0174135
898.413	0.0173643
898.491	0.0174147
898.569	0.0173837
898.647	0.0173825
898.725	0.0174351
898.803	0.0173670
898.881	0.0173681
898.959	0.0173383
899.038	0.0172446
899.116	0.0172604
899.194	0.0171871
899.272	0.0171391
899.350	0.0170184
899.428	0.0169882
899.506	0.0170776
899.584	0.0169821
899.663	0.0168925
899.741	0.0169711
899.819	0.0170598
899.897	0.0170515
899.975	0.0169888
900.053	0.0169966
900.131	0.0169767
900.209	0.0172907
900.288	0.0173072
900.366	0.0172623
900.444	0.0172089
900.522	0.0172404
900.600	0.0172527
900.678	0.0172963
900.756	0.0173779
900.834	0.0172914
900.913	0.0173138
900.991	0.0172614
901.069	0.0173203
901.147	0.0172533
901.225	0.0171088
901.303	0.0171873
901.381	0.0173255
901.459	0.0172728
901.538	0.0172263
901.616	0.0172163
901.694	0.0172401
901.772	0.0173494
901.850	0.0173297
901.928	0.0173042
902.006	0.0172157
902.084	0.0173247
902.163	0.0173370
902.241	0.0173009
902.319	0.0173803
902.397	0.0173602
902.475	0.0174132
902.553	0.0175258
902.631	0.0174720
902.709	0.0174353
902.788	0.0175717
902.866	0.0175089
902.944	0.0175015
903.022	0.0175826
903.100	0.0175919
903.178	0.0175747
903.256	0.0176057
903.334	0.0176011
903.413	0.0177029
903.491	0.0174217
903.569	0.0176284
903.647	0.0176558
903.725	0.0175805
903.803	0.0175985
903.881	0.0174857
903.959	0.0174680
904.038	0.0173892
904.116	0.0174403
904.194	0.0174271
904.272	0.0174286
904.350	0.0173991
904.428	0.0172882
904.506	0.0174574
904.584	0.0173338
904.663	0.0172915
904.741	0.0173589
904.819	0.0172608
904.897	0.0172781
904.975	0.0172334
905.053	0.0172099
905.131	0.0170805
905.209	0.0172080
905.288	0.0170565
905.366	0.0170492
905.444	0.0169827
905.522	0.0170698
905.600	0.0169489
905.678	0.0169275
905.756	0.0169170
905.834	0.0169119
905.913	0.0169971
905.991	0.0168986
906.069	0.0169617
906.147	0.0170498
906.225	0.0170942
906.303	0.0171758
906.381	0.0172350
906.459	0.0172649
906.538	0.0173170
906.616	0.0174644
906.694	0.0174929
906.772	0.0174003
906.850	0.0173471
906.928	0.0173804
907.006	0.0174978
907.084	0.0174557
907.163	0.0173071
907.241	0.0175109
907.319	0.0175070
907.397	0.0172596
907.475	0.0173136
907.553	0.0173878
907.631	0.0173550
907.709	0.0172585
907.788	0.0173044
907.866	0.0173991
907.944	0.0172842
908.022	0.0172678
908.100	0.0171959
908.178	0.0172297
908.256	0.0173287
908.334	0.0173212
908.413	0.0173923
908.491	0.0173399
908.569	0.0172928
908.647	0.0173370
908.725	0.0174352
908.803	0.0173547
908.881	0.0173398
908.959	0.0174007
909.038	0.0173856
909.116	0.0174724
909.194	0.0174512
909.272	0.0174847
909.350	0.0175177
909.428	0.0175750
909.506	0.0174473
909.584	0.0174821
909.663	0.0174779
909.741	0.0174833
909.819	0.0174664
909.897	0.0173335
909.975	0.0174526
910.053	0.0174182
910.131	0.0174620
910.209	0.0174564
910.288	0.0173023
910.366	0.0174352
910.444	0.0172176
910.522	0.0173571
910.600	0.0173260
910.678	0.0172511
910.756	0.0173646
910.834	0.0172787
910.913	0.0173959
910.991	0.0174259
911.069	0.0173505
911.147	0.0172672
911.225	0.0172865
911.303	0.0172540
911.381	0.0172977
911.459	0.0172474
911.538	0.0171661
911.616	0.0172255
911.694	0.0172875
911.772	0.0172166
911.850	0.0173170
911.928	0.0173212
912.006	0.0173373
912.084	0.0173099
912.163	0.0172662
912.241	0.0173622
912.319	0.0173529
912.397	0.0171863
912.475	0.0171793
912.553	0.0173710
912.631	0.0173326
912.709	0.0173920
912.788	0.0172865
912.866	0.0172356
912.944	0.0173150
913.022	0.0173164
913.100	0.0173846
913.178	0.0171481
913.256	0.0172421
913.334	0.0172942
913.413	0.0173090
913.491	0.0171759
913.569	0.0173945
913.647	0.0171917
913.725	0.0172445
913.803	0.0171567
913.881	0.0171542
913.959	0.0172116
914.038	0.0172406
914.116	0.0172510
914.194	0.0172640
914.272	0.0173154
914.350	0.0172751
914.428	0.0172856
914.506	0.0172279
914.584	0.0172883
914.663	0.0172646
914.741	0.0171809
914.819	0.0174094
914.897	0.0173055
914.975	0.0172855
915.053	0.0172666
915.131	0.0171694
915.209	0.0173412
915.288	0.0173725
915.366	0.0173123
915.444	0.0173391
915.522	0.0174104
915.600	0.0173247
915.678	0.0171988
915.756	0.0173626
915.834	0.0173601
915.913	0.0173274
915.991	0.0172681
916.069	0.0171380
916.147	0.0171414
916.225	0.0173043
916.303	0.0172862
916.381	0.0170537
916.459	0.0171809
916.538	0.0172646
916.616	0.0171854
916.694	0.0171738
916.772	0.0171777
916.850	0.0172299
916.928	0.0172298
917.006	0.0173499
917.084	0.0173215
917.163	0.0172552
917.241	0.0172878
917.319	0.0175367
917.397	0.0174165
917.475	0.0174762
917.553	0.0174357
917.631	0.0174509
917.709	0.0174799
917.788	0.0174043
917.866	0.0174873
917.944	0.0174920
918.022	0.0174810
918.100	0.0175134
918.178	0.0176421
918.256	0.0176838
918.334	0.0176025
918.413	0.0176636
918.491	0.0175359
918.569	0.0176534
918.647	0.0175136
918.725	0.0176235
918.803	0.0175361
918.881	0.0174292
918.959	0.0174933
919.038	0.0174342
919.116	0.0173193
919.194	0.0173262
919.272	0.0172589
919.350	0.0173703
919.428	0.0172043
919.506	0.0171566
919.584	0.0172527
919.663	0.0172041
919.741	0.0172545
919.819	0.0172572
919.897	0.0172404
