06/01/2022	17:32:45	Ver.	4.1	UNKNOWN
Optical Delay	599.975067	Delta X		0.078125	Sweeps	1	Scan Rate	0/0
Coordinates	Axis 1	NaN	Axis 2	NaN	Axis 3	NaN	Axis 4	NaN	Axis 5	NaN	Axis 6	0.000000
TX Power	0.000000	RX Power	0.000000

599.975	0.0166666
600.053	0.0167401
600.131	0.0167984
600.209	0.0165459
600.288	0.0166170
600.366	0.0168005
600.444	0.0165726
600.522	0.0167145
600.600	0.0165963
600.678	0.0166998
600.756	0.0166573
600.834	0.0167167
600.913	0.0166827
600.991	0.0166929
601.069	0.0167133
601.147	0.0166492
601.225	0.0167396
601.303	0.0167245
601.381	0.0167818
601.459	0.0167193
601.538	0.0166981
601.616	0.0165771
601.694	0.0166203
601.772	0.0165943
601.850	0.0165405
601.928	0.0165737
602.006	0.0167371
602.084	0.0166354
602.163	0.0166203
602.241	0.0166296
602.319	0.0166495
602.397	0.0166652
602.475	0.0166247
602.553	0.0167423
602.631	0.0166744
602.709	0.0167711
602.788	0.0166730
602.866	0.0166507
602.944	0.0166710
603.022	0.0167517
603.100	0.0167625
603.178	0.0167461
603.256	0.0168060
603.334	0.0166824
603.413	0.0166973
603.491	0.0166319
603.569	0.0166528
603.647	0.0167470
603.725	0.0167635
603.803	0.0167168
603.881	0.0166575
603.959	0.0167125
604.038	0.0167194
604.116	0.0166769
604.194	0.0166926
604.272	0.0167150
604.350	0.0167163
604.428	0.0166212
604.506	0.0165724
604.584	0.0167011
604.663	0.0166236
604.741	0.0167581
604.819	0.0166231
604.897	0.0167849
604.975	0.0167245
605.053	0.0165922
605.131	0.0165275
605.209	0.0167208
605.288	0.0167088
605.366	0.0167163
605.444	0.0168078
605.522	0.0167968
605.600	0.0167193
605.678	0.0167522
605.756	0.0166129
605.834	0.0166422
605.913	0.0167127
605.991	0.0167574
606.069	0.0166345
606.147	0.0166536
606.225	0.0166765
606.303	0.0165346
606.381	0.0167085
606.459	0.0167347
606.538	0.0166644
606.616	0.0166911
606.694	0.0166388
606.772	0.0167316
606.850	0.0166638
606.928	0.0167531
607.006	0.0167728
607.084	0.0167390
607.163	0.0165966
607.241	0.0166769
607.319	0.0166209
607.397	0.0166414
607.475	0.0166521
607.553	0.0166505
607.631	0.0166196
607.709	0.0168811
607.788	0.0167184
607.866	0.0167513
607.944	0.0166423
608.022	0.0167479
608.100	0.0168095
608.178	0.0166161
608.256	0.0165985
608.334	0.0166736
608.413	0.0166805
608.491	0.0166606
608.569	0.0167473
608.647	0.0166980
608.725	0.0166242
608.803	0.0166926
608.881	0.0166341
608.959	0.0166334
609.038	0.0166571
609.116	0.0167459
609.194	0.0167038
609.272	0.0166013
609.350	0.0166302
609.428	0.0165892
609.506	0.0167103
609.584	0.0166328
609.663	0.0165830
609.741	0.0166375
609.819	0.0166443
609.897	0.0167770
609.975	0.0166758
610.053	0.0166673
610.131	0.0167477
610.209	0.0166746
610.288	0.0166196
610.366	0.0166684
610.444	0.0167207
610.522	0.0169072
610.600	0.0165784
610.678	0.0166940
610.756	0.0167236
610.834	0.0166867
610.913	0.0167976
610.991	0.0166494
611.069	0.0166360
611.147	0.0167920
611.225	0.0167236
611.303	0.0167020
611.381	0.0168156
611.459	0.0167719
611.538	0.0167422
611.616	0.0167264
611.694	0.0166409
611.772	0.0166805
611.850	0.0167064
611.928	0.0166207
612.006	0.0166515
612.084	0.0166244
612.163	0.0166903
612.241	0.0166009
612.319	0.0166485
612.397	0.0166983
612.475	0.0166608
612.553	0.0165770
612.631	0.0166624
612.709	0.0165479
612.788	0.0166640
612.866	0.0166161
612.944	0.0166556
613.022	0.0166930
613.100	0.0166296
613.178	0.0166945
613.256	0.0166446
613.334	0.0166299
613.413	0.0167085
613.491	0.0166229
613.569	0.0167351
613.647	0.0166934
613.725	0.0166157
613.803	0.0165537
613.881	0.0166064
613.959	0.0166611
614.038	0.0165958
614.116	0.0167738
614.194	0.0167094
614.272	0.0166082
614.350	0.0167208
614.428	0.0167391
614.506	0.0167667
614.584	0.0167268
614.663	0.0165497
614.741	0.0164258
614.819	0.0167141
614.897	0.0166805
614.975	0.0166389
615.053	0.0166823
615.131	0.0166363
615.209	0.0166307
615.288	0.0165917
615.366	0.0165709
615.444	0.0166847
615.522	0.0166266
615.600	0.0166111
615.678	0.0165595
615.756	0.0166042
615.834	0.0166172
615.913	0.0164856
615.991	0.0166377
616.069	0.0165942
616.147	0.0165023
616.225	0.0165800
616.303	0.0165989
616.381	0.0166878
616.459	0.0167355
616.538	0.0166975
616.616	0.0165958
616.694	0.0166505
616.772	0.0167457
616.850	0.0166489
616.928	0.0165663
617.006	0.0166515
617.084	0.0166965
617.163	0.0167332
617.241	0.0165927
617.319	0.0166233
617.397	0.0166550
617.475	0.0167533
617.553	0.0166760
617.631	0.0166973
617.709	0.0167735
617.788	0.0166172
617.866	0.0167519
617.944	0.0166521
618.022	0.0166761
618.100	0.0166309
618.178	0.0166856
618.256	0.0167089
618.334	0.0166724
618.413	0.0166116
618.491	0.0165480
618.569	0.0165961
618.647	0.0166576
618.725	0.0166803
618.803	0.0166323
618.881	0.0166993
618.959	0.0166707
619.038	0.0164710
619.116	0.0166565
619.194	0.0166410
619.272	0.0167246
619.350	0.0165925
619.428	0.0164814
619.506	0.0166311
619.584	0.0166315
619.663	0.0166197
619.741	0.0166647
619.819	0.0165366
619.897	0.0165879
619.975	0.0166160
620.053	0.0165990
620.131	0.0166977
620.209	0.0166462
620.288	0.0166402
620.366	0.0167242
620.444	0.0165431
620.522	0.0166583
620.600	0.0165691
620.678	0.0167953
620.756	0.0166305
620.834	0.0167093
620.913	0.0166358
620.991	0.0167006
621.069	0.0165814
621.147	0.0165977
621.225	0.0167380
621.303	0.0165422
621.381	0.0165056
621.459	0.0166994
621.538	0.0165168
621.616	0.0165995
621.694	0.0166029
621.772	0.0165327
621.850	0.0165888
621.928	0.0166108
622.006	0.0164883
622.084	0.0165495
622.163	0.0166470
622.241	0.0165853
622.319	0.0165402
622.397	0.0165340
622.475	0.0164972
622.553	0.0165782
622.631	0.0166721
622.709	0.0167085
622.788	0.0165339
622.866	0.0166834
622.944	0.0166486
623.022	0.0166688
623.100	0.0166579
623.178	0.0168013
623.256	0.0166477
623.334	0.0166106
623.413	0.0165934
623.491	0.0166935
623.569	0.0167900
623.647	0.0165872
623.725	0.0165406
623.803	0.0167445
623.881	0.0166270
623.959	0.0166601
624.038	0.0166638
624.116	0.0167476
624.194	0.0165899
624.272	0.0165101
624.350	0.0166290
624.428	0.0167320
624.506	0.0165861
624.584	0.0166818
624.663	0.0166605
624.741	0.0165756
624.819	0.0166913
624.897	0.0166328
624.975	0.0165324
625.053	0.0166576
625.131	0.0167194
625.209	0.0166828
625.288	0.0165924
625.366	0.0166111
625.444	0.0167137
625.522	0.0167850
625.600	0.0167075
625.678	0.0166733
625.756	0.0167361
625.834	0.0166496
625.913	0.0166967
625.991	0.0166493
626.069	0.0166393
626.147	0.0168608
626.225	0.0167344
626.303	0.0167463
626.381	0.0166156
626.459	0.0167056
626.538	0.0167619
626.616	0.0168407
626.694	0.0166387
626.772	0.0166265
626.850	0.0165972
626.928	0.0165639
627.006	0.0167140
627.084	0.0165913
627.163	0.0166580
627.241	0.0165812
627.319	0.0167763
627.397	0.0167645
627.475	0.0166176
627.553	0.0167461
627.631	0.0167268
627.709	0.0167857
627.788	0.0166805
627.866	0.0166685
627.944	0.0168724
628.022	0.0167793
628.100	0.0167738
628.178	0.0167471
628.256	0.0167588
628.334	0.0167165
628.413	0.0166434
628.491	0.0166825
628.569	0.0167397
628.647	0.0167597
628.725	0.0166338
628.803	0.0166753
628.881	0.0167117
628.959	0.0168673
629.038	0.0167586
629.116	0.0166151
629.194	0.0166752
629.272	0.0167914
629.350	0.0167277
629.428	0.0167648
629.506	0.0165725
629.584	0.0166932
629.663	0.0166998
629.741	0.0166499
629.819	0.0168253
629.897	0.0167428
629.975	0.0165903
630.053	0.0164296
630.131	0.0165808
630.209	0.0166627
630.288	0.0166519
630.366	0.0166617
630.444	0.0166318
630.522	0.0166135
630.600	0.0167156
630.678	0.0166854
630.756	0.0166295
630.834	0.0166509
630.913	0.0165718
630.991	0.0167709
631.069	0.0167326
631.147	0.0166122
631.225	0.0166044
631.303	0.0167109
631.381	0.0166415
631.459	0.0166500
631.538	0.0167040
631.616	0.0167947
631.694	0.0167188
631.772	0.0166347
631.850	0.0166711
631.928	0.0166892
632.006	0.0166248
632.084	0.0167629
632.163	0.0165592
632.241	0.0166994
632.319	0.0168517
632.397	0.0167182
632.475	0.0166830
632.553	0.0167496
632.631	0.0166428
632.709	0.0166735
632.788	0.0167779
632.866	0.0167972
632.944	0.0167206
633.022	0.0167973
633.100	0.0166773
633.178	0.0168449
633.256	0.0167376
633.334	0.0167225
633.413	0.0165946
633.491	0.0167307
633.569	0.0167118
633.647	0.0166444
633.725	0.0166326
633.803	0.0166833
633.881	0.0166512
633.959	0.0167493
634.038	0.0166871
634.116	0.0166518
634.194	0.0166621
634.272	0.0167731
634.350	0.0168197
634.428	0.0168500
634.506	0.0170154
634.584	0.0167863
634.663	0.0169479
634.741	0.0169356
634.819	0.0168202
634.897	0.0167780
634.975	0.0167476
635.053	0.0163829
635.131	0.0164326
635.209	0.0164873
635.288	0.0162148
635.366	0.0160802
635.444	0.0160761
635.522	0.0160704
635.600	0.0161540
635.678	0.0162540
635.756	0.0162984
635.834	0.0164367
635.913	0.0164999
635.991	0.0167036
636.069	0.0167613
636.147	0.0169805
636.225	0.0171119
636.303	0.0172268
636.381	0.0173556
636.459	0.0172099
636.538	0.0172812
636.616	0.0172419
636.694	0.0173425
636.772	0.0172595
636.850	0.0171832
636.928	0.0170905
637.006	0.0169287
637.084	0.0166379
637.163	0.0164392
637.241	0.0163079
637.319	0.0160143
637.397	0.0160450
637.475	0.0158171
637.553	0.0157437
637.631	0.0154979
637.709	0.0156814
637.788	0.0155191
637.866	0.0157450
637.944	0.0158125
638.022	0.0160299
638.100	0.0161714
638.178	0.0164198
638.256	0.0168191
638.334	0.0170329
638.413	0.0173737
638.491	0.0177544
638.569	0.0178730
638.647	0.0180146
638.725	0.0182639
638.803	0.0181992
638.881	0.0183307
638.959	0.0184432
639.038	0.0182134
639.116	0.0181419
639.194	0.0179452
639.272	0.0176023
639.350	0.0175031
639.428	0.0170218
639.506	0.0167542
639.584	0.0163468
639.663	0.0159076
639.741	0.0153990
639.819	0.0152969
639.897	0.0151202
639.975	0.0149811
640.053	0.0146960
640.131	0.0147344
640.209	0.0147715
640.288	0.0148864
640.366	0.0149680
640.444	0.0152119
640.522	0.0155716
640.600	0.0158142
640.678	0.0160617
640.756	0.0164106
640.834	0.0166525
640.913	0.0167625
640.991	0.0170644
641.069	0.0173181
641.147	0.0175716
641.225	0.0178182
641.303	0.0177300
641.381	0.0179189
641.459	0.0180455
641.538	0.0181065
641.616	0.0180009
641.694	0.0178608
641.772	0.0177151
641.850	0.0178132
641.928	0.0176092
642.006	0.0176425
642.084	0.0173589
642.163	0.0171688
642.241	0.0170835
642.319	0.0168941
642.397	0.0165938
642.475	0.0166727
642.553	0.0165908
642.631	0.0165039
642.709	0.0164107
642.788	0.0164375
642.866	0.0162514
642.944	0.0162683
643.022	0.0162141
643.100	0.0160320
643.178	0.0156882
643.256	0.0156445
643.334	0.0153138
643.413	0.0151840
643.491	0.0151366
643.569	0.0149348
643.647	0.0149034
643.725	0.0148537
643.803	0.0149544
643.881	0.0152321
643.959	0.0152867
644.038	0.0157469
644.116	0.0160714
644.194	0.0163789
644.272	0.0170348
644.350	0.0173486
644.428	0.0176646
644.506	0.0180107
644.584	0.0183038
644.663	0.0185282
644.741	0.0183966
644.819	0.0184934
644.897	0.0184109
644.975	0.0182254
645.053	0.0181599
645.131	0.0181464
645.209	0.0179545
645.288	0.0177543
645.366	0.0176471
645.444	0.0177829
645.522	0.0175817
645.600	0.0175522
645.678	0.0175105
645.756	0.0175195
645.834	0.0174668
645.913	0.0172594
645.991	0.0172028
646.069	0.0171747
646.147	0.0169687
646.225	0.0167147
646.303	0.0166730
646.381	0.0165687
646.459	0.0163946
646.538	0.0161412
646.616	0.0161203
646.694	0.0160017
646.772	0.0157325
646.850	0.0156319
646.928	0.0153609
647.006	0.0151001
647.084	0.0149229
647.163	0.0147724
647.241	0.0145557
647.319	0.0143728
647.397	0.0143330
647.475	0.0142991
647.553	0.0143037
647.631	0.0145047
647.709	0.0145363
647.788	0.0148411
647.866	0.0150861
647.944	0.0151746
648.022	0.0154672
648.100	0.0156503
648.178	0.0158504
648.256	0.0162426
648.334	0.0165712
648.413	0.0167399
648.491	0.0171293
648.569	0.0176147
648.647	0.0180750
648.725	0.0184151
648.803	0.0188353
648.881	0.0193406
648.959	0.0194543
649.038	0.0197624
649.116	0.0200693
649.194	0.0201267
649.272	0.0199741
649.350	0.0200007
649.428	0.0197186
649.506	0.0193591
649.584	0.0190730
649.663	0.0187119
649.741	0.0182809
649.819	0.0180363
649.897	0.0176696
649.975	0.0173619
650.053	0.0173087
650.131	0.0171975
650.209	0.0170843
650.288	0.0169559
650.366	0.0168501
650.444	0.0166042
650.522	0.0164987
650.600	0.0161096
650.678	0.0158143
650.756	0.0152901
650.834	0.0147646
650.913	0.0142226
650.991	0.0138793
651.069	0.0132010
651.147	0.0128348
651.225	0.0125084
651.303	0.0124268
651.381	0.0122654
651.459	0.0124157
651.538	0.0127357
651.616	0.0131207
651.694	0.0135382
651.772	0.0141357
651.850	0.0148885
651.928	0.0154140
652.006	0.0160922
652.084	0.0166537
652.163	0.0172041
652.241	0.0173844
652.319	0.0177726
652.397	0.0180102
652.475	0.0181492
652.553	0.0184465
652.631	0.0184462
652.709	0.0185735
652.788	0.0187060
652.866	0.0190259
652.944	0.0191243
653.022	0.0192723
653.100	0.0195917
653.178	0.0198820
653.256	0.0199719
653.334	0.0200414
653.413	0.0201644
653.491	0.0201247
653.569	0.0199359
653.647	0.0198858
653.725	0.0197134
653.803	0.0193221
653.881	0.0190897
653.959	0.0186975
654.038	0.0182514
654.116	0.0178532
654.194	0.0171581
654.272	0.0167563
654.350	0.0163019
654.428	0.0157964
654.506	0.0154279
654.584	0.0149638
654.663	0.0145582
654.741	0.0141382
654.819	0.0138841
654.897	0.0135699
654.975	0.0133445
655.053	0.0129522
655.131	0.0127026
655.209	0.0126199
655.288	0.0126062
655.366	0.0124747
655.444	0.0124725
655.522	0.0125254
655.600	0.0126988
655.678	0.0128291
655.756	0.0130362
655.834	0.0134817
655.913	0.0137899
655.991	0.0139908
656.069	0.0146192
656.147	0.0150877
656.225	0.0158085
656.303	0.0162415
656.381	0.0169045
656.459	0.0175285
656.538	0.0182713
656.616	0.0188685
656.694	0.0193936
656.772	0.0197389
656.850	0.0203814
656.928	0.0207646
657.006	0.0210287
657.084	0.0215022
657.163	0.0215902
657.241	0.0216578
657.319	0.0213840
657.397	0.0214951
657.475	0.0212293
657.553	0.0208858
657.631	0.0205643
657.709	0.0202051
657.788	0.0199110
657.866	0.0195586
657.944	0.0192547
658.022	0.0187990
658.100	0.0183292
658.178	0.0181855
658.256	0.0174614
658.334	0.0172567
658.413	0.0165900
658.491	0.0161385
658.569	0.0155364
658.647	0.0150163
658.725	0.0145072
658.803	0.0138829
658.881	0.0134157
658.959	0.0131334
659.038	0.0127853
659.116	0.0126370
659.194	0.0124377
659.272	0.0123315
659.350	0.0122755
659.428	0.0124921
659.506	0.0126908
659.584	0.0127455
659.663	0.0128360
659.741	0.0133054
659.819	0.0133394
659.897	0.0136225
659.975	0.0141952
660.053	0.0145091
660.131	0.0149661
660.209	0.0153945
660.288	0.0159424
660.366	0.0163410
660.444	0.0168903
660.522	0.0176457
660.600	0.0180132
660.678	0.0182671
660.756	0.0185835
660.834	0.0188532
660.913	0.0190235
660.991	0.0192490
661.069	0.0193901
661.147	0.0195924
661.225	0.0194647
661.303	0.0193631
661.381	0.0192811
661.459	0.0191476
661.538	0.0191020
661.616	0.0189465
661.694	0.0188899
661.772	0.0186295
661.850	0.0184885
661.928	0.0183004
662.006	0.0180734
662.084	0.0180200
662.163	0.0180400
662.241	0.0176472
662.319	0.0172798
662.397	0.0172007
662.475	0.0168324
662.553	0.0166841
662.631	0.0162933
662.709	0.0160063
662.788	0.0158147
662.866	0.0154410
662.944	0.0151907
663.022	0.0151865
663.100	0.0150145
663.178	0.0150100
663.256	0.0151654
663.334	0.0152837
663.413	0.0154594
663.491	0.0155994
663.569	0.0158517
663.647	0.0160288
663.725	0.0165726
663.803	0.0168988
663.881	0.0170592
663.959	0.0174879
664.038	0.0178730
664.116	0.0179465
664.194	0.0181424
664.272	0.0181886
664.350	0.0182810
664.428	0.0184715
664.506	0.0183434
664.584	0.0181166
664.663	0.0177386
664.741	0.0174166
664.819	0.0170073
664.897	0.0165968
664.975	0.0160977
665.053	0.0156172
665.131	0.0151363
665.209	0.0147874
665.288	0.0142170
665.366	0.0138181
665.444	0.0136110
665.522	0.0132843
665.600	0.0131232
665.678	0.0131580
665.756	0.0132919
665.834	0.0132182
665.913	0.0134367
665.991	0.0137975
666.069	0.0140729
666.147	0.0144425
666.225	0.0145395
666.303	0.0150594
666.381	0.0155341
666.459	0.0160297
666.538	0.0165159
666.616	0.0170152
666.694	0.0175622
666.772	0.0180963
666.850	0.0185683
666.928	0.0191793
667.006	0.0197793
667.084	0.0201959
667.163	0.0206676
667.241	0.0209946
667.319	0.0212347
667.397	0.0214539
667.475	0.0214661
667.553	0.0215823
667.631	0.0212524
667.709	0.0210648
667.788	0.0207121
667.866	0.0201659
667.944	0.0196867
668.022	0.0191253
668.100	0.0184673
668.178	0.0177541
668.256	0.0173074
668.334	0.0165167
668.413	0.0158045
668.491	0.0153442
668.569	0.0146986
668.647	0.0142653
668.725	0.0140951
668.803	0.0139101
668.881	0.0137189
668.959	0.0136082
669.038	0.0136427
669.116	0.0139136
669.194	0.0140611
669.272	0.0144148
669.350	0.0147932
669.428	0.0151396
669.506	0.0154417
669.584	0.0158496
669.663	0.0160921
669.741	0.0162923
669.819	0.0162613
669.897	0.0164237
669.975	0.0163492
670.053	0.0162571
670.131	0.0160574
670.209	0.0159087
670.288	0.0157574
670.366	0.0154427
670.444	0.0153349
670.522	0.0151532
670.600	0.0150617
670.678	0.0151494
670.756	0.0150230
670.834	0.0150935
670.913	0.0152097
670.991	0.0153687
671.069	0.0156736
671.147	0.0158326
671.225	0.0160307
671.303	0.0161896
671.381	0.0165833
671.459	0.0166914
671.538	0.0166644
671.616	0.0166866
671.694	0.0168080
671.772	0.0168653
671.850	0.0170660
671.928	0.0172321
672.006	0.0173866
672.084	0.0177081
672.163	0.0178043
672.241	0.0181939
672.319	0.0184325
672.397	0.0185854
672.475	0.0189011
672.553	0.0192379
672.631	0.0192255
672.709	0.0193351
672.788	0.0194623
672.866	0.0192847
672.944	0.0192451
673.022	0.0191605
673.100	0.0189225
673.178	0.0188673
673.256	0.0186423
673.334	0.0185280
673.413	0.0184148
673.491	0.0182595
673.569	0.0181355
673.647	0.0179964
673.725	0.0178288
673.803	0.0174871
673.881	0.0171954
673.959	0.0169444
674.038	0.0167776
674.116	0.0165027
674.194	0.0161766
674.272	0.0158849
674.350	0.0155555
674.428	0.0154964
674.506	0.0152188
674.584	0.0150902
674.663	0.0150712
674.741	0.0149879
674.819	0.0149968
674.897	0.0151330
674.975	0.0150672
675.053	0.0150503
675.131	0.0150416
675.209	0.0149792
675.288	0.0152027
675.366	0.0151096
675.444	0.0151799
675.522	0.0152295
675.600	0.0151696
675.678	0.0152645
675.756	0.0149791
675.834	0.0151694
675.913	0.0151346
675.991	0.0149257
676.069	0.0149348
676.147	0.0148576
676.225	0.0148285
676.303	0.0148798
676.381	0.0150255
676.459	0.0151175
676.538	0.0152592
676.616	0.0157081
676.694	0.0159084
676.772	0.0162270
676.850	0.0165885
676.928	0.0169440
677.006	0.0173731
677.084	0.0175423
677.163	0.0178157
677.241	0.0180653
677.319	0.0180218
677.397	0.0179242
677.475	0.0178531
677.553	0.0174043
677.631	0.0173201
677.709	0.0170961
677.788	0.0167940
677.866	0.0167486
677.944	0.0165228
678.022	0.0164441
678.100	0.0164034
678.178	0.0164579
678.256	0.0164789
678.334	0.0165495
678.413	0.0168126
678.491	0.0170016
678.569	0.0173006
678.647	0.0175499
678.725	0.0179159
678.803	0.0181296
678.881	0.0184382
678.959	0.0187320
679.038	0.0188378
679.116	0.0190907
679.194	0.0191875
679.272	0.0193671
679.350	0.0194829
679.428	0.0195978
679.506	0.0197211
679.584	0.0196077
679.663	0.0197343
679.741	0.0197680
679.819	0.0196870
679.897	0.0195940
679.975	0.0195338
680.053	0.0192454
680.131	0.0190392
680.209	0.0185859
680.288	0.0181488
680.366	0.0178918
680.444	0.0173074
680.522	0.0168050
680.600	0.0162541
680.678	0.0157934
680.756	0.0152210
680.834	0.0148056
680.913	0.0144023
680.991	0.0141245
681.069	0.0135856
681.147	0.0134629
681.225	0.0131944
681.303	0.0128719
681.381	0.0125990
681.459	0.0124354
681.538	0.0123792
681.616	0.0122459
681.694	0.0122101
681.772	0.0123131
681.850	0.0123515
681.928	0.0125288
682.006	0.0127731
682.084	0.0131886
682.163	0.0133819
682.241	0.0138471
682.319	0.0144170
682.397	0.0151496
682.475	0.0155962
682.553	0.0162717
682.631	0.0167618
682.709	0.0174325
682.788	0.0180860
682.866	0.0184089
682.944	0.0188030
683.022	0.0189779
683.100	0.0191789
683.178	0.0192650
683.256	0.0190971
683.334	0.0189485
683.413	0.0187531
683.491	0.0183920
683.569	0.0181696
683.647	0.0175945
683.725	0.0172131
683.803	0.0170033
683.881	0.0167609
683.959	0.0167263
684.038	0.0164328
684.116	0.0164095
684.194	0.0165738
684.272	0.0163145
684.350	0.0165661
684.428	0.0166063
684.506	0.0165989
684.584	0.0167392
684.663	0.0167133
684.741	0.0169095
684.819	0.0170531
684.897	0.0170882
684.975	0.0171561
685.053	0.0173708
685.131	0.0175366
685.209	0.0175403
685.288	0.0176826
685.366	0.0178370
685.444	0.0179708
685.522	0.0181598
685.600	0.0181859
685.678	0.0182749
685.756	0.0182967
685.834	0.0183204
685.913	0.0183876
685.991	0.0186013
686.069	0.0187695
686.147	0.0189131
686.225	0.0189210
686.303	0.0192199
686.381	0.0193286
686.459	0.0194584
686.538	0.0194170
686.616	0.0192931
686.694	0.0190144
686.772	0.0188183
686.850	0.0184033
686.928	0.0179765
687.006	0.0175391
687.084	0.0169824
687.163	0.0165415
687.241	0.0161018
687.319	0.0154848
687.397	0.0152484
687.475	0.0148359
687.553	0.0144780
687.631	0.0141940
687.709	0.0139566
687.788	0.0136662
687.866	0.0136232
687.944	0.0134092
688.022	0.0132767
688.100	0.0132226
688.178	0.0130928
688.256	0.0129007
688.334	0.0129452
688.413	0.0129289
688.491	0.0130099
688.569	0.0130486
688.647	0.0130419
688.725	0.0133022
688.803	0.0135520
688.881	0.0139423
688.959	0.0140886
689.038	0.0143986
689.116	0.0147116
689.194	0.0152580
689.272	0.0156367
689.350	0.0159757
689.428	0.0164069
689.506	0.0166807
689.584	0.0170329
689.663	0.0171386
689.741	0.0174036
689.819	0.0175476
689.897	0.0177945
689.975	0.0178522
690.053	0.0181751
690.131	0.0183649
690.209	0.0185554
690.288	0.0187951
690.366	0.0189643
690.444	0.0192075
690.522	0.0192970
690.600	0.0193253
690.678	0.0194166
690.756	0.0192995
690.834	0.0191364
690.913	0.0190451
690.991	0.0189696
691.069	0.0187090
691.147	0.0182128
691.225	0.0177560
691.303	0.0174354
691.381	0.0171687
691.459	0.0166788
691.538	0.0161536
691.616	0.0158860
691.694	0.0157229
691.772	0.0154867
691.850	0.0154790
691.928	0.0155430
692.006	0.0157267
692.084	0.0158244
692.163	0.0162920
692.241	0.0167928
692.319	0.0171965
692.397	0.0174960
692.475	0.0178313
692.553	0.0181793
692.631	0.0184647
692.709	0.0186610
692.788	0.0188332
692.866	0.0188609
692.944	0.0190346
693.022	0.0189783
693.100	0.0190510
693.178	0.0190456
693.256	0.0190103
693.334	0.0190125
693.413	0.0190486
693.491	0.0190384
693.569	0.0186919
693.647	0.0183922
693.725	0.0178904
693.803	0.0178278
693.881	0.0173551
693.959	0.0164857
694.038	0.0161233
694.116	0.0156516
694.194	0.0151353
694.272	0.0146176
694.350	0.0140792
694.428	0.0137177
694.506	0.0134478
694.584	0.0131464
694.663	0.0129437
694.741	0.0126579
694.819	0.0126184
694.897	0.0126293
694.975	0.0126830
695.053	0.0127994
695.131	0.0129668
695.209	0.0130178
695.288	0.0130862
695.366	0.0133218
695.444	0.0135001
695.522	0.0136445
695.600	0.0139455
695.678	0.0141615
695.756	0.0142903
695.834	0.0145772
695.913	0.0149319
695.991	0.0154278
696.069	0.0157285
696.147	0.0161536
696.225	0.0166815
696.303	0.0171391
696.381	0.0175582
696.459	0.0180320
696.538	0.0183497
696.616	0.0186344
696.694	0.0189194
696.772	0.0191541
696.850	0.0192818
696.928	0.0194857
697.006	0.0195186
697.084	0.0194212
697.163	0.0193563
697.241	0.0192226
697.319	0.0192000
697.397	0.0191461
697.475	0.0190524
697.553	0.0187251
697.631	0.0186720
697.709	0.0185618
697.788	0.0183654
697.866	0.0180174
697.944	0.0178497
698.022	0.0176850
698.100	0.0174553
698.178	0.0171307
698.256	0.0169556
698.334	0.0166964
698.413	0.0163329
698.491	0.0160373
698.569	0.0157433
698.647	0.0156548
698.725	0.0155574
698.803	0.0155666
698.881	0.0155268
698.959	0.0155798
699.038	0.0158876
699.116	0.0161071
699.194	0.0163219
699.272	0.0167646
699.350	0.0171715
699.428	0.0172678
699.506	0.0177684
699.584	0.0180164
699.663	0.0182688
699.741	0.0185674
699.819	0.0188171
699.897	0.0189294
699.975	0.0189536
700.053	0.0189930
700.131	0.0189208
700.209	0.0189100
700.288	0.0186617
700.366	0.0185416
700.444	0.0183424
700.522	0.0181649
700.600	0.0176977
700.678	0.0175152
700.756	0.0171947
700.834	0.0166956
700.913	0.0163963
700.991	0.0159016
701.069	0.0154812
701.147	0.0152276
701.225	0.0148651
701.303	0.0146061
701.381	0.0143642
701.459	0.0140960
701.538	0.0139394
701.616	0.0139809
701.694	0.0139532
701.772	0.0138282
701.850	0.0137224
701.928	0.0139343
702.006	0.0138321
702.084	0.0137045
702.163	0.0137590
702.241	0.0137401
702.319	0.0139401
702.397	0.0139941
702.475	0.0139764
702.553	0.0140229
702.631	0.0142767
702.709	0.0144838
702.788	0.0148147
702.866	0.0152289
702.944	0.0155844
703.022	0.0160406
703.100	0.0163955
703.178	0.0166955
703.256	0.0171530
703.334	0.0176711
703.413	0.0178080
703.491	0.0182937
703.569	0.0184166
703.647	0.0186805
703.725	0.0187735
703.803	0.0189326
703.881	0.0188689
703.959	0.0191396
704.038	0.0189507
704.116	0.0189309
704.194	0.0189400
704.272	0.0188953
704.350	0.0186222
704.428	0.0185134
704.506	0.0183242
704.584	0.0182635
704.663	0.0179101
704.741	0.0177232
704.819	0.0174223
704.897	0.0171036
704.975	0.0168383
705.053	0.0167072
705.131	0.0164308
705.209	0.0162807
705.288	0.0160834
705.366	0.0160846
705.444	0.0159866
705.522	0.0160214
705.600	0.0159529
705.678	0.0161097
705.756	0.0162489
705.834	0.0165631
705.913	0.0167007
705.991	0.0169228
706.069	0.0172956
706.147	0.0174635
706.225	0.0177824
706.303	0.0180290
706.381	0.0182558
706.459	0.0183314
706.538	0.0184924
706.616	0.0183914
706.694	0.0186797
706.772	0.0188102
706.850	0.0186243
706.928	0.0186305
707.006	0.0184833
707.084	0.0184833
707.163	0.0183499
707.241	0.0182303
707.319	0.0179996
707.397	0.0177770
707.475	0.0174493
707.553	0.0171801
707.631	0.0169634
707.709	0.0165595
707.788	0.0163129
707.866	0.0158466
707.944	0.0155720
708.022	0.0152631
708.100	0.0149979
708.178	0.0148477
708.256	0.0146024
708.334	0.0142378
708.413	0.0141975
708.491	0.0141644
708.569	0.0139745
708.647	0.0140995
708.725	0.0140885
708.803	0.0139088
708.881	0.0139384
708.959	0.0139631
709.038	0.0140099
709.116	0.0139622
709.194	0.0139505
709.272	0.0140553
709.350	0.0141634
709.428	0.0143942
709.506	0.0145694
709.584	0.0147989
709.663	0.0149409
709.741	0.0150988
709.819	0.0155861
709.897	0.0157397
709.975	0.0161653
710.053	0.0166693
710.131	0.0167059
710.209	0.0171527
710.288	0.0174095
710.366	0.0177372
710.444	0.0179022
710.522	0.0181901
710.600	0.0184609
710.678	0.0184484
710.756	0.0184227
710.834	0.0184685
710.913	0.0185098
710.991	0.0185737
711.069	0.0185848
711.147	0.0184469
711.225	0.0183749
711.303	0.0180817
711.381	0.0180261
711.459	0.0178220
711.538	0.0177601
711.616	0.0175926
711.694	0.0175805
711.772	0.0175048
711.850	0.0172179
711.928	0.0170148
712.006	0.0172019
712.084	0.0170824
712.163	0.0169791
712.241	0.0169598
712.319	0.0170085
712.397	0.0168661
712.475	0.0169978
712.553	0.0169660
712.631	0.0170837
712.709	0.0170310
712.788	0.0172092
712.866	0.0172456
712.944	0.0174171
713.022	0.0174821
713.100	0.0176001
713.178	0.0176406
713.256	0.0176279
713.334	0.0176489
713.413	0.0176440
713.491	0.0176984
713.569	0.0176315
713.647	0.0175924
713.725	0.0175014
713.803	0.0174957
713.881	0.0175617
713.959	0.0173598
714.038	0.0173434
714.116	0.0172458
714.194	0.0174002
714.272	0.0171866
714.350	0.0169277
714.428	0.0169376
714.506	0.0168808
714.584	0.0164748
714.663	0.0162757
714.741	0.0163737
714.819	0.0161188
714.897	0.0158356
714.975	0.0157360
715.053	0.0156078
715.131	0.0155404
715.209	0.0153726
715.288	0.0152931
715.366	0.0152599
715.444	0.0150163
715.522	0.0150383
715.600	0.0149142
715.678	0.0147931
715.756	0.0147260
715.834	0.0146361
715.913	0.0146125
715.991	0.0145147
716.069	0.0146182
716.147	0.0145070
716.225	0.0146629
716.303	0.0145857
716.381	0.0146468
716.459	0.0148203
716.538	0.0149478
716.616	0.0151479
716.694	0.0152960
716.772	0.0156277
716.850	0.0157473
716.928	0.0161281
717.006	0.0163937
717.084	0.0166241
717.163	0.0168917
717.241	0.0170935
717.319	0.0173158
717.397	0.0175829
717.475	0.0176465
717.553	0.0175728
717.631	0.0178619
717.709	0.0179034
717.788	0.0178930
717.866	0.0179390
717.944	0.0178764
718.022	0.0178924
718.100	0.0178030
718.178	0.0176233
718.256	0.0175888
718.334	0.0176861
718.413	0.0174908
718.491	0.0173691
718.569	0.0173617
718.647	0.0172469
718.725	0.0173438
718.803	0.0170940
718.881	0.0171228
718.959	0.0170345
719.038	0.0172112
719.116	0.0171275
719.194	0.0171736
719.272	0.0171307
719.350	0.0172933
719.428	0.0172752
719.506	0.0174191
719.584	0.0174219
719.663	0.0174545
719.741	0.0177055
719.819	0.0175553
719.897	0.0176334
719.975	0.0177306
720.053	0.0176627
720.131	0.0176458
720.209	0.0177179
720.288	0.0175797
720.366	0.0174603
720.444	0.0173959
720.522	0.0175173
720.600	0.0174187
720.678	0.0173473
720.756	0.0171943
720.834	0.0170946
720.913	0.0168189
720.991	0.0170555
721.069	0.0168947
721.147	0.0167104
721.225	0.0168135
721.303	0.0166113
721.381	0.0164122
721.459	0.0164668
721.538	0.0163748
721.616	0.0162675
721.694	0.0161309
721.772	0.0162087
721.850	0.0162971
721.928	0.0162737
722.006	0.0161055
722.084	0.0159396
722.163	0.0160123
722.241	0.0161292
722.319	0.0160981
722.397	0.0158236
722.475	0.0155423
722.553	0.0154913
722.631	0.0154354
722.709	0.0153272
722.788	0.0151705
722.866	0.0152173
722.944	0.0150591
723.022	0.0150353
723.100	0.0149648
723.178	0.0149412
723.256	0.0150105
723.334	0.0149957
723.413	0.0149500
723.491	0.0152064
723.569	0.0153515
723.647	0.0153332
723.725	0.0156255
723.803	0.0156011
723.881	0.0156925
723.959	0.0158215
724.038	0.0162601
724.116	0.0164007
724.194	0.0162773
724.272	0.0167105
724.350	0.0170190
724.428	0.0171083
724.506	0.0171937
724.584	0.0173537
724.663	0.0174983
724.741	0.0176040
724.819	0.0176155
724.897	0.0175684
724.975	0.0176026
725.053	0.0175574
725.131	0.0175506
725.209	0.0175515
725.288	0.0174966
725.366	0.0173566
725.444	0.0174984
725.522	0.0174769
725.600	0.0172970
725.678	0.0173727
725.756	0.0174893
725.834	0.0174766
725.913	0.0174908
725.991	0.0176688
726.069	0.0176138
726.147	0.0177237
726.225	0.0178367
726.303	0.0178642
726.381	0.0178649
726.459	0.0179060
726.538	0.0179082
726.616	0.0179339
726.694	0.0179351
726.772	0.0178073
726.850	0.0177835
726.928	0.0177170
727.006	0.0174599
727.084	0.0172982
727.163	0.0171693
727.241	0.0171278
727.319	0.0169949
727.397	0.0166329
727.475	0.0165598
727.553	0.0165488
727.631	0.0164095
727.709	0.0162625
727.788	0.0163308
727.866	0.0162663
727.944	0.0162570
728.022	0.0161626
728.100	0.0162449
728.178	0.0163905
728.256	0.0162851
728.334	0.0162957
728.413	0.0163152
728.491	0.0163394
728.569	0.0163227
728.647	0.0165167
728.725	0.0164845
728.803	0.0165115
728.881	0.0165281
728.959	0.0164991
729.038	0.0165446
729.116	0.0165000
729.194	0.0165420
729.272	0.0164705
729.350	0.0165517
729.428	0.0163420
729.506	0.0162878
729.584	0.0163054
729.663	0.0161670
729.741	0.0160487
729.819	0.0160997
729.897	0.0158452
729.975	0.0158377
730.053	0.0158820
730.131	0.0157072
730.209	0.0156879
730.288	0.0156115
730.366	0.0155242
730.444	0.0155167
730.522	0.0154489
730.600	0.0154219
730.678	0.0156384
730.756	0.0157341
730.834	0.0157389
730.913	0.0159274
730.991	0.0160414
731.069	0.0163068
731.147	0.0161473
731.225	0.0161139
731.303	0.0165755
731.381	0.0164264
731.459	0.0164805
731.538	0.0166944
731.616	0.0166494
731.694	0.0165604
731.772	0.0165779
731.850	0.0166599
731.928	0.0165714
732.006	0.0165129
732.084	0.0165358
732.163	0.0166544
732.241	0.0164549
732.319	0.0164406
732.397	0.0166296
732.475	0.0167568
732.553	0.0168686
732.631	0.0168388
732.709	0.0170111
732.788	0.0172123
732.866	0.0174911
732.944	0.0177837
733.022	0.0179157
733.100	0.0178756
733.178	0.0181255
733.256	0.0182594
733.334	0.0183723
733.413	0.0183564
733.491	0.0182371
733.569	0.0183339
733.647	0.0180553
733.725	0.0180801
733.803	0.0179585
733.881	0.0177850
733.959	0.0177888
734.038	0.0175214
734.116	0.0173190
734.194	0.0173486
734.272	0.0170695
734.350	0.0167956
734.428	0.0166907
734.506	0.0166615
734.584	0.0165488
734.663	0.0164415
734.741	0.0163817
734.819	0.0162951
734.897	0.0163503
734.975	0.0163277
735.053	0.0164758
735.131	0.0164938
735.209	0.0164587
735.288	0.0166096
735.366	0.0165318
735.444	0.0165691
735.522	0.0167184
735.600	0.0165907
735.678	0.0167512
735.756	0.0168085
735.834	0.0165775
735.913	0.0165446
735.991	0.0164967
736.069	0.0166100
736.147	0.0165177
736.225	0.0163551
736.303	0.0163404
736.381	0.0161460
736.459	0.0162036
736.538	0.0160977
736.616	0.0160096
736.694	0.0160396
736.772	0.0159777
736.850	0.0159834
736.928	0.0158897
737.006	0.0159683
737.084	0.0159643
737.163	0.0158794
737.241	0.0159550
737.319	0.0160345
737.397	0.0158611
737.475	0.0158975
737.553	0.0159673
737.631	0.0159289
737.709	0.0160477
737.788	0.0161823
737.866	0.0160915
737.944	0.0160896
738.022	0.0162031
738.100	0.0162814
738.178	0.0164779
738.256	0.0163618
738.334	0.0163520
738.413	0.0164423
738.491	0.0163810
738.569	0.0163908
738.647	0.0166228
738.725	0.0165646
738.803	0.0164191
738.881	0.0162851
738.959	0.0161421
739.038	0.0163078
739.116	0.0162814
739.194	0.0161003
739.272	0.0161625
739.350	0.0162305
739.428	0.0162760
739.506	0.0163825
739.584	0.0165606
739.663	0.0167402
739.741	0.0168797
739.819	0.0170697
739.897	0.0172280
739.975	0.0172296
740.053	0.0174466
740.131	0.0176357
740.209	0.0177499
740.288	0.0177657
740.366	0.0177794
740.444	0.0176897
740.522	0.0177633
740.600	0.0176484
740.678	0.0175935
740.756	0.0175781
740.834	0.0175043
740.913	0.0171969
740.991	0.0172856
741.069	0.0172923
741.147	0.0171450
741.225	0.0170524
741.303	0.0171667
741.381	0.0170624
741.459	0.0170245
741.538	0.0170813
741.616	0.0169607
741.694	0.0169189
741.772	0.0169608
741.850	0.0171815
741.928	0.0169492
742.006	0.0170995
742.084	0.0171155
742.163	0.0169527
742.241	0.0170457
742.319	0.0171774
742.397	0.0171828
742.475	0.0169128
742.553	0.0170250
742.631	0.0169576
742.709	0.0169620
742.788	0.0168063
742.866	0.0168436
742.944	0.0167171
743.022	0.0165974
743.100	0.0165340
743.178	0.0164969
743.256	0.0164335
743.334	0.0162977
743.413	0.0162882
743.491	0.0160861
743.569	0.0160891
743.647	0.0161360
743.725	0.0159404
743.803	0.0159150
743.881	0.0158452
743.959	0.0157407
744.038	0.0157137
744.116	0.0156033
744.194	0.0157144
744.272	0.0156760
744.350	0.0157999
744.428	0.0159119
744.506	0.0157390
744.584	0.0158144
744.663	0.0159368
744.741	0.0159771
744.819	0.0160004
744.897	0.0160777
744.975	0.0163644
745.053	0.0162967
745.131	0.0163754
745.209	0.0164173
745.288	0.0166007
745.366	0.0164420
745.444	0.0165337
745.522	0.0165188
745.600	0.0165337
745.678	0.0166140
745.756	0.0166115
745.834	0.0165740
745.913	0.0166881
745.991	0.0167097
746.069	0.0167097
746.147	0.0167933
746.225	0.0167358
746.303	0.0167725
746.381	0.0169308
746.459	0.0169005
746.538	0.0168354
746.616	0.0169743
746.694	0.0169221
746.772	0.0169072
746.850	0.0169839
746.928	0.0170350
747.006	0.0168259
747.084	0.0168539
747.163	0.0169283
747.241	0.0168384
747.319	0.0167078
747.397	0.0169069
747.475	0.0167686
747.553	0.0166705
747.631	0.0164835
747.709	0.0165763
747.788	0.0166620
747.866	0.0165415
747.944	0.0165887
748.022	0.0166368
748.100	0.0167922
748.178	0.0167683
748.256	0.0166212
748.334	0.0168340
748.413	0.0168884
748.491	0.0169360
748.569	0.0171056
748.647	0.0168505
748.725	0.0170706
748.803	0.0172288
748.881	0.0171569
748.959	0.0173046
749.038	0.0173059
749.116	0.0172083
749.194	0.0173147
749.272	0.0173003
749.350	0.0174197
749.428	0.0173064
749.506	0.0174478
749.584	0.0175008
749.663	0.0174898
749.741	0.0173904
749.819	0.0173927
749.897	0.0174759
749.975	0.0173534
750.053	0.0172594
750.131	0.0172659
750.209	0.0171004
750.288	0.0170410
750.366	0.0168544
750.444	0.0168089
750.522	0.0167734
750.600	0.0166425
750.678	0.0164389
750.756	0.0164392
750.834	0.0163602
750.913	0.0162476
750.991	0.0161977
751.069	0.0159789
751.147	0.0159020
751.225	0.0159174
751.303	0.0157670
751.381	0.0158308
751.459	0.0157360
751.538	0.0156766
751.616	0.0156353
751.694	0.0157142
751.772	0.0156352
751.850	0.0156129
751.928	0.0155915
752.006	0.0156802
752.084	0.0157154
752.163	0.0157109
752.241	0.0157159
752.319	0.0155956
752.397	0.0156573
752.475	0.0158157
752.553	0.0157127
752.631	0.0158936
752.709	0.0159776
752.788	0.0162531
752.866	0.0162509
752.944	0.0165076
753.022	0.0166580
753.100	0.0168170
753.178	0.0169073
753.256	0.0171102
753.334	0.0170980
753.413	0.0171310
753.491	0.0171484
753.569	0.0171264
753.647	0.0172434
753.725	0.0172627
753.803	0.0172256
753.881	0.0172348
753.959	0.0171489
754.038	0.0169872
754.116	0.0170829
754.194	0.0169283
754.272	0.0169522
754.350	0.0169788
754.428	0.0169713
754.506	0.0168989
754.584	0.0167858
754.663	0.0169108
754.741	0.0167964
754.819	0.0169581
754.897	0.0169222
754.975	0.0169135
755.053	0.0169542
755.131	0.0168736
755.209	0.0166055
755.288	0.0166264
755.366	0.0165657
755.444	0.0166623
755.522	0.0164629
755.600	0.0164942
755.678	0.0164108
755.756	0.0165260
755.834	0.0165315
755.913	0.0164883
755.991	0.0163727
756.069	0.0164802
756.147	0.0165300
756.225	0.0166033
756.303	0.0165884
756.381	0.0167931
756.459	0.0168603
756.538	0.0168439
756.616	0.0169738
756.694	0.0170113
756.772	0.0171308
756.850	0.0171714
756.928	0.0171127
757.006	0.0171764
757.084	0.0172349
757.163	0.0173072
757.241	0.0171616
757.319	0.0171793
757.397	0.0171571
757.475	0.0171634
757.553	0.0172543
757.631	0.0170493
757.709	0.0171121
757.788	0.0169805
757.866	0.0169097
757.944	0.0170049
758.022	0.0169807
758.100	0.0168867
758.178	0.0167207
758.256	0.0166976
758.334	0.0166553
758.413	0.0166262
758.491	0.0165149
758.569	0.0165107
758.647	0.0164133
758.725	0.0162106
758.803	0.0163417
758.881	0.0163703
758.959	0.0162816
759.038	0.0161230
759.116	0.0161673
759.194	0.0161809
759.272	0.0162112
759.350	0.0162900
759.428	0.0161735
759.506	0.0161791
759.584	0.0161752
759.663	0.0162139
759.741	0.0164202
759.819	0.0162817
759.897	0.0164263
759.975	0.0163217
760.053	0.0163737
760.131	0.0164214
760.209	0.0164375
760.288	0.0163511
760.366	0.0164838
760.444	0.0164530
760.522	0.0164312
760.600	0.0163773
760.678	0.0164808
760.756	0.0163783
760.834	0.0163972
760.913	0.0163240
760.991	0.0162711
761.069	0.0163558
761.147	0.0163049
761.225	0.0162952
761.303	0.0163594
761.381	0.0163055
761.459	0.0164757
761.538	0.0164706
761.616	0.0163474
761.694	0.0163843
761.772	0.0162356
761.850	0.0164894
761.928	0.0165601
762.006	0.0164863
762.084	0.0166415
762.163	0.0165752
762.241	0.0163747
762.319	0.0165561
762.397	0.0164997
762.475	0.0165466
762.553	0.0165891
762.631	0.0166013
762.709	0.0167430
762.788	0.0167037
762.866	0.0167559
762.944	0.0166821
763.022	0.0169924
763.100	0.0168994
763.178	0.0169640
763.256	0.0171999
763.334	0.0171489
763.413	0.0170803
763.491	0.0172080
763.569	0.0174259
763.647	0.0175213
763.725	0.0173790
763.803	0.0175429
763.881	0.0177370
763.959	0.0175925
764.038	0.0176584
764.116	0.0175397
764.194	0.0177578
764.272	0.0175517
764.350	0.0174928
764.428	0.0175840
764.506	0.0175660
764.584	0.0174740
764.663	0.0174892
764.741	0.0172729
764.819	0.0173302
764.897	0.0172216
764.975	0.0170144
765.053	0.0168863
765.131	0.0169244
765.209	0.0168506
765.288	0.0166576
765.366	0.0165352
765.444	0.0165038
765.522	0.0163228
765.600	0.0164265
765.678	0.0162105
765.756	0.0161340
765.834	0.0163157
765.913	0.0162029
765.991	0.0160183
766.069	0.0159311
766.147	0.0161588
766.225	0.0162074
766.303	0.0161246
766.381	0.0160777
766.459	0.0161139
766.538	0.0159409
766.616	0.0161613
766.694	0.0160028
766.772	0.0159936
766.850	0.0161510
766.928	0.0161308
767.006	0.0160171
767.084	0.0160583
767.163	0.0160240
767.241	0.0160156
767.319	0.0159698
767.397	0.0161258
767.475	0.0160246
767.553	0.0160833
767.631	0.0161422
767.709	0.0161940
767.788	0.0161052
767.866	0.0161884
767.944	0.0162708
768.022	0.0162657
768.100	0.0163913
768.178	0.0164763
768.256	0.0164714
768.334	0.0166207
768.413	0.0165376
768.491	0.0166509
768.569	0.0166415
768.647	0.0168141
768.725	0.0166940
768.803	0.0167220
768.881	0.0168284
768.959	0.0167975
769.038	0.0169166
769.116	0.0168747
769.194	0.0169065
769.272	0.0169677
769.350	0.0169407
769.428	0.0169038
769.506	0.0169534
769.584	0.0170973
769.663	0.0170960
769.741	0.0171413
769.819	0.0170485
769.897	0.0168452
769.975	0.0170197
770.053	0.0170712
770.131	0.0170287
770.209	0.0169248
770.288	0.0170576
770.366	0.0170893
770.444	0.0170223
770.522	0.0171062
770.600	0.0170177
770.678	0.0170968
770.756	0.0169629
770.834	0.0170514
770.913	0.0170805
770.991	0.0170689
771.069	0.0170833
771.147	0.0169881
771.225	0.0171050
771.303	0.0170526
771.381	0.0168780
771.459	0.0171175
771.538	0.0169829
771.616	0.0168636
771.694	0.0168272
771.772	0.0168851
771.850	0.0167073
771.928	0.0167024
772.006	0.0164603
772.084	0.0164934
772.163	0.0165730
772.241	0.0163674
772.319	0.0163898
772.397	0.0163679
772.475	0.0161906
772.553	0.0162457
772.631	0.0163982
772.709	0.0163182
772.788	0.0162646
772.866	0.0163702
772.944	0.0162882
773.022	0.0164036
773.100	0.0163593
773.178	0.0163975
773.256	0.0164925
773.334	0.0165613
773.413	0.0164841
773.491	0.0166028
773.569	0.0164692
773.647	0.0166759
773.725	0.0167325
773.803	0.0168040
773.881	0.0166250
773.959	0.0164705
774.038	0.0165054
774.116	0.0165149
774.194	0.0166429
774.272	0.0163050
774.350	0.0164526
774.428	0.0166179
774.506	0.0163947
774.584	0.0164391
774.663	0.0165790
774.741	0.0164375
774.819	0.0164660
774.897	0.0167441
774.975	0.0166076
775.053	0.0165578
775.131	0.0167282
775.209	0.0167821
775.288	0.0167320
775.366	0.0169006
775.444	0.0168415
775.522	0.0168659
775.600	0.0169807
775.678	0.0167792
775.756	0.0169904
775.834	0.0168319
775.913	0.0169904
775.991	0.0169634
776.069	0.0169800
776.147	0.0169133
776.225	0.0169680
776.303	0.0168166
776.381	0.0168507
776.459	0.0167181
776.538	0.0167484
776.616	0.0166154
776.694	0.0166336
776.772	0.0165677
776.850	0.0164799
776.928	0.0164059
777.006	0.0164339
777.084	0.0161121
777.163	0.0162440
777.241	0.0164881
777.319	0.0162868
777.397	0.0162627
777.475	0.0162849
777.553	0.0161867
777.631	0.0161916
777.709	0.0161380
777.788	0.0162478
777.866	0.0161526
777.944	0.0160211
778.022	0.0163078
778.100	0.0163051
778.178	0.0164209
778.256	0.0164254
778.334	0.0166541
778.413	0.0165273
778.491	0.0163435
778.569	0.0164653
778.647	0.0167013
778.725	0.0164504
778.803	0.0166844
778.881	0.0167381
778.959	0.0168392
779.038	0.0167454
779.116	0.0168243
779.194	0.0168839
779.272	0.0167881
779.350	0.0170090
779.428	0.0169559
779.506	0.0170260
779.584	0.0170780
779.663	0.0171567
779.741	0.0172729
779.819	0.0173240
779.897	0.0172549
779.975	0.0173769
780.053	0.0171559
780.131	0.0172730
780.209	0.0173535
780.288	0.0172013
780.366	0.0172389
780.444	0.0172429
780.522	0.0172163
780.600	0.0170436
780.678	0.0169429
780.756	0.0169832
780.834	0.0169357
780.913	0.0166607
780.991	0.0166991
781.069	0.0166729
781.147	0.0167736
781.225	0.0165344
781.303	0.0164419
781.381	0.0163839
781.459	0.0165492
781.538	0.0164697
781.616	0.0164435
781.694	0.0163667
781.772	0.0164344
781.850	0.0165356
781.928	0.0163684
782.006	0.0164619
782.084	0.0164026
782.163	0.0164114
782.241	0.0164242
782.319	0.0165875
782.397	0.0163768
782.475	0.0165632
782.553	0.0165358
782.631	0.0165372
782.709	0.0164710
782.788	0.0166700
782.866	0.0166273
782.944	0.0166126
783.022	0.0167000
783.100	0.0167076
783.178	0.0164817
783.256	0.0164143
783.334	0.0165961
783.413	0.0165617
783.491	0.0164864
783.569	0.0164949
783.647	0.0162920
783.725	0.0163759
783.803	0.0163493
783.881	0.0162216
783.959	0.0162409
784.038	0.0161767
784.116	0.0162086
784.194	0.0161109
784.272	0.0161888
784.350	0.0159966
784.428	0.0160651
784.506	0.0160647
784.584	0.0161128
784.663	0.0162317
784.741	0.0163041
784.819	0.0163564
784.897	0.0163466
784.975	0.0162299
785.053	0.0163386
785.131	0.0164433
785.209	0.0165157
785.288	0.0165798
785.366	0.0165964
785.444	0.0166018
785.522	0.0167157
785.600	0.0168299
785.678	0.0166406
785.756	0.0166148
785.834	0.0166470
785.913	0.0166713
785.991	0.0168420
786.069	0.0168497
786.147	0.0167678
786.225	0.0169109
786.303	0.0169641
786.381	0.0171177
786.459	0.0171503
786.538	0.0171977
786.616	0.0172617
786.694	0.0173987
786.772	0.0174395
786.850	0.0176337
786.928	0.0174826
787.006	0.0174872
787.084	0.0175568
787.163	0.0174853
787.241	0.0174918
787.319	0.0173653
787.397	0.0173847
787.475	0.0175199
787.553	0.0173418
787.631	0.0172543
787.709	0.0172065
787.788	0.0171378
787.866	0.0170152
787.944	0.0170850
788.022	0.0168977
788.100	0.0168010
788.178	0.0168356
788.256	0.0167447
788.334	0.0166393
788.413	0.0166038
788.491	0.0166828
788.569	0.0166702
788.647	0.0166269
788.725	0.0165585
788.803	0.0166570
788.881	0.0166289
788.959	0.0165780
789.038	0.0165730
789.116	0.0165029
789.194	0.0165166
789.272	0.0165545
789.350	0.0164420
789.428	0.0166444
789.506	0.0165239
789.584	0.0165116
789.663	0.0165134
789.741	0.0166043
789.819	0.0165683
789.897	0.0164683
789.975	0.0164423
790.053	0.0165553
790.131	0.0164417
790.209	0.0164212
790.288	0.0164545
790.366	0.0163143
790.444	0.0162009
790.522	0.0162708
790.600	0.0162125
790.678	0.0161468
790.756	0.0161200
790.834	0.0161566
790.913	0.0160886
790.991	0.0161069
791.069	0.0161148
791.147	0.0160065
791.225	0.0160872
791.303	0.0160400
791.381	0.0161150
791.459	0.0160957
791.538	0.0162316
791.616	0.0163166
791.694	0.0162986
791.772	0.0161340
791.850	0.0162803
791.928	0.0164190
792.006	0.0163663
792.084	0.0163654
792.163	0.0163734
792.241	0.0163584
792.319	0.0164584
792.397	0.0163902
792.475	0.0164619
792.553	0.0165594
792.631	0.0166896
792.709	0.0166334
792.788	0.0167360
792.866	0.0167262
792.944	0.0168089
793.022	0.0167944
793.100	0.0169078
793.178	0.0170195
793.256	0.0170898
793.334	0.0171339
793.413	0.0172673
793.491	0.0172997
793.569	0.0173833
793.647	0.0174438
793.725	0.0173339
793.803	0.0173750
793.881	0.0174574
793.959	0.0176382
794.038	0.0176485
794.116	0.0174490
794.194	0.0174445
794.272	0.0175191
794.350	0.0175347
794.428	0.0173263
794.506	0.0172744
794.584	0.0172306
794.663	0.0171401
794.741	0.0171021
794.819	0.0168542
794.897	0.0168713
794.975	0.0169809
795.053	0.0167081
795.131	0.0166544
795.209	0.0165946
795.288	0.0166808
795.366	0.0166354
795.444	0.0167398
795.522	0.0168768
795.600	0.0167466
795.678	0.0168779
795.756	0.0167679
795.834	0.0168259
795.913	0.0167816
795.991	0.0167025
796.069	0.0168605
796.147	0.0167374
796.225	0.0168843
796.303	0.0167722
796.381	0.0169350
796.459	0.0169211
796.538	0.0169097
796.616	0.0168013
796.694	0.0168355
796.772	0.0167532
796.850	0.0166291
796.928	0.0165648
797.006	0.0165461
797.084	0.0164869
797.163	0.0162895
797.241	0.0163822
797.319	0.0163481
797.397	0.0161806
797.475	0.0162325
797.553	0.0161308
797.631	0.0160703
797.709	0.0160233
797.788	0.0160138
797.866	0.0158894
797.944	0.0158385
798.022	0.0159032
798.100	0.0158886
798.178	0.0159399
798.256	0.0159744
798.334	0.0159547
798.413	0.0159674
798.491	0.0159881
798.569	0.0161060
798.647	0.0161256
798.725	0.0160526
798.803	0.0160982
798.881	0.0161479
798.959	0.0162340
799.038	0.0161777
799.116	0.0161598
799.194	0.0163612
799.272	0.0162818
799.350	0.0164021
799.428	0.0163799
799.506	0.0165636
799.584	0.0167012
799.663	0.0168214
799.741	0.0168793
799.819	0.0169895
799.897	0.0170353
799.975	0.0171162
800.053	0.0172459
800.131	0.0170965
800.209	0.0172187
800.288	0.0174711
800.366	0.0173193
800.444	0.0173062
800.522	0.0172858
800.600	0.0174785
800.678	0.0172575
800.756	0.0173869
800.834	0.0172981
800.913	0.0172250
800.991	0.0173691
801.069	0.0172657
801.147	0.0171552
801.225	0.0170746
801.303	0.0170788
801.381	0.0170224
801.459	0.0170611
801.538	0.0169777
801.616	0.0167481
801.694	0.0167831
801.772	0.0168523
801.850	0.0168095
801.928	0.0166727
802.006	0.0165839
802.084	0.0167845
802.163	0.0166515
802.241	0.0167154
802.319	0.0168056
802.397	0.0166898
802.475	0.0167195
802.553	0.0167324
802.631	0.0166793
802.709	0.0167376
802.788	0.0168880
802.866	0.0167558
802.944	0.0167728
803.022	0.0168604
803.100	0.0170097
803.178	0.0169756
803.256	0.0168774
803.334	0.0169260
803.413	0.0169707
803.491	0.0169373
803.569	0.0166709
803.647	0.0167968
803.725	0.0167325
803.803	0.0166327
803.881	0.0167098
803.959	0.0167516
804.038	0.0165533
804.116	0.0165437
804.194	0.0164172
804.272	0.0162590
804.350	0.0162925
804.428	0.0163480
804.506	0.0161504
804.584	0.0161021
804.663	0.0161329
804.741	0.0160662
804.819	0.0159643
804.897	0.0159225
804.975	0.0160780
805.053	0.0159730
805.131	0.0161283
805.209	0.0160617
805.288	0.0161250
805.366	0.0160049
805.444	0.0159965
805.522	0.0162393
805.600	0.0162961
805.678	0.0162653
805.756	0.0162933
805.834	0.0163026
805.913	0.0162688
805.991	0.0163885
806.069	0.0163493
806.147	0.0163898
806.225	0.0163267
806.303	0.0165148
806.381	0.0163725
806.459	0.0165438
806.538	0.0164790
806.616	0.0165503
806.694	0.0167240
806.772	0.0166448
806.850	0.0166782
806.928	0.0169080
807.006	0.0167734
807.084	0.0169855
807.163	0.0167947
807.241	0.0168684
807.319	0.0168915
807.397	0.0169010
807.475	0.0169924
807.553	0.0170698
807.631	0.0170985
807.709	0.0170454
807.788	0.0168630
807.866	0.0169601
807.944	0.0171403
808.022	0.0169661
808.100	0.0169124
808.178	0.0169015
808.256	0.0169542
808.334	0.0167943
808.413	0.0169125
808.491	0.0169267
808.569	0.0169061
808.647	0.0168827
808.725	0.0168556
808.803	0.0167697
808.881	0.0168327
808.959	0.0168866
809.038	0.0168324
809.116	0.0170218
809.194	0.0169366
809.272	0.0169175
809.350	0.0168056
809.428	0.0169171
809.506	0.0170570
809.584	0.0169928
809.663	0.0169550
809.741	0.0170276
809.819	0.0169490
809.897	0.0169349
809.975	0.0170029
810.053	0.0167831
810.131	0.0168549
810.209	0.0168780
810.288	0.0167274
810.366	0.0167892
810.444	0.0166929
810.522	0.0167963
810.600	0.0166058
810.678	0.0165817
810.756	0.0166364
810.834	0.0166371
810.913	0.0166788
810.991	0.0163972
811.069	0.0164851
811.147	0.0165497
811.225	0.0166841
811.303	0.0164635
811.381	0.0165877
811.459	0.0166029
811.538	0.0165816
811.616	0.0165377
811.694	0.0164755
811.772	0.0164661
811.850	0.0163582
811.928	0.0164615
812.006	0.0164481
812.084	0.0164590
812.163	0.0164555
812.241	0.0162623
812.319	0.0162788
812.397	0.0163308
812.475	0.0163931
812.553	0.0163995
812.631	0.0163366
812.709	0.0163416
812.788	0.0163384
812.866	0.0163904
812.944	0.0164407
813.022	0.0164098
813.100	0.0165598
813.178	0.0162743
813.256	0.0163802
813.334	0.0164939
813.413	0.0165252
813.491	0.0164978
813.569	0.0164988
813.647	0.0165789
813.725	0.0163442
813.803	0.0164769
813.881	0.0165122
813.959	0.0165456
814.038	0.0165450
814.116	0.0163913
814.194	0.0164807
814.272	0.0164847
814.350	0.0165560
814.428	0.0164552
814.506	0.0166282
814.584	0.0165086
814.663	0.0165854
814.741	0.0166033
814.819	0.0166238
814.897	0.0166537
814.975	0.0166733
815.053	0.0167651
815.131	0.0167840
815.209	0.0168590
815.288	0.0168356
815.366	0.0169123
815.444	0.0168497
815.522	0.0169474
815.600	0.0169814
815.678	0.0170159
815.756	0.0170249
815.834	0.0170504
815.913	0.0169720
815.991	0.0170618
816.069	0.0170206
816.147	0.0170328
816.225	0.0170740
816.303	0.0169939
816.381	0.0170324
816.459	0.0171545
816.538	0.0170932
816.616	0.0169924
816.694	0.0169073
816.772	0.0170409
816.850	0.0170731
816.928	0.0170441
817.006	0.0169566
817.084	0.0170050
817.163	0.0168713
817.241	0.0169297
817.319	0.0169021
817.397	0.0169512
817.475	0.0167638
817.553	0.0167252
817.631	0.0167331
817.709	0.0167223
817.788	0.0167731
817.866	0.0165305
817.944	0.0164841
818.022	0.0164472
818.100	0.0165768
818.178	0.0165733
818.256	0.0164359
818.334	0.0163960
818.413	0.0164488
818.491	0.0165309
818.569	0.0164594
818.647	0.0165331
818.725	0.0164680
818.803	0.0163512
818.881	0.0164737
818.959	0.0164207
819.038	0.0163383
819.116	0.0164498
819.194	0.0163278
819.272	0.0163952
819.350	0.0163586
819.428	0.0162524
819.506	0.0163556
819.584	0.0165601
819.663	0.0163560
819.741	0.0164677
819.819	0.0163864
819.897	0.0165681
819.975	0.0164970
820.053	0.0167564
820.131	0.0166453
820.209	0.0165772
820.288	0.0165860
820.366	0.0165819
820.444	0.0167290
820.522	0.0167232
820.600	0.0167573
820.678	0.0166931
820.756	0.0167645
820.834	0.0166713
820.913	0.0166885
820.991	0.0166093
821.069	0.0167379
821.147	0.0165637
821.225	0.0166830
821.303	0.0167804
821.381	0.0165884
821.459	0.0166874
821.538	0.0167374
821.616	0.0165672
821.694	0.0166022
821.772	0.0166863
821.850	0.0167412
821.928	0.0165501
822.006	0.0166402
822.084	0.0168127
822.163	0.0167543
822.241	0.0165732
822.319	0.0167612
822.397	0.0168835
822.475	0.0167055
822.553	0.0167509
822.631	0.0167949
822.709	0.0169373
822.788	0.0168507
822.866	0.0167995
822.944	0.0169724
823.022	0.0169033
823.100	0.0168660
823.178	0.0169371
823.256	0.0168620
823.334	0.0169265
823.413	0.0169374
823.491	0.0167619
823.569	0.0168917
823.647	0.0169459
823.725	0.0169104
823.803	0.0168452
823.881	0.0168433
823.959	0.0168912
824.038	0.0168279
824.116	0.0168459
824.194	0.0168881
824.272	0.0167612
824.350	0.0169518
824.428	0.0168243
824.506	0.0166613
824.584	0.0167616
824.663	0.0169756
824.741	0.0167681
824.819	0.0167194
824.897	0.0168359
824.975	0.0167529
825.053	0.0168303
825.131	0.0167268
825.209	0.0167411
825.288	0.0166373
825.366	0.0166783
825.444	0.0168122
825.522	0.0167628
825.600	0.0165882
825.678	0.0166320
825.756	0.0166228
825.834	0.0166964
825.913	0.0165833
825.991	0.0165842
826.069	0.0165990
826.147	0.0166150
826.225	0.0164832
826.303	0.0164505
826.381	0.0165034
826.459	0.0166481
826.538	0.0165687
826.616	0.0165563
826.694	0.0166351
826.772	0.0166658
826.850	0.0165240
826.928	0.0166212
827.006	0.0165746
827.084	0.0165769
827.163	0.0166029
827.241	0.0166962
827.319	0.0165135
827.397	0.0165485
827.475	0.0166228
827.553	0.0167316
827.631	0.0166101
827.709	0.0167199
827.788	0.0166584
827.866	0.0166331
827.944	0.0166157
828.022	0.0167977
828.100	0.0168430
828.178	0.0165012
828.256	0.0165664
828.334	0.0166820
828.413	0.0166872
828.491	0.0166080
828.569	0.0165697
828.647	0.0165554
828.725	0.0165478
828.803	0.0165602
828.881	0.0165409
828.959	0.0165591
829.038	0.0165127
829.116	0.0166774
829.194	0.0166748
829.272	0.0167531
829.350	0.0167352
829.428	0.0167071
829.506	0.0166843
829.584	0.0167735
829.663	0.0170164
829.741	0.0168491
829.819	0.0169028
829.897	0.0168279
829.975	0.0170156
830.053	0.0169244
830.131	0.0170000
830.209	0.0169888
830.288	0.0169781
830.366	0.0169107
830.444	0.0168550
830.522	0.0168915
830.600	0.0167850
830.678	0.0167183
830.756	0.0168050
830.834	0.0167096
830.913	0.0166695
830.991	0.0166901
831.069	0.0166634
831.147	0.0166874
831.225	0.0165160
831.303	0.0165738
831.381	0.0164481
831.459	0.0166113
831.538	0.0164664
831.616	0.0164265
831.694	0.0164769
831.772	0.0164690
831.850	0.0164885
831.928	0.0165874
832.006	0.0165147
832.084	0.0166116
832.163	0.0166734
832.241	0.0166032
832.319	0.0165696
832.397	0.0166745
832.475	0.0165729
832.553	0.0166494
832.631	0.0166187
832.709	0.0166190
832.788	0.0166764
832.866	0.0165602
832.944	0.0166114
833.022	0.0166499
833.100	0.0166748
833.178	0.0167296
833.256	0.0167473
833.334	0.0167882
833.413	0.0166528
833.491	0.0167342
833.569	0.0166213
833.647	0.0168204
833.725	0.0167066
833.803	0.0167165
833.881	0.0167562
833.959	0.0166910
834.038	0.0167658
834.116	0.0167066
834.194	0.0166663
834.272	0.0167992
834.350	0.0168131
834.428	0.0167242
834.506	0.0167962
834.584	0.0167494
834.663	0.0167260
834.741	0.0167846
834.819	0.0167419
834.897	0.0167513
834.975	0.0167502
835.053	0.0168139
835.131	0.0166168
835.209	0.0165571
835.288	0.0165785
835.366	0.0166515
835.444	0.0165665
835.522	0.0166434
835.600	0.0164986
835.678	0.0165633
835.756	0.0165688
835.834	0.0167519
835.913	0.0166843
835.991	0.0167452
836.069	0.0167500
836.147	0.0167581
836.225	0.0169189
836.303	0.0167068
836.381	0.0167271
836.459	0.0167152
836.538	0.0166415
836.616	0.0167539
836.694	0.0166690
836.772	0.0166817
836.850	0.0166629
836.928	0.0165333
837.006	0.0166416
837.084	0.0164889
837.163	0.0164834
837.241	0.0165873
837.319	0.0166922
837.397	0.0164581
837.475	0.0165407
837.553	0.0166759
837.631	0.0166360
837.709	0.0166451
837.788	0.0165921
837.866	0.0164317
837.944	0.0167104
838.022	0.0166492
838.100	0.0166589
838.178	0.0166402
838.256	0.0166125
838.334	0.0166662
838.413	0.0165401
838.491	0.0165086
838.569	0.0167365
838.647	0.0165842
838.725	0.0165585
838.803	0.0166143
838.881	0.0165466
838.959	0.0164883
839.038	0.0165171
839.116	0.0164184
839.194	0.0164680
839.272	0.0165543
839.350	0.0165929
839.428	0.0165152
839.506	0.0165607
839.584	0.0165578
839.663	0.0166168
839.741	0.0166341
839.819	0.0167517
839.897	0.0168239
839.975	0.0167368
840.053	0.0168627
840.131	0.0167393
840.209	0.0169683
840.288	0.0167521
840.366	0.0169169
840.444	0.0170727
840.522	0.0170075
840.600	0.0170349
840.678	0.0168516
840.756	0.0169876
840.834	0.0169096
840.913	0.0169933
840.991	0.0169454
841.069	0.0168972
841.147	0.0168761
841.225	0.0167412
841.303	0.0167874
841.381	0.0167435
841.459	0.0166839
841.538	0.0165281
841.616	0.0165500
841.694	0.0167339
841.772	0.0166608
841.850	0.0165968
841.928	0.0166507
842.006	0.0166694
842.084	0.0166521
842.163	0.0168195
842.241	0.0169123
842.319	0.0167965
842.397	0.0167701
842.475	0.0165469
842.553	0.0165871
842.631	0.0165720
842.709	0.0165907
842.788	0.0164511
842.866	0.0163676
842.944	0.0162984
843.022	0.0163808
843.100	0.0163609
843.178	0.0164783
843.256	0.0164370
843.334	0.0163914
843.413	0.0166499
843.491	0.0167254
843.569	0.0167692
843.647	0.0169077
843.725	0.0168893
843.803	0.0170060
843.881	0.0169262
843.959	0.0170663
844.038	0.0169750
844.116	0.0169256
844.194	0.0168433
844.272	0.0169347
844.350	0.0166947
844.428	0.0167694
844.506	0.0167244
844.584	0.0166448
844.663	0.0165910
844.741	0.0165643
844.819	0.0167343
844.897	0.0166648
844.975	0.0166068
845.053	0.0166156
845.131	0.0164912
845.209	0.0165292
845.288	0.0164841
845.366	0.0164955
845.444	0.0163956
845.522	0.0164350
845.600	0.0163771
845.678	0.0162777
845.756	0.0163263
845.834	0.0164204
845.913	0.0163432
845.991	0.0162931
846.069	0.0163930
846.147	0.0165139
846.225	0.0163054
846.303	0.0164175
846.381	0.0165626
846.459	0.0163615
846.538	0.0165063
846.616	0.0164620
846.694	0.0164263
846.772	0.0165945
846.850	0.0166985
846.928	0.0166825
847.006	0.0165694
847.084	0.0165868
847.163	0.0167683
847.241	0.0166927
847.319	0.0165836
847.397	0.0166713
847.475	0.0167689
847.553	0.0167998
847.631	0.0167627
847.709	0.0167948
847.788	0.0169549
847.866	0.0170286
847.944	0.0169746
848.022	0.0169923
848.100	0.0169702
848.178	0.0170797
848.256	0.0171545
848.334	0.0171223
848.413	0.0171062
848.491	0.0172131
848.569	0.0173535
848.647	0.0172763
848.725	0.0171349
848.803	0.0171535
848.881	0.0171828
848.959	0.0171561
849.038	0.0171088
849.116	0.0170099
849.194	0.0168515
849.272	0.0169054
849.350	0.0168048
849.428	0.0166169
849.506	0.0166467
849.584	0.0164906
849.663	0.0167088
849.741	0.0167387
849.819	0.0165530
849.897	0.0165131
849.975	0.0164867
850.053	0.0163396
850.131	0.0164324
850.209	0.0164690
850.288	0.0163909
850.366	0.0163831
850.444	0.0162711
850.522	0.0164277
850.600	0.0164197
850.678	0.0164498
850.756	0.0161681
850.834	0.0163131
850.913	0.0165504
850.991	0.0164058
851.069	0.0164007
851.147	0.0164766
851.225	0.0166419
851.303	0.0164919
851.381	0.0164961
851.459	0.0166235
851.538	0.0167384
851.616	0.0166393
851.694	0.0167635
851.772	0.0168946
851.850	0.0167244
851.928	0.0166788
852.006	0.0166917
852.084	0.0166667
852.163	0.0165493
852.241	0.0166908
852.319	0.0166152
852.397	0.0165556
852.475	0.0167774
852.553	0.0165050
852.631	0.0165224
852.709	0.0163380
852.788	0.0165394
852.866	0.0164591
852.944	0.0165955
853.022	0.0165038
853.100	0.0165266
853.178	0.0166022
853.256	0.0166579
853.334	0.0166161
853.413	0.0166167
853.491	0.0166753
853.569	0.0167296
853.647	0.0167831
853.725	0.0167495
853.803	0.0167506
853.881	0.0168258
853.959	0.0168237
854.038	0.0169907
854.116	0.0168440
854.194	0.0167443
854.272	0.0167932
854.350	0.0167591
854.428	0.0166945
854.506	0.0167678
854.584	0.0167229
854.663	0.0166576
854.741	0.0165766
854.819	0.0167491
854.897	0.0167591
854.975	0.0166842
855.053	0.0166830
855.131	0.0166640
855.209	0.0167025
855.288	0.0167966
855.366	0.0168761
855.444	0.0168767
855.522	0.0169035
855.600	0.0168311
855.678	0.0167954
855.756	0.0168919
855.834	0.0169416
855.913	0.0168111
855.991	0.0167812
856.069	0.0168907
856.147	0.0168181
856.225	0.0166708
856.303	0.0166663
856.381	0.0167429
856.459	0.0166714
856.538	0.0165535
856.616	0.0166409
856.694	0.0166021
856.772	0.0164948
856.850	0.0165128
856.928	0.0163367
857.006	0.0164619
857.084	0.0164275
857.163	0.0163558
857.241	0.0163745
857.319	0.0163768
857.397	0.0164477
857.475	0.0163369
857.553	0.0164087
857.631	0.0164558
857.709	0.0164106
857.788	0.0163669
857.866	0.0165552
857.944	0.0164552
858.022	0.0166427
858.100	0.0166344
858.178	0.0166436
858.256	0.0165850
858.334	0.0167872
858.413	0.0168578
858.491	0.0168176
858.569	0.0168539
858.647	0.0170299
858.725	0.0171140
858.803	0.0168552
858.881	0.0167534
858.959	0.0169930
859.038	0.0169540
859.116	0.0170155
859.194	0.0168312
859.272	0.0167796
859.350	0.0165952
859.428	0.0167295
859.506	0.0166506
859.584	0.0166170
859.663	0.0165665
859.741	0.0165079
859.819	0.0164651
859.897	0.0164329
859.975	0.0163279
860.053	0.0162914
860.131	0.0163663
860.209	0.0163685
860.288	0.0163690
860.366	0.0163884
860.444	0.0164922
860.522	0.0165427
860.600	0.0166008
860.678	0.0166039
860.756	0.0166915
860.834	0.0166920
860.913	0.0169236
860.991	0.0170298
861.069	0.0170268
861.147	0.0171410
861.225	0.0171718
861.303	0.0171063
861.381	0.0170898
861.459	0.0172570
861.538	0.0170338
861.616	0.0169505
861.694	0.0169619
861.772	0.0168517
861.850	0.0166441
861.928	0.0166740
862.006	0.0166953
862.084	0.0165700
862.163	0.0164802
862.241	0.0163688
862.319	0.0162477
862.397	0.0163213
862.475	0.0163548
862.553	0.0164111
862.631	0.0164286
862.709	0.0165025
862.788	0.0165157
862.866	0.0164579
862.944	0.0164729
863.022	0.0166602
863.100	0.0166205
863.178	0.0165460
863.256	0.0164877
863.334	0.0165020
863.413	0.0164907
863.491	0.0165067
863.569	0.0164668
863.647	0.0164137
863.725	0.0165678
863.803	0.0166617
863.881	0.0165636
863.959	0.0167477
864.038	0.0166724
864.116	0.0165744
864.194	0.0166776
864.272	0.0167262
864.350	0.0169047
864.428	0.0168029
864.506	0.0167729
864.584	0.0169338
864.663	0.0168467
864.741	0.0167264
864.819	0.0168329
864.897	0.0168075
864.975	0.0168613
865.053	0.0167681
865.131	0.0167704
865.209	0.0169311
865.288	0.0169292
865.366	0.0169150
865.444	0.0168389
865.522	0.0167893
865.600	0.0167437
865.678	0.0167903
865.756	0.0168401
865.834	0.0166359
865.913	0.0167093
865.991	0.0166957
866.069	0.0164525
866.147	0.0164600
866.225	0.0167165
866.303	0.0165655
866.381	0.0164791
866.459	0.0164594
866.538	0.0166187
866.616	0.0166755
866.694	0.0164909
866.772	0.0164993
866.850	0.0166238
866.928	0.0165720
867.006	0.0165521
867.084	0.0166140
867.163	0.0166135
867.241	0.0167382
867.319	0.0167094
867.397	0.0167410
867.475	0.0167437
867.553	0.0167692
867.631	0.0167856
867.709	0.0168683
867.788	0.0167717
867.866	0.0167551
867.944	0.0168014
868.022	0.0166960
868.100	0.0167484
868.178	0.0167928
868.256	0.0166811
868.334	0.0168674
868.413	0.0168031
868.491	0.0166711
868.569	0.0168243
868.647	0.0169470
868.725	0.0168414
868.803	0.0167497
868.881	0.0167084
868.959	0.0166783
869.038	0.0167342
869.116	0.0166525
869.194	0.0166693
869.272	0.0165668
869.350	0.0165943
869.428	0.0163969
869.506	0.0164622
869.584	0.0163744
869.663	0.0162537
869.741	0.0164580
869.819	0.0163939
869.897	0.0164120
869.975	0.0163688
870.053	0.0163756
870.131	0.0165532
870.209	0.0166830
870.288	0.0166553
870.366	0.0166455
870.444	0.0167133
870.522	0.0167134
870.600	0.0167818
870.678	0.0168666
870.756	0.0167035
870.834	0.0166891
870.913	0.0167729
870.991	0.0167704
871.069	0.0168873
871.147	0.0167126
871.225	0.0166336
871.303	0.0167687
871.381	0.0168410
871.459	0.0168530
871.538	0.0165604
871.616	0.0167992
871.694	0.0169405
871.772	0.0168513
871.850	0.0168240
871.928	0.0169940
872.006	0.0168321
872.084	0.0168978
872.163	0.0169013
872.241	0.0167677
872.319	0.0167237
872.397	0.0168621
872.475	0.0166727
872.553	0.0165989
872.631	0.0167767
872.709	0.0165367
872.788	0.0165437
872.866	0.0165961
872.944	0.0165566
873.022	0.0166341
873.100	0.0165944
873.178	0.0165548
873.256	0.0165998
873.334	0.0166299
873.413	0.0165759
873.491	0.0165182
873.569	0.0165912
873.647	0.0163997
873.725	0.0165518
873.803	0.0166290
873.881	0.0166702
873.959	0.0166255
874.038	0.0166529
874.116	0.0167679
874.194	0.0169331
874.272	0.0168368
874.350	0.0169125
874.428	0.0168630
874.506	0.0169945
874.584	0.0170125
874.663	0.0169338
874.741	0.0170497
874.819	0.0169384
874.897	0.0169205
874.975	0.0165887
875.053	0.0166508
875.131	0.0167310
875.209	0.0165723
875.288	0.0165009
875.366	0.0165273
875.444	0.0163359
875.522	0.0163834
875.600	0.0162120
875.678	0.0163311
875.756	0.0163348
875.834	0.0162368
875.913	0.0163190
875.991	0.0164218
876.069	0.0164464
876.147	0.0165384
876.225	0.0165086
876.303	0.0165314
876.381	0.0165697
876.459	0.0164807
876.538	0.0166497
876.616	0.0166161
876.694	0.0165684
876.772	0.0165885
876.850	0.0165977
876.928	0.0166351
877.006	0.0167043
877.084	0.0167709
877.163	0.0167924
877.241	0.0168085
877.319	0.0168344
877.397	0.0168404
877.475	0.0166879
877.553	0.0166898
877.631	0.0168461
877.709	0.0167014
877.788	0.0168026
877.866	0.0166722
877.944	0.0166962
878.022	0.0167209
878.100	0.0166862
878.178	0.0165621
878.256	0.0166272
878.334	0.0167608
878.413	0.0166361
878.491	0.0167706
878.569	0.0168003
878.647	0.0167580
878.725	0.0167126
878.803	0.0166875
878.881	0.0166119
878.959	0.0167510
879.038	0.0165620
879.116	0.0164935
879.194	0.0166544
879.272	0.0166016
879.350	0.0165474
879.428	0.0167160
879.506	0.0166212
879.584	0.0166737
879.663	0.0167937
879.741	0.0167062
879.819	0.0167854
879.897	0.0166519
879.975	0.0166831
880.053	0.0166115
880.131	0.0166879
880.209	0.0167036
880.288	0.0165424
880.366	0.0165484
880.444	0.0166966
880.522	0.0166502
880.600	0.0167329
880.678	0.0165511
880.756	0.0166322
880.834	0.0166595
880.913	0.0166489
880.991	0.0166724
881.069	0.0166320
881.147	0.0166805
881.225	0.0167747
881.303	0.0166456
881.381	0.0167210
881.459	0.0165048
881.538	0.0166924
881.616	0.0166357
881.694	0.0167200
881.772	0.0165304
881.850	0.0165466
881.928	0.0164875
882.006	0.0166382
882.084	0.0166827
882.163	0.0165696
882.241	0.0166870
882.319	0.0166256
882.397	0.0165826
882.475	0.0166662
882.553	0.0166706
882.631	0.0165974
882.709	0.0165308
882.788	0.0165457
882.866	0.0164931
882.944	0.0164574
883.022	0.0163515
883.100	0.0164217
883.178	0.0162918
883.256	0.0162602
883.334	0.0163857
883.413	0.0164672
883.491	0.0164895
883.569	0.0162936
883.647	0.0163563
883.725	0.0166728
883.803	0.0166415
883.881	0.0166752
883.959	0.0166448
884.038	0.0167784
884.116	0.0169077
884.194	0.0169675
884.272	0.0169164
884.350	0.0168585
884.428	0.0169971
884.506	0.0169964
884.584	0.0169109
884.663	0.0168268
884.741	0.0168795
884.819	0.0169171
884.897	0.0168895
884.975	0.0167970
885.053	0.0167870
885.131	0.0166940
885.209	0.0167016
885.288	0.0166282
885.366	0.0169067
885.444	0.0166787
885.522	0.0167016
885.600	0.0166530
885.678	0.0165092
885.756	0.0165127
885.834	0.0165431
885.913	0.0167336
885.991	0.0166473
886.069	0.0165671
886.147	0.0165150
886.225	0.0165820
886.303	0.0165681
886.381	0.0165527
886.459	0.0166383
886.538	0.0166522
886.616	0.0167602
886.694	0.0167513
886.772	0.0167220
886.850	0.0166545
886.928	0.0167604
887.006	0.0166856
887.084	0.0167354
887.163	0.0167620
887.241	0.0168552
887.319	0.0167562
887.397	0.0167499
887.475	0.0168253
887.553	0.0167220
887.631	0.0167694
887.709	0.0168480
887.788	0.0168233
887.866	0.0168501
887.944	0.0168676
888.022	0.0169625
888.100	0.0168388
888.178	0.0167088
888.256	0.0167261
888.334	0.0166487
888.413	0.0166299
888.491	0.0166703
888.569	0.0167513
888.647	0.0165575
888.725	0.0165429
888.803	0.0164717
888.881	0.0163154
888.959	0.0164429
889.038	0.0165891
889.116	0.0165089
889.194	0.0164058
889.272	0.0163782
889.350	0.0164167
889.428	0.0164036
889.506	0.0163216
889.584	0.0163954
889.663	0.0165195
889.741	0.0164886
889.819	0.0166035
889.897	0.0165903
889.975	0.0167020
890.053	0.0166360
890.131	0.0165472
890.209	0.0166624
890.288	0.0165579
890.366	0.0166628
890.444	0.0167744
890.522	0.0168282
890.600	0.0166872
890.678	0.0168642
890.756	0.0169831
890.834	0.0169911
890.913	0.0169650
890.991	0.0169778
891.069	0.0170486
891.147	0.0170610
891.225	0.0170466
891.303	0.0171654
891.381	0.0169638
891.459	0.0170129
891.538	0.0170052
891.616	0.0169574
891.694	0.0168770
891.772	0.0168109
891.850	0.0167905
891.928	0.0168086
892.006	0.0167556
892.084	0.0167296
892.163	0.0167464
892.241	0.0169273
892.319	0.0167225
892.397	0.0167147
892.475	0.0167042
892.553	0.0166457
892.631	0.0167148
892.709	0.0166257
892.788	0.0165533
892.866	0.0164221
892.944	0.0165612
893.022	0.0164583
893.100	0.0164338
893.178	0.0164503
893.256	0.0165586
893.334	0.0164919
893.413	0.0166720
893.491	0.0165544
893.569	0.0164667
893.647	0.0165130
893.725	0.0165572
893.803	0.0165780
893.881	0.0166104
893.959	0.0165872
894.038	0.0166789
894.116	0.0166991
894.194	0.0166233
894.272	0.0165461
894.350	0.0167013
894.428	0.0166904
894.506	0.0166539
894.584	0.0166257
894.663	0.0166705
894.741	0.0166269
894.819	0.0165067
894.897	0.0165804
894.975	0.0167006
895.053	0.0168496
895.131	0.0166468
895.209	0.0167268
895.288	0.0167254
895.366	0.0166950
895.444	0.0166638
895.522	0.0165850
895.600	0.0165858
895.678	0.0165900
895.756	0.0163870
895.834	0.0164931
895.913	0.0166925
895.991	0.0165563
896.069	0.0166096
896.147	0.0165244
896.225	0.0165327
896.303	0.0165961
896.381	0.0165292
896.459	0.0164154
896.538	0.0165710
896.616	0.0165543
896.694	0.0166428
896.772	0.0165505
896.850	0.0165164
896.928	0.0166346
897.006	0.0166248
897.084	0.0167094
897.163	0.0167880
897.241	0.0167398
897.319	0.0168149
897.397	0.0168744
897.475	0.0168395
897.553	0.0168182
897.631	0.0169733
897.709	0.0170189
897.788	0.0169955
897.866	0.0168206
897.944	0.0169704
898.022	0.0169894
898.100	0.0168607
898.178	0.0169460
898.256	0.0169388
898.334	0.0168406
898.413	0.0168150
898.491	0.0166810
898.569	0.0167564
898.647	0.0167833
898.725	0.0166654
898.803	0.0166947
898.881	0.0165499
898.959	0.0164796
899.038	0.0165900
899.116	0.0164863
899.194	0.0164753
899.272	0.0164625
899.350	0.0165930
899.428	0.0164504
899.506	0.0165759
899.584	0.0166506
899.663	0.0168410
899.741	0.0165206
899.819	0.0165270
899.897	0.0166133
899.975	0.0166641
900.053	0.0166804
900.131	0.0167175
900.209	0.0166352
900.288	0.0165675
900.366	0.0167545
900.444	0.0167187
900.522	0.0166727
900.600	0.0167082
900.678	0.0166905
900.756	0.0167276
900.834	0.0167135
900.913	0.0166730
900.991	0.0166690
901.069	0.0167339
901.147	0.0166607
901.225	0.0166497
901.303	0.0166054
901.381	0.0166885
901.459	0.0165442
901.538	0.0166427
901.616	0.0166183
901.694	0.0164709
901.772	0.0165004
901.850	0.0165548
901.928	0.0166123
902.006	0.0164595
902.084	0.0163218
902.163	0.0165977
902.241	0.0164735
902.319	0.0164590
902.397	0.0163832
902.475	0.0164398
902.553	0.0164696
902.631	0.0165324
902.709	0.0163316
902.788	0.0163755
902.866	0.0165511
902.944	0.0165402
903.022	0.0164340
903.100	0.0164409
903.178	0.0165862
903.256	0.0165202
903.334	0.0166530
903.413	0.0165654
903.491	0.0164140
903.569	0.0165529
903.647	0.0166879
903.725	0.0166478
903.803	0.0166331
903.881	0.0167707
903.959	0.0167194
904.038	0.0168365
904.116	0.0166677
904.194	0.0167354
904.272	0.0167210
904.350	0.0168236
904.428	0.0168771
904.506	0.0168387
904.584	0.0168485
904.663	0.0167718
904.741	0.0167757
904.819	0.0167665
904.897	0.0166037
904.975	0.0169135
905.053	0.0168425
905.131	0.0167225
905.209	0.0167726
905.288	0.0166373
905.366	0.0165618
905.444	0.0164982
905.522	0.0165911
905.600	0.0164149
905.678	0.0165674
905.756	0.0165477
905.834	0.0165582
905.913	0.0166813
905.991	0.0166094
906.069	0.0166348
906.147	0.0166051
906.225	0.0166132
906.303	0.0165952
906.381	0.0164468
906.459	0.0166930
906.538	0.0166738
906.616	0.0165873
906.694	0.0165321
906.772	0.0165954
906.850	0.0166750
906.928	0.0168380
907.006	0.0167109
907.084	0.0168703
907.163	0.0168082
907.241	0.0167882
907.319	0.0169309
907.397	0.0169440
907.475	0.0168562
907.553	0.0167331
907.631	0.0168024
907.709	0.0168735
907.788	0.0168891
907.866	0.0168224
907.944	0.0167945
908.022	0.0167074
908.100	0.0169136
908.178	0.0169018
908.256	0.0167918
908.334	0.0167455
908.413	0.0167146
908.491	0.0164720
908.569	0.0166608
908.647	0.0167420
908.725	0.0166360
908.803	0.0166573
908.881	0.0166448
908.959	0.0165198
909.038	0.0164446
909.116	0.0163805
909.194	0.0164124
909.272	0.0164629
909.350	0.0163974
909.428	0.0164320
909.506	0.0163900
909.584	0.0164548
909.663	0.0164770
909.741	0.0163636
909.819	0.0164149
909.897	0.0163427
909.975	0.0164351
910.053	0.0163769
910.131	0.0164896
910.209	0.0164127
910.288	0.0163508
910.366	0.0162497
910.444	0.0164851
910.522	0.0163996
910.600	0.0166432
910.678	0.0165246
910.756	0.0164217
910.834	0.0165697
910.913	0.0167864
910.991	0.0165989
911.069	0.0166600
911.147	0.0167240
911.225	0.0168308
911.303	0.0167028
911.381	0.0169578
911.459	0.0169630
911.538	0.0168697
911.616	0.0169936
911.694	0.0169887
911.772	0.0169869
911.850	0.0169157
911.928	0.0169631
912.006	0.0168995
912.084	0.0167701
912.163	0.0168514
912.241	0.0167500
912.319	0.0168156
912.397	0.0168400
912.475	0.0167207
912.553	0.0166444
912.631	0.0166469
912.709	0.0166815
912.788	0.0167540
912.866	0.0165662
912.944	0.0167403
913.022	0.0168697
913.100	0.0167001
913.178	0.0167364
913.256	0.0167567
913.334	0.0167679
913.413	0.0168339
913.491	0.0169989
913.569	0.0168883
913.647	0.0169588
913.725	0.0170921
913.803	0.0169647
913.881	0.0169906
913.959	0.0170335
914.038	0.0169446
914.116	0.0169910
914.194	0.0169316
914.272	0.0169904
914.350	0.0169147
914.428	0.0168055
914.506	0.0167910
914.584	0.0167103
914.663	0.0167622
914.741	0.0167190
914.819	0.0165812
914.897	0.0168415
914.975	0.0168143
915.053	0.0165237
915.131	0.0165953
915.209	0.0164939
915.288	0.0165137
915.366	0.0165161
915.444	0.0164445
915.522	0.0164205
915.600	0.0163940
915.678	0.0162950
915.756	0.0164637
915.834	0.0164100
915.913	0.0164241
915.991	0.0163290
916.069	0.0165377
916.147	0.0165157
916.225	0.0164365
916.303	0.0165044
916.381	0.0164832
916.459	0.0163031
916.538	0.0165495
916.616	0.0164813
916.694	0.0163681
916.772	0.0164628
916.850	0.0165437
916.928	0.0165414
917.006	0.0165720
917.084	0.0164655
917.163	0.0165233
917.241	0.0166875
917.319	0.0166467
917.397	0.0166897
917.475	0.0166949
917.553	0.0167558
917.631	0.0168950
917.709	0.0168694
917.788	0.0167199
917.866	0.0167031
917.944	0.0168282
918.022	0.0169228
918.100	0.0169552
918.178	0.0168542
918.256	0.0169657
918.334	0.0169036
918.413	0.0169375
918.491	0.0168890
918.569	0.0169219
918.647	0.0167114
918.725	0.0168305
918.803	0.0168988
918.881	0.0168807
918.959	0.0167990
919.038	0.0167747
919.116	0.0167583
919.194	0.0168134
919.272	0.0168361
919.350	0.0166761
919.428	0.0166744
919.506	0.0167522
919.584	0.0168803
919.663	0.0167935
919.741	0.0167632
919.819	0.0167474
919.897	0.0167580
